##NAMES=Berzeliite
##RRUFFID=R061084
##IDEAL CHEMISTRY=NaCa_2_Mg_2_(As^5+^O_4_)_3_
##LOCALITY=Jakobsberg mine, Nordmark, Filipstad, Varmland, Sweden
##OWNER=RRUFF
##SOURCE=Michael Scott
##DESCRIPTION=Light yellow irregular shaped crystal, associated with colorless tilasite and adelite, R060687
##STATUS=The identification of this mineral is confirmed by single-crystal X-ray diffraction and chemical analysis.
##URL=rruff.info/R061084
##MEASURED CHEMISTRY=(Na_0.92_Ca_0.08_)Ca_2.03_(Mg_1.91_Mn_0.11_)[(As_0.96_Si_0.03_P_0.01_)O_4_]_3_
157.2041, 3652.208
157.6862, 3642.157
158.1683, 3632.223
158.6504, 3628.824
159.1325, 3635.629
159.6146, 3654.048
160.0968, 3682.265
160.5789, 3715.925
161.0610, 3762.071
161.5431, 3831.536
162.0252, 3922.629
162.5073, 4015.207
162.9895, 4096.597
163.4716, 4166.474
163.9537, 4230.425
164.4358, 4283.418
164.9179, 4334.183
165.4000, 4391.147
165.8822, 4454.423
166.3643, 4516.355
166.8464, 4571.596
167.3285, 4620.566
167.8106, 4667.772
168.2927, 4724.725
168.7749, 4773.261
169.2570, 4794.293
169.7391, 4786.258
170.2212, 4764.560
170.7033, 4735.901
171.1854, 4701.748
171.6676, 4667.027
172.1497, 4642.579
172.6318, 4612.897
173.1139, 4551.913
173.5960, 4453.676
174.0781, 4363.243
174.5603, 4320.813
175.0424, 4313.763
175.5245, 4309.066
176.0066, 4305.295
176.4887, 4298.085
176.9708, 4281.438
177.4530, 4254.399
177.9351, 4221.299
178.4172, 4169.354
178.8993, 4112.140
179.3814, 4087.779
179.8635, 4136.627
180.3457, 4211.108
180.8278, 4242.059
181.3099, 4219.796
181.7920, 4188.877
182.2741, 4175.913
182.7562, 4177.611
183.2384, 4191.594
183.7205, 4230.215
184.2026, 4275.896
184.6847, 4300.769
185.1668, 4300.225
185.6489, 4294.331
186.1311, 4297.542
186.6132, 4305.316
187.0953, 4309.325
187.5774, 4304.691
188.0595, 4295.586
188.5416, 4286.392
189.0238, 4275.050
189.5059, 4271.075
189.9880, 4303.594
190.4701, 4347.072
190.9522, 4352.475
191.4343, 4270.427
191.9165, 4155.867
192.3986, 4097.779
192.8807, 4106.087
193.3628, 4134.204
193.8449, 4169.623
194.3270, 4203.678
194.8092, 4219.114
195.2913, 4198.935
195.7734, 4163.191
196.2555, 4144.291
196.7376, 4145.841
197.2197, 4149.927
197.7019, 4149.903
198.1840, 4144.888
198.6661, 4131.458
199.1482, 4101.722
199.6303, 4067.599
200.1124, 4052.355
200.5946, 4062.884
201.0767, 4061.948
201.5588, 4005.864
202.0409, 3928.721
202.5230, 3877.136
203.0051, 3878.123
203.4873, 3898.491
203.9694, 3892.396
204.4515, 3855.270
204.9336, 3815.078
205.4157, 3787.907
205.8978, 3766.214
206.3800, 3739.987
206.8621, 3702.802
207.3442, 3664.352
207.8263, 3642.036
208.3084, 3639.445
208.7905, 3624.571
209.2727, 3559.573
209.7548, 3480.536
210.2369, 3438.560
210.7190, 3463.075
211.2011, 3499.429
211.6832, 3477.285
212.1654, 3391.058
212.6475, 3323.624
213.1296, 3328.852
213.6117, 3366.887
214.0938, 3385.748
214.5760, 3371.829
215.0581, 3349.875
215.5402, 3342.298
216.0223, 3349.231
216.5044, 3360.551
216.9865, 3375.753
217.4687, 3391.470
217.9508, 3402.647
218.4329, 3406.671
218.9150, 3411.749
219.3971, 3426.376
219.8792, 3449.868
220.3614, 3471.010
220.8435, 3484.365
221.3256, 3494.629
221.8077, 3507.985
222.2898, 3524.806
222.7719, 3544.160
223.2541, 3561.258
223.7362, 3578.343
224.2183, 3611.464
224.7004, 3675.932
225.1825, 3747.139
225.6646, 3787.813
226.1468, 3791.910
226.6289, 3801.500
227.1110, 3841.643
227.5931, 3906.590
228.0752, 3979.125
228.5573, 4060.364
229.0395, 4138.689
229.5216, 4191.761
230.0037, 4216.434
230.4858, 4259.054
230.9679, 4357.802
231.4500, 4488.337
231.9322, 4590.831
232.4143, 4645.469
232.8964, 4687.124
233.3785, 4759.712
233.8606, 4861.048
234.3427, 4960.102
234.8249, 5044.334
235.3070, 5121.370
235.7891, 5204.717
236.2712, 5298.896
236.7533, 5391.222
237.2354, 5462.884
237.7176, 5516.307
238.1997, 5578.784
238.6818, 5676.012
239.1639, 5775.746
239.6460, 5834.209
240.1281, 5845.285
240.6103, 5848.672
241.0924, 5884.136
241.5745, 5948.755
242.0566, 5987.836
242.5387, 5993.628
243.0208, 5974.873
243.5030, 5931.476
243.9851, 5865.632
244.4672, 5795.024
244.9493, 5730.289
245.4314, 5672.692
245.9135, 5624.563
246.3957, 5595.568
246.8778, 5567.292
247.3599, 5533.612
247.8420, 5492.599
248.3241, 5436.737
248.8062, 5356.663
249.2884, 5258.690
249.7705, 5181.555
250.2526, 5138.563
250.7347, 5098.586
251.2168, 5057.132
251.6989, 5009.920
252.1811, 4945.101
252.6632, 4854.063
253.1453, 4746.646
253.6274, 4656.794
254.1095, 4596.681
254.5916, 4536.942
255.0738, 4468.674
255.5559, 4398.748
256.0380, 4338.140
256.5201, 4291.395
257.0022, 4252.685
257.4843, 4209.185
257.9665, 4154.108
258.4486, 4104.650
258.9307, 4061.379
259.4128, 4023.939
259.8949, 3992.772
260.3770, 3967.763
260.8592, 3947.531
261.3413, 3931.508
261.8234, 3930.959
262.3055, 3906.950
262.7876, 3828.532
263.2697, 3751.500
263.7519, 3715.782
264.2340, 3724.373
264.7161, 3754.965
265.1982, 3786.600
265.6803, 3823.972
266.1624, 3839.380
266.6446, 3807.121
267.1267, 3779.608
267.6088, 3787.146
268.0909, 3821.620
268.5730, 3853.076
269.0551, 3855.001
269.5373, 3827.737
270.0194, 3817.520
270.5015, 3836.720
270.9836, 3862.404
271.4657, 3896.577
271.9478, 3932.973
272.4300, 3959.847
272.9121, 3967.910
273.3942, 3965.112
273.8763, 3985.654
274.3584, 4046.900
274.8405, 4105.977
275.3227, 4155.192
275.8048, 4196.462
276.2869, 4228.598
276.7690, 4249.243
277.2511, 4271.055
277.7332, 4321.418
278.2154, 4412.252
278.6975, 4496.859
279.1796, 4559.838
279.6617, 4616.316
280.1438, 4673.991
280.6259, 4734.857
281.1081, 4804.637
281.5902, 4900.149
282.0723, 5025.437
282.5544, 5119.825
283.0365, 5139.361
283.5186, 5154.751
284.0008, 5217.242
284.4829, 5325.808
284.9650, 5442.537
285.4471, 5541.661
285.9292, 5626.740
286.4113, 5715.866
286.8935, 5813.372
287.3756, 5910.861
287.8577, 5995.347
288.3398, 6072.882
288.8219, 6165.928
289.3040, 6292.937
289.7862, 6437.100
290.2683, 6572.636
290.7504, 6696.529
291.2325, 6821.562
291.7146, 6960.828
292.1967, 7107.342
292.6789, 7243.709
293.1610, 7364.001
293.6431, 7475.127
294.1252, 7582.343
294.6073, 7685.297
295.0894, 7778.491
295.5716, 7850.831
296.0537, 7917.624
296.5358, 8020.280
297.0179, 8175.127
297.5000, 8335.091
297.9821, 8482.605
298.4643, 8620.729
298.9464, 8754.946
299.4285, 8885.683
299.9106, 9016.333
300.3927, 9155.813
300.8748, 9308.537
301.3570, 9456.994
301.8391, 9590.741
302.3212, 9723.814
302.8033, 9877.338
303.2854, 10053.37
303.7675, 10223.18
304.2497, 10350.19
304.7318, 10413.42
305.2139, 10535.08
305.6960, 10749.97
306.1781, 10983.70
306.6602, 11197.15
307.1424, 11393.73
307.6245, 11599.94
308.1066, 11836.83
308.5887, 12102.08
309.0708, 12357.90
309.5529, 12591.96
310.0351, 12828.76
310.5172, 13063.48
310.9993, 13305.34
311.4814, 13562.11
311.9635, 13835.90
312.4456, 14133.82
312.9278, 14481.81
313.4099, 14911.37
313.8920, 15326.58
314.3741, 15683.68
314.8562, 16041.57
315.3383, 16448.67
315.8205, 16915.04
316.3026, 17410.75
316.7847, 17914.85
317.2668, 18431.44
317.7489, 18916.30
318.2310, 19332.07
318.7132, 19747.81
319.1953, 20191.15
319.6774, 20665.15
320.1595, 21183.64
320.6416, 21780.43
321.1237, 22430.77
321.6059, 23037.74
322.0880, 23596.69
322.5701, 24129.45
323.0522, 24639.90
323.5343, 25137.64
324.0164, 25642.70
324.4986, 26177.17
324.9807, 26708.92
325.4628, 27209.04
325.9449, 27676.80
326.4270, 28099.08
326.9091, 28466.15
327.3913, 28781.75
327.8734, 29063.78
328.3555, 29314.61
328.8376, 29529.43
329.3197, 29713.26
329.8018, 29858.35
330.2840, 29951.88
330.7661, 29989.39
331.2482, 29975.25
331.7303, 29910.15
332.2124, 29784.01
332.6945, 29640.39
333.1767, 29514.71
333.6588, 29350.96
334.1409, 29083.35
334.6230, 28718.37
335.1051, 28330.59
335.5873, 27979.60
336.0694, 27669.06
336.5515, 27343.60
337.0336, 26983.87
337.5157, 26633.44
337.9979, 26308.99
338.4800, 26000.87
338.9621, 25686.38
339.4442, 25352.56
339.9263, 25010.43
340.4084, 24695.38
340.8906, 24404.41
341.3727, 24144.88
341.8548, 23929.64
342.3369, 23733.50
342.8190, 23533.81
343.3011, 23325.92
343.7833, 23126.15
344.2654, 22952.75
344.7475, 22806.93
345.2296, 22674.54
345.7117, 22574.65
346.1938, 22466.54
346.6760, 22324.42
347.1581, 22155.49
347.6402, 21987.05
348.1223, 21830.96
348.6044, 21686.81
349.0865, 21552.00
349.5687, 21424.54
350.0508, 21311.83
350.5329, 21231.24
351.0150, 21164.72
351.4971, 21084.64
351.9792, 20981.22
352.4614, 20872.63
352.9435, 20779.77
353.4256, 20696.57
353.9077, 20592.48
354.3898, 20454.18
354.8719, 20296.95
355.3541, 20147.50
355.8362, 20011.39
356.3183, 19861.53
356.8004, 19685.23
357.2825, 19496.55
357.7646, 19315.64
358.2468, 19143.49
358.7289, 18962.82
359.2110, 18753.30
359.6931, 18512.44
360.1752, 18287.28
360.6573, 18103.67
361.1395, 17908.13
361.6216, 17671.02
362.1037, 17406.57
362.5858, 17142.82
363.0679, 16894.69
363.5500, 16657.31
364.0322, 16415.80
364.5143, 16157.84
364.9964, 15914.44
365.4785, 15695.90
365.9606, 15485.27
366.4427, 15269.30
366.9249, 15045.47
367.4070, 14819.47
367.8891, 14597.47
368.3712, 14378.40
368.8533, 14166.30
369.3354, 13965.06
369.8176, 13765.16
370.2997, 13557.75
370.7818, 13347.77
371.2639, 13149.41
371.7460, 12969.87
372.2281, 12805.86
372.7103, 12655.99
373.1924, 12523.97
373.6745, 12379.41
374.1566, 12201.79
374.6387, 12006.58
375.1208, 11817.51
375.6030, 11631.20
376.0851, 11462.67
376.5672, 11328.12
377.0493, 11215.16
377.5314, 11099.15
378.0135, 10974.30
378.4957, 10844.15
378.9778, 10712.37
379.4599, 10579.28
379.9420, 10444.19
380.4241, 10303.67
380.9063, 10163.78
381.3884, 10029.22
381.8705, 9899.585
382.3526, 9769.460
382.8347, 9634.653
383.3168, 9498.989
383.7990, 9385.427
384.2811, 9296.229
384.7632, 9228.987
385.2453, 9211.722
385.7274, 9201.275
386.2095, 9147.608
386.6917, 9040.442
387.1738, 8922.074
387.6559, 8852.539
388.1380, 8841.354
388.6201, 8813.956
389.1022, 8754.709
389.5844, 8691.321
390.0665, 8631.054
390.5486, 8576.548
391.0307, 8534.573
391.5128, 8513.160
391.9949, 8503.215
392.4771, 8487.926
392.9592, 8466.960
393.4413, 8443.165
393.9234, 8417.072
394.4055, 8388.976
394.8876, 8359.725
395.3698, 8329.627
395.8519, 8297.669
396.3340, 8255.562
396.8161, 8212.882
397.2982, 8191.660
397.7803, 8197.984
398.2625, 8211.964
398.7446, 8213.203
399.2267, 8199.663
399.7088, 8181.276
400.1909, 8160.565
400.6730, 8132.848
401.1552, 8097.019
401.6373, 8052.146
402.1194, 7994.785
402.6015, 7922.721
403.0836, 7839.863
403.5657, 7758.972
404.0479, 7674.650
404.5300, 7601.044
405.0121, 7549.224
405.4942, 7500.228
405.9763, 7437.098
406.4584, 7358.633
406.9406, 7280.047
407.4227, 7221.857
407.9048, 7182.425
408.3869, 7119.549
408.8690, 7017.814
409.3511, 6918.058
409.8333, 6839.036
410.3154, 6776.435
410.7975, 6724.432
411.2796, 6684.359
411.7617, 6649.488
412.2438, 6610.310
412.7260, 6568.549
413.2081, 6537.293
413.6902, 6521.754
414.1723, 6517.223
414.6544, 6518.092
415.1365, 6524.191
415.6187, 6533.089
416.1008, 6543.770
416.5829, 6557.331
417.0650, 6571.991
417.5471, 6589.314
418.0292, 6617.303
418.5114, 6662.978
418.9935, 6724.468
419.4756, 6784.457
419.9577, 6835.967
420.4398, 6895.025
420.9219, 6971.368
421.4041, 7052.775
421.8862, 7122.280
422.3683, 7176.729
422.8504, 7232.976
423.3325, 7315.854
423.8146, 7428.737
424.2968, 7537.823
424.7789, 7638.705
425.2610, 7739.455
425.7431, 7840.023
426.2252, 7943.623
426.7073, 8056.912
427.1895, 8183.805
427.6716, 8320.738
428.1537, 8463.064
428.6358, 8611.166
429.1179, 8756.841
429.6000, 8891.259
430.0822, 9027.897
430.5643, 9194.399
431.0464, 9398.476
431.5285, 9593.069
432.0106, 9756.965
432.4927, 9910.502
432.9749, 10072.87
433.4570, 10245.81
433.9391, 10424.55
434.4212, 10604.51
434.9033, 10786.07
435.3854, 10980.50
435.8676, 11193.78
436.3497, 11411.23
436.8318, 11643.46
437.3139, 11872.05
437.7960, 12070.46
438.2781, 12232.43
438.7603, 12396.00
439.2424, 12620.98
439.7245, 12916.98
440.2066, 13171.08
440.6887, 13351.44
441.1708, 13522.42
441.6530, 13722.21
442.1351, 13938.42
442.6172, 14139.39
443.0993, 14305.52
443.5814, 14461.37
444.0635, 14640.48
444.5457, 14839.78
445.0278, 15029.89
445.5099, 15199.61
445.9920, 15354.92
446.4741, 15505.48
446.9562, 15656.90
447.4384, 15781.37
447.9205, 15871.51
448.4026, 15935.80
448.8847, 15967.54
449.3668, 15975.78
449.8489, 15991.89
450.3311, 16038.68
450.8132, 16109.38
451.2953, 16171.08
451.7774, 16246.35
452.2595, 16278.05
452.7416, 16236.97
453.2238, 16168.62
453.7059, 16113.07
454.1880, 16076.02
454.6701, 16031.43
455.1522, 15952.27
455.6343, 15841.36
456.1165, 15722.37
456.5986, 15585.70
457.0807, 15459.83
457.5628, 15385.81
458.0449, 15326.24
458.5270, 15217.07
459.0092, 15021.78
459.4913, 14822.20
459.9734, 14676.14
460.4555, 14568.13
460.9376, 14464.16
461.4197, 14357.95
461.9019, 14238.69
462.3840, 14091.80
462.8661, 13911.01
463.3482, 13745.81
463.8303, 13603.80
464.3124, 13469.27
464.7946, 13342.88
465.2767, 13218.35
465.7588, 13081.56
466.2409, 12925.03
466.7230, 12767.18
467.2051, 12650.62
467.6873, 12597.13
468.1694, 12508.23
468.6515, 12345.80
469.1336, 12171.04
469.6157, 12012.04
470.0978, 11867.54
470.5800, 11723.18
471.0621, 11569.31
471.5442, 11413.42
472.0263, 11268.79
472.5084, 11134.85
472.9905, 10992.02
473.4727, 10829.06
473.9548, 10657.72
474.4369, 10502.74
474.9190, 10367.03
475.4011, 10229.22
475.8832, 10071.33
476.3654, 9919.580
476.8475, 9797.389
477.3296, 9703.399
477.8117, 9623.515
478.2938, 9550.806
478.7759, 9479.990
479.2581, 9385.118
479.7402, 9241.726
480.2223, 9113.618
480.7044, 9006.572
481.1865, 8917.696
481.6686, 8848.749
482.1508, 8797.921
482.6329, 8755.029
483.1150, 8716.017
483.5971, 8678.757
484.0792, 8632.268
484.5613, 8573.058
485.0435, 8521.784
485.5256, 8491.731
486.0077, 8476.338
486.4898, 8460.655
486.9719, 8447.326
487.4540, 8426.994
487.9362, 8387.134
488.4183, 8342.369
488.9004, 8310.672
489.3825, 8294.762
489.8646, 8290.486
490.3467, 8297.386
490.8289, 8313.858
491.3110, 8308.264
491.7931, 8257.812
492.2752, 8211.761
492.7573, 8175.613
493.2394, 8147.592
493.7216, 8124.151
494.2037, 8104.905
494.6858, 8095.776
495.1679, 8113.658
495.6500, 8151.498
496.1321, 8155.866
496.6143, 8113.524
497.0964, 8068.003
497.5785, 8041.221
498.0606, 8030.709
498.5427, 8032.799
499.0248, 8054.182
499.5070, 8075.655
499.9891, 8090.081
500.4712, 8097.913
500.9533, 8102.375
501.4355, 8103.419
501.9176, 8090.455
502.3997, 8049.501
502.8818, 7979.820
503.3639, 7932.305
503.8460, 7932.571
504.3282, 7925.984
504.8103, 7912.078
505.2924, 7881.364
505.7745, 7813.869
506.2566, 7706.579
506.7387, 7600.580
507.2209, 7549.446
507.7030, 7543.832
508.1851, 7504.456
508.6672, 7414.257
509.1493, 7323.504
509.6314, 7274.426
510.1136, 7245.486
510.5957, 7185.992
511.0778, 7074.392
511.5599, 6959.845
512.0420, 6858.523
512.5241, 6770.905
513.0062, 6702.301
513.4883, 6652.253
513.9705, 6605.126
514.4526, 6545.284
514.9347, 6472.690
515.4168, 6410.820
515.8989, 6370.473
516.3810, 6328.488
516.8632, 6269.599
517.3453, 6213.217
517.8274, 6186.604
518.3095, 6194.232
518.7916, 6199.960
519.2737, 6160.576
519.7559, 6089.132
520.2380, 6043.111
520.7201, 6030.155
521.2022, 6024.900
521.6843, 6021.225
522.1664, 6011.520
522.6486, 5975.150
523.1307, 5888.151
523.6128, 5816.919
524.0949, 5801.175
524.5770, 5802.474
525.0591, 5770.304
525.5413, 5702.759
526.0234, 5640.913
526.5055, 5621.660
526.9876, 5638.529
527.4697, 5635.224
527.9518, 5597.545
528.4340, 5563.572
528.9161, 5547.837
529.3982, 5533.597
529.8803, 5506.017
530.3624, 5463.544
530.8445, 5416.352
531.3267, 5362.867
531.8088, 5311.538
532.2909, 5283.391
532.7730, 5279.300
533.2551, 5276.390
533.7372, 5268.988
534.2194, 5249.482
534.7015, 5192.080
535.1836, 5054.499
535.6657, 4973.297
536.1478, 5002.023
536.6299, 5060.032
537.1121, 5097.675
537.5942, 5109.505
538.0763, 5104.645
538.5584, 5088.768
539.0405, 5060.439
539.5226, 5008.989
540.0048, 4921.541
540.4869, 4861.062
540.9690, 4855.282
541.4511, 4865.934
541.9332, 4869.086
542.4153, 4863.797
542.8975, 4848.213
543.3796, 4808.520
543.8617, 4769.061
544.3438, 4758.954
544.8259, 4768.920
545.3080, 4765.517
545.7902, 4735.754
546.2723, 4694.053
546.7544, 4661.810
547.2365, 4641.814
547.7186, 4620.311
548.2007, 4583.496
548.6829, 4559.993
549.1650, 4572.188
549.6471, 4600.923
550.1292, 4616.092
550.6113, 4606.097
551.0934, 4586.182
551.5756, 4567.643
552.0577, 4552.644
552.5398, 4560.164
553.0219, 4599.238
553.5040, 4639.002
553.9861, 4657.416
554.4683, 4657.518
554.9504, 4658.526
555.4325, 4666.382
555.9146, 4667.478
556.3967, 4643.611
556.8788, 4618.453
557.3610, 4625.452
557.8431, 4665.058
558.3252, 4704.872
558.8073, 4715.347
559.2894, 4701.770
559.7715, 4700.676
560.2537, 4721.924
560.7358, 4733.880
561.2179, 4717.288
561.7000, 4694.736
562.1821, 4681.649
562.6642, 4679.410
563.1464, 4686.883
563.6285, 4708.014
564.1106, 4735.654
564.5927, 4767.095
565.0748, 4799.031
565.5569, 4815.298
566.0391, 4807.398
566.5212, 4785.571
567.0033, 4768.005
567.4854, 4752.130
567.9675, 4747.726
568.4496, 4765.835
568.9318, 4782.677
569.4139, 4777.238
569.8960, 4765.526
570.3781, 4780.290
570.8602, 4838.096
571.3423, 4905.763
571.8245, 4940.289
572.3066, 4947.970
572.7887, 4969.958
573.2708, 5017.715
573.7529, 5057.045
574.2350, 5056.983
574.7172, 5024.530
575.1993, 5007.856
575.6814, 5023.907
576.1635, 5033.083
576.6456, 5013.167
577.1277, 4990.121
577.6099, 4996.263
578.0920, 5030.241
578.5741, 5059.225
579.0562, 5053.490
579.5383, 5024.479
580.0204, 5018.782
580.5026, 5044.105
580.9847, 5062.887
581.4668, 5064.036
581.9489, 5054.495
582.4310, 5042.135
582.9132, 5026.787
583.3953, 5006.023
583.8774, 4973.507
584.3596, 4940.258
584.8417, 4916.825
585.3238, 4898.998
585.8059, 4874.992
586.2880, 4840.658
586.7701, 4803.999
587.2523, 4776.109
587.7344, 4757.352
588.2165, 4745.725
588.6986, 4754.080
589.1807, 4752.199
589.6628, 4727.824
590.1450, 4689.275
590.6271, 4643.691
591.1092, 4591.042
591.5913, 4544.863
592.0734, 4522.389
592.5555, 4508.732
593.0377, 4477.361
593.5198, 4427.409
594.0019, 4374.983
594.4840, 4328.557
594.9661, 4288.667
595.4482, 4258.279
595.9304, 4249.647
596.4125, 4228.380
596.8946, 4185.668
597.3767, 4139.972
597.8588, 4101.318
598.3409, 4067.452
598.8231, 4032.052
599.3052, 3991.752
599.7873, 3950.493
600.2694, 3914.049
600.7515, 3880.920
601.2336, 3841.224
601.7158, 3791.579
602.1979, 3747.208
602.6800, 3723.245
603.1621, 3716.906
603.6442, 3699.708
604.1263, 3668.370
604.6085, 3631.638
605.0906, 3587.570
605.5727, 3541.112
606.0548, 3489.950
606.5369, 3438.915
607.0190, 3404.367
607.5012, 3405.136
607.9833, 3421.695
608.4654, 3410.595
608.9475, 3371.475
609.4296, 3328.824
609.9117, 3286.546
610.3939, 3248.478
610.8760, 3218.771
611.3581, 3197.862
611.8402, 3181.861
612.3223, 3175.219
612.8044, 3168.305
613.2866, 3155.753
613.7687, 3141.609
614.2508, 3132.074
614.7329, 3127.955
615.2150, 3124.022
615.6971, 3116.563
616.1793, 3105.012
616.6614, 3083.111
617.1435, 3046.835
617.6256, 3021.696
618.1077, 3023.256
618.5898, 3034.520
619.0720, 3031.894
619.5541, 3014.984
620.0362, 2995.276
620.5183, 2967.368
621.0004, 2944.286
621.4825, 2934.136
621.9647, 2934.589
622.4468, 2944.451
622.9289, 2962.274
623.4110, 2977.272
623.8931, 2974.212
624.3752, 2953.763
624.8574, 2935.019
625.3395, 2914.420
625.8216, 2905.819
626.3037, 2924.897
626.7858, 2954.201
627.2679, 2964.657
627.7501, 2951.232
628.2322, 2944.584
628.7143, 2954.322
629.1964, 2972.416
629.6785, 3001.823
630.1606, 3033.633
630.6428, 3046.435
631.1249, 3031.355
631.6070, 3005.829
632.0891, 2994.914
632.5712, 2999.042
633.0533, 3011.671
633.5355, 3038.324
634.0176, 3062.191
634.4997, 3078.850
634.9818, 3085.429
635.4639, 3071.957
635.9460, 3027.097
636.4282, 3002.800
636.9103, 3036.277
637.3924, 3081.628
637.8745, 3094.778
638.3566, 3083.394
638.8387, 3079.328
639.3209, 3098.032
639.8030, 3127.274
640.2851, 3148.707
640.7672, 3162.836
641.2493, 3162.210
641.7314, 3138.105
642.2136, 3114.632
642.6957, 3102.337
643.1778, 3100.264
643.6599, 3108.352
644.1420, 3130.078
644.6241, 3151.631
645.1063, 3168.572
645.5884, 3183.221
646.0705, 3203.995
646.5526, 3224.782
647.0347, 3224.709
647.5168, 3192.453
647.9990, 3146.931
648.4811, 3117.354
648.9632, 3103.338
649.4453, 3112.456
649.9274, 3157.566
650.4095, 3201.177
