##NAMES=Berzelianite
##RRUFFID=R060260
##IDEAL CHEMISTRY=Cu_2-x_Se (x &#8776; 0.12)
##LOCALITY=Bukov mine, near Tisnova, Western Moravia, Czechoslovakia
##OWNER=RRUFF
##SOURCE=Michael Scott
##DESCRIPTION=Black tarnished metallic coating
##STATUS=The identification of this mineral is confirmed by single-crystal X-ray diffraction and chemical analysis.
##URL=rruff.info/R060260
##MEASURED CHEMISTRY=(Cu_1.77_[box]_0.23_)_Î£=2_Se_1.00_ ; trace amounts of S
93.46167, 264.5450
93.94379, 263.3828
94.42590, 260.3559
94.90802, 256.5570
95.39014, 252.4431
95.87225, 247.9454
96.35437, 243.5252
96.83649, 239.5238
97.31860, 235.8403
97.80072, 232.3592
98.28284, 228.7676
98.76495, 224.9149
99.24707, 221.2089
99.72919, 217.3123
100.2113, 214.0238
100.6934, 211.6284
101.1755, 209.9153
101.6577, 208.5027
102.1398, 207.0083
102.6219, 205.2967
103.1040, 204.1992
103.5861, 204.0260
104.0682, 203.9889
104.5504, 203.7247
105.0325, 203.1478
105.5146, 202.3068
105.9967, 201.2208
106.4788, 199.7771
106.9609, 198.2961
107.4431, 196.8641
107.9252, 195.3682
108.4073, 193.5831
108.8894, 191.3363
109.3715, 188.9855
109.8536, 187.1441
110.3358, 185.7788
110.8179, 184.7236
111.3000, 184.0686
111.7821, 183.7601
112.2642, 183.2558
112.7463, 182.0666
113.2285, 180.7576
113.7106, 180.0118
114.1927, 180.1191
114.6748, 180.3203
115.1569, 179.3899
115.6390, 176.6901
116.1212, 174.4778
116.6033, 173.6016
117.0854, 173.3834
117.5675, 173.2108
118.0496, 172.7926
118.5317, 172.1711
119.0139, 171.5566
119.4960, 170.9491
119.9781, 170.3476
120.4602, 169.6294
120.9423, 168.9154
121.4244, 168.4453
121.9066, 168.4449
122.3887, 168.9758
122.8708, 169.0736
123.3529, 168.5327
123.8350, 167.8574
124.3171, 167.2309
124.7993, 166.6820
125.2814, 166.1841
125.7635, 165.6891
126.2456, 165.1805
126.7277, 164.8740
127.2098, 165.0234
127.6920, 165.2637
128.1741, 165.2032
128.6562, 164.7469
129.1383, 164.0757
129.6204, 163.3178
130.1025, 162.4787
130.5847, 161.7525
131.0668, 161.2589
131.5489, 160.9485
132.0310, 160.6402
132.5131, 160.2343
132.9952, 159.9000
133.4774, 159.9176
133.9595, 160.2802
134.4416, 160.4378
134.9237, 159.7040
135.4058, 157.8901
135.8879, 156.4911
136.3701, 156.0827
136.8522, 156.0001
137.3343, 156.0024
137.8164, 156.0101
138.2985, 155.9091
138.7806, 155.4162
139.2628, 153.9922
139.7449, 153.2053
140.2270, 153.6847
140.7091, 154.5292
141.1912, 154.9000
141.6733, 154.4183
142.1555, 153.3503
142.6376, 152.6145
143.1197, 152.6445
143.6018, 152.5430
144.0839, 152.0603
144.5660, 151.4006
145.0482, 150.9004
145.5303, 150.7684
146.0124, 150.9531
146.4945, 151.0645
146.9766, 151.2301
147.4587, 151.2222
147.9409, 150.7581
148.4230, 149.9547
148.9051, 149.3499
149.3872, 149.3895
149.8693, 149.9790
150.3514, 150.3435
150.8336, 150.5224
151.3157, 150.4418
151.7978, 149.8871
152.2799, 148.7750
152.7620, 147.7450
153.2441, 147.4022
153.7263, 147.4731
154.2084, 147.5384
154.6905, 147.4688
155.1726, 147.3017
155.6547, 147.1172
156.1368, 146.9238
156.6190, 146.6943
157.1011, 146.3988
157.5832, 146.0622
158.0653, 145.7275
158.5474, 145.4141
159.0295, 145.1233
159.5117, 144.8713
159.9938, 144.6179
160.4759, 144.4528
160.9580, 144.4204
161.4401, 144.5036
161.9222, 144.6735
162.4044, 144.9795
162.8865, 145.5319
163.3686, 145.5413
163.8507, 144.2937
164.3328, 143.1516
164.8149, 142.8407
165.2971, 143.3133
165.7792, 143.9901
166.2613, 144.2036
166.7434, 143.8059
167.2255, 143.2973
167.7076, 142.4075
168.1898, 141.5999
168.6719, 141.2929
169.1540, 141.5400
169.6361, 141.9705
170.1182, 142.0497
170.6003, 141.5632
171.0825, 141.2624
171.5646, 141.5518
172.0467, 141.9006
172.5288, 141.5471
173.0109, 140.1987
173.4930, 138.5767
173.9752, 137.9625
174.4573, 138.4208
174.9394, 138.8966
175.4215, 139.1614
175.9036, 139.2230
176.3857, 139.0653
176.8679, 138.6066
177.3500, 138.0340
177.8321, 137.4920
178.3142, 136.9288
178.7963, 136.7301
179.2784, 137.4883
179.7606, 139.0379
180.2427, 139.9397
180.7248, 139.3904
181.2069, 138.3816
181.6890, 137.8598
182.1711, 137.9098
182.6533, 137.9624
183.1354, 137.3006
183.6175, 135.7773
184.0996, 134.7098
184.5817, 134.8224
185.0638, 135.2437
185.5460, 135.5970
186.0281, 135.7864
186.5102, 135.7524
186.9923, 135.3042
187.4744, 134.1386
187.9565, 133.3832
188.4387, 133.3852
188.9208, 133.6590
189.4029, 133.8958
189.8850, 133.9949
190.3671, 134.0204
190.8492, 134.1222
191.3314, 134.5417
191.8135, 134.6068
192.2956, 133.9683
192.7777, 133.1568
193.2598, 132.6788
193.7419, 132.7279
194.2241, 133.0722
194.7062, 133.1533
195.1883, 132.7112
195.6704, 132.2761
196.1525, 132.0064
196.6346, 131.7028
197.1168, 130.9776
197.5989, 129.6326
198.0810, 128.0730
198.5631, 127.5245
199.0452, 128.8010
199.5273, 129.9319
200.0095, 130.7669
200.4916, 131.2373
200.9737, 131.0762
201.4558, 130.0134
201.9379, 128.5473
202.4200, 128.2048
202.9022, 129.6099
203.3843, 130.7950
203.8664, 130.9329
204.3485, 130.2991
204.8306, 129.6065
205.3127, 129.0760
205.7949, 128.7700
206.2770, 128.8490
206.7591, 129.5945
207.2412, 130.1020
207.7233, 129.6061
208.2054, 128.2820
208.6876, 127.2458
209.1697, 127.0868
209.6518, 127.3631
210.1339, 127.3444
210.6160, 126.8961
211.0981, 126.4676
211.5803, 126.6059
212.0624, 127.3144
212.5445, 127.5834
213.0266, 126.4360
213.5087, 125.0727
213.9908, 124.7456
214.4730, 125.7733
214.9551, 127.0923
215.4372, 127.4754
215.9193, 126.7676
216.4014, 126.1015
216.8836, 125.9420
217.3657, 125.8585
217.8478, 125.4745
218.3299, 124.6934
218.8120, 123.9162
219.2941, 123.7544
219.7763, 124.4112
220.2584, 125.0191
220.7405, 125.4716
221.2226, 125.7965
221.7047, 126.0195
222.1868, 126.1445
222.6690, 126.1315
223.1511, 125.8921
223.6332, 125.3146
224.1153, 124.7515
224.5974, 124.0140
225.0795, 123.4357
225.5617, 123.4155
226.0438, 124.0164
226.5259, 124.7848
227.0080, 124.8717
227.4901, 123.6384
227.9722, 122.8902
228.4544, 123.1827
228.9365, 123.6149
229.4186, 123.3338
229.9007, 122.1588
230.3828, 120.7203
230.8649, 120.1482
231.3471, 121.2033
231.8292, 121.9562
232.3113, 122.2317
232.7934, 122.3349
233.2755, 122.5951
233.7576, 123.0776
234.2398, 123.4921
234.7219, 123.3259
235.2040, 121.9721
235.6861, 121.1139
236.1682, 120.9906
236.6503, 121.2166
237.1325, 121.4846
237.6146, 121.7058
238.0967, 121.9310
238.5788, 122.2581
239.0609, 122.8365
239.5430, 123.1315
240.0252, 122.9486
240.5073, 122.5592
240.9894, 122.1912
241.4715, 121.8986
241.9536, 121.6972
242.4357, 121.6313
242.9179, 121.7432
243.4000, 121.8060
243.8821, 121.7453
244.3642, 121.6506
244.8463, 121.6571
245.3284, 121.7995
245.8106, 121.9069
246.2927, 121.7133
246.7748, 121.2002
247.2569, 120.8609
247.7390, 121.0328
248.2211, 121.3011
248.7033, 121.0324
249.1854, 120.0616
249.6675, 119.1136
250.1496, 119.0875
250.6317, 119.8299
251.1138, 120.3203
251.5960, 120.0617
252.0781, 119.5606
252.5602, 119.5561
253.0423, 120.1947
253.5244, 120.8628
254.0065, 121.0166
254.4887, 120.7770
254.9708, 120.4065
255.4529, 119.8170
255.9350, 119.1937
256.4171, 118.8590
256.8992, 118.8903
257.3813, 118.8954
257.8635, 118.3797
258.3456, 117.6580
258.8277, 117.2980
259.3098, 117.7035
259.7919, 118.4144
260.2740, 118.7980
260.7562, 118.8259
261.2383, 118.6460
261.7204, 118.1247
262.2025, 117.4943
262.6846, 117.0352
263.1667, 116.8268
263.6489, 116.8240
264.1310, 117.0463
264.6131, 117.5786
265.0952, 117.9647
265.5773, 117.7976
266.0594, 117.4592
266.5416, 117.3401
267.0237, 117.6088
267.5058, 117.9571
267.9879, 117.9057
268.4700, 117.3406
268.9521, 116.9089
269.4343, 117.0176
269.9164, 117.2544
270.3985, 117.2655
270.8806, 116.9457
271.3627, 116.6009
271.8448, 116.7698
272.3270, 117.6539
272.8091, 117.9975
273.2912, 116.6722
273.7733, 115.2253
274.2554, 114.6540
274.7375, 115.1165
275.2197, 116.0104
275.7018, 116.7606
276.1839, 117.3764
276.6660, 117.7662
277.1481, 117.7887
277.6302, 117.6530
278.1124, 117.3628
278.5945, 116.9597
279.0766, 116.6131
279.5587, 116.5856
280.0408, 116.9482
280.5229, 116.9886
281.0051, 116.2066
281.4872, 115.4922
281.9693, 115.2859
282.4514, 115.5080
282.9335, 115.7909
283.4156, 115.8424
283.8978, 115.6595
284.3799, 115.3861
284.8620, 114.8676
285.3441, 114.4130
285.8262, 114.0526
286.3083, 113.8352
286.7905, 113.8603
287.2726, 114.2573
287.7547, 114.9733
288.2368, 115.4839
288.7189, 115.5455
289.2010, 115.6838
289.6832, 116.2708
290.1653, 116.9802
290.6474, 117.2843
291.1295, 116.8304
291.6116, 115.8291
292.0938, 115.1366
292.5759, 114.9409
293.0580, 114.8194
293.5401, 114.7263
294.0222, 114.6396
294.5043, 114.5401
294.9865, 114.4194
295.4686, 114.2816
295.9507, 114.1005
296.4328, 113.6554
296.9149, 113.5959
297.3970, 114.2485
297.8792, 115.1174
298.3613, 115.8733
298.8434, 116.3927
299.3255, 116.5921
299.8076, 116.2605
300.2897, 115.0627
300.7719, 114.0834
301.2540, 113.2321
301.7361, 112.6727
302.2182, 112.6629
302.7003, 113.1628
303.1824, 113.7463
303.6646, 113.8228
304.1467, 113.1161
304.6288, 112.9175
305.1109, 113.9153
305.5930, 114.7905
306.0751, 114.7381
306.5573, 113.9183
307.0394, 113.1137
307.5215, 113.0812
308.0036, 113.8936
308.4857, 114.4114
308.9678, 114.5154
309.4500, 114.4251
309.9321, 114.0502
310.4142, 113.5259
310.8963, 113.1094
311.3784, 112.9967
311.8605, 113.1300
312.3427, 113.0519
312.8248, 112.4809
313.3069, 112.0174
313.7890, 111.7051
314.2711, 111.5795
314.7532, 111.6945
315.2354, 112.0825
315.7175, 112.6784
316.1996, 113.3501
316.6817, 114.6084
317.1638, 115.0660
317.6459, 113.9288
318.1281, 112.3708
318.6102, 111.4640
319.0923, 111.5371
319.5744, 112.1257
320.0565, 112.4751
320.5386, 112.4687
321.0208, 112.4831
321.5029, 112.7215
321.9850, 112.8427
322.4671, 112.5581
322.9492, 111.8791
323.4313, 111.0892
323.9135, 110.4145
324.3956, 109.7743
324.8777, 109.6918
325.3598, 110.7169
325.8419, 111.7904
326.3240, 112.5693
326.8062, 113.0550
327.2883, 113.3995
327.7704, 113.7304
328.2525, 114.0366
328.7346, 114.1460
329.2167, 114.2408
329.6989, 113.8796
330.1810, 112.4146
330.6631, 110.5548
331.1452, 109.3790
331.6273, 109.5099
332.1094, 110.5483
332.5916, 111.2622
333.0737, 111.4841
333.5558, 111.6461
334.0379, 111.8185
334.5200, 111.9809
335.0021, 112.1441
335.4843, 112.3074
335.9664, 112.3880
336.4485, 112.2052
336.9306, 111.6161
337.4127, 111.1892
337.8948, 111.0434
338.3770, 111.0156
338.8591, 111.0390
339.3412, 111.0949
339.8233, 111.1747
340.3055, 111.3691
340.7876, 111.7327
341.2697, 111.6268
341.7518, 110.1803
342.2339, 109.1264
342.7160, 109.4874
343.1982, 110.8002
343.6803, 111.9014
344.1624, 111.9631
344.6445, 111.1877
345.1266, 110.5842
345.6087, 110.2503
346.0909, 109.9392
346.5730, 109.3485
347.0551, 108.7977
347.5372, 108.7899
348.0193, 109.6249
348.5014, 110.7569
348.9836, 111.1059
349.4657, 110.3791
349.9478, 109.8486
350.4299, 110.0680
350.9120, 110.4730
351.3941, 110.6636
351.8763, 110.5654
352.3584, 110.3717
352.8405, 110.2834
353.3226, 110.3043
353.8047, 110.2759
354.2868, 110.1344
354.7690, 109.9823
355.2511, 109.7854
355.7332, 109.6005
356.2153, 109.6457
356.6974, 110.3897
357.1795, 111.5320
357.6617, 111.7848
358.1438, 110.7338
358.6259, 109.6185
359.1080, 108.9991
359.5901, 108.8017
360.0722, 109.0014
360.5544, 109.8386
361.0365, 110.7793
361.5186, 110.9306
362.0007, 110.1648
362.4828, 109.6227
362.9649, 110.0562
363.4471, 110.7902
363.9292, 111.0200
364.4113, 110.5789
364.8934, 110.0213
365.3755, 109.7403
365.8576, 109.7036
366.3398, 109.7646
366.8219, 109.9792
367.3040, 110.1455
367.7861, 110.0013
368.2682, 109.5797
368.7503, 109.2100
369.2325, 109.0162
369.7146, 108.9585
370.1967, 109.0077
370.6788, 109.1830
371.1609, 109.3232
371.6430, 109.2254
372.1252, 108.9869
372.6073, 108.9356
373.0894, 109.1620
373.5715, 109.5520
374.0536, 110.2945
374.5357, 111.2553
375.0179, 111.5180
375.5000, 110.3285
375.9821, 108.4453
376.4642, 107.7356
376.9463, 108.7065
377.4284, 109.5102
377.9106, 109.2943
378.3927, 108.5053
378.8748, 107.8816
379.3569, 107.6162
379.8390, 107.5648
380.3211, 107.5428
380.8033, 107.5294
381.2854, 107.7084
381.7675, 108.3824
382.2496, 109.0458
382.7317, 109.2748
383.2138, 109.0689
383.6960, 108.7030
384.1781, 108.3658
384.6602, 108.0538
385.1423, 107.7006
385.6244, 107.0096
386.1065, 106.6074
386.5887, 106.9345
387.0708, 107.6472
387.5529, 108.1042
388.0350, 108.0106
388.5171, 107.6985
388.9992, 107.9253
389.4814, 109.6580
389.9635, 110.4022
390.4456, 109.2652
390.9277, 107.7479
391.4098, 107.0856
391.8919, 107.4234
392.3741, 108.0886
392.8562, 108.3753
393.3383, 108.2064
393.8204, 108.2646
394.3025, 109.0776
394.7846, 109.5594
395.2668, 108.9575
395.7489, 107.7924
396.2310, 107.0885
396.7131, 107.4809
397.1952, 108.6140
397.6773, 109.2583
398.1595, 109.2327
398.6416, 108.9741
399.1237, 108.2156
399.6058, 107.4740
400.0879, 107.3162
400.5700, 107.8213
401.0522, 108.4230
401.5343, 108.3492
402.0164, 107.4403
402.4985, 106.8070
402.9806, 106.6546
403.4627, 106.6439
403.9449, 106.6518
404.4270, 106.6833
404.9091, 106.7912
405.3912, 107.0608
405.8733, 107.4036
406.3554, 107.5198
406.8376, 107.3246
407.3197, 107.1138
407.8018, 106.8004
408.2839, 106.6232
408.7660, 107.0212
409.2481, 108.2385
409.7303, 109.2874
410.2124, 108.8078
410.6945, 106.9392
411.1766, 105.9350
411.6587, 106.7629
412.1408, 107.9710
412.6230, 108.1511
413.1051, 107.4289
413.5872, 106.6886
414.0693, 106.2152
414.5514, 105.9833
415.0335, 106.0787
415.5157, 106.5494
415.9978, 106.8394
416.4799, 106.3500
416.9620, 105.4494
417.4441, 105.2710
417.9262, 106.3248
418.4084, 107.4821
418.8905, 108.2184
419.3726, 108.5674
419.8547, 108.5312
420.3368, 108.0424
420.8189, 107.3983
421.3011, 107.1051
421.7832, 107.2663
422.2653, 107.3189
422.7474, 107.1707
423.2295, 106.9132
423.7116, 106.5732
424.1938, 106.1795
424.6759, 105.7930
425.1580, 105.3960
425.6401, 105.0233
426.1222, 105.3385
426.6043, 107.1642
427.0865, 108.6104
427.5686, 109.1774
428.0507, 109.0958
428.5328, 108.5784
429.0149, 107.7225
429.4970, 106.8109
429.9792, 106.3619
430.4613, 106.6674
430.9434, 106.8044
431.4255, 106.4330
431.9076, 106.2158
432.3897, 106.7884
432.8719, 107.9127
433.3540, 108.7508
433.8361, 108.5975
434.3182, 107.5951
434.8003, 106.7190
435.2824, 105.7145
435.7646, 105.2868
436.2467, 106.1502
436.7288, 107.3459
437.2109, 107.7468
437.6930, 106.9922
438.1751, 105.9221
438.6573, 105.6327
439.1394, 106.1876
439.6215, 106.6674
440.1036, 107.1305
440.5857, 107.2664
441.0678, 106.5759
441.5500, 105.3359
442.0321, 104.5764
442.5142, 105.2455
442.9963, 106.5516
443.4784, 106.9567
443.9605, 106.3427
444.4427, 105.7509
444.9248, 105.7785
445.4069, 106.1075
445.8890, 106.1594
446.3711, 105.8160
446.8532, 105.4619
447.3354, 105.2129
447.8175, 105.1177
448.2996, 105.3621
448.7817, 106.0320
449.2638, 106.7577
449.7459, 107.1551
450.2281, 107.1994
450.7102, 107.1181
451.1923, 106.7116
451.6744, 106.3653
452.1565, 106.3803
452.6386, 106.6692
453.1208, 106.9392
453.6029, 107.0349
454.0850, 107.0285
454.5671, 107.1239
455.0492, 107.6943
455.5313, 107.8367
456.0135, 107.0319
456.4956, 106.1376
456.9777, 105.9856
457.4598, 106.5795
457.9419, 107.1805
458.4240, 107.0299
458.9062, 106.1118
459.3883, 105.6388
459.8704, 106.1801
460.3525, 106.5389
460.8346, 106.3980
461.3167, 105.9507
461.7989, 105.3573
462.2810, 104.6691
462.7631, 104.1366
463.2452, 104.2991
463.7273, 105.3455
464.2094, 105.9369
464.6916, 105.3298
465.1737, 104.7723
465.6558, 105.0379
466.1379, 105.9922
466.6200, 107.0667
467.1021, 108.2900
467.5843, 109.2816
468.0664, 109.0107
468.5485, 107.2676
469.0306, 105.7761
469.5127, 105.3899
469.9948, 105.6842
470.4770, 106.0285
470.9591, 106.4809
471.4412, 106.6859
471.9233, 106.0425
472.4054, 105.1345
472.8875, 105.1987
473.3697, 106.5019
473.8518, 108.0367
474.3339, 109.0210
474.8160, 109.4025
475.2981, 109.1858
475.7802, 107.7239
476.2624, 106.3620
476.7445, 105.6029
477.2266, 105.3822
477.7087, 105.6666
478.1908, 106.4533
478.6729, 107.3860
479.1551, 107.8053
479.6372, 107.4230
480.1193, 107.1843
480.6014, 107.3143
481.0835, 107.3658
481.5656, 106.9061
482.0478, 106.1384
482.5299, 105.6423
483.0120, 105.8237
483.4941, 106.5161
483.9762, 107.1339
484.4583, 107.8167
484.9405, 108.1210
485.4226, 107.7790
485.9047, 107.1859
486.3868, 106.5088
486.8689, 105.8214
487.3510, 105.3832
487.8332, 105.6076
488.3153, 106.3190
488.7974, 106.6006
489.2795, 106.2417
489.7616, 105.8913
490.2437, 106.0342
490.7259, 106.4215
491.2080, 106.7072
491.6901, 106.8779
492.1722, 106.8389
492.6543, 106.3275
493.1364, 105.5402
493.6186, 105.0608
494.1007, 105.0542
494.5828, 105.3054
495.0649, 105.6116
495.5470, 105.9813
496.0291, 106.3029
496.5113, 106.7130
496.9934, 106.9461
497.4755, 106.7183
497.9576, 106.1908
498.4397, 105.7737
498.9218, 105.6729
499.4040, 105.7223
499.8861, 105.5295
500.3682, 104.7398
500.8503, 104.3794
501.3324, 104.8353
501.8145, 105.3368
502.2967, 105.2262
502.7788, 104.7005
503.2609, 104.5280
503.7430, 105.3200
504.2251, 106.7844
504.7072, 107.8321
505.1894, 108.5288
505.6715, 108.6470
506.1536, 107.5127
506.6357, 106.1970
507.1178, 105.5705
507.5999, 105.7269
508.0821, 106.0929
508.5642, 106.4117
509.0463, 106.6113
509.5284, 106.3998
510.0105, 105.6692
510.4926, 104.9262
510.9748, 104.4066
511.4569, 104.1280
511.9390, 104.1294
512.4211, 104.6147
512.9032, 105.0113
513.3853, 104.8454
513.8674, 104.4545
514.3495, 104.5440
514.8317, 105.2696
515.3138, 105.9552
515.7959, 105.8653
516.2780, 104.9264
516.7601, 104.2933
517.2422, 103.9643
517.7244, 103.8848
518.2065, 104.2810
518.6886, 104.8340
519.1707, 105.0674
519.6528, 104.8219
520.1349, 104.3651
520.6171, 104.0739
521.0992, 103.9457
521.5813, 103.9994
522.0634, 104.5733
522.5455, 104.9934
523.0276, 104.9162
523.5098, 104.5231
523.9919, 104.1373
524.4740, 103.8620
524.9561, 103.7611
525.4382, 104.0387
525.9203, 104.7035
526.4025, 105.1368
526.8846, 105.0981
527.3667, 104.9071
527.8488, 104.8636
528.3309, 104.9467
528.8130, 105.0321
529.2952, 105.0876
529.7773, 105.1263
530.2594, 105.2324
530.7415, 105.3549
531.2236, 105.2181
531.7057, 104.6444
532.1879, 103.9083
532.6700, 103.5214
533.1521, 103.5143
533.6342, 103.8482
534.1163, 105.1278
534.5984, 106.2331
535.0806, 106.2691
535.5627, 105.4700
536.0448, 104.6129
536.5269, 104.1600
537.0090, 104.0593
537.4911, 104.2204
537.9733, 104.9176
538.4554, 105.2665
538.9375, 104.9890
539.4196, 104.4962
539.9017, 103.8528
540.3839, 103.1776
540.8660, 102.8207
541.3481, 103.1800
541.8302, 103.9118
542.3123, 104.1682
542.7944, 103.8743
543.2766, 103.7900
543.7587, 104.4087
544.2408, 105.2256
544.7229, 105.4744
545.2050, 105.0948
545.6871, 104.7385
546.1693, 104.6677
546.6514, 104.7059
547.1335, 104.6080
547.6156, 104.3980
548.0977, 104.3506
548.5798, 104.6635
549.0620, 105.2102
549.5441, 105.5619
550.0262, 105.6837
550.5083, 105.6320
550.9904, 105.1276
551.4725, 104.6593
551.9547, 104.7663
552.4368, 105.3088
552.9189, 105.5998
553.4010, 105.0404
553.8831, 103.9322
554.3652, 103.5779
554.8474, 104.3686
555.3295, 104.9306
555.8116, 104.6380
556.2937, 104.1822
556.7758, 104.0398
557.2579, 104.2388
557.7401, 104.5381
558.2222, 104.9122
558.7043, 105.2508
559.1864, 105.3339
559.6685, 105.1540
560.1506, 104.9178
560.6328, 104.7076
561.1149, 104.5191
561.5970, 104.2861
562.0791, 103.8612
562.5612, 103.8400
563.0433, 104.8148
563.5255, 105.8732
564.0076, 106.2095
564.4897, 105.8766
564.9718, 105.4063
565.4539, 105.1323
565.9360, 104.9876
566.4182, 104.7120
566.9003, 103.9684
567.3824, 103.7493
567.8645, 104.7586
568.3466, 105.7136
568.8287, 105.6314
569.3109, 104.7138
569.7930, 103.9014
570.2751, 103.7715
570.7572, 104.1153
571.2393, 104.6284
571.7214, 105.3524
572.2036, 105.6831
572.6857, 105.1251
573.1678, 104.4194
573.6499, 104.6145
574.1320, 105.6808
574.6141, 106.3022
575.0963, 105.7819
575.5784, 104.9387
576.0605, 104.4244
576.5426, 104.2025
577.0247, 104.0288
577.5068, 103.7925
577.9890, 103.5581
578.4711, 103.4406
578.9532, 103.4273
579.4353, 103.5800
579.9174, 104.2990
580.3995, 104.7677
580.8817, 104.2544
581.3638, 103.2555
581.8459, 102.7518
582.3280, 103.2262
582.8101, 104.2209
583.2922, 105.1615
583.7744, 106.0799
584.2565, 106.3709
584.7386, 105.5869
585.2207, 104.6769
585.7029, 104.1613
586.1850, 104.0351
586.6671, 104.3691
587.1492, 105.6086
587.6313, 106.7356
588.1135, 106.8830
588.5956, 106.3679
