##NAMES=Betekhtinite
##RRUFFID=R070087
##IDEAL CHEMISTRY=(Cu,Fe)_21_Pb_2_S_15_
##LOCALITY=Dzhezkazgan deposit, central Kazakhstan
##OWNER=RRUFF
##SOURCE=Michael Scott
##DESCRIPTION=Aggregate of black bladed to prismatic crystals associated with quartz
##STATUS=The identification of this mineral has been confirmed by X-ray diffraction and chemical analysis
##URL=rruff.info/R070087
##MEASURED CHEMISTRY=(Cu_20.15_Fe_0.85_)_Σ=21_(Pb_1.80_Ag_0.11_Fe_0.09_)_Σ=2_S_15.00_
157.9509, 819.7726
158.4330, 822.7676
158.9152, 824.9052
159.3973, 828.7888
159.8794, 835.7626
160.3615, 845.0450
160.8436, 854.8969
161.3257, 863.8712
161.8079, 872.0499
162.2900, 882.7651
162.7721, 900.7831
163.2542, 916.9967
163.7363, 927.8353
164.2184, 934.9426
164.7006, 941.8361
165.1827, 951.1077
165.6648, 962.8460
166.1469, 974.8506
166.6290, 988.4268
167.1111, 1000.982
167.5933, 1010.873
168.0754, 1019.067
168.5575, 1027.807
169.0396, 1039.108
169.5217, 1053.019
170.0038, 1063.312
170.4860, 1067.542
170.9681, 1070.925
171.4502, 1074.881
171.9323, 1079.250
172.4144, 1083.343
172.8965, 1086.658
173.3787, 1089.214
173.8608, 1090.915
174.3429, 1090.374
174.8250, 1090.482
175.3071, 1092.839
175.7892, 1096.691
176.2714, 1099.542
176.7535, 1098.910
177.2356, 1095.092
177.7177, 1100.201
178.1998, 1126.020
178.6819, 1147.069
179.1641, 1150.562
179.6462, 1141.667
180.1283, 1134.202
180.6104, 1137.718
181.0925, 1151.342
181.5746, 1161.715
182.0567, 1169.586
182.5389, 1174.301
183.0210, 1174.155
183.5031, 1170.518
183.9852, 1166.006
184.4673, 1161.645
184.9494, 1157.970
185.4316, 1160.282
185.9137, 1175.811
186.3958, 1188.263
186.8779, 1189.913
187.3600, 1183.908
187.8421, 1177.602
188.3243, 1174.746
188.8064, 1175.400
189.2885, 1180.218
189.7706, 1193.901
190.2527, 1205.722
190.7348, 1211.685
191.2170, 1213.051
191.6991, 1212.188
192.1812, 1209.631
192.6633, 1206.519
193.1454, 1207.735
193.6275, 1213.696
194.1097, 1222.315
194.5918, 1236.977
195.0739, 1253.820
195.5560, 1264.591
196.0381, 1265.025
196.5202, 1257.466
197.0024, 1248.100
197.4845, 1232.061
197.9666, 1221.768
198.4487, 1223.186
198.9308, 1232.834
199.4129, 1245.017
199.8951, 1258.341
200.3772, 1270.880
200.8593, 1277.102
201.3414, 1275.796
201.8235, 1273.051
202.3056, 1270.505
202.7878, 1267.633
203.2699, 1262.337
203.7520, 1252.937
204.2341, 1243.747
204.7162, 1245.006
205.1983, 1260.182
205.6805, 1271.969
206.1626, 1274.239
206.6447, 1271.034
207.1268, 1268.507
207.6089, 1268.404
208.0910, 1269.327
208.5732, 1268.601
209.0553, 1265.297
209.5374, 1265.009
210.0195, 1270.850
210.5016, 1279.682
210.9837, 1287.589
211.4659, 1293.785
211.9480, 1298.623
212.4301, 1302.830
212.9122, 1306.713
213.3943, 1307.371
213.8764, 1302.255
214.3586, 1294.638
214.8407, 1287.215
215.3228, 1280.330
215.8049, 1276.085
216.2870, 1277.464
216.7691, 1284.716
217.2513, 1292.173
217.7334, 1300.542
218.2155, 1308.162
218.6976, 1313.223
219.1797, 1315.579
219.6618, 1316.815
220.1440, 1318.500
220.6261, 1320.438
221.1082, 1320.061
221.5903, 1312.666
222.0724, 1306.277
222.5546, 1310.111
223.0367, 1323.336
223.5188, 1333.097
224.0009, 1328.820
224.4830, 1312.255
224.9651, 1301.687
225.4473, 1298.180
225.9294, 1299.631
226.4115, 1309.440
226.8936, 1324.955
227.3757, 1333.458
227.8578, 1324.642
228.3400, 1303.977
228.8221, 1295.789
229.3042, 1310.796
229.7863, 1325.350
230.2684, 1329.697
230.7505, 1325.652
231.2327, 1316.952
231.7148, 1303.237
232.1969, 1288.775
232.6790, 1287.261
233.1611, 1306.669
233.6432, 1322.876
234.1254, 1326.017
234.6075, 1321.032
235.0896, 1317.143
235.5717, 1317.851
236.0538, 1320.666
236.5359, 1320.142
237.0181, 1314.061
237.5002, 1310.747
237.9823, 1313.124
238.4644, 1318.712
238.9465, 1324.717
239.4286, 1330.425
239.9108, 1335.640
240.3929, 1340.229
240.8750, 1344.568
241.3571, 1346.753
241.8392, 1343.233
242.3213, 1339.380
242.8035, 1341.224
243.2856, 1349.485
243.7677, 1359.257
244.2498, 1366.029
244.7319, 1369.525
245.2140, 1368.768
245.6962, 1360.232
246.1783, 1350.370
246.6604, 1341.223
247.1425, 1334.005
247.6246, 1332.789
248.1067, 1342.750
248.5889, 1364.044
249.0710, 1374.113
249.5531, 1364.439
250.0352, 1353.751
250.5173, 1350.624
250.9994, 1353.445
251.4816, 1356.528
251.9637, 1356.368
252.4458, 1353.527
252.9279, 1351.876
253.4100, 1351.249
253.8921, 1351.798
254.3743, 1353.704
254.8564, 1356.790
255.3385, 1360.921
255.8206, 1366.077
256.3027, 1371.943
256.7849, 1377.672
257.2670, 1388.038
257.7491, 1392.099
258.2312, 1383.748
258.7133, 1371.507
259.1954, 1363.808
259.6776, 1363.285
260.1597, 1367.343
260.6418, 1372.374
261.1239, 1381.615
261.6060, 1384.584
262.0881, 1374.528
262.5703, 1363.797
263.0524, 1362.284
263.5345, 1370.324
264.0166, 1379.955
264.4987, 1382.232
264.9808, 1375.241
265.4630, 1370.042
265.9451, 1363.765
266.4272, 1361.618
266.9093, 1369.229
267.3914, 1383.473
267.8735, 1396.116
268.3557, 1400.721
268.8378, 1397.541
269.3199, 1393.685
269.8020, 1385.525
270.2841, 1380.574
270.7662, 1383.738
271.2484, 1390.429
271.7305, 1393.554
272.2126, 1389.054
272.6947, 1379.235
273.1768, 1371.093
273.6589, 1361.582
274.1411, 1359.329
274.6232, 1370.797
275.1053, 1386.467
275.5874, 1397.325
276.0695, 1400.446
276.5516, 1399.368
277.0338, 1399.606
277.5159, 1401.680
277.9980, 1403.467
278.4801, 1404.730
278.9622, 1405.645
279.4443, 1407.077
279.9265, 1408.739
280.4086, 1408.508
280.8907, 1402.911
281.3728, 1391.543
281.8549, 1383.460
282.3370, 1379.735
282.8192, 1378.937
283.3013, 1381.878
283.7834, 1387.222
284.2655, 1391.465
284.7476, 1390.434
285.2297, 1386.546
285.7119, 1390.280
286.1940, 1406.526
286.6761, 1420.233
287.1582, 1422.517
287.6403, 1418.350
288.1224, 1414.697
288.6046, 1414.668
289.0867, 1415.282
289.5688, 1412.613
290.0509, 1406.564
290.5330, 1397.437
291.0151, 1378.512
291.4973, 1360.665
291.9794, 1358.258
292.4615, 1376.131
292.9436, 1395.721
293.4257, 1402.685
293.9078, 1398.813
294.3900, 1392.449
294.8721, 1381.451
295.3542, 1365.971
295.8363, 1381.847
296.3184, 1392.557
296.8005, 1398.335
297.2827, 1386.849
297.7648, 1395.788
298.2469, 1395.400
298.7290, 1393.848
299.2111, 1403.332
299.6932, 1390.163
300.1754, 1397.830
300.6575, 1396.039
301.1396, 1397.389
301.6217, 1398.679
302.1038, 1401.344
302.5859, 1401.095
303.0681, 1402.452
303.5501, 1409.202
304.0323, 1419.204
304.5144, 1422.837
304.9965, 1414.841
305.4786, 1407.576
305.9607, 1405.317
306.4428, 1406.257
306.9250, 1407.074
307.4071, 1406.452
307.8892, 1405.739
308.3713, 1407.414
308.8534, 1403.526
309.3355, 1413.337
309.8177, 1418.796
310.2998, 1420.138
310.7819, 1405.030
311.2640, 1411.163
311.7461, 1408.784
312.2282, 1406.056
312.7104, 1415.179
313.1925, 1402.463
313.6746, 1411.398
314.1567, 1411.691
314.6388, 1415.939
315.1209, 1411.622
315.6031, 1405.455
316.0852, 1407.135
316.5673, 1413.843
317.0494, 1418.376
317.5315, 1421.373
318.0136, 1420.876
318.4958, 1416.036
318.9779, 1408.095
319.4600, 1396.573
319.9421, 1381.487
320.4242, 1367.740
320.9063, 1364.411
321.3885, 1375.519
321.8706, 1382.960
322.3527, 1381.215
322.8348, 1378.126
323.3169, 1377.748
323.7990, 1380.148
324.2812, 1382.991
324.7633, 1382.605
325.2454, 1379.926
325.7275, 1385.424
326.2096, 1407.798
326.6917, 1423.878
327.1739, 1414.980
327.6560, 1393.125
328.1381, 1380.665
328.6202, 1390.551
329.1023, 1409.410
329.5844, 1418.660
330.0666, 1417.863
330.5487, 1411.583
331.0308, 1395.671
331.5129, 1378.969
331.9950, 1373.954
332.4771, 1383.728
332.9593, 1396.476
333.4414, 1407.414
333.9235, 1415.838
334.4056, 1419.066
334.8877, 1415.467
335.3698, 1409.481
335.8520, 1407.598
336.3341, 1409.916
336.8162, 1406.815
337.2983, 1389.277
337.7804, 1370.471
338.2625, 1363.923
338.7447, 1369.490
339.2268, 1377.264
339.7089, 1380.504
340.1910, 1379.748
340.6731, 1380.240
341.1552, 1385.615
341.6374, 1387.949
342.1195, 1380.557
342.6016, 1369.500
343.0837, 1364.767
343.5658, 1370.408
344.0479, 1382.275
344.5301, 1392.825
345.0122, 1405.094
345.4943, 1409.659
345.9764, 1399.959
346.4585, 1388.266
346.9406, 1383.460
347.4228, 1385.679
347.9049, 1389.387
348.3870, 1389.716
348.8691, 1386.634
349.3512, 1381.551
349.8333, 1368.460
350.3155, 1360.263
350.7976, 1363.226
351.2797, 1372.392
351.7618, 1381.064
352.2439, 1386.478
352.7260, 1388.361
353.2082, 1384.056
353.6903, 1369.776
354.1724, 1362.842
354.6545, 1377.585
355.1366, 1394.877
355.6187, 1402.317
356.1009, 1398.623
356.5830, 1389.564
357.0651, 1374.784
357.5472, 1357.209
358.0293, 1351.205
358.5114, 1362.081
358.9936, 1375.757
359.4757, 1380.684
359.9578, 1380.012
360.4399, 1381.258
360.9220, 1391.690
361.4041, 1400.908
361.8863, 1395.322
362.3684, 1377.070
362.8505, 1363.059
363.3326, 1361.678
363.8147, 1368.763
364.2968, 1375.129
364.7790, 1382.366
365.2611, 1385.610
365.7432, 1378.977
366.2253, 1369.584
366.7074, 1367.691
367.1895, 1375.105
367.6717, 1384.133
368.1538, 1385.980
368.6359, 1378.796
369.1180, 1377.103
369.6001, 1389.980
370.0822, 1398.506
370.5644, 1389.544
371.0465, 1370.124
371.5286, 1355.432
372.0107, 1354.017
372.4928, 1362.480
372.9749, 1370.386
373.4571, 1377.891
373.9392, 1384.477
374.4213, 1389.094
374.9034, 1393.579
375.3855, 1401.544
375.8676, 1412.437
376.3498, 1419.445
376.8319, 1412.963
377.3140, 1392.718
377.7961, 1378.692
378.2782, 1375.193
378.7603, 1372.566
379.2425, 1363.016
379.7246, 1351.336
380.2067, 1347.496
380.6888, 1359.697
381.1709, 1375.922
381.6530, 1375.637
382.1352, 1358.359
382.6173, 1351.371
383.0994, 1372.997
383.5815, 1401.884
384.0636, 1406.084
384.5457, 1381.699
385.0279, 1359.584
385.5100, 1352.398
385.9921, 1354.977
386.4742, 1361.150
386.9563, 1370.030
387.4384, 1378.381
387.9206, 1382.781
388.4027, 1383.452
388.8848, 1387.942
389.3669, 1404.681
389.8490, 1416.002
390.3311, 1410.379
390.8133, 1395.103
391.2954, 1383.561
391.7775, 1381.487
392.2596, 1384.627
392.7417, 1384.187
393.2238, 1374.089
393.7060, 1372.714
394.1881, 1391.103
394.6702, 1407.938
395.1523, 1406.635
395.6344, 1390.516
396.1165, 1376.117
396.5987, 1377.805
397.0808, 1392.176
397.5629, 1397.111
398.0450, 1386.697
398.5271, 1377.313
399.0092, 1372.923
399.4914, 1372.465
399.9735, 1376.030
400.4556, 1384.051
400.9377, 1391.972
401.4198, 1395.686
401.9019, 1395.317
402.3841, 1390.783
402.8662, 1379.165
403.3483, 1368.507
403.8304, 1367.688
404.3125, 1374.627
404.7946, 1380.409
405.2768, 1379.635
405.7589, 1379.093
406.2410, 1388.315
406.7231, 1405.010
407.2052, 1415.008
407.6873, 1409.859
408.1695, 1395.661
408.6516, 1388.765
409.1337, 1393.697
409.6158, 1396.888
410.0979, 1395.484
410.5800, 1392.392
411.0622, 1390.496
411.5443, 1390.007
412.0264, 1388.724
412.5085, 1383.860
412.9906, 1375.317
413.4727, 1373.316
413.9549, 1386.678
414.4370, 1396.985
414.9191, 1399.839
415.4012, 1397.897
415.8833, 1393.964
416.3654, 1389.008
416.8476, 1384.474
417.3297, 1381.967
417.8118, 1381.396
418.2939, 1384.366
418.7760, 1396.045
419.2581, 1405.601
419.7403, 1403.775
420.2224, 1393.583
420.7045, 1386.185
421.1866, 1388.672
421.6687, 1395.373
422.1508, 1398.834
422.6330, 1399.150
423.1151, 1398.738
423.5972, 1399.495
424.0793, 1399.372
424.5614, 1393.148
425.0435, 1377.985
425.5257, 1366.037
426.0078, 1360.379
426.4899, 1359.551
426.9720, 1362.283
427.4541, 1368.299
427.9362, 1378.473
428.4184, 1395.128
428.9005, 1417.730
429.3826, 1426.886
429.8647, 1410.927
430.3468, 1395.412
430.8289, 1382.318
431.3111, 1373.370
431.7932, 1371.407
432.2753, 1376.931
432.7574, 1385.421
433.2395, 1391.484
433.7216, 1395.060
434.2038, 1396.437
434.6859, 1394.396
435.1680, 1391.483
435.6501, 1386.972
436.1322, 1382.703
436.6143, 1382.886
437.0965, 1391.183
437.5786, 1402.021
438.0607, 1408.652
438.5428, 1411.269
439.0249, 1412.271
439.5070, 1412.672
439.9892, 1411.455
440.4713, 1405.019
440.9534, 1392.357
441.4355, 1386.021
441.9176, 1394.021
442.3997, 1405.691
442.8819, 1412.606
443.3640, 1414.299
443.8461, 1411.943
444.3282, 1405.343
444.8103, 1396.747
445.2924, 1395.312
445.7746, 1410.492
446.2567, 1420.665
446.7388, 1422.986
447.2209, 1421.313
447.7030, 1417.900
448.1852, 1413.567
448.6673, 1409.163
449.1494, 1405.281
449.6315, 1401.966
450.1136, 1399.330
450.5957, 1396.352
451.0779, 1396.079
451.5600, 1403.206
452.0421, 1411.991
452.5242, 1415.275
453.0063, 1410.811
453.4884, 1404.536
453.9706, 1399.837
454.4527, 1397.079
454.9348, 1398.431
455.4169, 1405.176
455.8990, 1411.711
456.3811, 1412.686
456.8633, 1408.318
457.3454, 1405.422
457.8275, 1404.469
458.3096, 1404.575
458.7917, 1406.500
459.2738, 1408.952
459.7560, 1409.769
460.2381, 1408.188
460.7202, 1404.788
461.2023, 1399.825
461.6844, 1391.318
462.1665, 1388.388
462.6487, 1397.938
463.1308, 1405.834
463.6129, 1404.841
464.0950, 1398.463
464.5771, 1393.982
465.0592, 1395.160
465.5414, 1398.972
466.0235, 1398.739
466.5056, 1393.553
466.9877, 1396.030
467.4698, 1415.199
467.9519, 1435.682
468.4341, 1444.339
468.9162, 1442.177
469.3983, 1435.156
469.8804, 1419.900
470.3625, 1404.536
470.8446, 1397.678
471.3268, 1398.381
471.8089, 1401.101
472.2910, 1403.547
472.7731, 1405.919
473.2552, 1408.646
473.7373, 1412.145
474.2195, 1415.188
474.7016, 1419.303
475.1837, 1421.701
475.6658, 1419.375
476.1479, 1413.503
476.6300, 1407.734
477.1122, 1404.359
477.5943, 1403.046
478.0764, 1402.477
478.5585, 1401.641
479.0406, 1404.205
479.5227, 1418.317
480.0049, 1430.813
480.4870, 1430.194
480.9691, 1417.209
481.4512, 1405.124
481.9333, 1402.897
482.4154, 1406.008
482.8976, 1406.839
483.3797, 1405.181
483.8618, 1403.286
484.3439, 1401.097
484.8260, 1400.353
485.3081, 1406.749
485.7903, 1425.242
486.2724, 1437.531
486.7545, 1437.338
487.2366, 1431.709
487.7187, 1423.627
488.2008, 1415.375
488.6830, 1413.324
489.1651, 1423.495
489.6472, 1441.618
490.1293, 1446.240
490.6114, 1425.612
491.0935, 1412.306
491.5757, 1415.756
492.0578, 1424.003
492.5399, 1430.560
493.0220, 1433.675
493.5041, 1430.972
493.9862, 1413.689
494.4684, 1390.575
494.9505, 1385.915
495.4326, 1401.875
495.9147, 1418.559
496.3968, 1427.770
496.8789, 1430.937
497.3611, 1431.037
497.8432, 1427.346
498.3253, 1423.200
498.8074, 1420.119
499.2895, 1416.599
499.7716, 1409.395
500.2538, 1399.598
500.7359, 1392.813
501.2180, 1393.076
501.7001, 1399.371
502.1822, 1407.615
502.6643, 1422.207
503.1465, 1431.192
503.6286, 1430.122
504.1107, 1426.248
504.5928, 1425.054
505.0749, 1426.529
505.5570, 1426.881
506.0392, 1421.551
506.5213, 1413.963
507.0034, 1414.224
507.4855, 1423.558
507.9676, 1429.293
508.4497, 1423.638
508.9319, 1413.977
509.4140, 1413.332
509.8961, 1423.670
510.3782, 1430.636
510.8603, 1427.165
511.3424, 1421.315
511.8246, 1422.058
512.3067, 1427.741
512.7888, 1428.703
513.2709, 1418.566
513.7531, 1402.974
514.2352, 1399.528
514.7173, 1420.756
515.1994, 1429.472
515.6815, 1409.990
516.1636, 1391.062
516.6458, 1391.456
517.1279, 1407.632
517.6100, 1424.437
518.0921, 1434.805
518.5742, 1438.976
519.0563, 1434.643
519.5385, 1421.784
520.0206, 1413.454
520.5027, 1415.040
520.9848, 1420.370
521.4669, 1422.192
521.9490, 1420.685
522.4312, 1417.313
522.9133, 1408.868
523.3954, 1401.786
523.8775, 1400.210
524.3596, 1403.277
524.8417, 1410.188
525.3239, 1420.640
525.8060, 1429.732
526.2881, 1427.667
526.7702, 1409.123
527.2523, 1398.201
527.7344, 1401.159
528.2166, 1405.737
528.6987, 1408.785
529.1808, 1410.115
529.6629, 1409.575
530.1450, 1406.760
530.6271, 1403.315
531.1093, 1398.914
531.5914, 1394.923
532.0735, 1399.228
532.5556, 1415.349
533.0377, 1430.178
533.5198, 1429.938
534.0020, 1416.254
534.4841, 1413.814
534.9662, 1438.055
535.4483, 1454.506
535.9304, 1442.116
536.4125, 1421.320
536.8947, 1420.459
537.3768, 1443.058
537.8589, 1466.399
538.3410, 1466.759
538.8231, 1446.146
539.3052, 1431.323
539.7874, 1423.426
540.2695, 1419.220
540.7516, 1418.950
541.2337, 1421.023
541.7158, 1424.416
542.1979, 1429.013
542.6801, 1433.854
543.1622, 1440.487
543.6443, 1446.005
544.1264, 1443.955
544.6085, 1435.054
545.0906, 1429.676
545.5728, 1434.409
546.0549, 1444.381
546.5370, 1447.102
547.0191, 1433.397
547.5012, 1428.660
547.9833, 1442.800
548.4655, 1456.689
548.9476, 1458.640
549.4297, 1450.839
549.9117, 1440.502
550.3939, 1430.906
550.8760, 1422.785
551.3581, 1416.542
551.8402, 1412.083
552.3223, 1413.675
552.8044, 1424.701
553.2866, 1437.815
553.7687, 1448.899
554.2508, 1457.253
554.7329, 1458.805
555.2150, 1447.624
555.6971, 1435.128
556.1793, 1425.281
556.6614, 1418.602
557.1435, 1416.207
557.6256, 1418.231
558.1077, 1423.317
558.5898, 1430.356
559.0720, 1439.317
559.5541, 1448.552
560.0362, 1463.083
560.5183, 1469.852
561.0004, 1460.324
561.4825, 1445.944
561.9647, 1437.850
562.4468, 1437.500
562.9289, 1437.757
563.4110, 1433.428
563.8931, 1426.897
564.3752, 1420.906
564.8574, 1415.844
565.3395, 1416.473
565.8216, 1427.108
566.3037, 1440.734
566.7858, 1442.848
567.2679, 1425.019
567.7501, 1415.631
568.2322, 1421.053
568.7143, 1428.715
569.1964, 1431.989
569.6785, 1432.375
570.1606, 1434.619
570.6428, 1441.061
571.1249, 1447.006
571.6070, 1441.683
572.0891, 1425.633
572.5712, 1425.326
573.0533, 1450.812
573.5355, 1476.208
574.0176, 1482.792
574.4997, 1476.095
574.9818, 1470.734
575.4639, 1470.044
575.9460, 1466.633
576.4282, 1452.273
576.9103, 1436.688
577.3924, 1432.073
577.8745, 1438.924
578.3566, 1449.935
578.8387, 1460.473
579.3209, 1469.406
579.8030, 1471.373
580.2851, 1462.582
580.7672, 1455.974
581.2493, 1458.309
581.7314, 1459.597
582.2136, 1451.472
582.6957, 1436.251
583.1778, 1424.681
583.6599, 1422.773
584.1420, 1424.555
584.6241, 1423.865
585.1063, 1422.147
585.5884, 1424.115
586.0705, 1431.191
586.5526, 1440.374
587.0347, 1449.346
587.5168, 1458.334
587.9990, 1460.216
588.4811, 1447.817
588.9632, 1436.871
589.4453, 1425.280
589.9274, 1419.290
590.4095, 1430.250
590.8917, 1456.858
591.3738, 1477.978
591.8559, 1472.084
592.3380, 1450.974
592.8201, 1441.966
593.3022, 1444.942
593.7844, 1446.260
594.2665, 1439.182
594.7486, 1430.857
595.2307, 1433.435
595.7128, 1451.494
596.1949, 1460.332
596.6771, 1446.977
597.1592, 1437.792
597.6413, 1453.034
598.1234, 1477.589
598.6055, 1485.046
599.0876, 1467.793
599.5698, 1446.792
600.0519, 1451.410
600.5340, 1477.219
601.0161, 1481.397
601.4982, 1456.860
601.9803, 1433.589
602.4625, 1426.230
602.9446, 1428.414
603.4267, 1427.944
603.9088, 1423.542
604.3909, 1422.057
604.8730, 1425.028
605.3552, 1431.541
605.8373, 1443.637
606.3194, 1458.543
606.8015, 1470.116
607.2836, 1475.486
607.7657, 1477.220
608.2479, 1480.216
608.7300, 1485.259
609.2121, 1483.492
609.6942, 1469.345
610.1763, 1457.233
610.6584, 1459.585
611.1406, 1466.933
611.6227, 1463.813
612.1048, 1444.326
612.5869, 1429.191
613.0690, 1430.231
613.5511, 1438.631
614.0333, 1446.375
614.5154, 1452.169
614.9975, 1455.239
615.4796, 1455.036
615.9617, 1452.687
616.4438, 1449.894
616.9260, 1445.145
617.4081, 1445.758
617.8902, 1460.936
618.3723, 1470.781
618.8544, 1460.585
619.3365, 1440.386
619.8187, 1428.320
620.3008, 1430.081
620.7829, 1435.332
621.2650, 1437.221
621.7471, 1438.687
622.2292, 1446.288
622.7114, 1459.329
623.1935, 1468.839
623.6756, 1469.166
624.1577, 1462.538
624.6398, 1454.473
625.1219, 1442.713
625.6041, 1434.865
626.0862, 1430.578
626.5683, 1431.014
627.0504, 1440.342
627.5325, 1454.121
628.0146, 1463.515
628.4968, 1464.660
628.9789, 1465.120
629.4610, 1473.959
629.9431, 1485.255
630.4252, 1485.236
630.9073, 1473.474
631.3895, 1463.868
631.8716, 1466.287
632.3537, 1475.895
632.8358, 1477.608
633.3179, 1465.956
633.8000, 1457.385
634.2822, 1453.731
634.7643, 1451.659
635.2464, 1448.528
635.7285, 1446.014
636.2106, 1448.865
636.6927, 1460.851
637.1749, 1470.488
637.6570, 1465.030
638.1391, 1450.941
638.6212, 1440.221
639.1033, 1434.549
639.5854, 1436.263
640.0676, 1448.830
640.5497, 1466.074
641.0318, 1468.432
641.5139, 1440.824
641.9960, 1427.690
642.4781, 1444.199
642.9603, 1459.349
643.4424, 1453.633
643.9245, 1437.104
644.4066, 1430.627
644.8887, 1442.614
645.3708, 1458.256
645.8530, 1466.168
646.3351, 1468.670
646.8172, 1469.669
647.2993, 1469.745
647.7814, 1470.159
648.2635, 1471.702
648.7457, 1473.958
649.2278, 1476.098
649.7099, 1479.615
650.1920, 1479.636
650.6741, 1470.350
651.1563, 1463.776
651.6384, 1469.798
652.1205, 1480.302
652.6026, 1479.464
