##NAMES=Betekhtinite
##RRUFFID=R070087
##IDEAL CHEMISTRY=(Cu,Fe)_21_Pb_2_S_15_
##LOCALITY=Dzhezkazgan deposit, central Kazakhstan
##OWNER=RRUFF
##SOURCE=Michael Scott
##DESCRIPTION=Aggregate of black bladed to prismatic crystals associated with quartz
##STATUS=The identification of this mineral has been confirmed by X-ray diffraction and chemical analysis
##URL=rruff.info/R070087
##MEASURED CHEMISTRY=(Cu_20.15_Fe_0.85_)_Σ=21_(Pb_1.80_Ag_0.11_Fe_0.09_)_Σ=2_S_15.00_
148.2522, 500.9401
148.7343, 503.1994
149.2164, 506.4707
149.6985, 512.5326
150.1806, 524.7451
150.6627, 533.8525
151.1449, 537.5878
151.6270, 537.9333
152.1091, 539.8923
152.5912, 544.6060
153.0733, 550.4310
153.5554, 556.7129
154.0376, 566.2033
154.5197, 572.9104
155.0018, 576.1010
155.4839, 575.8752
155.9660, 572.7708
156.4481, 563.0660
156.9303, 552.6229
157.4124, 545.3196
157.8945, 543.6318
158.3766, 543.6124
158.8587, 545.2606
159.3408, 548.4163
159.8230, 549.9407
160.3051, 545.7497
160.7872, 540.4824
161.2693, 538.7505
161.7514, 547.3074
162.2335, 555.4993
162.7157, 557.4053
163.1978, 552.1490
163.6799, 546.9556
164.1620, 544.7753
164.6441, 544.9573
165.1262, 546.5452
165.6084, 549.4398
166.0905, 553.4009
166.5726, 558.9104
167.0547, 566.6561
167.5368, 573.2082
168.0189, 573.7180
168.5011, 571.1162
168.9832, 572.0105
169.4653, 585.8094
169.9474, 602.0267
170.4295, 609.7650
170.9116, 605.2350
171.3938, 596.4573
171.8759, 587.7264
172.3580, 579.8400
172.8401, 575.3378
173.3222, 578.8591
173.8043, 586.0455
174.2865, 590.8551
174.7686, 591.7415
175.2507, 589.9365
175.7328, 585.4302
176.2149, 578.6677
176.6970, 572.7408
177.1792, 569.2668
177.6613, 568.4030
178.1434, 570.8674
178.6255, 579.7550
179.1076, 589.9392
179.5897, 592.2170
180.0719, 586.6301
180.5540, 580.5983
181.0361, 582.3349
181.5182, 589.4425
182.0003, 594.0799
182.4824, 591.2843
182.9646, 584.7245
183.4467, 583.3372
183.9288, 587.5553
184.4109, 592.9340
184.8930, 594.1909
185.3751, 591.9763
185.8573, 590.4329
186.3394, 591.3502
186.8215, 594.3158
187.3036, 598.5001
187.7857, 604.5089
188.2678, 609.5837
188.7500, 608.5899
189.2321, 601.8018
189.7142, 596.2579
190.1963, 595.8348
190.6784, 599.8690
191.1605, 603.5207
191.6427, 606.6759
192.1248, 609.2927
192.6069, 611.4915
193.0890, 613.3158
193.5711, 613.8456
194.0532, 611.6156
194.5354, 606.8138
195.0175, 604.1459
195.4996, 604.2951
195.9817, 606.1867
196.4638, 607.5344
196.9460, 608.2477
197.4281, 609.0027
197.9102, 610.4377
198.3923, 612.6194
198.8744, 614.1141
199.3565, 614.7852
199.8387, 614.6781
200.3208, 613.5477
200.8029, 611.0077
201.2850, 608.9028
201.7671, 608.9736
202.2492, 611.5845
202.7314, 613.3203
203.2135, 613.6550
203.6956, 612.7832
204.1777, 611.1451
204.6598, 608.1675
205.1419, 605.9230
205.6241, 606.2867
206.1062, 609.6697
206.5883, 613.8385
207.0704, 619.3326
207.5525, 625.5653
208.0346, 627.1729
208.5168, 622.1173
208.9989, 616.3389
209.4810, 616.2153
209.9631, 624.2951
210.4452, 629.0929
210.9273, 627.1937
211.4095, 618.9709
211.8916, 614.4140
212.3737, 614.9682
212.8558, 617.0797
213.3379, 616.4556
213.8200, 611.0593
214.3022, 608.8842
214.7843, 613.5771
215.2664, 625.5995
215.7485, 630.0988
216.2306, 623.7124
216.7127, 613.6629
217.1949, 608.3516
217.6770, 609.4662
218.1591, 611.5294
218.6412, 612.8041
219.1233, 612.8633
219.6054, 616.7319
220.0876, 627.7468
220.5697, 639.5057
221.0518, 642.8601
221.5339, 633.5081
222.0160, 624.2372
222.4981, 618.5896
222.9803, 617.0009
223.4624, 616.2000
223.9445, 615.5452
224.4266, 616.1676
224.9087, 620.3356
225.3908, 630.7216
225.8730, 639.8191
226.3551, 645.3627
226.8372, 647.0120
227.3193, 646.6154
227.8014, 643.8124
228.2835, 639.1646
228.7657, 633.0065
229.2478, 622.2387
229.7299, 614.9683
230.2120, 614.9813
230.6941, 625.6302
231.1762, 632.3845
231.6584, 634.2104
232.1405, 632.6471
232.6226, 630.6286
233.1047, 628.5872
233.5868, 625.3686
234.0689, 619.6779
234.5511, 608.4724
235.0332, 603.7783
235.5153, 608.0479
235.9974, 617.8782
236.4795, 626.4620
236.9616, 635.7485
237.4438, 640.8607
237.9259, 638.8546
238.4080, 625.4286
238.8901, 616.1667
239.3722, 611.8085
239.8543, 611.4638
240.3365, 613.3331
240.8186, 618.6262
241.3007, 624.3761
241.7828, 629.2807
242.2649, 632.4729
242.7470, 637.0259
243.2292, 644.8009
243.7113, 653.4407
244.1934, 656.5272
244.6755, 650.7512
245.1576, 644.2721
245.6397, 640.7095
246.1219, 641.8525
246.6040, 641.6732
247.0861, 638.5959
247.5682, 634.5746
248.0503, 635.4078
248.5324, 644.4845
249.0146, 653.2280
249.4967, 657.7048
249.9788, 656.1655
250.4609, 654.2076
250.9430, 651.0883
251.4251, 647.7917
251.9073, 647.2689
252.3894, 651.7582
252.8715, 655.4753
253.3536, 655.4387
253.8357, 649.5979
254.3178, 644.9812
254.8000, 641.3383
255.2821, 639.0574
255.7642, 640.0490
256.2463, 647.5797
256.7284, 652.8063
257.2105, 649.9812
257.6927, 633.0515
258.1748, 624.8483
258.6569, 628.1463
259.1390, 639.4166
259.6211, 649.6061
260.1032, 659.7852
260.5854, 667.0015
261.0675, 669.0331
261.5496, 663.1938
262.0317, 660.7863
262.5138, 663.8723
262.9959, 669.5768
263.4781, 669.9100
263.9602, 661.7944
264.4423, 655.0463
264.9244, 655.9858
265.4065, 668.5518
265.8886, 673.5530
266.3708, 667.8849
266.8529, 656.1880
267.3350, 649.2183
267.8171, 647.7032
268.2992, 648.8625
268.7813, 652.1031
269.2635, 658.2751
269.7456, 662.8662
270.2277, 666.3914
270.7098, 667.7178
271.1919, 662.1744
271.6740, 646.5950
272.1562, 635.0235
272.6383, 636.1284
273.1204, 652.1701
273.6025, 664.9344
274.0846, 674.9721
274.5667, 680.6758
275.0489, 676.1821
275.5310, 658.3221
276.0131, 645.1285
276.4952, 648.1409
276.9773, 669.1225
277.4594, 681.6124
277.9416, 683.3752
278.4237, 679.3922
278.9058, 678.6804
279.3879, 681.9149
279.8700, 683.1851
280.3521, 678.5253
280.8343, 667.9274
281.3164, 659.3440
281.7985, 652.1245
282.2806, 648.4797
282.7627, 655.4141
283.2448, 673.6857
283.7270, 686.9155
284.2091, 683.2587
284.6912, 664.9387
285.1733, 658.9141
285.6554, 667.7745
286.1375, 681.3525
286.6197, 684.1298
287.1018, 676.6612
287.5839, 671.2953
288.0660, 676.3632
288.5481, 688.8141
289.0303, 691.8680
289.5124, 683.9615
289.9945, 673.7720
290.4766, 672.8532
290.9587, 680.0162
291.4409, 686.7901
291.9230, 690.0527
292.4051, 690.3273
292.8872, 687.5491
293.3693, 681.1370
293.8514, 676.4059
294.3336, 683.2285
294.8157, 697.9266
295.2978, 705.4150
295.7799, 693.1716
296.2620, 672.2844
296.7441, 666.7675
297.2263, 677.1095
297.7084, 690.6878
298.1905, 695.5997
298.6726, 694.2791
299.1547, 692.6288
299.6368, 692.7018
300.1190, 693.5625
300.6011, 694.5320
301.0832, 695.5378
301.5653, 694.9118
302.0474, 689.3860
302.5295, 681.5333
303.0117, 676.0410
303.4938, 676.0017
303.9759, 677.4776
304.4580, 675.3149
304.9401, 670.1022
305.4222, 666.5043
305.9044, 669.3495
306.3865, 675.3022
306.8686, 679.7179
307.3507, 680.0899
307.8328, 680.2651
308.3149, 684.7557
308.7971, 692.3587
309.2792, 697.8162
309.7613, 695.5526
310.2434, 690.7900
310.7255, 689.1937
311.2076, 694.5526
311.6898, 699.0261
312.1719, 695.9862
312.6540, 687.8340
313.1361, 681.6451
313.6182, 681.0519
314.1003, 683.4767
314.5825, 687.6730
315.0646, 695.2249
315.5467, 700.3979
316.0288, 698.1691
316.5109, 691.7899
316.9930, 688.2114
317.4752, 693.6083
317.9573, 699.8253
318.4394, 702.1260
318.9215, 698.6209
319.4036, 695.2220
319.8857, 692.7538
320.3679, 691.5817
320.8500, 692.2560
321.3321, 697.9511
321.8142, 702.9313
322.2963, 705.4009
322.7784, 705.4667
323.2606, 702.0405
323.7427, 689.6931
324.2248, 675.5441
324.7069, 667.9379
325.1890, 675.1954
325.6711, 681.7623
326.1533, 683.6145
326.6354, 679.7411
327.1175, 676.8901
327.5996, 674.3810
328.0817, 673.3727
328.5638, 674.9703
329.0460, 682.2025
329.5281, 688.2698
330.0102, 692.8243
330.4923, 695.8073
330.9744, 694.9510
331.4565, 686.8201
331.9387, 678.1431
332.4208, 674.1509
332.9029, 677.9284
333.3850, 680.2913
333.8671, 679.1874
334.3492, 675.6818
334.8314, 675.9619
335.3135, 682.1387
335.7956, 688.5280
336.2777, 691.2648
336.7598, 688.8567
337.2419, 688.5079
337.7241, 692.1163
338.2062, 697.3173
338.6883, 696.7251
339.1704, 688.9781
339.6525, 680.3781
340.1346, 673.9471
340.6168, 669.8240
341.0989, 666.2874
341.5810, 662.8518
342.0631, 660.7729
342.5452, 663.1366
343.0273, 670.1817
343.5095, 677.2097
343.9916, 683.4791
344.4737, 688.4695
344.9558, 687.2557
345.4379, 678.5229
345.9200, 668.9896
346.4022, 667.6665
346.8843, 673.4925
347.3664, 679.5369
347.8485, 683.0630
348.3306, 685.0774
348.8127, 688.6682
349.2949, 693.9612
349.7770, 697.8278
350.2591, 695.7810
350.7412, 689.9961
351.2233, 685.8903
351.7054, 686.1622
352.1876, 687.9513
352.6697, 687.3482
353.1518, 684.6840
353.6339, 682.4614
354.1160, 684.1659
354.5981, 686.8389
355.0803, 686.0310
355.5624, 678.1766
356.0445, 670.9669
356.5266, 671.7997
357.0087, 678.5432
357.4908, 684.6398
357.9730, 685.7108
358.4551, 685.2885
358.9372, 686.1671
359.4193, 689.0938
359.9014, 692.4253
360.3835, 697.1291
360.8657, 701.5186
361.3478, 702.6991
361.8299, 696.2369
362.3120, 689.1642
362.7941, 684.7599
363.2762, 683.6959
363.7584, 682.9625
364.2405, 682.7949
364.7226, 682.2195
365.2047, 680.1952
365.6868, 672.6666
366.1689, 667.5960
366.6511, 667.8466
367.1332, 673.6333
367.6153, 678.3250
368.0974, 682.4820
368.5795, 684.9025
369.0616, 684.6241
369.5438, 678.3348
370.0259, 674.0095
370.5080, 672.5434
370.9901, 673.6201
371.4722, 676.0255
371.9543, 681.8843
372.4365, 686.2077
372.9186, 685.5347
373.4007, 676.5942
373.8828, 672.3509
374.3649, 675.1395
374.8470, 681.3625
375.3292, 683.0942
375.8113, 679.0556
376.2934, 674.8582
376.7755, 672.7361
377.2576, 672.7096
377.7397, 673.6475
378.2219, 675.6776
378.7040, 678.3024
379.1861, 681.6602
379.6682, 685.7619
380.1503, 687.3291
380.6324, 684.0549
381.1146, 677.7565
381.5967, 673.4209
382.0788, 670.9930
382.5609, 672.0202
383.0430, 681.2383
383.5251, 695.5013
384.0073, 704.7375
384.4894, 704.9777
384.9715, 701.0490
385.4536, 699.3608
385.9357, 699.5692
386.4178, 699.7793
386.9000, 699.3232
387.3821, 697.9526
387.8642, 694.4366
388.3463, 687.3628
388.8284, 682.3152
389.3105, 686.2859
389.7927, 695.4807
390.2748, 702.0577
390.7569, 700.9456
391.2390, 697.0611
391.7211, 692.9500
392.2032, 688.6905
392.6854, 685.7247
393.1675, 685.7696
393.6496, 687.0269
394.1317, 687.5836
394.6138, 685.5070
395.0959, 684.0670
395.5781, 683.6852
396.0602, 684.4935
396.5423, 687.7465
397.0244, 696.7177
397.5065, 706.1775
397.9886, 712.9943
398.4708, 716.7260
398.9529, 718.1420
399.4350, 716.4564
399.9171, 712.4666
400.3992, 708.2430
400.8813, 702.9091
401.3635, 698.4732
401.8456, 695.6003
402.3277, 694.3101
402.8098, 695.0074
403.2919, 699.3163
403.7740, 703.9122
404.2562, 702.8694
404.7383, 693.4989
405.2204, 688.7198
405.7025, 694.9090
406.1846, 709.6294
406.6667, 712.0753
407.1489, 699.7812
407.6310, 685.5683
408.1131, 682.5068
408.5952, 689.5654
409.0773, 693.7177
409.5594, 691.6337
410.0416, 686.6945
410.5237, 685.0853
411.0058, 686.5793
411.4879, 688.7601
411.9700, 691.6350
412.4521, 693.9070
412.9343, 691.3035
413.4164, 682.0826
413.8985, 674.7017
414.3806, 679.8380
414.8628, 692.9661
415.3449, 704.7385
415.8270, 712.4617
416.3091, 715.9437
416.7912, 712.3860
417.2733, 702.0361
417.7555, 694.4698
418.2376, 698.3611
418.7197, 705.7679
419.2018, 709.1977
419.6839, 702.0007
420.1660, 695.7932
420.6482, 695.7610
421.1303, 700.1216
421.6124, 702.8052
422.0945, 700.8764
422.5766, 698.2305
423.0587, 696.4377
423.5409, 695.2129
424.0230, 695.7247
424.5051, 699.0594
424.9872, 703.7758
425.4693, 708.0363
425.9514, 712.9083
426.4336, 715.6359
426.9157, 715.0913
427.3978, 711.2529
427.8799, 707.3290
428.3620, 702.1292
428.8441, 698.7893
429.3263, 701.1993
429.8084, 710.9277
430.2905, 716.8476
430.7726, 716.1680
431.2547, 711.9067
431.7368, 712.5419
432.2190, 718.4836
432.7011, 723.6317
433.1832, 723.2197
433.6653, 718.5748
434.1474, 716.7217
434.6295, 718.1718
435.1117, 721.2095
435.5938, 724.7648
436.0759, 728.4188
436.5580, 730.9053
437.0401, 733.3379
437.5222, 733.2766
438.0044, 724.7679
438.4865, 708.9764
438.9686, 696.4329
439.4507, 695.2407
439.9328, 700.5767
440.4149, 708.0044
440.8971, 719.0175
441.3792, 727.0845
441.8613, 725.7659
442.3434, 719.1235
442.8255, 715.8308
443.3076, 722.8749
443.7898, 730.5850
444.2719, 734.8878
444.7540, 735.1513
445.2361, 733.5994
445.7182, 728.9679
446.2003, 723.4487
446.6825, 719.0430
447.1646, 714.6649
447.6467, 712.9606
448.1288, 715.7886
448.6109, 722.0543
449.0930, 724.8098
449.5752, 722.0221
450.0573, 719.0064
450.5394, 718.6042
451.0215, 721.2794
451.5036, 725.0488
451.9857, 731.0116
452.4679, 736.3708
452.9500, 735.8810
453.4321, 729.1877
453.9142, 722.4101
454.3963, 716.4172
454.8784, 712.1969
455.3606, 715.0818
455.8427, 725.3379
456.3248, 734.6474
456.8069, 733.9221
457.2890, 726.6772
457.7711, 720.9526
458.2533, 717.7599
458.7354, 717.8885
459.2175, 725.3018
459.6996, 737.1863
460.1817, 745.6691
460.6638, 745.0617
461.1460, 740.2310
461.6281, 732.8837
462.1102, 722.5647
462.5923, 717.2676
463.0744, 726.0557
463.5565, 739.5163
464.0387, 748.2183
464.5208, 746.9735
465.0029, 743.5870
465.4850, 738.2747
465.9671, 731.7001
466.4492, 727.8006
466.9314, 728.7742
467.4135, 730.7347
467.8956, 732.2441
468.3777, 733.2313
468.8598, 733.7695
469.3419, 733.0054
469.8241, 732.5198
470.3062, 735.1198
470.7883, 742.1894
471.2704, 747.6843
471.7525, 750.1489
472.2346, 749.7568
472.7168, 746.4127
473.1989, 739.5509
473.6810, 733.7823
474.1631, 733.6923
474.6452, 738.1476
475.1273, 740.9208
475.6095, 740.5594
476.0916, 740.3179
476.5737, 746.9510
477.0558, 757.8066
477.5379, 764.5053
478.0201, 760.4572
478.5022, 751.7055
478.9843, 742.4844
479.4664, 733.1453
479.9485, 728.5084
480.4306, 738.0233
480.9128, 750.5776
481.3949, 754.9548
481.8770, 739.8369
482.3591, 728.8463
482.8412, 733.9951
483.3233, 748.9355
483.8055, 758.9712
484.2876, 757.7529
484.7697, 754.3945
485.2518, 751.5901
485.7339, 749.3757
486.2160, 747.6296
486.6982, 745.1638
487.1803, 744.2564
487.6624, 747.6805
488.1445, 758.2327
488.6266, 765.2652
489.1087, 766.8039
489.5909, 764.2711
490.0730, 760.4542
490.5551, 754.6301
491.0372, 751.9915
491.5193, 758.7660
492.0014, 772.4706
492.4836, 775.5508
492.9657, 766.4660
493.4478, 755.1774
493.9299, 753.2373
494.4120, 757.4772
494.8941, 758.9632
495.3763, 752.7963
495.8584, 745.4196
496.3405, 745.0724
496.8226, 749.8713
497.3047, 753.3130
497.7868, 748.0785
498.2690, 742.6868
498.7511, 745.4244
499.2332, 759.7025
499.7153, 769.0272
500.1974, 761.9180
500.6795, 749.1248
501.1617, 742.1301
501.6438, 749.8756
502.1259, 755.6195
502.6080, 754.2626
503.0901, 748.0223
503.5722, 747.9827
504.0544, 759.8156
504.5365, 770.1224
505.0186, 772.1276
505.5007, 763.3026
505.9828, 759.3868
506.4649, 761.9437
506.9471, 766.5288
507.4292, 766.6537
507.9113, 762.1235
508.3934, 761.1892
508.8755, 767.8596
509.3576, 777.6414
509.8398, 779.0738
510.3219, 772.9759
510.8040, 767.9864
511.2861, 772.8889
511.7682, 781.5333
512.2504, 783.0571
512.7325, 775.6402
513.2146, 768.1279
513.6967, 767.5796
514.1788, 770.8517
514.6609, 773.5251
515.1431, 773.1142
515.6252, 772.7684
516.1073, 773.8218
516.5894, 776.0342
517.0715, 778.3757
517.5536, 782.6106
518.0358, 785.2634
518.5179, 784.3947
519.0000, 778.6806
519.4821, 773.2726
519.9642, 765.6691
520.4464, 760.5307
520.9285, 764.4713
521.4106, 782.4198
521.8927, 793.7880
522.3748, 793.2861
522.8569, 784.7205
523.3391, 779.6770
523.8212, 778.3039
524.3033, 773.7855
524.7854, 781.3182
525.2675, 785.9373
525.7496, 787.7994
526.2318, 778.6472
526.7139, 783.7178
527.1960, 783.0883
527.6781, 782.2253
528.1602, 789.2977
528.6423, 781.7472
529.1245, 788.6940
529.6066, 789.8537
530.0887, 793.6618
530.5708, 791.7349
531.0529, 791.5793
531.5350, 797.1606
532.0172, 799.5657
532.4993, 796.9786
532.9814, 800.9550
533.4635, 793.2043
533.9456, 795.7444
534.4277, 802.7245
534.9099, 800.4260
535.3920, 804.5074
535.8741, 806.1588
536.3562, 796.7672
536.8383, 806.5806
537.3204, 799.0426
537.8026, 796.5675
538.2847, 795.0519
538.7668, 794.7588
539.2489, 799.0868
539.7310, 808.7003
540.2131, 816.3252
540.6953, 813.7659
541.1774, 804.4073
541.6595, 796.8323
542.1416, 792.5121
542.6237, 790.5955
543.1058, 792.0579
543.5880, 795.2684
544.0701, 796.9213
544.5522, 792.2493
545.0343, 788.5114
545.5164, 792.0478
545.9985, 802.0771
546.4807, 807.5571
546.9628, 801.7229
547.4449, 793.1275
547.9270, 786.0788
548.4091, 779.1668
548.8912, 777.4641
549.3734, 782.9186
549.8555, 792.2842
550.3376, 802.5874
550.8197, 816.5392
551.3018, 822.5475
551.7839, 814.9023
552.2661, 798.7025
552.7482, 794.6239
553.2303, 803.6160
553.7124, 810.7889
554.1945, 801.3585
554.6766, 782.8664
555.1588, 780.9446
555.6409, 798.0993
556.1230, 817.1303
556.6051, 821.9181
557.0872, 818.3802
557.5693, 815.9935
558.0515, 819.8931
558.5336, 822.2534
559.0157, 814.5189
559.4978, 801.6374
559.9799, 795.2422
560.4620, 805.6885
560.9442, 817.0346
561.4263, 823.9476
561.9084, 825.9515
562.3905, 824.2908
562.8726, 815.7065
563.3547, 806.8324
563.8369, 802.0945
564.3190, 802.7335
564.8011, 803.3686
565.2832, 803.3473
565.7653, 803.7982
566.2474, 807.7785
566.7296, 815.3900
567.2117, 820.1661
567.6938, 818.9937
568.1759, 814.4478
568.6580, 811.7254
569.1401, 810.6705
569.6223, 809.8262
570.1044, 807.1290
570.5865, 804.6642
571.0686, 805.2359
571.5507, 809.5048
572.0328, 814.0519
572.5150, 819.2871
572.9971, 822.8875
573.4792, 822.5208
573.9613, 810.6856
574.4434, 802.7865
574.9255, 805.2153
575.4077, 813.6428
575.8898, 815.8085
576.3719, 805.7640
576.8540, 798.8364
577.3361, 801.2381
577.8182, 812.7897
578.3004, 817.9252
578.7825, 814.5891
579.2646, 812.0896
579.7467, 820.7086
580.2288, 838.2736
580.7109, 848.5504
581.1931, 848.8262
581.6752, 845.6718
582.1573, 848.7567
582.6394, 854.6262
583.1215, 855.0352
583.6036, 840.4149
584.0858, 825.3295
584.5679, 823.0314
585.0500, 830.2421
585.5321, 834.7403
586.0142, 827.5078
586.4963, 819.8275
586.9785, 817.6088
587.4606, 822.4941
587.9427, 827.0031
588.4248, 831.1295
588.9069, 834.4614
589.3890, 836.8320
589.8712, 838.6370
590.3533, 837.8649
590.8354, 833.0970
591.3175, 827.3189
591.7996, 826.4679
592.2817, 830.5729
592.7639, 835.0385
593.2460, 838.5262
593.7281, 841.1240
594.2102, 843.1191
594.6923, 844.4503
595.1744, 844.5058
595.6566, 841.9336
596.1387, 838.3956
596.6208, 834.8886
597.1029, 831.2252
597.5850, 830.4824
598.0671, 837.9043
598.5493, 847.1082
599.0314, 852.0801
599.5135, 846.1827
599.9956, 843.0013
600.4777, 845.5378
600.9598, 851.0428
601.4420, 853.7156
601.9241, 851.6566
602.4062, 851.2271
602.8883, 855.3599
603.3704, 862.7327
603.8525, 864.9619
604.3347, 861.5343
604.8168, 857.5347
605.2989, 858.0341
605.7810, 860.6786
606.2631, 856.5641
606.7452, 844.2441
607.2274, 834.5274
607.7095, 841.5978
608.1916, 855.9876
608.6737, 864.2273
609.1558, 859.5723
609.6379, 852.6192
610.1201, 846.0513
610.6022, 840.6555
611.0843, 837.8922
611.5664, 839.1539
612.0485, 842.0613
612.5306, 847.0363
613.0128, 853.7224
613.4949, 857.5790
613.9770, 857.5912
614.4591, 856.8795
614.9412, 857.4344
615.4233, 859.3088
615.9055, 859.9370
616.3876, 859.3979
616.8697, 857.0591
617.3518, 849.2634
617.8339, 839.0184
618.3160, 835.1785
618.7982, 841.5807
619.2803, 850.7300
619.7624, 856.3925
620.2445, 859.6227
620.7266, 862.5209
621.2087, 868.3521
621.6909, 871.6210
622.1730, 867.4845
622.6551, 857.1891
623.1372, 852.1445
623.6193, 857.7685
624.1014, 864.5692
624.5836, 869.4879
625.0657, 872.7025
625.5478, 872.0952
626.0299, 865.9837
626.5120, 859.9426
626.9941, 859.7723
627.4763, 865.0791
627.9584, 870.9869
628.4405, 877.7346
628.9226, 882.0507
629.4047, 876.6558
629.8868, 865.3264
630.3690, 857.2847
630.8511, 858.4733
631.3332, 862.1636
631.8153, 863.7172
632.2974, 863.8253
632.7795, 864.8809
633.2617, 869.9915
633.7438, 874.1335
634.2259, 875.0038
634.7080, 872.2283
635.1901, 868.6349
635.6722, 863.0602
636.1544, 858.2332
636.6365, 855.7699
637.1186, 855.7012
637.6007, 858.4916
638.0828, 864.8057
638.5649, 872.1050
639.0471, 877.1743
639.5292, 880.3884
640.0113, 883.0850
640.4934, 885.3311
640.9755, 887.7253
641.4576, 892.9025
641.9398, 898.7972
642.4219, 900.3270
642.9040, 890.8384
