##NAMES=Betpakdalite-CaMg
##RRUFFID=R060242
##IDEAL CHEMISTRY=[Ca_2_(H_2_O)_17_Mg(H_2_O)_6_][Mo^6+^_8_As^5+^_2_Fe^3+^_3_O_36_(OH)]
##LOCALITY=Tsumeb mine, Tsumeb, Otavi District, Oshikoto, Namibia
##OWNER=RRUFF
##SOURCE=William W. Pinch
##DESCRIPTION=Yellow short prismatic crystals
##STATUS=The identification of this mineral is confirmed by single-crystal X-ray diffraction and chemical analysis.
##URL=rruff.info/R060242
##MEASURED CHEMISTRY=Mg_1.00_Ca_2.00_Fe^3+^_3.00_(Mo_7.89_W_0.11_)_Σ=8_((As_1.94_P_0.06_)_Σ=1_O_4_)_2_O_28_(OH)·23H_2_O ; H not mesured but estimated by difference and stoichiometry; the lighter areas are richer in W.
140.3569, 660.4368
140.8390, 659.7970
141.3211, 658.9606
141.8032, 658.0486
142.2853, 657.3059
142.7675, 657.1613
143.2496, 657.9307
143.7317, 658.7740
144.2138, 659.7336
144.6959, 660.7269
145.1780, 661.7145
145.6602, 662.7221
146.1423, 663.5820
146.6244, 663.8002
147.1065, 663.1204
147.5886, 662.7005
148.0707, 663.0361
148.5529, 664.0070
149.0350, 665.1948
149.5171, 666.4564
149.9992, 667.8792
150.4813, 669.6427
150.9634, 671.9484
151.4456, 674.0903
151.9277, 675.2753
152.4098, 675.3972
152.8919, 675.7609
153.3740, 677.3497
153.8561, 679.2125
154.3383, 680.6059
154.8204, 681.2705
155.3025, 681.5092
155.7846, 681.8243
156.2667, 682.2762
156.7488, 682.6635
157.2310, 682.7369
157.7131, 682.8017
158.1952, 683.1860
158.6773, 684.0646
159.1594, 685.3289
159.6415, 686.5666
160.1237, 687.7412
160.6058, 688.9399
161.0879, 690.4069
161.5700, 691.8620
162.0521, 692.8988
162.5342, 693.2388
163.0164, 692.9225
163.4985, 692.5716
163.9806, 691.7238
164.4627, 691.2999
164.9448, 691.7291
165.4269, 692.8278
165.9091, 694.1885
166.3912, 695.6194
166.8733, 697.0959
167.3554, 697.6047
167.8375, 696.4047
168.3196, 695.0382
168.8018, 694.2725
169.2839, 694.1491
169.7660, 694.4386
170.2481, 695.0342
170.7302, 695.9453
171.2123, 696.8666
171.6945, 697.5109
172.1766, 698.3137
172.6587, 700.1179
173.1408, 703.1949
173.6229, 705.7592
174.1050, 705.2279
174.5872, 702.7101
175.0693, 701.2407
175.5514, 702.6369
176.0335, 705.5375
176.5156, 707.1456
176.9977, 706.8885
177.4799, 706.1325
177.9620, 705.6408
178.4441, 705.4066
178.9262, 705.4662
179.4083, 705.6867
179.8904, 706.1475
180.3726, 707.4830
180.8547, 710.7186
181.3368, 713.6346
181.8189, 715.0627
182.3010, 715.2934
182.7831, 715.1788
183.2653, 715.2302
183.7474, 715.4190
184.2295, 716.2265
184.7116, 718.6318
185.1937, 720.8717
185.6758, 722.2394
186.1580, 722.8271
186.6401, 723.1550
187.1222, 723.6545
187.6043, 724.2112
188.0864, 725.4909
188.5685, 728.2137
189.0507, 730.9551
189.5328, 733.0726
190.0149, 734.4973
190.4970, 735.4399
190.9791, 736.0807
191.4612, 736.1052
191.9434, 736.8672
192.4255, 738.6853
192.9076, 740.8909
193.3897, 743.2023
193.8718, 745.5087
194.3539, 747.6478
194.8361, 749.3953
195.3182, 750.5743
195.8003, 751.8018
196.2824, 753.1137
196.7645, 754.4590
197.2466, 755.6298
197.7288, 756.5729
198.2109, 757.7843
198.6930, 760.0194
199.1751, 763.3606
199.6572, 767.0010
200.1393, 771.0795
200.6215, 775.3023
201.1036, 779.2016
201.5857, 782.6108
202.0678, 785.9752
202.5499, 789.8463
203.0320, 794.1345
203.5142, 798.8849
203.9963, 804.4395
204.4784, 810.4705
204.9605, 816.1603
205.4426, 821.2937
205.9247, 826.1352
206.4069, 830.8808
206.8890, 835.5560
207.3711, 840.2244
207.8532, 844.8588
208.3353, 849.5066
208.8174, 854.2989
209.2996, 859.1981
209.7817, 864.3419
210.2638, 869.7955
210.7459, 875.5139
211.2280, 881.3802
211.7101, 887.5654
212.1923, 894.0307
212.6744, 899.7281
213.1565, 904.1305
213.6386, 908.0213
214.1207, 911.5533
214.6028, 914.8427
215.0850, 918.2933
215.5671, 922.3437
216.0492, 927.1203
216.5313, 931.6171
217.0134, 936.1139
217.4955, 940.0836
217.9777, 943.1505
218.4598, 945.4178
218.9419, 947.3754
219.4240, 949.5193
219.9061, 951.9536
220.3882, 954.0573
220.8704, 955.7715
221.3525, 957.2471
221.8346, 958.7242
222.3167, 960.0859
222.7988, 960.9129
223.2809, 960.7201
223.7631, 959.2930
224.2452, 957.6591
224.7273, 955.9853
225.2094, 954.0090
225.6915, 951.5706
226.1736, 948.6781
226.6558, 945.4705
227.1379, 942.1210
227.6200, 938.7557
228.1021, 934.5709
228.5842, 929.4200
229.0663, 923.7449
229.5485, 917.7811
230.0306, 911.5813
230.5127, 905.0553
230.9948, 898.0798
231.4769, 890.4603
231.9590, 883.4811
232.4412, 877.6866
232.9233, 872.0632
233.4054, 865.9099
233.8875, 859.2242
234.3696, 852.3536
234.8517, 845.5958
235.3339, 838.9510
235.8160, 832.9570
236.2981, 827.8639
236.7802, 823.2123
237.2623, 818.7740
237.7444, 814.5274
238.2266, 810.4163
238.7087, 806.6017
239.1908, 802.9979
239.6729, 798.4291
240.1550, 791.5002
240.6371, 784.5170
241.1193, 779.5364
241.6014, 776.6374
242.0835, 774.5710
242.5656, 772.6946
243.0477, 770.9316
243.5298, 768.9304
244.0120, 766.5345
244.4941, 763.9789
244.9762, 761.3328
245.4583, 758.5692
245.9404, 756.1857
246.4225, 754.6317
246.9047, 753.6985
247.3868, 752.9533
247.8689, 752.6758
248.3510, 752.2670
248.8331, 750.9314
249.3152, 748.5714
249.7974, 746.1957
250.2795, 744.3373
250.7616, 742.7745
251.2437, 741.2880
251.7258, 739.9548
252.2079, 738.4885
252.6901, 736.4550
253.1722, 733.7896
253.6543, 731.1042
254.1364, 728.5216
254.6185, 726.1547
255.1006, 724.1996
255.5828, 722.8107
256.0649, 721.5578
256.5470, 719.9637
257.0291, 718.0084
257.5112, 715.8645
257.9933, 713.1244
258.4755, 710.4702
258.9576, 708.4684
259.4397, 707.2916
259.9218, 706.4898
260.4039, 705.5215
260.8860, 704.3217
261.3682, 703.3346
261.8503, 703.3314
262.3324, 703.1465
262.8145, 701.7537
263.2966, 699.0158
263.7787, 696.1359
264.2609, 694.6434
264.7430, 694.8636
265.2251, 694.6334
265.7072, 692.5670
266.1893, 690.7576
266.6714, 690.6141
267.1536, 692.1212
267.6357, 693.9099
268.1178, 694.3876
268.5999, 693.2343
269.0820, 692.6642
269.5641, 693.7230
270.0463, 694.6459
270.5284, 694.5227
271.0105, 693.4552
271.4926, 692.2097
271.9747, 691.4607
272.4568, 691.2323
272.9390, 691.2639
273.4211, 691.4716
273.9032, 692.0458
274.3853, 693.6009
274.8674, 695.6861
275.3495, 697.1379
275.8317, 696.8853
276.3138, 694.9023
276.7959, 693.1511
277.2780, 691.3840
277.7601, 690.1428
278.2422, 689.9955
278.7244, 690.4954
279.2065, 690.8203
279.6886, 690.4014
280.1707, 689.2926
280.6528, 688.0460
281.1349, 686.2565
281.6171, 684.7807
282.0992, 684.4745
282.5813, 684.4590
283.0634, 683.3884
283.5455, 680.4352
284.0276, 675.9888
284.5098, 671.8069
284.9919, 668.1497
285.4740, 664.4648
285.9561, 660.7037
286.4382, 656.8739
286.9203, 652.9608
287.4025, 648.9756
287.8846, 644.9593
288.3667, 641.0551
288.8488, 637.5262
289.3309, 633.7131
289.8130, 629.5229
290.2952, 625.0995
290.7773, 620.6513
291.2594, 616.2419
291.7415, 611.5827
292.2236, 606.0853
292.7057, 598.8937
293.1879, 592.3147
293.6700, 586.4561
294.1521, 581.0495
294.6342, 575.9243
295.1163, 571.0472
295.5984, 566.5292
296.0806, 562.6023
296.5627, 559.7170
297.0448, 556.1147
297.5269, 550.9860
298.0090, 545.9310
298.4911, 542.0392
298.9733, 539.2558
299.4554, 536.7524
299.9375, 533.6668
300.4196, 529.8146
300.9017, 526.6026
301.3839, 523.9454
301.8660, 521.8601
302.3481, 520.6927
302.8302, 520.1415
303.3123, 519.4088
303.7944, 517.8143
304.2766, 515.4064
304.7587, 513.8651
305.2408, 513.8359
305.7229, 513.8983
306.2050, 513.7921
306.6871, 513.5100
307.1693, 513.0344
307.6514, 512.3307
308.1335, 511.5164
308.6156, 511.1440
309.0977, 511.6122
309.5798, 512.0823
310.0620, 512.3130
310.5441, 512.5604
311.0262, 513.2008
311.5083, 514.3849
311.9904, 515.8657
312.4725, 517.0778
312.9547, 517.5510
313.4368, 518.4223
313.9189, 519.8146
314.4010, 521.5128
314.8831, 523.4991
315.3652, 525.6984
315.8474, 527.8007
316.3295, 529.3242
316.8116, 529.9779
317.2937, 530.7964
317.7758, 531.3799
318.2579, 532.4035
318.7401, 534.4843
319.2222, 537.5237
319.7043, 540.8485
320.1864, 543.8306
320.6685, 546.4397
321.1506, 548.8879
321.6328, 551.0833
322.1149, 553.2321
322.5970, 555.4809
323.0791, 557.7669
323.5612, 559.8113
324.0433, 561.3582
324.5255, 562.5422
325.0076, 564.8126
325.4897, 569.3897
325.9718, 573.6849
326.4539, 577.3701
326.9360, 580.4747
327.4182, 582.9957
327.9003, 584.9297
328.3824, 586.5342
328.8645, 588.5549
329.3466, 591.7054
329.8287, 594.3240
330.3109, 595.6542
330.7930, 596.8141
331.2751, 599.0157
331.7572, 602.5287
332.2393, 606.4461
332.7214, 609.3087
333.2036, 610.3880
333.6857, 612.0800
334.1678, 614.2629
334.6499, 617.0275
335.1320, 620.6742
335.6141, 625.0494
336.0963, 629.5422
336.5784, 633.5312
337.0605, 636.9811
337.5426, 640.2940
338.0247, 643.5777
338.5068, 646.6328
338.9890, 649.3603
339.4711, 651.8091
339.9532, 654.0725
340.4353, 656.2405
340.9174, 658.2679
341.3995, 659.9160
341.8817, 660.9919
342.3638, 661.8632
342.8459, 662.4276
343.3280, 662.8861
343.8101, 663.5224
344.2922, 664.4572
344.7744, 665.4709
345.2565, 666.0554
345.7386, 665.9224
346.2207, 665.9106
346.7028, 666.2718
347.1849, 666.6317
347.6671, 666.6329
348.1492, 666.2556
348.6313, 665.8411
349.1134, 665.7639
349.5955, 666.0237
350.0776, 666.6301
350.5598, 668.1134
351.0419, 669.4760
351.5240, 670.2147
352.0061, 670.4548
352.4882, 670.6494
352.9703, 671.1594
353.4525, 671.9425
353.9346, 672.5306
354.4167, 672.6706
354.8988, 672.9579
355.3809, 673.9208
355.8630, 675.0264
356.3452, 675.5735
356.8273, 675.2394
357.3094, 674.1763
357.7915, 672.5762
358.2736, 670.1240
358.7557, 667.9887
359.2379, 666.9050
359.7200, 665.9398
360.2021, 664.4061
360.6842, 662.1475
361.1663, 659.4158
361.6484, 656.3182
362.1306, 652.8211
362.6127, 649.5056
363.0948, 646.5964
363.5769, 643.7134
364.0590, 640.8060
364.5411, 637.7686
365.0233, 634.3010
365.5054, 629.9314
365.9875, 624.9120
366.4696, 620.3014
366.9517, 615.9940
367.4338, 612.3011
367.9160, 609.5546
368.3981, 607.4172
368.8802, 605.5110
369.3623, 603.9446
369.8444, 602.1779
370.3265, 599.2673
370.8087, 595.0739
371.2908, 590.9214
371.7729, 587.3535
372.2550, 584.0505
372.7371, 580.7094
373.2192, 577.3101
373.7014, 573.9247
374.1835, 570.4962
374.6656, 567.1152
375.1477, 564.0702
375.6298, 561.3171
376.1119, 559.1675
376.5941, 558.3266
377.0762, 558.5246
377.5583, 558.1536
378.0404, 556.1262
378.5225, 553.3951
379.0046, 551.3681
379.4868, 550.1703
379.9689, 549.1931
380.4510, 548.0242
380.9331, 546.7654
381.4152, 545.7159
381.8973, 544.9806
382.3795, 544.3716
382.8616, 543.6791
383.3437, 542.9810
383.8258, 542.6223
384.3079, 542.8022
384.7900, 543.2994
385.2722, 543.6599
385.7543, 543.8064
386.2364, 544.1042
386.7185, 544.6430
387.2006, 545.3891
387.6827, 546.4078
388.1649, 547.7132
388.6470, 548.9534
389.1291, 549.7271
389.6112, 549.9514
390.0933, 550.3578
390.5754, 551.3281
391.0576, 552.1464
391.5397, 552.2862
392.0218, 551.8727
392.5039, 551.2514
392.9860, 550.4970
393.4681, 549.8680
393.9503, 550.6893
394.4324, 554.7377
394.9145, 557.9121
395.3966, 559.0936
395.8787, 559.3072
396.3608, 559.7970
396.8430, 560.9389
397.3251, 562.1777
397.8072, 562.6191
398.2893, 561.7227
398.7714, 561.5045
399.2535, 562.6570
399.7357, 563.7813
400.2178, 563.9908
400.6999, 563.4183
401.1820, 562.7629
401.6641, 562.5707
402.1462, 562.7973
402.6284, 562.8411
403.1105, 562.6212
403.5926, 562.2972
404.0747, 561.7416
404.5568, 561.1628
405.0389, 560.9626
405.5211, 561.2909
406.0032, 561.5725
406.4853, 560.7262
406.9674, 558.3910
407.4495, 556.0063
407.9316, 553.2693
408.4138, 550.8800
408.8959, 549.4610
409.3780, 548.8672
409.8601, 548.3500
410.3422, 547.3135
410.8243, 545.8058
411.3065, 544.2226
411.7886, 542.5673
412.2707, 540.8018
412.7528, 538.7723
413.2349, 536.6727
413.7170, 534.8130
414.1992, 533.3718
414.6813, 532.0471
415.1634, 530.4316
415.6455, 528.5099
416.1276, 526.6050
416.6097, 524.8310
417.0919, 523.1005
417.5740, 521.4291
418.0561, 519.8234
418.5382, 517.8914
419.0203, 514.8629
419.5024, 511.4571
419.9846, 509.4284
420.4667, 509.1907
420.9488, 509.2893
421.4309, 508.8173
421.9130, 507.7554
422.3951, 506.0486
422.8773, 502.8051
423.3594, 499.6858
423.8415, 498.0721
424.3236, 497.6144
424.8057, 496.9807
425.2878, 495.5894
425.7700, 493.7310
426.2521, 491.9763
426.7342, 490.3043
427.2163, 488.7573
427.6984, 487.4922
428.1805, 486.2659
428.6627, 484.7915
429.1448, 483.0408
429.6269, 481.2036
430.1090, 479.3838
430.5911, 477.5462
431.0732, 476.3556
431.5554, 476.8286
432.0375, 476.7082
432.5196, 474.8813
433.0017, 472.0096
433.4838, 469.2127
433.9659, 467.0164
434.4481, 465.1532
434.9302, 462.9717
435.4123, 459.9414
435.8944, 457.6070
436.3765, 456.5240
436.8586, 455.6325
437.3408, 454.3158
437.8229, 452.5140
438.3050, 450.4481
438.7871, 448.2195
439.2692, 445.8557
439.7513, 443.8636
440.2335, 442.6643
440.7156, 441.2288
441.1977, 438.8625
441.6798, 436.2518
442.1619, 434.3723
442.6440, 433.6242
443.1262, 433.2114
443.6083, 431.9904
444.0904, 429.8892
444.5725, 427.8620
445.0546, 426.0581
445.5367, 424.4262
446.0189, 422.8850
446.5010, 421.4526
446.9831, 420.2510
447.4652, 419.6222
447.9473, 419.1842
448.4294, 418.1703
448.9116, 416.5117
449.3937, 414.7174
449.8758, 412.9554
450.3579, 411.3105
450.8400, 409.9485
451.3221, 408.9872
451.8043, 408.0870
452.2864, 407.1985
452.7685, 406.2303
453.2506, 404.9799
453.7327, 403.3836
454.2148, 401.5509
454.6970, 399.5106
455.1791, 397.1766
455.6612, 395.3244
456.1433, 394.5797
456.6254, 393.7626
457.1075, 391.8358
457.5897, 389.1865
458.0718, 387.0490
458.5539, 386.1422
459.0360, 386.0656
459.5181, 385.5646
460.0002, 384.1624
460.4824, 382.9503
460.9645, 382.0564
461.4466, 381.2835
461.9287, 380.5985
462.4108, 379.9182
462.8929, 379.0070
463.3751, 377.6058
463.8572, 375.7110
464.3393, 373.7444
464.8214, 370.9903
465.3035, 369.1046
465.7856, 369.0914
466.2678, 369.9481
466.7499, 370.3517
467.2320, 369.7896
467.7141, 368.8833
468.1962, 368.5095
468.6783, 368.7046
469.1605, 369.0019
469.6426, 369.3795
470.1247, 369.7878
470.6068, 370.2168
471.0889, 370.6487
471.5710, 371.0179
472.0532, 371.0511
472.5353, 371.1102
473.0174, 371.8697
473.4995, 373.3572
473.9816, 374.8792
474.4637, 376.0779
474.9459, 377.1353
475.4280, 378.4427
475.9101, 380.0880
476.3922, 381.7011
476.8743, 383.2050
477.3564, 384.5793
477.8386, 385.5910
478.3207, 386.2362
478.8028, 387.2533
479.2849, 389.4860
479.7670, 392.9472
480.2491, 395.3401
480.7313, 395.7425
481.2134, 396.2906
481.6955, 397.7690
482.1776, 399.8470
482.6597, 402.1870
483.1418, 404.6217
483.6240, 406.7289
484.1061, 407.6227
484.5882, 406.5264
485.0703, 406.4261
485.5524, 408.4463
486.0345, 410.2988
486.5167, 410.7918
486.9988, 410.2651
487.4809, 409.6440
487.9630, 409.4492
488.4451, 409.5639
488.9272, 409.7796
489.4094, 410.2540
489.8915, 410.3271
490.3736, 409.8239
490.8557, 408.8293
491.3378, 407.2983
491.8199, 405.2549
492.3021, 402.8949
492.7842, 400.0039
493.2663, 396.9468
493.7484, 394.8348
494.2305, 393.9135
494.7126, 392.7362
495.1948, 390.3610
495.6769, 387.0953
496.1590, 383.8428
496.6411, 380.7406
497.1232, 377.4146
497.6053, 373.6401
498.0875, 369.5328
498.5696, 365.1605
499.0517, 360.5640
499.5338, 356.0959
500.0159, 352.1820
500.4980, 348.8942
500.9802, 345.6133
501.4623, 342.5132
501.9444, 339.2175
502.4265, 335.2231
502.9086, 331.0111
503.3907, 327.4367
503.8729, 324.8234
504.3550, 322.6373
504.8371, 319.9674
505.3192, 316.6472
505.8013, 313.2673
506.2834, 309.7616
506.7656, 306.2587
507.2477, 302.8616
507.7298, 299.5227
508.2119, 296.0639
508.6940, 292.2675
509.1761, 288.5221
509.6583, 285.8423
510.1404, 284.5217
510.6225, 282.5561
511.1046, 278.8097
511.5867, 274.7184
512.0688, 271.6077
512.5510, 269.4885
513.0331, 267.4557
513.5152, 265.1502
513.9973, 262.6601
514.4794, 260.1773
514.9615, 257.6849
515.4437, 254.9342
515.9258, 251.6426
516.4079, 248.0885
516.8900, 245.1910
517.3721, 243.2687
517.8542, 241.2081
518.3364, 238.4908
518.8185, 235.6814
519.3006, 233.4893
519.7827, 231.9179
520.2648, 230.3005
520.7469, 228.0385
521.2291, 225.1931
521.7112, 222.6833
522.1933, 220.8140
522.6754, 218.9310
523.1575, 216.7962
523.6396, 214.6911
524.1218, 213.0714
524.6039, 211.9527
525.0860, 210.7192
525.5681, 208.4184
526.0502, 205.1011
526.5323, 202.7705
527.0145, 201.9162
527.4966, 201.2367
527.9787, 200.0618
528.4608, 198.6794
528.9429, 197.4922
529.4250, 196.6321
529.9072, 195.8583
530.3893, 195.0141
530.8714, 194.0972
531.3535, 193.1069
531.8356, 192.0528
532.3177, 190.8672
532.7999, 189.3797
533.2820, 187.6238
533.7641, 186.2676
534.2462, 185.4915
534.7283, 184.9454
535.2104, 184.6974
535.6926, 184.5173
536.1747, 183.9484
536.6568, 182.8531
537.1389, 181.5999
537.6210, 180.6961
538.1031, 180.1681
538.5853, 179.8554
539.0674, 180.1430
539.5495, 180.2236
540.0316, 179.6018
540.5137, 178.6474
540.9958, 177.9751
541.4780, 177.8501
541.9601, 177.9774
542.4422, 177.9681
542.9243, 177.8262
543.4064, 177.4572
543.8885, 176.5603
544.3707, 175.8186
544.8528, 175.8822
545.3349, 176.4496
545.8170, 176.7224
546.2991, 176.3477
546.7813, 175.6968
547.2634, 174.9747
547.7455, 174.2440
548.2276, 173.7727
548.7097, 173.6763
549.1918, 173.7516
549.6740, 173.7333
550.1561, 173.5876
550.6382, 173.5590
551.1203, 173.6163
551.6024, 173.8227
552.0845, 174.5310
552.5667, 175.3597
553.0488, 175.4518
553.5309, 174.4398
554.0130, 173.0442
554.4951, 172.6050
554.9772, 173.4763
555.4594, 174.2287
555.9415, 175.1497
556.4236, 175.6556
556.9057, 175.1238
557.3878, 174.0540
557.8699, 173.4523
558.3521, 173.8631
558.8342, 174.6134
559.3163, 174.8428
559.7984, 174.5578
560.2805, 173.9174
560.7626, 172.7227
561.2448, 171.5784
561.7269, 171.1101
562.2090, 171.2066
562.6911, 171.4573
563.1732, 172.0172
563.6553, 172.4883
564.1375, 172.6064
564.6196, 172.4331
565.1017, 172.0558
565.5838, 171.4945
566.0659, 170.9715
566.5480, 170.8293
567.0302, 171.1934
567.5123, 171.3758
567.9944, 171.1264
568.4765, 170.9903
568.9586, 171.2872
569.4407, 171.7917
569.9229, 172.1796
570.4050, 172.3263
570.8871, 172.2581
571.3692, 171.8502
571.8513, 171.0637
572.3334, 170.9233
572.8156, 172.1599
573.2977, 173.0432
573.7798, 172.0557
574.2619, 170.1172
574.7440, 168.9729
575.2261, 169.2977
575.7083, 170.0030
576.1904, 170.3149
576.6725, 170.3835
577.1546, 170.6232
577.6367, 171.1385
578.1188, 171.6207
578.6010, 171.8240
579.0831, 171.7429
579.5652, 171.2325
580.0473, 169.6180
580.5294, 168.4483
581.0115, 168.4875
581.4937, 169.0187
581.9758, 169.1543
582.4579, 168.7298
582.9400, 168.2904
583.4221, 168.4585
583.9042, 169.2001
584.3864, 169.7147
584.8685, 170.0715
585.3506, 170.0675
585.8327, 169.2828
586.3148, 168.3179
586.7969, 167.8485
587.2791, 167.9951
587.7612, 168.1634
588.2433, 167.8483
588.7254, 167.3157
589.2075, 167.1060
589.6896, 167.2607
590.1718, 167.5032
590.6539, 167.6789
591.1360, 167.8218
591.6181, 168.0603
592.1002, 168.5942
592.5823, 168.8222
593.0645, 168.5963
593.5466, 168.0903
594.0287, 167.2624
594.5108, 166.2614
594.9929, 165.4853
595.4750, 165.2181
595.9572, 165.2758
596.4393, 165.0651
596.9214, 164.3878
597.4035, 163.9946
597.8856, 164.4694
598.3677, 164.8556
598.8499, 164.4791
599.3320, 163.5202
599.8141, 162.6906
600.2962, 162.3258
600.7783, 162.2205
601.2604, 162.1342
601.7426, 162.0817
602.2247, 162.2201
602.7068, 162.6813
603.1889, 163.0586
603.6710, 162.8037
604.1531, 161.8087
604.6353, 161.0628
605.1174, 160.7068
605.5995, 160.4376
606.0816, 160.3275
606.5637, 160.1516
607.0458, 159.4471
607.5280, 158.1373
608.0101, 156.8228
608.4922, 156.2253
608.9743, 156.3613
609.4564, 156.8457
609.9385, 157.9977
610.4207, 158.9749
610.9028, 159.8558
611.3849, 160.2311
611.8670, 159.2900
612.3491, 156.7837
612.8312, 154.6118
613.3134, 154.4012
613.7955, 155.2257
614.2776, 155.3217
614.7597, 154.5805
615.2418, 153.9933
615.7239, 154.2066
616.2061, 154.8752
616.6882, 155.0394
617.1703, 154.4821
617.6524, 153.8269
618.1345, 152.9370
618.6166, 152.0958
619.0988, 151.6003
619.5809, 151.3212
620.0630, 150.8409
620.5451, 149.8993
621.0272, 148.8422
621.5093, 148.4386
621.9915, 148.7995
622.4736, 149.0320
622.9557, 148.9522
623.4378, 148.8146
623.9199, 148.9583
624.4020, 149.1758
624.8842, 148.8772
625.3663, 147.4861
625.8484, 146.2491
626.3305, 146.3534
626.8126, 147.1737
627.2947, 147.3742
627.7769, 146.6995
628.2590, 145.8936
628.7411, 145.5822
629.2232, 145.7460
629.7053, 146.1385
630.1874, 147.1743
630.6696, 147.9105
