##NAMES=Betpakdalite-CaMg
##RRUFFID=R060242
##IDEAL CHEMISTRY=[Ca_2_(H_2_O)_17_Mg(H_2_O)_6_][Mo^6+^_8_As^5+^_2_Fe^3+^_3_O_36_(OH)]
##LOCALITY=Tsumeb mine, Tsumeb, Otavi District, Oshikoto, Namibia
##OWNER=RRUFF
##SOURCE=William W. Pinch
##DESCRIPTION=Yellow short prismatic crystals
##STATUS=The identification of this mineral is confirmed by single-crystal X-ray diffraction and chemical analysis.
##URL=rruff.info/R060242
##MEASURED CHEMISTRY=Mg_1.00_Ca_2.00_Fe^3+^_3.00_(Mo_7.89_W_0.11_)_Σ=8_((As_1.94_P_0.06_)_Σ=1_O_4_)_2_O_28_(OH)·23H_2_O ; H not mesured but estimated by difference and stoichiometry; the lighter areas are richer in W.
166.2601, 1235.266
166.7422, 1236.336
167.2243, 1236.728
167.7064, 1238.150
168.1885, 1242.167
168.6707, 1246.807
169.1528, 1250.699
169.6349, 1253.775
170.1170, 1256.587
170.5991, 1259.368
171.0812, 1262.206
171.5634, 1265.203
172.0455, 1268.965
172.5276, 1272.658
173.0097, 1275.229
173.4918, 1276.465
173.9739, 1277.635
174.4561, 1279.890
174.9382, 1282.950
175.4203, 1286.156
175.9024, 1289.401
176.3845, 1292.490
176.8666, 1295.074
177.3488, 1297.065
177.8309, 1298.808
178.3130, 1300.337
178.7951, 1301.838
179.2772, 1303.948
179.7593, 1307.082
180.2415, 1311.066
180.7236, 1316.046
181.2057, 1322.614
181.6878, 1328.759
182.1699, 1331.276
182.6520, 1330.572
183.1342, 1329.678
183.6163, 1329.732
184.0984, 1331.027
184.5805, 1334.878
185.0626, 1342.369
185.5447, 1351.007
186.0269, 1356.216
186.5090, 1358.102
186.9911, 1360.066
187.4732, 1365.057
187.9553, 1372.429
188.4374, 1378.814
188.9196, 1383.506
189.4017, 1387.164
189.8838, 1391.158
190.3659, 1395.551
190.8480, 1400.141
191.3301, 1404.682
191.8123, 1409.275
192.2944, 1414.463
192.7765, 1420.370
193.2586, 1426.954
193.7407, 1434.046
194.2228, 1441.713
194.7050, 1449.475
195.1871, 1456.577
195.6692, 1463.037
196.1513, 1470.674
196.6334, 1480.163
197.1155, 1490.987
197.5977, 1501.139
198.0798, 1510.276
198.5619, 1519.913
199.0440, 1531.523
199.5261, 1545.247
200.0082, 1559.208
200.4904, 1573.053
200.9725, 1586.822
201.4546, 1601.094
201.9367, 1615.748
202.4188, 1631.254
202.9009, 1648.164
203.3831, 1666.771
203.8652, 1685.113
204.3473, 1702.188
204.8294, 1718.291
205.3115, 1737.157
205.7936, 1759.442
206.2758, 1783.080
206.7579, 1805.776
207.2400, 1826.877
207.7221, 1849.016
208.2042, 1872.886
208.6863, 1898.590
209.1685, 1925.078
209.6506, 1952.737
210.1327, 1980.879
210.6148, 2008.630
211.0969, 2035.323
211.5790, 2063.093
212.0612, 2092.836
212.5433, 2124.348
213.0254, 2155.610
213.5075, 2186.413
213.9896, 2217.368
214.4717, 2248.959
214.9538, 2281.938
215.4360, 2314.188
215.9181, 2345.501
216.4002, 2375.572
216.8823, 2404.944
217.3644, 2433.686
217.8465, 2461.635
218.3287, 2488.904
218.8108, 2515.395
219.2929, 2541.790
219.7750, 2569.309
220.2571, 2598.621
220.7392, 2623.762
221.2214, 2643.926
221.7035, 2661.006
222.1856, 2678.012
222.6677, 2696.021
223.1498, 2711.524
223.6319, 2723.613
224.1141, 2732.601
224.5962, 2736.828
225.0783, 2735.187
225.5604, 2729.728
226.0425, 2723.292
226.5246, 2717.250
227.0068, 2707.583
227.4889, 2693.090
227.9710, 2673.067
228.4531, 2651.649
228.9352, 2629.607
229.4173, 2605.509
229.8995, 2577.771
230.3816, 2545.046
230.8637, 2510.379
231.3458, 2474.815
231.8279, 2437.759
232.3100, 2400.362
232.7922, 2362.310
233.2743, 2324.350
233.7564, 2286.877
234.2385, 2249.997
234.7206, 2213.891
235.2027, 2178.642
235.6849, 2144.293
236.1670, 2110.524
236.6491, 2077.183
237.1312, 2044.553
237.6133, 2012.979
238.0954, 1981.502
238.5776, 1952.173
239.0597, 1925.746
239.5418, 1902.872
240.0239, 1879.781
240.5060, 1855.529
240.9881, 1831.828
241.4703, 1810.859
241.9524, 1793.387
242.4345, 1777.345
242.9166, 1762.616
243.3987, 1749.329
243.8808, 1735.904
244.3630, 1721.548
244.8451, 1707.642
245.3272, 1695.891
245.8093, 1686.935
246.2914, 1678.969
246.7735, 1671.710
247.2557, 1665.206
247.7378, 1658.519
248.2199, 1651.140
248.7020, 1643.978
249.1841, 1637.981
249.6662, 1633.096
250.1484, 1629.457
250.6305, 1627.518
251.1126, 1627.431
251.5947, 1626.083
252.0768, 1622.879
252.5589, 1619.025
253.0411, 1615.761
253.5232, 1613.299
254.0053, 1611.000
254.4874, 1608.686
254.9695, 1606.348
255.4516, 1604.457
255.9338, 1602.942
256.4159, 1602.004
256.8980, 1602.076
257.3801, 1603.899
257.8622, 1605.026
258.3444, 1604.933
258.8265, 1603.685
259.3086, 1602.148
259.7907, 1599.883
260.2728, 1598.056
260.7549, 1597.688
261.2371, 1598.880
261.7192, 1601.265
262.2013, 1604.896
262.6834, 1609.729
263.1655, 1614.795
263.6476, 1619.503
264.1298, 1625.481
264.6119, 1634.850
265.0940, 1649.078
265.5761, 1661.268
266.0582, 1669.505
266.5403, 1674.674
267.0225, 1682.485
267.5046, 1693.922
267.9867, 1705.801
268.4688, 1715.641
268.9509, 1723.031
269.4330, 1730.502
269.9152, 1738.348
270.3973, 1746.524
270.8794, 1754.408
271.3615, 1761.681
271.8436, 1769.510
272.3257, 1778.508
272.8079, 1788.787
273.2900, 1799.872
273.7721, 1812.141
274.2542, 1825.068
274.7363, 1837.063
275.2184, 1847.799
275.7006, 1858.894
276.1827, 1871.260
276.6648, 1885.082
277.1469, 1898.829
277.6290, 1912.432
278.1111, 1925.886
278.5933, 1939.106
279.0754, 1952.193
279.5575, 1965.132
280.0396, 1978.337
280.5217, 1991.691
281.0038, 2003.455
281.4860, 2013.394
281.9681, 2021.918
282.4502, 2029.880
282.9323, 2037.313
283.4144, 2043.399
283.8965, 2047.672
284.3787, 2050.150
284.8608, 2051.681
285.3429, 2052.523
285.8250, 2051.767
286.3071, 2047.971
286.7892, 2041.173
287.2714, 2032.529
287.7535, 2022.591
288.2356, 2011.168
288.7177, 1998.028
289.1998, 1983.152
289.6819, 1966.210
290.1641, 1946.314
290.6462, 1923.703
291.1283, 1900.097
291.6104, 1876.416
292.0925, 1852.240
292.5746, 1827.014
293.0568, 1800.585
293.5389, 1773.446
294.0210, 1746.301
294.5031, 1719.043
294.9852, 1691.562
295.4673, 1663.841
295.9495, 1636.033
296.4316, 1609.032
296.9137, 1582.929
297.3958, 1557.263
297.8779, 1531.282
298.3600, 1505.599
298.8422, 1481.118
299.3243, 1458.141
299.8064, 1436.334
300.2885, 1415.193
300.7706, 1394.797
301.2527, 1374.922
301.7349, 1355.610
302.2170, 1336.820
302.6991, 1318.607
303.1812, 1300.025
303.6633, 1283.418
304.1454, 1273.081
304.6276, 1267.409
305.1097, 1260.422
305.5918, 1247.566
306.0739, 1231.805
306.5560, 1216.628
307.0381, 1202.231
307.5203, 1189.052
308.0024, 1177.483
308.4845, 1167.371
308.9666, 1158.357
309.4487, 1150.521
309.9308, 1143.538
310.4130, 1137.157
310.8951, 1131.319
311.3772, 1126.412
311.8593, 1123.373
312.3414, 1121.401
312.8235, 1119.179
313.3057, 1115.375
313.7878, 1111.735
314.2699, 1109.563
314.7520, 1109.004
315.2341, 1108.336
315.7162, 1106.211
316.1984, 1103.718
316.6805, 1102.102
317.1626, 1102.274
317.6447, 1102.879
318.1268, 1103.554
318.6089, 1104.273
319.0911, 1104.787
319.5732, 1104.224
320.0553, 1103.854
320.5374, 1104.657
321.0195, 1108.016
321.5016, 1111.324
321.9838, 1113.856
322.4659, 1115.801
322.9480, 1118.080
323.4301, 1121.070
323.9122, 1124.314
324.3943, 1127.524
324.8765, 1130.393
325.3586, 1133.646
325.8407, 1137.720
326.3228, 1142.230
326.8049, 1146.223
327.2870, 1148.602
327.7692, 1151.296
328.2513, 1155.156
328.7334, 1161.168
329.2155, 1165.967
329.6976, 1169.130
330.1797, 1171.227
330.6619, 1173.036
331.1440, 1173.889
331.6261, 1175.360
332.1082, 1177.928
332.5903, 1181.642
333.0724, 1185.785
333.5546, 1190.458
334.0367, 1195.491
334.5188, 1200.665
335.0009, 1206.085
335.4830, 1211.506
335.9651, 1216.841
336.4473, 1222.132
336.9294, 1227.419
337.4115, 1232.813
337.8936, 1237.973
338.3757, 1242.354
338.8578, 1245.703
339.3399, 1249.900
339.8221, 1255.625
340.3042, 1262.163
340.7863, 1266.763
341.2684, 1269.223
341.7505, 1271.163
342.2326, 1273.922
342.7148, 1277.463
343.1969, 1279.336
343.6790, 1278.985
344.1611, 1277.612
344.6432, 1277.169
345.1253, 1277.634
345.6075, 1278.510
346.0896, 1279.613
346.5717, 1280.907
347.0538, 1281.969
347.5359, 1282.605
348.0180, 1284.004
348.5002, 1288.217
348.9823, 1294.600
349.4644, 1300.489
349.9465, 1304.466
350.4286, 1307.588
350.9107, 1311.923
351.3929, 1317.434
351.8750, 1322.914
352.3571, 1327.248
352.8392, 1330.922
353.3213, 1334.774
353.8034, 1338.990
354.2856, 1343.572
354.7677, 1349.079
355.2498, 1355.177
355.7319, 1360.565
356.2140, 1363.736
356.6961, 1366.126
357.1783, 1369.460
357.6604, 1374.545
358.1425, 1378.944
358.6246, 1380.621
359.1067, 1380.529
359.5888, 1380.571
360.0710, 1382.292
360.5531, 1383.789
361.0352, 1383.725
361.5173, 1381.796
361.9994, 1379.940
362.4815, 1379.359
362.9637, 1379.057
363.4458, 1377.970
363.9279, 1374.873
364.4100, 1371.896
364.8921, 1369.967
365.3742, 1368.984
365.8564, 1367.548
366.3385, 1365.043
366.8206, 1362.282
367.3027, 1359.760
367.7848, 1358.502
368.2669, 1356.290
368.7491, 1352.139
369.2312, 1346.921
369.7133, 1343.219
370.1954, 1341.556
370.6775, 1340.883
371.1596, 1341.016
371.6418, 1342.516
372.1239, 1343.197
372.6060, 1342.402
373.0881, 1341.281
373.5702, 1341.602
374.0523, 1344.046
374.5345, 1346.300
375.0166, 1347.183
375.4987, 1346.751
375.9808, 1349.634
376.4629, 1356.994
376.9450, 1365.130
377.4272, 1370.474
377.9093, 1372.638
378.3914, 1375.496
378.8735, 1379.774
379.3556, 1385.117
379.8377, 1390.769
380.3199, 1396.701
380.8020, 1402.906
381.2841, 1409.281
381.7662, 1415.937
382.2483, 1423.120
382.7304, 1430.970
383.2126, 1439.248
383.6947, 1447.899
384.1768, 1456.900
384.6589, 1465.943
385.1410, 1474.654
385.6231, 1483.536
386.1053, 1493.859
386.5874, 1505.629
387.0695, 1517.683
387.5516, 1528.868
388.0337, 1539.839
388.5158, 1551.677
388.9980, 1565.365
389.4801, 1579.461
389.9622, 1592.545
390.4443, 1604.774
390.9264, 1617.142
391.4085, 1629.641
391.8907, 1642.684
392.3728, 1656.786
392.8549, 1672.194
393.3370, 1687.752
393.8191, 1702.838
394.3012, 1717.626
394.7834, 1732.415
395.2655, 1747.597
395.7476, 1762.505
396.2297, 1776.717
396.7118, 1790.085
397.1939, 1803.723
397.6761, 1818.765
398.1582, 1833.635
398.6403, 1847.021
399.1224, 1857.849
399.6045, 1868.322
400.0866, 1878.613
400.5688, 1888.757
401.0509, 1898.607
401.5330, 1908.464
402.0151, 1917.820
402.4972, 1926.511
402.9793, 1934.773
403.4615, 1941.802
403.9436, 1947.208
404.4257, 1951.695
404.9078, 1956.475
405.3899, 1961.859
405.8720, 1966.443
406.3542, 1969.878
406.8363, 1972.134
407.3184, 1972.521
407.8005, 1970.642
408.2826, 1968.422
408.7647, 1967.950
409.2469, 1969.058
409.7290, 1969.808
410.2111, 1970.102
410.6932, 1969.465
411.1753, 1966.317
411.6574, 1960.944
412.1396, 1955.773
412.6217, 1953.225
413.1038, 1951.857
413.5859, 1948.691
414.0680, 1943.271
414.5501, 1937.237
415.0323, 1932.198
415.5144, 1927.642
415.9965, 1922.434
416.4786, 1915.335
416.9607, 1907.996
417.4428, 1901.418
417.9250, 1895.646
418.4071, 1890.578
418.8892, 1886.996
419.3713, 1883.670
419.8534, 1879.613
420.3355, 1874.226
420.8177, 1868.633
421.2998, 1862.892
421.7819, 1857.195
422.2640, 1851.793
422.7461, 1847.333
423.2282, 1842.793
423.7104, 1837.755
424.1925, 1832.134
424.6746, 1826.514
425.1567, 1820.326
425.6388, 1814.545
426.1209, 1810.041
426.6031, 1807.874
427.0852, 1805.284
427.5673, 1801.880
428.0494, 1797.701
428.5315, 1793.243
429.0136, 1788.559
429.4958, 1783.483
429.9779, 1777.926
430.4600, 1771.825
430.9421, 1765.469
431.4242, 1758.834
431.9063, 1752.004
432.3885, 1744.983
432.8706, 1737.830
433.3527, 1731.431
433.8348, 1726.865
434.3169, 1723.110
434.7990, 1716.683
435.2812, 1707.629
435.7633, 1698.058
436.2454, 1689.617
436.7275, 1682.148
437.2096, 1675.188
437.6917, 1668.868
438.1739, 1662.527
438.6560, 1655.203
439.1381, 1647.257
439.6202, 1639.644
440.1023, 1632.616
440.5844, 1626.297
441.0666, 1621.191
441.5487, 1617.445
442.0308, 1612.830
442.5129, 1605.193
442.9950, 1596.621
443.4771, 1589.106
443.9593, 1583.600
444.4414, 1578.752
444.9235, 1574.201
445.4056, 1570.010
445.8877, 1566.273
446.3698, 1563.313
446.8520, 1560.505
447.3341, 1557.617
447.8162, 1554.715
448.2983, 1551.493
448.7804, 1547.667
449.2625, 1543.708
449.7447, 1540.291
450.2268, 1537.781
450.7089, 1534.850
451.1910, 1531.000
451.6731, 1526.545
452.1552, 1523.389
452.6374, 1521.965
453.1195, 1520.543
453.6016, 1517.872
454.0837, 1514.041
454.5658, 1510.556
455.0479, 1507.522
455.5301, 1504.981
456.0122, 1503.553
456.4943, 1502.943
456.9764, 1501.481
457.4585, 1498.102
457.9406, 1493.714
458.4228, 1489.486
458.9049, 1485.476
459.3870, 1481.926
459.8691, 1479.097
460.3512, 1476.828
460.8333, 1475.163
461.3155, 1474.546
461.7976, 1473.199
462.2797, 1469.275
462.7618, 1463.903
463.2439, 1459.136
463.7260, 1455.592
464.2082, 1452.929
464.6903, 1451.471
465.1724, 1451.203
465.6545, 1450.458
466.1366, 1447.509
466.6187, 1444.895
467.1009, 1444.287
467.5830, 1448.142
468.0651, 1450.799
468.5472, 1451.340
469.0293, 1450.925
469.5114, 1451.984
469.9936, 1455.151
470.4757, 1458.549
470.9578, 1461.450
471.4399, 1463.864
471.9220, 1467.260
472.4041, 1471.595
472.8863, 1476.855
473.3684, 1482.987
473.8505, 1489.981
474.3326, 1497.861
474.8147, 1506.800
475.2968, 1516.278
475.7790, 1525.298
476.2611, 1534.007
476.7432, 1543.071
477.2253, 1552.617
477.7074, 1562.897
478.1895, 1574.779
478.6717, 1588.257
479.1538, 1601.507
479.6359, 1612.480
480.1180, 1622.694
480.6001, 1634.140
481.0822, 1648.154
481.5644, 1662.293
482.0465, 1675.888
482.5286, 1688.693
483.0107, 1700.160
483.4928, 1708.307
483.9749, 1716.739
484.4571, 1727.366
484.9392, 1740.776
485.4213, 1752.829
485.9034, 1763.092
486.3855, 1771.853
486.8676, 1779.355
487.3498, 1785.663
487.8319, 1790.480
488.3140, 1793.474
488.7961, 1795.066
489.2782, 1796.336
489.7603, 1797.508
490.2425, 1797.551
490.7246, 1796.334
491.2067, 1793.774
491.6888, 1788.689
492.1709, 1781.014
492.6530, 1771.428
493.1352, 1760.505
493.6173, 1748.228
494.0994, 1734.365
494.5815, 1718.753
495.0636, 1702.242
495.5457, 1685.943
496.0279, 1669.838
496.5100, 1653.904
496.9921, 1638.725
497.4742, 1623.125
497.9563, 1605.559
498.4384, 1585.941
498.9206, 1566.830
499.4027, 1549.547
499.8848, 1533.173
500.3669, 1516.529
500.8490, 1499.477
501.3311, 1482.252
501.8133, 1464.606
502.2954, 1446.737
502.7775, 1428.974
503.2596, 1410.748
503.7417, 1392.938
504.2238, 1375.996
504.7060, 1359.899
505.1881, 1343.513
505.6702, 1326.450
506.1523, 1309.914
506.6344, 1294.893
507.1165, 1281.670
507.5987, 1268.159
508.0808, 1254.302
508.5629, 1240.484
509.0450, 1227.484
509.5271, 1215.255
510.0092, 1203.131
510.4914, 1190.655
510.9735, 1178.154
511.4556, 1166.138
511.9377, 1154.685
512.4199, 1143.513
512.9020, 1132.186
513.3841, 1121.174
513.8662, 1111.353
514.3483, 1103.163
514.8304, 1094.521
515.3126, 1083.113
515.7947, 1070.833
516.2768, 1059.927
516.7589, 1051.907
517.2410, 1044.476
517.7231, 1036.878
518.2053, 1029.244
518.6874, 1022.263
519.1695, 1017.623
519.6516, 1012.201
520.1337, 1004.753
520.6158, 994.6374
521.0980, 985.2117
521.5801, 976.3769
522.0622, 968.3766
522.5443, 961.5242
523.0264, 956.0187
523.5085, 950.5184
523.9907, 944.8732
524.4728, 939.1399
524.9549, 933.1684
525.4370, 926.9661
525.9191, 921.2774
526.4012, 916.6849
526.8834, 912.7552
527.3655, 908.5047
527.8476, 903.9554
528.3297, 899.7003
528.8118, 896.3554
529.2939, 893.5645
529.7761, 890.8931
530.2582, 888.2213
530.7403, 885.7488
531.2224, 883.8333
531.7045, 882.1573
532.1866, 880.2122
532.6688, 877.3347
533.1509, 874.6588
533.6330, 872.3796
534.1151, 870.5370
534.5972, 869.3412
535.0793, 869.5019
535.5615, 869.5502
536.0436, 868.7141
536.5257, 866.6422
537.0078, 864.9000
537.4899, 863.4774
537.9720, 862.4294
538.4542, 861.9230
538.9363, 861.9901
539.4184, 862.1808
539.9005, 862.3850
540.3826, 862.6873
540.8647, 863.4312
541.3469, 864.5403
541.8290, 865.3786
542.3111, 865.1384
542.7932, 864.6018
543.2753, 865.0679
543.7574, 866.5626
544.2396, 868.0667
544.7217, 868.5715
545.2038, 868.8565
545.6859, 869.7632
546.1680, 871.8789
546.6501, 873.8708
547.1323, 875.2344
547.6144, 876.1632
548.0965, 877.0272
548.5786, 877.9045
549.0607, 878.6779
549.5428, 879.2608
550.0250, 879.6846
550.5071, 880.2585
550.9892, 880.9665
551.4713, 881.8732
551.9534, 883.1565
552.4355, 884.9049
552.9177, 886.1127
553.3998, 886.6796
553.8819, 887.0230
554.3640, 887.7100
554.8461, 888.6462
555.3282, 889.2830
555.8104, 889.4093
556.2925, 889.2932
556.7746, 889.1140
557.2567, 888.9583
557.7388, 889.0994
558.2209, 890.0060
558.7031, 891.0327
559.1852, 891.6950
559.6673, 891.9875
560.1494, 892.1139
560.6315, 892.4036
561.1136, 892.3965
561.5958, 891.7275
562.0779, 889.8207
562.5600, 888.2595
563.0421, 887.0255
563.5242, 886.2244
564.0063, 885.8829
564.4885, 885.5535
564.9706, 886.9813
565.4527, 891.6855
565.9348, 897.8642
566.4169, 898.8940
566.8990, 894.2035
567.3812, 889.0217
567.8633, 885.7932
568.3454, 884.2547
568.8275, 883.5635
569.3096, 883.7311
569.7917, 884.1438
570.2739, 884.7089
570.7560, 885.0525
571.2381, 884.4318
571.7202, 882.3235
572.2023, 880.3698
572.6844, 880.3241
573.1666, 880.9350
573.6487, 880.3074
574.1308, 876.1476
574.6129, 872.4783
575.0950, 870.6911
575.5771, 870.5446
576.0593, 870.3172
576.5414, 870.4639
577.0235, 869.8806
577.5056, 867.7499
577.9877, 863.7557
578.4698, 861.5956
578.9520, 861.8187
579.4341, 862.4933
579.9162, 861.6022
580.3983, 859.2935
580.8804, 858.0169
581.3625, 858.3865
581.8447, 859.0525
582.3268, 858.0424
582.8089, 855.8049
583.2910, 853.5331
583.7731, 851.1785
584.2552, 849.5154
584.7373, 849.8235
585.2194, 851.5775
585.7015, 852.7962
586.1837, 852.5078
586.6658, 851.5130
587.1479, 850.0065
587.6300, 847.8699
588.1121, 846.2080
588.5942, 845.7693
589.0764, 845.3825
589.5585, 844.2633
590.0406, 842.0297
590.5227, 839.9100
591.0048, 837.8566
591.4869, 836.0112
591.9691, 834.6563
592.4512, 833.8241
592.9333, 833.1205
593.4154, 832.5464
593.8975, 831.9371
594.3796, 830.9639
594.8618, 829.6495
595.3439, 828.0521
595.8260, 825.9446
596.3081, 823.7302
596.7902, 821.9082
597.2723, 820.4815
597.7545, 818.9280
598.2366, 816.4373
598.7187, 814.0529
599.2008, 812.7191
599.6829, 813.4975
600.1650, 813.3070
600.6472, 810.8648
601.1293, 807.6075
601.6114, 805.1405
602.0935, 803.9192
602.5756, 802.5749
603.0577, 800.7828
603.5399, 798.8408
604.0220, 797.5350
604.5041, 796.9283
604.9862, 796.4838
605.4683, 796.0775
605.9504, 795.6368
606.4326, 795.0479
606.9147, 794.2916
607.3968, 793.0598
607.8789, 788.1193
608.3610, 788.4572
608.8431, 787.9147
609.3253, 786.5384
609.8074, 781.8338
610.2895, 781.4276
610.7716, 779.2987
611.2537, 777.0992
611.7358, 777.2982
612.2180, 773.0771
612.7001, 773.2381
613.1822, 771.6499
613.6643, 770.8621
614.1464, 768.3411
614.6285, 766.3556
615.1107, 766.1034
615.5928, 764.8917
616.0749, 762.1711
616.5570, 761.4343
617.0391, 757.1531
617.5212, 755.9824
618.0034, 756.1528
618.4855, 753.5197
618.9676, 752.8145
619.4497, 751.3749
619.9318, 746.5979
620.4139, 747.6253
620.8961, 746.1419
621.3782, 742.0818
621.8603, 742.9102
622.3424, 739.2051
622.8245, 737.1183
623.3066, 737.4776
623.7888, 735.8299
624.2709, 734.4635
624.7530, 733.8342
625.2351, 733.4733
625.7172, 732.0963
626.1993, 729.1512
626.6815, 726.9362
627.1636, 726.5048
627.6457, 727.2863
628.1278, 726.7338
628.6099, 724.8418
629.0920, 722.8726
629.5742, 721.9713
630.0563, 721.4622
630.5384, 719.7665
631.0205, 716.7998
631.5026, 714.3111
631.9847, 714.1736
632.4669, 714.7967
632.9490, 714.5385
633.4311, 712.5698
633.9132, 710.9431
634.3953, 710.4768
634.8774, 710.5421
635.3596, 710.3570
635.8417, 709.9215
636.3238, 709.1523
636.8059, 707.7039
637.2880, 706.0887
637.7701, 705.8447
638.2523, 707.2377
638.7344, 707.9383
639.2165, 706.6442
639.6986, 704.2596
640.1807, 703.5158
640.6628, 704.2455
641.1450, 704.9719
641.6271, 704.5778
642.1092, 703.7447
642.5913, 703.3076
643.0734, 703.3292
643.5555, 703.1790
644.0377, 702.2224
644.5198, 701.1846
645.0019, 700.6508
645.4840, 701.0380
645.9661, 701.2164
646.4482, 701.0498
646.9304, 700.7089
647.4125, 700.4057
647.8946, 700.2292
648.3767, 699.7043
648.8588, 698.5797
649.3409, 697.3243
649.8231, 696.8366
650.3052, 697.0632
650.7873, 697.5424
651.2694, 698.3636
651.7515, 699.0928
652.2336, 698.6510
652.7158, 697.4524
653.1979, 696.9952
653.6800, 698.9865
654.1621, 701.2505
654.6442, 702.4144
655.1263, 702.3895
655.6085, 702.1966
656.0906, 701.6595
656.5727, 701.3638
