##NAMES=Beudantite
##RRUFFID=R070189
##IDEAL CHEMISTRY=Pb^2+^Fe^3+^_3_(As^5+^O_4_)(S^6+^O_4_)(OH)_6_
##LOCALITY=Tsumeb mine, Tsumeb, Otavi District, Oshikoto, Namibia
##OWNER=RRUFF
##SOURCE=William W. Pinch
##DESCRIPTION=Transparent brown rhombohedra or pseudocubes associated with green duftite
##STATUS=The identification of this mineral is confirmed by single-crystal X-ray diffraction and chemical analysis.
##URL=rruff.info/R070189
##MEASURED CHEMISTRY=(Pb_0.92_[box]_0.07_Cu_0.01_)_Σ=1_(Fe^3+^_2.80_Al_0.20_)_Σ=3_(As_1.00_O_4_)((S_0.80_As_0.20_)_Σ=1_O_4_)((OH)_5.66_(H_2_O)_0.34_)_Σ=6_ ; trace amounts of P; (OH) estimated by charge balance; H_2_O by difference:  H_2_O=6-(OH) 
131.6260, 2069.795
132.1081, 2214.030
132.5902, 2367.465
133.0723, 2542.669
133.5544, 2714.845
134.0366, 2882.592
134.5187, 3043.409
135.0008, 3196.665
135.4829, 3342.803
135.9650, 3480.768
136.4471, 3581.871
136.9293, 3628.944
137.4114, 3660.809
137.8935, 3690.178
138.3756, 3713.773
138.8577, 3721.379
139.3398, 3704.512
139.8220, 3662.766
140.3041, 3616.364
140.7862, 3558.367
141.2683, 3503.325
141.7504, 3457.103
142.2325, 3419.660
142.7147, 3388.846
143.1968, 3362.832
143.6789, 3342.208
144.1610, 3329.139
144.6431, 3326.533
145.1252, 3328.033
145.6074, 3328.922
146.0895, 3329.763
146.5716, 3336.578
147.0537, 3357.628
147.5358, 3392.335
148.0179, 3409.354
148.5001, 3403.321
148.9822, 3384.133
149.4643, 3356.814
149.9464, 3321.825
150.4285, 3281.956
150.9106, 3238.761
151.3928, 3191.967
151.8749, 3141.414
152.3570, 3081.483
152.8391, 3021.207
153.3212, 2970.453
153.8033, 2930.341
154.2855, 2889.832
154.7676, 2838.487
155.2497, 2778.649
155.7318, 2721.251
156.2139, 2667.899
156.6960, 2617.826
157.1782, 2568.128
157.6603, 2517.630
158.1424, 2474.995
158.6245, 2450.984
159.1066, 2440.646
159.5887, 2433.871
160.0709, 2427.686
160.5530, 2423.877
161.0351, 2424.090
161.5172, 2427.475
161.9993, 2438.294
162.4814, 2467.483
162.9636, 2506.144
163.4457, 2538.383
163.9278, 2552.548
164.4099, 2558.467
164.8920, 2574.742
165.3741, 2604.618
165.8563, 2635.718
166.3384, 2658.946
166.8205, 2678.175
167.3026, 2699.978
167.7847, 2727.237
168.2668, 2758.769
168.7490, 2793.325
169.2311, 2833.832
169.7132, 2870.853
170.1953, 2896.563
170.6774, 2916.290
171.1595, 2937.660
171.6417, 2960.965
172.1238, 2989.459
172.6059, 3034.472
173.0880, 3106.932
173.5701, 3173.953
174.0522, 3214.473
174.5344, 3242.534
175.0165, 3277.417
175.4986, 3328.852
175.9807, 3393.122
176.4628, 3460.976
176.9449, 3532.412
177.4271, 3608.082
177.9092, 3686.682
178.3913, 3769.048
178.8734, 3855.799
179.3555, 3947.402
179.8376, 4044.682
180.3197, 4152.100
180.8019, 4275.331
181.2840, 4399.115
181.7661, 4513.589
182.2482, 4627.251
182.7303, 4749.236
183.2124, 4883.488
183.6946, 5029.857
184.1767, 5188.277
184.6588, 5357.918
185.1409, 5541.289
185.6230, 5744.630
186.1051, 5956.379
186.5873, 6162.721
187.0694, 6355.794
187.5515, 6543.680
188.0336, 6751.920
188.5157, 6980.859
188.9978, 7230.327
189.4800, 7496.342
189.9621, 7778.188
190.4442, 8080.490
190.9263, 8404.007
191.4084, 8742.879
191.8905, 9081.797
192.3727, 9416.396
192.8548, 9762.298
193.3369, 10132.93
193.8190, 10510.20
194.3011, 10877.20
194.7832, 11227.17
195.2654, 11566.97
195.7475, 11911.23
196.2296, 12282.77
196.7117, 12617.80
197.1938, 12906.95
197.6759, 13164.77
198.1581, 13402.06
198.6402, 13623.38
199.1223, 13824.94
199.6044, 14000.42
200.0865, 14152.25
200.5686, 14268.81
201.0508, 14344.38
201.5329, 14395.39
202.0150, 14439.88
202.4971, 14481.12
202.9792, 14498.08
203.4613, 14453.82
203.9435, 14326.44
204.4256, 14183.44
204.9077, 14041.27
205.3898, 13878.85
205.8719, 13673.98
206.3540, 13425.65
206.8362, 13159.02
207.3183, 12908.20
207.8004, 12688.81
208.2825, 12449.41
208.7646, 12172.74
209.2467, 11891.35
209.7289, 11622.23
210.2110, 11369.46
210.6931, 11127.20
211.1752, 10888.89
211.6573, 10654.83
212.1395, 10428.86
212.6216, 10220.06
213.1037, 10012.25
213.5858, 9797.169
214.0679, 9576.079
214.5500, 9355.328
215.0322, 9140.223
215.5143, 8930.658
215.9964, 8731.793
216.4785, 8543.267
216.9606, 8364.605
217.4427, 8201.025
217.9249, 8047.889
218.4070, 7892.341
218.8891, 7721.548
219.3712, 7534.664
219.8533, 7363.611
220.3354, 7212.442
220.8176, 7074.373
221.2997, 6955.729
221.7818, 6849.065
222.2639, 6740.251
222.7460, 6619.249
223.2281, 6487.044
223.7103, 6365.039
224.1924, 6257.228
224.6745, 6156.131
225.1566, 6062.019
225.6387, 5972.963
226.1208, 5886.814
226.6030, 5802.937
227.0851, 5720.534
227.5672, 5635.958
228.0493, 5542.130
228.5314, 5455.705
229.0135, 5381.603
229.4957, 5315.334
229.9778, 5250.394
230.4599, 5183.611
230.9420, 5120.001
231.4241, 5073.489
231.9062, 5060.614
232.3884, 5036.668
232.8705, 4983.658
233.3526, 4925.551
233.8347, 4883.732
234.3168, 4865.209
234.7989, 4859.349
235.2811, 4848.261
235.7632, 4828.973
236.2453, 4811.357
236.7274, 4796.417
237.2095, 4782.923
237.6916, 4768.579
238.1738, 4753.596
238.6559, 4741.875
239.1380, 4738.726
239.6201, 4745.899
240.1022, 4755.384
240.5843, 4770.860
241.0665, 4785.350
241.5486, 4792.563
242.0307, 4794.169
242.5128, 4798.978
242.9949, 4817.720
243.4770, 4852.158
243.9592, 4879.760
244.4413, 4899.370
244.9234, 4912.545
245.4055, 4916.312
245.8876, 4913.691
246.3697, 4911.690
246.8519, 4915.761
247.3340, 4925.130
247.8161, 4931.892
248.2982, 4929.067
248.7803, 4926.755
249.2624, 4940.509
249.7446, 4949.291
250.2267, 4953.368
250.7088, 4938.650
251.1909, 4948.202
251.6730, 4948.028
252.1551, 4947.455
252.6373, 4960.424
253.1194, 4948.440
253.6015, 4961.193
254.0836, 4946.639
254.5657, 4923.664
255.0478, 4897.199
255.5300, 4881.369
256.0121, 4878.608
256.4942, 4877.499
256.9763, 4883.156
257.4584, 4884.349
257.9406, 4868.984
258.4227, 4834.006
258.9048, 4795.960
259.3869, 4772.912
259.8690, 4765.523
260.3511, 4757.396
260.8333, 4747.892
261.3154, 4734.104
261.7975, 4712.608
262.2796, 4683.825
262.7617, 4654.160
263.2438, 4629.274
263.7260, 4607.824
264.2081, 4581.124
264.6902, 4543.184
265.1723, 4508.004
265.6544, 4489.923
266.1365, 4483.619
266.6187, 4471.507
267.1008, 4443.552
267.5829, 4404.496
268.0650, 4362.796
268.5471, 4317.292
269.0292, 4273.801
269.5114, 4234.479
269.9935, 4200.284
270.4756, 4174.694
270.9577, 4166.969
271.4398, 4161.393
271.9219, 4137.418
272.4041, 4094.399
272.8862, 4052.933
273.3683, 4021.222
273.8504, 3999.022
274.3325, 3984.980
274.8146, 3983.231
275.2968, 3982.027
275.7789, 3971.102
276.2610, 3953.365
276.7431, 3941.271
277.2252, 3940.748
277.7073, 3945.837
278.1895, 3946.238
278.6716, 3940.942
279.1537, 3936.755
279.6358, 3933.603
280.1179, 3933.727
280.6000, 3942.744
281.0822, 3962.897
281.5643, 3985.645
282.0464, 3998.214
282.5285, 3998.687
283.0106, 4012.758
283.4927, 4052.584
283.9749, 4101.369
284.4570, 4144.556
284.9391, 4181.001
285.4212, 4216.842
285.9033, 4256.605
286.3854, 4300.331
286.8676, 4345.549
287.3497, 4390.599
287.8318, 4438.602
288.3139, 4488.720
288.7960, 4542.911
289.2781, 4606.694
289.7603, 4684.293
290.2424, 4771.905
290.7245, 4852.073
291.2066, 4925.344
291.6887, 4991.322
292.1708, 5037.017
292.6530, 5079.923
293.1351, 5144.782
293.6172, 5239.932
294.0993, 5350.007
294.5814, 5447.304
295.0635, 5524.556
295.5457, 5602.169
296.0278, 5678.478
296.5099, 5755.807
296.9920, 5839.874
297.4741, 5928.860
297.9562, 6010.151
298.4384, 6069.064
298.9205, 6100.963
299.4026, 6143.456
299.8847, 6207.104
300.3668, 6270.415
300.8489, 6331.894
301.3310, 6387.375
301.8131, 6429.778
302.2953, 6453.853
302.7774, 6461.892
303.2595, 6465.074
303.7416, 6459.677
304.2237, 6454.663
304.7058, 6453.320
305.1880, 6452.670
305.6701, 6450.358
306.1522, 6445.616
306.6343, 6436.823
307.1164, 6420.941
307.5985, 6397.125
308.0807, 6369.549
308.5628, 6341.214
309.0449, 6307.475
309.5270, 6263.364
310.0091, 6209.092
310.4912, 6152.661
310.9734, 6102.938
311.4555, 6058.647
311.9376, 6006.298
312.4197, 5942.999
312.9018, 5874.092
313.3839, 5802.024
313.8661, 5727.404
314.3482, 5652.481
314.8303, 5576.187
315.3124, 5501.048
315.7945, 5431.564
316.2766, 5368.137
316.7588, 5308.790
317.2409, 5258.511
317.7230, 5210.121
318.2051, 5150.721
318.6872, 5072.846
319.1693, 4994.875
319.6515, 4930.231
320.1336, 4877.569
320.6157, 4830.899
321.0978, 4791.086
321.5799, 4752.498
322.0620, 4702.972
322.5442, 4640.109
323.0263, 4584.306
323.5084, 4546.681
323.9905, 4516.836
324.4726, 4480.038
324.9547, 4433.701
325.4369, 4388.071
325.9190, 4354.975
326.4011, 4336.150
326.8832, 4303.830
327.3653, 4250.813
327.8474, 4191.392
328.3296, 4129.769
328.8117, 4067.865
329.2938, 4010.939
329.7759, 3962.954
330.2580, 3920.153
330.7401, 3867.009
331.2223, 3794.577
331.7044, 3722.452
332.1865, 3652.105
332.6686, 3583.061
333.1507, 3514.994
333.6328, 3447.851
334.1150, 3380.888
334.5971, 3312.366
335.0792, 3241.524
335.5613, 3171.958
336.0434, 3105.774
336.5255, 3039.005
337.0077, 2966.911
337.4898, 2892.173
337.9719, 2822.487
338.4540, 2765.207
338.9361, 2718.905
339.4182, 2670.567
339.9004, 2618.364
340.3825, 2567.304
340.8646, 2515.577
341.3467, 2466.585
341.8288, 2425.397
342.3109, 2394.339
342.7931, 2368.777
343.2752, 2343.213
343.7573, 2318.103
344.2394, 2288.954
344.7215, 2247.493
345.2036, 2207.421
345.6858, 2179.321
346.1679, 2163.610
346.6500, 2154.005
347.1321, 2150.049
347.6142, 2149.135
348.0963, 2143.839
348.5785, 2132.885
349.0606, 2119.139
349.5427, 2102.104
350.0248, 2083.698
350.5069, 2070.208
350.9890, 2064.772
351.4712, 2062.985
351.9533, 2060.045
352.4354, 2056.983
352.9175, 2060.353
353.3996, 2075.369
353.8817, 2096.270
354.3639, 2106.983
354.8460, 2102.347
355.3281, 2100.703
355.8102, 2107.166
356.2923, 2118.259
356.7744, 2130.271
357.2566, 2142.355
357.7387, 2154.834
358.2208, 2168.201
358.7029, 2182.811
359.1850, 2196.431
359.6671, 2204.880
360.1493, 2216.503
360.6314, 2239.624
361.1135, 2268.692
361.5956, 2290.276
362.0777, 2295.557
362.5598, 2291.032
363.0420, 2301.382
363.5241, 2340.152
364.0062, 2372.311
364.4883, 2390.996
364.9704, 2403.863
365.4525, 2415.227
365.9347, 2426.781
366.4168, 2441.663
366.8989, 2465.985
367.3810, 2500.969
367.8631, 2527.670
368.3452, 2540.512
368.8274, 2550.486
369.3095, 2562.082
369.7916, 2575.428
370.2737, 2590.606
370.7558, 2608.713
371.2379, 2627.823
371.7201, 2646.303
372.2022, 2664.826
372.6843, 2675.711
373.1664, 2671.766
373.6485, 2660.251
374.1306, 2653.047
374.6128, 2652.029
375.0949, 2649.807
375.5770, 2642.290
376.0591, 2630.944
376.5412, 2618.480
377.0233, 2605.393
377.5055, 2591.580
377.9876, 2576.606
378.4697, 2560.349
378.9518, 2545.201
379.4339, 2534.642
379.9160, 2522.141
380.3982, 2498.130
380.8803, 2468.473
381.3624, 2452.153
381.8445, 2461.257
382.3266, 2484.230
382.8087, 2485.653
383.2909, 2432.527
383.7730, 2400.983
384.2551, 2409.365
384.7372, 2428.775
385.2193, 2434.315
385.7014, 2423.053
386.1836, 2410.197
386.6657, 2413.264
387.1478, 2433.533
387.6299, 2444.737
388.1120, 2440.558
388.5941, 2434.046
389.0763, 2426.637
389.5584, 2420.443
390.0405, 2418.658
390.5226, 2423.003
391.0047, 2431.185
391.4868, 2440.238
391.9690, 2450.270
392.4511, 2459.431
392.9332, 2463.438
393.4153, 2470.082
393.8974, 2488.095
394.3795, 2517.448
394.8617, 2545.839
395.3438, 2561.557
395.8259, 2574.376
396.3080, 2602.793
396.7901, 2649.013
397.2722, 2698.615
397.7544, 2742.077
398.2365, 2780.439
398.7186, 2820.918
399.2007, 2866.006
399.6828, 2909.946
400.1649, 2944.790
400.6471, 2978.250
401.1292, 3025.878
401.6113, 3093.164
402.0934, 3167.378
402.5755, 3230.086
403.0576, 3275.433
403.5398, 3326.127
404.0219, 3386.417
404.5040, 3447.807
404.9861, 3503.127
405.4682, 3555.972
405.9503, 3615.704
406.4325, 3689.007
406.9146, 3771.851
407.3967, 3848.737
407.8788, 3916.921
408.3609, 3984.472
408.8430, 4051.200
409.3252, 4119.467
409.8073, 4190.267
410.2894, 4264.071
410.7715, 4343.374
411.2536, 4435.229
411.7357, 4536.014
412.2179, 4622.064
412.7000, 4685.564
413.1821, 4748.699
413.6642, 4826.211
414.1463, 4914.358
414.6284, 5005.624
415.1106, 5102.649
415.5927, 5198.213
416.0748, 5278.526
416.5569, 5352.092
417.0390, 5449.047
417.5211, 5583.033
418.0033, 5730.441
418.4854, 5855.631
418.9675, 5950.100
419.4496, 6049.333
419.9317, 6155.886
420.4138, 6265.591
420.8960, 6375.288
421.3781, 6485.894
421.8602, 6600.858
422.3423, 6723.203
422.8244, 6851.736
423.3065, 6981.262
423.7887, 7117.349
424.2708, 7245.866
424.7529, 7362.756
425.2350, 7474.205
425.7171, 7580.442
426.1992, 7684.118
426.6814, 7794.330
427.1635, 7926.661
427.6456, 8078.796
428.1277, 8209.062
428.6098, 8309.267
429.0919, 8402.773
429.5741, 8499.264
430.0562, 8598.174
430.5383, 8698.677
431.0204, 8801.149
431.5025, 8904.037
431.9846, 9012.145
432.4668, 9120.648
432.9489, 9211.910
433.4310, 9280.773
433.9131, 9333.313
434.3952, 9374.092
434.8773, 9401.754
435.3595, 9427.867
435.8416, 9461.923
436.3237, 9486.389
436.8058, 9489.683
437.2879, 9474.574
437.7701, 9449.559
438.2522, 9418.971
438.7343, 9381.006
439.2164, 9331.031
439.6985, 9264.481
440.1806, 9193.448
440.6628, 9118.794
441.1449, 9039.382
441.6270, 8957.866
442.1091, 8871.763
442.5912, 8771.799
443.0733, 8647.806
443.5555, 8506.287
444.0376, 8370.665
444.5197, 8238.717
445.0018, 8118.804
445.4839, 8022.548
445.9660, 7934.878
446.4482, 7840.925
446.9303, 7738.538
447.4124, 7635.803
447.8945, 7538.141
448.3766, 7443.459
448.8587, 7346.986
449.3409, 7247.308
449.8230, 7150.803
450.3051, 7060.715
450.7872, 6977.750
451.2693, 6905.242
451.7514, 6846.968
452.2336, 6793.872
452.7157, 6742.749
453.1978, 6695.289
453.6799, 6656.138
454.1620, 6626.032
454.6441, 6597.998
455.1263, 6560.909
455.6084, 6509.932
456.0905, 6477.575
456.5726, 6475.419
457.0547, 6481.407
457.5368, 6492.034
458.0190, 6505.893
458.5011, 6518.784
458.9832, 6526.807
459.4653, 6543.897
459.9474, 6593.078
460.4295, 6674.536
460.9117, 6762.766
461.3938, 6855.257
461.8759, 6950.310
462.3580, 7042.087
462.8401, 7133.150
463.3222, 7240.810
463.8044, 7373.978
464.2865, 7523.014
464.7686, 7682.738
465.2507, 7851.286
465.7328, 8021.290
466.2149, 8188.220
466.6971, 8359.277
467.1792, 8546.395
467.6613, 8761.329
468.1434, 8969.179
468.6255, 9163.054
469.1076, 9356.261
469.5898, 9557.083
470.0719, 9763.729
470.5540, 9967.429
471.0361, 10164.46
471.5182, 10353.21
472.0003, 10535.72
472.4825, 10717.24
472.9646, 10874.80
473.4467, 10999.29
473.9288, 11099.17
474.4109, 11180.54
474.8930, 11242.27
475.3752, 11274.86
475.8573, 11275.11
476.3394, 11241.94
476.8215, 11170.26
477.3036, 11059.91
477.7857, 10923.94
478.2679, 10768.41
478.7500, 10591.83
479.2321, 10385.91
479.7142, 10148.32
480.1963, 9897.750
480.6784, 9633.688
481.1606, 9360.921
481.6427, 9080.118
482.1248, 8793.269
482.6069, 8508.963
483.0890, 8231.833
483.5711, 7961.928
484.0533, 7693.009
484.5354, 7421.123
485.0175, 7156.477
485.4996, 6896.254
485.9817, 6645.626
486.4638, 6412.115
486.9460, 6194.589
487.4281, 5985.563
487.9102, 5776.456
488.3923, 5571.194
488.8744, 5385.858
489.3565, 5224.840
489.8387, 5059.292
490.3208, 4865.758
490.8029, 4664.320
491.2850, 4498.762
491.7671, 4382.643
492.2492, 4261.724
492.7314, 4108.098
493.2135, 3946.773
493.6956, 3807.435
494.1777, 3692.246
494.6598, 3583.243
495.1419, 3466.246
495.6241, 3344.417
496.1062, 3235.399
496.5883, 3150.126
497.0704, 3063.613
497.5525, 2966.226
498.0346, 2871.133
498.5168, 2792.196
498.9989, 2729.161
499.4810, 2668.124
499.9631, 2593.651
500.4452, 2512.029
500.9273, 2450.263
501.4095, 2412.224
501.8916, 2377.499
502.3737, 2337.302
502.8558, 2295.187
503.3379, 2257.259
503.8200, 2224.736
504.3022, 2192.268
504.7843, 2157.886
505.2664, 2122.594
505.7485, 2087.388
506.2306, 2052.528
506.7127, 2018.780
507.1949, 1985.822
507.6770, 1955.164
508.1591, 1934.125
508.6412, 1936.199
509.1233, 1927.883
509.6054, 1898.880
510.0876, 1865.959
510.5697, 1841.912
511.0518, 1826.536
511.5339, 1811.008
512.0161, 1786.954
512.4982, 1759.535
512.9803, 1744.775
513.4624, 1745.303
513.9445, 1743.006
514.4266, 1730.291
514.9088, 1712.762
515.3909, 1697.053
515.8730, 1683.010
516.3551, 1672.015
516.8372, 1668.680
517.3193, 1665.453
517.8015, 1653.914
518.2836, 1635.573
518.7657, 1616.970
519.2478, 1601.198
519.7299, 1589.274
520.2120, 1584.069
520.6942, 1590.172
521.1763, 1594.330
521.6584, 1594.502
522.1405, 1594.850
522.6226, 1599.201
523.1047, 1605.585
523.5869, 1608.348
524.0690, 1603.432
524.5511, 1595.903
525.0332, 1596.295
525.5153, 1604.513
525.9974, 1603.349
526.4796, 1582.152
526.9617, 1561.072
527.4438, 1567.078
527.9259, 1596.323
528.4080, 1615.376
528.8901, 1610.282
529.3723, 1602.984
529.8544, 1604.259
530.3365, 1613.130
530.8186, 1628.909
531.3007, 1651.117
531.7828, 1673.433
532.2650, 1685.574
532.7471, 1684.126
533.2292, 1694.294
533.7113, 1729.162
534.1934, 1760.972
534.6755, 1779.031
535.1577, 1789.946
535.6398, 1802.894
536.1219, 1820.618
536.6040, 1839.941
537.0861, 1857.351
537.5682, 1873.926
538.0504, 1893.359
538.5325, 1916.165
539.0146, 1940.119
539.4967, 1962.702
539.9788, 1985.086
540.4609, 2012.440
540.9431, 2049.455
541.4252, 2084.769
541.9073, 2110.416
542.3894, 2136.960
542.8715, 2178.243
543.3536, 2232.831
543.8358, 2284.772
544.3179, 2319.937
544.8000, 2343.713
545.2821, 2379.727
545.7642, 2429.968
546.2463, 2487.010
546.7285, 2558.348
547.2106, 2628.614
547.6926, 2682.303
548.1747, 2720.792
548.6569, 2765.794
549.1390, 2834.751
549.6211, 2908.864
550.1032, 2965.582
550.5853, 3008.244
551.0674, 3050.732
551.5496, 3098.393
552.0317, 3151.975
552.5138, 3213.531
552.9959, 3286.509
553.4780, 3356.613
553.9601, 3423.910
554.4423, 3489.050
554.9244, 3556.683
555.4065, 3621.030
555.8886, 3671.581
556.3707, 3704.432
556.8528, 3730.575
557.3350, 3762.407
557.8171, 3799.365
558.2992, 3838.266
558.7813, 3881.123
559.2634, 3918.580
559.7455, 3943.292
560.2277, 3957.665
560.7098, 3971.756
561.1919, 3994.290
561.6740, 4001.521
562.1561, 3974.460
562.6382, 3935.466
563.1204, 3910.937
563.6025, 3900.706
564.0846, 3883.553
564.5667, 3841.618
565.0488, 3784.397
565.5309, 3752.759
566.0131, 3765.502
566.4952, 3756.331
566.9773, 3697.646
567.4594, 3625.835
567.9415, 3559.563
568.4236, 3499.559
568.9058, 3443.034
569.3879, 3391.094
569.8700, 3339.734
570.3521, 3283.675
570.8342, 3224.316
571.3163, 3166.420
571.7985, 3111.482
572.2806, 3057.923
572.7627, 3004.408
573.2448, 2950.885
573.7269, 2896.133
574.2090, 2835.866
574.6912, 2778.802
575.1733, 2730.427
575.6554, 2684.697
576.1375, 2632.532
576.6196, 2572.749
577.1017, 2516.116
577.5839, 2475.589
578.0660, 2445.920
578.5481, 2409.620
579.0302, 2366.182
579.5123, 2318.050
579.9944, 2262.247
580.4766, 2206.134
580.9587, 2166.526
581.4408, 2147.308
581.9229, 2124.251
582.4050, 2092.243
582.8871, 2057.342
583.3693, 2021.266
583.8514, 1985.932
584.3335, 1955.146
584.8156, 1930.951
585.2977, 1907.347
585.7798, 1871.153
586.2620, 1820.172
586.7441, 1785.017
587.2262, 1776.138
587.7083, 1767.888
588.1904, 1744.954
588.6725, 1713.184
589.1547, 1680.602
589.6368, 1645.703
590.1189, 1616.512
590.6010, 1600.289
591.0831, 1590.041
591.5652, 1576.811
592.0474, 1560.252
592.5295, 1545.678
593.0116, 1537.252
593.4937, 1531.579
593.9758, 1517.141
594.4579, 1488.525
594.9401, 1464.194
595.4222, 1446.926
595.9043, 1433.387
596.3864, 1422.545
596.8685, 1414.246
597.3506, 1408.766
597.8328, 1407.539
598.3149, 1406.613
598.7970, 1400.445
599.2791, 1391.946
599.7612, 1390.524
600.2433, 1398.017
600.7255, 1403.227
601.2076, 1394.832
601.6897, 1375.802
602.1718, 1370.520
602.6539, 1393.352
603.1360, 1410.660
603.6182, 1416.961
604.1003, 1419.287
604.5824, 1418.875
605.0645, 1418.803
605.5466, 1427.481
606.0287, 1452.775
606.5109, 1485.339
606.9930, 1512.421
607.4751, 1534.353
607.9572, 1552.610
608.4393, 1566.773
608.9214, 1580.560
609.4036, 1596.672
609.8857, 1615.186
610.3678, 1640.941
610.8499, 1678.712
611.3320, 1716.788
611.8141, 1753.234
612.2963, 1788.307
612.7784, 1820.613
613.2605, 1851.048
613.7426, 1883.657
614.2247, 1922.335
614.7068, 1964.659
615.1890, 2005.273
615.6711, 2044.218
616.1532, 2081.005
616.6353, 2116.565
617.1174, 2147.540
617.5995, 2166.916
618.0817, 2174.457
618.5638, 2191.291
619.0459, 2229.706
619.5280, 2264.229
620.0101, 2286.993
620.4922, 2299.341
620.9744, 2303.117
