##NAMES=Beudantite
##RRUFFID=R070189
##IDEAL CHEMISTRY=Pb^2+^Fe^3+^_3_(As^5+^O_4_)(S^6+^O_4_)(OH)_6_
##LOCALITY=Tsumeb mine, Tsumeb, Otavi District, Oshikoto, Namibia
##OWNER=RRUFF
##SOURCE=William W. Pinch
##DESCRIPTION=Transparent brown rhombohedra or pseudocubes associated with green duftite
##STATUS=The identification of this mineral is confirmed by single-crystal X-ray diffraction and chemical analysis.
##URL=rruff.info/R070189
##MEASURED CHEMISTRY=(Pb_0.92_[box]_0.07_Cu_0.01_)_Σ=1_(Fe^3+^_2.80_Al_0.20_)_Σ=3_(As_1.00_O_4_)((S_0.80_As_0.20_)_Σ=1_O_4_)((OH)_5.66_(H_2_O)_0.34_)_Σ=6_ ; trace amounts of P; (OH) estimated by charge balance; H_2_O by difference:  H_2_O=6-(OH) 
127.4844, 4432.102
127.9666, 4704.662
128.4487, 4990.024
128.9308, 5304.024
129.4129, 5663.342
129.8950, 6065.806
130.3772, 6480.404
130.8593, 6894.273
131.3414, 7315.934
131.8235, 7776.595
132.3056, 8272.775
132.7877, 8803.704
133.2699, 9374.794
133.7520, 9990.016
134.2341, 10613.70
134.7162, 11251.24
135.1983, 11905.72
135.6804, 12492.22
136.1626, 13011.09
136.6447, 13452.54
137.1268, 13802.16
137.6089, 14065.06
138.0910, 14207.43
138.5731, 14202.28
139.0553, 14039.15
139.5374, 13777.94
140.0195, 13407.91
140.5016, 12944.04
140.9837, 12452.80
141.4658, 11912.67
141.9480, 11371.45
142.4301, 10863.74
142.9122, 10392.17
143.3943, 9949.838
143.8764, 9527.844
144.3585, 9130.155
144.8407, 8778.123
145.3228, 8488.035
145.8049, 8233.729
146.2870, 7993.909
146.7691, 7768.953
147.2512, 7561.876
147.7334, 7378.344
148.2155, 7221.118
148.6976, 7067.238
149.1797, 6906.059
149.6618, 6750.979
150.1439, 6620.954
150.6261, 6557.101
151.1082, 6482.896
151.5903, 6374.345
152.0724, 6205.369
152.5545, 6060.175
153.0366, 5956.616
153.5188, 5881.151
154.0009, 5807.475
154.4830, 5727.757
154.9651, 5651.384
155.4472, 5582.488
155.9293, 5530.402
156.4115, 5473.088
156.8936, 5401.877
157.3757, 5320.774
157.8578, 5242.663
158.3399, 5155.999
158.8221, 5082.442
159.3042, 5035.325
159.7863, 5045.532
160.2684, 5055.635
160.7505, 5043.821
161.2326, 5012.887
161.7148, 4985.229
162.1969, 4972.981
162.6790, 4967.434
163.1611, 4960.314
163.6432, 4941.721
164.1253, 4926.443
164.6075, 4922.826
165.0896, 4931.188
165.5717, 4944.720
166.0538, 4960.048
166.5359, 4978.129
167.0180, 5000.296
167.5002, 5030.505
167.9823, 5063.044
168.4644, 5091.874
168.9465, 5115.396
169.4286, 5143.268
169.9107, 5186.763
170.3929, 5239.834
170.8750, 5290.901
171.3571, 5324.172
171.8392, 5356.109
172.3213, 5405.142
172.8034, 5474.950
173.2856, 5555.617
173.7677, 5639.946
174.2498, 5728.292
174.7319, 5820.202
175.2140, 5904.898
175.6961, 5995.346
176.1783, 6114.008
176.6604, 6270.464
177.1425, 6443.792
177.6246, 6611.898
178.1067, 6773.896
178.5888, 6935.477
179.0710, 7083.970
179.5531, 7232.505
180.0352, 7410.438
180.5173, 7631.230
180.9994, 7876.287
181.4815, 8108.194
181.9637, 8329.585
182.4458, 8558.409
182.9279, 8811.438
183.4100, 9086.561
183.8921, 9380.090
184.3742, 9693.727
184.8564, 10024.59
185.3385, 10350.63
185.8206, 10672.74
186.3027, 11013.46
186.7848, 11406.46
187.2669, 11846.16
187.7491, 12301.68
188.2312, 12759.49
188.7133, 13222.55
189.1954, 13713.58
189.6775, 14231.26
190.1596, 14769.84
190.6418, 15332.57
191.1239, 15916.94
191.6060, 16515.61
192.0881, 17131.71
192.5702, 17762.78
193.0524, 18388.41
193.5345, 19006.69
194.0166, 19620.33
194.4987, 20228.61
194.9808, 20832.94
195.4629, 21413.09
195.9451, 21955.36
196.4272, 22466.70
196.9093, 22932.37
197.3914, 23346.53
197.8735, 23723.59
198.3556, 24104.80
198.8378, 24499.45
199.3199, 24832.71
199.8020, 25049.55
200.2841, 25141.90
200.7662, 25213.71
201.2483, 25277.67
201.7305, 25318.00
202.2126, 25297.32
202.6947, 25214.29
203.1768, 25075.21
203.6589, 24873.06
204.1410, 24602.49
204.6232, 24323.98
205.1053, 24054.23
205.5874, 23775.07
206.0695, 23415.48
206.5516, 22953.14
207.0337, 22468.94
207.5159, 22020.19
207.9980, 21629.12
208.4801, 21204.50
208.9622, 20721.61
209.4443, 20197.29
209.9264, 19717.27
210.4086, 19294.43
210.8907, 18888.33
211.3728, 18469.69
211.8549, 18024.33
212.3370, 17604.45
212.8191, 17222.45
213.3013, 16875.09
213.7834, 16500.85
214.2655, 16082.01
214.7476, 15663.16
215.2297, 15290.70
215.7118, 14976.94
216.1940, 14664.99
216.6761, 14344.01
217.1582, 14013.62
217.6403, 13695.62
218.1224, 13396.34
218.6045, 13105.92
219.0867, 12814.00
219.5688, 12518.36
220.0509, 12231.14
220.5330, 11960.56
221.0151, 11703.25
221.4972, 11455.43
221.9794, 11211.22
222.4615, 10980.63
222.9436, 10773.32
223.4257, 10598.57
223.9078, 10425.42
224.3899, 10246.33
224.8721, 10057.04
225.3542, 9886.742
225.8363, 9737.194
226.3184, 9603.509
226.8005, 9477.160
227.2827, 9356.871
227.7648, 9248.540
228.2469, 9157.932
228.7290, 9089.369
229.2111, 9006.472
229.6932, 8901.473
230.1754, 8789.433
230.6575, 8687.778
231.1396, 8596.938
231.6217, 8517.102
232.1038, 8448.532
232.5859, 8391.534
233.0681, 8344.780
233.5502, 8311.271
234.0323, 8285.971
234.5144, 8260.171
234.9965, 8227.491
235.4786, 8205.839
235.9608, 8205.065
236.4429, 8233.394
236.9250, 8242.598
237.4071, 8218.833
237.8892, 8184.474
238.3713, 8176.089
238.8535, 8206.336
239.3356, 8241.407
239.8177, 8270.213
240.2998, 8289.637
240.7819, 8315.587
241.2640, 8352.563
241.7462, 8393.860
242.2283, 8427.986
242.7104, 8451.802
243.1925, 8473.417
243.6746, 8492.619
244.1567, 8503.193
244.6389, 8535.420
245.1210, 8602.256
245.6031, 8682.888
246.0852, 8738.971
246.5673, 8758.765
247.0494, 8774.074
247.5316, 8797.757
248.0137, 8836.748
248.4958, 8859.018
248.9779, 8854.181
249.4600, 8838.344
249.9421, 8843.489
250.4243, 8883.099
250.9064, 8919.664
251.3885, 8940.288
251.8706, 8943.596
252.3527, 8933.355
252.8348, 8900.615
253.3170, 8859.926
253.7991, 8843.500
254.2812, 8871.360
254.7633, 8885.200
255.2454, 8854.792
255.7275, 8758.078
256.2097, 8703.212
256.6918, 8709.119
257.1739, 8744.464
257.6560, 8751.831
258.1381, 8724.737
258.6202, 8682.643
259.1024, 8628.148
259.5845, 8555.366
260.0666, 8497.620
260.5487, 8459.444
261.0308, 8433.008
261.5129, 8403.073
261.9951, 8369.868
262.4772, 8333.172
262.9593, 8292.165
263.4414, 8244.766
263.9235, 8202.044
264.4056, 8166.149
264.8878, 8132.415
265.3699, 8091.283
265.8520, 8040.269
266.3341, 7987.908
266.8162, 7935.930
267.2983, 7884.190
267.7805, 7836.492
268.2626, 7792.982
268.7447, 7753.824
269.2268, 7723.041
269.7089, 7705.953
270.1910, 7678.173
270.6732, 7624.593
271.1553, 7541.321
271.6374, 7473.243
272.1195, 7422.821
272.6016, 7383.876
273.0837, 7349.433
273.5659, 7319.986
274.0480, 7291.686
274.5301, 7262.761
275.0122, 7233.290
275.4943, 7204.989
275.9764, 7178.490
276.4586, 7151.973
276.9407, 7119.936
277.4228, 7081.264
277.9049, 7049.995
278.3870, 7033.820
278.8691, 7032.093
279.3513, 7029.360
279.8334, 7024.535
280.3155, 7021.504
280.7976, 7025.242
281.2798, 7035.779
281.7619, 7051.590
282.2440, 7073.054
282.7261, 7099.689
283.2082, 7125.800
283.6903, 7149.475
284.1725, 7179.662
284.6546, 7230.255
285.1367, 7300.214
285.6188, 7373.737
286.1009, 7445.426
286.5830, 7516.124
287.0652, 7589.845
287.5473, 7666.110
288.0294, 7744.234
288.5115, 7821.648
288.9936, 7899.376
289.4757, 7982.278
289.9579, 8073.496
290.4400, 8171.030
290.9221, 8271.321
291.4042, 8374.162
291.8863, 8482.350
292.3684, 8603.096
292.8506, 8732.932
293.3327, 8858.453
293.8148, 8975.324
294.2969, 9086.166
294.7790, 9200.661
295.2611, 9319.283
295.7433, 9431.697
296.2254, 9523.256
296.7075, 9602.606
297.1896, 9691.630
297.6717, 9808.007
298.1538, 9929.830
298.6360, 10019.55
299.1181, 10079.92
299.6002, 10133.62
300.0823, 10200.75
300.5644, 10273.94
301.0465, 10339.08
301.5287, 10388.19
302.0108, 10433.08
302.4929, 10491.74
302.9750, 10560.84
303.4571, 10617.93
303.9392, 10644.86
304.4214, 10652.09
304.9035, 10654.06
305.3856, 10654.45
305.8677, 10649.80
306.3498, 10633.82
306.8319, 10609.31
307.3141, 10585.80
307.7962, 10576.87
308.2783, 10568.26
308.7604, 10545.06
309.2425, 10501.78
309.7246, 10450.00
310.2068, 10387.35
310.6889, 10320.57
311.1710, 10266.43
311.6531, 10253.62
312.1352, 10243.86
312.6173, 10207.04
313.0995, 10131.88
313.5816, 10049.88
314.0637, 9969.129
314.5458, 9891.782
315.0279, 9821.130
315.5100, 9767.072
315.9922, 9713.543
316.4743, 9649.592
316.9564, 9569.864
317.4385, 9496.742
317.9206, 9441.586
318.4027, 9396.549
318.8849, 9350.667
319.3670, 9291.217
319.8491, 9239.025
320.3312, 9206.704
320.8133, 9199.949
321.2954, 9182.735
321.7776, 9138.611
322.2597, 9084.132
322.7418, 9036.943
323.2239, 9009.747
323.7060, 8979.918
324.1881, 8940.815
324.6703, 8891.359
325.1524, 8843.827
325.6345, 8805.993
326.1166, 8767.249
326.5987, 8718.716
327.0808, 8656.037
327.5630, 8588.814
328.0451, 8521.070
328.5272, 8452.156
329.0093, 8366.387
329.4914, 8253.388
329.9735, 8135.050
330.4557, 8026.965
330.9378, 7940.858
331.4199, 7844.050
331.9020, 7731.026
332.3841, 7604.486
332.8662, 7477.011
333.3484, 7350.169
333.8305, 7221.897
334.3126, 7088.446
334.7947, 6947.480
335.2768, 6813.030
335.7589, 6687.533
336.2411, 6568.251
336.7232, 6444.059
337.2053, 6313.726
337.6874, 6184.640
338.1695, 6056.055
338.6516, 5927.382
339.1338, 5814.883
339.6159, 5722.373
340.0980, 5642.061
340.5801, 5565.770
341.0622, 5493.342
341.5443, 5417.440
342.0265, 5327.595
342.5086, 5227.635
342.9907, 5147.954
343.4728, 5091.735
343.9549, 5045.984
344.4370, 4996.839
344.9192, 4944.967
345.4013, 4893.937
345.8834, 4843.786
346.3655, 4796.374
346.8476, 4760.151
347.3297, 4735.487
347.8119, 4714.773
348.2940, 4685.996
348.7761, 4654.967
349.2582, 4641.472
349.7403, 4662.299
350.2225, 4691.304
350.7046, 4684.260
351.1867, 4645.890
351.6688, 4613.127
352.1509, 4619.453
352.6331, 4646.559
353.1152, 4665.211
353.5973, 4662.161
354.0794, 4661.919
354.5615, 4693.793
355.0436, 4748.077
355.5258, 4795.228
356.0079, 4811.134
356.4900, 4817.176
356.9721, 4831.071
357.4542, 4855.689
357.9363, 4887.653
358.4185, 4929.838
358.9006, 4977.592
359.3827, 5022.867
359.8648, 5059.817
360.3469, 5095.626
360.8290, 5132.728
361.3112, 5170.975
361.7933, 5214.509
362.2754, 5265.850
362.7575, 5323.002
363.2396, 5384.056
363.7217, 5460.940
364.2039, 5528.514
364.6860, 5576.973
365.1681, 5606.186
365.6502, 5635.818
366.1323, 5670.018
366.6144, 5704.438
367.0966, 5736.104
367.5787, 5752.575
368.0608, 5781.224
368.5429, 5830.215
369.0250, 5895.003
369.5071, 5951.649
369.9893, 6002.255
370.4714, 6042.169
370.9535, 6067.520
371.4356, 6069.628
371.9177, 6076.950
372.3998, 6093.761
372.8820, 6114.007
373.3641, 6123.574
373.8462, 6119.743
374.3283, 6112.396
374.8104, 6107.237
375.2925, 6105.431
375.7747, 6090.293
376.2568, 6059.386
376.7389, 6019.750
377.2210, 5977.919
377.7031, 5933.210
378.1852, 5896.584
378.6674, 5872.848
379.1495, 5859.710
379.6316, 5848.957
380.1137, 5841.457
380.5958, 5829.271
381.0779, 5797.608
381.5601, 5751.931
382.0422, 5722.935
382.5243, 5722.365
383.0064, 5734.513
383.4885, 5734.689
383.9706, 5723.824
384.4528, 5708.815
384.9349, 5687.280
385.4170, 5666.366
385.8991, 5659.324
386.3812, 5671.206
386.8633, 5686.803
387.3455, 5694.018
387.8276, 5694.187
388.3097, 5690.400
388.7918, 5677.490
389.2739, 5665.556
389.7560, 5662.318
390.2382, 5668.512
390.7203, 5681.691
391.2024, 5700.242
391.6845, 5725.039
392.1666, 5757.417
392.6487, 5804.199
393.1309, 5852.591
393.6130, 5895.123
394.0951, 5932.843
394.5772, 5976.741
395.0593, 6021.555
395.5414, 6078.573
396.0236, 6154.564
396.5057, 6277.638
396.9878, 6387.875
397.4699, 6465.544
397.9520, 6524.122
398.4341, 6605.053
398.9163, 6721.388
399.3984, 6846.595
399.8805, 6973.163
400.3626, 7104.661
400.8447, 7225.638
401.3268, 7327.493
401.8090, 7425.060
402.2911, 7542.869
402.7732, 7686.801
403.2553, 7832.553
403.7374, 7973.581
404.2195, 8110.243
404.7017, 8249.483
405.1838, 8392.753
405.6659, 8536.264
406.1480, 8673.940
406.6301, 8806.136
407.1122, 8947.792
407.5944, 9103.946
408.0765, 9269.328
408.5586, 9425.828
409.0407, 9574.364
409.5228, 9730.601
410.0049, 9906.816
410.4871, 10097.08
410.9692, 10290.27
411.4513, 10488.04
411.9334, 10679.52
412.4155, 10846.69
412.8976, 10999.87
413.3798, 11161.84
413.8619, 11356.28
414.3440, 11560.24
414.8261, 11747.93
415.3082, 11919.76
415.7903, 12099.82
416.2725, 12310.07
416.7546, 12536.40
417.2367, 12767.74
417.7188, 12997.37
418.2009, 13228.67
418.6830, 13459.64
419.1652, 13692.40
419.6473, 13925.67
420.1294, 14159.67
420.6115, 14395.66
421.0937, 14639.16
421.5758, 14891.24
422.0579, 15139.63
422.5400, 15381.83
423.0221, 15620.01
423.5042, 15862.80
423.9864, 16103.74
424.4685, 16354.25
424.9506, 16627.01
425.4327, 16921.82
425.9148, 17195.06
426.3969, 17441.93
426.8791, 17672.61
427.3612, 17889.05
427.8433, 18081.90
428.3254, 18289.39
428.8075, 18521.65
429.2896, 18769.70
429.7718, 19002.40
430.2539, 19222.11
430.7360, 19417.54
431.2181, 19568.22
431.7002, 19678.11
432.1823, 19812.29
432.6645, 19982.44
433.1466, 20149.23
433.6287, 20253.15
434.1108, 20302.51
434.5929, 20337.90
435.0750, 20376.57
435.5572, 20410.85
436.0393, 20426.46
436.5214, 20423.78
437.0035, 20410.31
437.4856, 20414.93
437.9677, 20405.88
438.4499, 20332.49
438.9320, 20151.75
439.4141, 19955.13
439.8962, 19807.30
440.3783, 19694.98
440.8604, 19579.48
441.3426, 19466.70
441.8247, 19330.24
442.3068, 19149.20
442.7889, 18912.73
443.2710, 18673.31
443.7531, 18444.68
444.2353, 18220.90
444.7174, 17991.40
445.1995, 17734.52
445.6816, 17497.53
446.1637, 17300.13
446.6458, 17138.61
447.1280, 16951.69
447.6101, 16710.94
448.0922, 16475.31
448.5743, 16280.37
449.0564, 16137.00
449.5385, 16001.88
450.0207, 15877.75
450.5028, 15758.23
450.9849, 15628.24
451.4670, 15484.55
451.9491, 15353.02
452.4312, 15247.46
452.9134, 15164.58
453.3955, 15072.16
453.8776, 14968.37
454.3597, 14870.10
454.8418, 14795.27
455.3239, 14740.83
455.8061, 14696.68
456.2882, 14658.20
456.7703, 14631.70
457.2524, 14625.22
457.7345, 14638.08
458.2166, 14667.96
458.6988, 14712.13
459.1809, 14773.24
459.6630, 14848.62
460.1451, 14936.04
460.6272, 15058.35
461.1093, 15238.92
461.5915, 15459.38
462.0736, 15693.71
462.5557, 15929.61
463.0378, 16181.75
463.5199, 16458.01
464.0020, 16754.88
464.4842, 17057.10
464.9663, 17331.73
465.4484, 17630.25
465.9305, 17984.20
466.4126, 18443.83
466.8947, 18879.35
467.3769, 19278.84
467.8590, 19657.79
468.3411, 20048.53
468.8232, 20460.84
469.3053, 20862.87
469.7874, 21253.13
470.2696, 21630.63
470.7517, 21974.52
471.2338, 22279.50
471.7159, 22564.55
472.1980, 22855.18
472.6801, 23150.74
473.1623, 23381.01
473.6444, 23535.74
474.1265, 23626.03
474.6086, 23668.67
475.0907, 23663.33
475.5728, 23607.84
476.0550, 23515.94
476.5371, 23367.19
477.0192, 23119.71
477.5013, 22770.76
477.9834, 22375.20
478.4655, 21975.31
478.9477, 21552.38
479.4298, 21086.05
479.9119, 20541.41
480.3940, 19980.71
480.8761, 19437.64
481.3582, 18906.60
481.8404, 18378.06
482.3225, 17837.63
482.8046, 17308.74
483.2867, 16800.25
483.7688, 16319.52
484.2509, 15836.87
484.7331, 15325.10
485.2152, 14825.14
485.6973, 14366.34
486.1794, 13972.46
486.6615, 13577.38
487.1436, 13164.41
487.6258, 12740.88
488.1079, 12341.22
488.5900, 11971.86
489.0721, 11615.09
489.5542, 11263.66
490.0363, 10916.09
490.5185, 10570.76
491.0006, 10228.17
491.4827, 9895.714
491.9648, 9592.155
492.4470, 9313.149
492.9291, 9039.257
493.4112, 8763.289
493.8933, 8495.569
494.3754, 8263.861
494.8575, 8062.698
495.3397, 7871.642
495.8218, 7672.286
496.3039, 7474.880
496.7860, 7293.635
497.2681, 7129.846
497.7502, 6973.962
498.2324, 6816.000
498.7145, 6663.165
499.1966, 6522.190
499.6787, 6401.484
500.1608, 6288.185
500.6429, 6178.598
501.1251, 6072.783
501.6072, 5973.954
502.0893, 5887.271
502.5714, 5801.875
503.0535, 5710.642
503.5356, 5602.845
504.0178, 5517.049
504.4999, 5463.430
504.9820, 5423.315
505.4641, 5365.464
505.9462, 5285.759
506.4283, 5210.921
506.9105, 5150.187
507.3926, 5100.325
507.8747, 5047.925
508.3568, 4992.484
508.8389, 4940.447
509.3210, 4897.603
509.8032, 4861.065
510.2853, 4822.408
510.7674, 4780.418
511.2495, 4736.978
511.7316, 4688.118
512.2137, 4639.361
512.6959, 4602.604
513.1780, 4591.567
513.6601, 4586.370
514.1422, 4576.290
514.6243, 4561.267
515.1064, 4542.162
515.5886, 4512.563
516.0707, 4483.622
516.5528, 4463.828
517.0349, 4463.227
517.5170, 4452.569
517.9991, 4415.796
518.4813, 4372.746
518.9634, 4349.096
519.4455, 4354.389
519.9276, 4363.098
520.4097, 4372.320
520.8918, 4381.148
521.3740, 4384.109
521.8561, 4380.324
522.3382, 4373.588
522.8203, 4362.200
523.3024, 4347.225
523.7845, 4347.464
524.2667, 4366.175
524.7488, 4391.905
525.2309, 4412.548
525.7130, 4429.114
526.1951, 4444.275
526.6772, 4455.187
527.1594, 4469.035
527.6415, 4499.417
528.1236, 4541.902
528.6057, 4577.729
529.0878, 4586.165
529.5699, 4590.072
530.0521, 4607.041
530.5342, 4641.865
531.0163, 4678.848
531.4984, 4712.127
531.9805, 4745.725
532.4626, 4784.048
532.9448, 4829.446
533.4269, 4877.580
533.9090, 4928.222
534.3911, 4981.268
534.8732, 5033.812
535.3553, 5084.292
535.8375, 5138.438
536.3196, 5197.296
536.8017, 5261.467
537.2838, 5335.930
537.7659, 5425.009
538.2480, 5512.433
538.7302, 5569.274
539.2123, 5603.477
539.6944, 5669.366
540.1765, 5787.532
540.6586, 5926.276
541.1407, 6045.941
541.6229, 6150.801
542.1050, 6258.042
542.5871, 6382.957
543.0692, 6510.581
543.5513, 6622.575
544.0334, 6717.301
544.5156, 6819.148
544.9977, 6938.987
545.4798, 7070.953
545.9619, 7209.458
546.4440, 7355.954
546.9261, 7505.365
547.4083, 7655.743
547.8904, 7809.646
548.3725, 7969.268
548.8546, 8139.725
549.3367, 8309.110
549.8188, 8473.598
550.3010, 8633.895
550.7831, 8800.113
551.2652, 8975.214
551.7473, 9147.031
552.2294, 9304.955
552.7115, 9450.357
553.1937, 9588.231
553.6758, 9717.473
554.1579, 9845.422
554.6400, 9987.380
555.1221, 10136.62
555.6042, 10271.62
556.0864, 10388.40
556.5685, 10486.10
557.0506, 10552.38
557.5327, 10595.25
558.0148, 10643.37
558.4969, 10737.71
558.9791, 10821.46
559.4612, 10852.81
559.9433, 10816.59
560.4254, 10785.18
560.9075, 10788.91
561.3896, 10793.07
561.8718, 10766.81
562.3539, 10690.33
562.8360, 10617.26
563.3181, 10556.04
563.8002, 10499.18
564.2823, 10427.03
564.7645, 10338.60
565.2466, 10242.26
565.7287, 10145.28
566.2108, 10043.95
566.6929, 9916.438
567.1750, 9762.859
567.6572, 9603.439
568.1393, 9461.096
568.6214, 9326.466
569.1035, 9184.644
569.5856, 9030.374
570.0677, 8875.250
570.5499, 8725.243
571.0320, 8579.724
571.5141, 8436.692
571.9962, 8295.658
572.4783, 8156.715
572.9604, 8022.544
573.4426, 7892.638
573.9247, 7760.505
574.4068, 7618.542
574.8889, 7481.611
575.3710, 7358.741
575.8531, 7256.563
576.3353, 7140.183
576.8174, 7003.080
577.2995, 6863.107
577.7816, 6734.498
578.2637, 6618.101
578.7458, 6512.494
579.2280, 6420.799
579.7101, 6333.714
580.1922, 6232.085
580.6743, 6118.743
581.1564, 6009.668
581.6385, 5916.186
582.1207, 5828.851
582.6028, 5734.118
583.0849, 5634.311
583.5670, 5541.109
584.0491, 5470.053
584.5313, 5403.073
585.0134, 5323.458
585.4955, 5221.812
585.9776, 5130.962
586.4597, 5073.104
586.9418, 5024.906
587.4240, 4959.834
587.9061, 4856.659
588.3882, 4768.195
588.8703, 4704.266
589.3524, 4657.513
589.8345, 4605.986
590.3167, 4547.760
590.7988, 4491.867
591.2809, 4444.969
591.7630, 4404.479
592.2451, 4358.364
592.7272, 4306.406
593.2094, 4254.086
593.6915, 4204.393
594.1736, 4157.897
594.6557, 4116.525
595.1378, 4082.647
595.6199, 4048.501
596.1021, 4004.102
596.5842, 3957.083
597.0663, 3918.178
597.5485, 3892.881
598.0306, 3874.814
598.5127, 3867.350
598.9948, 3866.988
599.4769, 3858.447
599.9590, 3832.477
600.4412, 3808.152
600.9233, 3791.237
601.4054, 3781.767
601.8875, 3778.096
602.3696, 3781.263
602.8517, 3787.786
603.3339, 3794.368
603.8160, 3801.262
604.2981, 3810.622
604.7802, 3821.736
605.2623, 3838.469
605.7444, 3865.345
606.2266, 3901.935
606.7087, 3945.933
607.1908, 4004.178
607.6729, 4062.411
608.1550, 4105.833
608.6371, 4139.381
609.1193, 4180.612
609.6014, 4240.042
610.0835, 4305.626
610.5656, 4369.543
611.0477, 4429.990
611.5298, 4500.375
612.0120, 4586.699
612.4941, 4676.658
612.9762, 4762.435
613.4583, 4844.717
613.9404, 4919.300
614.4225, 4985.235
614.9047, 5044.012
615.3868, 5093.226
615.8689, 5134.790
616.3510, 5190.781
616.8331, 5277.614
