##NAMES=Beudantite
##RRUFFID=R060985
##IDEAL CHEMISTRY=Pb^2+^Fe^3+^_3_(As^5+^O_4_)(S^6+^O_4_)(OH)_6_
##LOCALITY=Kintore Opencut, Broken Hill, New South Wales, Australia
##OWNER=RRUFF
##SOURCE=Bob Jenkins
##DESCRIPTION=Pale green rhombohedra
##STATUS=The identification of this mineral is confirmed by single-crystal X-ray diffraction and chemical analysis.
##URL=rruff.info/R060985
##MEASURED CHEMISTRY=(Pb_0.92_Cu_0.06_Zn_0.02_)_Σ=1_(Fe^3+^_2.46_Al_0.54_)_Σ=3_(As_1.00_O_4_)(S_0.54_As_0.46_)_Σ=1_O_4_)((OH)_5.00_(H_2_O)_1.00_)_Σ=6_
132.1346, 2065.662
132.6167, 2075.410
133.0988, 2070.609
133.5810, 2068.283
134.0631, 2063.847
134.5452, 2066.225
135.0273, 2083.116
135.5094, 2113.349
135.9915, 2147.268
136.4737, 2171.128
136.9558, 2176.566
137.4379, 2198.675
137.9200, 2245.524
138.4021, 2301.684
138.8842, 2357.739
139.3664, 2412.583
139.8485, 2473.426
140.3306, 2552.730
140.8127, 2666.421
141.2948, 2765.287
141.7769, 2840.774
142.2591, 2910.344
142.7412, 2988.817
143.2233, 3078.481
143.7054, 3168.052
144.1875, 3238.893
144.6696, 3289.444
145.1517, 3319.589
145.6339, 3317.214
146.1160, 3303.513
146.5981, 3297.596
147.0802, 3304.936
147.5623, 3315.482
148.0444, 3310.499
148.5266, 3284.020
149.0087, 3247.544
149.4908, 3193.883
149.9729, 3133.701
150.4550, 3077.601
150.9371, 3028.831
151.4193, 2985.344
151.9014, 2942.149
152.3835, 2900.859
152.8656, 2857.847
153.3477, 2813.469
153.8298, 2766.987
154.3120, 2714.346
154.7941, 2653.273
155.2762, 2592.149
155.7583, 2553.373
156.2404, 2552.671
156.7225, 2547.765
157.2047, 2527.031
157.6868, 2499.307
158.1689, 2477.392
158.6510, 2466.368
159.1331, 2463.713
159.6152, 2463.571
160.0974, 2461.855
160.5795, 2468.302
161.0616, 2491.150
161.5437, 2523.270
162.0258, 2550.943
162.5079, 2567.737
162.9901, 2578.654
163.4722, 2596.836
163.9543, 2625.198
164.4364, 2653.051
164.9185, 2678.533
165.4007, 2700.864
165.8828, 2716.051
166.3649, 2719.576
166.8470, 2719.601
167.3291, 2736.068
167.8112, 2777.685
168.2933, 2814.708
168.7755, 2831.570
169.2576, 2833.629
169.7397, 2836.213
170.2218, 2845.746
170.7039, 2858.513
171.1860, 2866.645
171.6682, 2868.253
172.1503, 2870.428
172.6324, 2873.632
173.1145, 2879.484
173.5966, 2894.964
174.0787, 2925.925
174.5609, 2964.965
175.0430, 2998.080
175.5251, 3023.442
176.0072, 3048.428
176.4893, 3077.994
176.9714, 3111.004
177.4536, 3142.236
177.9357, 3167.268
178.4178, 3192.389
178.8999, 3226.211
179.3820, 3269.252
179.8641, 3318.213
180.3463, 3373.752
180.8284, 3434.593
181.3105, 3492.958
181.7926, 3541.326
182.2747, 3591.289
182.7568, 3659.662
183.2390, 3751.309
183.7211, 3842.408
184.2032, 3912.111
184.6853, 3964.522
185.1674, 4027.320
185.6495, 4110.668
186.1317, 4207.318
186.6138, 4306.929
187.0959, 4410.008
187.5780, 4513.588
188.0601, 4619.845
188.5422, 4726.707
189.0244, 4824.242
189.5065, 4907.164
189.9886, 4980.041
190.4707, 5045.873
190.9528, 5103.795
191.4349, 5165.878
191.9170, 5247.233
192.3992, 5343.711
192.8813, 5425.436
193.3634, 5479.494
193.8455, 5521.089
194.3276, 5567.756
194.8097, 5619.970
195.2919, 5667.580
195.7740, 5703.420
196.2561, 5728.400
196.7382, 5748.633
197.2203, 5766.009
197.7024, 5777.299
198.1846, 5780.215
198.6667, 5774.874
199.1488, 5765.962
199.6309, 5755.477
200.1130, 5743.556
200.5951, 5732.158
201.0773, 5724.577
201.5594, 5713.226
202.0415, 5692.973
202.5236, 5664.078
203.0057, 5629.864
203.4878, 5592.623
203.9700, 5551.779
204.4521, 5503.136
204.9342, 5441.112
205.4163, 5378.277
205.8984, 5327.833
206.3805, 5286.989
206.8627, 5241.241
207.3448, 5178.215
207.8269, 5102.843
208.3090, 5033.719
208.7911, 4975.206
209.2732, 4918.989
209.7554, 4858.445
210.2375, 4794.607
210.7196, 4731.567
211.2017, 4673.994
211.6838, 4619.115
212.1659, 4558.132
212.6480, 4488.705
213.1302, 4417.587
213.6123, 4343.568
214.0944, 4270.923
214.5765, 4212.187
215.0586, 4182.688
215.5407, 4169.943
216.0229, 4142.929
216.5050, 4096.848
216.9871, 4048.125
217.4692, 4008.454
217.9513, 3973.560
218.4334, 3935.194
218.9156, 3886.533
219.3977, 3834.301
219.8798, 3789.010
220.3619, 3749.549
220.8440, 3721.010
221.3261, 3719.462
221.8083, 3728.229
222.2904, 3722.568
222.7725, 3689.108
223.2546, 3642.817
223.7367, 3602.260
224.2188, 3566.586
224.7010, 3539.723
225.1831, 3532.373
225.6652, 3532.618
226.1473, 3524.695
226.6294, 3500.966
227.1115, 3474.379
227.5937, 3460.267
228.0758, 3459.324
228.5579, 3459.596
229.0400, 3458.611
229.5221, 3454.605
230.0042, 3444.641
230.4864, 3426.245
230.9685, 3406.910
231.4506, 3391.324
231.9327, 3379.641
232.4148, 3374.863
232.8969, 3381.798
233.3791, 3393.753
233.8612, 3401.004
234.3433, 3401.818
234.8254, 3403.932
235.3075, 3413.860
235.7896, 3430.232
236.2717, 3445.826
236.7539, 3459.904
237.2360, 3470.789
237.7181, 3474.443
238.2002, 3469.567
238.6823, 3470.657
239.1644, 3491.291
239.6466, 3523.993
240.1287, 3546.364
240.6108, 3550.719
241.0929, 3549.980
241.5750, 3562.971
242.0571, 3588.659
242.5393, 3603.007
243.0214, 3586.129
243.5035, 3554.922
243.9856, 3541.357
244.4677, 3553.306
244.9498, 3569.624
245.4320, 3570.795
245.9141, 3558.670
246.3962, 3539.360
246.8783, 3504.464
247.3604, 3467.765
247.8425, 3447.009
248.3247, 3443.982
248.8068, 3446.244
249.2889, 3445.525
249.7710, 3441.802
250.2531, 3436.352
250.7352, 3433.296
251.2174, 3425.441
251.6995, 3402.731
252.1816, 3366.821
252.6637, 3333.575
253.1458, 3312.586
253.6279, 3303.340
254.1101, 3298.536
254.5922, 3305.635
255.0743, 3309.715
255.5564, 3302.584
256.0385, 3286.195
256.5206, 3265.139
257.0027, 3239.676
257.4849, 3213.424
257.9670, 3199.121
258.4491, 3205.578
258.9312, 3208.785
259.4133, 3201.546
259.8954, 3186.524
260.3776, 3166.896
260.8597, 3143.076
261.3418, 3118.636
261.8239, 3100.511
262.3060, 3090.690
262.7881, 3083.221
263.2703, 3083.086
263.7524, 3082.494
264.2345, 3069.964
264.7166, 3043.073
265.1987, 3014.105
265.6808, 3000.254
266.1630, 3010.580
266.6451, 3011.788
267.1272, 2997.031
267.6093, 2978.564
268.0914, 2963.814
268.5735, 2954.021
269.0557, 2948.306
269.5378, 2946.675
270.0199, 2950.642
270.5020, 2947.409
270.9841, 2928.369
271.4662, 2911.903
271.9484, 2909.609
272.4305, 2917.097
272.9126, 2921.131
273.3947, 2911.345
273.8768, 2889.425
274.3589, 2877.007
274.8411, 2883.412
275.3232, 2889.467
275.8053, 2889.969
276.2874, 2888.219
276.7695, 2888.447
277.2516, 2892.582
277.7338, 2901.541
278.2159, 2918.964
278.6980, 2955.367
279.1801, 2984.059
279.6622, 3001.445
280.1443, 3011.184
280.6265, 3012.965
281.1086, 3007.553
281.5907, 3003.180
282.0728, 3013.724
282.5549, 3044.104
283.0370, 3075.493
283.5192, 3106.402
284.0013, 3137.938
284.4834, 3174.240
284.9655, 3213.716
285.4476, 3247.925
285.9297, 3263.724
286.4119, 3258.978
286.8940, 3267.754
287.3761, 3295.736
287.8582, 3333.167
288.3403, 3380.928
288.8224, 3434.752
289.3046, 3484.801
289.7867, 3520.080
290.2688, 3546.894
290.7509, 3590.250
291.2330, 3657.127
291.7151, 3727.586
292.1972, 3791.882
292.6794, 3853.893
293.1615, 3920.917
293.6436, 4002.247
294.1257, 4080.900
294.6078, 4127.340
295.0899, 4136.796
295.5721, 4152.786
296.0542, 4197.333
296.5363, 4255.103
297.0184, 4308.646
297.5005, 4357.321
297.9826, 4398.404
298.4648, 4426.529
298.9469, 4444.042
299.4290, 4464.002
299.9111, 4491.609
300.3932, 4520.233
300.8753, 4543.957
301.3575, 4563.637
301.8396, 4572.343
302.3217, 4562.063
302.8038, 4540.755
303.2859, 4520.135
303.7680, 4501.934
304.2502, 4484.957
304.7323, 4468.828
305.2144, 4453.447
305.6965, 4435.286
306.1786, 4416.731
306.6607, 4393.357
307.1429, 4360.287
307.6250, 4318.601
308.1071, 4272.374
308.5892, 4221.792
309.0713, 4169.526
309.5534, 4135.548
310.0356, 4133.296
310.5177, 4130.255
310.9998, 4116.803
311.4819, 4096.038
311.9640, 4073.584
312.4461, 4051.628
312.9283, 4028.832
313.4104, 4002.050
313.8925, 3969.264
314.3746, 3935.044
314.8567, 3900.383
315.3388, 3863.665
315.8210, 3821.033
316.3031, 3773.058
316.7852, 3726.831
317.2673, 3691.976
317.7494, 3672.682
318.2315, 3645.488
318.7137, 3607.236
319.1958, 3564.792
319.6779, 3518.403
320.1600, 3469.897
320.6421, 3422.375
321.1242, 3378.183
321.6064, 3336.895
322.0885, 3297.236
322.5706, 3259.069
323.0527, 3222.578
323.5348, 3187.383
324.0169, 3153.827
324.4991, 3123.012
324.9812, 3095.593
325.4633, 3069.549
325.9454, 3041.240
326.4275, 3010.077
326.9096, 2979.962
327.3918, 2954.104
327.8739, 2928.020
328.3560, 2896.528
328.8381, 2859.479
329.3202, 2825.262
329.8023, 2802.675
330.2845, 2788.984
330.7666, 2770.950
331.2487, 2745.200
331.7308, 2718.297
332.2129, 2695.906
332.6950, 2676.769
333.1772, 2656.980
333.6593, 2630.515
334.1414, 2605.333
334.6235, 2594.542
335.1056, 2598.167
335.5877, 2597.613
336.0698, 2580.837
336.5519, 2551.729
337.0341, 2525.641
337.5162, 2499.906
337.9983, 2480.556
338.4804, 2471.094
338.9625, 2469.794
339.4446, 2475.223
339.9268, 2487.804
340.4089, 2501.731
340.8910, 2506.944
341.3731, 2500.583
341.8552, 2490.838
342.3373, 2470.552
342.8195, 2451.848
343.3016, 2446.813
343.7837, 2455.172
344.2658, 2466.142
344.7479, 2468.956
345.2300, 2462.511
345.7122, 2464.781
346.1943, 2482.680
346.6764, 2501.374
347.1585, 2517.763
347.6406, 2531.646
348.1227, 2543.464
348.6049, 2553.535
349.0870, 2561.528
349.5691, 2565.122
350.0512, 2556.322
350.5333, 2559.762
351.0154, 2592.824
351.4976, 2628.879
351.9797, 2644.951
352.4618, 2637.735
352.9439, 2626.457
353.4260, 2633.074
353.9081, 2657.418
354.3903, 2674.732
354.8724, 2678.779
355.3545, 2681.136
355.8366, 2685.977
356.3187, 2694.502
356.8008, 2710.298
357.2830, 2739.493
357.7651, 2774.697
358.2472, 2805.114
358.7293, 2830.660
359.2114, 2851.098
359.6935, 2862.295
360.1757, 2870.068
360.6578, 2886.603
361.1399, 2916.696
361.6220, 2946.958
362.1041, 2969.392
362.5862, 2986.833
363.0684, 3005.851
363.5505, 3028.435
364.0326, 3052.092
364.5147, 3072.235
364.9968, 3086.024
365.4789, 3109.220
365.9611, 3149.066
366.4432, 3193.541
366.9253, 3236.972
367.4074, 3277.302
367.8895, 3310.581
368.3716, 3332.321
368.8538, 3344.388
369.3359, 3367.437
369.8180, 3410.991
370.3001, 3454.568
370.7822, 3500.433
371.2643, 3542.332
371.7465, 3569.933
372.2286, 3580.005
372.7107, 3585.790
373.1928, 3610.883
373.6749, 3663.982
374.1570, 3708.752
374.6392, 3741.399
375.1213, 3766.337
375.6034, 3779.563
376.0855, 3785.207
376.5676, 3796.816
377.0497, 3825.630
377.5319, 3867.791
378.0140, 3910.260
378.4961, 3954.556
378.9782, 3995.158
379.4603, 4031.138
379.9424, 4061.060
380.4246, 4080.781
380.9066, 4085.007
381.3888, 4088.656
381.8709, 4100.804
382.3530, 4122.061
382.8351, 4158.587
383.3172, 4218.371
383.7993, 4281.509
384.2815, 4313.904
384.7636, 4312.545
385.2457, 4326.141
385.7278, 4383.521
386.2099, 4445.875
386.6920, 4469.086
387.1742, 4456.747
387.6563, 4454.046
388.1384, 4497.568
388.6205, 4579.508
389.1026, 4629.757
389.5847, 4623.519
390.0669, 4617.566
390.5490, 4617.410
391.0311, 4625.331
391.5132, 4646.749
391.9953, 4682.613
392.4774, 4722.342
392.9596, 4749.594
393.4417, 4760.840
393.9238, 4770.977
394.4059, 4776.907
394.8880, 4784.605
395.3701, 4801.565
395.8523, 4822.986
396.3344, 4835.205
396.8165, 4825.054
397.2986, 4802.862
397.7807, 4800.061
398.2628, 4824.106
398.7450, 4841.250
399.2271, 4831.770
399.7092, 4810.987
400.1913, 4795.935
400.6734, 4790.422
401.1555, 4783.037
401.6377, 4760.344
402.1198, 4730.232
402.6019, 4716.037
403.0840, 4725.437
403.5661, 4737.414
404.0482, 4729.677
404.5304, 4701.580
405.0125, 4678.071
405.4946, 4663.610
405.9767, 4651.296
406.4588, 4633.621
406.9409, 4614.507
407.4231, 4606.496
407.9052, 4617.098
408.3873, 4638.078
408.8694, 4646.484
409.3515, 4624.260
409.8336, 4615.922
410.3158, 4631.080
410.7979, 4653.209
411.2800, 4671.000
411.7621, 4682.849
412.2442, 4692.724
412.7263, 4704.754
413.2085, 4718.594
413.6906, 4727.087
414.1727, 4720.564
414.6548, 4723.890
415.1369, 4753.466
415.6190, 4794.110
416.1012, 4825.627
416.5833, 4840.980
417.0654, 4848.295
417.5475, 4856.025
418.0296, 4863.769
418.5117, 4866.014
418.9939, 4858.113
419.4760, 4849.930
419.9581, 4854.880
420.4402, 4871.601
420.9223, 4884.771
421.4044, 4888.425
421.8866, 4888.734
422.3687, 4891.836
422.8508, 4897.179
423.3329, 4900.153
423.8150, 4897.779
424.2971, 4891.490
424.7793, 4886.307
425.2614, 4879.743
425.7435, 4877.593
426.2256, 4889.418
426.7077, 4900.197
427.1898, 4891.358
427.6719, 4863.189
428.1541, 4835.800
428.6362, 4830.153
429.1183, 4846.695
429.6004, 4865.455
430.0825, 4896.775
430.5646, 4916.238
431.0468, 4909.234
431.5289, 4889.157
432.0110, 4874.578
432.4931, 4872.566
432.9752, 4874.997
433.4573, 4871.489
433.9395, 4862.484
434.4216, 4858.386
434.9037, 4866.715
435.3858, 4872.285
435.8679, 4855.688
436.3500, 4820.091
436.8322, 4788.696
437.3143, 4766.064
437.7964, 4751.042
438.2785, 4748.489
438.7606, 4754.554
439.2427, 4751.919
439.7249, 4730.627
440.2070, 4696.233
440.6891, 4664.146
441.1712, 4631.643
441.6533, 4605.122
442.1354, 4592.097
442.6176, 4579.961
443.0997, 4558.641
443.5818, 4527.410
444.0639, 4491.067
444.5460, 4451.915
445.0281, 4411.047
445.5103, 4382.311
445.9924, 4379.127
446.4745, 4365.954
446.9566, 4322.052
447.4387, 4269.104
447.9208, 4230.759
448.4030, 4213.103
448.8851, 4205.442
449.3672, 4202.292
449.8493, 4201.978
450.3314, 4194.985
450.8135, 4177.388
451.2957, 4160.731
451.7778, 4156.732
452.2599, 4163.131
452.7420, 4166.693
453.2241, 4166.640
453.7062, 4163.001
454.1884, 4147.891
454.6705, 4129.786
455.1526, 4129.850
455.6347, 4156.680
456.1168, 4195.102
456.5989, 4219.758
457.0811, 4223.420
457.5632, 4231.855
458.0453, 4238.859
458.5274, 4255.463
459.0095, 4294.024
459.4916, 4346.482
459.9738, 4393.555
460.4559, 4422.238
460.9380, 4442.202
461.4201, 4476.824
461.9022, 4529.355
462.3843, 4583.174
462.8665, 4635.546
463.3486, 4686.839
463.8307, 4732.000
464.3128, 4771.975
464.7949, 4827.684
465.2770, 4926.116
465.7592, 5038.100
466.2413, 5112.700
466.7234, 5149.819
467.2055, 5202.186
467.6876, 5307.316
468.1697, 5445.300
468.6519, 5544.434
469.1340, 5570.549
469.6161, 5617.047
470.0982, 5721.300
470.5803, 5836.533
471.0624, 5915.921
471.5445, 5956.831
472.0266, 5990.694
472.5088, 6047.259
472.9909, 6123.930
473.4730, 6182.582
473.9551, 6216.764
474.4372, 6242.061
474.9193, 6260.919
475.4015, 6275.179
475.8836, 6288.064
476.3657, 6300.419
476.8478, 6305.454
477.3299, 6300.265
477.8120, 6283.350
478.2942, 6246.032
478.7763, 6183.879
479.2584, 6116.829
479.7405, 6063.341
480.2226, 6017.007
480.7047, 5950.527
481.1869, 5845.813
481.6690, 5741.236
482.1511, 5652.473
482.6332, 5573.116
483.1153, 5497.371
483.5974, 5422.973
484.0796, 5340.122
484.5617, 5234.331
485.0438, 5099.600
485.5259, 4988.931
486.0080, 4930.120
486.4901, 4866.698
486.9723, 4783.750
487.4544, 4688.043
487.9365, 4589.137
488.4186, 4490.708
488.9007, 4389.664
489.3828, 4276.952
489.8650, 4154.476
490.3471, 4049.950
490.8292, 3973.455
491.3113, 3902.126
491.7934, 3813.756
492.2755, 3714.025
492.7577, 3624.343
493.2398, 3556.272
493.7219, 3489.734
494.2040, 3409.104
494.6861, 3321.842
495.1682, 3246.018
495.6504, 3187.246
496.1325, 3133.915
496.6146, 3068.831
497.0967, 2986.441
497.5788, 2918.079
498.0609, 2871.327
498.5431, 2829.532
499.0252, 2789.541
499.5073, 2750.397
499.9894, 2711.095
500.4715, 2671.081
500.9536, 2632.089
501.4358, 2596.330
501.9179, 2563.863
502.4000, 2532.966
502.8821, 2502.853
503.3642, 2475.212
503.8463, 2456.542
504.3285, 2442.504
504.8106, 2416.294
505.2927, 2357.953
505.7748, 2302.726
506.2569, 2280.013
506.7390, 2277.150
507.2212, 2265.732
507.7033, 2236.298
508.1854, 2199.946
508.6675, 2170.953
509.1496, 2149.929
509.6317, 2134.211
510.1139, 2133.380
510.5960, 2127.291
511.0781, 2102.978
511.5602, 2070.652
512.0423, 2047.174
512.5244, 2039.597
513.0065, 2037.252
513.4886, 2024.385
513.9708, 2001.797
514.4529, 1988.672
514.9350, 1992.882
515.4171, 1996.341
515.8992, 1978.143
516.3813, 1946.324
516.8635, 1928.431
517.3456, 1941.054
517.8277, 1954.859
518.3098, 1952.026
518.7919, 1940.442
519.2740, 1933.637
519.7562, 1935.393
520.2383, 1942.469
520.7204, 1952.060
521.2025, 1965.014
521.6846, 1971.777
522.1667, 1971.963
522.6489, 1965.618
523.1310, 1945.589
523.6131, 1922.027
524.0952, 1907.401
524.5773, 1905.543
525.0594, 1909.761
525.5416, 1918.284
526.0237, 1928.239
526.5058, 1922.194
526.9879, 1892.991
527.4700, 1870.097
527.9521, 1877.487
528.4343, 1907.940
528.9164, 1928.386
529.3985, 1931.876
529.8806, 1935.170
530.3627, 1946.515
530.8448, 1958.867
531.3270, 1961.613
531.8091, 1954.589
532.2912, 1948.825
532.7733, 1955.533
533.2554, 1972.784
533.7375, 1979.174
534.2197, 1964.799
534.7018, 1957.005
535.1839, 1960.962
535.6660, 1974.644
536.1481, 1998.790
536.6302, 2032.837
537.1124, 2068.956
537.5945, 2107.770
538.0766, 2143.156
538.5587, 2160.129
539.0408, 2158.898
539.5229, 2159.572
540.0051, 2173.133
540.4872, 2194.871
540.9693, 2212.863
541.4514, 2223.888
541.9335, 2237.332
542.4156, 2253.907
542.8978, 2272.695
543.3799, 2292.322
543.8620, 2313.593
544.3441, 2340.328
544.8262, 2376.086
545.3083, 2414.252
545.7905, 2438.559
546.2726, 2446.646
546.7547, 2456.006
547.2368, 2470.241
547.7189, 2486.480
548.2010, 2503.798
548.6832, 2521.441
549.1653, 2535.614
549.6474, 2540.900
550.1295, 2546.478
550.6116, 2560.925
551.0938, 2580.720
551.5759, 2598.245
552.0580, 2610.903
552.5401, 2619.628
553.0222, 2625.366
553.5043, 2628.050
553.9865, 2628.317
554.4686, 2625.455
554.9507, 2620.780
555.4328, 2613.377
555.9149, 2604.843
556.3970, 2596.716
556.8792, 2589.400
557.3613, 2584.010
557.8434, 2583.165
558.3255, 2585.135
558.8076, 2586.845
559.2897, 2589.191
559.7719, 2579.576
560.2540, 2543.533
560.7361, 2491.363
561.2182, 2461.765
561.7003, 2470.871
562.1824, 2472.650
562.6646, 2457.779
563.1467, 2434.554
563.6288, 2404.958
564.1109, 2372.918
564.5930, 2348.945
565.0751, 2342.410
565.5573, 2344.243
566.0394, 2325.331
566.5215, 2279.107
567.0036, 2243.199
567.4857, 2232.043
567.9678, 2227.469
568.4500, 2214.004
568.9321, 2192.695
569.4142, 2170.556
569.8963, 2147.269
570.3784, 2125.945
570.8605, 2110.817
571.3427, 2099.376
571.8248, 2085.981
572.3069, 2068.804
572.7890, 2048.823
573.2711, 2026.400
573.7532, 2000.730
574.2354, 1980.922
574.7175, 1971.207
575.1996, 1962.429
575.6817, 1956.952
576.1638, 1948.836
576.6459, 1927.568
577.1281, 1890.562
577.6102, 1857.911
578.0923, 1850.667
578.5744, 1857.022
579.0565, 1851.578
579.5386, 1832.805
580.0208, 1813.083
580.5029, 1798.687
580.9850, 1788.648
581.4671, 1780.571
581.9492, 1779.501
582.4313, 1771.581
582.9134, 1749.628
583.3955, 1727.171
583.8776, 1714.362
584.3597, 1707.974
584.8419, 1697.805
585.3240, 1677.352
585.8061, 1655.769
586.2882, 1650.992
586.7703, 1662.025
587.2524, 1662.336
587.7346, 1644.981
588.2167, 1622.811
588.6988, 1604.948
589.1809, 1591.353
589.6630, 1580.549
590.1451, 1579.922
590.6273, 1573.085
591.1094, 1546.743
591.5915, 1515.903
592.0736, 1498.861
592.5557, 1497.083
593.0378, 1498.709
593.5200, 1493.923
594.0021, 1484.414
594.4842, 1478.056
594.9663, 1476.300
595.4484, 1472.772
595.9305, 1465.640
596.4127, 1456.094
596.8948, 1443.724
597.3769, 1429.034
597.8590, 1418.662
598.3411, 1418.184
598.8232, 1419.303
599.3054, 1415.811
599.7875, 1409.223
600.2696, 1402.558
600.7517, 1396.916
601.2338, 1393.392
601.7159, 1394.303
602.1981, 1400.202
602.6802, 1400.804
603.1623, 1393.886
603.6444, 1384.886
604.1265, 1374.155
604.6086, 1363.179
605.0908, 1352.769
605.5729, 1342.963
606.0550, 1336.672
606.5371, 1337.056
607.0192, 1340.911
607.5013, 1344.136
607.9835, 1346.835
608.4656, 1351.583
608.9477, 1360.017
609.4298, 1368.811
609.9119, 1371.250
610.3940, 1364.160
610.8762, 1360.709
611.3583, 1364.718
611.8404, 1368.378
612.3225, 1367.784
612.8046, 1365.498
613.2867, 1365.477
613.7689, 1368.930
614.2510, 1374.336
614.7331, 1381.673
615.2152, 1389.745
615.6973, 1396.585
616.1794, 1401.954
616.6616, 1403.794
617.1437, 1400.021
617.6258, 1393.253
618.1079, 1390.999
618.5900, 1398.017
619.0721, 1401.235
619.5543, 1396.469
620.0364, 1392.207
620.5185, 1394.842
621.0006, 1401.207
621.4827, 1404.300
621.9648, 1401.250
622.4470, 1393.978
622.9291, 1383.464
623.4112, 1370.382
623.8933, 1356.890
624.3754, 1343.392
624.8575, 1328.673
625.3397, 1310.083
