##NAMES=Beudantite
##RRUFFID=R070190
##IDEAL CHEMISTRY=Pb^2+^Fe^3+^_3_(As^5+^O_4_)(S^6+^O_4_)(OH)_6_
##LOCALITY=Tsumeb mine, Tsumeb, Otavi District, Oshikoto, Namibia
##OWNER=RRUFF
##SOURCE=William W. Pinch
##DESCRIPTION=Rootbeer brown thin tabular plates
##STATUS=The identification of this mineral is confirmed by single-crystal X-ray diffraction and chemical analysis.
##URL=rruff.info/R070190
##MEASURED CHEMISTRY=Pb_1.00_(Fe^3+^_2.71_Al_0.30_)_Σ=3_[(As_0.58_S_0.42_)_Σ=1_O_4_]_2_((OH)_5.87_(H_2_O)_0.13_)_Σ=6_
170.3929, 1917.173
170.8750, 1935.545
171.3571, 1947.835
171.8392, 1961.406
172.3213, 1986.141
172.8034, 2025.796
173.2856, 2067.443
173.7677, 2098.307
174.2498, 2120.875
174.7319, 2143.132
175.2140, 2165.987
175.6961, 2192.469
176.1783, 2228.133
176.6604, 2275.799
177.1425, 2328.892
177.6246, 2380.323
178.1067, 2429.885
178.5888, 2479.749
179.0710, 2524.047
179.5531, 2568.993
180.0352, 2629.546
180.5173, 2714.966
180.9994, 2811.199
181.4815, 2891.418
181.9637, 2956.824
182.4458, 3022.780
182.9279, 3100.393
183.4100, 3189.433
183.8921, 3290.550
184.3742, 3407.002
184.8564, 3534.543
185.3385, 3661.809
185.8206, 3790.116
186.3027, 3915.445
186.7848, 4028.675
187.2669, 4132.592
187.7491, 4251.794
188.2312, 4397.529
188.7133, 4564.622
189.1954, 4739.536
189.6775, 4922.119
190.1596, 5108.450
190.6418, 5300.674
191.1239, 5497.602
191.6060, 5685.545
192.0881, 5847.905
192.5702, 5990.231
193.0524, 6165.380
193.5345, 6378.599
194.0166, 6609.627
194.4987, 6828.123
194.9808, 7034.081
195.4629, 7228.292
195.9451, 7406.896
196.4272, 7572.363
196.9093, 7732.639
197.3914, 7891.194
197.8735, 8039.522
198.3556, 8158.862
198.8378, 8246.104
199.3199, 8321.978
199.8020, 8399.377
200.2841, 8479.004
200.7662, 8539.951
201.2483, 8580.790
201.7305, 8602.487
202.2126, 8606.435
202.6947, 8591.689
203.1768, 8562.697
203.6589, 8518.515
204.1410, 8457.183
204.6232, 8397.888
205.1053, 8343.805
205.5874, 8292.204
206.0695, 8234.657
206.5516, 8171.520
207.0337, 8101.500
207.5159, 8020.896
207.9980, 7928.402
208.4801, 7838.474
208.9622, 7752.083
209.4443, 7669.680
209.9264, 7594.141
210.4086, 7527.129
210.8907, 7463.376
211.3728, 7401.252
211.8549, 7342.693
212.3370, 7276.945
212.8191, 7199.883
213.3013, 7113.573
213.7834, 7028.734
214.2655, 6943.853
214.7476, 6862.555
215.2297, 6789.741
215.7118, 6727.498
216.1940, 6666.695
216.6761, 6609.886
217.1582, 6555.929
217.6403, 6479.880
218.1224, 6369.693
218.6045, 6254.707
219.0867, 6164.834
219.5688, 6111.705
220.0509, 6057.611
220.5330, 5994.570
221.0151, 5921.413
221.4972, 5857.063
221.9794, 5805.570
222.4615, 5757.741
222.9436, 5702.642
223.4257, 5636.415
223.9078, 5569.970
224.3899, 5506.309
224.8721, 5444.660
225.3542, 5384.645
225.8363, 5324.805
226.3184, 5267.481
226.8005, 5214.782
227.2827, 5169.043
227.7648, 5124.201
228.2469, 5079.063
228.7290, 5033.912
229.2111, 4986.918
229.6932, 4934.570
230.1754, 4883.777
230.6575, 4843.611
231.1396, 4819.093
231.6217, 4796.909
232.1038, 4773.801
232.5859, 4749.622
233.0681, 4725.233
233.5502, 4700.231
234.0323, 4675.412
234.5144, 4650.692
234.9965, 4621.990
235.4786, 4600.755
235.9608, 4591.982
236.4429, 4598.941
236.9250, 4603.782
237.4071, 4607.109
237.8892, 4607.883
238.3713, 4604.331
238.8535, 4595.481
239.3356, 4583.752
239.8177, 4567.667
240.2998, 4542.741
240.7819, 4531.530
241.2640, 4540.119
241.7462, 4558.694
242.2283, 4570.895
242.7104, 4576.178
243.1925, 4575.864
243.6746, 4568.657
244.1567, 4550.422
244.6389, 4539.892
245.1210, 4540.887
245.6031, 4547.298
246.0852, 4549.473
246.5673, 4550.568
247.0494, 4541.879
247.5316, 4517.427
248.0137, 4469.259
248.4958, 4432.942
248.9779, 4414.789
249.4600, 4405.134
249.9421, 4387.018
250.4243, 4359.522
250.9064, 4324.989
251.3885, 4282.389
251.8706, 4227.055
252.3527, 4178.652
252.8348, 4138.260
253.3170, 4104.185
253.7991, 4075.768
254.2812, 4060.986
254.7633, 4037.062
255.2454, 3991.462
255.7275, 3914.586
256.2097, 3854.315
256.6918, 3818.190
257.1739, 3794.166
257.6560, 3759.233
258.1381, 3709.218
258.6202, 3656.577
259.1024, 3603.012
259.5845, 3545.480
260.0666, 3503.015
260.5487, 3481.408
261.0308, 3470.574
261.5129, 3451.788
261.9951, 3424.681
262.4772, 3390.752
262.9593, 3348.064
263.4414, 3292.030
263.9235, 3248.738
264.4056, 3222.918
264.8878, 3204.943
265.3699, 3177.248
265.8520, 3137.494
266.3341, 3093.977
266.8162, 3048.270
267.2983, 3000.002
267.7805, 2953.600
268.2626, 2907.342
268.7447, 2865.344
269.2268, 2837.018
269.7089, 2826.381
270.1910, 2815.142
270.6732, 2797.165
271.1553, 2772.534
271.6374, 2738.671
272.1195, 2691.462
272.6016, 2640.972
273.0837, 2606.681
273.5659, 2591.454
274.0480, 2576.794
274.5301, 2553.662
275.0122, 2521.614
275.4943, 2498.316
275.9764, 2486.198
276.4586, 2478.261
276.9407, 2464.099
277.4228, 2443.414
277.9049, 2420.741
278.3870, 2395.839
278.8691, 2369.109
279.3513, 2350.995
279.8334, 2343.291
280.3155, 2339.592
280.7976, 2331.021
281.2798, 2317.422
281.7619, 2304.324
282.2440, 2293.317
282.7261, 2284.442
283.2082, 2278.439
283.6903, 2275.691
284.1725, 2274.408
284.6546, 2271.453
285.1367, 2267.028
285.6188, 2266.027
286.1009, 2272.929
286.5830, 2284.926
287.0652, 2288.560
287.5473, 2282.702
288.0294, 2275.037
288.5115, 2272.491
288.9936, 2275.104
289.4757, 2283.461
289.9579, 2302.754
290.4400, 2326.731
290.9221, 2336.092
291.4042, 2329.840
291.8863, 2321.383
292.3684, 2329.079
292.8506, 2347.792
293.3327, 2354.755
293.8148, 2335.677
294.2969, 2304.594
294.7790, 2289.234
295.2611, 2289.597
295.7433, 2294.557
296.2254, 2295.403
296.7075, 2293.240
297.1896, 2291.545
297.6717, 2293.706
298.1538, 2294.760
298.6360, 2283.570
299.1181, 2261.262
299.6002, 2242.377
300.0823, 2247.584
300.5644, 2262.914
301.0465, 2260.166
301.5287, 2221.893
302.0108, 2175.252
302.4929, 2154.250
302.9750, 2154.635
303.4571, 2153.233
303.9392, 2127.011
304.4214, 2091.715
304.9035, 2069.572
305.3856, 2073.443
305.8677, 2080.370
306.3498, 2070.169
306.8319, 2046.142
307.3141, 2019.566
307.7962, 1996.257
308.2783, 1974.341
308.7604, 1950.654
309.2425, 1922.303
309.7246, 1898.225
310.2068, 1886.176
310.6889, 1883.084
311.1710, 1880.775
311.6531, 1881.074
312.1352, 1877.128
312.6173, 1861.410
313.0995, 1827.679
313.5816, 1797.559
314.0637, 1783.871
314.5458, 1780.570
315.0279, 1776.113
315.5100, 1764.799
315.9922, 1752.129
316.4743, 1740.982
316.9564, 1731.967
317.4385, 1723.338
317.9206, 1713.140
318.4027, 1703.296
318.8849, 1696.493
319.3670, 1694.406
319.8491, 1694.646
320.3312, 1697.611
320.8133, 1704.299
321.2954, 1707.671
321.7776, 1706.422
322.2597, 1701.221
322.7418, 1692.781
323.2239, 1679.851
323.7060, 1665.041
324.1881, 1647.330
324.6703, 1626.152
325.1524, 1609.282
325.6345, 1601.648
326.1166, 1596.392
326.5987, 1587.909
327.0808, 1572.163
327.5630, 1557.930
328.0451, 1547.294
328.5272, 1539.984
329.0093, 1529.873
329.4914, 1514.453
329.9735, 1498.752
330.4557, 1486.561
330.9378, 1482.738
331.4199, 1473.584
331.9020, 1454.967
332.3841, 1429.653
332.8662, 1411.658
333.3484, 1405.039
333.8305, 1399.854
334.3126, 1390.057
334.7947, 1373.248
335.2768, 1359.898
335.7589, 1352.181
336.2411, 1347.314
336.7232, 1336.507
337.2053, 1316.488
337.6874, 1300.339
338.1695, 1296.212
338.6516, 1306.065
339.1338, 1311.232
339.6159, 1311.109
340.0980, 1306.629
340.5801, 1297.276
341.0622, 1282.014
341.5443, 1270.622
342.0265, 1269.299
342.5086, 1276.594
342.9907, 1278.124
343.4728, 1272.989
343.9549, 1265.557
344.4370, 1261.158
344.9192, 1259.521
345.4013, 1257.924
345.8834, 1255.883
346.3655, 1253.103
346.8476, 1248.212
347.3297, 1241.148
347.8119, 1234.352
348.2940, 1229.990
348.7761, 1227.763
349.2582, 1226.715
349.7403, 1225.927
350.2225, 1226.807
350.7046, 1233.880
351.1867, 1246.117
351.6688, 1255.093
352.1509, 1253.787
352.6331, 1245.618
353.1152, 1234.422
353.5973, 1217.541
354.0794, 1204.470
354.5615, 1207.537
355.0436, 1222.216
355.5258, 1234.730
356.0079, 1236.670
356.4900, 1233.596
356.9721, 1229.948
357.4542, 1226.187
357.9363, 1222.596
358.4185, 1218.144
358.9006, 1214.094
359.3827, 1212.630
359.8648, 1215.854
360.3469, 1220.894
360.8290, 1226.282
361.3112, 1231.817
361.7933, 1238.404
362.2754, 1250.258
362.7575, 1261.902
363.2396, 1267.410
363.7217, 1256.547
364.2039, 1248.231
364.6860, 1246.850
365.1681, 1252.592
365.6502, 1263.254
366.1323, 1286.419
366.6144, 1309.747
367.0966, 1324.733
367.5787, 1322.705
368.0608, 1322.393
368.5429, 1323.806
369.0250, 1327.510
369.5071, 1336.431
369.9893, 1353.129
370.4714, 1371.977
370.9535, 1391.145
371.4356, 1413.685
371.9177, 1428.570
372.3998, 1432.110
372.8820, 1429.748
373.3641, 1434.672
373.8462, 1450.928
374.3283, 1463.846
374.8104, 1465.223
375.2925, 1453.404
375.7747, 1450.601
376.2568, 1458.941
376.7389, 1472.026
377.2210, 1482.345
377.7031, 1489.968
378.1852, 1493.614
378.6674, 1491.317
379.1495, 1484.831
379.6316, 1481.288
380.1137, 1480.767
380.5958, 1482.752
381.0779, 1487.063
381.5601, 1493.626
382.0422, 1502.809
382.5243, 1518.328
383.0064, 1532.048
383.4885, 1525.606
383.9706, 1501.749
384.4528, 1481.192
384.9349, 1482.645
385.4170, 1495.325
385.8991, 1500.627
386.3812, 1494.134
386.8633, 1485.614
387.3455, 1481.831
387.8276, 1482.867
388.3097, 1488.942
388.7918, 1510.391
389.2739, 1530.336
389.7560, 1532.512
390.2382, 1514.267
390.7203, 1495.363
391.2024, 1483.331
391.6845, 1477.578
392.1666, 1477.328
392.6487, 1489.442
393.1309, 1500.458
393.6130, 1504.872
394.0951, 1503.009
394.5772, 1499.346
395.0593, 1489.500
395.5414, 1481.698
396.0236, 1481.206
396.5057, 1494.275
396.9878, 1508.151
397.4699, 1521.747
397.9520, 1535.309
398.4341, 1549.576
398.9163, 1567.985
399.3984, 1583.486
399.8805, 1592.573
400.3626, 1591.453
400.8447, 1595.257
401.3268, 1605.412
401.8090, 1619.438
402.2911, 1634.048
402.7732, 1648.591
403.2553, 1665.117
403.7374, 1684.758
404.2195, 1707.288
404.7017, 1727.962
405.1838, 1745.775
405.6659, 1764.708
406.1480, 1790.380
406.6301, 1823.076
407.1122, 1849.770
407.5944, 1865.381
408.0765, 1876.581
408.5586, 1899.508
409.0407, 1934.072
409.5228, 1972.130
410.0049, 2007.275
410.4871, 2041.354
410.9692, 2080.892
411.4513, 2127.527
411.9334, 2176.155
412.4155, 2221.977
412.8976, 2266.018
413.3798, 2309.398
413.8619, 2352.817
414.3440, 2396.592
414.8261, 2441.278
415.3082, 2487.094
415.7903, 2534.581
416.2725, 2584.184
416.7546, 2635.985
417.2367, 2691.009
417.7188, 2743.742
418.2009, 2804.748
418.6830, 2882.781
419.1652, 2974.198
419.6473, 3062.593
420.1294, 3139.680
420.6115, 3215.118
421.0937, 3296.747
421.5758, 3391.072
422.0579, 3476.166
422.5400, 3535.990
423.0221, 3587.753
423.5042, 3661.396
423.9864, 3783.577
424.4685, 3897.641
424.9506, 3986.443
425.4327, 4045.212
425.9148, 4127.083
426.3969, 4245.189
426.8791, 4371.352
427.3612, 4478.314
427.8433, 4557.493
428.3254, 4644.079
428.8075, 4745.006
429.2896, 4855.574
429.7718, 4956.864
430.2539, 5047.469
430.7360, 5137.245
431.2181, 5234.302
431.7002, 5337.416
432.1823, 5428.942
432.6645, 5507.967
433.1466, 5575.794
433.6287, 5628.009
434.1108, 5667.630
434.5929, 5710.173
435.0750, 5765.065
435.5572, 5825.116
436.0393, 5882.043
436.5214, 5935.379
437.0035, 5975.429
437.4856, 5984.911
437.9677, 5978.893
438.4499, 5979.605
438.9320, 6000.283
439.4141, 6016.031
439.8962, 6004.570
440.3783, 5973.937
440.8604, 5944.500
441.3426, 5927.074
441.8247, 5912.379
442.3068, 5898.127
442.7889, 5886.782
443.2710, 5862.571
443.7531, 5813.665
444.2353, 5752.790
444.7174, 5693.150
445.1995, 5631.583
445.6816, 5577.707
446.1637, 5534.025
446.6458, 5500.293
447.1280, 5470.891
447.6101, 5448.422
448.0922, 5427.321
448.5743, 5404.129
449.0564, 5375.506
449.5385, 5353.193
450.0207, 5338.196
450.5028, 5329.011
450.9849, 5320.991
451.4670, 5312.027
451.9491, 5315.511
452.4312, 5340.764
452.9134, 5384.582
453.3955, 5418.147
453.8776, 5438.521
454.3597, 5468.434
454.8418, 5539.895
455.3239, 5642.704
455.8061, 5728.914
456.2882, 5779.851
456.7703, 5823.460
457.2524, 5897.511
457.7345, 5998.424
458.2166, 6113.982
458.6988, 6242.256
459.1809, 6377.846
459.6630, 6509.546
460.1451, 6635.292
460.6272, 6774.333
461.1093, 6942.965
461.5915, 7130.103
462.0736, 7318.777
462.5557, 7490.965
463.0378, 7676.141
463.5199, 7892.462
464.0020, 8134.177
464.4842, 8366.376
464.9663, 8561.144
465.4484, 8757.628
465.9305, 8978.422
466.4126, 9246.708
466.8947, 9504.868
467.3769, 9752.900
467.8590, 9989.852
468.3411, 10215.70
468.8232, 10421.63
469.3053, 10632.77
469.7874, 10861.76
470.2696, 11106.71
470.7517, 11334.89
471.2338, 11547.53
471.7159, 11738.07
472.1980, 11899.35
472.6801, 12031.86
473.1623, 12135.38
473.6444, 12210.67
474.1265, 12257.50
474.6086, 12275.66
475.0907, 12265.09
475.5728, 12225.60
476.0550, 12160.36
476.5371, 12064.48
477.0192, 11924.22
477.5013, 11738.28
477.9834, 11537.53
478.4655, 11356.83
478.9477, 11171.28
479.4298, 10949.18
479.9119, 10652.01
480.3940, 10349.28
480.8761, 10087.15
481.3582, 9850.659
481.8404, 9599.926
482.3225, 9288.746
482.8046, 8987.990
483.2867, 8733.586
483.7688, 8546.053
484.2509, 8344.373
484.7331, 8103.813
485.2152, 7856.206
485.6973, 7626.427
486.1794, 7424.895
486.6615, 7222.637
487.1436, 7012.883
487.6258, 6798.195
488.1079, 6590.729
488.5900, 6393.831
489.0721, 6198.162
489.5542, 5994.672
490.0363, 5782.238
490.5185, 5592.936
491.0006, 5433.406
491.4827, 5282.888
491.9648, 5114.970
492.4470, 4933.041
492.9291, 4757.981
493.4112, 4600.171
493.8933, 4454.115
494.3754, 4319.401
494.8575, 4193.545
495.3397, 4069.047
495.8218, 3929.826
496.3039, 3792.542
496.7860, 3677.977
497.2681, 3590.391
497.7502, 3513.279
498.2324, 3446.541
498.7145, 3381.954
499.1966, 3307.018
499.6787, 3200.136
500.1608, 3101.211
500.6429, 3022.442
501.1251, 2963.448
501.6072, 2913.797
502.0893, 2885.339
502.5714, 2854.212
503.0535, 2807.934
503.5356, 2736.849
504.0178, 2673.507
504.4999, 2617.332
504.9820, 2570.062
505.4641, 2538.009
505.9462, 2526.378
506.4283, 2502.351
506.9105, 2450.279
507.3926, 2380.229
507.8747, 2334.503
508.3568, 2314.002
508.8389, 2298.870
509.3210, 2272.089
509.8032, 2238.892
510.2853, 2215.565
510.7674, 2206.548
511.2495, 2197.059
511.7316, 2164.563
512.2137, 2120.649
512.6959, 2089.353
513.1780, 2098.627
513.6601, 2108.565
514.1422, 2086.066
514.6243, 2036.594
515.1064, 1998.948
515.5886, 2001.601
516.0707, 2011.414
516.5528, 2007.550
517.0349, 1978.951
517.5170, 1954.221
517.9991, 1934.876
518.4813, 1921.453
518.9634, 1915.847
519.4455, 1925.103
519.9276, 1929.849
520.4097, 1924.226
520.8918, 1910.420
521.3740, 1902.904
521.8561, 1903.405
522.3382, 1904.475
522.8203, 1900.477
523.3024, 1891.863
523.7845, 1885.982
524.2667, 1883.449
524.7488, 1882.768
525.2309, 1882.008
525.7130, 1881.473
526.1951, 1882.189
526.6772, 1884.467
527.1594, 1888.222
527.6415, 1893.084
528.1236, 1899.191
528.6057, 1907.327
529.0878, 1920.754
529.5699, 1934.463
530.0521, 1943.642
530.5342, 1946.320
531.0163, 1951.103
531.4984, 1960.646
531.9805, 1973.784
532.4626, 1989.300
532.9448, 2015.184
533.4269, 2033.259
533.9090, 2034.185
534.3911, 2025.027
534.8732, 2034.822
535.3553, 2074.104
535.8375, 2112.951
536.3196, 2136.979
536.8017, 2145.644
537.2838, 2158.713
537.7659, 2177.974
538.2480, 2196.127
538.7302, 2199.549
539.2123, 2191.964
539.6944, 2201.140
540.1765, 2239.251
540.6586, 2285.383
541.1407, 2308.472
541.6229, 2314.314
542.1050, 2324.128
542.5871, 2353.306
543.0692, 2388.961
543.5513, 2419.463
544.0334, 2443.968
544.5156, 2468.550
544.9977, 2493.051
545.4798, 2520.522
545.9619, 2552.971
546.4440, 2589.062
546.9261, 2632.720
547.4083, 2696.527
547.8904, 2766.038
548.3725, 2813.188
548.8546, 2821.907
549.3367, 2835.018
549.8188, 2862.305
550.3010, 2903.141
550.7831, 2952.083
551.2652, 3011.535
551.7473, 3071.302
552.2294, 3126.563
552.7115, 3176.822
553.1937, 3210.892
553.6758, 3224.677
554.1579, 3235.609
554.6400, 3265.479
555.1221, 3310.198
555.6042, 3357.860
556.0864, 3410.162
556.5685, 3458.255
557.0506, 3490.606
557.5327, 3510.475
558.0148, 3529.378
558.4969, 3554.878
558.9791, 3579.753
559.4612, 3599.069
559.9433, 3611.383
560.4254, 3622.729
560.9075, 3634.075
561.3896, 3644.914
561.8718, 3655.538
562.3539, 3672.289
562.8360, 3677.455
563.3181, 3665.915
563.8002, 3643.818
564.2823, 3624.701
564.7645, 3608.511
565.2466, 3596.583
565.7287, 3592.944
566.2108, 3594.352
566.6929, 3584.897
567.1750, 3564.519
567.6572, 3536.267
568.1393, 3497.558
568.6214, 3454.009
569.1035, 3420.130
569.5856, 3400.579
570.0677, 3379.594
570.5499, 3337.530
571.0320, 3286.437
571.5141, 3245.107
571.9962, 3231.795
572.4783, 3218.218
572.9604, 3190.468
573.4426, 3151.832
573.9247, 3119.214
574.4068, 3105.924
574.8889, 3089.604
575.3710, 3060.242
575.8531, 3014.530
576.3353, 2975.102
576.8174, 2943.251
577.2995, 2916.332
577.7816, 2892.898
578.2637, 2873.624
578.7458, 2850.852
579.2280, 2821.758
579.7101, 2791.840
580.1922, 2773.112
580.6743, 2763.516
581.1564, 2751.437
581.6385, 2733.307
582.1207, 2708.666
582.6028, 2672.703
583.0849, 2627.511
583.5670, 2586.964
584.0491, 2565.730
584.5313, 2548.365
585.0134, 2521.217
585.4955, 2477.486
585.9776, 2439.862
586.4597, 2415.998
586.9418, 2400.641
587.4240, 2388.654
587.9061, 2387.668
588.3882, 2377.061
588.8703, 2349.831
589.3524, 2312.873
589.8345, 2286.730
590.3167, 2273.182
590.7988, 2263.735
591.2809, 2257.263
591.7630, 2252.301
592.2451, 2241.188
592.7272, 2223.814
593.2094, 2202.966
593.6915, 2178.705
594.1736, 2153.077
594.6557, 2129.389
595.1378, 2108.267
595.6199, 2090.691
596.1021, 2078.057
596.5842, 2069.400
597.0663, 2063.320
597.5485, 2061.608
598.0306, 2060.106
598.5127, 2055.560
598.9948, 2049.621
599.4769, 2049.586
599.9590, 2062.059
600.4412, 2072.876
600.9233, 2076.424
601.4054, 2072.023
601.8875, 2071.027
602.3696, 2073.088
602.8517, 2079.490
603.3339, 2092.719
603.8160, 2112.288
604.2981, 2129.393
604.7802, 2141.445
605.2623, 2156.084
605.7444, 2184.383
606.2266, 2223.350
606.7087, 2263.559
607.1908, 2303.204
607.6729, 2341.914
608.1550, 2378.384
608.6371, 2413.604
609.1193, 2452.058
609.6014, 2497.683
610.0835, 2544.913
610.5656, 2589.554
611.0477, 2630.558
611.5298, 2675.999
612.0120, 2728.914
612.4941, 2783.070
612.9762, 2833.469
613.4583, 2878.159
613.9404, 2926.180
614.4225, 2979.325
614.9047, 3032.907
615.3868, 3080.286
615.8689, 3122.252
616.3510, 3164.684
616.8331, 3212.487
617.3152, 3257.427
617.7974, 3288.277
618.2795, 3305.555
618.7616, 3313.163
619.2437, 3305.139
619.7258, 3294.233
620.2079, 3295.076
620.6901, 3308.004
621.1722, 3305.429
621.6543, 3267.839
622.1364, 3218.451
622.6185, 3173.324
623.1006, 3141.109
623.5828, 3095.387
624.0649, 3033.265
624.5470, 2960.286
625.0291, 2881.448
625.5112, 2795.438
625.9933, 2710.312
626.4755, 2628.479
626.9576, 2548.388
627.4397, 2466.413
627.9218, 2383.187
628.4039, 2303.541
628.8860, 2226.583
629.3682, 2156.027
629.8503, 2101.618
630.3324, 2061.151
630.8145, 2019.796
631.2966, 1966.897
631.7787, 1911.962
632.2609, 1861.035
632.7430, 1814.390
633.2251, 1773.676
633.7072, 1741.220
634.1893, 1714.215
634.6714, 1690.093
635.1536, 1668.258
635.6357, 1651.327
636.1178, 1642.354
636.5999, 1635.582
637.0820, 1618.927
637.5641, 1591.964
638.0463, 1567.226
638.5284, 1548.840
639.0105, 1534.895
639.4926, 1521.529
639.9747, 1508.804
640.4568, 1497.452
640.9390, 1486.945
641.4211, 1478.476
641.9032, 1475.360
642.3853, 1477.809
642.8674, 1475.362
643.3495, 1459.594
643.8317, 1440.317
644.3138, 1423.849
644.7959, 1410.382
645.2780, 1401.335
645.7601, 1399.041
646.2422, 1399.136
646.7244, 1396.060
647.2065, 1388.871
647.6886, 1384.221
648.1707, 1385.092
648.6528, 1386.575
649.1349, 1375.127
649.6171, 1353.124
650.0992, 1336.994
650.5813, 1340.162
651.0634, 1349.809
651.5455, 1352.049
652.0276, 1347.209
652.5098, 1336.884
652.9919, 1311.339
653.4740, 1288.782
653.9561, 1282.265
654.4382, 1295.782
654.9203, 1308.710
655.4025, 1325.057
655.8846, 1334.756
656.3667, 1328.561
656.8488, 1297.260
657.3309, 1278.498
657.8130, 1276.120
658.2952, 1281.648
658.7773, 1284.730
659.2594, 1285.402
659.7415, 1283.418
660.2236, 1277.582
660.7057, 1270.946
661.1879, 1266.962
661.6700, 1265.686
662.1521, 1267.373
662.6342, 1278.304
663.1163, 1286.914
663.5984, 1282.571
664.0806, 1267.252
