##NAMES=Beudantite
##RRUFFID=R070190
##IDEAL CHEMISTRY=Pb^2+^Fe^3+^_3_(As^5+^O_4_)(S^6+^O_4_)(OH)_6_
##LOCALITY=Tsumeb mine, Tsumeb, Otavi District, Oshikoto, Namibia
##OWNER=RRUFF
##SOURCE=William W. Pinch
##DESCRIPTION=Rootbeer brown thin tabular plates
##STATUS=The identification of this mineral is confirmed by single-crystal X-ray diffraction and chemical analysis.
##URL=rruff.info/R070190
##MEASURED CHEMISTRY=Pb_1.00_(Fe^3+^_2.71_Al_0.30_)_Σ=3_[(As_0.58_S_0.42_)_Σ=1_O_4_]_2_((OH)_5.87_(H_2_O)_0.13_)_Σ=6_
171.1595, 1857.836
171.6417, 1877.954
172.1238, 1896.358
172.6059, 1915.285
173.0880, 1931.678
173.5701, 1955.464
174.0522, 1993.795
174.5344, 2040.959
175.0165, 2088.521
175.4986, 2132.333
175.9807, 2174.178
176.4628, 2219.864
176.9449, 2271.383
177.4271, 2323.307
177.9092, 2368.856
178.3913, 2414.352
178.8734, 2468.307
179.3555, 2535.792
179.8376, 2614.373
180.3197, 2697.920
180.8019, 2787.486
181.2840, 2880.713
181.7661, 2974.740
182.2482, 3071.967
182.7303, 3175.421
183.2124, 3287.514
183.6946, 3405.449
184.1767, 3519.993
184.6588, 3621.582
185.1409, 3736.405
185.6230, 3872.060
186.1051, 4021.210
186.5873, 4176.669
187.0694, 4335.457
187.5515, 4497.540
188.0336, 4667.733
188.5157, 4851.607
188.9978, 5031.894
189.4800, 5190.591
189.9621, 5348.634
190.4442, 5532.806
190.9263, 5755.083
191.4084, 5999.865
191.8905, 6226.897
192.3727, 6417.127
192.8548, 6625.872
193.3369, 6873.441
193.8190, 7136.188
194.3011, 7393.585
194.7832, 7637.574
195.2654, 7871.390
195.7475, 8098.110
196.2296, 8311.759
196.7117, 8533.177
197.1938, 8781.215
197.6759, 9028.704
198.1581, 9254.561
198.6402, 9451.982
199.1223, 9620.677
199.6044, 9756.778
200.0865, 9843.563
200.5686, 9929.563
201.0508, 10042.58
201.5329, 10143.38
202.0150, 10196.68
202.4971, 10194.40
202.9792, 10159.46
203.4613, 10129.10
203.9435, 10113.24
204.4256, 10078.51
204.9077, 10033.41
205.3898, 9965.967
205.8719, 9855.033
206.3540, 9702.117
206.8362, 9541.445
207.3183, 9424.232
207.8004, 9380.777
208.2825, 9305.238
208.7646, 9177.025
209.2467, 9036.257
209.7289, 8905.015
210.2110, 8786.684
210.6931, 8670.674
211.1752, 8542.677
211.6573, 8396.399
212.1395, 8264.298
212.6216, 8154.283
213.1037, 8051.170
213.5858, 7950.921
214.0679, 7852.023
214.5500, 7752.926
215.0322, 7652.865
215.5143, 7552.927
215.9964, 7446.145
216.4785, 7322.365
216.9606, 7200.739
217.4427, 7088.184
217.9249, 6983.914
218.4070, 6882.465
218.8891, 6778.286
219.3712, 6670.990
219.8533, 6575.227
220.3354, 6507.722
220.8176, 6435.844
221.2997, 6347.870
221.7818, 6248.657
222.2639, 6148.692
222.7460, 6055.775
223.2281, 5968.704
223.7103, 5882.720
224.1924, 5793.418
224.6745, 5710.219
225.1566, 5638.779
225.6387, 5573.707
226.1208, 5506.744
226.6030, 5433.106
227.0851, 5354.781
227.5672, 5279.879
228.0493, 5205.323
228.5314, 5138.956
229.0135, 5089.850
229.4957, 5046.420
229.9778, 4994.602
230.4599, 4927.829
230.9420, 4852.692
231.4241, 4784.458
231.9062, 4723.983
232.3884, 4670.492
232.8705, 4625.325
233.3526, 4585.211
233.8347, 4547.439
234.3168, 4511.185
234.7989, 4475.945
235.2811, 4439.969
235.7632, 4398.793
236.2453, 4367.884
236.7274, 4357.940
237.2095, 4350.572
237.6916, 4331.310
238.1738, 4298.416
238.6559, 4263.212
239.1380, 4240.315
239.6201, 4233.305
240.1022, 4225.363
240.5843, 4211.340
241.0665, 4200.018
241.5486, 4196.489
242.0307, 4200.377
242.5128, 4207.526
242.9949, 4216.161
243.4770, 4227.147
243.9592, 4229.023
244.4413, 4213.199
244.9234, 4195.708
245.4055, 4183.055
245.8876, 4173.716
246.3697, 4162.989
246.8519, 4147.954
247.3340, 4128.540
247.8161, 4104.672
248.2982, 4071.754
248.7803, 4040.308
249.2624, 4016.248
249.7446, 3995.468
250.2267, 3971.096
250.7088, 3938.329
251.1909, 3900.570
251.6730, 3868.459
252.1551, 3846.723
252.6373, 3820.621
253.1194, 3782.709
253.6015, 3739.728
254.0836, 3698.807
254.5657, 3662.695
255.0478, 3628.908
255.5300, 3592.915
256.0121, 3553.823
256.4942, 3516.285
256.9763, 3485.438
257.4584, 3454.511
257.9406, 3417.497
258.4227, 3373.046
258.9048, 3326.057
259.3869, 3280.477
259.8690, 3236.187
260.3511, 3194.061
260.8333, 3150.304
261.3154, 3112.562
261.7975, 3091.744
262.2796, 3086.358
262.7617, 3073.677
263.2438, 3028.605
263.7260, 2958.440
264.2081, 2907.918
264.6902, 2890.169
265.1723, 2879.989
265.6544, 2859.254
266.1365, 2830.352
266.6187, 2801.191
267.1008, 2777.760
267.5829, 2756.168
268.0650, 2726.232
268.5471, 2684.605
269.0292, 2644.960
269.5114, 2619.293
269.9935, 2602.052
270.4756, 2584.592
270.9577, 2567.787
271.4398, 2547.343
271.9219, 2514.401
272.4041, 2468.373
272.8862, 2428.529
273.3683, 2407.190
273.8504, 2397.250
274.3325, 2383.924
274.8146, 2364.644
275.2968, 2345.393
275.7789, 2329.523
276.2610, 2316.879
276.7431, 2307.097
277.2252, 2300.983
277.7073, 2296.472
278.1895, 2291.011
278.6716, 2285.669
279.1537, 2275.680
279.6358, 2252.604
280.1179, 2225.260
280.6000, 2209.613
281.0822, 2209.754
281.5643, 2217.824
282.0464, 2225.520
282.5285, 2232.636
283.0106, 2241.493
283.4927, 2255.451
283.9749, 2269.292
284.4570, 2277.366
284.9391, 2279.609
285.4212, 2281.088
285.9033, 2285.239
286.3854, 2292.314
286.8676, 2303.322
287.3497, 2320.234
287.8318, 2338.767
288.3139, 2357.789
288.7960, 2376.886
289.2781, 2394.969
289.7603, 2411.289
290.2424, 2426.409
290.7245, 2442.408
291.2066, 2458.897
291.6887, 2476.677
292.1708, 2500.501
292.6530, 2524.044
293.1351, 2536.703
293.6172, 2535.054
294.0993, 2529.252
294.5814, 2537.833
295.0635, 2573.259
295.5457, 2599.912
296.0278, 2616.834
296.5099, 2626.329
296.9920, 2625.239
297.4741, 2616.035
297.9562, 2609.590
298.4384, 2618.922
298.9205, 2648.106
299.4026, 2664.561
299.8847, 2660.357
300.3668, 2651.805
300.8489, 2643.653
301.3310, 2635.464
301.8131, 2624.813
302.2953, 2609.701
302.7774, 2591.259
303.2595, 2575.577
303.7416, 2566.699
304.2237, 2554.476
304.7058, 2539.253
305.1880, 2519.038
305.6701, 2488.890
306.1522, 2446.556
306.6343, 2402.282
307.1164, 2374.091
307.5985, 2366.405
308.0807, 2358.764
308.5628, 2349.372
309.0449, 2337.719
309.5270, 2322.837
310.0091, 2304.813
310.4912, 2285.667
310.9734, 2267.736
311.4555, 2250.656
311.9376, 2229.865
312.4197, 2200.636
312.9018, 2174.368
313.3839, 2157.626
313.8661, 2148.810
314.3482, 2144.414
314.8303, 2147.253
315.3124, 2151.613
315.7945, 2146.497
316.2766, 2130.660
316.7588, 2112.531
317.2409, 2093.788
317.7230, 2076.757
318.2051, 2065.326
318.6872, 2060.817
319.1693, 2060.591
319.6515, 2066.606
320.1336, 2076.542
320.6157, 2079.524
321.0978, 2070.540
321.5799, 2055.065
322.0620, 2040.705
322.5442, 2027.163
323.0263, 2015.880
323.5084, 2009.383
323.9905, 2004.433
324.4726, 1996.525
324.9547, 1984.878
325.4369, 1972.314
325.9190, 1961.701
326.4011, 1953.308
326.8832, 1942.916
327.3653, 1933.802
327.8474, 1919.795
328.3296, 1894.343
328.8117, 1860.559
329.2938, 1827.541
329.7759, 1800.360
330.2580, 1778.151
330.7401, 1757.885
331.2223, 1748.514
331.7044, 1729.789
332.1865, 1691.944
332.6686, 1647.148
333.1507, 1608.088
333.6328, 1578.762
334.1150, 1555.061
334.5971, 1531.561
335.0792, 1510.706
335.5613, 1483.301
336.0434, 1438.193
336.5255, 1397.159
337.0077, 1376.711
337.4898, 1371.804
337.9719, 1363.475
338.4540, 1335.060
338.9361, 1289.590
339.4182, 1254.208
339.9004, 1231.480
340.3825, 1216.433
340.8646, 1212.952
341.3467, 1213.276
341.8288, 1206.732
342.3109, 1188.367
342.7931, 1166.312
343.2752, 1153.546
343.7573, 1151.579
344.2394, 1147.956
344.7215, 1137.312
345.2036, 1125.900
345.6858, 1119.188
346.1679, 1117.312
346.6500, 1115.479
347.1321, 1110.637
347.6142, 1103.543
348.0963, 1095.702
348.5785, 1086.561
349.0606, 1078.830
349.5427, 1075.667
350.0248, 1075.764
350.5069, 1075.425
350.9890, 1074.729
351.4712, 1072.785
351.9533, 1068.517
352.4354, 1062.200
352.9175, 1054.778
353.3996, 1045.781
353.8817, 1037.000
354.3639, 1033.840
354.8460, 1038.589
355.3281, 1042.748
355.8102, 1047.894
356.2923, 1049.918
356.7744, 1040.356
357.2566, 1018.343
357.7387, 996.8848
358.2208, 991.7778
358.7029, 1007.814
359.1850, 1013.311
359.6671, 997.6575
360.1493, 983.6085
360.6314, 983.6948
361.1135, 993.3067
361.5956, 1001.128
362.0777, 1000.412
362.5598, 993.3593
363.0420, 988.1146
363.5241, 987.0101
364.0062, 983.9053
364.4883, 974.2224
364.9704, 964.8383
365.4525, 962.5367
365.9347, 968.3176
366.4168, 976.4242
366.8989, 979.5823
367.3810, 977.2886
367.8631, 979.5347
368.3452, 993.7819
368.8274, 1003.885
369.3095, 997.0618
369.7916, 980.1019
370.2737, 969.6060
370.7558, 976.0279
371.2379, 991.1179
371.7201, 1001.592
372.2022, 1007.164
372.6843, 1010.608
373.1664, 1011.496
373.6485, 1011.802
374.1306, 1015.184
374.6128, 1023.241
375.0949, 1028.985
375.5770, 1025.876
376.0591, 1018.351
376.5412, 1015.724
377.0233, 1020.225
377.5055, 1027.068
377.9876, 1031.689
378.4697, 1033.798
378.9518, 1035.609
379.4339, 1040.068
379.9160, 1041.596
380.3982, 1033.197
380.8803, 1018.736
381.3624, 1009.111
381.8445, 1010.457
382.3266, 1019.771
382.8087, 1028.150
383.2909, 1038.109
383.7730, 1043.310
384.2551, 1039.316
384.7372, 1033.387
385.2193, 1032.105
385.7014, 1036.058
386.1836, 1040.622
386.6657, 1040.997
387.1478, 1037.009
387.6299, 1031.974
388.1120, 1022.103
388.5941, 1015.770
389.0763, 1017.375
389.5584, 1023.756
390.0405, 1030.329
390.5226, 1035.603
391.0047, 1039.012
391.4868, 1038.702
391.9690, 1034.095
392.4511, 1031.386
392.9332, 1033.187
393.4153, 1036.718
393.8974, 1039.638
394.3795, 1041.895
394.8617, 1043.223
395.3438, 1043.990
395.8259, 1043.584
396.3080, 1038.274
396.7901, 1027.146
397.2722, 1022.713
397.7544, 1037.779
398.2365, 1067.162
398.7186, 1082.857
399.2007, 1072.307
399.6828, 1062.340
400.1649, 1063.256
400.6471, 1071.568
401.1292, 1081.830
401.6113, 1092.322
402.0934, 1103.591
402.5755, 1116.625
403.0576, 1131.815
403.5398, 1147.593
404.0219, 1163.764
404.5040, 1180.758
404.9861, 1200.258
405.4682, 1220.860
405.9503, 1238.833
406.4325, 1251.431
406.9146, 1260.571
407.3967, 1272.203
407.8788, 1284.210
408.3609, 1303.411
408.8430, 1338.517
409.3252, 1375.956
409.8073, 1403.282
410.2894, 1419.238
410.7715, 1435.655
411.2536, 1464.533
411.7357, 1503.228
412.2179, 1535.956
412.7000, 1557.946
413.1821, 1582.728
413.6642, 1621.523
414.1463, 1669.721
414.6284, 1718.332
415.1106, 1766.338
415.5927, 1813.905
416.0748, 1861.467
416.5569, 1908.791
417.0390, 1954.876
417.5211, 1999.195
418.0033, 2042.123
418.4854, 2082.624
418.9675, 2116.450
419.4496, 2163.752
419.9317, 2235.737
420.4138, 2312.493
420.8960, 2380.362
421.3781, 2440.991
421.8602, 2502.713
422.3423, 2570.820
422.8244, 2645.468
423.3065, 2728.007
423.7887, 2833.193
424.2708, 2922.950
424.7529, 2971.904
425.2350, 3019.730
425.7171, 3103.551
426.1992, 3225.978
426.6814, 3354.667
427.1635, 3461.218
427.6456, 3547.394
428.1277, 3621.850
428.6098, 3675.628
429.0919, 3734.839
429.5741, 3816.012
430.0562, 3910.556
430.5383, 4006.790
431.0204, 4102.980
431.5025, 4198.246
431.9846, 4294.949
432.4668, 4390.657
432.9489, 4476.641
433.4310, 4550.532
433.9131, 4614.439
434.3952, 4668.449
434.8773, 4711.017
435.3595, 4756.952
435.8416, 4824.647
436.3237, 4879.805
436.8058, 4891.350
437.2879, 4872.939
437.7701, 4862.451
438.2522, 4880.010
438.7343, 4912.208
439.2164, 4924.416
439.6985, 4902.691
440.1806, 4885.154
440.6628, 4885.397
441.1449, 4879.128
441.6270, 4845.329
442.1091, 4788.665
442.5912, 4732.222
443.0733, 4696.316
443.5555, 4673.245
444.0376, 4632.040
444.5197, 4567.605
445.0018, 4499.103
445.4839, 4422.708
445.9660, 4351.197
446.4482, 4299.802
446.9303, 4272.458
447.4124, 4250.426
447.8945, 4224.769
448.3766, 4195.813
448.8587, 4161.317
449.3409, 4119.969
449.8230, 4085.154
450.3051, 4067.233
450.7872, 4065.818
451.2693, 4070.576
451.7514, 4084.504
452.2336, 4100.559
452.7157, 4114.347
453.1978, 4129.613
453.6799, 4149.655
454.1620, 4175.976
454.6441, 4212.183
455.1263, 4263.814
455.6084, 4332.878
456.0905, 4405.570
456.5726, 4473.679
457.0547, 4553.880
457.5368, 4658.539
458.0190, 4777.088
458.5011, 4891.292
458.9832, 4992.335
459.4653, 5092.803
459.9474, 5211.306
460.4295, 5347.528
460.9117, 5492.975
461.3938, 5647.842
461.8759, 5809.435
462.3580, 5978.353
462.8401, 6153.065
463.3222, 6327.603
463.8044, 6490.967
464.2865, 6661.837
464.7686, 6860.306
465.2507, 7081.345
465.7328, 7304.238
466.2149, 7519.414
466.6971, 7733.178
467.1792, 7953.748
467.6613, 8180.822
468.1434, 8418.183
468.6255, 8678.521
469.1076, 8938.309
469.5898, 9183.472
470.0719, 9413.990
470.5540, 9631.335
471.0361, 9837.239
471.5182, 10032.15
472.0003, 10222.14
472.4825, 10406.82
472.9646, 10584.29
473.4467, 10775.10
473.9288, 10941.40
474.4109, 11055.89
474.8930, 11118.18
475.3752, 11147.41
475.8573, 11161.03
476.3394, 11146.07
476.8215, 11077.20
477.3036, 10953.73
477.7857, 10795.67
478.2679, 10611.06
478.7500, 10399.91
479.2321, 10156.59
479.7142, 9877.823
480.1963, 9586.863
480.6784, 9267.093
481.1606, 8951.186
481.6427, 8678.953
482.1248, 8444.631
482.6069, 8205.270
483.0890, 7924.816
483.5711, 7614.317
484.0533, 7329.114
484.5354, 7078.879
485.0175, 6838.960
485.4996, 6608.174
485.9817, 6383.030
486.4638, 6160.649
486.9460, 5940.698
487.4281, 5729.835
487.9102, 5538.363
488.3923, 5359.490
488.8744, 5168.970
489.3565, 4963.146
489.8387, 4768.019
490.3208, 4601.859
490.8029, 4453.258
491.2850, 4297.224
491.7671, 4129.375
492.2492, 3966.175
492.7314, 3812.416
493.2135, 3668.038
493.6956, 3534.431
494.1777, 3411.495
494.6598, 3295.747
495.1419, 3185.613
495.6241, 3080.032
496.1062, 2968.437
496.5883, 2834.004
497.0704, 2718.804
497.5525, 2632.407
498.0346, 2561.539
498.5168, 2500.334
498.9989, 2445.321
499.4810, 2388.541
499.9631, 2322.558
500.4452, 2249.479
500.9273, 2176.330
501.4095, 2100.878
501.8916, 2034.726
502.3737, 1986.307
502.8558, 1948.267
503.3379, 1908.556
503.8200, 1866.239
504.3022, 1826.017
504.7843, 1789.174
505.2664, 1755.740
505.7485, 1727.846
506.2306, 1704.615
506.7127, 1681.674
507.1949, 1656.486
507.6770, 1628.415
508.1591, 1594.753
508.6412, 1546.714
509.1233, 1505.839
509.6054, 1474.883
510.0876, 1449.829
510.5697, 1429.395
511.0518, 1412.488
511.5339, 1396.882
512.0161, 1381.185
512.4982, 1365.537
512.9803, 1349.763
513.4624, 1333.617
513.9445, 1319.484
514.4266, 1308.578
514.9088, 1299.893
515.3909, 1294.288
515.8730, 1292.709
516.3551, 1282.570
516.8372, 1248.725
517.3193, 1213.012
517.8015, 1197.558
518.2836, 1199.546
518.7657, 1202.768
519.2478, 1198.911
519.7299, 1190.008
520.2120, 1180.461
520.6942, 1167.088
521.1763, 1159.325
521.6584, 1161.291
522.1405, 1164.317
522.6226, 1164.901
523.1047, 1162.651
523.5869, 1157.254
524.0690, 1147.288
524.5511, 1136.870
525.0332, 1133.768
525.5153, 1137.926
525.9974, 1140.195
526.4796, 1136.411
526.9617, 1133.382
527.4438, 1142.378
527.9259, 1161.364
528.4080, 1169.971
528.8901, 1154.818
529.3723, 1138.947
529.8544, 1135.371
530.3365, 1141.028
530.8186, 1151.637
531.3007, 1165.423
531.7828, 1176.526
532.2650, 1175.534
532.7471, 1159.395
533.2292, 1150.104
533.7113, 1149.119
534.1934, 1153.873
534.6755, 1168.436
535.1577, 1186.286
535.6398, 1198.004
536.1219, 1200.404
536.6040, 1201.674
537.0861, 1210.041
537.5682, 1223.416
538.0504, 1234.932
538.5325, 1243.552
539.0146, 1251.497
539.4967, 1259.185
539.9788, 1267.520
540.4609, 1280.627
540.9431, 1304.412
541.4252, 1324.512
541.9073, 1334.999
542.3894, 1342.463
542.8715, 1352.193
543.3536, 1365.346
543.8358, 1381.599
544.3179, 1400.900
544.8000, 1422.913
545.2821, 1446.229
545.7642, 1470.856
546.2463, 1496.734
546.7285, 1526.918
547.2106, 1555.871
547.6926, 1578.587
548.1747, 1595.348
548.6569, 1611.901
549.1390, 1628.484
549.6211, 1647.523
550.1032, 1674.536
550.5853, 1707.153
551.0674, 1732.455
551.5496, 1744.008
552.0317, 1754.241
552.5138, 1785.307
552.9959, 1849.292
553.4780, 1893.214
553.9601, 1899.914
554.4423, 1908.115
554.9244, 1937.688
555.4065, 1977.700
555.8886, 2008.647
556.3707, 2023.277
556.8528, 2034.024
557.3350, 2058.625
557.8171, 2094.518
558.2992, 2120.086
558.7813, 2131.655
559.2634, 2138.179
559.7455, 2144.107
560.2277, 2149.534
560.7098, 2155.007
561.1919, 2162.428
561.6740, 2166.609
562.1561, 2165.463
562.6382, 2160.558
563.1204, 2153.693
563.6025, 2144.889
564.0846, 2132.481
564.5667, 2114.557
565.0488, 2093.016
565.5309, 2075.510
566.0131, 2064.337
566.4952, 2051.409
566.9773, 2032.960
567.4594, 2014.171
567.9415, 1998.141
568.4236, 1984.696
568.9058, 1972.329
569.3879, 1963.642
569.8700, 1952.771
570.3521, 1931.154
570.8342, 1901.955
571.3163, 1876.504
571.7985, 1858.555
572.2806, 1842.335
572.7627, 1821.346
573.2448, 1795.321
573.7269, 1766.186
574.2090, 1724.480
574.6912, 1690.708
575.1733, 1675.211
575.6554, 1667.590
576.1375, 1656.373
576.6196, 1638.966
577.1017, 1620.092
577.5839, 1604.007
578.0660, 1589.863
578.5481, 1574.712
579.0302, 1558.419
579.5123, 1541.856
579.9944, 1524.111
580.4766, 1507.545
580.9587, 1498.932
581.4408, 1501.976
581.9229, 1496.450
582.4050, 1474.151
582.8871, 1447.453
583.3693, 1420.238
583.8514, 1395.798
584.3335, 1381.273
584.8156, 1380.205
585.2977, 1381.407
585.7798, 1363.695
586.2620, 1324.485
586.7441, 1297.898
587.2262, 1290.638
587.7083, 1287.438
588.1904, 1281.737
588.6725, 1273.759
589.1547, 1263.198
589.6368, 1248.649
590.1189, 1235.037
590.6010, 1225.909
591.0831, 1218.381
591.5652, 1208.222
592.0474, 1195.615
592.5295, 1183.823
593.0116, 1174.828
593.4937, 1168.859
593.9758, 1167.141
594.4579, 1172.660
594.9401, 1175.335
595.4222, 1173.278
595.9043, 1169.078
596.3864, 1162.529
596.8685, 1154.861
597.3506, 1149.064
597.8328, 1147.267
598.3149, 1145.714
598.7970, 1137.208
599.2791, 1126.604
599.7612, 1128.143
600.2433, 1144.612
600.7255, 1164.676
601.2076, 1178.993
601.6897, 1188.338
602.1718, 1198.985
602.6539, 1209.493
603.1360, 1223.505
603.6182, 1244.925
604.1003, 1267.012
604.5824, 1283.078
605.0645, 1294.649
605.5466, 1309.527
606.0287, 1333.564
606.5109, 1361.597
606.9930, 1383.374
607.4751, 1400.718
607.9572, 1429.452
608.4393, 1475.854
608.9214, 1525.957
609.4036, 1565.767
609.8857, 1595.267
610.3678, 1626.416
610.8499, 1655.049
611.3320, 1690.214
611.8141, 1740.080
612.2963, 1793.768
612.7784, 1836.628
613.2605, 1869.661
613.7426, 1909.604
614.2247, 1975.256
614.7068, 2051.666
615.1890, 2097.009
615.6711, 2109.558
616.1532, 2130.744
616.6353, 2175.040
617.1174, 2227.309
617.5995, 2272.295
618.0817, 2309.917
618.5638, 2342.001
619.0459, 2372.724
619.5280, 2393.138
620.0101, 2396.060
620.4922, 2388.520
620.9744, 2378.398
621.4565, 2367.682
621.9386, 2355.448
622.4207, 2342.750
622.9028, 2327.059
623.3849, 2298.175
623.8671, 2255.119
624.3492, 2204.355
624.8313, 2146.875
625.3134, 2083.452
625.7955, 2013.803
626.2776, 1938.250
626.7598, 1863.794
627.2419, 1788.472
627.7240, 1717.919
628.2061, 1661.046
628.6882, 1608.877
629.1703, 1546.028
629.6525, 1470.678
630.1346, 1397.291
630.6167, 1340.270
631.0988, 1297.487
631.5809, 1257.019
632.0630, 1219.114
632.5452, 1181.927
633.0273, 1144.211
633.5094, 1107.452
633.9915, 1072.412
634.4736, 1039.187
634.9557, 1009.927
635.4379, 984.7387
635.9200, 964.2953
636.4021, 951.6771
636.8842, 943.0889
637.3663, 932.4998
637.8484, 918.6356
638.3306, 904.7025
638.8127, 893.8269
639.2948, 885.7036
639.7769, 878.9528
640.2590, 873.9117
640.7411, 869.0092
641.2233, 864.0837
641.7054, 858.8727
642.1875, 854.2144
642.6696, 849.7891
643.1517, 841.0482
643.6339, 821.9465
644.1160, 803.7529
644.5981, 792.9810
645.0802, 786.9745
645.5623, 781.8774
646.0444, 776.7454
646.5266, 772.7589
647.0087, 771.6245
647.4908, 772.2272
647.9729, 768.9860
648.4550, 761.1506
648.9371, 752.2061
649.4193, 740.3060
649.9014, 730.6208
650.3835, 729.4749
650.8656, 735.6118
651.3477, 740.2804
651.8298, 743.8507
652.3120, 743.5919
652.7941, 735.1578
653.2762, 723.6242
653.7583, 716.2274
654.2404, 713.6787
654.7225, 710.9946
655.2047, 703.5314
655.6868, 693.7032
656.1689, 690.9090
656.6510, 696.9444
657.1331, 698.3116
657.6152, 688.7444
658.0974, 678.7501
658.5795, 679.6640
659.0616, 688.8159
659.5437, 694.3422
660.0258, 693.8604
660.5079, 691.2708
660.9901, 684.9296
661.4722, 679.0203
661.9543, 680.0801
662.4364, 686.6638
662.9185, 689.9109
663.4006, 683.1800
663.8828, 671.6876
664.3649, 666.9479
664.8470, 669.1738
