##NAMES=Beudantite
##RRUFFID=R070502
##IDEAL CHEMISTRY=Pb^2+^Fe^3+^_3_(As^5+^O_4_)(S^6+^O_4_)(OH)_6_
##LOCALITY=Dulcinea, Copiap√≥ Province, Atacama Region, Chile
##OWNER=RRUFF
##SOURCE=Bob Jenkins
##DESCRIPTION=Thin hexagonal yellow plates
##STATUS=The identification of this mineral has been confirmed only by single crystal X-ray diffraction.
##URL=rruff.info/R070502
151.6017, 10032.17
152.0838, 10160.10
152.5659, 10263.10
153.0481, 10336.31
153.5302, 10435.12
154.0123, 10583.61
154.4944, 10751.32
154.9765, 10906.67
155.4586, 11050.29
155.9408, 11177.53
156.4229, 11282.20
156.9050, 11311.18
157.3871, 11292.77
157.8692, 11288.50
158.3513, 11291.64
158.8335, 11282.90
159.3156, 11247.78
159.7977, 11209.41
160.2798, 11180.68
160.7619, 11173.84
161.2440, 11154.92
161.7262, 11102.40
162.2083, 11029.99
162.6904, 10969.09
163.1725, 10942.92
163.6546, 10925.12
164.1367, 10897.53
164.6189, 10842.75
165.1010, 10795.25
165.5831, 10766.86
166.0652, 10757.12
166.5473, 10765.96
167.0294, 10811.25
167.5116, 10866.54
167.9937, 10906.89
168.4758, 10908.74
168.9579, 10906.92
169.4400, 10931.80
169.9221, 10979.75
170.4043, 11013.43
170.8864, 10989.18
171.3685, 10940.12
171.8506, 10911.44
172.3327, 10937.30
172.8148, 10980.93
173.2970, 11014.10
173.7791, 11036.53
174.2612, 11046.26
174.7433, 11033.61
175.2254, 11007.36
175.7076, 10984.58
176.1897, 10974.22
176.6718, 10971.57
177.1539, 10971.10
177.6360, 10972.80
178.1181, 10976.07
178.6003, 10976.34
179.0824, 10976.74
179.5645, 10987.19
180.0466, 11022.61
180.5287, 11070.24
181.0108, 11102.15
181.4930, 11110.65
181.9751, 11118.52
182.4572, 11160.69
182.9393, 11232.37
183.4214, 11302.75
183.9035, 11350.33
184.3857, 11381.33
184.8678, 11412.57
185.3499, 11444.96
185.8320, 11480.14
186.3141, 11517.71
186.7962, 11558.16
187.2784, 11607.82
187.7605, 11670.97
188.2426, 11746.70
188.7247, 11834.76
189.2068, 11937.43
189.6889, 12048.75
190.1711, 12159.93
190.6532, 12270.24
191.1353, 12376.04
191.6174, 12471.38
192.0995, 12556.06
192.5816, 12640.43
193.0638, 12726.16
193.5459, 12812.95
194.0280, 12901.25
194.5101, 12993.12
194.9922, 13080.77
195.4743, 13154.93
195.9565, 13215.04
196.4386, 13275.09
196.9207, 13339.08
197.4028, 13406.46
197.8849, 13472.67
198.3671, 13538.81
198.8492, 13603.45
199.3313, 13666.75
199.8134, 13729.56
200.2955, 13784.82
200.7776, 13832.45
201.2598, 13871.99
201.7419, 13889.40
202.2240, 13874.77
202.7061, 13857.35
203.1882, 13887.39
203.6703, 13975.90
204.1525, 14053.25
204.6346, 14093.45
205.1167, 14094.61
205.5988, 14080.53
206.0809, 14044.03
206.5630, 14001.54
207.0452, 13983.61
207.5273, 13995.80
208.0094, 14013.08
208.4915, 14026.83
208.9736, 14037.41
209.4557, 14041.89
209.9379, 14036.87
210.4200, 14029.26
210.9021, 14037.37
211.3842, 14070.48
211.8663, 14095.09
212.3484, 14091.96
212.8306, 14053.64
213.3127, 14020.79
213.7948, 13992.88
214.2769, 13972.00
214.7590, 13964.18
215.2411, 13971.34
215.7233, 13987.42
216.2054, 14017.38
216.6875, 14077.62
217.1696, 14091.84
217.6517, 14040.26
218.1338, 13942.72
218.6160, 13870.23
219.0981, 13829.46
219.5802, 13799.90
220.0623, 13776.41
220.5444, 13774.56
221.0265, 13730.90
221.5087, 13620.20
221.9908, 13462.53
222.4729, 13362.58
222.9550, 13353.96
223.4371, 13350.49
223.9192, 13290.41
224.4014, 13142.67
224.8835, 13021.20
225.3656, 12949.32
225.8477, 12916.21
226.3298, 12853.95
226.8119, 12742.85
227.2941, 12628.16
227.7762, 12540.29
228.2583, 12490.65
228.7404, 12444.82
229.2225, 12399.09
229.7046, 12353.73
230.1868, 12312.06
230.6689, 12277.18
231.1510, 12242.22
231.6331, 12201.90
232.1152, 12156.21
232.5974, 12105.05
233.0795, 12042.32
233.5616, 11970.46
234.0437, 11919.78
234.5258, 11897.40
235.0079, 11888.66
235.4901, 11884.24
235.9722, 11893.91
236.4543, 11889.85
236.9364, 11865.32
237.4185, 11821.03
237.9006, 11775.54
238.3828, 11718.18
238.8649, 11670.96
239.3470, 11654.75
239.8291, 11686.73
240.3112, 11716.73
240.7933, 11734.65
241.2755, 11740.42
241.7576, 11751.72
242.2397, 11775.08
242.7218, 11796.48
243.2039, 11801.50
243.6860, 11779.35
244.1682, 11760.96
244.6503, 11752.02
245.1324, 11752.56
245.6145, 11757.40
246.0966, 11774.20
246.5787, 11787.72
247.0609, 11779.28
247.5430, 11726.57
248.0251, 11696.91
248.5072, 11712.67
248.9893, 11775.61
249.4714, 11811.06
249.9536, 11812.35
250.4357, 11793.02
250.9178, 11763.14
251.3999, 11712.35
251.8820, 11672.61
252.3641, 11649.41
252.8463, 11642.96
253.3284, 11654.11
253.8105, 11695.05
254.2926, 11739.92
254.7747, 11762.38
255.2568, 11755.56
255.7390, 11740.65
256.2211, 11716.47
256.7032, 11682.86
257.1853, 11671.04
257.6674, 11692.64
258.1495, 11722.15
258.6317, 11733.96
259.1138, 11723.88
259.5959, 11704.92
260.0780, 11674.96
260.5601, 11633.53
261.0422, 11609.64
261.5244, 11608.12
262.0065, 11617.31
262.4886, 11627.20
262.9707, 11640.58
263.4528, 11646.98
263.9349, 11641.52
264.4171, 11624.36
264.8992, 11615.86
265.3813, 11618.51
265.8634, 11625.59
266.3455, 11633.00
266.8276, 11644.84
267.3098, 11642.62
267.7919, 11614.99
268.2740, 11564.62
268.7561, 11543.53
269.2382, 11564.94
269.7203, 11591.91
270.2025, 11584.10
270.6846, 11530.18
271.1667, 11488.04
271.6488, 11472.62
272.1309, 11480.98
272.6130, 11482.18
273.0952, 11473.47
273.5773, 11463.98
274.0594, 11465.16
274.5415, 11480.28
275.0236, 11486.41
275.5057, 11476.73
275.9879, 11453.94
276.4700, 11433.30
276.9521, 11414.46
277.4342, 11399.31
277.9163, 11390.09
278.3984, 11387.21
278.8806, 11387.10
279.3627, 11390.17
279.8448, 11395.31
280.3269, 11396.30
280.8090, 11391.50
281.2911, 11388.49
281.7733, 11393.66
282.2554, 11406.89
282.7375, 11424.18
283.2196, 11446.08
283.7017, 11470.39
284.1838, 11487.94
284.6660, 11497.18
285.1481, 11509.43
285.6302, 11539.85
286.1123, 11586.71
286.5944, 11619.56
287.0765, 11629.77
287.5587, 11625.71
288.0408, 11631.71
288.5229, 11649.11
289.0050, 11658.22
289.4871, 11633.26
289.9692, 11582.00
290.4514, 11552.92
290.9335, 11558.17
291.4156, 11584.58
291.8977, 11606.53
292.3798, 11624.33
292.8619, 11644.65
293.3441, 11678.60
293.8262, 11720.19
294.3083, 11744.21
294.7904, 11742.48
295.2726, 11730.87
295.7547, 11734.75
296.2368, 11752.68
296.7189, 11772.96
297.2010, 11790.13
297.6831, 11803.85
298.1653, 11812.88
298.6474, 11816.28
299.1295, 11817.15
299.6116, 11817.32
300.0937, 11817.68
300.5758, 11821.99
301.0580, 11841.92
301.5401, 11864.87
302.0222, 11867.20
302.5043, 11842.59
302.9864, 11811.76
303.4685, 11793.04
303.9507, 11785.12
304.4328, 11784.78
304.9149, 11796.24
305.3970, 11811.74
305.8791, 11822.63
306.3612, 11828.07
306.8434, 11829.24
307.3255, 11824.15
307.8076, 11815.49
308.2897, 11808.58
308.7718, 11804.82
309.2539, 11804.49
309.7361, 11812.89
310.2182, 11831.70
310.7003, 11838.89
311.1824, 11794.68
311.6645, 11733.59
312.1466, 11706.80
312.6288, 11776.14
313.1109, 11855.40
313.5930, 11885.49
314.0751, 11863.94
314.5572, 11838.58
315.0393, 11837.16
315.5215, 11844.71
316.0036, 11844.56
316.4857, 11817.50
316.9678, 11793.91
317.4499, 11791.43
317.9320, 11809.04
318.4142, 11823.13
318.8963, 11823.07
319.3784, 11816.72
319.8605, 11810.35
320.3426, 11798.10
320.8247, 11793.37
321.3069, 11809.03
321.7890, 11839.98
322.2711, 11854.39
322.7532, 11824.15
323.2353, 11787.33
323.7174, 11767.14
324.1996, 11776.59
324.6817, 11791.75
325.1638, 11814.75
325.6459, 11842.22
326.1280, 11861.38
326.6101, 11875.78
327.0923, 11878.12
327.5744, 11865.39
328.0565, 11840.87
328.5386, 11796.92
329.0207, 11704.67
329.5028, 11594.51
329.9850, 11537.04
330.4671, 11580.57
330.9492, 11627.01
331.4313, 11641.05
331.9134, 11604.63
332.3955, 11583.28
332.8777, 11588.07
333.3598, 11602.69
333.8419, 11598.96
334.3240, 11561.02
334.8061, 11530.60
335.2882, 11521.40
335.7704, 11536.76
336.2525, 11550.17
336.7346, 11561.26
337.2167, 11570.33
337.6988, 11580.08
338.1809, 11594.90
338.6631, 11595.41
339.1452, 11572.88
339.6273, 11528.51
340.1094, 11486.45
340.5915, 11441.96
341.0736, 11410.58
341.5558, 11418.20
342.0379, 11470.48
342.5200, 11501.55
343.0021, 11490.98
343.4842, 11452.29
343.9663, 11436.35
344.4485, 11446.11
344.9306, 11459.91
345.4127, 11456.15
345.8948, 11438.17
346.3769, 11434.72
346.8590, 11454.66
347.3412, 11485.88
347.8233, 11505.24
348.3054, 11513.19
348.7875, 11516.66
349.2696, 11516.87
349.7517, 11515.70
350.2339, 11518.82
350.7160, 11527.04
351.1981, 11537.90
351.6802, 11549.34
352.1623, 11560.78
352.6444, 11571.16
353.1266, 11582.67
353.6087, 11591.09
354.0908, 11587.40
354.5729, 11569.33
355.0550, 11551.58
355.5371, 11546.64
356.0193, 11551.10
356.5014, 11558.71
356.9835, 11573.05
357.4656, 11585.69
357.9477, 11590.72
358.4298, 11588.32
358.9120, 11579.54
359.3941, 11558.20
359.8762, 11533.98
360.3583, 11516.83
360.8404, 11511.45
361.3225, 11513.09
361.8047, 11524.59
362.2868, 11543.35
362.7689, 11555.31
363.2510, 11547.03
363.7331, 11534.58
364.2152, 11528.75
364.6974, 11534.32
365.1795, 11542.26
365.6616, 11553.09
366.1437, 11564.88
366.6258, 11572.72
367.1079, 11569.86
367.5901, 11568.02
368.0722, 11572.71
368.5543, 11589.26
369.0364, 11602.60
369.5185, 11614.38
370.0006, 11622.62
370.4828, 11624.19
370.9649, 11619.78
371.4470, 11608.21
371.9291, 11585.55
372.4112, 11548.29
372.8933, 11523.89
373.3755, 11512.89
373.8576, 11514.08
374.3397, 11528.50
374.8218, 11561.64
375.3039, 11592.55
375.7861, 11619.27
376.2682, 11640.35
376.7503, 11647.24
377.2324, 11637.00
377.7145, 11619.37
378.1967, 11596.96
378.6788, 11568.40
379.1609, 11557.23
379.6430, 11573.44
380.1251, 11601.79
380.6072, 11600.42
381.0894, 11567.43
381.5715, 11541.73
382.0536, 11554.53
382.5357, 11597.56
383.0178, 11626.66
383.4999, 11639.03
383.9821, 11639.16
384.4642, 11628.89
384.9463, 11609.79
385.4284, 11590.65
385.9105, 11567.39
386.3926, 11548.29
386.8748, 11551.32
387.3569, 11576.77
387.8390, 11605.46
388.3211, 11613.72
388.8032, 11615.05
389.2853, 11634.00
389.7675, 11706.54
390.2496, 11772.59
390.7317, 11767.59
391.2138, 11704.80
391.6959, 11651.52
392.1780, 11653.63
392.6602, 11676.98
393.1423, 11689.86
393.6244, 11675.13
394.1065, 11670.61
394.5886, 11699.44
395.0707, 11749.74
395.5529, 11795.85
396.0350, 11836.18
396.5171, 11865.22
396.9992, 11879.23
397.4813, 11875.13
397.9634, 11865.04
398.4456, 11831.49
398.9277, 11799.38
399.4098, 11797.57
399.8919, 11865.31
400.3740, 11923.05
400.8561, 11956.30
401.3383, 11964.90
401.8204, 11969.23
402.3025, 11954.06
402.7846, 11950.45
403.2667, 11987.41
403.7488, 12098.57
404.2310, 12165.86
404.7131, 12161.12
405.1952, 12112.32
405.6773, 12109.09
406.1594, 12165.85
406.6415, 12224.58
407.1237, 12253.46
407.6058, 12250.19
408.0879, 12251.61
408.5700, 12258.42
409.0521, 12269.49
409.5342, 12282.78
410.0164, 12298.14
410.4985, 12317.60
410.9806, 12342.55
411.4627, 12372.01
411.9448, 12404.77
412.4269, 12441.10
412.9091, 12474.59
413.3912, 12493.89
413.8733, 12505.54
414.3554, 12524.64
414.8375, 12556.89
415.3196, 12595.26
415.8018, 12637.60
416.2839, 12680.93
416.7660, 12715.06
417.2481, 12706.98
417.7302, 12700.42
418.2123, 12744.30
418.6945, 12857.95
419.1766, 12973.75
419.6587, 13056.94
420.1408, 13116.57
420.6229, 13164.85
421.1050, 13178.81
421.5872, 13207.06
422.0693, 13277.42
422.5514, 13392.31
423.0335, 13503.02
423.5156, 13606.75
423.9977, 13698.17
424.4799, 13774.96
424.9620, 13794.45
425.4441, 13847.08
425.9262, 13963.16
426.4083, 14121.34
426.8904, 14240.45
427.3726, 14294.90
427.8547, 14342.93
428.3368, 14410.38
428.8189, 14508.75
429.3010, 14590.92
429.7831, 14651.55
430.2653, 14703.13
430.7474, 14767.81
431.2295, 14851.38
431.7116, 14922.79
432.1937, 14969.80
432.6758, 14996.72
433.1580, 15030.41
433.6401, 15071.89
434.1222, 15114.34
434.6043, 15159.83
435.0864, 15204.00
435.5685, 15221.16
436.0507, 15203.34
436.5328, 15160.90
437.0149, 15098.90
437.4970, 15022.28
437.9791, 14955.49
438.4612, 14924.23
438.9434, 14907.60
439.4255, 14875.60
439.9076, 14824.65
440.3897, 14769.96
440.8718, 14731.66
441.3539, 14696.82
441.8361, 14647.60
442.3182, 14562.50
442.8003, 14475.50
443.2824, 14401.49
443.7645, 14340.76
444.2466, 14291.79
444.7288, 14262.58
445.2109, 14239.82
445.6930, 14215.96
446.1751, 14191.88
446.6572, 14162.48
447.1393, 14122.34
447.6215, 14076.24
448.1036, 14034.66
448.5857, 13999.32
449.0678, 13965.96
449.5499, 13934.54
450.0320, 13906.25
450.5142, 13871.09
450.9963, 13823.66
451.4784, 13776.48
451.9605, 13744.66
452.4426, 13734.76
452.9247, 13712.09
453.4069, 13667.38
453.8890, 13608.73
454.3711, 13556.83
454.8532, 13510.02
455.3353, 13480.78
455.8174, 13486.25
456.2996, 13518.69
456.7817, 13533.38
457.2638, 13524.10
457.7459, 13514.71
458.2281, 13543.01
458.7102, 13595.25
459.1923, 13631.14
459.6744, 13628.31
460.1565, 13605.75
460.6386, 13580.29
461.1208, 13553.19
461.6029, 13533.18
462.0850, 13522.11
462.5671, 13523.39
463.0492, 13543.28
463.5313, 13593.08
464.0135, 13640.68
464.4956, 13661.07
464.9777, 13671.22
465.4598, 13699.77
465.9419, 13769.66
466.4240, 13844.83
466.9062, 13917.41
467.3883, 13988.17
467.8704, 14039.14
468.3525, 14043.68
468.8346, 14044.92
469.3167, 14074.07
469.7989, 14151.93
470.2810, 14218.31
470.7631, 14273.69
471.2452, 14313.23
471.7273, 14322.33
472.2094, 14295.72
472.6916, 14254.58
473.1737, 14201.83
473.6558, 14138.04
474.1379, 14097.04
474.6200, 14084.34
475.1021, 14075.07
475.5843, 14037.39
476.0664, 13975.83
476.5485, 13919.52
477.0306, 13880.60
477.5127, 13847.14
477.9948, 13801.43
478.4770, 13744.00
478.9591, 13678.58
479.4412, 13597.88
479.9233, 13513.75
480.4054, 13442.63
480.8875, 13387.87
481.3697, 13336.19
481.8518, 13278.80
482.3339, 13219.22
482.8160, 13162.31
483.2981, 13113.92
483.7802, 13063.82
484.2624, 13002.50
484.7445, 12932.72
485.2266, 12880.00
485.7087, 12868.23
486.1908, 12860.10
486.6729, 12837.74
487.1551, 12803.98
487.6372, 12748.56
488.1193, 12647.32
488.6014, 12538.96
489.0835, 12481.45
489.5656, 12495.63
490.0478, 12509.80
490.5299, 12508.15
491.0120, 12491.67
491.4941, 12465.56
491.9762, 12428.06
492.4583, 12388.73
492.9405, 12356.13
493.4226, 12328.80
493.9047, 12295.01
494.3868, 12249.64
494.8689, 12207.58
495.3510, 12188.47
495.8332, 12189.33
496.3153, 12199.49
496.7974, 12230.19
497.2795, 12257.73
497.7616, 12245.92
498.2437, 12197.99
498.7259, 12157.94
499.2080, 12158.17
499.6901, 12175.29
500.1722, 12187.92
500.6543, 12189.33
501.1364, 12190.31
501.6186, 12197.47
502.1007, 12206.60
502.5828, 12209.85
503.0649, 12204.61
503.5470, 12195.20
504.0291, 12179.60
504.5113, 12157.07
504.9934, 12148.07
505.4755, 12164.59
505.9576, 12180.98
506.4397, 12177.00
506.9218, 12144.26
507.4040, 12120.13
507.8861, 12106.52
508.3682, 12103.19
508.8503, 12113.54
509.3324, 12138.17
509.8145, 12159.67
510.2967, 12169.36
510.7788, 12170.20
511.2609, 12172.34
511.7430, 12175.64
512.2252, 12176.62
512.7073, 12165.62
513.1894, 12151.61
513.6715, 12152.65
514.1536, 12178.23
514.6357, 12205.08
515.1179, 12218.46
515.6000, 12219.39
516.0821, 12209.81
516.5642, 12170.54
517.0463, 12138.89
517.5284, 12139.75
518.0106, 12173.93
518.4927, 12198.99
518.9748, 12196.30
519.4569, 12187.62
519.9390, 12186.67
520.4211, 12197.33
520.9033, 12210.69
521.3854, 12233.20
521.8675, 12255.25
522.3496, 12255.91
522.8317, 12225.15
523.3138, 12202.06
523.7960, 12199.17
524.2781, 12214.22
524.7602, 12233.93
525.2423, 12259.60
525.7244, 12282.54
526.2065, 12292.07
526.6887, 12292.33
527.1708, 12301.11
527.6529, 12321.80
528.1350, 12347.02
528.6171, 12372.95
529.0992, 12397.20
529.5814, 12413.74
530.0635, 12412.16
530.5456, 12407.68
531.0277, 12409.21
531.5098, 12416.88
531.9919, 12432.13
532.4741, 12466.10
532.9562, 12499.86
533.4383, 12518.71
533.9204, 12507.03
534.4025, 12512.58
534.8846, 12568.05
535.3668, 12634.03
535.8489, 12658.87
536.3310, 12608.30
536.8131, 12576.84
537.2952, 12587.76
537.7773, 12630.94
538.2595, 12654.14
538.7416, 12654.04
539.2237, 12647.47
539.7058, 12639.67
540.1879, 12631.67
540.6700, 12639.98
541.1522, 12666.71
541.6343, 12699.39
542.1164, 12728.33
542.5985, 12751.70
543.0806, 12762.80
543.5627, 12751.01
544.0449, 12738.09
544.5270, 12744.20
545.0091, 12767.22
545.4912, 12801.15
545.9733, 12863.66
546.4554, 12919.93
546.9376, 12942.37
547.4197, 12925.48
547.9018, 12913.78
548.3839, 12924.06
548.8660, 12941.69
549.3481, 12955.50
549.8303, 12965.77
550.3124, 12971.55
550.7945, 12973.13
551.2766, 12970.60
551.7587, 12962.77
552.2408, 12947.09
552.7230, 12933.75
553.2051, 12924.66
553.6872, 12920.40
554.1693, 12925.83
554.6514, 12941.14
555.1335, 12963.81
555.6157, 13003.22
556.0978, 13048.92
556.5799, 13064.04
557.0620, 13039.47
557.5441, 13002.69
558.0262, 12975.17
558.5084, 12956.79
558.9905, 12947.07
559.4726, 12955.27
559.9547, 12963.45
560.4368, 12956.56
560.9189, 12939.26
561.4011, 12931.89
561.8832, 12955.76
562.3653, 12979.21
562.8474, 12986.00
563.3295, 12968.70
563.8116, 12954.43
564.2938, 12945.07
564.7759, 12937.32
565.2580, 12928.10
565.7401, 12917.07
566.2222, 12904.60
566.7043, 12888.19
567.1865, 12872.42
567.6686, 12869.45
568.1507, 12879.40
568.6328, 12891.17
569.1149, 12904.09
569.5970, 12914.08
570.0792, 12905.25
570.5613, 12878.26
571.0434, 12854.85
571.5255, 12866.32
572.0076, 12884.70
572.4897, 12868.66
572.9719, 12796.18
573.4540, 12734.15
573.9361, 12730.30
574.4182, 12756.48
574.9003, 12773.58
575.3824, 12778.43
575.8646, 12765.96
576.3467, 12723.54
576.8288, 12658.78
577.3109, 12611.17
577.7930, 12586.98
578.2751, 12571.94
578.7573, 12563.90
579.2394, 12564.97
579.7215, 12550.00
580.2036, 12514.97
580.6857, 12475.72
581.1678, 12449.81
581.6500, 12435.50
582.1321, 12417.96
582.6142, 12394.74
583.0963, 12367.26
583.5784, 12332.98
584.0605, 12295.43
584.5427, 12263.57
585.0248, 12241.18
585.5069, 12227.02
585.9890, 12220.50
586.4711, 12221.53
586.9532, 12229.20
587.4354, 12272.47
587.9175, 12300.24
588.3996, 12273.06
588.8817, 12146.91
589.3638, 12072.86
589.8459, 12085.22
590.3281, 12130.29
590.8102, 12154.14
591.2923, 12148.89
591.7744, 12143.51
592.2565, 12141.81
592.7386, 12142.00
593.2208, 12139.12
593.7029, 12132.99
594.1850, 12128.36
594.6671, 12129.89
595.1492, 12134.00
595.6313, 12134.37
596.1135, 12130.85
596.5956, 12118.87
597.0777, 12084.87
597.5598, 12045.66
598.0419, 12022.37
598.5240, 12022.18
599.0062, 12023.85
599.4883, 12017.59
599.9704, 12007.92
600.4525, 12000.06
600.9346, 11985.19
601.4167, 11984.03
601.8989, 12006.40
602.3810, 12043.52
602.8631, 12072.00
603.3452, 12091.99
603.8273, 12101.38
604.3094, 12093.06
604.7916, 12069.59
605.2737, 12071.83
605.7558, 12102.63
606.2379, 12139.52
606.7200, 12168.83
607.2021, 12190.50
607.6843, 12200.56
608.1664, 12196.14
608.6485, 12194.33
609.1306, 12214.04
609.6127, 12246.57
610.0948, 12278.81
610.5770, 12294.96
611.0591, 12321.88
611.5412, 12384.32
612.0233, 12467.47
612.5054, 12530.00
612.9875, 12550.63
613.4697, 12561.52
613.9518, 12564.34
614.4339, 12558.38
614.9160, 12586.42
615.3981, 12664.35
615.8802, 12745.01
616.3624, 12791.92
616.8445, 12803.63
617.3266, 12836.45
617.8087, 12898.26
618.2908, 12961.56
618.7729, 12987.86
619.2551, 12987.79
619.7372, 12993.92
620.2193, 13022.36
620.7014, 13049.88
621.1835, 13059.87
621.6656, 13051.85
622.1478, 13024.94
622.6299, 12965.35
623.1120, 12899.48
623.5941, 12840.42
624.0762, 12788.54
624.5583, 12730.96
625.0405, 12662.53
625.5226, 12592.22
626.0047, 12525.22
626.4868, 12465.39
626.9689, 12386.79
627.4510, 12277.64
627.9332, 12173.51
628.4153, 12120.38
628.8974, 12114.62
629.3795, 12104.60
629.8616, 12082.64
630.3438, 12048.30
630.8259, 11985.83
631.3080, 11908.88
631.7901, 11855.43
632.2722, 11867.55
632.7543, 11889.19
633.2365, 11877.90
633.7186, 11839.92
634.2007, 11804.95
634.6828, 11783.06
635.1649, 11767.16
635.6470, 11756.99
636.1292, 11755.38
636.6113, 11742.45
637.0934, 11705.02
637.5755, 11673.26
638.0576, 11673.91
638.5397, 11713.18
639.0219, 11745.13
639.5040, 11769.20
639.9861, 11779.07
640.4682, 11750.42
640.9503, 11694.27
641.4324, 11666.39
641.9146, 11700.84
642.3967, 11746.41
642.8788, 11744.48
643.3609, 11706.70
643.8430, 11665.84
644.3251, 11616.51
644.8073, 11586.92
645.2894, 11605.53
645.7715, 11671.34
646.2536, 11712.46
646.7357, 11701.22
647.2178, 11679.45
647.7000, 11663.04
648.1821, 11651.27
648.6642, 11653.04
649.1463, 11676.04
