##NAMES=Beudantite
##RRUFFID=R070502
##IDEAL CHEMISTRY=Pb^2+^Fe^3+^_3_(As^5+^O_4_)(S^6+^O_4_)(OH)_6_
##LOCALITY=Dulcinea, Copiap√≥ Province, Atacama Region, Chile
##OWNER=RRUFF
##SOURCE=Bob Jenkins
##DESCRIPTION=Thin hexagonal yellow plates
##STATUS=The identification of this mineral has been confirmed only by single crystal X-ray diffraction.
##URL=rruff.info/R070502
129.1132, 2181.821
129.5953, 2323.408
130.0775, 2484.448
130.5596, 2647.956
131.0417, 2835.121
131.5238, 3013.316
132.0059, 3132.109
132.4880, 3179.656
132.9702, 3200.310
133.4523, 3225.968
133.9344, 3253.077
134.4165, 3270.738
134.8986, 3274.595
135.3807, 3266.285
135.8629, 3247.714
136.3450, 3214.386
136.8271, 3179.647
137.3092, 3148.064
137.7913, 3121.285
138.2734, 3105.710
138.7556, 3109.050
139.2377, 3127.558
139.7198, 3145.697
140.2019, 3164.742
140.6840, 3180.785
141.1661, 3187.779
141.6483, 3189.609
142.1304, 3196.919
142.6125, 3217.133
143.0946, 3249.599
143.5767, 3287.644
144.0588, 3329.879
144.5410, 3380.193
145.0231, 3444.571
145.5052, 3518.840
145.9873, 3592.059
146.4694, 3654.110
146.9515, 3704.241
147.4337, 3756.732
147.9158, 3828.156
148.3979, 3886.114
148.8800, 3919.004
149.3621, 3927.388
149.8442, 3918.571
150.3264, 3901.934
150.8085, 3880.791
151.2906, 3825.038
151.7727, 3700.479
152.2548, 3569.503
152.7369, 3445.327
153.2191, 3334.562
153.7012, 3244.863
154.1833, 3189.058
154.6654, 3176.205
155.1475, 3149.221
155.6296, 3091.758
156.1118, 3035.234
156.5939, 2988.395
157.0760, 2954.327
157.5581, 2936.116
158.0402, 2938.501
158.5223, 2966.564
159.0045, 2994.567
159.4866, 3029.495
159.9687, 3058.958
160.4508, 3070.631
160.9329, 3058.391
161.4150, 3033.361
161.8972, 3022.454
162.3793, 3031.655
162.8614, 3029.305
163.3435, 3013.290
163.8256, 2991.102
164.3077, 2966.470
164.7899, 2940.129
165.2720, 2911.218
165.7541, 2878.543
166.2362, 2840.522
166.7183, 2806.673
167.2004, 2780.712
167.6826, 2755.615
168.1647, 2725.377
168.6468, 2690.688
169.1289, 2658.367
169.6110, 2635.613
170.0931, 2624.781
170.5753, 2613.986
171.0574, 2603.282
171.5395, 2592.661
172.0216, 2582.685
172.5037, 2573.126
172.9858, 2562.292
173.4680, 2547.281
173.9501, 2526.160
174.4322, 2514.235
174.9143, 2517.751
175.3964, 2524.911
175.8785, 2525.319
176.3607, 2518.834
176.8428, 2515.465
177.3249, 2525.166
177.8070, 2550.151
178.2891, 2574.645
178.7712, 2598.222
179.2534, 2621.465
179.7355, 2644.182
180.2176, 2666.512
180.6997, 2689.998
181.1818, 2714.638
181.6639, 2740.923
182.1461, 2777.039
182.6282, 2832.596
183.1103, 2891.135
183.5924, 2938.596
184.0745, 2974.583
184.5566, 3010.052
185.0388, 3052.480
185.5209, 3102.851
186.0030, 3158.897
186.4851, 3225.333
186.9672, 3293.823
187.4493, 3356.097
187.9315, 3411.990
188.4136, 3469.652
188.8957, 3532.993
189.3778, 3603.621
189.8599, 3684.434
190.3420, 3792.106
190.8242, 3897.644
191.3063, 3971.942
191.7884, 4016.316
192.2705, 4062.660
192.7526, 4133.843
193.2347, 4226.504
193.7169, 4315.036
194.1990, 4395.315
194.6811, 4473.964
195.1632, 4558.069
195.6453, 4647.420
196.1274, 4731.490
196.6096, 4804.474
197.0917, 4866.845
197.5738, 4924.517
198.0559, 4973.203
198.5380, 5021.357
199.0201, 5076.771
199.5023, 5138.307
199.9844, 5198.207
200.4665, 5255.807
200.9486, 5306.544
201.4307, 5341.744
201.9128, 5351.917
202.3950, 5358.874
202.8771, 5378.746
203.3592, 5409.601
203.8413, 5437.904
204.3234, 5458.017
204.8055, 5470.760
205.2877, 5480.674
205.7698, 5490.154
206.2519, 5492.737
206.7340, 5476.128
207.2161, 5445.555
207.6982, 5430.451
208.1804, 5450.642
208.6625, 5484.067
209.1446, 5489.301
209.6267, 5456.649
210.1088, 5424.587
210.5909, 5414.498
211.0731, 5422.501
211.5552, 5437.356
212.0373, 5462.035
212.5194, 5483.035
213.0015, 5476.482
213.4836, 5436.787
213.9658, 5404.181
214.4479, 5409.946
214.9300, 5438.805
215.4121, 5446.158
215.8942, 5415.925
216.3763, 5369.245
216.8584, 5331.396
217.3406, 5301.995
217.8227, 5276.250
218.3048, 5263.080
218.7869, 5251.225
219.2690, 5214.261
219.7511, 5142.347
220.2333, 5056.146
220.7154, 4979.444
221.1975, 4910.803
221.6796, 4835.706
222.1617, 4747.943
222.6438, 4651.235
223.1260, 4549.438
223.6081, 4442.058
224.0902, 4333.225
224.5723, 4224.523
225.0544, 4116.342
225.5365, 4012.523
226.0187, 3916.817
226.5008, 3824.858
226.9829, 3729.856
227.4650, 3630.612
227.9471, 3536.849
228.4292, 3454.950
228.9114, 3385.260
229.3935, 3328.691
229.8756, 3291.398
230.3577, 3263.411
230.8398, 3243.558
231.3219, 3231.416
231.8041, 3201.764
232.2862, 3128.441
232.7683, 3024.876
233.2504, 2940.720
233.7325, 2884.358
234.2146, 2843.256
234.6968, 2813.497
235.1789, 2793.745
235.6610, 2773.622
236.1431, 2745.858
236.6252, 2715.320
237.1073, 2694.518
237.5895, 2688.784
238.0716, 2684.497
238.5537, 2675.483
239.0358, 2662.374
239.5179, 2646.673
240.0000, 2628.362
240.4822, 2608.726
240.9643, 2589.889
241.4464, 2570.338
241.9285, 2554.769
242.4106, 2549.319
242.8927, 2548.551
243.3749, 2540.241
243.8570, 2519.252
244.3391, 2494.166
244.8212, 2479.327
245.3033, 2475.762
245.7854, 2473.185
246.2676, 2469.756
246.7497, 2465.948
247.2318, 2463.506
247.7139, 2463.030
248.1960, 2460.138
248.6781, 2447.995
249.1603, 2424.540
249.6424, 2406.876
250.1245, 2399.098
250.6066, 2395.958
251.0887, 2393.398
251.5708, 2390.880
252.0530, 2389.041
252.5351, 2388.854
253.0172, 2390.437
253.4993, 2389.735
253.9814, 2390.094
254.4635, 2385.506
254.9457, 2368.145
255.4278, 2341.090
255.9099, 2317.514
256.3920, 2307.260
256.8741, 2308.510
257.3563, 2302.694
257.8384, 2282.046
258.3205, 2264.138
258.8026, 2257.578
259.2847, 2258.073
259.7668, 2255.868
260.2490, 2245.449
260.7311, 2230.611
261.2132, 2224.119
261.6953, 2244.734
262.1774, 2250.057
262.6595, 2219.338
263.1417, 2176.393
263.6238, 2152.640
264.1059, 2158.811
264.5880, 2179.478
265.0701, 2187.012
265.5522, 2174.181
266.0344, 2158.995
266.5165, 2138.643
266.9986, 2117.867
267.4807, 2099.109
267.9628, 2083.422
268.4449, 2072.658
268.9271, 2070.632
269.4092, 2083.159
269.8913, 2082.207
270.3734, 2055.104
270.8555, 2028.526
271.3376, 2018.876
271.8198, 2023.214
272.3019, 2026.702
272.7840, 2015.888
273.2661, 1990.530
273.7482, 1976.042
274.2303, 1986.349
274.7125, 1993.141
275.1946, 1987.607
275.6767, 1973.919
276.1588, 1958.838
276.6409, 1945.875
277.1230, 1935.760
277.6052, 1931.531
278.0873, 1936.832
278.5694, 1943.249
279.0515, 1952.468
279.5336, 1960.719
280.0157, 1963.326
280.4979, 1958.649
280.9800, 1950.886
281.4621, 1947.604
281.9442, 1951.096
282.4263, 1952.875
282.9084, 1949.601
283.3906, 1946.162
283.8727, 1944.802
284.3548, 1946.169
284.8369, 1950.827
285.3190, 1960.958
285.8011, 1977.278
286.2833, 1989.912
286.7654, 1995.321
287.2475, 1999.982
287.7296, 2008.299
288.2117, 2018.810
288.6938, 2026.407
289.1760, 2022.922
289.6581, 2013.480
290.1402, 2021.728
290.6223, 2056.444
291.1044, 2091.984
291.5865, 2118.741
292.0687, 2137.802
292.5508, 2149.626
293.0329, 2153.268
293.5150, 2151.132
293.9971, 2143.429
294.4792, 2128.483
294.9614, 2121.255
295.4435, 2133.094
295.9256, 2153.408
296.4077, 2170.151
296.8898, 2182.162
297.3719, 2190.477
297.8541, 2192.540
298.3362, 2190.293
298.8183, 2195.237
299.3004, 2214.828
299.7825, 2235.892
300.2646, 2241.958
300.7468, 2233.341
301.2289, 2221.769
301.7110, 2209.610
302.1931, 2197.724
302.6752, 2187.927
303.1573, 2180.614
303.6395, 2173.769
304.1216, 2165.206
304.6037, 2155.173
305.0858, 2147.211
305.5679, 2144.872
306.0500, 2142.063
306.5322, 2132.730
307.0143, 2118.070
307.4964, 2105.271
307.9785, 2099.344
308.4606, 2098.468
308.9427, 2093.513
309.4249, 2079.882
309.9070, 2068.362
310.3891, 2066.918
310.8712, 2068.365
311.3533, 2059.054
311.8354, 2033.516
312.3176, 2001.981
312.7997, 1983.637
313.2818, 1986.293
313.7639, 1989.865
314.2460, 1996.468
314.7281, 2002.536
315.2103, 2006.474
315.6924, 2007.440
316.1745, 2003.386
316.6566, 1990.748
317.1387, 1967.166
317.6208, 1953.207
318.1030, 1960.320
318.5851, 1964.725
319.0672, 1952.902
319.5493, 1932.164
320.0314, 1919.283
320.5135, 1925.814
320.9957, 1945.580
321.4778, 1951.922
321.9599, 1930.488
322.4420, 1918.125
322.9241, 1929.596
323.4063, 1947.891
323.8884, 1956.396
324.3705, 1949.909
324.8526, 1936.208
325.3347, 1925.386
325.8168, 1917.672
326.2990, 1911.678
326.7811, 1911.687
327.2632, 1909.585
327.7453, 1898.022
328.2274, 1878.645
328.7095, 1861.792
329.1917, 1859.306
329.6738, 1866.422
330.1559, 1860.875
330.6380, 1835.744
331.1201, 1811.590
331.6022, 1808.211
332.0844, 1813.514
332.5665, 1804.499
333.0486, 1763.212
333.5307, 1716.533
334.0128, 1699.240
334.4949, 1710.144
334.9771, 1715.916
335.4592, 1700.914
335.9413, 1673.649
336.4234, 1649.321
336.9055, 1626.544
337.3876, 1610.213
337.8698, 1607.110
338.3519, 1611.120
338.8340, 1610.626
339.3161, 1602.652
339.7982, 1591.826
340.2803, 1582.653
340.7624, 1575.133
341.2445, 1570.539
341.7267, 1570.899
342.2088, 1572.616
342.6909, 1574.148
343.1730, 1574.935
343.6551, 1573.173
344.1372, 1566.732
344.6194, 1557.043
345.1015, 1555.118
345.5836, 1568.552
346.0657, 1580.104
346.5478, 1587.591
347.0299, 1591.194
347.5121, 1589.539
347.9942, 1582.529
348.4763, 1574.997
348.9584, 1576.870
349.4405, 1598.862
349.9226, 1605.844
350.4048, 1584.594
350.8869, 1561.725
351.3690, 1552.286
351.8511, 1555.651
352.3332, 1562.412
352.8153, 1565.793
353.2975, 1565.911
353.7796, 1563.489
354.2617, 1556.398
354.7438, 1549.994
355.2259, 1547.688
355.7080, 1546.570
356.1902, 1542.202
356.6723, 1532.074
357.1544, 1521.046
357.6365, 1516.515
358.1186, 1518.988
358.6007, 1520.858
359.0829, 1524.181
359.5650, 1521.903
360.0471, 1502.284
360.5292, 1465.007
361.0113, 1438.354
361.4934, 1447.792
361.9756, 1475.398
362.4577, 1483.210
362.9398, 1464.722
363.4219, 1442.472
363.9040, 1433.744
364.3861, 1436.907
364.8683, 1439.611
365.3504, 1441.508
365.8325, 1442.509
366.3146, 1442.999
366.7967, 1442.589
367.2788, 1440.036
367.7610, 1434.619
368.2431, 1427.235
368.7252, 1419.700
369.2073, 1410.815
369.6894, 1403.921
370.1715, 1400.086
370.6537, 1397.782
371.1358, 1395.689
371.6179, 1393.672
372.1000, 1392.910
372.5821, 1395.608
373.0642, 1402.548
373.5464, 1399.915
374.0285, 1369.575
374.5106, 1349.052
374.9927, 1354.383
375.4748, 1374.243
375.9569, 1392.348
376.4391, 1401.456
376.9212, 1402.704
377.4033, 1396.413
377.8854, 1378.791
378.3675, 1365.944
378.8496, 1365.688
379.3318, 1367.746
379.8139, 1365.964
380.2960, 1360.048
380.7781, 1353.762
381.2602, 1348.388
381.7423, 1344.669
382.2245, 1346.896
382.7066, 1358.084
383.1887, 1367.241
383.6708, 1364.682
384.1529, 1355.172
384.6350, 1347.432
385.1172, 1341.947
385.5993, 1339.856
386.0814, 1343.491
386.5635, 1351.594
387.0456, 1359.888
387.5277, 1367.416
388.0099, 1373.172
388.4920, 1374.582
388.9741, 1369.952
389.4562, 1367.596
389.9383, 1371.009
390.4204, 1375.285
390.9026, 1374.760
391.3847, 1370.168
391.8668, 1367.960
392.3489, 1373.582
392.8310, 1386.315
393.3131, 1396.599
393.7953, 1402.431
394.2774, 1408.066
394.7595, 1413.623
395.2416, 1419.596
395.7237, 1427.514
396.2058, 1437.625
396.6880, 1446.846
397.1701, 1448.984
397.6522, 1441.014
398.1343, 1440.005
398.6164, 1448.490
399.0985, 1463.122
399.5807, 1488.557
400.0628, 1519.488
400.5449, 1541.907
401.0270, 1543.288
401.5091, 1534.587
401.9912, 1539.248
402.4734, 1559.177
402.9555, 1580.251
403.4376, 1597.828
403.9197, 1612.429
404.4018, 1624.674
404.8839, 1633.980
405.3661, 1643.080
405.8482, 1652.845
406.3303, 1663.478
406.8124, 1675.723
407.2945, 1689.798
407.7766, 1703.748
408.2588, 1714.966
408.7409, 1723.345
409.2230, 1736.861
409.7051, 1763.911
410.1872, 1787.081
410.6693, 1792.567
411.1515, 1789.559
411.6336, 1796.128
412.1157, 1820.331
412.5978, 1855.061
413.0799, 1885.446
413.5620, 1907.374
414.0442, 1933.303
414.5263, 1964.446
415.0084, 1997.922
415.4905, 2031.583
415.9726, 2065.922
416.4547, 2104.147
416.9369, 2150.892
417.4190, 2202.484
417.9011, 2242.833
418.3832, 2267.778
418.8653, 2291.399
419.3474, 2313.518
419.8296, 2339.693
420.3117, 2375.558
420.7938, 2422.118
421.2759, 2478.049
421.7580, 2554.113
422.2401, 2639.743
422.7223, 2697.050
423.2044, 2714.031
423.6865, 2725.509
424.1686, 2760.817
424.6507, 2819.057
425.1328, 2883.927
425.6150, 2959.768
426.0971, 3036.965
426.5792, 3114.079
427.0613, 3188.638
427.5434, 3251.067
428.0255, 3296.576
428.5077, 3339.528
428.9898, 3409.568
429.4719, 3534.058
429.9540, 3626.449
430.4361, 3665.367
430.9182, 3694.126
431.4004, 3736.839
431.8825, 3792.406
432.3646, 3849.646
432.8467, 3901.907
433.3288, 3948.070
433.8109, 3986.340
434.2931, 4021.732
434.7752, 4037.033
435.2573, 4009.919
435.7394, 3972.071
436.2215, 3952.129
436.7036, 3954.362
437.1858, 3953.072
437.6679, 3927.916
438.1500, 3884.757
438.6321, 3839.589
439.1142, 3793.439
439.5963, 3747.651
440.0785, 3701.818
440.5606, 3657.399
441.0427, 3620.151
441.5248, 3600.767
442.0069, 3576.376
442.4890, 3526.136
442.9712, 3466.216
443.4533, 3430.211
443.9354, 3427.987
444.4175, 3432.442
444.8996, 3405.564
445.3817, 3335.827
445.8639, 3285.110
446.3460, 3265.341
446.8281, 3249.281
447.3102, 3228.402
447.7923, 3202.824
448.2744, 3173.643
448.7566, 3140.880
449.2387, 3108.054
449.7208, 3084.645
450.2029, 3075.566
450.6850, 3054.039
451.1671, 3004.051
451.6493, 2950.356
452.1314, 2909.315
452.6135, 2879.659
453.0956, 2851.595
453.5777, 2820.303
454.0598, 2787.829
454.5420, 2758.000
455.0241, 2730.744
455.5062, 2701.250
455.9883, 2665.524
456.4704, 2627.466
456.9525, 2595.808
457.4347, 2571.339
457.9168, 2549.495
458.3989, 2528.279
458.8810, 2509.934
459.3631, 2497.250
459.8452, 2490.011
460.3274, 2484.574
460.8095, 2477.200
461.2916, 2469.320
461.7737, 2474.611
462.2558, 2506.936
462.7379, 2533.501
463.2201, 2541.551
463.7022, 2546.785
464.1843, 2567.473
464.6664, 2605.433
465.1485, 2641.426
465.6306, 2651.900
466.1128, 2641.472
466.5949, 2643.375
467.0770, 2660.330
467.5591, 2685.596
468.0412, 2724.536
468.5233, 2767.078
469.0055, 2794.731
469.4876, 2797.924
469.9697, 2799.082
470.4518, 2807.939
470.9339, 2824.712
471.4160, 2854.938
471.8982, 2900.226
472.3803, 2942.165
472.8624, 2962.831
473.3445, 2961.959
473.8266, 2940.604
474.3087, 2876.779
474.7909, 2820.679
475.2730, 2794.991
475.7551, 2784.502
476.2372, 2769.066
476.7193, 2741.180
477.2014, 2702.267
477.6836, 2651.728
478.1657, 2587.353
478.6478, 2527.876
479.1299, 2475.991
479.6120, 2426.763
480.0941, 2379.565
480.5763, 2333.080
481.0584, 2284.401
481.5405, 2231.102
482.0226, 2178.255
482.5047, 2133.283
482.9868, 2094.213
483.4690, 2049.558
483.9511, 1994.355
484.4332, 1939.787
484.9153, 1899.966
485.3974, 1878.042
485.8795, 1850.194
486.3617, 1808.818
486.8438, 1768.653
487.3259, 1736.466
487.8080, 1711.085
488.2901, 1690.777
488.7722, 1674.795
489.2544, 1659.153
489.7365, 1635.236
490.2186, 1597.844
490.7007, 1568.907
491.1828, 1559.561
491.6649, 1548.926
492.1471, 1523.660
492.6292, 1490.460
493.1113, 1466.304
493.5934, 1462.447
494.0755, 1463.792
494.5576, 1447.974
495.0398, 1417.086
495.5219, 1393.027
496.0040, 1383.100
496.4861, 1379.416
496.9682, 1374.290
497.4503, 1367.843
497.9325, 1357.202
498.4146, 1336.593
498.8967, 1316.801
499.3788, 1303.202
499.8609, 1295.574
500.3430, 1294.588
500.8252, 1300.642
501.3073, 1308.015
501.7894, 1305.535
502.2715, 1288.741
502.7536, 1275.059
503.2357, 1265.058
503.7179, 1257.766
504.2000, 1253.834
504.6821, 1252.284
505.1642, 1251.483
505.6463, 1251.016
506.1284, 1250.271
506.6106, 1248.271
507.0927, 1245.125
507.5748, 1242.150
508.0569, 1240.126
508.5390, 1237.336
509.0211, 1230.923
509.5033, 1221.093
509.9854, 1214.103
510.4675, 1210.458
510.9496, 1209.818
511.4317, 1214.321
511.9138, 1221.263
512.3960, 1226.319
512.8781, 1227.834
513.3602, 1225.286
513.8423, 1215.971
514.3245, 1195.576
514.8066, 1187.734
515.2887, 1207.243
515.7708, 1223.984
516.2529, 1225.774
516.7350, 1218.688
517.2172, 1212.417
517.6993, 1209.930
518.1814, 1211.089
518.6635, 1219.951
519.1456, 1233.586
519.6277, 1235.414
520.1099, 1219.752
520.5920, 1202.332
521.0741, 1196.523
521.5562, 1201.916
522.0383, 1206.661
522.5204, 1206.865
523.0026, 1210.841
523.4847, 1225.730
523.9668, 1244.492
524.4489, 1258.343
524.9310, 1264.952
525.4131, 1266.253
525.8953, 1263.199
526.3774, 1255.700
526.8595, 1253.520
527.3416, 1263.292
527.8237, 1268.114
528.3058, 1256.130
528.7880, 1240.452
529.2701, 1236.954
529.7522, 1249.537
530.2343, 1263.709
530.7164, 1267.700
531.1985, 1266.248
531.6807, 1271.091
532.1628, 1283.482
532.6449, 1292.392
533.1270, 1289.030
533.6091, 1277.662
534.0912, 1275.450
534.5734, 1285.838
535.0555, 1299.284
535.5376, 1318.973
536.0197, 1338.344
536.5018, 1351.847
536.9839, 1359.475
537.4661, 1364.282
537.9482, 1368.323
538.4303, 1371.473
538.9124, 1372.356
539.3945, 1369.154
539.8766, 1370.694
540.3588, 1385.748
540.8409, 1400.593
541.3230, 1400.023
541.8051, 1385.566
542.2872, 1378.444
542.7693, 1393.182
543.2515, 1413.518
543.7336, 1422.504
544.2157, 1423.122
544.6978, 1428.729
545.1799, 1445.255
545.6620, 1465.031
546.1442, 1474.853
546.6263, 1469.460
547.1084, 1471.492
547.5905, 1485.126
548.0726, 1500.959
548.5547, 1517.580
549.0369, 1533.335
549.5190, 1545.825
550.0011, 1554.002
550.4832, 1560.312
550.9653, 1565.721
551.4474, 1571.044
551.9296, 1584.618
552.4117, 1610.754
552.8938, 1634.355
553.3759, 1644.593
553.8580, 1642.952
554.3401, 1638.952
554.8223, 1628.550
555.3044, 1621.427
555.7865, 1621.595
556.2686, 1626.023
556.7507, 1633.272
557.2328, 1641.948
557.7150, 1647.967
558.1971, 1647.535
558.6792, 1641.913
559.1613, 1637.731
559.6434, 1634.692
560.1255, 1633.826
560.6077, 1636.896
561.0898, 1641.213
561.5719, 1646.538
562.0540, 1652.196
562.5361, 1653.566
563.0182, 1643.767
563.5004, 1631.763
563.9825, 1630.050
564.4646, 1636.159
564.9467, 1638.089
565.4288, 1630.812
565.9109, 1618.938
566.3931, 1609.357
566.8752, 1602.561
567.3573, 1596.237
567.8394, 1594.159
568.3215, 1588.375
568.8036, 1571.091
569.2858, 1549.954
569.7679, 1537.410
570.2500, 1537.855
570.7321, 1540.010
571.2142, 1530.738
571.6964, 1512.062
572.1785, 1494.323
572.6606, 1477.988
573.1427, 1463.712
573.6248, 1453.534
574.1069, 1445.122
574.5891, 1431.050
575.0712, 1406.992
575.5533, 1386.126
576.0354, 1371.818
576.5175, 1361.667
576.9996, 1356.529
577.4818, 1354.045
577.9639, 1347.004
578.4460, 1330.185
578.9281, 1307.889
579.4102, 1291.025
579.8923, 1280.053
580.3745, 1272.844
580.8566, 1275.319
581.3387, 1274.448
581.8208, 1255.262
582.3029, 1224.483
582.7850, 1206.602
583.2672, 1220.502
583.7493, 1234.839
584.2314, 1224.748
584.7135, 1200.342
585.1956, 1181.418
585.6777, 1172.540
586.1598, 1166.128
586.6419, 1153.936
587.1240, 1136.612
587.6061, 1128.968
588.0883, 1140.633
588.5704, 1147.740
589.0525, 1145.774
589.5346, 1138.171
590.0167, 1126.861
590.4988, 1112.486
590.9810, 1096.646
591.4631, 1075.262
591.9452, 1055.795
592.4273, 1052.214
592.9094, 1062.393
593.3915, 1070.830
593.8737, 1071.893
594.3558, 1068.202
594.8379, 1062.758
595.3200, 1054.209
595.8021, 1050.122
596.2842, 1054.393
596.7664, 1058.119
597.2485, 1057.045
597.7306, 1054.075
598.2127, 1053.972
598.6948, 1057.849
599.1769, 1061.031
599.6591, 1056.565
600.1412, 1047.498
600.6233, 1046.139
601.1054, 1053.718
601.5875, 1062.402
602.0696, 1068.518
602.5518, 1073.325
603.0339, 1079.586
603.5160, 1087.811
603.9981, 1095.682
604.4802, 1102.055
604.9623, 1108.811
605.4445, 1117.510
605.9266, 1127.450
606.4087, 1136.777
606.8908, 1144.605
607.3729, 1153.043
607.8550, 1163.492
608.3372, 1176.080
608.8193, 1199.529
609.3014, 1240.421
609.7835, 1276.576
610.2656, 1287.645
610.7477, 1287.151
611.2299, 1306.635
611.7120, 1355.388
612.1941, 1403.392
612.6762, 1438.947
613.1583, 1471.839
613.6404, 1510.300
614.1226, 1554.235
614.6047, 1600.467
615.0868, 1647.421
615.5689, 1694.142
616.0510, 1738.186
616.5331, 1778.699
617.0153, 1821.038
617.4974, 1866.105
617.9795, 1912.498
618.4616, 1961.671
618.9437, 2011.134
619.4258, 2055.494
619.9080, 2095.227
620.3901, 2127.014
620.8722, 2149.197
621.3543, 2162.203
621.8364, 2170.330
622.3185, 2171.181
622.8007, 2152.482
623.2828, 2105.148
623.7649, 2035.526
624.2470, 1959.111
624.7291, 1872.015
625.2112, 1791.862
625.6934, 1724.496
626.1755, 1660.262
626.6576, 1592.233
