##NAMES=Beudantite
##RRUFFID=R060985
##IDEAL CHEMISTRY=Pb^2+^Fe^3+^_3_(As^5+^O_4_)(S^6+^O_4_)(OH)_6_
##LOCALITY=Kintore Opencut, Broken Hill, New South Wales, Australia
##OWNER=RRUFF
##SOURCE=Bob Jenkins
##DESCRIPTION=Pale green rhombohedra
##STATUS=The identification of this mineral is confirmed by single-crystal X-ray diffraction and chemical analysis.
##URL=rruff.info/R060985
##MEASURED CHEMISTRY=(Pb_0.92_Cu_0.06_Zn_0.02_)_Σ=1_(Fe^3+^_2.46_Al_0.54_)_Σ=3_(As_1.00_O_4_)(S_0.54_As_0.46_)_Σ=1_O_4_)((OH)_5.00_(H_2_O)_1.00_)_Σ=6_
121.0409, 4035.080
121.5230, 4328.781
122.0051, 4657.014
122.4873, 4993.798
122.9694, 5327.078
123.4515, 5652.772
123.9336, 5956.380
124.4157, 6222.778
124.8979, 6463.962
125.3800, 6694.332
125.8621, 6912.218
126.3442, 7127.763
126.8263, 7356.949
127.3084, 7596.309
127.7905, 7835.005
128.2727, 8064.439
128.7548, 8285.123
129.2369, 8494.554
129.7190, 8687.451
130.2011, 8871.269
130.6832, 9066.101
131.1654, 9274.355
131.6475, 9477.109
132.1296, 9651.925
132.6117, 9801.495
133.0938, 9946.951
133.5759, 10099.81
134.0581, 10257.28
134.5402, 10391.87
135.0223, 10500.35
135.5044, 10595.82
135.9865, 10701.89
136.4686, 10821.68
136.9508, 10924.42
137.4329, 10996.56
137.9150, 11036.67
138.3971, 11055.51
138.8792, 11053.00
139.3613, 11029.80
139.8434, 10989.83
140.3256, 10937.04
140.8077, 10858.12
141.2898, 10739.66
141.7719, 10570.43
142.2540, 10400.18
142.7361, 10235.65
143.2183, 10073.81
143.7004, 9905.394
144.1825, 9731.653
144.6646, 9549.434
145.1467, 9357.073
145.6288, 9138.950
146.1110, 8932.683
146.5931, 8751.826
147.0752, 8597.372
147.5573, 8415.979
148.0394, 8177.189
148.5215, 7929.592
149.0037, 7719.472
149.4858, 7587.985
149.9679, 7452.873
150.4500, 7290.238
150.9321, 7083.757
151.4142, 6909.841
151.8964, 6788.804
152.3785, 6696.481
152.8606, 6599.739
153.3427, 6478.583
153.8248, 6367.973
154.3069, 6280.896
154.7890, 6227.480
155.2712, 6176.305
155.7533, 6122.626
156.2354, 6068.638
156.7175, 6018.015
157.1996, 5964.024
157.6817, 5918.068
158.1639, 5886.580
158.6460, 5882.234
159.1281, 5875.768
159.6102, 5853.774
160.0923, 5821.134
160.5744, 5797.254
161.0566, 5791.337
161.5387, 5794.797
162.0208, 5801.353
162.5029, 5805.759
162.9850, 5815.697
163.4671, 5842.687
163.9493, 5883.369
164.4314, 5909.695
164.9135, 5894.385
165.3956, 5862.917
165.8777, 5841.525
166.3598, 5843.836
166.8420, 5856.034
167.3241, 5869.222
167.8062, 5883.357
168.2883, 5905.097
168.7704, 5946.479
169.2525, 5997.340
169.7346, 6042.473
170.2168, 6065.354
170.6989, 6085.129
171.1810, 6118.438
171.6631, 6167.389
172.1452, 6223.961
172.6273, 6281.649
173.1095, 6342.259
173.5916, 6411.128
174.0737, 6490.484
174.5558, 6580.054
175.0379, 6679.496
175.5201, 6790.473
176.0022, 6907.560
176.4843, 7022.166
176.9664, 7135.993
177.4485, 7257.407
177.9306, 7397.017
178.4128, 7545.950
178.8949, 7688.135
179.3770, 7815.329
179.8591, 7947.361
180.3412, 8118.067
180.8233, 8324.200
181.3055, 8530.172
181.7876, 8710.104
182.2697, 8871.169
182.7518, 9037.271
183.2339, 9209.797
183.7160, 9391.590
184.1982, 9586.809
184.6803, 9795.154
185.1624, 10006.90
185.6445, 10224.67
186.1266, 10442.28
186.6087, 10641.06
187.0908, 10805.77
187.5730, 10952.11
188.0551, 11116.97
188.5372, 11304.08
189.0193, 11492.61
189.5014, 11665.91
189.9835, 11826.21
190.4657, 11980.65
190.9478, 12137.92
191.4299, 12291.90
191.9120, 12407.65
192.3941, 12481.50
192.8762, 12535.32
193.3584, 12595.69
193.8405, 12662.29
194.3226, 12714.85
194.8047, 12743.10
195.2868, 12749.36
195.7689, 12754.24
196.2511, 12760.18
196.7332, 12758.95
197.2153, 12735.83
197.6974, 12689.34
198.1795, 12641.07
198.6616, 12605.76
199.1438, 12583.31
199.6259, 12531.48
200.1080, 12443.17
200.5901, 12337.20
201.0722, 12243.82
201.5543, 12162.75
202.0364, 12091.90
202.5186, 12038.86
203.0007, 12007.64
203.4828, 11944.07
203.9649, 11837.51
204.4470, 11707.86
204.9291, 11601.15
205.4113, 11523.73
205.8934, 11441.78
206.3755, 11335.89
206.8576, 11201.27
207.3397, 11070.50
207.8218, 10945.69
208.3040, 10825.07
208.7861, 10704.56
209.2682, 10586.94
209.7503, 10466.53
210.2324, 10335.54
210.7145, 10188.12
211.1967, 10064.55
211.6788, 9976.062
212.1609, 9910.913
212.6430, 9829.026
213.1251, 9727.011
213.6072, 9617.408
214.0894, 9505.903
214.5715, 9391.442
215.0536, 9277.050
215.5357, 9161.057
216.0178, 9045.470
216.4999, 8942.882
216.9820, 8857.111
217.4642, 8778.481
217.9463, 8700.525
218.4284, 8624.745
218.9105, 8546.027
219.3926, 8460.584
219.8747, 8371.204
220.3569, 8291.077
220.8390, 8219.848
221.3211, 8158.446
221.8032, 8108.987
222.2853, 8082.020
222.7674, 8042.212
223.2496, 7979.036
223.7317, 7895.800
224.2138, 7833.724
224.6959, 7803.979
225.1780, 7780.935
225.6601, 7741.254
226.1423, 7671.099
226.6244, 7615.542
227.1065, 7584.388
227.5886, 7576.409
228.0707, 7570.077
228.5528, 7571.091
229.0350, 7566.915
229.5171, 7544.308
229.9992, 7488.199
230.4813, 7442.898
230.9634, 7418.838
231.4455, 7415.777
231.9276, 7406.522
232.4098, 7383.837
232.8919, 7362.315
233.3740, 7324.832
233.8561, 7368.766
234.3382, 7395.549
234.8203, 7406.101
235.3025, 7351.813
235.7846, 7381.252
236.2667, 7377.138
236.7488, 7371.646
237.2309, 7412.871
237.7130, 7368.013
238.1952, 7408.497
238.6773, 7414.914
239.1594, 7413.707
239.6415, 7415.035
240.1236, 7415.788
240.6057, 7416.110
241.0879, 7415.916
241.5700, 7414.085
242.0521, 7413.658
242.5342, 7413.657
243.0163, 7413.325
243.4984, 7423.832
243.9806, 7453.342
244.4627, 7486.089
244.9448, 7505.302
245.4269, 7508.384
245.9090, 7501.153
246.3911, 7479.846
246.8732, 7441.902
247.3554, 7420.103
247.8375, 7422.527
248.3196, 7433.491
248.8017, 7436.114
249.2838, 7428.282
249.7659, 7415.722
250.2481, 7396.721
250.7302, 7369.879
251.2123, 7357.213
251.6944, 7369.397
252.1765, 7386.333
252.6586, 7384.448
253.1408, 7354.482
253.6229, 7324.995
254.1050, 7302.222
254.5871, 7286.842
255.0692, 7272.448
255.5513, 7255.710
256.0334, 7243.639
256.5156, 7246.278
256.9977, 7274.203
257.4798, 7294.079
257.9619, 7297.306
258.4440, 7282.992
258.9261, 7263.998
259.4083, 7235.100
259.8904, 7206.707
260.3725, 7192.211
260.8546, 7197.332
261.3367, 7201.891
261.8188, 7202.571
262.3010, 7199.352
262.7831, 7187.148
263.2652, 7162.799
263.7473, 7133.249
264.2294, 7103.574
264.7115, 7070.326
265.1937, 7047.792
265.6758, 7042.925
266.1579, 7055.388
266.6400, 7060.178
267.1221, 7054.835
267.6042, 7045.933
268.0864, 7041.505
268.5685, 7044.364
269.0506, 7041.967
269.5327, 7028.973
270.0148, 7006.485
270.4969, 6992.930
270.9791, 6989.885
271.4612, 6992.950
271.9433, 7000.051
272.4254, 7013.537
272.9075, 7019.242
273.3896, 7007.597
273.8718, 6983.029
274.3539, 6987.689
274.8360, 7030.318
275.3181, 7080.652
275.8002, 7107.813
276.2823, 7108.113
276.7645, 7110.440
277.2466, 7120.820
277.7287, 7138.384
278.2108, 7155.067
278.6929, 7167.814
279.1750, 7189.996
279.6572, 7241.162
280.1393, 7323.861
280.6214, 7392.633
281.1035, 7433.951
281.5856, 7455.271
282.0677, 7487.718
282.5499, 7533.383
283.0320, 7579.226
283.5141, 7608.327
283.9962, 7621.077
284.4783, 7650.381
284.9604, 7704.869
285.4425, 7779.203
285.9247, 7859.306
286.4068, 7945.540
286.8889, 8030.729
287.3710, 8102.600
287.8531, 8164.107
288.3352, 8244.756
288.8174, 8356.172
289.2995, 8482.917
289.7816, 8590.824
290.2637, 8677.942
290.7458, 8758.988
291.2279, 8846.112
291.7101, 8936.401
292.1922, 9014.370
292.6743, 9071.647
293.1564, 9123.506
293.6385, 9201.012
294.1206, 9302.019
294.6028, 9400.257
295.0849, 9480.071
295.5670, 9544.484
296.0491, 9600.580
296.5312, 9646.943
297.0133, 9690.420
297.4955, 9744.527
297.9776, 9805.975
298.4597, 9860.628
298.9418, 9895.705
299.4239, 9918.183
299.9060, 9941.615
300.3882, 9968.423
300.8703, 9992.542
301.3524, 10004.36
301.8345, 10006.23
302.3166, 10006.96
302.7987, 10018.41
303.2809, 10028.49
303.7630, 10019.88
304.2451, 9989.504
304.7272, 9945.707
305.2093, 9891.910
305.6914, 9829.778
306.1736, 9766.330
306.6557, 9705.892
307.1378, 9644.005
307.6199, 9572.474
308.1020, 9488.604
308.5841, 9411.395
309.0663, 9367.088
309.5484, 9337.475
310.0305, 9293.271
310.5126, 9218.266
310.9947, 9126.573
311.4768, 9025.076
311.9590, 8914.380
312.4411, 8804.436
312.9232, 8703.120
313.4053, 8605.953
313.8874, 8509.153
314.3695, 8409.307
314.8517, 8308.894
315.3337, 8211.290
315.8159, 8116.137
316.2980, 8014.914
316.7801, 7895.417
317.2622, 7770.978
317.7443, 7653.052
318.2264, 7541.598
318.7086, 7442.224
319.1907, 7368.769
319.6728, 7315.864
320.1549, 7244.460
320.6370, 7116.606
321.1191, 6981.745
321.6013, 6872.564
322.0834, 6822.679
322.5655, 6770.042
323.0476, 6698.617
323.5297, 6613.794
324.0118, 6537.913
324.4940, 6487.389
324.9761, 6437.129
325.4582, 6373.782
325.9403, 6274.351
326.4224, 6192.877
326.9045, 6147.488
327.3867, 6123.314
327.8688, 6079.903
328.3509, 5990.042
328.8330, 5904.036
329.3151, 5839.434
329.7972, 5808.776
330.2794, 5772.837
330.7615, 5724.671
331.2436, 5673.175
331.7257, 5635.371
332.2078, 5621.127
332.6899, 5606.641
333.1721, 5585.937
333.6542, 5559.583
334.1363, 5523.937
334.6184, 5472.354
335.1005, 5417.260
335.5826, 5372.640
336.0648, 5337.295
336.5469, 5315.798
337.0290, 5313.124
337.5111, 5329.336
337.9932, 5336.548
338.4753, 5332.288
338.9575, 5323.327
339.4396, 5316.450
339.9217, 5312.377
340.4038, 5305.048
340.8859, 5290.066
341.3680, 5271.091
341.8502, 5269.036
342.3323, 5288.011
342.8144, 5305.544
343.2965, 5297.212
343.7786, 5263.927
344.2607, 5247.252
344.7429, 5258.189
345.2250, 5284.417
345.7071, 5293.189
346.1892, 5284.338
346.6713, 5285.037
347.1534, 5327.335
347.6355, 5397.457
348.1176, 5435.237
348.5998, 5427.125
349.0819, 5403.614
349.5640, 5407.867
350.0461, 5436.172
350.5282, 5468.331
351.0103, 5489.861
351.4925, 5508.714
351.9746, 5542.149
352.4567, 5592.940
352.9388, 5645.444
353.4209, 5684.185
353.9030, 5713.048
354.3852, 5740.699
354.8673, 5772.678
355.3494, 5804.492
355.8315, 5830.294
356.3136, 5850.142
356.7957, 5871.388
357.2779, 5895.361
357.7600, 5924.904
358.2421, 5963.238
358.7242, 6018.650
359.2063, 6077.154
359.6884, 6130.897
360.1706, 6180.581
360.6527, 6230.553
361.1348, 6288.959
361.6169, 6345.125
362.0990, 6389.162
362.5811, 6407.538
363.0633, 6430.429
363.5454, 6467.549
364.0275, 6516.204
364.5096, 6568.893
364.9917, 6637.127
365.4738, 6698.509
365.9560, 6740.729
366.4381, 6750.761
366.9202, 6766.743
367.4023, 6798.224
367.8844, 6837.375
368.3665, 6871.415
368.8487, 6898.267
369.3308, 6921.668
369.8129, 6942.103
370.2950, 6959.373
370.7771, 6974.536
371.2592, 6986.885
371.7414, 6997.591
372.2235, 7008.488
372.7056, 7022.794
373.1877, 7030.680
373.6698, 7027.858
374.1519, 7015.441
374.6341, 7008.712
375.1162, 7011.258
375.5983, 7012.570
376.0804, 7002.766
376.5625, 6978.635
377.0446, 6959.164
377.5267, 6945.362
378.0089, 6938.691
378.4910, 6950.471
378.9731, 6985.189
379.4552, 7008.418
379.9373, 6990.321
380.4194, 6935.219
380.9016, 6899.947
381.3837, 6888.548
381.8658, 6894.922
382.3479, 6917.102
382.8300, 6952.686
383.3121, 6983.274
383.7943, 7000.353
384.2764, 7006.164
384.7585, 7000.603
385.2406, 6982.643
385.7227, 6970.364
386.2048, 6985.832
386.6870, 7019.532
387.1691, 7051.898
387.6512, 7073.524
388.1333, 7092.451
388.6154, 7118.628
389.0975, 7150.603
389.5797, 7180.642
390.0618, 7200.142
390.5439, 7216.508
391.0260, 7237.383
391.5081, 7266.891
391.9902, 7296.833
392.4724, 7322.080
392.9545, 7344.770
393.4366, 7369.954
393.9187, 7396.387
394.4008, 7428.644
394.8829, 7470.311
395.3651, 7522.841
395.8472, 7580.276
396.3293, 7649.267
396.8114, 7719.675
397.2935, 7779.273
397.7756, 7820.966
398.2578, 7856.601
398.7399, 7882.070
399.2220, 7895.602
399.7041, 7930.840
400.1862, 8010.993
400.6683, 8095.278
401.1505, 8153.760
401.6326, 8156.861
402.1147, 8185.381
402.5968, 8249.136
403.0789, 8342.648
403.5610, 8451.296
404.0432, 8589.459
404.5253, 8714.512
405.0074, 8802.959
405.4895, 8848.380
405.9716, 8889.367
406.4537, 8922.143
406.9359, 8956.811
407.4180, 9008.582
407.9001, 9078.203
408.3822, 9159.518
408.8643, 9253.449
409.3464, 9357.928
409.8285, 9468.245
410.3106, 9585.603
410.7928, 9693.109
411.2749, 9771.016
411.7570, 9825.527
412.2391, 9877.683
412.7212, 9930.330
413.2033, 9987.304
413.6855, 10054.29
414.1676, 10130.12
414.6497, 10211.13
415.1318, 10304.75
415.6139, 10397.56
416.0960, 10469.84
416.5782, 10516.90
417.0603, 10552.28
417.5424, 10578.75
418.0245, 10600.76
418.5066, 10626.10
418.9887, 10663.22
419.4709, 10700.37
419.9530, 10730.91
420.4351, 10754.16
420.9172, 10777.19
421.3993, 10813.64
421.8814, 10845.34
422.3636, 10857.29
422.8457, 10826.63
423.3278, 10799.00
423.8099, 10785.50
424.2920, 10782.66
424.7741, 10774.11
425.2563, 10758.73
425.7384, 10737.97
426.2205, 10712.18
426.7026, 10679.22
427.1847, 10646.00
427.6668, 10610.07
428.1490, 10575.50
428.6311, 10547.88
429.1132, 10525.56
429.5953, 10514.08
430.0774, 10521.07
430.5595, 10543.71
431.0417, 10540.64
431.5238, 10505.23
432.0059, 10464.43
432.4880, 10447.79
432.9701, 10454.30
433.4522, 10442.58
433.9344, 10399.91
434.4165, 10343.18
434.8986, 10307.25
435.3807, 10290.24
435.8628, 10270.12
436.3449, 10237.68
436.8271, 10192.21
437.3092, 10124.31
437.7913, 10030.14
438.2734, 9942.896
438.7555, 9899.155
439.2376, 9883.985
439.7197, 9869.737
440.2018, 9848.681
440.6840, 9821.443
441.1661, 9786.461
441.6482, 9744.646
442.1303, 9701.276
442.6124, 9649.276
443.0945, 9602.119
443.5767, 9573.046
444.0588, 9581.175
444.5409, 9577.999
445.0230, 9544.804
445.5051, 9491.798
445.9872, 9440.581
446.4694, 9393.046
446.9515, 9349.632
447.4336, 9307.825
447.9157, 9264.413
448.3978, 9241.127
448.8799, 9251.964
449.3621, 9271.739
449.8442, 9278.226
450.3263, 9269.166
450.8084, 9250.209
451.2905, 9212.026
451.7726, 9166.218
452.2548, 9159.791
452.7369, 9199.112
453.2190, 9255.032
453.7011, 9320.883
454.1832, 9395.471
454.6653, 9438.166
455.1475, 9439.549
455.6296, 9435.455
456.1117, 9477.394
456.5938, 9558.902
457.0759, 9645.343
457.5580, 9726.433
458.0402, 9802.255
458.5223, 9869.919
459.0044, 9930.811
459.4865, 9993.065
459.9686, 10062.33
460.4507, 10137.24
460.9329, 10216.39
461.4150, 10294.92
461.8971, 10384.82
462.3792, 10497.02
462.8613, 10625.87
463.3434, 10763.04
463.8256, 10914.83
464.3077, 11064.06
464.7898, 11201.23
465.2719, 11323.79
465.7540, 11452.31
466.2361, 11595.64
466.7183, 11745.26
467.2004, 11892.82
467.6825, 12040.25
468.1646, 12182.02
468.6467, 12319.55
469.1288, 12452.15
469.6110, 12577.23
470.0930, 12696.48
470.5752, 12805.77
471.0573, 12905.19
471.5394, 12994.72
472.0215, 13066.83
472.5036, 13117.52
472.9857, 13158.51
473.4679, 13206.79
473.9500, 13262.04
474.4321, 13307.81
474.9142, 13347.57
475.3963, 13369.24
475.8784, 13332.21
476.3606, 13240.33
476.8427, 13144.51
477.3248, 13101.14
477.8069, 13073.77
478.2890, 12990.70
478.7711, 12835.61
479.2533, 12667.34
479.7354, 12544.39
480.2175, 12442.27
480.6996, 12318.58
481.1817, 12139.24
481.6638, 11948.82
482.1460, 11767.85
482.6281, 11597.70
483.1102, 11434.13
483.5923, 11284.80
484.0744, 11134.73
484.5565, 10974.01
485.0387, 10800.66
485.5208, 10619.20
486.0029, 10420.54
486.4850, 10215.18
486.9671, 10019.46
487.4492, 9842.373
487.9314, 9665.119
488.4135, 9483.324
488.8956, 9298.063
489.3777, 9111.545
489.8598, 8921.347
490.3419, 8733.119
490.8241, 8547.645
491.3062, 8364.048
491.7883, 8190.365
492.2704, 8025.568
492.7525, 7871.702
493.2346, 7730.652
493.7168, 7603.547
494.1989, 7480.096
494.6810, 7355.569
495.1631, 7232.094
495.6452, 7111.961
496.1273, 6995.900
496.6095, 6877.399
497.0916, 6741.991
497.5737, 6607.779
498.0558, 6498.135
498.5379, 6431.432
499.0201, 6369.425
499.5022, 6289.081
499.9843, 6198.642
500.4664, 6116.337
500.9485, 6061.850
501.4306, 6005.273
501.9127, 5930.549
502.3948, 5833.549
502.8770, 5752.451
503.3591, 5693.633
503.8412, 5650.124
504.3233, 5618.573
504.8054, 5609.962
505.2875, 5592.932
505.7697, 5568.205
506.2518, 5532.270
506.7339, 5470.686
507.2160, 5373.586
507.6981, 5290.217
508.1802, 5245.957
508.6624, 5235.394
509.1445, 5213.663
509.6266, 5179.578
510.1087, 5144.068
510.5908, 5117.400
511.0729, 5097.828
511.5551, 5080.917
512.0372, 5068.293
512.5193, 5052.551
513.0014, 5018.484
513.4835, 4973.871
513.9656, 4939.370
514.4478, 4929.170
514.9299, 4930.077
515.4120, 4935.032
515.8941, 4943.500
516.3762, 4950.451
516.8583, 4956.668
517.3405, 4958.668
517.8226, 4953.644
518.3047, 4935.473
518.7868, 4917.567
519.2689, 4897.967
519.7510, 4879.886
520.2332, 4869.818
520.7153, 4868.106
521.1974, 4874.450
521.6795, 4891.827
522.1616, 4920.179
522.6437, 4938.293
523.1259, 4941.746
523.6080, 4946.535
524.0901, 4974.572
524.5722, 5025.017
525.0543, 5041.276
525.5364, 5007.656
526.0186, 4962.084
526.5007, 4966.582
526.9828, 5011.804
527.4649, 5057.098
527.9470, 5082.185
528.4291, 5097.563
528.9113, 5113.820
529.3934, 5131.333
529.8755, 5154.769
530.3576, 5195.166
530.8397, 5238.123
531.3218, 5271.336
531.8040, 5289.934
532.2861, 5303.863
532.7682, 5298.798
533.2503, 5295.240
533.7324, 5323.472
534.2145, 5444.883
534.6967, 5534.766
535.1788, 5560.229
535.6609, 5527.884
536.1430, 5506.891
536.6251, 5496.948
537.1072, 5499.588
537.5894, 5516.837
538.0715, 5549.563
538.5536, 5590.510
539.0357, 5640.340
539.5178, 5695.704
539.9999, 5761.778
540.4821, 5834.457
540.9642, 5881.695
541.4463, 5878.334
541.9284, 5861.101
542.4105, 5899.759
542.8926, 5983.603
543.3748, 6061.272
543.8569, 6093.515
544.3390, 6106.916
544.8211, 6127.394
545.3032, 6158.441
545.7853, 6189.526
546.2675, 6211.971
546.7495, 6233.479
547.2316, 6261.658
547.7137, 6311.480
548.1959, 6352.714
548.6780, 6381.027
549.1601, 6397.652
549.6422, 6406.115
550.1243, 6398.715
550.6064, 6394.745
551.0886, 6402.924
551.5707, 6423.920
552.0528, 6432.210
552.5349, 6424.314
553.0170, 6413.236
553.4991, 6412.304
553.9813, 6420.469
554.4634, 6419.718
554.9455, 6405.237
555.4276, 6387.466
555.9097, 6386.909
556.3918, 6397.146
556.8740, 6397.116
557.3561, 6370.192
557.8382, 6333.471
558.3203, 6302.352
558.8024, 6276.320
559.2845, 6252.141
559.7667, 6224.458
560.2488, 6200.303
560.7309, 6185.977
561.2130, 6187.348
561.6951, 6183.714
562.1772, 6170.424
562.6594, 6150.235
563.1415, 6126.205
563.6236, 6096.640
564.1057, 6065.953
564.5878, 6033.184
565.0699, 5999.710
565.5521, 5971.851
566.0342, 5953.002
566.5163, 5926.518
566.9984, 5874.772
567.4805, 5803.726
567.9626, 5769.446
568.4448, 5774.995
568.9269, 5782.943
569.4090, 5754.635
569.8911, 5702.827
570.3732, 5654.351
570.8553, 5614.333
571.3375, 5581.463
571.8196, 5566.528
572.3017, 5557.454
572.7838, 5531.817
573.2659, 5459.902
573.7480, 5388.589
574.2302, 5336.925
574.7123, 5305.135
575.1944, 5282.497
575.6765, 5282.757
576.1586, 5278.581
576.6407, 5256.625
577.1229, 5209.973
577.6050, 5166.139
578.0871, 5126.277
578.5692, 5087.996
579.0513, 5047.521
579.5334, 5003.843
580.0156, 4968.010
580.4977, 4943.438
580.9798, 4926.114
581.4619, 4912.421
581.9440, 4900.849
582.4261, 4879.710
582.9083, 4832.386
583.3904, 4776.762
583.8725, 4737.875
584.3546, 4715.524
584.8367, 4695.982
585.3188, 4672.880
585.8010, 4647.173
586.2831, 4618.075
586.7652, 4579.266
587.2473, 4550.859
587.7294, 4555.823
588.2115, 4568.279
588.6937, 4550.715
589.1758, 4473.618
589.6579, 4408.447
590.1400, 4367.708
590.6221, 4347.026
591.1042, 4329.412
591.5864, 4316.625
592.0685, 4301.379
592.5506, 4280.948
593.0327, 4255.280
593.5148, 4221.182
593.9969, 4177.616
594.4791, 4135.217
594.9612, 4102.617
595.4433, 4078.368
595.9254, 4062.462
596.4075, 4059.556
596.8896, 4051.619
597.3718, 4015.552
597.8539, 3966.229
598.3360, 3928.465
598.8181, 3924.396
599.3002, 3920.192
599.7823, 3898.913
600.2645, 3864.055
600.7466, 3841.720
601.2287, 3842.322
601.7108, 3846.559
602.1929, 3850.093
602.6750, 3854.974
603.1572, 3840.269
603.6393, 3797.230
604.1214, 3753.635
604.6035, 3740.833
605.0856, 3757.094
605.5677, 3758.299
606.0499, 3734.436
606.5320, 3703.464
607.0141, 3691.538
607.4962, 3693.517
607.9783, 3694.546
608.4604, 3688.697
608.9425, 3678.757
609.4246, 3660.274
609.9067, 3637.421
610.3889, 3628.878
610.8710, 3665.752
611.3531, 3699.804
611.8352, 3700.606
612.3173, 3654.720
612.7994, 3628.672
613.2816, 3638.132
613.7637, 3656.506
614.2458, 3663.796
