##NAMES=Bigcreekite
##RRUFFID=R060432
##IDEAL CHEMISTRY=BaSi_2_O_5_&#183;4H_2_O
##LOCALITY=Trumbull Peak, Mariposa County, California, USA
##OWNER=RRUFF
##SOURCE=Michael Scott
##DESCRIPTION=White veinlets with distinctive cleavage, running through sanbornite
##STATUS=The identification of this mineral is confirmed by single-crystal X-ray diffraction and chemical analysis.
##URL=rruff.info/R060432
##MEASURED CHEMISTRY=(Ba_0.99_Na_0.01_)_Σ=1_(Si_1.95_Fe^3+^_0.05_)_2_(O_4.94_(OH)_0.06_)_Σ=5_·4H_2_O
127.5289, 1774.722
128.0110, 1885.808
128.4931, 2028.259
128.9752, 2223.637
129.4574, 2446.420
129.9395, 2632.432
130.4216, 2780.352
130.9037, 2908.188
131.3858, 3044.809
131.8679, 3189.538
132.3500, 3305.242
132.8322, 3373.364
133.3143, 3396.781
133.7964, 3408.661
134.2785, 3409.496
134.7606, 3397.757
135.2427, 3372.593
135.7249, 3334.927
136.2070, 3278.823
136.6891, 3196.000
137.1712, 3080.021
137.6533, 2968.463
138.1354, 2860.579
138.6176, 2758.422
139.0997, 2671.607
139.5818, 2609.357
140.0639, 2545.444
140.5460, 2455.657
141.0281, 2321.650
141.5103, 2205.476
141.9924, 2117.638
142.4745, 2057.633
142.9566, 2011.200
143.4387, 1970.586
143.9208, 1936.926
144.4030, 1911.943
144.8851, 1904.117
145.3672, 1867.881
145.8493, 1888.179
146.3314, 1895.166
146.8135, 1889.585
147.2957, 1832.228
147.7778, 1842.925
148.2599, 1827.082
148.7420, 1810.651
149.2241, 1832.420
149.7062, 1785.284
150.1883, 1807.500
150.6705, 1802.762
151.1526, 1811.122
151.6347, 1792.775
152.1168, 1783.360
152.5989, 1801.707
153.0810, 1805.494
153.5632, 1786.101
154.0453, 1798.395
154.5274, 1755.531
155.0095, 1762.050
155.4916, 1790.173
155.9737, 1774.761
156.4559, 1790.166
156.9380, 1769.223
157.4201, 1796.690
157.9022, 1810.789
158.3843, 1812.262
158.8664, 1761.902
159.3486, 1779.537
159.8307, 1770.573
160.3128, 1760.964
160.7949, 1789.497
161.2770, 1749.065
161.7591, 1777.929
162.2413, 1779.781
162.7234, 1794.673
163.2055, 1782.798
163.6876, 1779.799
164.1697, 1804.503
164.6518, 1814.589
165.1339, 1801.437
165.6161, 1819.915
166.0982, 1783.175
166.5803, 1795.761
167.0624, 1829.891
167.5445, 1820.431
168.0266, 1841.727
168.5088, 1851.952
168.9909, 1810.208
169.4730, 1860.113
169.9551, 1871.047
170.4372, 1841.956
170.9193, 1890.129
171.4015, 1867.551
171.8836, 1870.855
172.3657, 1893.755
172.8478, 1897.175
173.3299, 1932.502
173.8120, 1938.003
174.2942, 1941.265
174.7763, 1956.799
175.2584, 1939.329
175.7405, 1984.413
176.2226, 1987.549
176.7047, 2012.232
177.1869, 2042.161
177.6690, 2024.952
178.1511, 2031.621
178.6332, 2045.397
179.1153, 2063.744
179.5974, 2079.789
180.0796, 2088.927
180.5617, 2077.915
181.0438, 2141.191
181.5259, 2192.171
182.0080, 2231.515
182.4901, 2224.374
182.9722, 2277.259
183.4544, 2306.096
183.9365, 2333.938
184.4186, 2395.272
184.9007, 2394.891
185.3828, 2455.694
185.8649, 2492.074
186.3471, 2539.639
186.8292, 2540.806
187.3113, 2593.806
187.7934, 2634.508
188.2755, 2663.575
188.7576, 2646.157
189.2398, 2688.770
189.7219, 2707.322
190.2040, 2724.887
190.6861, 2775.944
191.1682, 2765.286
191.6503, 2815.812
192.1325, 2841.920
192.6146, 2879.199
193.0967, 2892.275
193.5788, 2912.827
194.0609, 2957.591
194.5430, 2988.949
195.0252, 2999.244
195.5073, 3037.234
195.9894, 3025.731
196.4715, 3057.660
196.9536, 3108.327
197.4357, 3119.833
197.9178, 3158.267
198.4000, 3186.450
198.8821, 3173.173
199.3642, 3189.252
199.8463, 3207.899
200.3284, 3244.035
200.8105, 3305.681
201.2927, 3386.169
201.7748, 3453.448
202.2569, 3506.293
202.7390, 3549.126
203.2211, 3583.096
203.7032, 3605.618
204.1854, 3631.710
204.6675, 3662.824
205.1496, 3699.562
205.6317, 3748.573
206.1138, 3813.674
206.5959, 3884.924
207.0781, 3951.713
207.5602, 4014.093
208.0423, 4072.342
208.5244, 4127.481
209.0065, 4180.731
209.4886, 4221.581
209.9708, 4250.731
210.4529, 4267.186
210.9350, 4266.975
211.4171, 4244.101
211.8992, 4219.131
212.3813, 4198.504
212.8635, 4181.771
213.3456, 4171.519
213.8277, 4170.754
214.3098, 4174.693
214.7919, 4174.264
215.2740, 4171.670
215.7561, 4160.538
216.2383, 4135.531
216.7204, 4090.759
217.2025, 4050.177
217.6846, 4008.986
218.1667, 3973.582
218.6488, 3966.207
219.1310, 3998.512
219.6131, 4039.690
220.0952, 4069.794
220.5773, 4075.215
221.0594, 4103.857
221.5415, 4168.521
222.0237, 4261.391
222.5058, 4331.370
222.9879, 4359.929
223.4700, 4391.083
223.9521, 4460.007
224.4342, 4590.437
224.9164, 4706.296
225.3985, 4793.972
225.8806, 4855.378
226.3627, 4921.762
226.8448, 4985.731
227.3270, 5062.292
227.8091, 5168.093
228.2912, 5326.822
228.7733, 5468.322
229.2554, 5578.483
229.7375, 5656.203
230.2197, 5728.806
230.7018, 5797.888
231.1839, 5859.983
231.6660, 5914.576
232.1481, 5978.754
232.6302, 6006.263
233.1123, 5984.517
233.5945, 5910.720
234.0766, 5808.287
234.5587, 5655.266
235.0408, 5490.261
235.5229, 5367.281
236.0050, 5312.786
236.4872, 5255.790
236.9693, 5176.762
237.4514, 5070.123
237.9335, 4960.725
238.4156, 4834.410
238.8977, 4713.365
239.3799, 4638.239
239.8620, 4636.160
240.3441, 4637.161
240.8262, 4620.946
241.3083, 4590.563
241.7904, 4531.333
242.2726, 4427.982
242.7547, 4302.113
243.2368, 4200.146
243.7189, 4133.265
244.2010, 4073.159
244.6831, 4009.132
245.1653, 3941.791
245.6474, 3870.526
246.1295, 3794.774
246.6116, 3715.192
247.0937, 3632.558
247.5758, 3541.662
248.0579, 3455.213
248.5401, 3379.014
249.0222, 3318.865
249.5043, 3256.939
249.9864, 3191.762
250.4685, 3124.219
250.9506, 3057.833
251.4328, 2987.844
251.9149, 2925.472
252.3970, 2878.432
252.8791, 2854.606
253.3612, 2827.092
253.8433, 2788.914
254.3255, 2745.616
254.8076, 2722.634
255.2897, 2732.075
255.7718, 2743.271
256.2539, 2735.466
256.7360, 2699.194
257.2181, 2667.349
257.7003, 2640.787
258.1824, 2620.418
258.6645, 2613.483
259.1466, 2624.873
259.6287, 2641.608
260.1108, 2654.939
260.5930, 2664.033
261.0751, 2671.158
261.5572, 2673.799
262.0393, 2673.844
262.5214, 2687.264
263.0035, 2720.593
263.4857, 2755.983
263.9678, 2776.647
264.4499, 2775.015
264.9320, 2784.917
265.4141, 2818.222
265.8962, 2869.904
266.3784, 2894.654
266.8605, 2879.625
267.3426, 2862.231
267.8247, 2880.442
268.3068, 2943.874
268.7889, 3002.387
269.2711, 3044.804
269.7532, 3072.710
270.2353, 3096.993
270.7174, 3114.679
271.1995, 3135.006
271.6816, 3166.157
272.1638, 3208.661
272.6459, 3261.645
273.1280, 3329.618
273.6101, 3409.298
274.0922, 3475.768
274.5743, 3526.540
275.0565, 3572.109
275.5386, 3624.722
276.0207, 3685.607
276.5028, 3742.495
276.9849, 3792.335
277.4670, 3834.993
277.9492, 3878.084
278.4313, 3925.497
278.9134, 3960.030
279.3955, 3955.115
279.8776, 3908.599
280.3597, 3868.033
280.8419, 3851.216
281.3240, 3852.847
281.8061, 3840.665
282.2882, 3813.418
282.7703, 3777.914
283.2524, 3746.487
283.7346, 3718.631
284.2167, 3670.274
284.6988, 3584.306
285.1809, 3470.022
285.6630, 3379.688
286.1451, 3316.390
286.6273, 3252.243
287.1094, 3149.906
287.5915, 3013.583
288.0736, 2883.353
288.5557, 2771.990
289.0378, 2677.193
289.5199, 2590.841
290.0020, 2512.537
290.4842, 2442.043
290.9663, 2380.919
291.4484, 2328.541
291.9305, 2278.867
292.4126, 2229.744
292.8947, 2182.098
293.3769, 2137.063
293.8590, 2095.162
294.3411, 2054.448
294.8232, 2014.853
295.3053, 1975.432
295.7874, 1934.304
296.2696, 1883.123
296.7517, 1831.649
297.2338, 1803.278
297.7159, 1798.314
298.1980, 1794.998
298.6801, 1772.541
299.1623, 1736.097
299.6444, 1698.544
300.1265, 1655.335
300.6086, 1617.792
301.0907, 1605.282
301.5728, 1618.186
302.0550, 1632.907
302.5371, 1628.910
303.0192, 1613.293
303.5013, 1598.849
303.9834, 1591.269
304.4655, 1586.741
304.9477, 1582.859
305.4298, 1579.581
305.9119, 1574.466
306.3940, 1562.778
306.8761, 1548.847
307.3582, 1538.908
307.8404, 1534.253
308.3225, 1535.182
308.8046, 1546.390
309.2867, 1567.121
309.7688, 1582.292
310.2509, 1556.412
310.7331, 1581.082
311.2152, 1593.954
311.6973, 1595.690
312.1794, 1551.437
312.6615, 1567.710
313.1436, 1560.425
313.6258, 1552.651
314.1079, 1578.867
314.5900, 1543.867
315.0721, 1570.548
315.5542, 1573.304
316.0363, 1587.736
316.5185, 1578.463
317.0006, 1577.163
317.4827, 1600.573
317.9648, 1611.076
318.4469, 1601.008
318.9290, 1619.140
319.4112, 1588.277
319.8933, 1601.343
320.3754, 1633.646
320.8575, 1627.287
321.3396, 1648.352
321.8217, 1659.660
322.3038, 1624.861
322.7859, 1671.612
323.2681, 1683.811
323.7502, 1660.515
324.2323, 1707.712
324.7144, 1745.655
325.1965, 1783.307
325.6786, 1831.573
326.1608, 1871.443
326.6429, 1891.922
327.1250, 1859.159
327.6071, 1852.015
328.0892, 1884.082
328.5714, 1947.456
329.0535, 2002.256
329.5356, 2045.903
330.0177, 2083.609
330.4998, 2118.933
330.9819, 2153.612
331.4641, 2181.448
331.9462, 2194.683
332.4283, 2201.397
332.9104, 2230.750
333.3925, 2291.566
333.8746, 2359.250
334.3568, 2423.261
334.8389, 2483.332
335.3210, 2538.404
335.8031, 2587.802
336.2852, 2632.568
336.7673, 2677.581
337.2495, 2724.468
337.7316, 2765.532
338.2137, 2798.048
338.6958, 2822.541
339.1779, 2832.975
339.6600, 2825.313
340.1422, 2809.192
340.6243, 2804.552
341.1064, 2812.769
341.5885, 2816.083
342.0706, 2804.485
342.5527, 2779.245
343.0349, 2752.960
343.5170, 2726.014
343.9991, 2697.067
344.4812, 2656.067
344.9633, 2605.683
345.4454, 2571.961
345.9276, 2588.073
346.4097, 2629.719
346.8918, 2624.370
347.3739, 2566.836
347.8560, 2490.155
348.3381, 2418.282
348.8203, 2354.167
349.3024, 2309.248
349.7845, 2304.878
350.2666, 2316.212
350.7487, 2306.087
351.2308, 2273.672
351.7130, 2238.745
352.1951, 2216.790
352.6772, 2203.775
353.1593, 2192.762
353.6414, 2177.121
354.1235, 2165.044
354.6056, 2165.174
355.0877, 2176.804
355.5699, 2190.837
356.0520, 2206.951
356.5341, 2220.522
357.0162, 2226.349
357.4983, 2207.938
357.9804, 2195.615
358.4626, 2211.792
358.9447, 2250.834
359.4268, 2280.288
359.9089, 2272.489
360.3910, 2258.342
360.8731, 2260.706
361.3553, 2302.204
361.8374, 2339.136
362.3195, 2362.674
362.8016, 2373.696
363.2837, 2375.300
363.7658, 2379.392
364.2480, 2365.914
364.7301, 2322.838
365.2122, 2215.604
365.6943, 2129.089
366.1764, 2077.656
366.6585, 2049.680
367.1407, 2017.172
367.6228, 1974.429
368.1049, 1932.820
368.5870, 1894.202
369.0691, 1853.141
369.5512, 1830.136
370.0334, 1834.722
370.5155, 1852.382
370.9976, 1834.747
371.4797, 1862.844
371.9618, 1878.931
372.4439, 1883.752
372.9261, 1838.101
373.4082, 1861.803
373.8903, 1860.266
374.3724, 1859.444
374.8545, 1898.122
375.3366, 1869.196
375.8188, 1910.927
376.3009, 1927.004
376.7830, 1957.478
377.2651, 1962.548
377.7472, 1977.850
378.2293, 2022.217
378.7115, 2053.328
379.1936, 2062.558
379.6757, 2104.775
380.1578, 2118.019
380.6399, 2151.702
381.1220, 2202.235
381.6042, 2269.388
382.0863, 2349.207
382.5684, 2438.983
383.0505, 2539.431
383.5326, 2648.278
384.0147, 2759.824
384.4969, 2888.532
384.9790, 3053.254
385.4611, 3248.284
385.9432, 3461.927
386.4253, 3676.667
386.9074, 3907.383
387.3895, 4187.409
387.8716, 4543.811
388.3538, 4876.687
388.8359, 5143.036
389.3180, 5337.349
389.8001, 5438.915
390.2822, 5424.551
390.7643, 5328.465
391.2465, 5159.211
391.7286, 4907.332
392.2107, 4633.900
392.6928, 4338.119
393.1749, 4038.901
393.6570, 3763.350
394.1392, 3505.157
394.6213, 3280.516
395.1034, 3090.780
395.5855, 2935.313
396.0676, 2826.885
396.5497, 2799.946
397.0319, 2801.310
397.5140, 2787.291
397.9961, 2726.257
398.4782, 2691.685
398.9603, 2700.868
399.4424, 2747.373
399.9246, 2779.822
400.4067, 2784.856
400.8888, 2794.042
401.3709, 2824.039
401.8530, 2872.885
402.3351, 2950.198
402.8173, 3066.638
403.2994, 3205.531
403.7815, 3318.789
404.2636, 3396.912
404.7457, 3488.694
405.2278, 3629.792
405.7100, 3818.316
406.1921, 3986.581
406.6742, 4133.182
407.1563, 4259.609
407.6384, 4383.337
408.1205, 4500.360
408.6027, 4564.025
409.0848, 4553.899
409.5669, 4475.600
410.0490, 4328.026
410.5311, 4109.602
411.0132, 3873.213
411.4954, 3669.219
411.9775, 3485.172
412.4596, 3288.004
412.9417, 3041.979
413.4238, 2801.194
413.9059, 2613.380
414.3881, 2476.197
414.8702, 2363.354
415.3523, 2275.798
415.8344, 2198.375
416.3165, 2116.080
416.7986, 2021.063
417.2808, 1928.958
417.7629, 1838.954
418.2450, 1757.444
418.7271, 1703.982
419.2092, 1709.208
419.6913, 1724.790
420.1734, 1726.828
420.6555, 1705.926
421.1377, 1690.711
421.6198, 1691.640
422.1019, 1699.022
422.5840, 1698.922
423.0661, 1684.564
423.5482, 1669.645
424.0304, 1654.841
424.5125, 1639.160
424.9946, 1634.276
425.4767, 1643.934
425.9588, 1660.358
426.4409, 1677.094
426.9231, 1694.215
427.4052, 1712.034
427.8873, 1733.115
428.3694, 1754.674
428.8515, 1760.783
429.3336, 1746.208
429.8158, 1737.220
430.2979, 1759.522
430.7800, 1810.943
431.2621, 1839.025
431.7442, 1834.597
432.2263, 1814.255
432.7085, 1800.826
433.1906, 1794.392
433.6727, 1795.863
434.1548, 1807.314
434.6369, 1826.538
435.1190, 1848.800
435.6012, 1873.679
436.0833, 1904.571
436.5654, 1952.942
437.0475, 2008.708
437.5296, 2053.229
438.0117, 2066.437
438.4939, 2076.597
438.9760, 2100.047
439.4581, 2136.982
439.9402, 2188.616
440.4223, 2261.794
440.9044, 2346.803
441.3866, 2435.355
441.8687, 2528.908
442.3508, 2622.618
442.8329, 2706.635
443.3150, 2788.771
443.7971, 2888.823
444.2793, 3015.914
444.7614, 3156.645
445.2435, 3303.965
445.7256, 3450.708
446.2077, 3621.978
446.6898, 3823.261
447.1720, 4045.364
447.6541, 4283.674
448.1362, 4554.068
448.6183, 4807.354
449.1004, 5028.693
449.5826, 5220.626
450.0647, 5439.342
450.5468, 5705.140
451.0289, 5943.555
451.5110, 6093.168
451.9931, 6155.136
452.4753, 6152.357
452.9574, 6086.634
453.4395, 5960.471
453.9216, 5765.703
454.4037, 5504.554
454.8858, 5223.314
455.3679, 4938.347
455.8500, 4653.232
456.3322, 4361.834
456.8143, 4061.407
457.2964, 3779.511
457.7785, 3535.671
458.2606, 3329.830
458.7427, 3158.698
459.2249, 3038.900
459.7070, 2941.636
460.1891, 2851.650
460.6712, 2768.463
461.1533, 2691.411
461.6354, 2615.843
462.1176, 2548.511
462.5997, 2496.041
463.0818, 2476.737
463.5639, 2450.437
464.0460, 2407.226
464.5281, 2350.987
465.0103, 2292.813
465.4924, 2229.625
465.9745, 2168.991
466.4566, 2114.055
466.9387, 2065.806
467.4208, 2019.142
467.9030, 1969.366
468.3851, 1924.999
468.8672, 1898.945
469.3493, 1897.071
469.8314, 1892.934
470.3135, 1878.406
470.7957, 1856.701
471.2778, 1841.562
471.7599, 1832.175
472.2420, 1834.927
472.7241, 1863.590
473.2062, 1911.922
473.6884, 1945.356
474.1705, 1954.143
474.6526, 1957.978
475.1347, 1985.469
475.6168, 2032.130
476.0989, 2080.928
476.5811, 2125.813
477.0632, 2166.453
477.5453, 2197.168
478.0274, 2216.761
478.5095, 2248.259
478.9916, 2311.119
479.4738, 2392.090
479.9559, 2475.979
480.4380, 2551.143
480.9201, 2635.726
481.4022, 2742.714
481.8843, 2867.427
482.3665, 2983.575
482.8486, 3055.761
483.3307, 3142.155
483.8128, 3274.341
484.2949, 3487.846
484.7770, 3677.633
485.2592, 3834.242
485.7413, 3970.226
486.2234, 4104.028
486.7055, 4231.512
487.1876, 4368.876
487.6697, 4534.365
488.1518, 4722.847
488.6339, 4850.989
489.1161, 4914.573
489.5982, 4933.658
490.0803, 4921.021
490.5624, 4877.247
491.0445, 4811.928
491.5266, 4729.094
492.0088, 4620.209
492.4909, 4457.644
492.9730, 4252.234
493.4551, 4040.390
493.9372, 3836.466
494.4193, 3642.669
494.9015, 3470.335
495.3836, 3320.334
495.8657, 3169.760
496.3478, 2984.833
496.8299, 2796.173
497.3120, 2634.890
497.7942, 2522.377
498.2763, 2430.269
498.7584, 2358.249
499.2405, 2301.753
499.7226, 2235.174
500.2047, 2131.615
500.6869, 2033.826
501.1690, 1961.270
501.6511, 1919.546
502.1332, 1890.905
502.6153, 1889.116
503.0974, 1891.466
503.5796, 1859.133
504.0617, 1773.661
504.5438, 1706.233
505.0259, 1684.148
505.5080, 1697.532
505.9901, 1678.967
506.4723, 1623.136
506.9544, 1565.543
507.4365, 1539.078
507.9186, 1537.355
508.4007, 1526.561
508.8828, 1499.124
509.3650, 1469.108
509.8471, 1453.294
510.3292, 1450.225
510.8113, 1455.326
511.2934, 1480.981
511.7755, 1504.480
512.2576, 1499.452
512.7397, 1464.789
513.2219, 1431.573
513.7040, 1420.502
514.1861, 1395.042
514.6682, 1409.569
515.1503, 1413.132
515.6324, 1406.394
516.1146, 1354.499
516.5967, 1363.968
517.0788, 1350.712
517.5609, 1337.802
518.0430, 1359.716
518.5251, 1321.249
519.0073, 1345.297
519.4894, 1346.255
519.9715, 1359.724
520.4536, 1350.321
520.9357, 1349.727
521.4178, 1360.237
521.9000, 1340.310
522.3821, 1367.980
522.8642, 1381.817
523.3463, 1382.563
523.8284, 1331.012
524.3105, 1346.992
524.7927, 1335.908
525.2748, 1323.716
525.7569, 1349.200
526.2390, 1305.256
526.7211, 1330.143
527.2032, 1327.554
527.6854, 1337.539
528.1675, 1320.295
528.6496, 1311.461
529.1317, 1329.866
529.6138, 1333.189
530.0959, 1312.810
530.5781, 1323.594
531.0602, 1267.766
531.5423, 1291.297
532.0244, 1302.697
532.5065, 1302.627
532.9886, 1256.236
533.4708, 1270.037
533.9529, 1259.949
534.4350, 1249.039
534.9171, 1271.786
535.3992, 1232.985
535.8813, 1255.532
536.3635, 1253.821
536.8456, 1263.454
537.3277, 1249.047
537.8098, 1242.282
538.2919, 1259.896
538.7740, 1264.268
539.2562, 1247.737
539.7383, 1259.074
540.2204, 1221.082
540.7025, 1226.687
541.1846, 1251.197
541.6667, 1236.711
542.1489, 1249.318
542.6310, 1251.834
543.1131, 1207.911
543.5952, 1245.206
544.0773, 1247.613
544.5594, 1214.195
545.0416, 1249.209
545.5237, 1221.083
546.0058, 1215.720
546.4879, 1227.526
546.9700, 1194.740
547.4521, 1223.067
547.9343, 1239.097
548.4164, 1243.491
548.8985, 1201.400
549.3806, 1219.335
549.8627, 1213.215
550.3448, 1206.107
550.8270, 1232.491
551.3091, 1197.161
551.7912, 1223.014
552.2733, 1224.444
552.7554, 1237.051
553.2375, 1225.454
553.7197, 1221.333
554.2018, 1241.424
554.6839, 1248.109
555.1660, 1233.725
555.6481, 1247.043
556.1302, 1210.868
556.6124, 1218.124
557.0945, 1244.118
557.5766, 1230.951
558.0587, 1244.712
558.5408, 1248.217
559.0229, 1205.117
559.5051, 1243.068
559.9872, 1245.968
560.4693, 1212.875
560.9514, 1209.906
561.4335, 1203.592
561.9156, 1207.801
562.3978, 1216.575
562.8799, 1233.284
563.3620, 1253.554
563.8441, 1255.157
564.3262, 1234.198
564.8083, 1213.123
565.2905, 1205.043
565.7726, 1208.321
566.2547, 1213.337
566.7368, 1219.953
567.2189, 1226.605
567.7010, 1233.627
568.1831, 1239.222
568.6652, 1239.116
569.1473, 1227.146
569.6295, 1214.851
570.1116, 1212.769
570.5937, 1218.125
571.0758, 1222.410
571.5579, 1218.937
572.0400, 1215.993
572.5222, 1219.271
573.0043, 1231.725
573.4864, 1238.172
573.9685, 1234.502
574.4506, 1226.244
574.9327, 1216.606
575.4149, 1201.361
575.8970, 1195.861
576.3791, 1205.216
576.8612, 1222.616
577.3433, 1232.889
577.8254, 1235.821
578.3076, 1232.864
578.7897, 1218.734
579.2718, 1199.090
579.7539, 1198.943
580.2360, 1218.407
580.7181, 1236.323
581.2003, 1230.116
581.6824, 1212.531
582.1645, 1203.811
582.6466, 1212.920
583.1287, 1220.890
583.6108, 1209.035
584.0930, 1189.331
584.5751, 1182.644
585.0572, 1212.246
585.5393, 1238.700
586.0214, 1249.918
586.5035, 1245.359
586.9857, 1234.777
587.4678, 1213.518
587.9499, 1192.032
588.4320, 1173.933
588.9141, 1156.433
589.3962, 1157.217
589.8784, 1182.261
590.3605, 1214.186
590.8426, 1230.169
591.3247, 1230.747
591.8068, 1221.823
592.2889, 1196.130
592.7711, 1171.538
593.2532, 1190.899
593.7353, 1243.253
594.2174, 1276.259
594.6995, 1227.705
595.1816, 1165.463
595.6638, 1157.986
596.1459, 1220.622
596.6280, 1263.576
597.1101, 1229.816
597.5922, 1172.383
598.0743, 1139.781
598.5565, 1166.924
599.0386, 1182.715
599.5207, 1177.937
600.0028, 1160.820
600.4849, 1149.034
600.9670, 1140.703
601.4492, 1144.183
601.9313, 1171.885
602.4134, 1216.672
602.8955, 1218.118
603.3776, 1172.854
603.8597, 1127.874
604.3419, 1126.471
604.8240, 1154.100
605.3061, 1177.438
605.7882, 1191.653
606.2703, 1199.584
606.7524, 1198.145
607.2346, 1192.990
607.7167, 1193.045
608.1988, 1207.468
608.6809, 1221.843
609.1630, 1235.988
609.6451, 1247.530
610.1273, 1242.285
610.6094, 1189.756
611.0915, 1148.783
611.5736, 1144.680
612.0557, 1186.235
612.5378, 1214.784
613.0200, 1229.031
613.5021, 1232.747
613.9842, 1226.308
614.4663, 1210.089
614.9484, 1195.914
615.4305, 1184.126
615.9127, 1178.327
616.3948, 1190.627
616.8769, 1214.979
617.3590, 1231.152
617.8411, 1218.970
618.3232, 1201.471
618.8054, 1199.930
619.2875, 1213.002
619.7696, 1224.749
620.2517, 1236.717
620.7338, 1239.498
621.2159, 1224.359
621.6981, 1174.777
