##NAMES=Bigcreekite
##RRUFFID=R060432
##IDEAL CHEMISTRY=BaSi_2_O_5_&#183;4H_2_O
##LOCALITY=Trumbull Peak, Mariposa County, California, USA
##OWNER=RRUFF
##SOURCE=Michael Scott
##DESCRIPTION=White veinlets with distinctive cleavage, running through sanbornite
##STATUS=The identification of this mineral is confirmed by single-crystal X-ray diffraction and chemical analysis.
##URL=rruff.info/R060432
##MEASURED CHEMISTRY=(Ba_0.99_Na_0.01_)_Σ=1_(Si_1.95_Fe^3+^_0.05_)_2_(O_4.94_(OH)_0.06_)_Σ=5_·4H_2_O
94.87177, 1553.212
95.35388, 1622.312
95.83600, 1751.850
96.31812, 1894.072
96.80023, 2048.515
97.28235, 2211.278
97.76447, 2374.364
98.24658, 2533.053
98.72870, 2688.707
99.21082, 2849.528
99.69293, 3034.838
100.1750, 3212.414
100.6572, 3348.907
101.1393, 3433.739
101.6214, 3499.008
102.1035, 3558.182
102.5856, 3648.963
103.0677, 3720.544
103.5499, 3757.264
104.0320, 3764.374
104.5141, 3752.958
104.9962, 3716.382
105.4783, 3670.803
105.9604, 3627.479
106.4426, 3584.812
106.9247, 3536.192
107.4068, 3469.532
107.8889, 3377.323
108.3710, 3306.038
108.8531, 3251.521
109.3353, 3220.324
109.8174, 3219.105
110.2995, 3248.735
110.7816, 3302.577
111.2637, 3368.421
111.7458, 3433.051
112.2280, 3532.974
112.7101, 3684.186
113.1922, 3864.182
113.6743, 4059.265
114.1564, 4267.345
114.6385, 4474.889
115.1207, 4585.191
115.6028, 4585.126
116.0849, 4522.019
116.5670, 4384.357
117.0491, 4187.582
117.5313, 3972.483
118.0134, 3762.958
118.4955, 3562.125
118.9776, 3384.594
119.4597, 3230.054
119.9418, 3098.495
120.4240, 2992.615
120.9061, 2913.692
121.3882, 2852.435
121.8703, 2802.743
122.3524, 2762.762
122.8345, 2732.049
123.3167, 2704.496
123.7988, 2685.385
124.2809, 2691.819
124.7630, 2736.051
125.2451, 2798.962
125.7272, 2860.623
126.2094, 2920.535
126.6915, 2984.576
127.1736, 3053.346
127.6557, 3125.730
128.1378, 3216.873
128.6199, 3356.332
129.1021, 3502.337
129.5842, 3630.154
130.0663, 3733.694
130.5484, 3817.507
131.0305, 3893.527
131.5126, 3975.402
131.9948, 4020.491
132.4769, 4027.129
132.9590, 3998.707
133.4411, 3934.166
133.9232, 3830.686
134.4053, 3694.149
134.8875, 3566.178
135.3696, 3454.257
135.8517, 3343.540
136.3338, 3232.077
136.8159, 3120.029
137.2980, 3008.046
137.7802, 2896.487
138.2623, 2784.505
138.7444, 2683.989
139.2265, 2595.573
139.7086, 2516.076
140.1907, 2447.374
140.6729, 2388.194
141.1550, 2332.132
141.6371, 2271.070
142.1192, 2202.349
142.6013, 2140.156
143.0834, 2084.720
143.5656, 2036.380
144.0477, 1996.258
144.5298, 1964.726
145.0119, 1939.856
145.4940, 1918.276
145.9761, 1898.517
146.4583, 1886.215
146.9404, 1891.747
147.4225, 1908.548
147.9046, 1912.734
148.3867, 1891.303
148.8689, 1858.191
149.3510, 1831.585
149.8331, 1811.525
150.3152, 1798.655
150.7973, 1797.642
151.2794, 1810.083
151.7616, 1817.244
152.2437, 1804.097
152.7258, 1785.599
153.2079, 1775.005
153.6900, 1778.312
154.1721, 1786.063
154.6543, 1779.266
155.1364, 1747.529
155.6185, 1723.518
156.1006, 1708.936
156.5827, 1727.280
157.0648, 1737.912
157.5470, 1741.247
158.0291, 1715.429
158.5112, 1727.256
158.9933, 1723.996
159.4754, 1720.118
159.9575, 1737.244
160.4397, 1715.666
160.9218, 1732.458
161.4039, 1733.934
161.8860, 1742.420
162.3681, 1735.726
162.8502, 1733.720
163.3324, 1746.899
163.8145, 1751.671
164.2966, 1743.229
164.7787, 1752.161
165.2608, 1730.053
165.7429, 1751.911
166.2251, 1751.898
166.7072, 1751.266
167.1893, 1771.638
167.6714, 1753.306
168.1535, 1773.345
168.6356, 1778.067
169.1178, 1789.799
169.5999, 1786.351
170.0820, 1775.557
170.5641, 1782.688
171.0462, 1780.427
171.5283, 1790.170
172.0105, 1794.283
172.4926, 1793.181
172.9747, 1765.009
173.4568, 1776.563
173.9389, 1775.113
174.4210, 1775.126
174.9032, 1798.225
175.3853, 1784.703
175.8674, 1811.632
176.3495, 1825.327
176.8316, 1848.114
177.3137, 1857.802
177.7959, 1874.266
178.2780, 1891.769
178.7601, 1908.299
179.2422, 1928.406
179.7243, 1948.570
180.2064, 1974.402
180.6886, 1999.181
181.1707, 2021.480
181.6528, 2044.185
182.1349, 2069.471
182.6170, 2096.902
183.0991, 2129.219
183.5813, 2165.701
184.0634, 2213.519
184.5455, 2253.625
185.0276, 2286.434
185.5097, 2290.090
185.9918, 2331.391
186.4740, 2357.612
186.9561, 2383.208
187.4382, 2429.807
187.9203, 2437.703
188.4024, 2483.969
188.8845, 2514.919
189.3667, 2552.885
189.8488, 2575.665
190.3309, 2603.134
190.8130, 2645.787
191.2951, 2680.032
191.7772, 2701.065
192.2594, 2739.476
192.7415, 2775.922
193.2236, 2826.480
193.7057, 2882.660
194.1878, 2959.165
194.6699, 3028.099
195.1521, 3078.604
195.6342, 3115.168
196.1163, 3148.534
196.5984, 3186.863
197.0805, 3230.288
197.5626, 3279.451
198.0448, 3340.344
198.5269, 3401.080
199.0090, 3455.198
199.4911, 3504.297
199.9732, 3554.631
200.4553, 3612.077
200.9375, 3677.305
201.4196, 3749.194
201.9017, 3837.377
202.3838, 3923.531
202.8659, 3990.516
203.3480, 4039.613
203.8302, 4092.260
204.3123, 4175.563
204.7944, 4307.132
205.2765, 4418.623
205.7586, 4497.495
206.2407, 4565.688
206.7229, 4641.870
207.2050, 4729.544
207.6871, 4817.840
208.1692, 4893.422
208.6513, 4956.192
209.1334, 5001.634
209.6156, 5022.017
210.0977, 5028.131
210.5798, 5032.249
211.0619, 5037.929
211.5440, 5038.627
212.0261, 5021.658
212.5083, 4983.224
212.9904, 4943.554
213.4725, 4907.190
213.9546, 4871.369
214.4367, 4832.287
214.9188, 4789.648
215.4010, 4741.549
215.8831, 4679.206
216.3652, 4596.987
216.8473, 4528.466
217.3294, 4496.681
217.8115, 4486.948
218.2937, 4462.741
218.7758, 4404.666
219.2579, 4340.351
219.7400, 4314.061
220.2221, 4329.923
220.7042, 4354.760
221.1864, 4372.727
221.6685, 4386.464
222.1506, 4407.449
222.6327, 4444.111
223.1148, 4484.584
223.5969, 4510.902
224.0791, 4519.761
224.5612, 4529.189
225.0433, 4558.811
225.5254, 4604.783
226.0075, 4632.577
226.4896, 4625.917
226.9718, 4598.554
227.4539, 4568.176
227.9360, 4535.785
228.4181, 4499.837
228.9002, 4458.902
229.3823, 4413.130
229.8645, 4363.351
230.3466, 4313.450
230.8287, 4256.438
231.3108, 4183.680
231.7929, 4091.782
232.2750, 3996.335
232.7572, 3916.470
233.2393, 3854.509
233.7214, 3785.194
234.2035, 3687.808
234.6856, 3587.383
235.1677, 3504.298
235.6499, 3444.840
236.1320, 3393.504
236.6141, 3331.897
237.0962, 3258.262
237.5783, 3184.933
238.0604, 3108.603
238.5426, 3037.419
239.0247, 2979.882
239.5068, 2939.435
239.9889, 2904.183
240.4710, 2855.344
240.9531, 2785.908
241.4353, 2727.493
241.9174, 2692.173
242.3995, 2668.027
242.8816, 2648.877
243.3637, 2632.990
243.8458, 2617.838
244.3280, 2600.852
244.8101, 2584.778
245.2922, 2558.494
245.7743, 2506.131
246.2564, 2451.064
246.7385, 2412.664
247.2207, 2397.393
247.7028, 2394.456
248.1849, 2373.723
248.6670, 2378.674
249.1491, 2377.069
249.6312, 2369.323
250.1134, 2333.577
250.5955, 2336.635
251.0776, 2325.762
251.5597, 2315.426
252.0418, 2327.249
252.5239, 2301.525
253.0061, 2315.326
253.4882, 2314.968
253.9703, 2322.774
254.4524, 2316.558
254.9345, 2316.185
255.4166, 2332.153
255.8988, 2340.870
256.3809, 2337.529
256.8630, 2352.717
257.3451, 2333.674
257.8272, 2328.199
258.3094, 2330.446
258.7915, 2343.861
259.2736, 2368.289
259.7557, 2406.199
260.2378, 2472.119
260.7199, 2522.547
261.2021, 2553.578
261.6842, 2571.247
262.1663, 2572.541
262.6484, 2558.565
263.1305, 2546.352
263.6126, 2570.975
264.0948, 2668.384
264.5769, 2732.205
265.0590, 2727.969
265.5411, 2711.444
266.0232, 2728.799
266.5053, 2791.694
266.9875, 2873.956
267.4696, 2931.300
267.9517, 2946.398
268.4338, 2969.903
268.9159, 3000.101
269.3980, 3039.630
269.8802, 3090.812
270.3623, 3153.905
270.8444, 3227.531
271.3265, 3310.082
271.8086, 3409.624
272.2907, 3502.126
272.7729, 3582.878
273.2550, 3660.923
273.7371, 3742.399
274.2192, 3828.699
274.7013, 3916.690
275.1834, 4003.451
275.6656, 4090.652
276.1477, 4171.063
276.6298, 4249.812
277.1119, 4319.250
277.5940, 4371.195
278.0761, 4405.974
278.5583, 4432.946
279.0404, 4464.842
279.5225, 4508.064
280.0046, 4537.143
280.4867, 4560.611
280.9688, 4566.599
281.4510, 4544.825
281.9331, 4496.335
282.4152, 4431.937
282.8973, 4363.483
283.3794, 4290.885
283.8615, 4213.771
284.3437, 4136.834
284.8258, 4051.921
285.3079, 3951.167
285.7900, 3837.051
286.2721, 3718.791
286.7542, 3606.787
287.2364, 3501.941
287.7185, 3393.891
288.2006, 3276.419
288.6827, 3162.101
289.1648, 3059.438
289.6469, 2965.285
290.1291, 2867.943
290.6112, 2754.743
291.0933, 2622.710
291.5754, 2513.455
292.0575, 2448.666
292.5396, 2385.014
293.0218, 2304.195
293.5039, 2212.728
293.9860, 2130.295
294.4681, 2075.031
294.9502, 2046.289
295.4323, 1994.300
295.9145, 1877.130
296.3966, 1778.748
296.8787, 1729.740
297.3608, 1714.058
297.8429, 1701.140
298.3250, 1671.069
298.8072, 1625.908
299.2893, 1583.344
299.7714, 1550.014
300.2535, 1511.666
300.7356, 1455.518
301.2177, 1394.774
301.6999, 1348.725
302.1820, 1329.290
302.6641, 1329.864
303.1462, 1324.349
303.6283, 1307.231
304.1104, 1290.864
304.5926, 1274.929
305.0747, 1261.554
305.5568, 1254.841
306.0389, 1257.000
306.5210, 1262.599
307.0031, 1256.106
307.4853, 1222.854
307.9674, 1203.025
308.4495, 1214.531
308.9316, 1233.336
309.4137, 1235.939
309.8958, 1214.339
310.3780, 1181.697
310.8601, 1161.607
311.3422, 1160.439
311.8243, 1157.507
312.3064, 1150.418
312.7885, 1141.208
313.2707, 1129.659
313.7528, 1116.220
314.2349, 1104.458
314.7170, 1101.368
315.1991, 1112.118
315.6812, 1113.014
316.1634, 1092.066
316.6455, 1068.741
317.1276, 1053.704
317.6097, 1047.604
318.0918, 1044.045
318.5739, 1035.539
319.0561, 1021.027
319.5382, 1011.133
320.0203, 1016.261
320.5024, 1017.144
320.9845, 1003.092
321.4666, 976.3756
321.9488, 946.9837
322.4309, 918.9313
322.9130, 892.7827
323.3951, 882.9154
323.8772, 907.9307
324.3593, 926.3356
324.8415, 909.3884
325.3236, 872.1923
325.8057, 849.9008
326.2878, 873.1138
326.7699, 925.9956
327.2520, 946.4655
327.7342, 916.5065
328.2163, 886.5871
328.6984, 881.6289
329.1805, 890.0452
329.6626, 895.0233
330.1447, 888.7202
330.6269, 876.0857
331.1090, 866.9610
331.5911, 863.0887
332.0732, 856.8234
332.5553, 838.4288
333.0374, 818.4566
333.5196, 808.2467
334.0017, 811.8619
334.4838, 823.1698
334.9659, 837.4775
335.4480, 855.2190
335.9301, 869.5340
336.4123, 878.2088
336.8944, 881.8274
337.3765, 880.0148
337.8586, 871.6409
338.3407, 863.4838
338.8228, 862.5645
339.3050, 867.4802
339.7871, 868.7154
340.2692, 863.9094
340.7513, 854.2611
341.2334, 839.7475
341.7155, 820.1424
342.1977, 803.5560
342.6798, 794.0238
343.1619, 790.3463
343.6440, 790.1842
344.1261, 793.6894
344.6082, 799.2321
345.0904, 804.7540
345.5725, 810.4063
346.0546, 819.0691
346.5367, 838.8412
347.0188, 858.6360
347.5009, 863.9211
347.9831, 853.0225
348.4652, 834.3341
348.9473, 810.4260
349.4294, 783.0250
349.9115, 765.9811
350.3936, 766.7201
350.8758, 772.7714
351.3579, 777.3529
351.8400, 779.9193
352.3221, 778.6201
352.8042, 770.4529
353.2863, 758.1168
353.7685, 754.4151
354.2506, 768.9928
354.7327, 780.5497
355.2148, 771.8212
355.6969, 754.7916
356.1790, 758.5831
356.6612, 798.9918
357.1433, 856.5748
357.6254, 882.4404
358.1075, 857.0387
358.5896, 832.7214
359.0717, 811.1490
359.5539, 795.4423
360.0360, 792.1333
360.5181, 802.4543
361.0002, 816.1045
361.4823, 816.8645
361.9644, 792.9247
362.4466, 786.1570
362.9287, 812.6602
363.4108, 842.7246
363.8929, 855.8172
364.3750, 851.2612
364.8571, 840.9835
365.3393, 836.0524
365.8214, 836.9449
366.3035, 839.3036
366.7856, 842.1216
367.2677, 847.2415
367.7498, 864.1918
368.2320, 883.8270
368.7141, 885.3418
369.1962, 851.6799
369.6783, 792.1200
370.1604, 762.9822
370.6425, 792.5831
371.1247, 816.8481
371.6068, 820.0455
372.0889, 813.4972
372.5710, 809.6303
373.0531, 813.4183
373.5352, 823.4184
374.0174, 840.4305
374.4995, 874.2802
374.9816, 888.3272
375.4637, 862.2442
375.9458, 825.1899
376.4279, 793.7848
376.9101, 771.6587
377.3922, 757.1220
377.8743, 750.2510
378.3564, 751.2382
378.8385, 752.4182
379.3206, 748.0330
379.8028, 749.7799
380.2849, 768.4713
380.7670, 800.1971
381.2491, 829.4622
381.7312, 846.3306
382.2133, 853.6010
382.6955, 857.8125
383.1776, 856.9004
383.6597, 858.6413
384.1418, 863.3478
384.6239, 874.4578
385.1060, 901.1404
385.5882, 956.8058
386.0703, 1018.948
386.5524, 1064.514
387.0345, 1093.845
387.5166, 1112.738
387.9987, 1115.933
388.4809, 1115.154
388.9630, 1136.057
389.4451, 1191.440
389.9272, 1240.619
390.4093, 1263.168
390.8914, 1264.956
391.3736, 1258.905
391.8557, 1248.751
392.3378, 1232.117
392.8199, 1201.678
393.3020, 1151.398
393.7841, 1114.549
394.2663, 1103.137
394.7484, 1102.473
395.2305, 1101.846
395.7126, 1098.980
396.1947, 1090.464
396.6768, 1069.211
397.1590, 1032.573
397.6411, 1029.067
398.1232, 1084.503
398.6053, 1141.653
399.0874, 1174.161
399.5695, 1189.756
400.0517, 1206.522
400.5338, 1234.003
401.0159, 1273.612
401.4980, 1331.767
401.9801, 1433.255
402.4622, 1522.138
402.9444, 1582.874
403.4265, 1635.034
403.9086, 1700.154
404.3907, 1783.852
404.8728, 1873.275
405.3549, 1943.669
405.8371, 1978.689
406.3192, 2047.592
406.8013, 2200.996
407.2834, 2348.253
407.7655, 2449.233
408.2477, 2502.761
408.7298, 2526.359
409.2119, 2536.760
409.6940, 2530.719
410.1761, 2478.919
410.6582, 2361.121
411.1404, 2229.685
411.6225, 2105.931
412.1046, 1986.490
412.5867, 1866.131
413.0688, 1738.069
413.5509, 1614.068
414.0331, 1511.775
414.5152, 1432.057
414.9973, 1359.434
415.4794, 1288.796
415.9615, 1222.237
416.4436, 1161.125
416.9258, 1104.462
417.4079, 1057.402
417.8900, 1022.955
418.3721, 999.9667
418.8542, 990.3803
419.3363, 998.7908
419.8185, 1004.149
420.3006, 975.6003
420.7827, 911.6140
421.2648, 868.1057
421.7469, 866.9537
422.2290, 877.2580
422.7112, 874.0623
423.1933, 857.7142
423.6754, 840.6511
424.1575, 830.1225
424.6396, 826.2881
425.1217, 830.6557
425.6039, 851.1100
426.0860, 869.1029
426.5681, 885.0456
427.0502, 894.5737
427.5323, 886.9702
428.0144, 858.7558
428.4966, 826.3032
428.9787, 821.2415
429.4608, 864.1559
429.9429, 893.6818
430.4250, 902.8911
430.9071, 906.6952
431.3893, 917.0628
431.8714, 932.0651
432.3535, 938.4935
432.8356, 921.0488
433.3177, 881.6879
433.7998, 856.4190
434.2820, 845.9894
434.7641, 850.3307
435.2462, 876.2277
435.7283, 913.1226
436.2104, 945.5723
436.6925, 966.4441
437.1747, 982.9493
437.6568, 1007.881
438.1389, 1042.670
438.6210, 1069.001
439.1031, 1066.193
439.5852, 1065.574
440.0674, 1104.312
440.5495, 1186.716
441.0316, 1266.927
441.5137, 1317.772
441.9958, 1349.346
442.4779, 1377.234
442.9601, 1401.385
443.4422, 1436.832
443.9243, 1500.216
444.4064, 1590.410
444.8885, 1681.645
445.3706, 1766.654
445.8528, 1857.898
446.3349, 1960.149
446.8170, 2075.023
447.2991, 2208.995
447.7812, 2368.409
448.2633, 2541.018
448.7455, 2688.892
449.2276, 2780.722
449.7097, 2888.958
450.1918, 3045.469
450.6739, 3202.360
451.1560, 3321.542
451.6382, 3393.890
452.1203, 3426.746
452.6024, 3428.377
453.0845, 3389.348
453.5666, 3332.410
454.0487, 3207.288
454.5309, 3058.389
455.0130, 2883.054
455.4951, 2692.652
455.9772, 2503.035
456.4594, 2321.177
456.9415, 2150.135
457.4236, 2002.518
457.9057, 1885.631
458.3878, 1765.529
458.8699, 1606.949
459.3521, 1456.472
459.8342, 1358.327
460.3163, 1318.866
460.7984, 1290.843
461.2805, 1238.851
461.7626, 1172.523
462.2448, 1124.437
462.7269, 1102.882
463.2090, 1084.428
463.6911, 1043.055
464.1732, 985.2905
464.6553, 946.3020
465.1375, 949.0609
465.6196, 955.4117
466.1017, 937.5829
466.5838, 900.9445
467.0659, 863.2756
467.5480, 831.9528
468.0302, 807.8023
468.5123, 793.8787
468.9944, 802.4271
469.4765, 801.8530
469.9586, 779.9774
470.4407, 755.5123
470.9229, 745.8470
471.4050, 751.8793
471.8871, 761.7922
472.3692, 764.2902
472.8513, 759.1476
473.3334, 753.6437
473.8156, 746.8882
474.2977, 740.8004
474.7798, 734.6105
475.2619, 729.7459
475.7440, 728.1892
476.2261, 730.8495
476.7083, 736.6565
477.1904, 743.7692
477.6725, 751.8875
478.1546, 763.7056
478.6367, 782.7161
479.1188, 802.8571
479.6010, 818.7265
480.0831, 830.5292
480.5652, 843.3652
481.0473, 853.7833
481.5294, 869.0087
482.0115, 906.0234
482.4937, 966.9976
482.9758, 1025.299
483.4579, 1062.350
483.9400, 1083.066
484.4221, 1110.828
484.9042, 1150.045
485.3864, 1190.544
485.8685, 1229.417
486.3506, 1267.119
486.8327, 1304.382
487.3148, 1341.360
487.7969, 1379.058
488.2791, 1419.736
488.7612, 1468.971
489.2433, 1501.024
489.7254, 1509.621
490.2075, 1510.584
490.6896, 1516.037
491.1718, 1519.352
491.6539, 1502.411
492.1360, 1451.132
492.6181, 1381.060
493.1002, 1339.004
493.5823, 1341.020
494.0645, 1329.130
494.5466, 1277.983
495.0287, 1215.692
495.5108, 1158.185
495.9929, 1108.137
496.4750, 1067.498
496.9572, 1044.056
497.4393, 1031.035
497.9214, 1006.770
498.4035, 966.4342
498.8856, 927.2590
499.3677, 902.0990
499.8499, 888.0384
500.3320, 872.8557
500.8141, 853.1978
501.2962, 835.0204
501.7783, 823.6795
502.2604, 815.6868
502.7426, 801.6772
503.2247, 778.0199
503.7068, 754.9178
504.1889, 750.4163
504.6710, 779.8508
505.1531, 781.1499
505.6353, 726.5116
506.1174, 672.7073
506.5995, 650.7079
507.0816, 654.9372
507.5637, 666.0954
508.0458, 673.3420
508.5280, 676.4470
509.0101, 674.4586
509.4922, 666.1646
509.9743, 655.5528
510.4564, 638.1578
510.9385, 622.4454
511.4207, 614.4169
511.9028, 614.8718
512.3849, 621.6094
512.8670, 639.1124
513.3491, 661.4279
513.8312, 670.7483
514.3134, 664.2505
514.7955, 652.8537
515.2776, 642.2839
515.7597, 632.4948
516.2418, 623.0427
516.7239, 613.2175
517.2061, 604.5903
517.6882, 597.3535
518.1703, 591.8964
518.6524, 589.7927
519.1345, 591.4421
519.6166, 593.4574
520.0988, 590.7464
520.5809, 580.6421
521.0630, 577.9562
521.5451, 587.9103
522.0272, 598.7397
522.5093, 608.3690
522.9915, 614.9351
523.4736, 614.5037
523.9557, 604.3433
524.4378, 590.8893
524.9199, 587.9515
525.4020, 598.0413
525.8842, 607.8369
526.3663, 617.9480
526.8484, 624.1781
527.3305, 620.9131
527.8126, 609.6354
528.2947, 601.2067
528.7769, 602.4705
529.2590, 609.1623
529.7411, 616.7892
530.2232, 625.1043
530.7053, 627.9426
531.1874, 618.8527
531.6696, 604.4598
532.1517, 605.6594
532.6338, 639.3053
533.1159, 653.5607
533.5980, 612.3191
534.0801, 562.3667
534.5623, 556.2687
535.0444, 596.2222
535.5265, 642.2695
536.0086, 658.7000
536.4907, 646.9510
536.9728, 636.2916
537.4550, 627.7944
537.9371, 618.9349
538.4192, 608.9696
538.9013, 598.5543
539.3834, 587.8553
539.8655, 576.9402
540.3477, 567.5380
540.8298, 562.9278
541.3119, 562.2253
541.7940, 556.0878
542.2761, 538.1010
542.7582, 527.5536
543.2404, 551.4717
543.7225, 594.5012
544.2046, 614.8415
544.6867, 593.2518
545.1688, 561.8132
545.6509, 532.4649
546.1331, 508.1773
546.6152, 495.5906
547.0973, 496.9497
547.5794, 508.8277
548.0615, 528.5756
548.5436, 561.7059
549.0258, 580.3939
549.5079, 576.5883
549.9900, 569.1093
550.4721, 562.9360
550.9542, 559.1854
551.4363, 559.7548
551.9185, 566.1578
552.4006, 572.7448
552.8827, 565.9962
553.3648, 542.0345
553.8469, 530.7045
554.3290, 547.9314
554.8112, 567.2930
555.2933, 565.8640
555.7754, 548.1887
556.2575, 536.3342
556.7396, 548.7831
557.2217, 564.0976
557.7039, 556.3882
558.1860, 529.3401
558.6681, 503.1678
559.1502, 485.2906
559.6323, 476.0481
560.1144, 476.3812
560.5966, 489.1291
561.0787, 506.4706
561.5608, 542.5207
562.0429, 571.2086
562.5250, 567.6448
563.0071, 541.0125
563.4893, 520.4359
563.9714, 524.9578
564.4535, 546.1247
564.9356, 560.6653
565.4177, 569.3768
565.8998, 569.0839
566.3820, 545.6754
566.8641, 522.8588
567.3462, 519.4245
567.8283, 534.2655
568.3104, 548.0200
568.7925, 549.8599
569.2747, 544.8758
569.7568, 537.0594
570.2389, 527.2487
570.7210, 527.4423
571.2031, 546.7992
571.6852, 576.1097
572.1674, 592.9908
572.6495, 596.3019
573.1316, 590.7155
573.6137, 564.3896
574.0958, 538.4965
574.5779, 531.2870
575.0601, 541.0286
575.5422, 555.2076
576.0243, 566.1605
576.5064, 572.9114
576.9885, 569.8187
577.4706, 550.3276
577.9528, 536.7979
578.4349, 536.5355
578.9170, 542.3867
579.3991, 551.3459
579.8812, 562.6578
580.3633, 572.9418
580.8455, 583.9503
581.3276, 591.2233
581.8097, 583.3534
582.2918, 560.9366
582.7739, 544.5953
583.2560, 547.3794
583.7382, 559.9326
584.2203, 557.5098
584.7024, 522.8694
585.1845, 508.8736
585.6666, 541.7979
586.1487, 580.3236
586.6309, 591.4821
587.1130, 577.7288
587.5951, 561.0090
588.0772, 556.0786
588.5593, 559.8399
589.0414, 562.3976
