##NAMES=Bikitaite
##RRUFFID=R060032
##IDEAL CHEMISTRY=LiAlSi_2_O_6_&#183;H_2_O
##LOCALITY=Al Hyat mine, Bikita, Fort Victoria, Southern Rhodesia
##OWNER=RRUFF
##SOURCE=University of Arizona Mineral Museum
##DESCRIPTION=A group of radiating white to colorless acicular crystals
##STATUS=The identification of this mineral has been confirmed by X-ray diffraction and chemical analysis
##URL=rruff.info/R060032
##MEASURED CHEMISTRY=Li_1.00_Al_1.00_Si_2.00_O_6_Â·H_2_O ; Li not measured but estimated by charge balance
171.8177, 3272.750
172.2998, 3274.519
172.7820, 3276.585
173.2641, 3278.321
173.7462, 3279.633
174.2283, 3280.355
174.7104, 3278.326
175.1925, 3276.488
175.6747, 3279.181
176.1568, 3287.757
176.6389, 3296.619
177.1210, 3299.749
177.6031, 3298.505
178.0852, 3297.263
178.5674, 3298.744
179.0495, 3301.717
179.5316, 3304.106
180.0137, 3305.400
180.4958, 3306.893
180.9779, 3310.323
181.4601, 3315.489
181.9422, 3321.160
182.4243, 3326.555
182.9064, 3331.908
183.3885, 3337.937
183.8706, 3345.035
184.3528, 3352.256
184.8349, 3357.728
185.3170, 3361.592
185.7991, 3366.202
186.2812, 3374.116
186.7633, 3384.190
187.2455, 3392.377
187.7276, 3397.633
188.2097, 3401.185
188.6918, 3405.470
189.1739, 3410.447
189.6560, 3415.228
190.1382, 3419.306
190.6203, 3422.709
191.1024, 3425.436
191.5845, 3427.054
192.0666, 3428.533
192.5487, 3432.324
193.0309, 3438.589
193.5130, 3446.010
193.9951, 3454.399
194.4772, 3463.683
194.9593, 3471.243
195.4414, 3475.808
195.9236, 3478.767
196.4057, 3484.935
196.8878, 3494.716
197.3699, 3505.129
197.8520, 3512.338
198.3341, 3516.204
198.8163, 3523.909
199.2984, 3538.059
199.7805, 3557.023
200.2626, 3573.901
200.7447, 3588.562
201.2268, 3601.342
201.7090, 3612.472
202.1911, 3622.020
202.6732, 3629.473
203.1553, 3634.843
203.6374, 3638.080
204.1195, 3638.222
204.6017, 3634.947
205.0838, 3629.572
205.5659, 3623.359
206.0480, 3616.411
206.5301, 3607.971
207.0122, 3597.377
207.4944, 3584.892
207.9765, 3573.851
208.4586, 3564.279
208.9407, 3556.045
209.4228, 3548.854
209.9049, 3542.452
210.3871, 3538.093
210.8692, 3536.599
211.3513, 3537.834
211.8334, 3538.279
212.3155, 3537.346
212.7976, 3536.625
213.2798, 3538.117
213.7619, 3542.644
214.2440, 3546.929
214.7261, 3549.953
215.2082, 3551.680
215.6903, 3554.804
216.1725, 3559.415
216.6546, 3565.250
217.1367, 3572.462
217.6188, 3582.206
218.1009, 3590.257
218.5830, 3595.160
219.0651, 3596.694
219.5473, 3599.381
220.0294, 3603.964
220.5115, 3608.753
220.9936, 3611.635
221.4757, 3611.845
221.9578, 3611.820
222.4400, 3611.993
222.9221, 3612.328
223.4042, 3613.168
223.8863, 3614.973
224.3684, 3616.790
224.8505, 3617.519
225.3327, 3616.853
225.8148, 3615.831
226.2969, 3614.623
226.7790, 3613.220
227.2611, 3612.203
227.7432, 3611.444
228.2254, 3611.323
228.7075, 3612.330
229.1896, 3614.919
229.6717, 3617.866
230.1538, 3620.907
230.6359, 3624.001
231.1181, 3627.605
231.6002, 3631.629
232.0823, 3636.219
232.5644, 3641.555
233.0465, 3647.891
233.5286, 3654.504
234.0108, 3661.462
234.4929, 3668.926
234.9750, 3674.705
235.4571, 3676.926
235.9392, 3679.079
236.4213, 3685.532
236.9035, 3699.908
237.3856, 3711.666
237.8677, 3717.033
238.3498, 3715.196
238.8319, 3719.908
239.3140, 3735.943
239.7962, 3754.137
240.2783, 3764.532
240.7604, 3761.566
241.2425, 3761.368
241.7246, 3767.786
242.2067, 3781.283
242.6889, 3793.931
243.1710, 3805.772
243.6531, 3816.676
244.1352, 3826.410
244.6173, 3833.750
245.0994, 3842.235
245.5816, 3853.323
246.0637, 3867.096
246.5458, 3877.729
247.0279, 3884.014
247.5100, 3888.433
247.9921, 3893.018
248.4743, 3897.287
248.9564, 3902.951
249.4385, 3911.083
249.9206, 3921.614
250.4027, 3930.028
250.8848, 3935.946
251.3670, 3940.252
251.8491, 3943.425
252.3312, 3944.678
252.8133, 3946.554
253.2954, 3949.483
253.7775, 3953.408
254.2597, 3957.779
254.7418, 3963.162
255.2239, 3968.206
255.7060, 3972.049
256.1881, 3975.185
256.6702, 3975.832
257.1523, 3973.317
257.6345, 3967.910
258.1166, 3962.289
258.5987, 3957.672
259.0808, 3951.146
259.5629, 3939.710
260.0450, 3920.925
260.5272, 3904.594
261.0093, 3892.547
261.4914, 3884.051
261.9735, 3875.410
262.4556, 3866.691
262.9377, 3857.888
263.4199, 3848.857
263.9020, 3839.093
264.3841, 3830.965
264.8662, 3825.241
265.3483, 3821.225
265.8304, 3815.675
266.3126, 3807.700
266.7947, 3800.316
267.2768, 3795.375
267.7589, 3793.080
268.2410, 3792.778
268.7231, 3795.534
269.2053, 3799.747
269.6874, 3799.855
270.1695, 3793.814
270.6516, 3789.113
271.1337, 3790.812
271.6158, 3800.738
272.0980, 3807.315
272.5801, 3809.240
273.0622, 3808.161
273.5443, 3806.945
274.0264, 3803.560
274.5085, 3807.096
274.9907, 3810.081
275.4728, 3812.544
275.9549, 3812.924
276.4370, 3815.994
276.9191, 3817.986
277.4012, 3819.934
277.8834, 3823.383
278.3655, 3824.066
278.8476, 3827.490
279.3297, 3829.821
279.8118, 3832.652
280.2939, 3836.303
280.7761, 3840.919
281.2582, 3843.971
281.7403, 3845.333
282.2224, 3847.215
282.7045, 3850.457
283.1866, 3854.993
283.6688, 3860.475
284.1509, 3867.247
284.6330, 3873.727
285.1151, 3877.286
285.5972, 3877.876
286.0793, 3879.676
286.5615, 3884.489
287.0436, 3891.621
287.5257, 3898.068
288.0078, 3903.802
288.4899, 3909.000
288.9720, 3913.734
289.4542, 3918.064
289.9363, 3922.641
290.4184, 3928.129
290.9005, 3933.823
291.3826, 3937.680
291.8647, 3939.661
292.3469, 3940.911
292.8290, 3942.453
293.3111, 3944.157
293.7932, 3945.432
294.2753, 3946.019
294.7574, 3946.212
295.2396, 3946.519
295.7217, 3946.938
296.2038, 3947.467
296.6859, 3948.842
297.1680, 3950.388
297.6501, 3949.763
298.1323, 3945.446
298.6144, 3940.832
299.0965, 3941.227
299.5786, 3946.112
300.0607, 3951.773
300.5428, 3956.390
301.0250, 3960.122
301.5071, 3963.365
301.9892, 3966.198
302.4713, 3968.392
302.9534, 3969.308
303.4355, 3969.240
303.9177, 3969.280
304.3998, 3969.658
304.8819, 3970.576
305.3640, 3972.446
305.8461, 3975.410
306.3282, 3978.693
306.8104, 3982.071
307.2925, 3985.319
307.7746, 3987.875
308.2567, 3989.245
308.7388, 3990.055
309.2209, 3990.913
309.7031, 3991.908
310.1852, 3992.800
310.6673, 3992.376
311.1494, 3992.018
311.6315, 3993.653
312.1136, 4000.026
312.5958, 4007.088
313.0779, 4012.450
313.5600, 4016.044
314.0421, 4018.321
314.5242, 4017.360
315.0063, 4015.916
315.4885, 4016.776
315.9706, 4023.475
316.4527, 4029.735
316.9348, 4032.330
317.4169, 4031.859
317.8990, 4031.111
318.3812, 4030.968
318.8633, 4031.149
319.3454, 4031.579
319.8275, 4032.977
320.3096, 4033.688
320.7917, 4032.498
321.2739, 4030.329
321.7560, 4029.384
322.2381, 4030.455
322.7202, 4032.875
323.2023, 4036.658
323.6844, 4042.758
324.1666, 4048.000
324.6487, 4051.157
325.1308, 4053.179
325.6129, 4055.521
326.0950, 4058.262
326.5771, 4061.301
327.0593, 4064.988
327.5414, 4069.888
328.0235, 4072.753
328.5056, 4071.759
328.9877, 4069.208
329.4698, 4067.505
329.9520, 4066.957
330.4341, 4066.827
330.9162, 4066.911
331.3983, 4067.206
331.8804, 4068.384
332.3625, 4070.761
332.8447, 4073.840
333.3268, 4077.379
333.8089, 4082.001
334.2910, 4086.170
334.7731, 4089.918
335.2552, 4093.196
335.7374, 4095.283
336.2195, 4095.061
336.7016, 4095.441
337.1837, 4098.212
337.6658, 4103.966
338.1479, 4110.043
338.6301, 4116.614
339.1122, 4123.089
339.5943, 4127.443
340.0764, 4128.435
340.5585, 4131.142
341.0406, 4138.808
341.5227, 4152.025
342.0049, 4162.068
342.4870, 4168.705
342.9691, 4172.811
343.4512, 4174.965
343.9333, 4175.060
344.4154, 4175.416
344.8976, 4176.744
345.3797, 4179.025
345.8618, 4182.767
346.3439, 4188.432
346.8260, 4192.888
347.3081, 4191.360
347.7903, 4184.991
348.2724, 4181.562
348.7545, 4183.650
349.2366, 4189.209
349.7187, 4195.595
350.2008, 4202.672
350.6830, 4207.363
351.1651, 4204.695
351.6472, 4198.101
352.1293, 4196.342
352.6114, 4202.260
353.0935, 4209.700
353.5757, 4211.155
354.0578, 4207.987
354.5399, 4204.984
355.0220, 4204.927
355.5041, 4206.460
355.9862, 4207.889
356.4684, 4208.959
356.9505, 4210.506
357.4326, 4213.362
357.9147, 4217.055
358.3968, 4220.820
358.8789, 4225.512
359.3611, 4229.268
359.8432, 4229.794
360.3253, 4227.249
360.8074, 4225.917
361.2895, 4227.528
361.7716, 4231.557
362.2538, 4237.608
362.7359, 4247.911
363.2180, 4257.684
363.7001, 4264.692
364.1822, 4269.718
364.6643, 4275.366
365.1465, 4282.926
365.6286, 4291.123
366.1107, 4299.327
366.5928, 4307.459
367.0749, 4315.783
367.5570, 4323.797
368.0392, 4332.168
368.5213, 4342.067
369.0034, 4354.458
369.4855, 4367.326
369.9676, 4380.317
370.4497, 4393.374
370.9319, 4405.580
371.4140, 4416.197
371.8961, 4426.234
372.3782, 4436.493
372.8603, 4446.447
373.3424, 4457.255
373.8246, 4469.353
374.3067, 4482.483
374.7888, 4495.388
375.2709, 4507.960
375.7530, 4520.681
376.2351, 4534.253
376.7173, 4549.063
377.1994, 4563.184
377.6815, 4576.142
378.1636, 4589.116
378.6457, 4605.356
379.1278, 4626.032
379.6100, 4644.801
380.0921, 4658.303
380.5742, 4666.706
381.0563, 4675.669
381.5384, 4685.296
382.0205, 4694.875
382.5027, 4703.409
382.9848, 4710.956
383.4669, 4717.830
383.9490, 4725.015
384.4311, 4731.110
384.9132, 4731.910
385.3954, 4727.555
385.8775, 4722.721
386.3596, 4721.363
386.8417, 4722.295
387.3238, 4722.858
387.8059, 4722.008
388.2881, 4721.620
388.7702, 4724.886
389.2523, 4730.558
389.7344, 4734.829
390.2165, 4734.304
390.6986, 4732.131
391.1808, 4730.952
391.6629, 4730.911
392.1450, 4732.750
392.6271, 4739.212
393.1092, 4747.247
393.5913, 4752.771
394.0735, 4752.313
394.5556, 4751.006
395.0377, 4750.978
395.5198, 4752.270
396.0019, 4754.275
396.4840, 4762.776
396.9662, 4768.249
397.4483, 4764.059
397.9304, 4740.320
398.4125, 4718.970
398.8946, 4704.608
399.3767, 4694.820
399.8589, 4683.692
400.3410, 4669.784
400.8231, 4655.263
401.3052, 4640.360
401.7873, 4624.576
402.2694, 4610.161
402.7516, 4598.086
403.2337, 4586.605
403.7158, 4573.438
404.1979, 4556.634
404.6800, 4542.358
405.1621, 4531.996
405.6443, 4525.167
406.1264, 4519.513
406.6085, 4515.607
407.0906, 4511.471
407.5727, 4505.116
408.0548, 4496.212
408.5370, 4489.641
409.0191, 4486.409
409.5012, 4484.838
409.9833, 4482.071
410.4654, 4478.088
410.9475, 4473.912
411.4297, 4469.532
411.9118, 4465.275
412.3939, 4462.718
412.8760, 4461.998
413.3581, 4461.658
413.8402, 4460.155
414.3224, 4457.969
414.8045, 4456.339
415.2866, 4456.171
415.7687, 4456.128
416.2508, 4454.049
416.7329, 4450.523
417.2151, 4447.997
417.6972, 4449.156
418.1793, 4451.408
418.6614, 4452.018
419.1435, 4450.157
419.6256, 4448.447
420.1078, 4449.733
420.5899, 4451.811
421.0720, 4451.457
421.5541, 4443.630
422.0362, 4436.753
422.5183, 4434.703
423.0005, 4437.536
423.4826, 4440.415
423.9647, 4441.889
424.4468, 4443.239
424.9289, 4445.258
425.4110, 4449.491
425.8932, 4452.503
426.3753, 4453.846
426.8574, 4453.835
427.3395, 4453.115
427.8216, 4450.432
428.3037, 4448.582
428.7859, 4448.515
429.2680, 4450.370
429.7501, 4452.970
430.2322, 4457.278
430.7143, 4460.858
431.1964, 4460.427
431.6786, 4455.046
432.1607, 4450.669
432.6428, 4448.709
433.1249, 4448.466
433.6070, 4447.811
434.0891, 4446.816
434.5713, 4445.460
435.0534, 4443.713
435.5355, 4441.698
436.0176, 4439.344
436.4997, 4436.437
436.9818, 4434.460
437.4640, 4436.048
437.9461, 4440.211
438.4282, 4443.720
438.9103, 4444.575
439.3924, 4444.497
439.8745, 4445.257
440.3566, 4446.844
440.8387, 4449.416
441.3209, 4454.409
441.8030, 4459.741
442.2851, 4462.943
442.7672, 4462.337
443.2493, 4462.036
443.7314, 4464.589
444.2136, 4468.840
444.6957, 4472.667
445.1778, 4475.333
445.6599, 4477.495
446.1420, 4479.702
446.6241, 4482.106
447.1063, 4482.956
447.5884, 4479.856
448.0705, 4476.390
448.5526, 4475.262
449.0347, 4477.946
449.5168, 4480.881
449.9990, 4484.100
450.4811, 4487.446
450.9632, 4490.243
451.4453, 4491.738
451.9274, 4494.227
452.4095, 4499.529
452.8917, 4508.105
453.3738, 4512.372
453.8559, 4511.265
454.3380, 4508.378
454.8201, 4507.289
455.3022, 4508.032
455.7844, 4510.052
456.2665, 4513.643
456.7486, 4518.016
457.2307, 4521.387
457.7128, 4523.813
458.1949, 4526.317
458.6771, 4528.963
459.1592, 4532.216
459.6413, 4537.407
460.1234, 4544.831
460.6055, 4552.216
461.0876, 4556.552
461.5698, 4559.680
462.0519, 4564.779
462.5340, 4576.193
463.0161, 4587.062
463.4982, 4592.009
463.9803, 4592.275
464.4625, 4593.352
464.9446, 4598.320
465.4267, 4604.332
465.9088, 4609.471
466.3909, 4612.749
466.8730, 4617.411
467.3552, 4624.134
467.8373, 4632.547
468.3194, 4642.220
468.8015, 4655.775
469.2836, 4667.197
469.7657, 4674.381
470.2479, 4677.947
470.7300, 4683.870
471.2121, 4692.540
471.6942, 4702.796
472.1763, 4714.604
472.6584, 4728.521
473.1406, 4740.125
473.6227, 4748.630
474.1048, 4755.899
474.5869, 4764.961
475.0690, 4775.899
475.5511, 4786.265
476.0333, 4794.888
476.5154, 4802.711
476.9975, 4813.455
477.4796, 4826.938
477.9617, 4838.487
478.4438, 4843.311
478.9260, 4844.118
479.4081, 4845.610
479.8902, 4848.376
480.3723, 4852.122
480.8544, 4857.597
481.3365, 4863.700
481.8187, 4868.559
482.3008, 4870.768
482.7829, 4872.003
483.2650, 4872.326
483.7471, 4872.079
484.2292, 4873.607
484.7114, 4879.352
485.1935, 4885.986
485.6756, 4891.180
486.1577, 4892.455
486.6398, 4897.000
487.1219, 4908.978
487.6041, 4923.394
488.0862, 4933.339
488.5683, 4935.863
489.0504, 4939.056
489.5325, 4944.415
490.0146, 4951.747
490.4968, 4959.775
490.9789, 4968.688
491.4610, 4977.454
491.9431, 4985.203
492.4252, 4991.764
492.9073, 4999.702
493.3895, 5009.937
493.8716, 5019.330
494.3537, 5022.814
494.8358, 5021.324
495.3179, 5020.422
495.8000, 5023.397
496.2822, 5026.928
496.7643, 5025.576
497.2464, 5019.875
497.7285, 5012.861
498.2106, 5005.589
498.6927, 4998.400
499.1749, 4992.147
499.6570, 4987.513
500.1391, 4980.587
500.6212, 4967.180
501.1033, 4950.955
501.5854, 4936.059
502.0676, 4925.591
502.5497, 4914.610
503.0318, 4902.009
503.5139, 4887.757
503.9960, 4872.078
504.4781, 4852.759
504.9603, 4833.987
505.4424, 4817.493
505.9245, 4803.729
506.4066, 4789.977
506.8887, 4775.930
507.3708, 4762.476
507.8530, 4749.964
508.3351, 4738.272
508.8172, 4729.779
509.2993, 4725.752
509.7814, 4724.316
510.2635, 4721.146
510.7457, 4716.193
511.2278, 4710.367
511.7099, 4703.555
512.1920, 4696.262
512.6741, 4689.194
513.1563, 4682.320
513.6384, 4676.875
514.1205, 4674.693
514.6026, 4674.397
515.0847, 4674.175
515.5668, 4674.226
516.0490, 4673.098
516.5311, 4668.336
517.0132, 4661.882
517.4953, 4657.637
517.9774, 4659.994
518.4595, 4662.084
518.9417, 4660.901
519.4238, 4656.163
519.9059, 4651.442
520.3880, 4645.141
520.8701, 4640.448
521.3522, 4639.353
521.8344, 4644.546
522.3165, 4647.580
522.7986, 4647.313
523.2807, 4645.736
523.7628, 4646.526
524.2449, 4650.343
524.7271, 4653.002
525.2092, 4652.947
525.6913, 4650.981
526.1734, 4649.839
526.6555, 4649.548
527.1376, 4649.811
527.6198, 4650.159
528.1019, 4650.948
528.5840, 4652.968
529.0661, 4656.268
529.5482, 4660.799
530.0303, 4668.892
530.5125, 4677.592
530.9946, 4682.326
531.4767, 4678.103
531.9588, 4673.275
532.4409, 4672.353
532.9230, 4674.319
533.4052, 4676.246
533.8873, 4676.114
534.3694, 4676.670
534.8515, 4679.732
535.3336, 4686.311
535.8157, 4690.300
536.2979, 4690.016
536.7800, 4688.611
537.2621, 4688.427
537.7442, 4690.201
538.2263, 4691.333
538.7084, 4691.376
539.1906, 4691.116
539.6727, 4692.697
540.1548, 4696.491
540.6369, 4698.245
541.1190, 4695.151
541.6011, 4689.428
542.0833, 4688.804
542.5654, 4693.002
543.0475, 4696.277
543.5296, 4691.919
544.0117, 4684.657
544.4938, 4682.392
544.9760, 4686.570
545.4581, 4691.886
545.9402, 4695.364
546.4223, 4697.210
546.9044, 4697.719
547.3865, 4695.761
547.8687, 4693.636
548.3508, 4692.008
548.8329, 4690.759
549.3150, 4689.553
549.7971, 4687.893
550.2792, 4686.835
550.7614, 4687.124
551.2435, 4689.061
551.7256, 4689.740
552.2077, 4688.832
552.6898, 4687.430
553.1719, 4686.345
553.6541, 4685.661
554.1362, 4685.390
554.6183, 4685.862
555.1004, 4686.126
555.5825, 4683.398
556.0646, 4678.378
556.5468, 4676.201
557.0289, 4680.263
557.5110, 4686.778
557.9931, 4690.187
558.4752, 4690.827
558.9573, 4690.628
559.4395, 4690.094
559.9216, 4689.615
560.4037, 4689.690
560.8858, 4690.472
561.3679, 4690.878
561.8500, 4690.217
562.3322, 4689.171
562.8143, 4688.327
563.2964, 4686.758
563.7785, 4686.884
564.2606, 4690.352
564.7427, 4695.208
565.2249, 4697.432
565.7070, 4695.813
566.1891, 4694.083
566.6712, 4693.087
567.1533, 4692.803
567.6354, 4693.112
568.1176, 4694.048
568.5997, 4695.335
569.0818, 4696.935
569.5639, 4698.753
570.0460, 4700.451
570.5281, 4701.962
571.0103, 4703.505
571.4924, 4705.434
571.9745, 4707.516
572.4566, 4709.380
572.9387, 4710.875
573.4208, 4712.185
573.9030, 4714.328
574.3851, 4716.353
574.8672, 4716.206
575.3493, 4708.528
575.8314, 4703.024
576.3135, 4704.711
576.7957, 4713.696
577.2778, 4719.791
577.7599, 4720.682
578.2420, 4720.848
578.7241, 4723.081
579.2062, 4728.951
579.6884, 4729.879
580.1705, 4724.144
580.6526, 4716.927
581.1347, 4714.721
581.6168, 4717.362
582.0989, 4720.077
582.5811, 4721.970
583.0632, 4723.365
583.5453, 4724.614
584.0274, 4725.805
584.5095, 4727.162
584.9916, 4728.952
585.4738, 4730.844
585.9559, 4732.502
586.4380, 4733.913
586.9201, 4735.288
587.4022, 4736.977
587.8843, 4738.425
588.3664, 4738.871
588.8485, 4737.205
589.3306, 4737.662
589.8127, 4743.509
590.2949, 4749.976
590.7770, 4752.682
591.2591, 4749.725
591.7412, 4747.552
592.2233, 4747.234
592.7054, 4747.724
593.1876, 4746.141
593.6697, 4742.241
594.1518, 4740.063
594.6339, 4742.121
595.1160, 4746.514
595.5981, 4748.017
596.0803, 4746.976
596.5624, 4746.609
597.0445, 4751.183
597.5266, 4756.659
598.0087, 4756.853
598.4908, 4750.791
598.9730, 4746.039
599.4551, 4747.714
599.9372, 4752.055
600.4193, 4755.536
600.9014, 4756.248
601.3835, 4757.754
601.8657, 4761.425
602.3478, 4765.865
602.8299, 4769.143
603.3120, 4771.437
603.7941, 4772.182
604.2762, 4770.720
604.7584, 4767.808
605.2405, 4766.396
605.7226, 4766.625
606.2047, 4767.587
606.6868, 4770.024
607.1689, 4772.885
607.6511, 4771.719
608.1332, 4766.522
608.6153, 4761.459
609.0974, 4759.022
609.5795, 4759.070
610.0616, 4762.372
610.5438, 4770.516
611.0259, 4776.317
611.5080, 4772.686
611.9901, 4765.656
612.4722, 4762.365
612.9543, 4767.333
613.4365, 4772.850
613.9186, 4777.969
614.4007, 4782.691
614.8828, 4787.210
615.3649, 4792.127
615.8470, 4795.326
616.3292, 4795.593
616.8113, 4793.431
617.2934, 4792.484
617.7755, 4792.756
618.2576, 4793.904
618.7397, 4796.323
619.2219, 4799.361
619.7040, 4800.857
620.1861, 4800.568
620.6682, 4800.682
621.1503, 4804.570
621.6324, 4809.363
622.1146, 4811.312
622.5967, 4808.283
623.0788, 4805.295
623.5609, 4804.706
624.0430, 4805.543
624.5251, 4806.389
625.0073, 4807.229
625.4894, 4807.910
625.9715, 4808.228
626.4536, 4808.415
626.9357, 4809.292
627.4178, 4811.117
627.9000, 4812.781
628.3821, 4813.373
628.8642, 4813.273
629.3463, 4816.019
629.8284, 4821.640
630.3105, 4826.073
630.7927, 4824.736
631.2748, 4820.402
631.7569, 4818.664
632.2390, 4820.188
632.7211, 4822.002
633.2032, 4822.046
633.6854, 4821.203
634.1675, 4820.492
634.6496, 4820.792
635.1317, 4820.315
635.6138, 4817.569
636.0959, 4814.196
636.5781, 4812.792
637.0602, 4814.628
637.5423, 4816.588
638.0244, 4818.283
638.5065, 4819.794
638.9886, 4821.261
639.4708, 4822.574
639.9529, 4824.329
640.4350, 4826.936
640.9171, 4830.024
641.3992, 4832.936
641.8813, 4835.513
642.3635, 4836.528
642.8456, 4832.111
643.3277, 4827.100
643.8098, 4828.809
644.2919, 4838.671
644.7740, 4846.021
645.2562, 4842.993
645.7383, 4836.390
646.2204, 4831.862
646.7025, 4831.475
647.1846, 4831.239
647.6667, 4829.977
648.1489, 4829.409
648.6310, 4832.616
649.1131, 4841.945
649.5952, 4846.579
650.0773, 4843.197
650.5594, 4835.897
651.0416, 4834.229
651.5237, 4837.769
652.0058, 4840.489
652.4879, 4838.127
652.9700, 4834.600
653.4521, 4837.019
653.9343, 4844.090
654.4164, 4849.536
654.8985, 4847.422
655.3806, 4844.285
655.8627, 4845.093
656.3448, 4850.540
656.8270, 4854.856
657.3091, 4856.308
657.7912, 4856.656
658.2733, 4856.651
658.7554, 4855.661
659.2375, 4856.443
659.7197, 4859.875
660.2018, 4863.431
660.6839, 4863.497
661.1660, 4860.155
661.6481, 4859.896
662.1302, 4864.659
662.6124, 4869.892
663.0945, 4867.676
663.5766, 4860.987
664.0587, 4857.453
664.5408, 4862.628
665.0229, 4868.781
665.5051, 4870.947
