##NAMES=Bikitaite
##RRUFFID=R060032
##IDEAL CHEMISTRY=LiAlSi_2_O_6_&#183;H_2_O
##LOCALITY=Al Hyat mine, Bikita, Fort Victoria, Southern Rhodesia
##OWNER=RRUFF
##SOURCE=University of Arizona Mineral Museum
##DESCRIPTION=A group of radiating white to colorless acicular crystals
##STATUS=The identification of this mineral has been confirmed by X-ray diffraction and chemical analysis
##URL=rruff.info/R060032
##MEASURED CHEMISTRY=Li_1.00_Al_1.00_Si_2.00_O_6_Â·H_2_O ; Li not measured but estimated by charge balance
176.8941, 207.4537
177.3762, 207.2261
177.8583, 207.1689
178.3404, 207.3020
178.8225, 207.6199
179.3047, 208.3791
179.7868, 209.2318
180.2689, 209.6864
180.7510, 209.4653
181.2331, 208.8240
181.7152, 208.9332
182.1974, 210.4220
182.6795, 211.9419
183.1616, 213.3009
183.6437, 214.5453
184.1258, 215.8076
184.6079, 217.1801
185.0900, 218.6131
185.5722, 219.7430
186.0543, 220.4939
186.5364, 221.1035
187.0185, 221.5560
187.5006, 221.9104
187.9827, 222.3646
188.4649, 223.0699
188.9470, 223.9623
189.4291, 224.7135
189.9112, 225.0646
190.3933, 225.5088
190.8754, 226.4607
191.3576, 227.8860
191.8397, 229.2509
192.3218, 230.1156
192.8039, 230.7362
193.2860, 231.7112
193.7681, 233.3110
194.2503, 235.1080
194.7324, 236.6006
195.2145, 237.7325
195.6966, 238.9810
196.1787, 240.6605
196.6608, 242.6225
197.1430, 244.7727
197.6251, 247.2036
198.1072, 249.6908
198.5893, 251.7946
199.0714, 253.3414
199.5535, 254.9793
200.0357, 257.2191
200.5178, 259.6238
200.9999, 261.7433
201.4820, 263.4547
201.9641, 264.6874
202.4462, 265.2413
202.9284, 265.0118
203.4105, 264.1699
203.8926, 262.7878
204.3747, 260.9435
204.8568, 258.6987
205.3389, 256.0739
205.8211, 253.1084
206.3032, 250.0010
206.7853, 246.2202
207.2674, 242.9770
207.7495, 240.5199
208.2316, 238.7043
208.7138, 237.3530
209.1959, 236.3871
209.6780, 235.7569
210.1601, 235.1316
210.6422, 234.2877
211.1243, 233.6951
211.6065, 233.5311
212.0886, 233.6660
212.5707, 233.8741
213.0528, 234.0014
213.5349, 234.0811
214.0170, 234.4566
214.4992, 235.4127
214.9813, 236.3227
215.4634, 237.0242
215.9455, 237.5523
216.4276, 238.0259
216.9097, 238.5302
217.3919, 239.0383
217.8740, 239.2757
218.3561, 239.3077
218.8382, 239.0795
219.3203, 238.5613
219.8024, 237.7641
220.2845, 236.7243
220.7667, 235.4646
221.2488, 233.9529
221.7309, 232.1426
222.2130, 229.7317
222.6951, 227.3562
223.1772, 225.3071
223.6594, 223.5540
224.1415, 221.9348
224.6236, 220.3202
225.1057, 218.8048
225.5878, 217.6046
226.0699, 216.8605
226.5521, 216.2546
227.0342, 215.5403
227.5163, 214.7377
227.9984, 214.0741
228.4805, 213.6756
228.9626, 213.5010
229.4448, 213.4331
229.9269, 213.5085
230.4090, 213.6255
230.8911, 213.6602
231.3732, 213.6113
231.8553, 213.6807
232.3375, 213.9724
232.8196, 214.4381
233.3017, 215.0238
233.7838, 215.7427
234.2659, 216.5312
234.7480, 217.3752
235.2302, 218.2958
235.7123, 219.0678
236.1944, 219.3801
236.6765, 219.6291
237.1586, 220.1704
237.6407, 221.0993
238.1229, 222.1812
238.6050, 223.0973
239.0871, 223.7762
239.5692, 224.6509
240.0513, 226.1308
240.5334, 227.6867
241.0156, 228.9807
241.4977, 229.9285
241.9798, 230.6733
242.4619, 231.3154
242.9440, 231.7641
243.4261, 232.4686
243.9083, 233.7335
244.3904, 235.1161
244.8725, 236.3474
245.3546, 237.3762
245.8367, 238.3215
246.3188, 239.3562
246.8010, 240.5476
247.2831, 241.6121
247.7652, 242.6385
248.2473, 243.4700
248.7294, 243.8660
249.2115, 243.8534
249.6937, 243.7845
250.1758, 244.1997
250.6579, 245.4668
251.1400, 246.2129
251.6221, 246.4687
252.1042, 246.2587
252.5864, 245.2900
253.0685, 243.6929
253.5506, 242.1423
254.0327, 241.5753
254.5148, 242.6370
254.9969, 242.5834
255.4790, 240.9863
255.9612, 238.8487
256.4433, 236.5309
256.9254, 234.1604
257.4075, 231.8086
257.8896, 229.5910
258.3718, 227.6007
258.8539, 225.3312
259.3360, 222.6026
259.8181, 219.8214
260.3002, 217.1267
260.7823, 214.5584
261.2645, 212.1255
261.7466, 209.8196
262.2287, 207.6140
262.7108, 205.7948
263.1929, 204.6094
263.6750, 203.4923
264.1572, 202.1203
264.6393, 200.5502
265.1214, 199.0572
265.6035, 197.8508
266.0856, 196.9417
266.5677, 196.1463
267.0499, 195.5232
267.5320, 194.9217
268.0141, 194.1870
268.4962, 193.4013
268.9783, 192.7934
269.4604, 192.5220
269.9426, 192.5729
270.4247, 192.7683
270.9068, 193.2813
271.3889, 193.7256
271.8710, 193.8744
272.3531, 193.8356
272.8352, 193.9099
273.3174, 194.3048
273.7995, 194.9081
274.2816, 195.1555
274.7637, 194.7159
275.2458, 194.3799
275.7279, 194.3430
276.2101, 194.5814
276.6922, 195.1067
277.1743, 195.9897
277.6564, 197.0416
278.1385, 197.6943
278.6206, 197.7238
279.1028, 197.8610
279.5849, 198.4399
280.0670, 199.2418
280.5491, 199.8352
281.0312, 200.0201
281.5133, 200.0716
281.9955, 200.5612
282.4776, 201.5604
282.9597, 202.5894
283.4418, 203.6176
283.9239, 204.5916
284.4060, 205.3976
284.8882, 205.9887
285.3703, 206.5051
285.8524, 207.1302
286.3345, 207.8626
286.8166, 208.6603
287.2987, 209.6904
287.7809, 210.7097
288.2630, 211.3706
288.7451, 211.5926
289.2272, 211.6342
289.7093, 211.8416
290.1914, 212.1896
290.6736, 212.0841
291.1557, 211.2715
291.6378, 210.0532
292.1199, 208.6345
292.6020, 207.0283
293.0841, 205.5064
293.5663, 204.2991
294.0484, 203.3783
294.5305, 202.5563
295.0126, 201.8760
295.4947, 201.2495
295.9768, 200.6709
296.4590, 200.1313
296.9411, 199.4077
297.4232, 198.2600
297.9053, 196.8379
298.3874, 195.6059
298.8695, 194.4870
299.3517, 193.6590
299.8338, 193.4376
300.3159, 193.7285
300.7980, 193.8937
301.2801, 193.6320
301.7622, 193.0621
302.2444, 192.4693
302.7265, 191.8376
303.2086, 191.2216
303.6907, 190.5648
304.1728, 189.9275
304.6549, 189.5628
305.1371, 189.6201
305.6192, 189.8950
306.1013, 190.0826
306.5834, 190.1739
307.0655, 190.2790
307.5476, 190.4488
308.0298, 190.6671
308.5119, 190.8849
308.9940, 191.0736
309.4761, 191.3065
309.9582, 191.7609
310.4403, 192.3989
310.9225, 192.8437
311.4046, 192.9707
311.8867, 192.8352
312.3688, 192.4356
312.8509, 191.7151
313.3330, 191.0374
313.8152, 190.8267
314.2973, 190.9358
314.7794, 190.8929
315.2615, 190.5616
315.7436, 190.0607
316.2257, 189.4211
316.7079, 188.6314
317.1900, 188.0394
317.6721, 188.0099
318.1542, 188.2996
318.6363, 188.2915
319.1184, 187.7582
319.6006, 187.1436
320.0827, 186.7689
320.5648, 186.6135
321.0469, 186.5359
321.5290, 186.5179
322.0111, 186.5091
322.4933, 186.3884
322.9754, 186.0771
323.4575, 185.8871
323.9396, 186.1142
324.4217, 186.6108
324.9038, 186.9413
325.3860, 187.0046
325.8681, 186.8197
326.3502, 186.3103
326.8323, 185.4689
327.3144, 184.7659
327.7965, 184.5920
328.2787, 184.6030
328.7608, 184.1434
329.2429, 183.0407
329.7250, 181.8355
330.2071, 181.0760
330.6892, 180.6937
331.1714, 180.3274
331.6535, 179.7829
332.1356, 179.3007
332.6177, 179.2075
333.0998, 179.5180
333.5819, 179.8422
334.0641, 179.8786
334.5462, 179.7216
335.0283, 179.7561
335.5104, 180.0748
335.9925, 180.5072
336.4746, 181.0292
336.9568, 181.6016
337.4389, 181.9851
337.9210, 181.9543
338.4031, 181.7969
338.8852, 182.2198
339.3673, 183.4657
339.8495, 184.6144
340.3316, 185.1944
340.8137, 185.4278
341.2958, 185.7787
341.7779, 186.4031
342.2600, 187.0999
342.7421, 187.6087
343.2242, 187.9498
343.7064, 188.0684
344.1885, 187.6752
344.6706, 187.1937
345.1527, 187.1364
345.6348, 187.5751
346.1169, 188.1837
346.5991, 188.7311
347.0812, 189.1998
347.5633, 189.4206
348.0454, 189.1123
348.5275, 188.7913
349.0096, 188.8690
349.4918, 189.2768
349.9739, 189.6271
350.4560, 189.6735
350.9381, 189.4793
351.4202, 189.3711
351.9023, 189.5906
352.3845, 189.6072
352.8666, 189.1582
353.3487, 188.4088
353.8308, 187.6182
354.3129, 186.8720
354.7950, 186.2153
355.2772, 185.7388
355.7593, 185.4557
356.2414, 185.3310
356.7235, 185.5161
357.2056, 185.7787
357.6877, 185.8254
358.1699, 185.6261
358.6520, 185.4576
359.1341, 185.6150
359.6162, 186.1456
360.0983, 186.8610
360.5804, 187.8196
361.0626, 188.8881
361.5447, 190.0724
362.0268, 191.3245
362.5089, 192.5211
362.9910, 193.5703
363.4731, 194.4935
363.9553, 195.4441
364.4374, 196.3035
364.9195, 197.3370
365.4016, 198.6613
365.8837, 200.1754
366.3658, 201.6911
366.8480, 203.1349
367.3301, 204.6673
367.8122, 206.6520
368.2943, 209.6793
368.7764, 212.2383
369.2585, 213.9111
369.7407, 215.4385
370.2228, 217.3608
370.7049, 219.7588
371.1870, 222.3984
371.6691, 225.0459
372.1512, 227.6907
372.6334, 230.3201
373.1155, 232.8020
373.5976, 235.3786
374.0797, 238.2498
374.5618, 241.2785
375.0439, 244.1649
375.5261, 246.6757
376.0082, 248.9403
376.4903, 251.6697
376.9724, 255.4511
377.4545, 258.8776
377.9366, 261.4669
378.4188, 263.7514
378.9009, 266.3998
379.3830, 269.6141
379.8651, 272.8664
380.3472, 275.2515
380.8293, 276.6093
381.3115, 277.6656
381.7936, 278.3885
382.2757, 278.9008
382.7578, 279.1701
383.2399, 279.2511
383.7220, 279.3392
384.2042, 279.7447
384.6863, 280.4084
385.1684, 280.3547
385.6505, 278.8943
386.1326, 277.6896
386.6147, 277.6504
387.0969, 278.2273
387.5790, 278.5290
388.0611, 278.1270
388.5432, 277.3357
389.0253, 276.6698
389.5074, 276.1119
389.9896, 275.7470
390.4717, 275.9048
390.9538, 276.0892
391.4359, 275.8662
391.9180, 275.1661
392.4001, 274.2854
392.8823, 273.5963
393.3644, 272.9992
393.8465, 271.8511
394.3286, 270.0216
394.8107, 267.6622
395.2928, 264.7479
395.7750, 261.4101
396.2571, 258.0966
396.7392, 255.2420
397.2213, 252.3926
397.7034, 248.8185
398.1855, 244.4888
398.6677, 239.8631
399.1498, 234.9885
399.6319, 230.0650
400.1140, 225.5662
400.5961, 221.6637
401.0782, 217.9378
401.5604, 214.0337
402.0425, 210.0841
402.5246, 206.4392
403.0067, 203.2219
403.4888, 200.3089
403.9709, 197.5240
404.4531, 194.8112
404.9352, 192.4285
405.4173, 190.5344
405.8994, 188.9193
406.3815, 187.4096
406.8636, 185.9824
407.3458, 184.6492
407.8279, 183.4199
408.3100, 182.3040
408.7921, 181.4005
409.2742, 181.0382
409.7563, 180.5034
410.2385, 179.3049
410.7206, 177.7942
411.2027, 176.6802
411.6848, 176.2762
412.1669, 176.1965
412.6490, 175.6367
413.1311, 174.1003
413.6133, 172.9289
414.0954, 172.1609
414.5775, 171.7121
415.0596, 171.6718
415.5417, 171.9520
416.0238, 172.2271
416.5060, 172.1965
416.9881, 171.8554
417.4702, 171.4227
417.9523, 170.7592
418.4344, 170.1495
418.9165, 169.6696
419.3987, 169.2827
419.8808, 168.9449
420.3629, 168.6411
420.8450, 168.3311
421.3271, 167.8911
421.8092, 167.1647
422.2914, 166.7167
422.7735, 166.9220
423.2556, 167.1655
423.7377, 167.0827
424.2198, 166.6486
424.7019, 166.0458
425.1841, 165.3206
425.6662, 164.5081
426.1483, 164.0418
426.6304, 164.1338
427.1125, 164.2375
427.5946, 164.1551
428.0768, 163.9126
428.5589, 163.5112
429.0410, 162.8846
429.5231, 162.2465
430.0052, 161.9563
430.4873, 162.0265
430.9695, 161.8799
431.4516, 161.1741
431.9337, 160.3470
432.4158, 159.9209
432.8979, 159.8996
433.3800, 159.8529
433.8622, 159.4446
434.3443, 158.9150
434.8264, 158.7675
435.3085, 159.0964
435.7906, 159.3904
436.2727, 159.1510
436.7549, 158.5460
437.2370, 158.3769
437.7191, 159.1781
438.2012, 159.8993
438.6833, 159.8546
439.1654, 159.2995
439.6476, 158.8918
440.1297, 158.9001
440.6118, 159.0497
441.0939, 158.8392
441.5760, 158.0341
442.0581, 157.5246
442.5403, 157.4727
443.0224, 157.6427
443.5045, 157.9231
443.9866, 158.2681
444.4687, 158.6110
444.9508, 158.9122
445.4330, 159.1633
445.9151, 159.2762
446.3972, 159.0989
446.8793, 158.9623
447.3614, 158.8440
447.8435, 158.8237
448.3257, 159.0480
448.8078, 159.5412
449.2899, 160.0985
449.7720, 160.3934
450.2541, 160.3144
450.7362, 160.3589
451.2184, 160.5964
451.7005, 160.8969
452.1826, 161.2386
452.6647, 161.6034
453.1468, 161.9559
453.6289, 162.2460
454.1111, 162.5439
454.5932, 163.0928
455.0753, 164.0390
455.5574, 164.8066
456.0395, 164.9279
456.5216, 164.9480
457.0038, 165.2772
457.4859, 165.9774
457.9680, 166.9071
458.4501, 168.0089
458.9322, 169.2613
459.4143, 170.6117
459.8965, 172.1193
460.3786, 173.5359
460.8607, 174.6713
461.3428, 175.5612
461.8249, 176.2546
462.3070, 176.6418
462.7892, 176.9518
463.2713, 177.3091
463.7534, 177.7251
464.2355, 178.2816
464.7176, 179.0666
465.1997, 179.8648
465.6819, 180.2394
466.1640, 180.0150
466.6461, 180.0626
467.1282, 180.6519
467.6103, 181.4250
468.0924, 182.1124
468.5746, 182.6943
469.0567, 183.2417
469.5388, 183.7733
470.0209, 184.3284
470.5030, 185.2161
470.9851, 186.6254
471.4673, 188.1443
471.9494, 189.8012
472.4315, 191.5066
472.9136, 193.1499
473.3957, 194.7123
473.8778, 196.3029
474.3600, 198.0618
474.8421, 200.0092
475.3242, 201.9729
475.8063, 204.0224
476.2884, 206.0232
476.7705, 207.8861
477.2527, 209.6858
477.7348, 211.5453
478.2169, 213.5215
478.6990, 215.5774
479.1811, 217.6785
479.6632, 219.8531
480.1454, 221.8784
480.6275, 223.5329
481.1096, 225.1964
481.5917, 227.2365
482.0738, 229.6129
482.5559, 231.9404
483.0380, 234.0086
483.5201, 235.9393
484.0023, 237.8682
484.4844, 239.7973
484.9665, 241.8743
485.4486, 244.2393
485.9307, 246.7784
486.4128, 249.2208
486.8950, 251.6158
487.3771, 253.8101
487.8592, 255.5235
488.3413, 257.0966
488.8234, 259.0878
489.3055, 261.5876
489.7877, 264.0984
490.2698, 266.0814
490.7519, 267.5005
491.2340, 269.2527
491.7161, 271.9395
492.1982, 274.2383
492.6804, 275.8366
493.1625, 276.7693
493.6446, 276.9961
494.1267, 276.5297
494.6088, 275.7346
495.0909, 275.3430
495.5731, 275.8099
496.0552, 275.2207
496.5373, 272.8528
497.0194, 270.0717
497.5015, 267.4836
497.9836, 264.9025
498.4658, 261.8424
498.9479, 258.0396
499.4300, 253.6302
499.9121, 248.7432
500.3942, 243.3393
500.8763, 237.8842
501.3585, 232.4877
501.8406, 227.1185
502.3227, 221.5986
502.8048, 215.9442
503.2869, 210.5715
503.7690, 205.8591
504.2512, 201.4609
504.7333, 196.7135
505.2154, 191.5485
505.6975, 187.0031
506.1796, 183.8492
506.6617, 181.6612
507.1439, 179.0630
507.6260, 175.8392
508.1081, 172.6326
508.5902, 169.4572
509.0723, 166.4712
509.5544, 163.9130
510.0366, 161.8023
510.5187, 159.8048
511.0008, 157.5717
511.4829, 155.1062
511.9650, 153.1802
512.4471, 152.3317
512.9293, 151.3872
513.4114, 150.0383
513.8935, 148.5216
514.3756, 147.0782
514.8577, 145.7897
515.3398, 144.6380
515.8220, 143.6095
516.3041, 142.7068
516.7862, 141.9277
517.2683, 141.4338
517.7504, 140.8533
518.2325, 139.8881
518.7147, 138.7628
519.1968, 137.9132
519.6789, 137.5999
520.1610, 137.3266
520.6431, 136.3165
521.1252, 134.7144
521.6074, 133.7853
522.0895, 134.0462
522.5716, 134.6311
523.0537, 134.5925
523.5358, 134.0154
524.0179, 133.4474
524.5001, 132.8541
524.9822, 132.4070
525.4643, 132.4448
525.9464, 132.7498
526.4285, 132.6009
526.9106, 131.6380
527.3928, 130.3709
527.8749, 129.7559
528.3570, 130.1005
528.8391, 130.4197
529.3212, 130.8603
529.8033, 131.1429
530.2855, 131.0016
530.7676, 130.5720
531.2497, 130.1970
531.7318, 130.0822
532.2139, 130.1350
532.6960, 130.1197
533.1782, 130.0238
533.6603, 129.8949
534.1424, 129.7257
534.6245, 129.5358
535.1066, 129.3201
535.5887, 129.0895
536.0709, 128.8772
536.5530, 128.6850
537.0351, 128.5342
537.5172, 128.5398
537.9993, 128.7193
538.4814, 128.6579
538.9636, 128.0257
539.4457, 127.2070
539.9278, 126.9315
540.4099, 127.3435
540.8920, 127.3916
541.3741, 126.3453
541.8563, 125.0935
542.3384, 124.6800
542.8205, 125.0127
543.3026, 125.1613
543.7847, 124.5151
544.2668, 123.2980
544.7490, 122.3341
545.2311, 121.8134
545.7132, 121.3013
546.1953, 120.6903
546.6774, 120.1597
547.1595, 119.9155
547.6417, 119.9040
548.1238, 119.8607
548.6059, 119.5720
549.0880, 119.1033
549.5701, 118.7179
550.0522, 118.4682
550.5344, 118.1717
551.0165, 117.7313
551.4986, 117.2488
551.9807, 116.7716
552.4628, 116.3091
552.9449, 115.9358
553.4271, 115.6573
553.9092, 115.5105
554.3913, 115.6973
554.8734, 116.2290
555.3555, 116.4579
555.8376, 115.9110
556.3198, 114.9358
556.8019, 114.4548
557.2840, 114.6691
557.7661, 114.7877
558.2482, 114.5398
558.7303, 114.2188
559.2125, 114.0855
559.6946, 114.1448
560.1767, 114.2843
560.6588, 114.4487
561.1409, 114.5840
561.6230, 114.4352
562.1052, 113.6928
562.5873, 113.1953
563.0694, 113.2629
563.5515, 113.3828
564.0336, 113.1110
564.5157, 112.5039
564.9979, 112.0119
565.4800, 112.0356
565.9621, 112.3462
566.4442, 112.3247
566.9263, 111.9190
567.4084, 111.5371
567.8906, 111.3389
568.3727, 111.2312
568.8548, 111.0595
569.3369, 110.8121
569.8190, 110.6870
570.3011, 110.8048
570.7833, 111.0417
571.2654, 111.3997
571.7475, 111.7997
572.2296, 111.8905
572.7117, 111.4535
573.1938, 110.6978
573.6760, 110.1098
574.1581, 109.6581
574.6402, 109.4667
575.1223, 109.7782
575.6044, 110.1127
576.0865, 110.1597
576.5687, 109.9889
577.0508, 109.8612
577.5329, 109.9433
578.0150, 110.0819
578.4971, 109.8711
578.9792, 109.2036
579.4614, 108.8099
579.9435, 109.0387
580.4256, 109.3429
580.9077, 109.4071
581.3898, 109.2231
581.8719, 108.7667
582.3541, 107.6438
582.8362, 106.5989
583.3183, 106.5077
583.8004, 107.1464
584.2825, 107.6984
584.7646, 107.9086
585.2468, 107.9112
585.7289, 107.8635
586.2110, 107.7596
586.6931, 107.6341
587.1752, 107.4741
587.6573, 107.3099
588.1394, 107.0795
588.6215, 106.8770
589.1036, 106.9124
589.5858, 107.2386
590.0679, 107.5636
590.5500, 107.4013
591.0321, 106.6727
591.5142, 106.3247
591.9963, 106.6775
592.4785, 106.9375
592.9606, 106.6174
593.4427, 106.0563
593.9248, 105.7453
594.4069, 105.8303
594.8890, 105.9922
595.3712, 105.9776
595.8533, 105.8671
596.3354, 105.8604
596.8175, 105.9876
597.2996, 106.1552
597.7817, 106.3658
598.2639, 106.5513
598.7460, 106.3185
599.2281, 105.1771
599.7102, 104.3456
600.1923, 104.1466
600.6744, 104.2362
601.1566, 104.4292
601.6387, 104.6292
602.1208, 104.6531
602.6029, 104.3100
603.0850, 103.7549
603.5671, 103.6881
604.0493, 104.4428
604.5314, 104.7913
605.0135, 103.9829
605.4956, 103.0490
605.9777, 102.6865
606.4598, 102.8651
606.9420, 103.1466
607.4241, 103.4914
607.9062, 103.7192
608.3883, 103.4626
608.8704, 102.8309
609.3525, 102.4830
609.8347, 102.7075
610.3168, 103.0968
610.7989, 103.0718
611.2810, 102.5129
611.7631, 102.1186
612.2452, 101.8991
612.7274, 101.8249
613.2095, 101.9733
613.6916, 102.2288
614.1737, 102.4776
614.6558, 102.6657
615.1379, 102.6901
615.6201, 102.3092
616.1022, 101.5043
616.5843, 101.0539
617.0664, 101.1035
617.5485, 101.2571
618.0306, 101.3099
618.5128, 101.3696
618.9949, 101.6327
619.4770, 102.1848
619.9591, 102.5888
620.4412, 102.5065
620.9233, 102.1632
621.4055, 101.8484
621.8876, 101.5993
622.3697, 101.4680
622.8518, 101.5022
623.3339, 101.6498
623.8160, 101.7690
624.2982, 102.1067
624.7803, 101.9821
625.2624, 100.8769
625.7445, 99.79133
626.2266, 99.40887
626.7087, 99.55190
627.1909, 99.68148
627.6730, 99.50692
628.1551, 99.21999
628.6372, 99.18130
629.1193, 99.40064
629.6014, 99.49462
630.0836, 99.33245
630.5657, 99.16055
631.0478, 99.27629
631.5299, 99.53514
632.0120, 99.55587
632.4941, 99.18613
632.9763, 98.71223
633.4584, 98.10409
633.9405, 97.55049
634.4226, 97.42460
634.9047, 97.74391
635.3868, 98.09485
635.8690, 98.12000
636.3511, 97.87455
636.8332, 97.74728
637.3153, 97.85110
637.7974, 97.88628
638.2795, 97.67615
638.7617, 97.50585
639.2438, 97.70250
639.7259, 98.16190
640.2080, 98.39480
640.6901, 98.01314
641.1722, 97.37872
641.6544, 96.99761
642.1365, 96.86137
642.6186, 96.96249
643.1007, 97.40048
643.5828, 97.78712
644.0649, 97.65042
644.5471, 96.95329
645.0292, 96.41991
645.5113, 96.03670
645.9934, 95.83165
646.4755, 95.93954
646.9576, 96.17125
647.4398, 96.27808
647.9219, 96.22054
648.4040, 96.15511
648.8861, 96.25233
649.3682, 96.47014
649.8503, 96.52616
650.3325, 96.35661
650.8146, 96.20052
651.2967, 96.21150
651.7788, 96.20049
652.2609, 95.91991
652.7430, 95.39239
653.2252, 95.03574
653.7073, 95.15477
654.1894, 95.38637
654.6715, 95.40487
655.1536, 95.26036
655.6357, 95.10910
656.1179, 95.00346
656.6000, 94.93752
657.0821, 94.89957
657.5642, 94.88462
658.0463, 94.95098
658.5284, 95.31819
659.0106, 95.50305
659.4927, 95.26517
659.9748, 94.88542
660.4569, 94.62782
660.9390, 94.54525
661.4211, 94.56817
661.9033, 94.74218
662.3854, 94.95524
662.8675, 94.91745
663.3496, 94.62880
663.8317, 94.36019
664.3138, 94.17474
664.7960, 94.13814
665.2781, 94.44010
665.7602, 95.21306
666.2423, 95.52445
666.7244, 94.87425
667.2065, 94.27901
667.6887, 94.30659
668.1708, 94.63047
668.6529, 94.72020
669.1350, 94.44440
669.6171, 94.11830
670.0992, 94.09077
670.5814, 94.32569
