##NAMES=Bikitaite
##RRUFFID=R050160
##IDEAL CHEMISTRY=LiAlSi_2_O_6_&#183;H_2_O
##LOCALITY=Foote mine, Kings Mountain, Cleveland County, North Carolina, USA
##OWNER=RRUFF
##SOURCE=Jim McGlasson
##DESCRIPTION=Colorless prismatic crystals
##STATUS=The identification of this mineral has been confirmed by X-ray diffraction and chemical analysis
##URL=rruff.info/R050160
##MEASURED CHEMISTRY=Li_1.00_Si_2.00_O_6_Â·1.25H_2_O ; Li not measured but estimated by stoichiometry
93.74609, 44.80616
94.22821, 43.35453
94.71033, 43.85505
95.19244, 46.10582
95.67456, 49.39463
96.15668, 54.02610
96.63879, 59.53296
97.12091, 64.15115
97.60303, 67.65654
98.08514, 71.24643
98.56726, 76.39933
99.04938, 83.13977
99.53149, 91.13171
100.0136, 100.5987
100.4957, 111.5256
100.9778, 121.9379
101.4600, 131.3263
101.9421, 140.4935
102.4242, 151.1194
102.9063, 163.4987
103.3884, 176.7478
103.8705, 190.3330
104.3527, 204.6350
104.8348, 218.5944
105.3169, 232.3075
105.7990, 245.6770
106.2811, 258.8844
106.7632, 271.3636
107.2454, 284.1514
107.7275, 297.8239
108.2096, 312.7259
108.6917, 328.2794
109.1738, 344.1815
109.6559, 360.4298
110.1381, 378.3725
110.6202, 398.3421
111.1023, 420.0306
111.5844, 443.1451
112.0665, 471.7093
112.5486, 498.1815
113.0308, 521.0434
113.5129, 540.2122
113.9950, 556.6993
114.4771, 569.0939
114.9592, 579.1273
115.4413, 589.4772
115.9235, 601.2238
116.4056, 613.0108
116.8877, 623.8057
117.3698, 632.7766
117.8519, 642.8082
118.3340, 657.8766
118.8162, 675.0699
119.2983, 687.3898
119.7804, 694.7007
120.2625, 694.6463
120.7446, 684.9641
121.2267, 662.0125
121.7089, 633.7703
122.1910, 602.5254
122.6731, 569.1249
123.1552, 537.5253
123.6373, 510.0200
124.1194, 485.8517
124.6016, 463.5511
125.0837, 441.6950
125.5658, 422.7832
126.0479, 410.0958
126.5300, 403.5021
127.0121, 400.0440
127.4943, 397.2534
127.9764, 395.7292
128.4585, 396.8089
128.9406, 401.9409
129.4227, 409.7998
129.9048, 417.6974
130.3869, 425.4693
130.8691, 434.5920
131.3512, 446.6029
131.8333, 459.8936
132.3154, 472.9977
132.7975, 487.4805
133.2796, 503.9128
133.7618, 521.4202
134.2439, 539.9060
134.7260, 559.9739
135.2081, 581.9932
135.6902, 606.0001
136.1723, 632.5787
136.6545, 661.7245
137.1366, 693.2985
137.6187, 729.2479
138.1008, 770.7750
138.5829, 815.7769
139.0650, 860.8772
139.5472, 906.5654
140.0293, 951.1798
140.5114, 995.0856
140.9935, 1039.711
141.4756, 1078.387
141.9577, 1111.254
142.4399, 1138.326
142.9220, 1158.882
143.4041, 1173.272
143.8862, 1181.122
144.3683, 1181.808
144.8504, 1173.516
145.3326, 1162.361
145.8147, 1149.257
146.2968, 1134.076
146.7789, 1116.855
147.2610, 1097.657
147.7431, 1076.385
148.2253, 1052.398
148.7074, 1023.263
149.1895, 995.0156
149.6716, 969.2275
150.1537, 946.1035
150.6358, 922.9483
151.1180, 899.3790
151.6001, 875.9736
152.0822, 853.6833
152.5643, 830.9095
153.0464, 810.6656
153.5285, 794.0162
154.0107, 781.8685
154.4928, 770.2711
154.9749, 758.6465
155.4570, 747.4532
155.9391, 737.2516
156.4212, 728.2932
156.9034, 720.0352
157.3855, 712.2937
157.8676, 705.1740
158.3497, 698.5090
158.8318, 693.3694
159.3139, 688.5345
159.7961, 681.8790
160.2782, 672.2477
160.7603, 661.1706
161.2424, 649.1659
161.7245, 635.8051
162.2066, 622.6819
162.6888, 610.5758
163.1709, 599.0872
163.6530, 587.3412
164.1351, 574.5253
164.6172, 561.6066
165.0993, 549.1659
165.5815, 537.1584
166.0636, 525.8439
166.5457, 515.6846
167.0278, 506.3149
167.5099, 496.6246
167.9921, 486.0680
168.4742, 474.9345
168.9563, 463.4562
169.4384, 451.4972
169.9205, 439.4113
170.4026, 427.4977
170.8848, 415.6632
171.3669, 403.7096
171.8490, 390.9982
172.3311, 378.2763
172.8132, 366.4261
173.2953, 355.7047
173.7775, 345.9057
174.2596, 336.9619
174.7417, 328.7936
175.2238, 321.1041
175.7059, 313.3754
176.1880, 306.0822
176.6702, 300.0710
177.1523, 295.9430
177.6344, 292.9792
178.1165, 290.3760
178.5986, 288.1103
179.0807, 286.2613
179.5629, 284.7998
180.0450, 283.7690
180.5271, 283.2944
181.0092, 283.4757
181.4913, 284.1963
181.9734, 285.2440
182.4556, 286.6109
182.9377, 288.3913
183.4198, 290.7381
183.9019, 293.6069
184.3840, 296.7792
184.8661, 300.0522
185.3483, 303.5957
185.8304, 308.0257
186.3125, 313.3781
186.7946, 319.1410
187.2767, 324.8717
187.7588, 330.6038
188.2409, 336.1814
188.7231, 341.1505
189.2052, 345.9103
189.6873, 351.9203
190.1694, 359.2614
190.6515, 367.7461
191.1336, 377.3365
191.6158, 388.0029
192.0979, 399.2462
192.5800, 411.1046
193.0621, 423.4825
193.5442, 435.6746
194.0263, 447.4567
194.5085, 460.1813
194.9906, 475.7326
195.4727, 494.0872
195.9548, 514.0433
196.4369, 534.3998
196.9190, 555.3160
197.4012, 579.4961
197.8833, 606.7892
198.3654, 637.6208
198.8475, 671.7419
199.3296, 709.2928
199.8117, 749.9765
200.2939, 794.3021
200.7760, 842.1014
201.2581, 891.6913
201.7402, 944.5842
202.2223, 996.2753
202.7044, 1040.667
203.1866, 1078.114
203.6687, 1104.317
204.1508, 1117.831
204.6329, 1118.823
205.1150, 1104.716
205.5971, 1073.199
206.0793, 1029.477
206.5614, 981.1003
207.0435, 926.7140
207.5256, 874.7585
208.0077, 828.3787
208.4898, 787.3387
208.9720, 753.2728
209.4541, 726.3340
209.9362, 706.2049
210.4183, 692.6935
210.9004, 686.6583
211.3825, 685.0054
211.8647, 686.3797
212.3468, 690.6288
212.8289, 698.6144
213.3110, 710.5802
213.7931, 726.1734
214.2752, 744.6165
214.7574, 766.6769
215.2395, 790.0897
215.7216, 814.2700
216.2037, 839.1154
216.6858, 864.5889
217.1679, 891.9548
217.6501, 919.3281
218.1322, 942.1659
218.6143, 960.9365
219.0964, 974.7090
219.5785, 983.2260
220.0606, 987.5048
220.5428, 983.7079
221.0249, 970.9124
221.5070, 950.4660
221.9891, 925.5526
222.4712, 894.9567
222.9533, 861.6184
223.4355, 827.0891
223.9176, 789.9877
224.3997, 754.0912
224.8818, 718.6058
225.3639, 684.5256
225.8460, 653.1660
226.3282, 624.9041
226.8103, 599.0725
227.2924, 576.0124
227.7745, 555.5904
228.2566, 537.3192
228.7387, 521.4504
229.2209, 507.5806
229.7030, 495.1442
230.1851, 483.7188
230.6672, 474.2025
231.1493, 467.1098
231.6314, 463.1293
232.1136, 459.6760
232.5957, 456.4701
233.0778, 453.9030
233.5599, 452.8912
234.0420, 453.5656
234.5241, 455.5662
235.0063, 458.8000
235.4884, 463.3094
235.9705, 468.7644
236.4526, 475.1131
236.9347, 482.4695
237.4168, 491.1895
237.8990, 501.6298
238.3811, 512.8135
238.8632, 524.2576
239.3453, 535.7934
239.8274, 548.1115
240.3095, 560.8478
240.7917, 574.6190
241.2738, 590.6327
241.7559, 609.2385
242.2380, 629.4551
242.7201, 650.7562
243.2022, 673.0273
243.6844, 697.0945
244.1665, 723.4240
244.6486, 751.4407
245.1307, 780.2449
245.6128, 810.1523
246.0949, 840.3568
246.5771, 870.9003
247.0592, 902.3233
247.5413, 932.1606
248.0234, 960.6531
248.5055, 987.1980
248.9876, 1010.335
249.4697, 1030.105
249.9519, 1046.655
250.4340, 1059.606
250.9161, 1068.374
251.3982, 1076.306
251.8803, 1081.868
252.3624, 1087.803
252.8446, 1097.918
253.3267, 1113.636
253.8088, 1130.958
254.2909, 1149.882
254.7730, 1171.282
255.2551, 1188.355
255.7373, 1202.462
256.2194, 1210.907
256.7015, 1210.542
257.1836, 1201.709
257.6657, 1183.245
258.1479, 1153.364
258.6300, 1111.798
259.1121, 1067.664
259.5942, 1020.213
260.0763, 970.9600
260.5584, 919.4758
261.0406, 864.7465
261.5227, 811.6518
262.0048, 760.7131
262.4869, 712.3850
262.9690, 667.5278
263.4511, 626.5941
263.9333, 588.9996
264.4154, 554.2814
264.8975, 521.9531
265.3796, 493.1587
265.8617, 468.1850
266.3438, 447.0333
266.8260, 427.2627
267.3081, 408.7115
267.7902, 392.0800
268.2723, 378.7256
268.7544, 369.1091
269.2365, 360.1773
269.7187, 351.3816
270.2008, 342.8409
270.6829, 335.7158
271.1650, 330.1707
271.6471, 325.6392
272.1292, 321.8763
272.6114, 318.9034
273.0935, 316.4264
273.5756, 314.2755
274.0577, 312.6606
274.5398, 312.3844
275.0219, 313.5982
275.5041, 315.6743
275.9862, 318.4237
276.4683, 321.9474
276.9504, 325.1319
277.4325, 327.6211
277.9146, 329.9356
278.3968, 333.4233
278.8788, 338.1716
279.3610, 343.5681
279.8431, 349.0208
280.3252, 354.4393
280.8073, 361.4126
281.2894, 370.2656
281.7715, 380.3668
282.2537, 390.2974
282.7358, 399.9320
283.2179, 410.7284
283.7000, 423.5584
284.1821, 438.4330
284.6642, 453.8428
285.1464, 469.6021
285.6285, 486.4712
286.1106, 505.8516
286.5927, 527.7444
287.0748, 550.6097
287.5569, 574.2243
288.0391, 598.4931
288.5212, 622.3216
289.0033, 646.0424
289.4854, 668.4040
289.9675, 688.2051
290.4496, 705.4806
290.9318, 719.7722
291.4139, 731.2644
291.8960, 739.7861
292.3781, 744.6397
292.8602, 745.8725
293.3423, 743.4973
293.8245, 737.8871
294.3066, 728.8328
294.7887, 715.1172
295.2708, 695.5616
295.7529, 671.7445
296.2350, 645.6666
296.7172, 617.4672
297.1993, 590.4175
297.6814, 566.7557
298.1635, 546.1008
298.6456, 527.7626
299.1277, 511.2960
299.6099, 497.0159
300.0920, 486.5490
300.5741, 479.4102
301.0562, 473.2459
301.5383, 466.8354
302.0204, 460.0912
302.5026, 452.8958
302.9847, 445.0258
303.4668, 436.9773
303.9489, 428.9519
304.4310, 421.1398
304.9131, 413.6528
305.3953, 405.7089
305.8774, 398.5116
306.3595, 393.8161
306.8416, 392.0093
307.3237, 392.0848
307.8058, 393.5347
308.2880, 396.2348
308.7701, 399.8952
309.2522, 404.2923
309.7343, 409.6690
310.2164, 416.7061
310.6985, 425.7234
311.1807, 434.4506
311.6628, 442.2455
312.1449, 448.6818
312.6270, 452.8775
313.1091, 455.0338
313.5912, 454.5360
314.0734, 450.4696
314.5555, 442.8399
315.0376, 433.8535
315.5197, 424.4896
316.0018, 414.3502
316.4839, 403.2689
316.9661, 388.6195
317.4482, 375.2680
317.9303, 365.4576
318.4124, 358.9249
318.8945, 353.6732
319.3766, 348.5298
319.8588, 344.6774
320.3409, 343.0615
320.8230, 344.8285
321.3051, 347.5465
321.7872, 350.4484
322.2693, 353.7802
322.7515, 358.2962
323.2336, 365.0634
323.7157, 372.3876
324.1978, 379.6226
324.6799, 387.1406
325.1620, 393.5188
325.6442, 399.4975
326.1263, 404.1021
326.6084, 405.6035
327.0905, 402.2843
327.5726, 397.2642
328.0547, 391.3081
328.5369, 384.4085
329.0190, 376.8398
329.5011, 368.1211
329.9832, 359.0110
330.4653, 350.3288
330.9474, 340.8391
331.4296, 333.3240
331.9117, 328.6872
332.3938, 327.0861
332.8759, 325.5271
333.3580, 323.1715
333.8401, 321.6328
334.3223, 322.2498
334.8044, 325.6216
335.2865, 329.9820
335.7686, 335.2639
336.2507, 341.3985
336.7328, 347.6573
337.2150, 353.8493
337.6971, 360.5858
338.1792, 368.4272
338.6613, 377.5464
339.1434, 386.7189
339.6255, 395.7956
340.1077, 404.9322
340.5898, 414.9414
341.0719, 425.8673
341.5540, 436.7289
342.0361, 446.7228
342.5182, 455.8379
343.0004, 465.8865
343.4825, 477.1219
343.9646, 488.5226
344.4467, 498.3737
344.9288, 506.5536
345.4109, 514.5910
345.8931, 523.0520
346.3752, 531.7732
346.8573, 539.7648
347.3394, 547.0966
347.8215, 553.7123
348.3036, 559.5121
348.7858, 564.5428
349.2679, 568.9716
349.7500, 572.5540
350.2321, 575.8466
350.7142, 580.2980
351.1964, 585.6918
351.6785, 590.1303
352.1606, 592.3381
352.6427, 592.5409
353.1248, 591.2067
353.6069, 588.3727
354.0891, 584.1008
354.5712, 578.2186
355.0533, 570.9494
355.5354, 562.7703
356.0175, 552.8334
356.4996, 542.7902
356.9818, 534.2282
357.4639, 527.3202
357.9460, 521.5212
358.4281, 515.8620
358.9102, 511.1582
359.3923, 508.6991
359.8745, 509.8388
360.3566, 512.6926
360.8387, 516.1169
361.3208, 520.1375
361.8029, 525.3376
362.2850, 532.4897
362.7672, 540.6722
363.2493, 549.0906
363.7314, 556.5878
364.2135, 565.4938
364.6956, 576.5188
365.1777, 589.4816
365.6599, 603.7135
366.1420, 619.8745
366.6241, 636.7057
367.1062, 653.2412
367.5883, 668.5040
368.0704, 685.6962
368.5526, 705.8493
369.0347, 727.9120
369.5168, 750.5798
369.9989, 773.4252
370.4810, 797.2665
370.9631, 822.0131
371.4453, 847.3757
371.9274, 876.0002
372.4095, 908.6101
372.8916, 943.4886
373.3737, 979.3914
373.8558, 1015.935
374.3380, 1054.417
374.8201, 1095.354
375.3022, 1138.749
375.7843, 1183.341
376.2664, 1229.682
376.7485, 1277.047
377.2307, 1324.683
377.7128, 1372.522
378.1949, 1423.043
378.6770, 1476.670
379.1591, 1532.112
379.6412, 1586.454
380.1234, 1640.421
380.6055, 1691.270
381.0876, 1738.148
381.5697, 1780.912
382.0518, 1820.261
382.5339, 1856.077
383.0161, 1887.358
383.4982, 1912.479
383.9803, 1931.756
384.4624, 1945.472
384.9445, 1952.686
385.4266, 1955.314
385.9088, 1956.174
386.3909, 1955.287
386.8730, 1953.251
387.3551, 1949.822
387.8372, 1945.624
388.3193, 1941.440
388.8015, 1937.010
389.2836, 1933.800
389.7657, 1932.775
390.2478, 1934.005
390.7299, 1937.675
391.2120, 1944.124
391.6942, 1952.918
392.1763, 1964.818
392.6584, 1979.978
393.1405, 1993.793
393.6226, 2004.923
394.1047, 2013.028
394.5869, 2017.579
395.0690, 2020.575
395.5511, 2017.902
396.0332, 2009.264
396.5153, 1994.191
396.9974, 1970.196
397.4796, 1936.506
397.9617, 1893.834
398.4438, 1842.250
398.9259, 1779.512
399.4080, 1711.880
399.8901, 1636.370
400.3723, 1556.520
400.8544, 1479.851
401.3365, 1404.938
401.8186, 1334.267
402.3007, 1268.670
402.7828, 1208.363
403.2649, 1150.974
403.7470, 1095.365
404.2292, 1043.672
404.7113, 998.7849
405.1934, 961.8750
405.6755, 927.3780
406.1576, 894.8689
406.6397, 864.3492
407.1219, 836.3838
407.6040, 811.0223
408.0861, 787.9908
408.5682, 766.9615
409.0503, 748.2736
409.5324, 732.1897
410.0146, 719.0823
410.4967, 707.5587
410.9788, 695.2894
411.4609, 682.5934
411.9430, 671.5220
412.4251, 663.3082
412.9073, 657.1622
413.3894, 650.7891
413.8715, 644.1965
414.3536, 638.6158
414.8357, 635.1874
415.3178, 633.3816
415.8000, 632.3745
416.2821, 632.2895
416.7642, 632.3019
417.2463, 631.2009
417.7284, 629.5082
418.2105, 628.6406
418.6927, 629.8448
419.1748, 631.7912
419.6569, 633.8431
420.1390, 636.0764
420.6211, 637.1845
421.1032, 636.1174
421.5854, 633.8182
422.0675, 631.3207
422.5496, 629.1830
423.0317, 626.5794
423.5138, 623.4862
423.9959, 619.8280
424.4781, 614.9706
424.9602, 607.9456
425.4423, 600.4656
425.9244, 593.2516
426.4065, 586.3253
426.8886, 579.7257
427.3708, 573.2668
427.8529, 567.1533
428.3350, 561.7589
428.8171, 557.6580
429.2992, 553.1974
429.7813, 547.7938
430.2635, 541.5109
430.7456, 535.7369
431.2277, 530.6143
431.7098, 525.7742
432.1919, 520.7086
432.6740, 515.3157
433.1562, 511.1012
433.6383, 508.4781
434.1204, 506.7911
434.6025, 504.6488
435.0846, 502.0698
435.5667, 499.8869
436.0489, 498.6146
436.5310, 498.0610
437.0131, 497.5782
437.4952, 497.1315
437.9773, 497.0395
438.4594, 497.7179
438.9416, 498.9780
439.4237, 500.4197
439.9058, 501.9224
440.3879, 503.5710
440.8700, 505.5782
441.3521, 507.8526
441.8343, 510.0602
442.3164, 512.5737
442.7985, 514.6002
443.2806, 515.3381
443.7627, 514.4055
444.2448, 513.4056
444.7270, 513.5568
445.2091, 513.8139
445.6912, 512.9355
446.1733, 509.9945
446.6554, 506.5036
447.1375, 502.8640
447.6197, 499.0444
448.1018, 494.7356
448.5839, 488.4923
449.0660, 482.9771
449.5481, 479.5970
450.0302, 479.5581
450.5124, 479.1440
450.9945, 478.3807
451.4766, 477.2437
451.9587, 475.3933
452.4408, 472.0775
452.9229, 470.1676
453.4051, 470.5681
453.8872, 473.0959
454.3693, 476.1929
454.8514, 479.7578
455.3335, 484.4127
455.8156, 491.1075
456.2978, 499.6259
456.7799, 508.0128
457.2620, 515.9100
457.7441, 524.0251
458.2262, 533.3351
458.7083, 543.7859
459.1905, 555.5964
459.6726, 569.2214
460.1547, 583.9951
460.6368, 598.7410
461.1189, 613.6023
461.6010, 629.5191
462.0832, 647.9984
462.5653, 667.6464
463.0474, 686.6431
463.5295, 705.0178
464.0116, 722.3240
464.4937, 738.3926
464.9759, 753.2412
465.4580, 766.3790
465.9401, 778.0511
466.4222, 787.6984
466.9043, 794.6135
467.3864, 798.4769
467.8686, 801.8854
468.3507, 803.9431
468.8328, 806.3934
469.3149, 810.4652
469.7970, 816.4210
470.2791, 823.5128
470.7613, 831.6055
471.2434, 840.7747
471.7255, 851.2131
472.2076, 862.9164
472.6897, 875.9137
473.1718, 890.7888
473.6540, 907.4797
474.1361, 923.5342
474.6182, 938.6847
475.1003, 954.1818
475.5824, 971.7040
476.0645, 991.0840
476.5467, 1010.058
477.0288, 1028.527
477.5109, 1046.088
477.9930, 1061.609
478.4751, 1075.440
478.9572, 1089.230
479.4394, 1104.019
479.9215, 1119.300
480.4036, 1133.344
480.8857, 1146.056
481.3678, 1161.265
481.8499, 1182.862
482.3321, 1207.929
482.8142, 1232.859
483.2963, 1255.516
483.7784, 1279.725
484.2605, 1307.669
484.7426, 1338.184
485.2248, 1368.252
485.7069, 1396.179
486.1890, 1424.073
486.6711, 1452.709
487.1532, 1482.313
487.6353, 1511.984
488.1175, 1541.001
488.5996, 1570.048
489.0817, 1599.317
489.5638, 1627.497
490.0459, 1658.528
490.5280, 1693.500
491.0102, 1731.023
491.4923, 1768.084
491.9744, 1804.463
492.4565, 1842.819
492.9386, 1885.646
493.4207, 1932.422
493.9029, 1978.907
494.3850, 2025.706
494.8671, 2070.018
495.3492, 2110.145
495.8313, 2146.175
496.3134, 2179.423
496.7956, 2211.219
497.2777, 2237.813
497.7598, 2256.106
498.2419, 2265.848
498.7240, 2265.873
499.2061, 2256.407
499.6883, 2236.507
500.1704, 2204.836
500.6525, 2161.436
501.1346, 2109.604
501.6167, 2047.500
502.0988, 1978.821
502.5810, 1906.199
503.0631, 1827.449
503.5452, 1747.110
504.0273, 1664.685
504.5094, 1581.355
504.9915, 1501.365
505.4737, 1425.027
505.9558, 1351.653
506.4379, 1281.419
506.9200, 1214.359
507.4021, 1151.408
507.8842, 1091.772
508.3664, 1036.350
508.8485, 985.3665
509.3306, 938.8660
509.8127, 894.7782
510.2948, 853.0782
510.7769, 813.7483
511.2591, 777.4052
511.7412, 743.8914
512.2233, 713.4059
512.7054, 686.4734
513.1875, 661.8441
513.6696, 637.5042
514.1517, 613.6984
514.6339, 591.7587
515.1160, 573.1649
515.5981, 556.5167
516.0802, 540.4261
516.5623, 524.7769
517.0444, 509.3723
517.5266, 493.1941
518.0087, 477.5879
518.4908, 464.0210
518.9729, 454.3411
519.4550, 445.0001
519.9371, 435.1791
520.4193, 425.0974
520.9014, 416.0557
521.3835, 408.2596
521.8656, 401.1567
522.3477, 394.5772
522.8298, 388.5247
523.3120, 382.9304
523.7941, 377.9091
524.2762, 373.3324
524.7583, 369.0803
525.2404, 365.1281
525.7225, 361.8094
526.2047, 359.2257
526.6868, 357.1357
527.1689, 355.1896
527.6510, 353.3836
528.1331, 351.6570
528.6152, 349.9958
529.0974, 348.3754
529.5795, 346.5202
530.0616, 344.4875
530.5437, 343.0264
531.0258, 342.9610
531.5079, 343.5117
531.9901, 343.8104
532.4722, 343.3289
532.9543, 343.6302
533.4364, 346.2171
533.9185, 349.6716
534.4006, 352.1177
534.8828, 351.7682
535.3649, 351.9365
535.8470, 353.4102
536.3291, 355.9971
536.8112, 358.6066
537.2933, 361.3841
537.7755, 363.9498
538.2576, 366.1337
538.7397, 367.9610
539.2218, 369.3772
539.7039, 370.4357
540.1860, 370.8959
540.6682, 370.7687
541.1503, 369.9731
541.6324, 367.4240
542.1145, 362.7541
542.5966, 356.5389
543.0787, 349.2992
543.5609, 341.1955
544.0430, 332.8182
544.5251, 324.3869
545.0072, 315.8718
545.4893, 307.2194
545.9714, 298.4640
546.4536, 290.0341
546.9357, 281.7736
547.4178, 274.1681
547.8999, 267.7289
548.3820, 263.1526
548.8641, 258.3057
549.3463, 252.3001
549.8284, 245.9575
550.3105, 240.3416
550.7926, 235.6615
551.2747, 231.4295
551.7568, 227.5514
552.2390, 224.0269
552.7211, 220.7646
553.2032, 217.7329
553.6853, 215.0713
554.1674, 212.9626
554.6495, 211.3682
555.1317, 209.6019
555.6138, 207.6669
556.0959, 205.7965
556.5780, 204.2805
557.0601, 203.0183
557.5422, 201.7697
558.0244, 200.5403
558.5065, 199.1587
558.9886, 197.4401
559.4707, 195.4459
559.9528, 193.3423
560.4349, 190.5820
560.9171, 188.2632
561.3992, 187.3573
561.8813, 187.6208
562.3634, 187.3666
562.8455, 185.5552
563.3276, 183.6054
563.8098, 182.2360
564.2919, 181.6986
564.7740, 180.9378
565.2561, 179.7426
565.7382, 178.5310
566.2203, 177.8008
566.7025, 177.7875
567.1846, 177.1643
567.6667, 175.5075
568.1488, 173.4825
568.6309, 172.7169
569.1130, 173.1380
569.5952, 173.2249
570.0773, 172.1478
570.5594, 170.3957
571.0415, 168.6754
571.5236, 167.0113
572.0057, 165.6785
572.4879, 165.0606
572.9700, 164.7459
573.4521, 164.3067
573.9342, 163.6557
574.4163, 163.0202
574.8984, 162.4783
575.3806, 162.0164
575.8627, 161.6147
576.3448, 161.5274
576.8269, 161.1884
577.3090, 160.3770
577.7911, 159.2932
578.2733, 158.3666
578.7554, 157.6624
579.2375, 157.0195
579.7196, 156.4448
580.2017, 155.9053
580.6838, 155.0614
581.1660, 153.8485
581.6481, 152.7429
582.1302, 152.1955
582.6123, 152.0732
583.0944, 151.7979
583.5765, 151.3076
584.0587, 150.8589
584.5408, 150.9216
585.0229, 151.1666
585.5050, 151.0022
585.9871, 150.0308
586.4692, 148.9605
586.9514, 148.0701
587.4335, 147.3909
587.9156, 147.0088
588.3977, 147.3255
