##NAMES=Bikitaite
##RRUFFID=R050160
##IDEAL CHEMISTRY=LiAlSi_2_O_6_&#183;H_2_O
##LOCALITY=Foote mine, Kings Mountain, Cleveland County, North Carolina, USA
##OWNER=RRUFF
##SOURCE=Jim McGlasson
##DESCRIPTION=Colorless prismatic crystals
##STATUS=The identification of this mineral has been confirmed by X-ray diffraction and chemical analysis
##URL=rruff.info/R050160
##MEASURED CHEMISTRY=Li_1.00_Si_2.00_O_6_Â·1.25H_2_O ; Li not measured but estimated by stoichiometry
93.46680, 691.4222
93.94891, 675.6312
94.43103, 677.6674
94.91315, 692.9941
95.39526, 709.3467
95.87738, 723.6267
96.35950, 737.0958
96.84161, 749.8824
97.32373, 762.8573
97.80585, 775.2496
98.28796, 786.9928
98.77008, 798.5114
99.25220, 809.2590
99.73431, 818.6943
100.2164, 827.5148
100.6985, 831.5733
101.1807, 832.2067
101.6628, 830.8473
102.1449, 828.0969
102.6270, 823.8491
103.1091, 818.4733
103.5912, 815.0657
104.0734, 812.4449
104.5555, 813.0437
105.0376, 818.6266
105.5197, 827.8380
106.0018, 838.0632
106.4839, 847.0844
106.9661, 854.7004
107.4482, 862.8906
107.9303, 871.9836
108.4124, 881.0204
108.8945, 890.1405
109.3766, 899.1458
109.8588, 906.7114
110.3409, 911.2333
110.8230, 912.6771
111.3051, 910.7628
111.7872, 905.2579
112.2693, 896.4111
112.7515, 884.3132
113.2336, 868.7775
113.7157, 850.3504
114.1978, 828.8997
114.6799, 804.5477
115.1620, 781.0477
115.6442, 760.6539
116.1263, 743.2405
116.6084, 728.2507
117.0905, 718.0445
117.5726, 708.5686
118.0547, 697.9308
118.5369, 685.8475
119.0190, 670.9299
119.5011, 650.8678
119.9832, 624.4014
120.4653, 595.3895
120.9474, 562.5170
121.4296, 528.6829
121.9117, 495.6732
122.3938, 464.2585
122.8759, 434.8903
123.3580, 408.7763
123.8401, 387.4104
124.3223, 368.4633
124.8044, 351.9219
125.2865, 337.6471
125.7686, 325.6729
126.2507, 315.9537
126.7328, 308.4624
127.2150, 302.6075
127.6971, 298.3102
128.1792, 295.2003
128.6613, 293.2663
129.1434, 292.4435
129.6255, 292.4769
130.1077, 293.1851
130.5898, 294.7053
131.0719, 297.0995
131.5540, 299.8885
132.0361, 303.8187
132.5182, 309.9489
133.0004, 318.6083
133.4825, 328.2867
133.9646, 337.3109
134.4467, 346.3229
134.9288, 356.9419
135.4109, 370.2372
135.8931, 385.7204
136.3752, 401.8266
136.8573, 417.9971
137.3394, 435.6615
137.8215, 455.7339
138.3036, 477.7925
138.7858, 500.3567
139.2679, 522.8562
139.7500, 545.5223
140.2321, 566.2214
140.7142, 585.6779
141.1963, 602.4910
141.6785, 616.4368
142.1606, 627.2135
142.6427, 634.4149
143.1248, 637.3299
143.6069, 634.8463
144.0890, 629.8703
144.5712, 622.0537
145.0533, 612.5605
145.5354, 601.9156
146.0175, 590.3691
146.4996, 577.9735
146.9817, 564.7728
147.4639, 550.0768
147.9460, 535.6243
148.4281, 521.3914
148.9102, 507.4129
149.3923, 493.4600
149.8744, 479.2754
150.3566, 465.6022
150.8387, 454.3486
151.3208, 445.8576
151.8029, 437.8684
152.2850, 429.3506
152.7671, 420.6140
153.2493, 412.7658
153.7314, 406.1334
154.2135, 400.8850
154.6956, 396.8781
155.1777, 394.4560
155.6598, 392.5146
156.1420, 390.4459
156.6241, 388.2854
157.1062, 385.4942
157.5883, 381.8808
158.0704, 377.4591
158.5525, 372.1485
159.0347, 365.9016
159.5168, 358.8369
159.9989, 350.9261
160.4810, 341.8086
160.9631, 332.7680
161.4452, 323.9048
161.9274, 315.3955
162.4095, 307.4037
162.8916, 300.0562
163.3737, 293.2277
163.8558, 286.5708
164.3379, 279.9257
164.8201, 273.7007
165.3022, 268.0365
165.7843, 262.7758
166.2664, 257.8068
166.7485, 253.0555
167.2306, 248.4921
167.7128, 243.6800
168.1949, 238.0915
168.6770, 232.8085
169.1591, 228.3077
169.6412, 224.2954
170.1233, 220.0693
170.6055, 215.0824
171.0876, 209.3428
171.5697, 204.5597
172.0518, 201.1832
172.5339, 198.1185
173.0160, 194.7682
173.4982, 191.2189
173.9803, 187.9948
174.4624, 185.5613
174.9445, 183.9502
175.4266, 182.3334
175.9087, 180.3691
176.3909, 178.6143
176.8730, 177.5150
177.3551, 177.0976
177.8372, 177.1948
178.3193, 177.9125
178.8014, 179.0835
179.2836, 180.2119
179.7657, 180.9510
180.2478, 181.6741
180.7299, 182.9652
181.2120, 184.9119
181.6941, 187.2263
182.1763, 190.1985
182.6584, 193.3804
183.1405, 195.8232
183.6226, 196.4271
184.1047, 195.9345
184.5868, 196.9220
185.0690, 200.2048
185.5511, 203.8474
186.0332, 207.0949
186.5153, 209.9713
186.9974, 212.5460
187.4795, 214.7660
187.9617, 216.6667
188.4438, 218.6623
188.9259, 220.1394
189.4080, 222.4388
189.8901, 226.3110
190.3722, 231.3554
190.8544, 236.6788
191.3365, 241.4798
191.8186, 245.7028
192.3007, 250.5268
192.7828, 256.1775
193.2649, 262.2423
193.7471, 268.4145
194.2292, 274.8275
194.7113, 281.8951
195.1934, 289.9230
195.6755, 298.9462
196.1576, 309.1151
196.6398, 320.7916
197.1219, 333.0018
197.6040, 344.7389
198.0861, 356.2821
198.5682, 369.1315
199.0503, 384.7494
199.5325, 403.6308
200.0146, 423.3307
200.4967, 445.1307
200.9788, 466.7108
201.4609, 487.5052
201.9430, 507.1790
202.4252, 523.9907
202.9073, 536.8349
203.3894, 545.2043
203.8715, 546.8854
204.3536, 539.9573
204.8357, 527.2802
205.3179, 510.4230
205.8000, 489.3645
206.2821, 466.9543
206.7642, 444.8903
207.2463, 423.3131
207.7284, 404.0467
208.2106, 387.1766
208.6927, 372.9225
209.1748, 361.6635
209.6569, 353.4674
210.1390, 348.0314
210.6211, 345.6158
211.1033, 345.6790
211.5854, 347.6790
212.0675, 351.6618
212.5496, 357.4261
213.0317, 364.5982
213.5138, 373.2327
213.9960, 383.1859
214.4781, 394.7877
214.9602, 407.4839
215.4423, 420.2393
215.9244, 432.6587
216.4065, 444.7231
216.8886, 456.3121
217.3708, 468.3392
217.8529, 478.2960
218.3350, 485.9662
218.8171, 491.1079
219.2992, 493.3085
219.7813, 492.1642
220.2635, 487.8430
220.7456, 481.3745
221.2277, 472.1945
221.7098, 461.2182
222.1919, 448.1347
222.6740, 433.6968
223.1562, 418.9099
223.6383, 404.3592
224.1204, 390.1021
224.6025, 376.8128
225.0846, 364.2850
225.5667, 353.2542
226.0489, 344.0315
226.5310, 336.3858
227.0131, 329.9878
227.4952, 324.6320
227.9773, 320.3043
228.4594, 316.3037
228.9416, 312.1168
229.4237, 308.8432
229.9058, 306.7527
230.3879, 305.7823
230.8700, 305.8580
231.3521, 306.9732
231.8343, 309.0827
232.3164, 311.4443
232.7985, 313.7301
233.2806, 316.5774
233.7627, 320.0059
234.2448, 324.1362
234.7270, 329.3766
235.2091, 336.1530
235.6912, 344.1886
236.1733, 350.7511
236.6554, 353.9692
237.1375, 358.0598
237.6197, 364.9169
238.1018, 373.6717
238.5839, 382.2310
239.0660, 389.2159
239.5481, 395.1546
240.0302, 403.0795
240.5124, 413.9134
240.9945, 425.2270
241.4766, 435.7787
241.9587, 446.0841
242.4408, 457.5072
242.9229, 470.9439
243.4051, 485.8680
243.8872, 500.5033
244.3693, 514.3263
244.8514, 528.5883
245.3335, 543.8880
245.8156, 559.9908
246.2978, 576.5069
246.7799, 593.9678
247.2620, 610.8210
247.7441, 624.2490
248.2262, 634.1918
248.7083, 641.4437
249.1905, 645.5334
249.6726, 647.0228
250.1547, 647.8410
250.6368, 648.1896
251.1189, 648.7801
251.6010, 650.3984
252.0832, 652.9064
252.5653, 656.7982
253.0474, 663.2791
253.5295, 671.6851
254.0116, 679.4176
254.4937, 686.3187
254.9759, 691.3611
255.4580, 694.6759
255.9401, 696.4563
256.4222, 693.9161
256.9043, 685.1039
257.3864, 670.4025
257.8686, 651.4881
258.3507, 627.4877
258.8328, 600.4375
259.3149, 572.3287
259.7970, 543.2363
260.2791, 513.7087
260.7613, 483.0690
261.2434, 451.9335
261.7255, 423.4735
262.2076, 398.7433
262.6897, 376.2601
263.1718, 354.4640
263.6540, 333.5574
264.1361, 314.2755
264.6182, 297.1108
265.1003, 282.0358
265.5824, 268.5130
266.0645, 257.0604
266.5467, 246.7075
267.0288, 236.5479
267.5109, 226.9116
267.9930, 218.6175
268.4751, 212.4451
268.9572, 208.0218
269.4394, 203.5903
269.9215, 198.9561
270.4036, 194.6308
270.8857, 190.6389
271.3678, 187.0561
271.8499, 184.0548
272.3321, 181.8570
272.8142, 180.1982
273.2963, 178.0827
273.7784, 174.7481
274.2605, 172.3158
274.7426, 171.5166
275.2248, 171.7434
275.7069, 172.3076
276.1890, 172.8937
276.6711, 173.6204
277.1532, 174.8253
277.6353, 176.7727
278.1175, 178.7379
278.5996, 180.3957
279.0817, 182.0821
279.5638, 184.0370
280.0459, 186.3583
280.5280, 189.1363
281.0102, 192.5980
281.4923, 196.8714
281.9744, 201.6026
282.4565, 206.5061
282.9386, 211.8936
283.4207, 217.9485
283.9029, 224.7331
284.3850, 232.2396
284.8671, 240.4930
285.3492, 249.6216
285.8313, 259.2469
286.3134, 269.3984
286.7956, 279.9337
287.2777, 291.0113
287.7598, 302.4866
288.2419, 313.9311
288.7240, 325.0232
289.2061, 335.8965
289.6883, 345.5662
290.1704, 354.3384
290.6525, 361.7436
291.1346, 367.6364
291.6167, 371.9434
292.0988, 374.5720
292.5810, 375.4952
293.0631, 374.7594
293.5452, 371.7600
294.0273, 365.9192
294.5094, 358.4278
294.9915, 349.1644
295.4737, 338.5101
295.9558, 326.8848
296.4379, 314.3754
296.9200, 301.1201
297.4021, 290.1705
297.8842, 283.0272
298.3664, 276.7258
298.8485, 270.7034
299.3306, 265.1715
299.8127, 260.7997
300.2948, 258.0530
300.7769, 256.3911
301.2591, 253.6182
301.7412, 248.3595
302.2233, 243.5939
302.7054, 240.1633
303.1875, 237.1649
303.6696, 233.3524
304.1518, 228.2580
304.6339, 222.7439
305.1160, 218.6074
305.5981, 216.4933
306.0802, 215.0366
306.5623, 213.9637
307.0445, 213.6096
307.5266, 214.4403
308.0087, 216.4880
308.4908, 219.1743
308.9729, 221.6936
309.4550, 223.9571
309.9372, 226.2632
310.4193, 229.0621
310.9014, 231.5647
311.3835, 233.3533
311.8656, 234.3691
312.3477, 234.7528
312.8299, 234.7253
313.3120, 234.4519
313.7941, 232.5103
314.2762, 228.0827
314.7583, 223.0509
315.2404, 217.8515
315.7226, 212.6417
316.2047, 207.4236
316.6868, 202.1085
317.1689, 196.7933
317.6510, 193.0800
318.1331, 192.1550
318.6153, 191.4968
319.0974, 190.4190
319.5795, 189.3127
320.0616, 188.7893
320.5437, 189.1638
321.0258, 190.3584
321.5080, 192.1460
321.9901, 194.9020
322.4722, 197.8314
322.9543, 200.8848
323.4364, 204.0800
323.9185, 207.8494
324.4007, 212.2080
324.8828, 216.2049
325.3649, 218.0875
325.8470, 216.7921
326.3291, 215.2331
326.8112, 213.9922
327.2934, 212.1156
327.7755, 208.6385
328.2576, 203.6282
328.7397, 198.0967
329.2218, 193.0249
329.7039, 188.2885
330.1861, 184.6786
330.6682, 182.9737
331.1503, 181.4849
331.6324, 179.0944
332.1145, 176.2507
332.5966, 174.2702
333.0788, 174.1992
333.5609, 175.9405
334.0430, 177.8474
334.5251, 179.7724
335.0072, 182.0630
335.4893, 184.8487
335.9715, 188.0254
336.4536, 191.4153
336.9357, 194.8983
337.4178, 198.6058
337.8999, 202.8702
338.3820, 208.3408
338.8642, 213.4370
339.3463, 217.7414
339.8284, 221.8343
340.3105, 226.2740
340.7926, 231.2120
341.2747, 236.2603
341.7568, 240.8250
342.2390, 244.6828
342.7211, 248.5690
343.2032, 252.3820
343.6853, 256.2793
344.1674, 260.6104
344.6495, 265.2041
345.1317, 269.4128
345.6138, 272.5642
346.0959, 274.5941
346.5780, 276.6577
347.0601, 278.5127
347.5422, 280.6613
348.0244, 283.7337
348.5065, 287.1530
348.9886, 289.8174
349.4707, 290.9287
349.9528, 290.9879
350.4349, 292.0967
350.9171, 295.5302
351.3992, 298.0273
351.8813, 299.0216
352.3634, 298.8922
352.8455, 297.9059
353.3276, 296.1646
353.8098, 293.8574
354.2919, 291.2892
354.7740, 288.4640
355.2561, 285.3512
355.7382, 281.3130
356.2203, 277.4721
356.7025, 274.3323
357.1846, 272.0218
357.6667, 270.6039
358.1488, 270.3794
358.6309, 271.3968
359.1130, 272.2195
359.5952, 272.0224
360.0773, 272.6171
360.5594, 274.8062
361.0415, 278.2906
361.5236, 282.4532
362.0057, 287.0648
362.4879, 292.0126
362.9700, 296.9593
363.4521, 301.6481
363.9342, 306.8804
364.4163, 313.0114
364.8984, 319.7447
365.3806, 326.8385
365.8627, 334.2641
366.3448, 341.9738
366.8269, 349.8434
367.3090, 357.8659
367.7911, 366.3970
368.2733, 375.3767
368.7554, 385.0908
369.2375, 395.6242
369.7196, 407.0389
370.2017, 419.4182
370.6838, 433.2598
371.1660, 448.2343
371.6481, 462.2663
372.1302, 473.9076
372.6123, 487.0526
373.0944, 505.1061
373.5765, 526.4397
374.0587, 547.8290
374.5408, 567.4667
375.0229, 586.7822
375.5050, 607.9887
375.9871, 631.1615
376.4692, 654.9065
376.9514, 678.7111
377.4335, 702.4862
377.9156, 726.1828
378.3977, 749.8355
378.8798, 773.4122
379.3619, 797.7514
379.8441, 822.2679
380.3262, 844.3964
380.8083, 863.4836
381.2904, 879.9650
381.7725, 894.4738
382.2546, 907.1236
382.7368, 917.6996
383.2189, 926.7061
383.7010, 933.4058
384.1831, 936.3431
384.6652, 935.2847
385.1473, 932.2729
385.6295, 928.5693
386.1116, 924.1179
386.5937, 918.9611
387.0758, 911.9010
387.5579, 905.2549
388.0400, 900.2433
388.5222, 896.7986
389.0043, 894.5380
389.4864, 893.2825
389.9685, 893.1434
390.4506, 894.6436
390.9327, 898.1914
391.4149, 902.0654
391.8970, 905.8175
392.3791, 909.7560
392.8612, 914.8480
393.3433, 921.1826
393.8254, 926.8432
394.3076, 929.6914
394.7897, 929.3799
395.2718, 927.0266
395.7539, 924.4870
396.2360, 918.4438
396.7181, 906.8651
397.2003, 890.1680
397.6824, 869.9698
398.1645, 847.0974
398.6466, 821.7167
399.1287, 793.6701
399.6108, 760.2650
400.0930, 727.6547
400.5751, 695.8367
401.0572, 665.3431
401.5393, 636.4142
402.0214, 609.2292
402.5035, 583.7249
402.9857, 559.7702
403.4678, 537.1921
403.9499, 516.9073
404.4320, 499.4273
404.9141, 483.2989
405.3962, 467.7780
405.8784, 452.9603
406.3605, 439.3606
406.8426, 427.5196
407.3247, 417.2229
407.8068, 407.4227
408.2889, 397.8382
408.7711, 389.3490
409.2532, 382.4083
409.7353, 376.4198
410.2174, 370.6719
410.6995, 364.9321
411.1816, 359.6597
411.6638, 355.6048
412.1459, 352.9731
412.6280, 350.5206
413.1101, 347.9603
413.5922, 345.6901
414.0743, 343.7232
414.5565, 342.1939
415.0386, 341.5332
415.5207, 342.5280
416.0028, 344.6500
416.4849, 345.8218
416.9670, 345.5384
417.4492, 345.5744
417.9313, 347.6883
418.4134, 350.4153
418.8955, 351.7341
419.3776, 350.7719
419.8597, 349.2236
420.3419, 348.9868
420.8240, 349.8506
421.3061, 349.8240
421.7882, 348.2918
422.2703, 345.6952
422.7524, 342.3670
423.2346, 338.3080
423.7167, 334.4844
424.1988, 331.7572
424.6809, 329.2333
425.1630, 325.4432
425.6451, 320.2548
426.1273, 315.0866
426.6094, 311.0641
427.0915, 307.9735
427.5736, 304.4230
428.0557, 300.1193
428.5378, 295.6903
429.0200, 291.2036
429.5021, 286.8133
429.9842, 282.8633
430.4663, 279.4647
430.9484, 276.5397
431.4305, 274.0187
431.9127, 272.2058
432.3948, 270.0376
432.8769, 266.5847
433.3590, 263.4902
433.8411, 262.3334
434.3232, 262.8282
434.8054, 263.2694
435.2875, 262.2840
435.7696, 260.0628
436.2517, 258.6084
436.7338, 258.5963
437.2159, 258.5851
437.6981, 258.2218
438.1802, 257.8190
438.6623, 257.8831
439.1444, 258.5359
439.6265, 259.2294
440.1086, 258.9861
440.5908, 257.2873
441.0729, 256.3668
441.5550, 256.7427
442.0371, 257.4330
442.5192, 258.3601
443.0013, 259.2769
443.4835, 259.7154
443.9656, 259.3386
444.4477, 258.3067
444.9298, 257.1539
445.4119, 255.9838
445.8940, 254.4075
446.3762, 251.8963
446.8583, 249.1487
447.3404, 246.8826
447.8225, 245.2489
448.3046, 243.5185
448.7867, 240.6190
449.2689, 236.9244
449.7510, 234.5733
450.2331, 234.2269
450.7152, 234.5036
451.1973, 234.4645
451.6794, 234.1825
452.1616, 233.8007
452.6437, 232.7589
453.1258, 232.1066
453.6079, 232.8246
454.0900, 234.8397
454.5721, 237.8342
455.0543, 241.9843
455.5364, 246.6310
456.0185, 250.2519
456.5006, 252.3976
456.9827, 255.3575
457.4648, 259.8026
457.9470, 265.2243
458.4291, 271.1615
458.9112, 277.5351
459.3933, 284.4912
459.8754, 292.2740
460.3575, 300.8687
460.8397, 309.1177
461.3218, 316.4858
461.8039, 324.2062
462.2860, 332.6731
462.7681, 341.6709
463.2502, 351.1469
463.7324, 361.0184
464.2145, 370.5252
464.6966, 378.4265
465.1787, 384.2657
465.6608, 389.7002
466.1429, 394.8404
466.6251, 399.4886
467.1072, 403.1856
467.5893, 406.3301
468.0714, 409.8082
468.5535, 414.2248
469.0356, 419.2462
469.5178, 423.7478
469.9999, 427.1684
470.4820, 431.6146
470.9641, 437.9129
471.4462, 445.2977
471.9283, 453.4902
472.4105, 462.3941
472.8926, 471.4556
473.3747, 479.9836
473.8568, 488.3110
474.3389, 497.7734
474.8210, 508.8975
475.3032, 519.8508
475.7853, 529.6001
476.2674, 538.2961
476.7495, 546.0035
477.2316, 552.5891
477.7137, 558.3467
478.1959, 563.3644
478.6780, 567.6822
479.1601, 571.2519
479.6422, 573.8029
480.1243, 576.5027
480.6064, 580.9291
481.0886, 587.3546
481.5707, 593.9545
482.0528, 599.8997
482.5349, 606.6080
483.0170, 615.1585
483.4991, 625.2746
483.9813, 636.2059
484.4634, 647.7094
484.9455, 659.2897
485.4276, 669.4967
485.9097, 676.6808
486.3918, 684.8593
486.8740, 694.9157
487.3561, 705.3605
487.8382, 714.7055
488.3203, 723.1857
488.8024, 732.4167
489.2845, 744.0494
489.7667, 757.8233
490.2488, 770.8444
490.7309, 781.7492
491.2130, 794.2802
491.6951, 810.2697
492.1772, 827.7496
492.6594, 844.7010
493.1415, 860.5891
493.6236, 876.1758
494.1057, 892.1331
494.5878, 908.4501
495.0699, 924.9203
495.5521, 942.7079
496.0342, 958.2521
496.5163, 968.6240
496.9984, 974.8386
497.4805, 978.4580
497.9626, 980.7838
498.4448, 979.5447
498.9269, 973.2538
499.4090, 961.9373
499.8911, 945.0881
500.3732, 922.0343
500.8553, 894.9316
501.3375, 866.3727
501.8196, 836.2522
502.3017, 804.9098
502.7838, 771.7189
503.2659, 737.8723
503.7480, 703.1003
504.2302, 668.2246
504.7123, 634.7947
505.1944, 603.6741
505.6765, 574.6190
506.1586, 546.7732
506.6407, 519.8951
507.1228, 494.6399
507.6049, 470.6457
508.0871, 448.2861
508.5692, 427.9711
509.0513, 409.5581
509.5334, 392.4662
510.0155, 376.3139
510.4977, 361.0368
510.9798, 346.8472
511.4619, 333.7628
511.9440, 321.6666
512.4261, 310.9615
512.9083, 300.9365
513.3904, 290.8156
513.8725, 280.4555
514.3546, 270.9463
514.8367, 263.3113
515.3188, 257.1099
515.8010, 251.0259
516.2831, 244.9191
516.7652, 239.0079
517.2473, 233.4880
517.7294, 228.2821
518.2115, 223.0910
518.6937, 217.6075
519.1758, 212.6063
519.6579, 208.4474
520.1400, 204.9922
520.6221, 202.2511
521.1042, 200.1860
521.5864, 198.0558
522.0685, 194.9081
522.5506, 190.5239
523.0327, 187.4606
523.5148, 186.6823
523.9969, 185.8732
524.4791, 184.1045
524.9612, 181.9354
525.4433, 180.1767
525.9254, 179.1288
526.4075, 178.5065
526.8896, 177.9508
527.3718, 177.4794
527.8539, 176.9860
528.3360, 176.4706
528.8181, 175.9321
529.3002, 175.2421
529.7823, 174.5508
530.2645, 174.1185
530.7466, 174.0441
531.2287, 174.2768
531.7108, 174.7502
532.1929, 175.4674
532.6750, 176.5463
533.1572, 178.2143
533.6393, 179.9167
534.1214, 180.9517
534.6035, 181.4314
535.0856, 182.0947
535.5677, 183.1789
536.0499, 184.4189
536.5320, 185.7175
537.0141, 187.0193
537.4962, 188.2538
537.9783, 189.4069
538.4604, 190.3491
538.9426, 190.8562
539.4247, 190.9304
539.9068, 190.4806
540.3889, 189.5794
540.8710, 188.1379
541.3531, 186.0588
541.8353, 183.3947
542.3174, 180.2373
542.7995, 176.6293
543.2816, 172.6052
543.7637, 168.1843
544.2458, 163.2072
544.7280, 158.2858
545.2101, 153.3203
545.6922, 148.6284
546.1743, 144.2687
546.6564, 140.3071
547.1385, 137.0558
547.6207, 135.0875
548.1028, 133.5081
548.5849, 130.7689
549.0670, 126.9228
549.5491, 123.5313
550.0313, 121.1500
550.5134, 119.4722
550.9955, 118.2768
551.4776, 117.5990
551.9597, 116.6518
552.4418, 115.0679
552.9240, 113.3507
553.4061, 111.8194
553.8882, 110.4937
554.3703, 109.3549
554.8524, 108.3953
555.3345, 107.5717
555.8167, 106.7971
556.2988, 106.1957
556.7809, 105.3892
557.2630, 104.1585
557.7451, 102.9479
558.2272, 101.9749
558.7094, 101.2204
559.1915, 100.6176
559.6736, 100.1666
560.1557, 99.72374
560.6378, 98.91444
561.1199, 97.65492
561.6021, 96.58251
562.0842, 95.84485
562.5663, 95.34517
563.0484, 94.99475
563.5305, 94.79166
564.0126, 94.72166
564.4948, 95.23125
564.9769, 95.53786
565.4590, 94.48375
565.9411, 92.39827
566.4232, 90.88773
566.9053, 90.65196
567.3875, 90.94141
567.8696, 90.58055
568.3517, 89.28303
568.8338, 88.27620
569.3159, 87.84583
569.7980, 87.43163
570.2802, 86.66529
570.7623, 85.70246
571.2444, 84.86739
571.7265, 84.31325
572.2086, 83.95224
572.6907, 83.63144
573.1729, 83.32862
573.6550, 83.15547
574.1371, 83.43169
574.6192, 83.49315
575.1013, 82.81064
575.5834, 81.73006
576.0656, 80.98603
576.5477, 80.94915
577.0298, 81.11519
577.5119, 80.96174
577.9940, 80.53001
578.4761, 80.01791
578.9583, 79.45452
579.4404, 78.86098
579.9225, 78.19545
580.4046, 77.48343
580.8867, 77.05493
581.3688, 77.16421
581.8510, 77.29160
582.3331, 77.18290
582.8152, 76.96037
583.2973, 76.85738
583.7794, 76.92258
584.2615, 76.93131
584.7437, 76.58507
585.2258, 75.85198
585.7079, 75.33517
586.1900, 75.19897
586.6721, 75.07595
587.1542, 74.92159
587.6363, 74.71089
588.1184, 74.36588
