##NAMES=Billietite
##RRUFFID=R070624
##IDEAL CHEMISTRY=Ba(U^6+^O_2_)_6_O_4_(OH)_6_&#183;8H_2_O
##LOCALITY=Eureka mine, Castell Esta√≥, La Plana de Mont-ros, La Torre de Capdella, Lleida, Catalonia, Spain
##OWNER=RRUFF
##SOURCE=Joan Abella i Creus
##DESCRIPTION=Yellow platy crystals associated with green malachite and orange becquerelite
##STATUS=The identification of this mineral has been confirmed by single-crystal X-ray diffraction.
##URL=rruff.info/R070624
91.87140, 0.0000000E+00
92.35352, 1426.569
92.83563, 1321.645
93.31775, 1276.974
93.79987, 1310.365
94.28198, 1406.396
94.76410, 1522.148
95.24622, 1649.214
95.72833, 1791.043
96.21045, 1950.212
96.69257, 2127.181
97.17468, 2324.756
97.65680, 2542.540
98.13892, 2781.359
98.62103, 3043.561
99.10315, 3322.978
99.58527, 3622.937
100.0674, 3951.928
100.5495, 4305.867
101.0316, 4691.746
101.5137, 5108.813
101.9958, 5556.315
102.4780, 6047.134
102.9601, 6582.454
103.4422, 7162.508
103.9243, 7785.306
104.4064, 8467.471
104.8885, 9185.054
105.3707, 9916.979
105.8528, 10682.77
106.3349, 11426.65
106.8170, 12123.29
107.2991, 12769.92
107.7813, 13373.68
108.2634, 13915.33
108.7455, 14414.08
109.2276, 14914.70
109.7097, 15402.94
110.1918, 15908.30
110.6740, 16443.87
111.1561, 16987.74
111.6382, 17586.78
112.1203, 18242.79
112.6024, 18960.13
113.0845, 19729.10
113.5667, 20548.88
114.0488, 21415.99
114.5309, 22337.99
115.0130, 23345.76
115.4951, 24372.18
115.9772, 25412.11
116.4594, 26473.16
116.9415, 27519.12
117.4236, 28550.97
117.9057, 29557.57
118.3878, 30522.87
118.8699, 31457.05
119.3521, 32347.28
119.8342, 33198.76
120.3163, 34012.01
120.7984, 34781.46
121.2805, 35502.94
121.7626, 36178.38
122.2448, 36811.14
122.7269, 37389.20
123.2090, 37931.88
123.6911, 38452.89
124.1732, 38949.89
124.6553, 39440.98
125.1375, 39942.68
125.6196, 40452.28
126.1017, 40961.20
126.5838, 41442.00
127.0659, 41922.55
127.5480, 42456.41
128.0302, 43059.63
128.5123, 43708.00
128.9944, 44372.68
129.4765, 45053.95
129.9586, 45754.44
130.4407, 46478.45
130.9229, 47223.98
131.4050, 47991.57
131.8871, 48772.57
132.3692, 49563.34
132.8513, 50340.65
133.3334, 51023.98
133.8156, 51467.47
134.2977, 51739.77
134.7798, 52019.86
135.2619, 52270.20
135.7440, 52482.02
136.2261, 52659.12
136.7083, 52836.80
137.1904, 53024.47
137.6725, 53192.88
138.1546, 53307.41
138.6367, 53360.76
139.1188, 53412.21
139.6010, 53477.86
140.0831, 53557.68
140.5652, 53634.54
141.0473, 53707.52
141.5294, 53779.25
142.0115, 53851.80
142.4937, 53924.79
142.9758, 53997.21
143.4579, 54066.06
143.9400, 54125.73
144.4221, 54199.50
144.9042, 54289.36
145.3864, 54389.05
145.8685, 54485.55
146.3506, 54567.27
146.8327, 54660.09
147.3148, 54778.01
147.7969, 54946.00
148.2791, 55080.38
148.7612, 55162.68
149.2433, 55213.79
149.7254, 55282.97
150.2075, 55391.66
150.6896, 55500.82
151.1718, 55596.05
151.6539, 55673.18
152.1360, 55744.95
152.6181, 55807.94
153.1002, 55865.64
153.5823, 55927.87
154.0645, 55996.55
154.5466, 56069.05
155.0287, 56144.20
155.5108, 56242.65
155.9929, 56318.67
156.4750, 56355.53
156.9572, 56360.49
157.4393, 56363.45
157.9214, 56363.52
158.4035, 56367.20
158.8856, 56378.55
159.3677, 56399.04
159.8499, 56426.86
160.3320, 56462.17
160.8141, 56504.84
161.2962, 56553.59
161.7783, 56619.95
162.2604, 56687.08
162.7426, 56741.11
163.2247, 56763.36
163.7068, 56784.89
164.1889, 56818.54
164.6710, 56863.75
165.1531, 56915.24
165.6353, 56975.05
166.1174, 57037.67
166.5995, 57097.11
167.0816, 57148.12
167.5637, 57196.57
168.0458, 57246.82
168.5280, 57298.07
169.0101, 57346.21
169.4922, 57393.20
169.9743, 57433.76
170.4564, 57460.25
170.9385, 57449.28
171.4207, 57434.91
171.9028, 57451.76
172.3849, 57502.35
172.8670, 57556.84
173.3491, 57599.94
173.8312, 57631.00
174.3134, 57648.63
174.7955, 57639.61
175.2776, 57622.50
175.7597, 57621.37
176.2418, 57639.23
176.7239, 57660.36
177.2061, 57668.50
177.6882, 57668.41
178.1703, 57672.38
178.6524, 57693.84
179.1345, 57721.56
179.6166, 57734.06
180.0988, 57728.20
180.5809, 57718.04
181.0630, 57722.14
181.5451, 57736.61
182.0272, 57745.82
182.5093, 57728.80
182.9915, 57700.86
183.4736, 57703.52
183.9557, 57744.11
184.4378, 57797.42
184.9199, 57831.85
185.4020, 57848.43
185.8842, 57860.53
186.3663, 57874.50
186.8484, 57889.63
187.3305, 57904.48
187.8126, 57920.88
188.2947, 57932.98
188.7769, 57924.39
189.2590, 57896.65
189.7411, 57878.54
190.2232, 57894.38
190.7053, 57938.18
191.1874, 57969.88
191.6696, 57984.93
192.1517, 57990.62
192.6338, 57998.24
193.1159, 58007.84
193.5980, 58021.70
194.0801, 58045.31
194.5623, 58077.24
195.0444, 58098.92
195.5265, 58106.77
196.0086, 58105.14
196.4907, 58101.87
196.9728, 58096.30
197.4550, 58091.34
197.9371, 58086.99
198.4192, 58083.04
198.9013, 58087.39
199.3834, 58103.38
199.8655, 58125.04
200.3477, 58137.77
200.8298, 58140.27
201.3119, 58139.77
201.7940, 58140.20
202.2761, 58141.79
202.7582, 58144.91
203.2404, 58150.06
203.7225, 58157.31
204.2046, 58167.62
204.6867, 58182.89
205.1688, 58196.50
205.6509, 58202.99
206.1331, 58200.98
206.6152, 58203.33
207.0973, 58213.06
207.5794, 58227.05
208.0615, 58234.11
208.5436, 58230.93
209.0258, 58229.47
209.5079, 58238.26
209.9900, 58259.58
210.4721, 58278.41
210.9542, 58291.75
211.4363, 58301.67
211.9185, 58314.83
212.4006, 58329.09
212.8827, 58350.05
213.3648, 58382.79
213.8469, 58432.12
214.3290, 58475.66
214.8112, 58512.98
215.2933, 58542.30
215.7754, 58556.39
216.2575, 58546.70
216.7396, 58536.94
217.2217, 58542.57
217.7039, 58569.93
218.1860, 58594.03
218.6681, 58618.35
219.1502, 58637.54
219.6323, 58628.36
220.1144, 58579.63
220.5966, 58522.96
221.0787, 58476.35
221.5608, 58443.10
222.0429, 58412.79
222.5250, 58382.76
223.0071, 58356.45
223.4893, 58348.05
223.9714, 58366.68
224.4535, 58390.34
224.9356, 58408.00
225.4177, 58418.63
225.8998, 58426.25
226.3820, 58429.83
226.8641, 58430.63
227.3462, 58431.87
227.8283, 58429.30
228.3104, 58432.65
228.7925, 58446.87
229.2747, 58474.30
229.7568, 58507.02
230.2389, 58548.80
230.7210, 58594.63
231.2031, 58627.63
231.6852, 58643.71
232.1674, 58652.35
232.6495, 58656.34
233.1316, 58649.50
233.6137, 58651.88
234.0958, 58665.76
234.5779, 58688.88
235.0601, 58716.11
235.5422, 58755.45
236.0243, 58788.33
236.5064, 58804.46
236.9885, 58790.63
237.4706, 58789.73
237.9528, 58804.88
238.4349, 58832.24
238.9170, 58863.48
239.3991, 58904.38
239.8812, 58940.26
240.3633, 58963.76
240.8455, 58967.84
241.3276, 58977.03
241.8097, 58994.27
242.2918, 59015.44
242.7739, 59030.89
243.2560, 59035.98
243.7382, 59042.82
244.2203, 59057.74
244.7024, 59087.53
245.1845, 59106.38
245.6666, 59109.70
246.1487, 59104.50
246.6309, 59102.95
247.1130, 59100.75
247.5951, 59109.30
248.0772, 59135.98
248.5593, 59189.95
249.0414, 59227.58
249.5236, 59241.69
250.0057, 59243.31
250.4878, 59250.04
250.9699, 59260.38
251.4520, 59277.80
251.9341, 59304.71
252.4163, 59343.80
252.8984, 59379.50
253.3805, 59414.29
253.8626, 59443.83
254.3447, 59460.16
254.8268, 59458.27
255.3090, 59454.30
255.7911, 59453.39
256.2732, 59456.54
256.7553, 59455.32
257.2374, 59449.88
257.7195, 59440.07
258.2017, 59424.34
258.6838, 59397.74
259.1659, 59376.71
259.6480, 59366.32
260.1301, 59367.17
260.6122, 59368.63
261.0944, 59373.38
261.5765, 59375.76
262.0586, 59369.00
262.5407, 59350.45
263.0228, 59331.13
263.5049, 59311.93
263.9871, 59293.31
264.4692, 59285.47
264.9513, 59292.43
265.4334, 59304.16
265.9155, 59310.86
266.3976, 59309.82
266.8798, 59312.64
267.3619, 59322.57
267.8440, 59338.39
268.3261, 59349.32
268.8082, 59352.42
269.2903, 59356.37
269.7725, 59372.60
270.2546, 59407.50
270.7367, 59421.56
271.2188, 59401.41
271.7009, 59357.08
272.1830, 59330.38
272.6652, 59322.65
273.1473, 59328.71
273.6294, 59349.30
274.1115, 59387.82
274.5936, 59417.12
275.0757, 59429.70
275.5579, 59434.34
276.0400, 59461.32
276.5221, 59517.48
277.0042, 59566.32
277.4863, 59580.80
277.9684, 59557.55
278.4506, 59545.06
278.9327, 59550.92
279.4148, 59563.94
279.8969, 59558.36
280.3790, 59532.11
280.8611, 59504.96
281.3433, 59489.06
281.8254, 59484.57
282.3075, 59476.28
282.7896, 59465.13
283.2717, 59448.49
283.7538, 59418.55
284.2360, 59374.96
284.7181, 59334.37
285.2002, 59302.20
285.6823, 59278.68
286.1644, 59267.13
286.6465, 59268.67
287.1287, 59277.15
287.6108, 59285.80
288.0929, 59294.20
288.5750, 59302.63
289.0571, 59312.84
289.5392, 59322.82
290.0214, 59324.82
290.5035, 59318.62
290.9856, 59307.00
291.4677, 59293.85
291.9498, 59278.48
292.4319, 59256.01
292.9141, 59220.89
293.3962, 59180.36
293.8783, 59151.90
294.3604, 59136.20
294.8425, 59125.03
295.3246, 59113.62
295.8068, 59101.92
296.2889, 59088.25
296.7710, 59070.24
297.2531, 59053.19
297.7352, 59046.54
298.2173, 59049.63
298.6995, 59056.37
299.1816, 59056.68
299.6637, 59057.41
300.1458, 59077.33
300.6279, 59127.80
301.1100, 59178.95
301.5922, 59182.56
302.0743, 59149.24
302.5564, 59124.35
303.0385, 59144.90
303.5206, 59185.53
304.0027, 59210.04
304.4849, 59211.23
304.9670, 59203.02
305.4491, 59199.43
305.9312, 59196.99
306.4133, 59187.45
306.8954, 59166.27
307.3776, 59137.69
307.8597, 59105.96
308.3418, 59071.84
308.8239, 59036.68
309.3060, 58998.09
309.7881, 58960.50
310.2703, 58931.64
310.7524, 58922.12
311.2345, 58917.39
311.7166, 58903.55
312.1987, 58881.05
312.6808, 58868.00
313.1630, 58883.50
313.6451, 58909.68
314.1272, 58927.33
314.6093, 58920.40
315.0914, 58910.90
315.5735, 58905.92
316.0557, 58905.52
316.5378, 58912.25
317.0199, 58940.90
317.5020, 58968.92
317.9841, 58978.93
318.4662, 58953.22
318.9484, 58929.80
319.4305, 58928.75
319.9126, 58940.50
320.3947, 58939.60
320.8768, 58912.58
321.3589, 58876.09
321.8411, 58833.76
322.3232, 58774.32
322.8053, 58739.32
323.2874, 58757.00
323.7695, 58800.07
324.2516, 58825.35
324.7338, 58817.32
325.2159, 58798.27
325.6980, 58769.70
326.1801, 58725.83
326.6622, 58698.24
327.1443, 58700.48
327.6265, 58715.02
328.1086, 58724.36
328.5907, 58728.96
329.0728, 58728.04
329.5549, 58719.65
330.0370, 58703.88
330.5192, 58691.25
331.0013, 58685.93
331.4834, 58680.61
331.9655, 58670.64
332.4476, 58658.62
332.9297, 58636.54
333.4119, 58596.79
333.8940, 58545.36
334.3761, 58510.36
334.8582, 58497.38
335.3403, 58491.75
335.8224, 58485.82
336.3046, 58477.27
336.7867, 58474.99
337.2688, 58485.76
337.7509, 58497.10
338.2330, 58480.48
338.7151, 58427.38
339.1973, 58373.76
339.6794, 58333.64
340.1615, 58308.39
340.6436, 58285.69
341.1257, 58268.97
341.6078, 58250.65
342.0900, 58218.99
342.5721, 58174.38
343.0542, 58130.46
343.5363, 58089.49
344.0184, 58054.06
344.5005, 58035.65
344.9827, 58036.23
345.4648, 58042.65
345.9469, 58044.40
346.4290, 58041.37
346.9111, 58032.30
347.3932, 58010.19
347.8754, 57988.61
348.3575, 58001.88
348.8396, 58045.95
349.3217, 58085.57
349.8038, 58083.44
350.2859, 58058.13
350.7681, 58062.26
351.2502, 58108.55
351.7323, 58156.48
352.2144, 58156.38
352.6965, 58119.05
353.1786, 58077.10
353.6608, 58052.89
354.1429, 58031.62
354.6250, 57990.83
355.1071, 57929.80
355.5892, 57872.24
356.0714, 57834.70
356.5535, 57814.03
357.0356, 57805.45
357.5177, 57829.71
357.9998, 57847.46
358.4819, 57818.43
358.9641, 57751.52
359.4462, 57697.02
359.9283, 57693.44
360.4104, 57706.36
360.8925, 57704.77
361.3746, 57665.95
361.8568, 57637.52
362.3389, 57653.27
362.8210, 57693.12
363.3031, 57712.57
363.7852, 57672.76
364.2673, 57628.61
364.7495, 57607.45
365.2316, 57618.93
365.7137, 57628.07
366.1958, 57630.90
366.6779, 57626.93
367.1600, 57615.59
367.6422, 57596.64
368.1243, 57570.80
368.6064, 57532.82
369.0885, 57481.63
369.5706, 57445.50
370.0527, 57442.93
370.5349, 57441.66
371.0170, 57419.35
371.4991, 57356.22
371.9812, 57307.82
372.4633, 57285.18
372.9454, 57279.98
373.4276, 57261.43
373.9097, 57220.51
374.3918, 57182.38
374.8739, 57161.39
375.3560, 57163.12
375.8381, 57154.98
376.3203, 57132.61
376.8024, 57105.77
377.2845, 57087.30
377.7666, 57076.07
378.2487, 57079.07
378.7308, 57106.36
379.2130, 57151.39
379.6951, 57163.08
380.1772, 57135.35
380.6593, 57104.20
381.1414, 57110.08
381.6235, 57147.85
382.1057, 57169.88
382.5878, 57164.50
383.0699, 57140.99
383.5520, 57110.20
384.0341, 57073.35
384.5162, 57044.34
384.9984, 57038.81
385.4805, 57046.45
385.9626, 57044.71
386.4447, 57030.76
386.9268, 57010.42
387.4089, 56983.68
387.8911, 56954.52
388.3732, 56932.82
388.8553, 56933.09
389.3374, 56935.89
389.8195, 56920.43
390.3016, 56887.52
390.7838, 56852.89
391.2659, 56829.94
391.7480, 56809.39
392.2301, 56780.91
392.7122, 56733.77
393.1943, 56690.54
393.6765, 56673.61
394.1586, 56671.67
394.6407, 56652.06
395.1228, 56578.95
395.6049, 56506.07
396.0870, 56462.06
396.5692, 56459.68
397.0513, 56457.55
397.5334, 56445.69
398.0155, 56430.49
398.4976, 56419.97
398.9797, 56411.88
399.4619, 56410.57
399.9440, 56419.65
400.4261, 56438.43
400.9082, 56450.06
401.3903, 56458.89
401.8724, 56454.74
402.3546, 56426.94
402.8367, 56353.32
403.3188, 56304.86
403.8009, 56292.29
404.2830, 56304.18
404.7651, 56312.74
405.2473, 56317.69
405.7294, 56321.04
406.2115, 56328.21
406.6936, 56340.21
407.1757, 56325.68
407.6578, 56279.61
408.1400, 56221.63
408.6221, 56172.71
409.1042, 56132.88
409.5863, 56093.31
410.0684, 56047.50
410.5505, 56003.89
411.0327, 55985.20
411.5148, 55990.65
411.9969, 55997.55
412.4790, 55989.48
412.9611, 55970.89
413.4432, 55951.12
413.9254, 55930.26
414.4075, 55913.29
414.8896, 55912.13
415.3717, 55919.41
415.8538, 55917.48
416.3359, 55882.48
416.8181, 55844.29
417.3002, 55835.07
417.7823, 55854.07
418.2644, 55869.60
418.7465, 55862.37
419.2286, 55842.57
419.7108, 55819.13
420.1929, 55783.88
420.6750, 55757.75
421.1571, 55760.92
421.6392, 55779.58
422.1213, 55778.36
422.6035, 55726.89
423.0856, 55671.65
423.5677, 55633.74
424.0498, 55622.86
424.5319, 55602.89
425.0140, 55567.49
425.4962, 55524.77
425.9783, 55482.34
426.4604, 55435.32
426.9425, 55398.17
427.4246, 55376.73
427.9067, 55368.74
428.3889, 55356.61
428.8710, 55335.36
429.3531, 55319.05
429.8352, 55316.52
430.3173, 55330.28
430.7994, 55345.52
431.2816, 55365.68
431.7637, 55379.22
432.2458, 55361.52
432.7279, 55309.89
433.2100, 55260.52
433.6921, 55224.68
434.1743, 55200.00
434.6564, 55183.33
435.1385, 55174.54
435.6206, 55163.63
436.1027, 55142.06
436.5848, 55111.94
437.0670, 55079.29
437.5491, 55046.38
438.0312, 55009.91
438.5133, 54958.38
438.9954, 54899.56
439.4775, 54853.93
439.9597, 54849.13
440.4418, 54852.74
440.9239, 54831.07
441.4060, 54782.66
441.8881, 54740.48
442.3702, 54726.95
442.8524, 54727.83
443.3345, 54729.45
443.8166, 54734.70
444.2987, 54731.73
444.7808, 54709.23
445.2629, 54673.88
445.7451, 54645.88
446.2272, 54636.31
446.7093, 54628.18
447.1914, 54612.98
447.6735, 54584.41
448.1556, 54567.09
448.6378, 54566.04
449.1199, 54572.70
449.6020, 54580.01
450.0841, 54592.75
450.5662, 54596.12
451.0483, 54585.84
451.5305, 54564.81
452.0126, 54545.63
452.4947, 54528.79
452.9768, 54511.84
453.4589, 54491.74
453.9410, 54467.90
454.4232, 54449.76
454.9053, 54438.15
455.3874, 54427.53
455.8695, 54413.84
456.3516, 54395.76
456.8337, 54365.30
457.3159, 54312.60
457.7980, 54251.64
458.2801, 54210.85
458.7622, 54187.75
459.2443, 54162.11
459.7264, 54118.09
460.2086, 54065.45
460.6907, 54018.16
461.1728, 53980.21
461.6549, 53942.57
462.1370, 53897.41
462.6191, 53849.95
463.1013, 53808.60
463.5834, 53777.65
464.0655, 53752.05
464.5476, 53732.13
465.0297, 53716.64
465.5118, 53697.80
465.9940, 53674.27
466.4761, 53645.40
466.9582, 53609.81
467.4403, 53557.88
467.9224, 53514.50
468.4045, 53484.99
468.8867, 53461.97
469.3688, 53434.70
469.8509, 53402.56
470.3330, 53368.61
470.8151, 53332.03
471.2972, 53294.13
471.7794, 53267.30
472.2615, 53255.99
472.7436, 53244.45
473.2257, 53220.68
473.7078, 53184.48
474.1899, 53148.13
474.6721, 53110.90
475.1542, 53077.27
475.6363, 53059.08
476.1184, 53052.94
476.6005, 53037.64
477.0826, 52994.88
477.5648, 52943.44
478.0469, 52915.98
478.5290, 52910.55
479.0111, 52909.40
479.4932, 52902.80
479.9753, 52892.39
480.4575, 52880.38
480.9396, 52867.68
481.4217, 52851.90
481.9038, 52831.21
482.3859, 52806.85
482.8680, 52780.79
483.3502, 52747.14
483.8323, 52717.50
484.3144, 52699.37
484.7965, 52691.36
485.2786, 52675.18
485.7607, 52637.86
486.2429, 52598.92
486.7250, 52568.73
487.2071, 52555.88
487.6892, 52533.36
488.1713, 52497.46
488.6534, 52455.36
489.1356, 52416.13
489.6177, 52379.67
490.0998, 52350.18
490.5819, 52332.55
491.0640, 52323.43
491.5461, 52302.93
492.0283, 52270.88
492.5104, 52234.66
492.9925, 52196.98
493.4746, 52158.80
493.9567, 52126.23
494.4388, 52098.32
494.9210, 52078.28
495.4031, 52072.49
495.8852, 52076.27
496.3673, 52079.06
496.8494, 52077.50
497.3315, 52070.27
497.8137, 52050.80
498.2958, 52021.90
498.7779, 51998.35
499.2600, 51995.57
499.7421, 51994.89
500.2242, 51983.80
500.7064, 51960.11
501.1885, 51930.36
501.6706, 51896.96
502.1527, 51859.80
502.6348, 51819.28
503.1169, 51763.25
503.5991, 51720.58
504.0812, 51702.27
504.5633, 51701.26
505.0454, 51689.98
505.5275, 51666.79
506.0096, 51636.68
506.4918, 51599.55
506.9739, 51553.84
507.4560, 51512.66
507.9381, 51474.53
508.4202, 51444.05
508.9023, 51435.29
509.3845, 51445.77
509.8666, 51428.29
510.3487, 51363.48
510.8308, 51286.79
511.3129, 51264.80
511.7950, 51287.24
512.2772, 51305.10
512.7593, 51284.99
513.2414, 51250.35
513.7235, 51230.36
514.2056, 51224.94
514.6877, 51218.01
515.1699, 51189.79
515.6520, 51159.77
516.1341, 51148.37
516.6162, 51174.07
517.0983, 51189.63
517.5804, 51173.68
518.0626, 51138.23
518.5447, 51103.16
519.0268, 51068.52
519.5089, 51037.02
519.9910, 51008.86
520.4731, 50983.86
520.9553, 50964.76
521.4374, 50960.18
521.9195, 50949.62
522.4016, 50917.69
522.8837, 50857.95
523.3658, 50817.40
523.8480, 50802.16
524.3301, 50795.70
524.8122, 50777.99
525.2943, 50749.91
525.7764, 50713.43
526.2585, 50661.13
526.7407, 50610.88
527.2228, 50600.98
527.7049, 50625.75
528.1870, 50651.16
528.6691, 50663.53
529.1512, 50661.57
529.6334, 50639.10
530.1155, 50594.44
530.5976, 50548.55
531.0797, 50504.53
531.5618, 50468.10
532.0439, 50446.06
532.5261, 50450.13
533.0082, 50452.34
533.4903, 50445.35
533.9724, 50431.13
534.4545, 50414.01
534.9366, 50393.51
535.4188, 50371.65
535.9009, 50350.50
536.3830, 50330.32
536.8651, 50304.54
537.3472, 50273.77
537.8293, 50238.54
538.3115, 50197.04
538.7936, 50148.89
539.2757, 50111.12
539.7578, 50086.07
540.2399, 50069.37
540.7220, 50055.98
541.2042, 50045.82
541.6863, 50037.66
542.1684, 50030.48
542.6505, 50025.02
543.1326, 50026.74
543.6147, 50032.01
544.0969, 50027.85
544.5790, 49996.50
545.0611, 49958.49
545.5432, 49934.39
546.0253, 49926.86
546.5074, 49909.09
546.9896, 49848.80
547.4717, 49785.60
547.9538, 49752.23
548.4359, 49792.12
548.9180, 49810.75
549.4001, 49790.50
549.8823, 49748.76
550.3644, 49714.04
550.8465, 49688.11
551.3286, 49666.67
551.8107, 49651.71
552.2928, 49641.32
552.7750, 49618.06
553.2571, 49578.69
553.7392, 49542.56
554.2213, 49529.17
554.7034, 49532.37
555.1855, 49513.33
555.6677, 49467.96
556.1498, 49415.01
556.6319, 49369.45
557.1140, 49331.58
557.5961, 49303.26
558.0782, 49287.13
558.5604, 49276.37
559.0425, 49269.21
559.5246, 49263.17
560.0067, 49252.87
560.4888, 49238.30
560.9709, 49217.06
561.4531, 49187.95
561.9352, 49150.87
562.4173, 49108.21
562.8994, 49048.95
563.3815, 48994.00
563.8636, 48954.94
564.3458, 48941.45
564.8279, 48919.30
565.3100, 48885.48
565.7921, 48847.13
566.2742, 48814.96
566.7563, 48790.13
567.2385, 48760.25
567.7206, 48721.31
568.2027, 48678.14
568.6848, 48640.30
569.1669, 48607.64
569.6490, 48583.45
570.1312, 48579.31
570.6133, 48579.68
571.0954, 48556.81
571.5775, 48511.55
572.0596, 48471.99
572.5417, 48461.36
573.0239, 48460.64
573.5060, 48453.31
573.9881, 48433.85
574.4702, 48415.05
574.9523, 48403.83
575.4344, 48394.44
575.9166, 48379.65
576.3987, 48348.27
576.8808, 48326.42
577.3629, 48323.87
577.8450, 48331.96
578.3271, 48318.52
578.8093, 48273.56
579.2914, 48235.65
579.7735, 48224.50
580.2556, 48235.29
580.7377, 48230.02
581.2198, 48206.44
581.7020, 48183.83
582.1841, 48187.82
582.6662, 48203.43
583.1483, 48189.86
583.6304, 48136.75
584.1125, 48082.42
584.5947, 48074.90
585.0768, 48085.00
585.5589, 48069.45
586.0410, 47989.71
586.5231, 47910.47
