##NAMES=Billietite
##RRUFFID=R070588
##IDEAL CHEMISTRY=Ba(U^6+^O_2_)_6_O_4_(OH)_6_&#183;8H_2_O
##LOCALITY=Musonoi mine, Kolwezi, Katanga, Zaire
##OWNER=RRUFF
##SOURCE=James Shigley
##DESCRIPTION=Pseudo-hexagonal amber yellow crystals
##STATUS=The identification of this mineral has been confirmed by single-crystal X-ray diffraction.
##URL=rruff.info/R070588
95.64258, 3562.457
96.12469, 3729.406
96.60681, 3900.322
97.08893, 4065.060
97.57104, 4238.059
98.05316, 4434.671
98.53528, 4660.441
99.01740, 4904.162
99.49951, 5140.383
99.98163, 5370.865
100.4637, 5593.371
100.9459, 5810.905
101.4280, 6021.962
101.9101, 6217.780
102.3922, 6381.899
102.8743, 6359.403
103.3564, 6373.546
103.8386, 6450.283
104.3207, 6538.338
104.8028, 6589.807
105.2849, 6600.323
105.7670, 6607.995
106.2491, 6639.364
106.7313, 6682.843
107.2134, 6722.327
107.6955, 6755.157
108.1776, 6779.625
108.6597, 6787.183
109.1418, 6772.100
109.6240, 6744.315
110.1061, 6703.963
110.5882, 6654.218
111.0703, 6604.421
111.5524, 6564.044
112.0345, 6535.078
112.5167, 6504.693
112.9988, 6464.964
113.4809, 6427.782
113.9630, 6404.059
114.4451, 6395.059
114.9272, 6389.746
115.4094, 6365.086
115.8915, 6286.412
116.3736, 6234.072
116.8557, 6221.172
117.3378, 6231.789
117.8199, 6250.083
118.3021, 6268.246
118.7842, 6285.646
119.2663, 6297.928
119.7484, 6300.684
120.2305, 6303.762
120.7127, 6312.130
121.1948, 6324.260
121.6769, 6333.944
122.1590, 6335.490
122.6411, 6328.644
123.1232, 6326.179
123.6054, 6326.946
124.0875, 6332.579
124.5696, 6346.826
125.0517, 6371.352
125.5338, 6397.107
126.0159, 6415.194
126.4981, 6426.937
126.9802, 6435.416
127.4623, 6437.619
127.9444, 6436.709
128.4265, 6442.786
128.9086, 6459.146
129.3907, 6482.136
129.8729, 6508.209
130.3550, 6537.225
130.8371, 6567.950
131.3192, 6595.269
131.8013, 6616.828
132.2834, 6654.212
132.7656, 6732.969
133.2477, 6817.523
133.7298, 6882.702
134.2119, 6920.789
134.6940, 6948.384
135.1761, 6998.038
135.6583, 7083.428
136.1404, 7168.944
136.6225, 7249.930
137.1046, 7327.173
137.5867, 7400.136
138.0688, 7468.367
138.5510, 7532.722
139.0331, 7600.902
139.5152, 7669.834
139.9973, 7746.023
140.4794, 7839.875
140.9615, 7942.748
141.4437, 8035.336
141.9258, 8100.833
142.4079, 8134.523
142.8900, 8187.612
143.3721, 8269.818
143.8542, 8359.152
144.3364, 8445.088
144.8185, 8526.296
145.3006, 8606.070
145.7827, 8688.927
146.2648, 8776.514
146.7469, 8859.247
147.2291, 8930.676
147.7112, 8999.550
148.1933, 9076.456
148.6754, 9165.237
149.1575, 9258.461
149.6396, 9346.905
150.1218, 9431.702
150.6039, 9508.707
151.0860, 9573.579
151.5681, 9628.906
152.0502, 9682.612
152.5324, 9732.552
153.0145, 9787.084
153.4966, 9858.576
153.9787, 9952.767
154.4608, 10045.15
154.9429, 10116.89
155.4251, 10167.76
155.9072, 10208.85
156.3893, 10241.21
156.8714, 10266.52
157.3535, 10286.30
157.8356, 10301.34
158.3178, 10309.66
158.7999, 10306.05
159.2820, 10284.74
159.7641, 10265.03
160.2462, 10261.55
160.7283, 10260.71
161.2105, 10245.98
161.6926, 10206.80
162.1747, 10149.21
162.6568, 10100.21
163.1389, 10073.45
163.6210, 10038.80
164.1032, 9978.161
164.5853, 9904.899
165.0674, 9842.322
165.5495, 9810.385
166.0316, 9810.397
166.5137, 9799.063
166.9959, 9775.787
167.4780, 9741.874
167.9601, 9689.975
168.4422, 9625.496
168.9243, 9562.449
169.4064, 9516.116
169.8886, 9492.474
170.3707, 9463.326
170.8528, 9424.740
171.3349, 9384.798
171.8170, 9348.036
172.2991, 9315.250
172.7813, 9284.538
173.2634, 9252.541
173.7455, 9213.703
174.2276, 9187.634
174.7097, 9184.604
175.1918, 9189.529
175.6740, 9184.855
176.1561, 9164.792
176.6382, 9142.326
177.1203, 9144.950
177.6024, 9187.188
178.0845, 9216.998
178.5667, 9214.216
179.0488, 9193.348
179.5309, 9178.018
180.0130, 9174.564
180.4951, 9186.051
180.9772, 9221.448
181.4594, 9293.519
181.9415, 9358.509
182.4236, 9386.575
182.9057, 9386.501
183.3878, 9397.021
183.8699, 9436.397
184.3521, 9497.322
184.8342, 9559.768
185.3163, 9621.815
185.7984, 9687.306
186.2805, 9763.140
186.7626, 9849.734
187.2448, 9930.688
187.7269, 9995.409
188.2090, 10049.40
188.6911, 10097.80
189.1732, 10136.89
189.6553, 10175.69
190.1375, 10227.68
190.6196, 10296.34
191.1017, 10367.26
191.5838, 10438.97
192.0659, 10507.68
192.5480, 10568.15
193.0302, 10613.62
193.5123, 10651.33
193.9944, 10701.70
194.4765, 10775.22
194.9586, 10842.64
195.4408, 10898.24
195.9229, 10940.40
196.4050, 10966.72
196.8871, 10976.68
197.3692, 10969.77
197.8513, 10940.63
198.3335, 10865.49
198.8156, 10793.88
199.2977, 10751.40
199.7798, 10725.18
200.2619, 10688.44
200.7440, 10621.14
201.2262, 10522.75
201.7083, 10411.23
202.1904, 10279.04
202.6725, 10139.87
203.1546, 10002.24
203.6367, 9861.991
204.1189, 9707.122
204.6010, 9522.887
205.0831, 9300.309
205.5652, 9094.744
206.0473, 8921.488
206.5294, 8749.097
207.0116, 8561.039
207.4937, 8357.592
207.9758, 8152.274
208.4579, 7959.771
208.9400, 7781.546
209.4221, 7610.986
209.9043, 7453.354
210.3864, 7297.673
210.8685, 7138.773
211.3506, 6975.497
211.8327, 6808.059
212.3148, 6635.469
212.7970, 6444.971
213.2791, 6285.400
213.7612, 6179.574
214.2433, 6088.285
214.7254, 5979.045
215.2075, 5845.032
215.6897, 5701.859
216.1718, 5573.689
216.6539, 5466.394
217.1360, 5364.564
217.6181, 5267.676
218.1002, 5176.496
218.5824, 5094.670
219.0645, 5023.389
219.5466, 4956.264
220.0287, 4881.326
220.5108, 4794.309
220.9929, 4709.882
221.4751, 4621.248
221.9572, 4538.678
222.4393, 4479.953
222.9214, 4452.992
223.4035, 4441.868
223.8856, 4413.354
224.3678, 4357.267
224.8499, 4313.948
225.3320, 4301.866
225.8141, 4308.277
226.2962, 4308.066
226.7783, 4290.491
227.2605, 4266.917
227.7426, 4260.029
228.2247, 4272.244
228.7068, 4288.496
229.1889, 4305.010
229.6710, 4321.362
230.1532, 4336.750
230.6353, 4351.072
231.1174, 4363.761
231.5995, 4371.721
232.0816, 4369.982
232.5637, 4377.169
233.0459, 4407.728
233.5280, 4456.478
234.0101, 4503.651
234.4922, 4541.410
234.9743, 4574.290
235.4564, 4609.964
235.9386, 4648.007
236.4207, 4689.519
236.9028, 4739.243
237.3849, 4795.042
237.8670, 4842.977
238.3491, 4873.487
238.8313, 4896.741
239.3134, 4927.524
239.7955, 4967.218
240.2776, 5011.144
240.7597, 5059.040
241.2418, 5110.377
241.7240, 5154.737
242.2061, 5185.098
242.6882, 5208.135
243.1703, 5231.928
243.6524, 5257.338
244.1345, 5282.505
244.6167, 5303.763
245.0988, 5321.027
245.5809, 5343.809
246.0630, 5383.466
246.5451, 5424.874
247.0272, 5451.879
247.5094, 5460.117
247.9915, 5462.558
248.4736, 5468.936
248.9557, 5478.973
249.4378, 5497.836
249.9199, 5538.039
250.4021, 5582.064
250.8842, 5610.311
251.3663, 5616.093
251.8484, 5623.971
252.3305, 5666.100
252.8126, 5747.452
253.2948, 5820.245
253.7769, 5865.715
254.2590, 5897.907
254.7411, 5923.675
255.2232, 5943.000
255.7053, 5964.934
256.1875, 6003.221
256.6696, 6061.503
257.1517, 6113.583
257.6338, 6148.462
258.1159, 6175.938
258.5981, 6201.343
259.0802, 6225.759
259.5623, 6248.805
260.0444, 6277.972
260.5265, 6320.202
261.0086, 6328.847
261.4908, 6255.005
261.9729, 6163.162
262.4550, 6096.180
262.9371, 6063.702
263.4192, 6040.083
263.9013, 5993.996
264.3835, 5921.842
264.8656, 5847.403
265.3477, 5782.688
265.8298, 5713.187
266.3119, 5625.924
266.7940, 5518.775
267.2762, 5406.177
267.7583, 5307.131
268.2404, 5224.861
268.7225, 5139.230
269.2046, 5037.418
269.6867, 4936.460
270.1689, 4846.018
270.6510, 4767.870
271.1331, 4698.271
271.6152, 4637.799
272.0973, 4590.172
272.5794, 4529.216
273.0616, 4428.214
273.5437, 4327.599
274.0258, 4251.112
274.5079, 4201.126
274.9900, 4161.801
275.4721, 4114.746
275.9543, 4057.485
276.4364, 4007.916
276.9185, 3972.227
277.4006, 3942.342
277.8827, 3917.235
278.3648, 3895.732
278.8470, 3873.492
279.3291, 3845.120
279.8112, 3809.340
280.2933, 3776.146
280.7754, 3747.753
281.2575, 3721.362
281.7397, 3694.808
282.2218, 3668.399
282.7039, 3645.286
283.1860, 3630.663
283.6681, 3625.520
284.1502, 3614.882
284.6324, 3590.971
285.1145, 3567.344
285.5966, 3551.375
286.0787, 3542.251
286.5608, 3534.398
287.0429, 3523.116
287.5251, 3508.406
288.0072, 3493.844
288.4893, 3480.597
288.9714, 3466.376
289.4535, 3450.091
289.9356, 3431.979
290.4178, 3412.972
290.8999, 3392.953
291.3820, 3372.056
291.8641, 3353.726
292.3462, 3335.702
292.8283, 3323.755
293.3105, 3325.181
293.7926, 3334.641
294.2747, 3339.071
294.7568, 3325.786
295.2389, 3299.064
295.7210, 3285.580
296.2032, 3293.630
296.6853, 3303.894
297.1674, 3309.415
297.6495, 3310.837
298.1316, 3309.297
298.6137, 3304.170
299.0959, 3296.861
299.5780, 3291.209
300.0601, 3282.801
300.5422, 3284.803
301.0243, 3307.302
301.5064, 3340.927
301.9886, 3373.201
302.4707, 3400.162
302.9528, 3420.402
303.4349, 3425.762
303.9170, 3404.211
304.3991, 3397.284
304.8813, 3434.687
305.3634, 3490.241
305.8455, 3533.672
306.3276, 3551.871
306.8097, 3557.212
307.2918, 3567.021
307.7740, 3579.258
308.2561, 3603.591
308.7382, 3658.363
309.2203, 3720.314
309.7024, 3767.947
310.1845, 3793.636
310.6667, 3809.774
311.1488, 3828.018
311.6309, 3847.271
312.1130, 3877.796
312.5951, 3935.385
313.0772, 3998.985
313.5594, 4048.917
314.0415, 4080.189
314.5236, 4110.254
315.0057, 4157.453
315.4878, 4221.581
315.9699, 4281.748
316.4521, 4330.641
316.9342, 4374.836
317.4163, 4420.069
317.8984, 4466.811
318.3805, 4514.029
318.8626, 4565.672
319.3448, 4619.206
319.8269, 4656.746
320.3090, 4662.693
320.7911, 4668.184
321.2732, 4708.178
321.7553, 4779.894
322.2375, 4842.796
322.7196, 4872.486
323.2017, 4877.918
323.6838, 4882.682
324.1659, 4888.211
324.6480, 4896.858
325.1302, 4910.979
325.6123, 4929.834
326.0944, 4952.098
326.5765, 4982.081
327.0586, 5013.533
327.5407, 5035.958
328.0229, 5047.465
328.5050, 5055.417
328.9871, 5065.988
329.4692, 5077.712
329.9513, 5085.082
330.4334, 5084.178
330.9156, 5080.212
331.3977, 5080.190
331.8798, 5084.258
332.3619, 5083.104
332.8440, 5067.434
333.3261, 5041.900
333.8083, 5025.188
334.2904, 5030.585
334.7725, 5033.526
335.2546, 5015.498
335.7367, 4979.877
336.2188, 4943.499
336.7010, 4914.676
337.1831, 4890.425
337.6652, 4861.295
338.1473, 4828.190
338.6294, 4790.075
339.1115, 4743.533
339.5937, 4691.758
340.0758, 4641.499
340.5579, 4595.098
341.0400, 4551.335
341.5221, 4508.065
342.0042, 4466.573
342.4864, 4422.196
342.9685, 4370.600
343.4506, 4316.911
343.9327, 4267.409
344.4148, 4223.841
344.8969, 4184.433
345.3791, 4148.411
345.8612, 4121.814
346.3433, 4080.939
346.8254, 4003.952
347.3075, 3927.053
347.7896, 3883.902
348.2718, 3875.725
348.7539, 3875.783
349.2360, 3858.393
349.7181, 3821.836
350.2002, 3776.028
350.6823, 3702.412
351.1645, 3637.988
351.6466, 3609.803
352.1287, 3608.211
352.6108, 3602.755
353.0929, 3570.277
353.5750, 3512.508
354.0572, 3461.329
354.5393, 3417.869
355.0214, 3379.737
355.5035, 3349.162
355.9856, 3323.008
356.4677, 3296.822
356.9499, 3268.303
357.4320, 3238.031
357.9141, 3207.690
358.3962, 3175.060
358.8783, 3145.865
359.3604, 3124.610
359.8426, 3104.803
360.3247, 3079.127
360.8068, 3045.636
361.2889, 3009.271
361.7710, 2979.161
362.2531, 2958.192
362.7353, 2935.436
363.2174, 2909.316
363.6995, 2881.726
364.1816, 2852.609
364.6637, 2822.574
365.1458, 2794.074
365.6280, 2768.046
366.1101, 2743.915
366.5922, 2729.382
367.0743, 2735.602
367.5564, 2740.301
368.0385, 2734.772
368.5207, 2719.513
369.0028, 2697.014
369.4849, 2663.598
369.9670, 2624.205
370.4491, 2599.412
370.9312, 2594.697
371.4134, 2593.516
371.8955, 2586.487
372.3776, 2577.772
372.8597, 2574.323
373.3418, 2581.115
373.8239, 2590.892
374.3061, 2593.865
374.7882, 2589.639
375.2703, 2581.750
375.7524, 2566.278
376.2345, 2551.014
376.7166, 2548.292
377.1988, 2564.560
377.6809, 2577.674
378.1630, 2564.369
378.6451, 2532.451
379.1272, 2516.421
379.6093, 2530.238
380.0915, 2556.661
380.5736, 2572.816
381.0557, 2578.622
381.5378, 2582.139
382.0199, 2584.305
382.5020, 2586.276
382.9842, 2590.397
383.4663, 2597.182
383.9484, 2603.354
384.4305, 2604.875
384.9126, 2601.257
385.3947, 2601.534
385.8769, 2608.269
386.3590, 2617.058
386.8411, 2626.241
387.3232, 2635.155
387.8053, 2640.847
388.2874, 2639.511
388.7696, 2633.489
389.2517, 2643.177
389.7338, 2686.055
390.2159, 2721.696
390.6980, 2733.706
391.1801, 2733.376
391.6623, 2739.071
392.1444, 2758.621
392.6265, 2784.337
393.1086, 2798.832
393.5907, 2784.239
394.0728, 2785.687
394.5550, 2814.381
395.0371, 2850.657
395.5192, 2882.760
396.0013, 2907.064
396.4834, 2923.367
396.9655, 2928.341
397.4477, 2917.271
397.9298, 2920.473
398.4119, 2955.687
398.8940, 2989.013
399.3761, 3006.294
399.8582, 3011.240
400.3404, 3014.964
400.8225, 3024.535
401.3046, 3038.976
401.7867, 3054.273
402.2688, 3072.663
402.7509, 3087.609
403.2331, 3094.327
403.7152, 3097.911
404.1973, 3104.573
404.6794, 3116.852
405.1615, 3131.136
405.6436, 3143.403
406.1258, 3153.755
406.6079, 3161.221
407.0900, 3163.952
407.5721, 3164.816
408.0542, 3165.358
408.5363, 3165.419
409.0185, 3169.480
409.5006, 3182.016
409.9827, 3200.519
410.4648, 3217.999
410.9469, 3232.804
411.4290, 3248.526
411.9112, 3271.971
412.3933, 3301.036
412.8754, 3320.584
413.3575, 3317.960
413.8396, 3311.985
414.3217, 3320.683
414.8039, 3342.946
415.2860, 3364.571
415.7681, 3375.070
416.2502, 3378.799
416.7323, 3397.829
417.2144, 3446.041
417.6966, 3490.401
418.1787, 3518.888
418.6608, 3538.888
419.1429, 3559.779
419.6250, 3585.054
420.1071, 3615.490
420.5893, 3653.222
421.0714, 3702.683
421.5535, 3750.295
422.0356, 3797.950
422.5177, 3842.419
422.9998, 3876.655
423.4820, 3903.866
423.9641, 3938.328
424.4462, 3995.092
424.9283, 4074.557
425.4104, 4140.845
425.8925, 4181.531
426.3747, 4222.136
426.8568, 4263.027
427.3389, 4309.430
427.8210, 4369.330
428.3031, 4447.821
428.7852, 4536.977
429.2674, 4621.147
429.7495, 4700.095
430.2316, 4775.482
430.7137, 4840.273
431.1958, 4905.599
431.6779, 4981.282
432.1601, 5068.208
432.6422, 5155.382
433.1243, 5229.992
433.6064, 5296.134
434.0885, 5376.948
434.5706, 5482.072
435.0528, 5587.026
435.5349, 5670.027
436.0170, 5736.120
436.4991, 5798.963
436.9812, 5853.598
437.4633, 5912.339
437.9455, 5992.789
438.4276, 6092.920
438.9097, 6188.962
439.3918, 6270.159
439.8739, 6336.615
440.3560, 6389.319
440.8382, 6418.827
441.3203, 6451.618
441.8024, 6498.313
442.2845, 6551.196
442.7666, 6600.333
443.2487, 6642.623
443.7309, 6681.010
444.2130, 6719.972
444.6951, 6764.471
445.1772, 6791.129
445.6593, 6800.022
446.1414, 6793.834
446.6236, 6768.541
447.1057, 6728.783
447.5878, 6686.061
448.0699, 6649.492
448.5520, 6615.489
449.0341, 6564.334
449.5163, 6486.296
449.9984, 6405.105
450.4805, 6325.426
450.9626, 6245.508
451.4447, 6164.708
451.9268, 6082.807
452.4090, 5997.793
452.8911, 5906.279
453.3732, 5808.009
453.8553, 5713.293
454.3374, 5637.931
454.8195, 5549.620
455.3017, 5412.908
455.7838, 5239.519
456.2659, 5087.220
456.7480, 5002.480
457.2301, 4946.268
457.7122, 4853.697
458.1944, 4720.774
458.6765, 4587.557
459.1586, 4475.641
459.6407, 4380.742
460.1229, 4285.255
460.6050, 4191.719
461.0871, 4094.225
461.5692, 3982.184
462.0513, 3865.906
462.5334, 3763.590
463.0156, 3680.822
463.4977, 3610.205
463.9798, 3542.537
464.4619, 3479.871
464.9440, 3413.490
465.4261, 3338.669
465.9083, 3264.664
466.3904, 3192.487
466.8725, 3124.779
467.3546, 3070.076
467.8367, 3036.380
468.3188, 3017.005
468.8010, 2977.394
469.2831, 2898.750
469.7652, 2828.611
470.2473, 2775.371
470.7294, 2733.395
471.2115, 2699.350
471.6937, 2672.086
472.1758, 2647.309
472.6579, 2621.684
473.1400, 2595.210
473.6221, 2563.552
474.1042, 2521.587
474.5864, 2481.395
475.0685, 2451.690
475.5506, 2430.158
476.0327, 2409.669
476.5148, 2385.617
476.9969, 2362.626
477.4791, 2348.839
477.9612, 2343.441
478.4433, 2333.803
478.9254, 2313.013
479.4075, 2285.245
479.8896, 2259.871
480.3718, 2234.079
480.8539, 2215.943
481.3360, 2216.181
481.8181, 2221.006
482.3002, 2211.717
482.7823, 2186.260
483.2645, 2160.027
483.7466, 2149.633
484.2287, 2157.161
484.7108, 2156.776
485.1929, 2138.803
485.6750, 2124.156
486.1572, 2121.690
486.6393, 2126.164
487.1214, 2129.461
487.6035, 2127.968
488.0856, 2122.823
488.5677, 2114.727
489.0499, 2100.740
489.5320, 2093.882
490.0141, 2105.053
490.4962, 2116.888
490.9783, 2118.972
491.4604, 2111.890
491.9426, 2103.547
492.4247, 2098.681
492.9068, 2096.173
493.3889, 2093.357
493.8710, 2090.096
494.3531, 2087.105
494.8353, 2083.946
495.3174, 2081.726
495.7995, 2082.432
496.2816, 2085.718
496.7637, 2092.687
497.2458, 2109.540
497.7280, 2129.124
498.2101, 2136.708
498.6922, 2128.364
499.1743, 2115.948
499.6564, 2113.726
500.1385, 2124.501
500.6207, 2131.604
501.1028, 2131.061
501.5849, 2131.361
502.0670, 2138.469
502.5491, 2149.058
503.0313, 2155.897
503.5134, 2154.927
503.9955, 2149.550
504.4776, 2147.654
504.9597, 2149.115
505.4418, 2154.550
505.9240, 2168.857
506.4061, 2183.410
506.8882, 2192.390
507.3703, 2195.887
507.8524, 2198.348
508.3345, 2203.256
508.8167, 2209.457
509.2988, 2212.891
509.7809, 2212.473
510.2630, 2214.019
510.7451, 2221.958
511.2272, 2233.763
511.7094, 2243.806
512.1915, 2251.150
512.6736, 2257.815
513.1557, 2265.749
513.6378, 2273.387
514.1199, 2276.071
514.6021, 2272.683
515.0842, 2271.033
515.5663, 2280.854
516.0484, 2304.984
516.5305, 2321.827
517.0126, 2326.314
517.4948, 2330.122
517.9769, 2339.298
518.4590, 2350.686
518.9411, 2357.119
519.4232, 2354.935
519.9053, 2350.802
520.3875, 2359.885
520.8696, 2388.347
521.3517, 2408.696
521.8338, 2411.092
522.3159, 2409.807
522.7980, 2410.067
523.2802, 2412.993
523.7623, 2420.555
524.2444, 2437.260
524.7265, 2458.017
525.2086, 2472.230
525.6907, 2479.461
526.1729, 2488.553
526.6550, 2502.807
527.1371, 2522.106
527.6192, 2546.993
528.1013, 2581.381
528.5834, 2610.395
529.0656, 2629.954
529.5477, 2641.857
530.0298, 2643.025
530.5119, 2635.478
530.9940, 2634.001
531.4761, 2653.312
531.9583, 2691.987
532.4404, 2716.106
532.9225, 2704.936
533.4046, 2702.827
533.8867, 2724.298
534.3688, 2754.619
534.8510, 2776.981
535.3331, 2786.710
535.8152, 2793.893
536.2973, 2812.917
536.7794, 2843.720
537.2615, 2862.622
537.7437, 2858.884
538.2258, 2858.465
538.7079, 2884.928
539.1900, 2925.519
539.6721, 2952.240
540.1542, 2948.625
540.6364, 2941.202
541.1185, 2952.081
541.6006, 2977.258
542.0827, 3005.380
542.5648, 3033.957
543.0469, 3059.401
543.5291, 3075.990
544.0112, 3080.616
544.4933, 3087.498
544.9754, 3097.114
545.4575, 3108.405
545.9396, 3122.705
546.4218, 3138.024
546.9039, 3150.892
547.3860, 3159.548
547.8681, 3164.224
548.3502, 3165.527
548.8323, 3163.506
549.3145, 3157.940
549.7966, 3139.059
550.2787, 3124.560
550.7608, 3129.737
551.2429, 3150.147
551.7250, 3164.150
552.2072, 3155.186
552.6893, 3135.094
553.1714, 3127.431
553.6535, 3132.145
554.1356, 3122.219
554.6177, 3078.184
555.0999, 3020.403
555.5820, 2992.604
556.0641, 3003.749
556.5462, 3007.997
557.0283, 2998.724
557.5104, 2977.451
557.9926, 2938.996
558.4747, 2888.000
558.9568, 2841.145
559.4389, 2811.940
559.9210, 2795.329
560.4031, 2765.890
560.8853, 2709.907
561.3674, 2664.500
561.8495, 2640.493
562.3316, 2623.803
562.8137, 2604.586
563.2958, 2581.299
563.7780, 2556.511
564.2601, 2534.938
564.7422, 2513.400
565.2243, 2479.285
565.7064, 2429.668
566.1885, 2383.863
566.6707, 2356.447
567.1528, 2337.876
567.6349, 2305.146
568.1170, 2249.515
568.5991, 2200.330
569.0812, 2171.822
569.5634, 2152.589
570.0455, 2130.659
570.5276, 2103.945
571.0097, 2074.521
571.4918, 2043.177
571.9739, 2010.493
572.4561, 1981.884
572.9382, 1964.359
573.4203, 1941.150
573.9024, 1903.854
574.3845, 1863.598
574.8666, 1831.050
575.3488, 1807.912
575.8309, 1787.596
576.3130, 1764.553
576.7951, 1739.463
577.2772, 1714.475
577.7593, 1688.311
578.2415, 1668.182
578.7236, 1665.064
579.2057, 1668.504
579.6878, 1653.337
580.1699, 1608.356
580.6520, 1566.747
581.1342, 1543.959
581.6163, 1530.218
582.0984, 1513.396
582.5805, 1491.854
583.0626, 1472.397
583.5447, 1462.382
584.0269, 1460.194
584.5090, 1443.503
584.9911, 1390.849
585.4732, 1353.083
585.9553, 1350.572
586.4374, 1358.082
586.9196, 1352.026
587.4017, 1328.427
587.8838, 1300.347
588.3659, 1275.655
588.8480, 1247.042
589.3301, 1246.848
589.8123, 1241.832
590.2944, 1232.261
590.7765, 1204.475
591.2586, 1200.208
591.7407, 1186.516
592.2228, 1172.439
592.7050, 1171.480
593.1871, 1146.345
