##NAMES=Bindheimite
##RRUFFID=R050546
##IDEAL CHEMISTRY=Pb^2+^_2_Sb^5+^_2_O_7_
##LOCALITY=Arabia District, Pershing County, Nevada, USA
##OWNER=RRUFF
##SOURCE=University of Arizona Mineral Museum
##DESCRIPTION=Yellow-brown coarsely fibrous massive, intimately mixed with mimetite
##STATUS=The identification of this mineral has been confirmed by X-ray diffraction and chemical analysis
##URL=rruff.info/R050546
##MEASURED CHEMISTRY=(Pb_1.33_Fe_0.47_Ca_0.20_)_Σ=2_(Sb^5+^_1.97_As^5+^_0.03_)_Σ=2_O_7_  ;(darker phase, with trace amounts of Na);   (Pb_4.07_Ca_0.92_Fe_0.01_)_Σ=5_((As_2.97_Sb_0.03_)_Σ=1_O_4_)_3_Cl_1.00_ (lighter phase = mimetite)
90.92609, 0.0000000E+00
91.40820, 36.03938
91.89032, 35.80560
92.37244, 35.96331
92.85455, 36.44016
93.33667, 36.80409
93.81879, 36.54363
94.30090, 35.89414
94.78302, 35.58687
95.26514, 35.88618
95.74725, 36.53340
96.22937, 36.99378
96.71149, 37.25766
97.19360, 37.39849
97.67572, 37.39565
98.15784, 37.25370
98.63995, 37.28737
99.12207, 37.69953
99.60419, 38.41211
100.0863, 38.71699
100.5684, 38.51525
101.0505, 38.10280
101.5327, 37.78428
102.0148, 37.50192
102.4969, 37.51217
102.9790, 37.83562
103.4611, 38.40129
103.9432, 39.72011
104.4253, 42.08796
104.9075, 45.04506
105.3896, 47.53956
105.8717, 48.95137
106.3538, 50.77369
106.8359, 53.52440
107.3180, 56.73301
107.8002, 61.65512
108.2823, 68.67565
108.7644, 77.46147
109.2465, 87.10901
109.7286, 97.11457
110.2107, 108.2196
110.6929, 120.9344
111.1750, 135.0055
111.6571, 150.8203
112.1392, 168.7392
112.6213, 188.6122
113.1034, 209.6882
113.5856, 230.5593
114.0677, 253.5793
114.5498, 280.2075
115.0319, 311.0949
115.5140, 345.5039
115.9961, 382.6331
116.4783, 422.5035
116.9604, 466.5956
117.4425, 515.4638
117.9246, 569.4449
118.4067, 628.3860
118.8888, 694.2313
119.3710, 764.0919
119.8531, 837.8116
120.3352, 915.5264
120.8173, 992.4100
121.2994, 1064.841
121.7815, 1133.778
122.2637, 1201.175
122.7458, 1268.770
123.2279, 1334.179
123.7100, 1394.911
124.1921, 1450.680
124.6742, 1501.857
125.1564, 1546.020
125.6385, 1585.115
126.1206, 1625.486
126.6027, 1668.819
127.0848, 1715.925
127.5669, 1768.574
128.0491, 1828.116
128.5312, 1891.028
129.0133, 1953.900
129.4954, 2016.048
129.9775, 2076.415
130.4596, 2136.979
130.9418, 2195.445
131.4239, 2244.727
131.9060, 2282.239
132.3881, 2311.038
132.8702, 2338.218
133.3523, 2364.219
133.8345, 2384.831
134.3166, 2395.956
134.7987, 2397.637
135.2808, 2394.181
135.7629, 2385.907
136.2450, 2373.228
136.7272, 2358.348
137.2093, 2341.064
137.6914, 2321.975
138.1735, 2301.061
138.6556, 2277.958
139.1377, 2255.441
139.6199, 2233.194
140.1020, 2211.420
140.5841, 2194.171
141.0662, 2181.801
141.5483, 2173.727
142.0304, 2169.387
142.5126, 2168.921
142.9947, 2171.001
143.4768, 2169.251
143.9589, 2159.010
144.4410, 2150.384
144.9231, 2143.174
145.4053, 2137.568
145.8874, 2133.861
146.3695, 2132.966
146.8516, 2132.694
147.3337, 2132.345
147.8158, 2131.483
148.2980, 2131.697
148.7801, 2133.125
149.2622, 2135.596
149.7443, 2138.739
150.2264, 2144.202
150.7085, 2148.935
151.1907, 2151.837
151.6728, 2152.043
152.1549, 2152.051
152.6370, 2153.126
153.1191, 2154.094
153.6012, 2151.993
154.0834, 2143.527
154.5655, 2134.285
155.0476, 2126.539
155.5297, 2122.234
156.0118, 2117.221
156.4939, 2110.127
156.9761, 2101.642
157.4582, 2094.344
157.9403, 2089.662
158.4224, 2085.748
158.9045, 2081.471
159.3866, 2075.157
159.8688, 2070.217
160.3509, 2068.543
160.8330, 2069.443
161.3151, 2069.655
161.7972, 2066.769
162.2793, 2063.427
162.7615, 2061.653
163.2436, 2063.597
163.7257, 2065.707
164.2078, 2066.402
164.6899, 2065.845
165.1720, 2065.216
165.6541, 2065.824
166.1363, 2066.328
166.6184, 2065.406
167.1005, 2060.960
167.5826, 2056.221
168.0647, 2053.019
168.5468, 2051.290
169.0290, 2050.278
169.5111, 2050.083
169.9932, 2050.189
170.4753, 2049.920
170.9574, 2048.536
171.4395, 2046.998
171.9217, 2046.354
172.4038, 2046.616
172.8859, 2046.583
173.3680, 2044.715
173.8501, 2041.999
174.3322, 2040.131
174.8144, 2040.650
175.2965, 2042.016
175.7786, 2041.897
176.2607, 2040.171
176.7428, 2039.104
177.2249, 2041.688
177.7071, 2046.587
178.1892, 2050.604
178.6713, 2051.404
179.1534, 2050.649
179.6355, 2051.034
180.1176, 2052.661
180.5998, 2054.950
181.0819, 2057.016
181.5640, 2059.118
182.0461, 2062.327
182.5282, 2069.629
183.0103, 2078.154
183.4925, 2080.084
183.9746, 2074.188
184.4567, 2066.474
184.9388, 2064.520
185.4209, 2067.563
185.9030, 2071.065
186.3852, 2073.477
186.8673, 2074.716
187.3494, 2074.171
187.8315, 2071.516
188.3136, 2068.233
188.7957, 2066.140
189.2779, 2065.225
189.7600, 2064.891
190.2421, 2065.220
190.7242, 2066.030
191.2063, 2066.057
191.6884, 2064.987
192.1706, 2063.732
192.6527, 2063.673
193.1348, 2064.797
193.6169, 2066.431
194.0990, 2068.634
194.5811, 2071.275
195.0633, 2072.700
195.5454, 2072.469
196.0275, 2071.651
196.5096, 2072.661
196.9917, 2075.740
197.4738, 2078.047
197.9560, 2077.582
198.4381, 2074.365
198.9202, 2072.423
199.4023, 2072.238
199.8844, 2073.079
200.3665, 2073.475
200.8487, 2073.376
201.3308, 2073.395
201.8129, 2073.993
202.2950, 2075.257
202.7771, 2076.116
203.2592, 2076.425
203.7414, 2076.431
204.2235, 2076.423
204.7056, 2076.124
205.1877, 2076.747
205.6698, 2079.373
206.1519, 2084.483
206.6341, 2088.120
207.1162, 2089.648
207.5983, 2089.991
208.0804, 2091.500
208.5625, 2094.773
209.0446, 2097.300
209.5268, 2097.093
210.0089, 2092.927
210.4910, 2092.270
210.9731, 2096.735
211.4552, 2103.874
211.9373, 2107.275
212.4195, 2105.274
212.9016, 2103.810
213.3837, 2106.287
213.8658, 2114.388
214.3479, 2120.284
214.8300, 2123.365
215.3121, 2124.469
215.7943, 2125.537
216.2764, 2126.503
216.7585, 2127.486
217.2406, 2128.462
217.7227, 2129.241
218.2048, 2130.453
218.6870, 2132.073
219.1691, 2134.082
219.6512, 2136.733
220.1333, 2140.801
220.6154, 2144.048
221.0975, 2145.150
221.5797, 2142.620
222.0618, 2142.411
222.5439, 2145.491
223.0260, 2150.483
223.5081, 2154.489
223.9902, 2157.586
224.4724, 2159.641
224.9545, 2160.297
225.4366, 2158.688
225.9187, 2158.433
226.4008, 2160.118
226.8829, 2162.923
227.3651, 2165.016
227.8472, 2165.824
228.3293, 2166.896
228.8114, 2168.893
229.2935, 2172.143
229.7757, 2175.132
230.2578, 2177.362
230.7399, 2179.484
231.2220, 2183.004
231.7041, 2188.893
232.1862, 2194.499
232.6684, 2198.876
233.1505, 2201.797
233.6326, 2204.011
234.1147, 2204.852
234.5968, 2205.328
235.0789, 2207.380
235.5611, 2211.997
236.0432, 2216.602
236.5253, 2220.560
237.0074, 2223.960
237.4895, 2226.031
237.9716, 2225.528
238.4538, 2224.481
238.9359, 2226.389
239.4180, 2233.300
239.9001, 2239.905
240.3822, 2244.535
240.8643, 2246.724
241.3465, 2248.937
241.8286, 2251.202
242.3107, 2253.459
242.7928, 2255.625
243.2749, 2257.695
243.7570, 2259.621
244.2392, 2261.208
244.7213, 2262.257
245.2034, 2264.342
245.6855, 2268.315
246.1676, 2272.649
246.6497, 2275.233
247.1319, 2274.694
247.6140, 2275.000
248.0961, 2277.377
248.5782, 2282.145
249.0603, 2286.365
249.5424, 2289.868
250.0246, 2293.073
250.5067, 2296.424
250.9888, 2299.785
251.4709, 2303.594
251.9530, 2308.049
252.4351, 2313.214
252.9173, 2318.094
253.3994, 2322.466
253.8815, 2326.789
254.3636, 2331.566
254.8457, 2336.967
255.3278, 2342.175
255.8100, 2346.981
256.2921, 2351.391
256.7742, 2355.711
257.2563, 2359.892
257.7384, 2364.025
258.2205, 2368.134
258.7026, 2372.267
259.1848, 2376.443
259.6669, 2380.870
260.1490, 2385.477
260.6311, 2388.910
261.1132, 2390.452
261.5953, 2392.079
262.0775, 2395.243
262.5596, 2400.331
263.0417, 2406.023
263.5238, 2412.528
264.0059, 2419.512
264.4880, 2425.505
264.9702, 2429.809
265.4523, 2434.310
265.9344, 2440.153
266.4165, 2447.550
266.8986, 2455.749
267.3807, 2465.283
267.8629, 2475.418
268.3450, 2483.885
268.8271, 2490.633
269.3092, 2496.132
269.7913, 2500.217
270.2734, 2502.203
270.7556, 2506.492
271.2377, 2514.125
271.7198, 2523.661
272.2019, 2531.642
272.6840, 2537.660
273.1661, 2543.740
273.6483, 2550.555
274.1304, 2557.953
274.6125, 2567.446
275.0946, 2579.782
275.5767, 2593.077
276.0588, 2603.135
276.5410, 2608.837
277.0231, 2616.663
277.5052, 2630.750
277.9873, 2651.280
278.4694, 2666.040
278.9515, 2673.734
279.4337, 2678.196
279.9158, 2684.547
280.3979, 2692.864
280.8800, 2701.775
281.3621, 2711.087
281.8442, 2720.680
282.3264, 2728.538
282.8085, 2734.275
283.2906, 2739.795
283.7727, 2747.722
284.2548, 2758.124
284.7369, 2767.872
285.2191, 2775.965
285.7012, 2782.730
286.1833, 2789.466
286.6654, 2796.083
287.1475, 2803.362
287.6296, 2812.527
288.1118, 2823.354
288.5939, 2833.215
289.0760, 2841.320
289.5581, 2848.156
290.0402, 2855.378
290.5223, 2863.032
291.0045, 2869.840
291.4866, 2874.176
291.9687, 2876.630
292.4508, 2880.196
292.9329, 2885.825
293.4150, 2892.199
293.8972, 2897.708
294.3793, 2902.330
294.8614, 2905.516
295.3435, 2906.174
295.8256, 2905.103
296.3077, 2904.176
296.7899, 2903.384
297.2720, 2903.609
297.7541, 2907.470
298.2362, 2913.972
298.7183, 2918.694
299.2004, 2917.540
299.6826, 2913.250
300.1647, 2911.162
300.6468, 2911.918
301.1289, 2913.065
301.6110, 2912.086
302.0931, 2909.452
302.5753, 2906.423
303.0574, 2903.885
303.5395, 2901.137
304.0216, 2897.006
304.5037, 2891.407
304.9858, 2885.873
305.4680, 2882.229
305.9501, 2879.482
306.4322, 2875.940
306.9143, 2870.906
307.3964, 2864.910
307.8785, 2857.785
308.3607, 2849.750
308.8428, 2842.386
309.3249, 2837.531
309.8070, 2833.661
310.2891, 2828.817
310.7712, 2820.785
311.2534, 2813.634
311.7355, 2811.208
312.2176, 2812.297
312.6997, 2812.580
313.1818, 2809.555
313.6639, 2804.835
314.1461, 2799.485
314.6282, 2793.335
315.1103, 2787.468
315.5924, 2782.165
316.0745, 2777.555
316.5566, 2773.832
317.0388, 2772.374
317.5209, 2770.958
318.0030, 2768.336
318.4851, 2764.262
318.9672, 2759.484
319.4493, 2753.797
319.9315, 2747.735
320.4136, 2741.917
320.8957, 2735.496
321.3778, 2730.358
321.8599, 2727.747
322.3420, 2727.983
322.8242, 2727.401
323.3063, 2725.237
323.7884, 2721.920
324.2705, 2717.821
324.7526, 2711.784
325.2347, 2706.208
325.7169, 2701.842
326.1990, 2698.555
326.6811, 2695.215
327.1632, 2691.424
327.6453, 2687.773
328.1274, 2684.596
328.6096, 2682.285
329.0917, 2679.964
329.5738, 2677.930
330.0559, 2675.933
330.5380, 2673.094
331.0201, 2669.035
331.5023, 2664.549
331.9844, 2659.730
332.4665, 2653.839
332.9486, 2649.642
333.4307, 2648.282
333.9128, 2648.031
334.3950, 2645.980
334.8771, 2641.542
335.3592, 2636.325
335.8413, 2630.625
336.3234, 2624.299
336.8055, 2618.591
337.2877, 2613.564
337.7698, 2609.130
338.2519, 2605.167
338.7340, 2601.724
339.2161, 2598.780
339.6982, 2596.846
340.1803, 2595.485
340.6624, 2591.734
341.1446, 2584.935
341.6267, 2577.813
342.1088, 2572.203
342.5909, 2568.176
343.0730, 2565.151
343.5551, 2563.615
344.0373, 2562.399
344.5194, 2558.658
345.0015, 2552.269
345.4836, 2545.176
345.9657, 2538.082
346.4478, 2531.121
346.9300, 2525.066
347.4121, 2519.928
347.8942, 2515.663
348.3763, 2512.914
348.8584, 2511.319
349.3405, 2508.581
349.8227, 2502.589
350.3048, 2495.022
350.7869, 2489.711
351.2690, 2486.748
351.7511, 2484.025
352.2332, 2479.648
352.7154, 2474.113
353.1975, 2468.393
353.6796, 2462.291
354.1617, 2456.616
354.6438, 2452.225
355.1259, 2449.024
355.6081, 2446.664
356.0902, 2446.395
356.5723, 2446.138
357.0544, 2443.038
357.5365, 2435.262
358.0186, 2427.533
358.5008, 2423.754
358.9829, 2422.410
359.4650, 2420.270
359.9471, 2415.922
360.4292, 2410.273
360.9113, 2403.343
361.3935, 2394.929
361.8756, 2387.554
362.3577, 2382.725
362.8398, 2379.393
363.3219, 2376.362
363.8040, 2374.760
364.2862, 2372.073
364.7683, 2367.331
365.2504, 2360.580
365.7325, 2353.232
366.2146, 2343.491
366.6967, 2334.547
367.1789, 2328.381
367.6610, 2328.388
368.1431, 2327.397
368.6252, 2325.227
369.1073, 2321.712
369.5894, 2316.395
370.0716, 2305.818
370.5537, 2296.945
371.0358, 2292.621
371.5179, 2294.913
372.0000, 2295.435
372.4821, 2293.751
372.9643, 2290.568
373.4464, 2286.634
373.9285, 2281.386
374.4106, 2276.569
374.8927, 2272.531
375.3748, 2269.227
375.8570, 2266.414
376.3391, 2264.147
376.8212, 2262.134
377.3033, 2259.978
377.7854, 2257.570
378.2675, 2256.039
378.7497, 2255.981
379.2318, 2256.472
379.7139, 2254.925
380.1960, 2251.230
380.6781, 2247.165
381.1602, 2244.031
381.6424, 2241.596
382.1245, 2237.900
382.6066, 2232.519
383.0887, 2227.283
383.5708, 2225.080
384.0529, 2225.292
384.5351, 2224.756
385.0172, 2221.646
385.4993, 2217.287
385.9814, 2213.473
386.4635, 2210.255
386.9456, 2208.147
387.4278, 2208.562
387.9099, 2210.167
388.3920, 2210.728
388.8741, 2209.195
389.3562, 2207.252
389.8383, 2206.311
390.3205, 2206.109
390.8026, 2205.969
391.2847, 2205.505
391.7668, 2204.961
392.2489, 2204.696
392.7310, 2204.919
393.2132, 2204.488
393.6953, 2202.857
394.1774, 2200.278
394.6595, 2197.020
395.1416, 2190.497
395.6237, 2185.931
396.1059, 2186.547
396.5880, 2191.970
397.0701, 2195.491
397.5522, 2193.992
398.0343, 2191.352
398.5164, 2189.866
398.9986, 2191.563
399.4807, 2192.065
399.9628, 2190.514
400.4449, 2187.761
400.9270, 2185.729
401.4091, 2184.623
401.8913, 2184.022
402.3734, 2183.855
402.8555, 2184.178
403.3376, 2184.698
403.8197, 2185.743
404.3018, 2186.574
404.7840, 2186.278
405.2661, 2184.518
405.7482, 2182.639
406.2303, 2180.640
406.7124, 2178.725
407.1945, 2178.038
407.6767, 2178.851
408.1588, 2179.412
408.6409, 2177.992
409.1230, 2174.791
409.6051, 2173.084
410.0872, 2173.326
410.5694, 2174.484
411.0515, 2175.265
411.5336, 2175.685
412.0157, 2175.736
412.4978, 2175.118
412.9799, 2174.256
413.4621, 2174.164
413.9442, 2174.844
414.4263, 2175.428
414.9084, 2174.631
415.3905, 2173.428
415.8727, 2173.541
416.3548, 2176.178
416.8369, 2179.027
417.3190, 2179.922
417.8011, 2179.452
418.2832, 2179.186
418.7654, 2179.531
419.2475, 2180.579
419.7296, 2182.523
420.2117, 2185.494
420.6938, 2188.581
421.1759, 2191.625
421.6581, 2194.477
422.1402, 2197.026
422.6223, 2199.406
423.1044, 2201.242
423.5865, 2202.580
424.0686, 2203.350
424.5508, 2203.094
425.0329, 2199.071
425.5150, 2196.222
425.9971, 2196.966
426.4792, 2203.539
426.9613, 2209.142
427.4435, 2213.508
427.9256, 2217.054
428.4077, 2220.325
428.8898, 2223.162
429.3719, 2226.225
429.8540, 2229.828
430.3362, 2233.898
430.8183, 2237.169
431.3004, 2238.977
431.7825, 2241.865
432.2646, 2249.267
432.7467, 2261.174
433.2289, 2269.566
433.7110, 2272.625
434.1931, 2272.683
434.6752, 2273.493
435.1573, 2275.007
435.6394, 2276.842
436.1216, 2278.069
436.6036, 2279.597
437.0858, 2283.884
437.5679, 2291.035
438.0500, 2298.750
438.5321, 2305.482
439.0142, 2311.321
439.4963, 2316.252
439.9785, 2319.313
440.4606, 2322.856
440.9427, 2329.531
441.4248, 2338.381
441.9069, 2346.452
442.3890, 2352.552
442.8712, 2357.294
443.3533, 2360.424
443.8354, 2361.292
444.3175, 2363.903
444.7996, 2371.354
445.2817, 2380.432
445.7639, 2387.834
446.2460, 2389.682
446.7281, 2393.388
447.2102, 2401.465
447.6923, 2413.146
448.1744, 2422.714
448.6566, 2428.366
449.1387, 2433.733
449.6208, 2440.529
450.1029, 2449.635
450.5850, 2457.597
451.0671, 2464.281
451.5493, 2469.855
452.0314, 2474.287
452.5135, 2477.246
452.9956, 2480.455
453.4777, 2484.464
453.9598, 2489.046
454.4420, 2493.241
454.9241, 2496.992
455.4062, 2500.702
455.8883, 2504.450
456.3704, 2508.345
456.8525, 2512.976
457.3347, 2518.486
457.8168, 2524.151
458.2989, 2528.824
458.7810, 2532.831
459.2631, 2536.960
459.7452, 2542.243
460.2274, 2547.501
460.7095, 2550.583
461.1916, 2551.933
461.6737, 2554.629
462.1558, 2561.466
462.6379, 2570.050
463.1201, 2578.485
463.6022, 2587.167
464.0843, 2593.989
464.5664, 2596.926
465.0485, 2597.667
465.5306, 2598.916
466.0128, 2601.129
466.4949, 2604.074
466.9770, 2607.630
467.4591, 2611.790
467.9412, 2616.837
468.4233, 2623.864
468.9055, 2630.897
469.3876, 2636.707
469.8697, 2639.924
470.3518, 2645.213
470.8339, 2654.030
471.3160, 2664.107
471.7982, 2670.641
472.2803, 2672.404
472.7624, 2675.684
473.2445, 2682.867
473.7266, 2693.349
474.2087, 2703.588
474.6909, 2713.503
475.1730, 2723.340
475.6551, 2733.321
476.1372, 2743.291
476.6193, 2752.488
477.1014, 2760.371
477.5836, 2768.381
478.0657, 2778.474
478.5478, 2790.180
479.0299, 2801.972
479.5120, 2813.239
479.9941, 2824.366
480.4763, 2835.247
480.9584, 2846.048
481.4405, 2857.760
481.9226, 2871.517
482.4047, 2886.103
482.8868, 2900.730
483.3690, 2915.542
483.8511, 2929.466
484.3332, 2940.654
484.8153, 2951.032
485.2974, 2963.980
485.7795, 2982.142
486.2617, 3000.454
486.7438, 3017.474
487.2259, 3033.318
487.7080, 3050.704
488.1901, 3070.308
488.6722, 3090.774
489.1544, 3111.771
489.6365, 3133.446
490.1186, 3154.317
490.6007, 3174.251
491.0828, 3193.550
491.5649, 3212.942
492.0471, 3232.241
492.5292, 3251.916
493.0113, 3271.375
493.4934, 3291.376
493.9755, 3315.400
494.4576, 3343.027
494.9398, 3370.340
495.4219, 3392.888
495.9040, 3413.357
496.3861, 3435.819
496.8682, 3461.257
497.3503, 3487.673
497.8325, 3515.033
498.3146, 3542.142
498.7967, 3567.721
499.2788, 3589.246
499.7609, 3610.799
500.2430, 3635.548
500.7252, 3662.415
501.2073, 3687.044
501.6894, 3704.642
502.1715, 3722.329
502.6536, 3744.376
503.1357, 3773.790
503.6179, 3799.598
504.1000, 3819.265
504.5821, 3836.728
505.0642, 3856.001
505.5463, 3878.455
506.0284, 3899.450
506.5106, 3917.961
506.9927, 3934.441
507.4748, 3950.529
507.9569, 3966.312
508.4390, 3980.979
508.9211, 3994.740
509.4033, 4007.277
509.8854, 4015.546
510.3675, 4019.222
510.8496, 4021.227
511.3317, 4024.757
511.8138, 4028.936
512.2960, 4031.601
512.7781, 4032.860
513.2602, 4031.359
513.7423, 4025.519
514.2244, 4015.838
514.7065, 4003.498
515.1887, 3989.582
515.6708, 3972.759
516.1529, 3951.631
516.6350, 3926.218
517.1171, 3899.781
517.5992, 3874.532
518.0814, 3848.226
518.5635, 3819.367
519.0456, 3786.085
519.5277, 3752.916
520.0098, 3720.891
520.4919, 3688.980
520.9741, 3655.628
521.4562, 3620.499
521.9383, 3585.203
522.4204, 3549.915
522.9025, 3514.715
523.3846, 3480.132
523.8668, 3446.382
524.3489, 3413.096
524.8310, 3379.010
525.3131, 3344.391
525.7952, 3313.724
526.2773, 3287.514
526.7595, 3262.277
527.2416, 3234.647
527.7237, 3205.215
528.2058, 3174.608
528.6879, 3141.812
529.1700, 3110.337
529.6522, 3084.100
530.1343, 3062.328
530.6164, 3041.886
531.0985, 3021.896
531.5806, 3002.523
532.0627, 2984.309
532.5449, 2967.429
533.0270, 2950.372
533.5091, 2931.670
533.9912, 2913.409
534.4733, 2897.343
534.9554, 2885.109
535.4376, 2872.555
535.9197, 2859.868
536.4018, 2846.781
536.8839, 2832.945
537.3660, 2817.373
537.8481, 2803.324
538.3303, 2791.732
538.8124, 2782.266
539.2945, 2772.873
539.7766, 2763.478
540.2587, 2754.819
540.7408, 2748.039
541.2230, 2742.485
541.7051, 2736.035
542.1872, 2728.575
542.6693, 2720.226
543.1514, 2709.642
543.6335, 2698.476
544.1157, 2689.604
544.5978, 2685.168
545.0799, 2681.558
545.5620, 2676.605
546.0441, 2670.611
546.5262, 2664.316
547.0084, 2656.061
547.4905, 2649.325
547.9726, 2645.991
548.4547, 2646.424
548.9368, 2646.530
549.4189, 2647.080
549.9011, 2646.195
550.3832, 2642.418
550.8653, 2633.435
551.3474, 2627.108
551.8295, 2624.759
552.3116, 2623.659
552.7938, 2619.492
553.2759, 2611.882
553.7580, 2604.883
554.2401, 2600.016
554.7222, 2596.071
555.2043, 2589.696
555.6865, 2581.148
556.1686, 2572.533
556.6507, 2565.372
557.1328, 2558.946
557.6149, 2551.874
558.0970, 2544.102
558.5792, 2536.733
559.0613, 2531.571
559.5434, 2526.835
560.0255, 2520.487
560.5076, 2510.537
560.9897, 2501.880
561.4719, 2497.700
561.9540, 2495.492
562.4361, 2491.153
562.9182, 2481.027
563.4003, 2472.207
563.8824, 2466.457
564.3646, 2463.270
564.8467, 2458.656
565.3288, 2451.750
565.8109, 2445.074
566.2930, 2440.136
566.7751, 2437.031
567.2573, 2432.669
567.7394, 2426.730
568.2215, 2420.731
568.7036, 2416.275
569.1857, 2413.069
569.6678, 2409.991
570.1500, 2407.057
570.6321, 2403.670
571.1142, 2399.206
571.5963, 2393.823
572.0784, 2387.880
572.5605, 2380.298
573.0427, 2373.284
573.5248, 2368.677
574.0069, 2366.133
574.4890, 2362.852
574.9711, 2357.983
575.4532, 2352.280
575.9354, 2345.585
576.4175, 2336.709
576.8996, 2331.339
577.3817, 2331.595
577.8638, 2333.328
578.3459, 2332.497
578.8281, 2328.027
579.3102, 2325.672
579.7923, 2326.883
580.2744, 2329.199
580.7565, 2327.474
581.2386, 2321.922
