##NAMES=Biphosphammite
##RRUFFID=R180019
##IDEAL CHEMISTRY=H_2_(N^3-^H_4_)PO_4_
##LOCALITY=Ojuela mine, Mapimí, Municipio de Mapimí, Durango, Mexico
##OWNER=RRUFF
##SOURCE=Peter Megaw
##DESCRIPTION=Colorless tetragonal prismatic crystals
##STATUS=The identification of this mineral has been confirmed only by single crystal X-ray diffraction.
##URL=rruff.info/R180019
8.813672e+001, 5.074537e+002
8.861884e+001, 5.174731e+002
8.910095e+001, 5.252865e+002
8.958307e+001, 5.295028e+002
9.006519e+001, 5.326041e+002
9.054730e+001, 5.369467e+002
9.102942e+001, 5.430353e+002
9.151154e+001, 5.496573e+002
9.199365e+001, 5.571889e+002
9.247577e+001, 5.648185e+002
9.295789e+001, 5.699543e+002
9.344000e+001, 5.695383e+002
9.392212e+001, 5.656592e+002
9.440424e+001, 5.647115e+002
9.488635e+001, 5.680717e+002
9.536847e+001, 5.723231e+002
9.585059e+001, 5.717599e+002
9.633270e+001, 5.665970e+002
9.681482e+001, 5.618654e+002
9.729694e+001, 5.604948e+002
9.777905e+001, 5.622539e+002
9.826117e+001, 5.644546e+002
9.874329e+001, 5.670898e+002
9.922540e+001, 5.697802e+002
9.970752e+001, 5.715246e+002
1.001896e+002, 5.720958e+002
1.006718e+002, 5.724476e+002
1.011539e+002, 5.731718e+002
1.016360e+002, 5.743022e+002
1.021181e+002, 5.756927e+002
1.026002e+002, 5.774888e+002
1.030823e+002, 5.795876e+002
1.035645e+002, 5.809225e+002
1.040466e+002, 5.805646e+002
1.045287e+002, 5.807315e+002
1.050108e+002, 5.833915e+002
1.054929e+002, 5.895599e+002
1.059750e+002, 5.964077e+002
1.064572e+002, 6.039434e+002
1.069393e+002, 6.124730e+002
1.074214e+002, 6.193478e+002
1.079035e+002, 6.242907e+002
1.083856e+002, 6.279007e+002
1.088677e+002, 6.307521e+002
1.093499e+002, 6.331160e+002
1.098320e+002, 6.346146e+002
1.103141e+002, 6.347252e+002
1.107962e+002, 6.324207e+002
1.112783e+002, 6.320118e+002
1.117604e+002, 6.349178e+002
1.122426e+002, 6.396772e+002
1.127247e+002, 6.440118e+002
1.132068e+002, 6.480336e+002
1.136889e+002, 6.512125e+002
1.141710e+002, 6.528531e+002
1.146531e+002, 6.509418e+002
1.151353e+002, 6.512150e+002
1.156174e+002, 6.569175e+002
1.160995e+002, 6.661146e+002
1.165816e+002, 6.739606e+002
1.170637e+002, 6.780670e+002
1.175458e+002, 6.805065e+002
1.180280e+002, 6.827048e+002
1.185101e+002, 6.851664e+002
1.189922e+002, 6.871699e+002
1.194743e+002, 6.878148e+002
1.199564e+002, 6.874288e+002
1.204385e+002, 6.874973e+002
1.209207e+002, 6.893240e+002
1.214028e+002, 6.919100e+002
1.218849e+002, 6.940585e+002
1.223670e+002, 6.940253e+002
1.228491e+002, 6.944384e+002
1.233312e+002, 6.989529e+002
1.238134e+002, 7.073039e+002
1.242955e+002, 7.144969e+002
1.247776e+002, 7.157390e+002
1.252597e+002, 7.128672e+002
1.257418e+002, 7.096298e+002
1.262239e+002, 7.073256e+002
1.267061e+002, 7.056068e+002
1.271882e+002, 7.037122e+002
1.276703e+002, 7.015270e+002
1.281524e+002, 7.001116e+002
1.286345e+002, 7.012811e+002
1.291166e+002, 7.045079e+002
1.295988e+002, 7.074121e+002
1.300809e+002, 7.086434e+002
1.305630e+002, 7.086198e+002
1.310451e+002, 7.089128e+002
1.315272e+002, 7.097467e+002
1.320093e+002, 7.103503e+002
1.324915e+002, 7.087792e+002
1.329736e+002, 7.050512e+002
1.334557e+002, 7.025630e+002
1.339378e+002, 7.048756e+002
1.344199e+002, 7.114904e+002
1.349020e+002, 7.133424e+002
1.353842e+002, 7.082769e+002
1.358663e+002, 6.999546e+002
1.363484e+002, 6.961544e+002
1.368305e+002, 6.975064e+002
1.373126e+002, 7.005436e+002
1.377947e+002, 7.034834e+002
1.382769e+002, 7.063912e+002
1.387590e+002, 7.086262e+002
1.392411e+002, 7.099404e+002
1.397232e+002, 7.105526e+002
1.402053e+002, 7.113986e+002
1.406874e+002, 7.128500e+002
1.411696e+002, 7.138358e+002
1.416517e+002, 7.135601e+002
1.421338e+002, 7.117365e+002
1.426159e+002, 7.094937e+002
1.430980e+002, 7.068145e+002
1.435801e+002, 7.037991e+002
1.440623e+002, 7.009333e+002
1.445444e+002, 6.973004e+002
1.450265e+002, 6.948943e+002
1.455086e+002, 6.956284e+002
1.459907e+002, 7.023547e+002
1.464728e+002, 7.077145e+002
1.469550e+002, 7.102157e+002
1.474371e+002, 7.096154e+002
1.479192e+002, 7.099736e+002
1.484013e+002, 7.113793e+002
1.488834e+002, 7.136708e+002
1.493655e+002, 7.167460e+002
1.498477e+002, 7.213638e+002
1.503298e+002, 7.259072e+002
1.508119e+002, 7.304537e+002
1.512940e+002, 7.353127e+002
1.517761e+002, 7.383561e+002
1.522583e+002, 7.370344e+002
1.527404e+002, 7.347143e+002
1.532225e+002, 7.349377e+002
1.537046e+002, 7.399127e+002
1.541867e+002, 7.457059e+002
1.546688e+002, 7.518019e+002
1.551510e+002, 7.587819e+002
1.556331e+002, 7.638598e+002
1.561152e+002, 7.650692e+002
1.565973e+002, 7.644766e+002
1.570794e+002, 7.648314e+002
1.575615e+002, 7.663158e+002
1.580437e+002, 7.691909e+002
1.585258e+002, 7.741419e+002
1.590079e+002, 7.823738e+002
1.594900e+002, 7.891910e+002
1.599721e+002, 7.922306e+002
1.604542e+002, 7.930355e+002
1.609364e+002, 7.943071e+002
1.614185e+002, 7.975931e+002
1.619006e+002, 8.011533e+002
1.623827e+002, 8.036923e+002
1.628648e+002, 8.040366e+002
1.633469e+002, 8.056140e+002
1.638291e+002, 8.114543e+002
1.643112e+002, 8.197614e+002
1.647933e+002, 8.264896e+002
1.652754e+002, 8.293950e+002
1.657575e+002, 8.302543e+002
1.662396e+002, 8.300555e+002
1.667218e+002, 8.280073e+002
1.672039e+002, 8.268551e+002
1.676860e+002, 8.287433e+002
1.681681e+002, 8.330386e+002
1.686502e+002, 8.378005e+002
1.691323e+002, 8.431434e+002
1.696145e+002, 8.478907e+002
1.700966e+002, 8.506175e+002
1.705787e+002, 8.499925e+002
1.710608e+002, 8.487897e+002
1.715429e+002, 8.495091e+002
1.720250e+002, 8.517775e+002
1.725072e+002, 8.537983e+002
1.729893e+002, 8.540789e+002
1.734714e+002, 8.535229e+002
1.739535e+002, 8.533727e+002
1.744356e+002, 8.540306e+002
1.749177e+002, 8.550993e+002
1.753999e+002, 8.566261e+002
1.758820e+002, 8.584750e+002
1.763641e+002, 8.594989e+002
1.768462e+002, 8.583342e+002
1.773283e+002, 8.558356e+002
1.778104e+002, 8.536868e+002
1.782926e+002, 8.529406e+002
1.787747e+002, 8.523097e+002
1.792568e+002, 8.502917e+002
1.797389e+002, 8.469038e+002
1.802210e+002, 8.418675e+002
1.807031e+002, 8.337152e+002
1.811853e+002, 8.236597e+002
1.816674e+002, 8.151885e+002
1.821495e+002, 8.106392e+002
1.826316e+002, 8.076022e+002
1.831137e+002, 8.009467e+002
1.835958e+002, 7.905405e+002
1.840780e+002, 7.801930e+002
1.845601e+002, 7.743565e+002
1.850422e+002, 7.719484e+002
1.855243e+002, 7.678315e+002
1.860064e+002, 7.598797e+002
1.864885e+002, 7.492897e+002
1.869707e+002, 7.389379e+002
1.874528e+002, 7.286631e+002
1.879349e+002, 7.193339e+002
1.884170e+002, 7.123199e+002
1.888991e+002, 7.073517e+002
1.893812e+002, 7.022584e+002
1.898634e+002, 6.961925e+002
1.903455e+002, 6.894477e+002
1.908276e+002, 6.832238e+002
1.913097e+002, 6.776050e+002
1.917918e+002, 6.717556e+002
1.922739e+002, 6.643868e+002
1.927561e+002, 6.554349e+002
1.932382e+002, 6.469150e+002
1.937203e+002, 6.394537e+002
1.942024e+002, 6.329391e+002
1.946845e+002, 6.264291e+002
1.951666e+002, 6.197974e+002
1.956488e+002, 6.136842e+002
1.961309e+002, 6.091033e+002
1.966130e+002, 6.060757e+002
1.970951e+002, 6.032004e+002
1.975772e+002, 6.001868e+002
1.980593e+002, 5.969867e+002
1.985415e+002, 5.929489e+002
1.990236e+002, 5.879630e+002
1.995057e+002, 5.825199e+002
1.999878e+002, 5.770635e+002
2.004699e+002, 5.714981e+002
2.009520e+002, 5.668046e+002
2.014342e+002, 5.637618e+002
2.019163e+002, 5.623025e+002
2.023984e+002, 5.597587e+002
2.028805e+002, 5.558301e+002
2.033626e+002, 5.514573e+002
2.038447e+002, 5.476903e+002
2.043269e+002, 5.444479e+002
2.048090e+002, 5.422548e+002
2.052911e+002, 5.417926e+002
2.057732e+002, 5.431245e+002
2.062553e+002, 5.428505e+002
2.067374e+002, 5.405185e+002
2.072196e+002, 5.372467e+002
2.077017e+002, 5.346138e+002
2.081838e+002, 5.328365e+002
2.086659e+002, 5.308223e+002
2.091480e+002, 5.278229e+002
2.096301e+002, 5.235941e+002
2.101123e+002, 5.216466e+002
2.105944e+002, 5.229365e+002
2.110765e+002, 5.252003e+002
2.115586e+002, 5.251230e+002
2.120407e+002, 5.220016e+002
2.125228e+002, 5.184446e+002
2.130050e+002, 5.148275e+002
2.134871e+002, 5.109254e+002
2.139692e+002, 5.095515e+002
2.144513e+002, 5.118509e+002
2.149334e+002, 5.154230e+002
2.154155e+002, 5.168887e+002
2.158977e+002, 5.156823e+002
2.163798e+002, 5.137386e+002
2.168619e+002, 5.115822e+002
2.173440e+002, 5.092298e+002
2.178261e+002, 5.065050e+002
2.183082e+002, 5.029377e+002
2.187904e+002, 4.995141e+002
2.192725e+002, 4.978907e+002
2.197546e+002, 4.991401e+002
2.202367e+002, 4.998713e+002
2.207188e+002, 4.989147e+002
2.212009e+002, 4.959395e+002
2.216831e+002, 4.935184e+002
2.221652e+002, 4.916151e+002
2.226473e+002, 4.903055e+002
2.231294e+002, 4.898038e+002
2.236115e+002, 4.904477e+002
2.240936e+002, 4.912483e+002
2.245758e+002, 4.922284e+002
2.250579e+002, 4.936204e+002
2.255400e+002, 4.932113e+002
2.260221e+002, 4.896074e+002
2.265042e+002, 4.854296e+002
2.269863e+002, 4.845366e+002
2.274685e+002, 4.893886e+002
2.279506e+002, 4.928393e+002
2.284327e+002, 4.925558e+002
2.289148e+002, 4.878519e+002
2.293969e+002, 4.845688e+002
2.298790e+002, 4.832564e+002
2.303612e+002, 4.828759e+002
2.308433e+002, 4.820573e+002
2.313254e+002, 4.799873e+002
2.318075e+002, 4.789497e+002
2.322896e+002, 4.797808e+002
2.327717e+002, 4.827285e+002
2.332539e+002, 4.851887e+002
2.337360e+002, 4.873753e+002
2.342181e+002, 4.888381e+002
2.347002e+002, 4.889146e+002
2.351823e+002, 4.867139e+002
2.356644e+002, 4.847597e+002
2.361466e+002, 4.837744e+002
2.366287e+002, 4.839021e+002
2.371108e+002, 4.833285e+002
2.375929e+002, 4.816024e+002
2.380750e+002, 4.796278e+002
2.385571e+002, 4.782806e+002
2.390393e+002, 4.774204e+002
2.395214e+002, 4.775172e+002
2.400035e+002, 4.791001e+002
2.404856e+002, 4.823329e+002
2.409677e+002, 4.840495e+002
2.414498e+002, 4.829962e+002
2.419320e+002, 4.816238e+002
2.424141e+002, 4.825914e+002
2.428962e+002, 4.881545e+002
2.433783e+002, 4.916708e+002
2.438604e+002, 4.909892e+002
2.443425e+002, 4.861035e+002
2.448247e+002, 4.841392e+002
2.453068e+002, 4.867519e+002
2.457889e+002, 4.905085e+002
2.462710e+002, 4.924438e+002
2.467531e+002, 4.915666e+002
2.472352e+002, 4.907991e+002
2.477174e+002, 4.905632e+002
2.481995e+002, 4.908422e+002
2.486816e+002, 4.913433e+002
2.491637e+002, 4.925150e+002
2.496458e+002, 4.934081e+002
2.501279e+002, 4.930565e+002
2.506101e+002, 4.903625e+002
2.510922e+002, 4.888808e+002
2.515743e+002, 4.894099e+002
2.520564e+002, 4.917059e+002
2.525385e+002, 4.938146e+002
2.530206e+002, 4.959948e+002
2.535028e+002, 4.976668e+002
2.539849e+002, 4.983201e+002
2.544670e+002, 4.975925e+002
2.549491e+002, 4.966896e+002
2.554312e+002, 4.954714e+002
2.559133e+002, 4.941185e+002
2.563955e+002, 4.935838e+002
2.568776e+002, 4.939403e+002
2.573597e+002, 4.949697e+002
2.578418e+002, 4.965706e+002
2.583239e+002, 4.988669e+002
2.588061e+002, 5.015236e+002
2.592882e+002, 5.051431e+002
2.597703e+002, 5.090427e+002
2.602524e+002, 5.102623e+002
2.607345e+002, 5.073817e+002
2.612166e+002, 5.044599e+002
2.616988e+002, 5.037974e+002
2.621809e+002, 5.060536e+002
2.626630e+002, 5.086194e+002
2.631451e+002, 5.118156e+002
2.636272e+002, 5.150731e+002
2.641093e+002, 5.166089e+002
2.645915e+002, 5.159398e+002
2.650736e+002, 5.147164e+002
2.655557e+002, 5.134510e+002
2.660378e+002, 5.118519e+002
2.665199e+002, 5.116897e+002
2.670020e+002, 5.135748e+002
2.674842e+002, 5.164518e+002
2.679663e+002, 5.179484e+002
2.684484e+002, 5.176039e+002
2.689305e+002, 5.171925e+002
2.694126e+002, 5.173143e+002
2.698947e+002, 5.179049e+002
2.703769e+002, 5.196242e+002
2.708590e+002, 5.229699e+002
2.713411e+002, 5.267975e+002
2.718232e+002, 5.288779e+002
2.723053e+002, 5.286608e+002
2.727874e+002, 5.287806e+002
2.732696e+002, 5.305942e+002
2.737517e+002, 5.342632e+002
2.742338e+002, 5.362380e+002
2.747159e+002, 5.361285e+002
2.751980e+002, 5.350880e+002
2.756801e+002, 5.345743e+002
2.761623e+002, 5.346170e+002
2.766444e+002, 5.350534e+002
2.771265e+002, 5.359862e+002
2.776086e+002, 5.373847e+002
2.780907e+002, 5.384729e+002
2.785728e+002, 5.392850e+002
2.790550e+002, 5.397562e+002
2.795371e+002, 5.394083e+002
2.800192e+002, 5.381055e+002
2.805013e+002, 5.380256e+002
2.809834e+002, 5.403901e+002
2.814655e+002, 5.444714e+002
2.819477e+002, 5.460802e+002
2.824298e+002, 5.447560e+002
2.829119e+002, 5.430958e+002
2.833940e+002, 5.438246e+002
2.838761e+002, 5.468931e+002
2.843582e+002, 5.493876e+002
2.848404e+002, 5.505366e+002
2.853225e+002, 5.507594e+002
2.858046e+002, 5.514084e+002
2.862867e+002, 5.525280e+002
2.867688e+002, 5.534865e+002
2.872509e+002, 5.536176e+002
2.877331e+002, 5.530219e+002
2.882152e+002, 5.525669e+002
2.886973e+002, 5.522866e+002
2.891794e+002, 5.523542e+002
2.896615e+002, 5.533678e+002
2.901436e+002, 5.553267e+002
2.906258e+002, 5.572494e+002
2.911079e+002, 5.584102e+002
2.915900e+002, 5.589739e+002
2.920721e+002, 5.595569e+002
2.925542e+002, 5.601128e+002
2.930363e+002, 5.609861e+002
2.935185e+002, 5.630429e+002
2.940006e+002, 5.661622e+002
2.944827e+002, 5.690016e+002
2.949648e+002, 5.712706e+002
2.954469e+002, 5.727349e+002
2.959290e+002, 5.721819e+002
2.964112e+002, 5.691144e+002
2.968933e+002, 5.660331e+002
2.973754e+002, 5.663367e+002
2.978575e+002, 5.693543e+002
2.983396e+002, 5.726344e+002
2.988217e+002, 5.753035e+002
2.993039e+002, 5.773660e+002
2.997860e+002, 5.785728e+002
3.002681e+002, 5.788743e+002
3.007502e+002, 5.790258e+002
3.012323e+002, 5.795504e+002
3.017144e+002, 5.804849e+002
3.021966e+002, 5.818882e+002
3.026787e+002, 5.843019e+002
3.031608e+002, 5.869277e+002
3.036429e+002, 5.885976e+002
3.041250e+002, 5.893537e+002
3.046071e+002, 5.902933e+002
3.050893e+002, 5.930563e+002
3.055714e+002, 5.964296e+002
3.060535e+002, 5.982947e+002
3.065356e+002, 5.969806e+002
3.070177e+002, 5.950179e+002
3.074998e+002, 5.943325e+002
3.079820e+002, 5.948964e+002
3.084641e+002, 5.966115e+002
3.089462e+002, 6.001922e+002
3.094283e+002, 6.045768e+002
3.099104e+002, 6.087704e+002
3.103925e+002, 6.131053e+002
3.108747e+002, 6.160983e+002
3.113568e+002, 6.155380e+002
3.118389e+002, 6.125953e+002
3.123210e+002, 6.105441e+002
3.128031e+002, 6.106151e+002
3.132852e+002, 6.124329e+002
3.137674e+002, 6.162637e+002
3.142495e+002, 6.230422e+002
3.147316e+002, 6.288809e+002
3.152137e+002, 6.309395e+002
3.156958e+002, 6.308171e+002
3.161779e+002, 6.312437e+002
3.166601e+002, 6.339780e+002
3.171422e+002, 6.369585e+002
3.176243e+002, 6.391773e+002
3.181064e+002, 6.404874e+002
3.185885e+002, 6.412524e+002
3.190706e+002, 6.403885e+002
3.195528e+002, 6.394579e+002
3.200349e+002, 6.402345e+002
3.205170e+002, 6.449374e+002
3.209991e+002, 6.497443e+002
3.214812e+002, 6.529570e+002
3.219633e+002, 6.545238e+002
3.224455e+002, 6.574270e+002
3.229276e+002, 6.649963e+002
3.234097e+002, 6.726501e+002
3.238918e+002, 6.769569e+002
3.243739e+002, 6.729094e+002
3.248560e+002, 6.704640e+002
3.253382e+002, 6.718442e+002
3.258203e+002, 6.764995e+002
3.263024e+002, 6.805858e+002
3.267845e+002, 6.838441e+002
3.272666e+002, 6.864686e+002
3.277487e+002, 6.885269e+002
3.282309e+002, 6.890186e+002
3.287130e+002, 6.902877e+002
3.291951e+002, 6.925770e+002
3.296772e+002, 6.956351e+002
3.301593e+002, 6.988699e+002
3.306414e+002, 7.024964e+002
3.311236e+002, 7.060133e+002
3.316057e+002, 7.092036e+002
3.320878e+002, 7.118187e+002
3.325699e+002, 7.149757e+002
3.330520e+002, 7.193451e+002
3.335341e+002, 7.238085e+002
3.340163e+002, 7.264875e+002
3.344984e+002, 7.260052e+002
3.349805e+002, 7.264392e+002
3.354626e+002, 7.292426e+002
3.359447e+002, 7.345802e+002
3.364268e+002, 7.386535e+002
3.369090e+002, 7.414630e+002
3.373911e+002, 7.430834e+002
3.378732e+002, 7.431578e+002
3.383553e+002, 7.410702e+002
3.388374e+002, 7.400733e+002
3.393195e+002, 7.412930e+002
3.398017e+002, 7.439554e+002
3.402838e+002, 7.446671e+002
3.407659e+002, 7.432948e+002
3.412480e+002, 7.403520e+002
3.417301e+002, 7.356588e+002
3.422122e+002, 7.291401e+002
3.426944e+002, 7.230352e+002
3.431765e+002, 7.174677e+002
3.436586e+002, 7.125778e+002
3.441407e+002, 7.092903e+002
3.446228e+002, 7.076708e+002
3.451049e+002, 7.055181e+002
3.455871e+002, 7.014414e+002
3.460692e+002, 6.957072e+002
3.465513e+002, 6.899290e+002
3.470334e+002, 6.840737e+002
3.475155e+002, 6.786068e+002
3.479977e+002, 6.746878e+002
3.484798e+002, 6.719574e+002
3.489619e+002, 6.687130e+002
3.494440e+002, 6.645969e+002
3.499261e+002, 6.593840e+002
3.504082e+002, 6.517679e+002
3.508904e+002, 6.417471e+002
3.513725e+002, 6.323895e+002
3.518546e+002, 6.273439e+002
3.523367e+002, 6.247667e+002
3.528188e+002, 6.206018e+002
3.533009e+002, 6.127010e+002
3.537831e+002, 6.039526e+002
3.542652e+002, 5.973064e+002
3.547473e+002, 5.925527e+002
3.552294e+002, 5.887483e+002
3.557115e+002, 5.863688e+002
3.561936e+002, 5.841594e+002
3.566758e+002, 5.806397e+002
3.571579e+002, 5.751810e+002
3.576400e+002, 5.693852e+002
3.581221e+002, 5.642983e+002
3.586042e+002, 5.597133e+002
3.590863e+002, 5.550975e+002
3.595685e+002, 5.490692e+002
3.600506e+002, 5.438102e+002
3.605327e+002, 5.413002e+002
3.610148e+002, 5.420467e+002
3.614969e+002, 5.420756e+002
3.619790e+002, 5.394385e+002
3.624612e+002, 5.353281e+002
3.629433e+002, 5.309904e+002
3.634254e+002, 5.255538e+002
3.639075e+002, 5.211107e+002
3.643896e+002, 5.185512e+002
3.648717e+002, 5.177537e+002
3.653539e+002, 5.172770e+002
3.658360e+002, 5.177397e+002
3.663181e+002, 5.178032e+002
3.668002e+002, 5.166423e+002
3.672823e+002, 5.118681e+002
3.677644e+002, 5.087757e+002
3.682466e+002, 5.092117e+002
3.687287e+002, 5.116704e+002
3.692108e+002, 5.118996e+002
3.696929e+002, 5.068575e+002
3.701750e+002, 5.027807e+002
3.706571e+002, 5.022800e+002
3.711393e+002, 5.072043e+002
3.716214e+002, 5.094167e+002
3.721035e+002, 5.074618e+002
3.725856e+002, 5.038959e+002
3.730677e+002, 5.019582e+002
3.735498e+002, 5.019578e+002
3.740320e+002, 5.029932e+002
3.745141e+002, 5.054521e+002
3.749962e+002, 5.091292e+002
3.754783e+002, 5.105748e+002
3.759604e+002, 5.090240e+002
3.764425e+002, 5.069241e+002
3.769247e+002, 5.060939e+002
3.774068e+002, 5.065822e+002
3.778889e+002, 5.082629e+002
3.783710e+002, 5.117020e+002
3.788531e+002, 5.157290e+002
3.793352e+002, 5.168442e+002
3.798174e+002, 5.147159e+002
3.802995e+002, 5.135067e+002
3.807816e+002, 5.165316e+002
3.812637e+002, 5.230061e+002
3.817458e+002, 5.271329e+002
3.822279e+002, 5.282783e+002
3.827101e+002, 5.288043e+002
3.831922e+002, 5.318429e+002
3.836743e+002, 5.369832e+002
3.841564e+002, 5.421498e+002
3.846385e+002, 5.463817e+002
3.851206e+002, 5.502561e+002
3.856028e+002, 5.547427e+002
3.860849e+002, 5.598394e+002
3.865670e+002, 5.654814e+002
3.870491e+002, 5.723411e+002
3.875312e+002, 5.796152e+002
3.880133e+002, 5.859396e+002
3.884955e+002, 5.905599e+002
3.889776e+002, 5.949063e+002
3.894597e+002, 6.000096e+002
3.899418e+002, 6.057950e+002
3.904239e+002, 6.120367e+002
3.909060e+002, 6.187477e+002
3.913882e+002, 6.257914e+002
3.918703e+002, 6.331356e+002
3.923524e+002, 6.409220e+002
3.928345e+002, 6.485770e+002
3.933166e+002, 6.554528e+002
3.937987e+002, 6.621873e+002
3.942809e+002, 6.694899e+002
3.947630e+002, 6.789049e+002
3.952451e+002, 6.876570e+002
3.957272e+002, 6.946741e+002
3.962093e+002, 6.999803e+002
3.966914e+002, 7.051232e+002
3.971736e+002, 7.118553e+002
3.976557e+002, 7.175685e+002
3.981378e+002, 7.206742e+002
3.986199e+002, 7.192362e+002
3.991020e+002, 7.173723e+002
3.995841e+002, 7.159534e+002
4.000663e+002, 7.141640e+002
4.005484e+002, 7.099703e+002
4.010305e+002, 7.020660e+002
4.015126e+002, 6.933927e+002
4.019947e+002, 6.849222e+002
4.024768e+002, 6.769538e+002
4.029590e+002, 6.679571e+002
4.034411e+002, 6.576131e+002
4.039232e+002, 6.466128e+002
4.044053e+002, 6.356957e+002
4.048874e+002, 6.248582e+002
4.053695e+002, 6.139242e+002
4.058517e+002, 6.023320e+002
4.063338e+002, 5.906808e+002
4.068159e+002, 5.814828e+002
4.072980e+002, 5.751471e+002
4.077801e+002, 5.692716e+002
4.082622e+002, 5.619239e+002
4.087444e+002, 5.532575e+002
4.092265e+002, 5.459818e+002
4.097086e+002, 5.404452e+002
4.101907e+002, 5.360203e+002
4.106728e+002, 5.317700e+002
4.111549e+002, 5.277200e+002
4.116371e+002, 5.241841e+002
4.121192e+002, 5.216031e+002
4.126013e+002, 5.195770e+002
4.130834e+002, 5.173228e+002
4.135655e+002, 5.148444e+002
