##NAMES=Birchite
##RRUFFID=R150100
##IDEAL CHEMISTRY=Cd^2+^_2_Cu^2+^_2_(P^5+^O_4_)_2_S^6+^O_4_&#183;5H_2_O
##LOCALITY=Block 14 Opencut, Broken Hill, New South Wales, Australia
##OWNER=RRUFF
##SOURCE=William W. Pinch
##DESCRIPTION=Sprays and aggregates of light green acicular crystals on quartz and pale pinkish almandine, associated with anglesite, pyromorphite, and libethenite. Authors sample from the type find.
##STATUS=The identification of this mineral has been confirmed by single-crystal X-ray diffraction.
##URL=rruff.info/R150100
93.48840, 1264.172
93.97052, 1238.709
94.45264, 1197.333
94.93475, 1156.563
95.41687, 1118.112
95.89898, 1083.506
96.38110, 1051.177
96.86321, 1019.472
97.34533, 986.9130
97.82745, 952.4655
98.30956, 921.9686
98.79168, 894.9450
99.27380, 870.9234
99.75591, 850.7104
100.2380, 833.1869
100.7201, 815.7818
101.2023, 796.5928
101.6844, 776.3380
102.1665, 758.0500
102.6486, 741.4043
103.1307, 726.5779
103.6128, 714.1373
104.0950, 704.1994
104.5771, 695.3021
105.0592, 686.2099
105.5413, 677.2565
106.0234, 669.1512
106.5055, 661.6627
106.9877, 655.0983
107.4698, 651.3167
107.9519, 654.6859
108.4340, 655.2143
108.9161, 648.1377
109.3982, 634.9648
109.8804, 619.6132
110.3625, 604.7545
110.8446, 589.8617
111.3267, 578.6772
111.8088, 573.5579
112.2909, 569.8138
112.7731, 565.5471
113.2552, 560.3875
113.7373, 554.8770
114.2194, 549.8010
114.7015, 544.8884
115.1836, 541.0344
115.6658, 539.1130
116.1479, 537.7823
116.6300, 535.8439
117.1121, 532.8768
117.5942, 529.0253
118.0763, 524.4274
118.5584, 518.6571
119.0406, 513.1756
119.5227, 508.3572
120.0048, 504.1465
120.4869, 500.3076
120.9690, 496.5914
121.4511, 493.4438
121.9333, 491.4384
122.4154, 490.8860
122.8975, 490.9229
123.3796, 491.0233
123.8617, 491.2345
124.3438, 491.0874
124.8260, 491.4676
125.3081, 490.9514
125.7902, 487.6884
126.2723, 480.4402
126.7544, 470.8617
127.2365, 462.5960
127.7187, 455.6165
128.2008, 450.2276
128.6829, 446.9417
129.1650, 444.8780
129.6471, 442.9662
130.1292, 440.5860
130.6114, 437.7471
131.0935, 434.5552
131.5756, 430.3053
132.0577, 426.3478
132.5398, 423.6270
133.0219, 421.5800
133.5041, 418.7685
133.9862, 413.7054
134.4683, 405.6972
134.9504, 400.1213
135.4325, 398.0164
135.9146, 396.9644
136.3968, 396.0166
136.8789, 394.9226
137.3610, 393.3861
137.8431, 390.9149
138.3252, 387.1885
138.8073, 384.1896
139.2895, 382.6237
139.7716, 381.5970
140.2537, 380.1850
140.7358, 378.2497
141.2179, 375.6952
141.7000, 372.0992
142.1821, 367.5718
142.6643, 363.1492
143.1464, 359.0396
143.6285, 355.3273
144.1106, 352.3655
144.5927, 350.6544
145.0748, 349.2883
145.5570, 347.2910
146.0391, 344.6645
146.5212, 342.2006
147.0033, 340.7476
147.4854, 340.4338
147.9675, 339.8525
148.4497, 338.7928
148.9318, 337.3193
149.4139, 335.2765
149.8960, 332.6737
150.3781, 329.8623
150.8602, 327.3675
151.3424, 325.2111
151.8245, 323.3236
152.3066, 321.3974
152.7887, 319.8199
153.2708, 319.1372
153.7529, 319.5167
154.2351, 320.3518
154.7172, 320.1032
155.1993, 317.1022
155.6814, 314.9746
156.1635, 314.6299
156.6456, 315.0233
157.1278, 314.9539
157.6099, 313.8251
158.0920, 311.8002
158.5741, 309.5111
159.0562, 306.6907
159.5383, 303.9413
160.0205, 300.9385
160.5026, 298.0762
160.9847, 296.4152
161.4668, 296.8776
161.9489, 298.8595
162.4310, 299.5428
162.9131, 297.9553
163.3953, 296.1212
163.8774, 295.4671
164.3595, 295.8422
164.8416, 295.7112
165.3237, 293.6991
165.8058, 290.5929
166.2880, 288.2871
166.7701, 287.4781
167.2522, 287.1414
167.7343, 286.0694
168.2164, 284.1110
168.6985, 282.1450
169.1807, 280.4696
169.6628, 279.1431
170.1449, 278.4176
170.6270, 278.8784
171.1091, 279.7162
171.5912, 278.8492
172.0734, 275.1690
172.5555, 271.7849
173.0376, 270.0374
173.5197, 269.2598
174.0018, 268.5225
174.4839, 267.2969
174.9661, 265.6692
175.4482, 264.1443
175.9303, 262.3693
176.4124, 261.1664
176.8945, 261.0718
177.3766, 261.6720
177.8588, 262.2437
178.3409, 262.2304
178.8230, 261.6250
179.3051, 261.3633
179.7872, 261.7319
180.2693, 262.1571
180.7515, 262.4333
181.2336, 262.6150
181.7157, 262.8936
182.1978, 263.4559
182.6799, 264.3522
183.1620, 265.0122
183.6441, 265.3708
184.1263, 265.6102
184.6084, 265.8011
185.0905, 265.9514
185.5726, 266.0538
186.0547, 266.1224
186.5368, 266.1615
187.0190, 265.9486
187.5011, 265.3714
187.9832, 264.6403
188.4653, 264.0709
188.9474, 263.6707
189.4296, 262.8872
189.9117, 261.1027
190.3938, 258.3165
190.8759, 255.2565
191.3580, 251.5101
191.8401, 247.7615
192.3223, 244.8008
192.8044, 242.7701
193.2865, 241.2300
193.7686, 239.9258
194.2507, 238.8031
194.7328, 237.7607
195.2150, 236.7091
195.6971, 235.7218
196.1792, 235.1217
196.6613, 235.3248
197.1434, 235.0150
197.6255, 232.6010
198.1077, 228.8485
198.5898, 225.7903
199.0719, 224.8818
199.5540, 225.6214
200.0361, 225.8661
200.5182, 225.3786
201.0004, 224.6103
201.4825, 223.7836
201.9646, 222.9077
202.4467, 222.0018
202.9288, 221.0756
203.4109, 220.1287
203.8930, 219.1632
204.3752, 218.0521
204.8573, 217.0744
205.3394, 216.5219
205.8215, 216.2141
206.3036, 215.6968
206.7857, 214.4599
207.2679, 212.4303
207.7500, 211.1197
208.2321, 211.1348
208.7142, 211.3618
209.1963, 212.0056
209.6784, 212.6582
210.1606, 212.3604
210.6427, 209.9380
211.1248, 204.9045
211.6069, 202.2692
212.0890, 203.9988
212.5711, 206.0428
213.0533, 206.9935
213.5354, 206.8220
214.0175, 206.1156
214.4996, 205.3631
214.9817, 204.5412
215.4638, 203.8480
215.9460, 203.5943
216.4281, 203.1709
216.9102, 201.9914
217.3923, 200.2367
217.8744, 198.7442
218.3565, 198.3688
218.8387, 199.3035
219.3208, 199.6236
219.8029, 198.6602
220.2850, 197.7007
220.7671, 197.6644
221.2492, 198.5088
221.7314, 199.4509
222.2135, 199.8730
222.6956, 199.7066
223.1777, 199.2545
223.6598, 198.2431
224.1419, 197.1491
224.6240, 196.4254
225.1062, 196.0709
225.5883, 195.5964
226.0704, 194.5055
226.5525, 192.8897
227.0346, 191.5477
227.5167, 190.3533
227.9989, 189.5643
228.4810, 189.7365
228.9631, 190.9308
229.4452, 191.8990
229.9273, 191.3446
230.4094, 189.8557
230.8916, 189.0831
231.3737, 190.1113
231.8558, 191.5239
232.3379, 191.5537
232.8200, 190.0138
233.3021, 188.4007
233.7843, 187.7113
234.2664, 187.5557
234.7485, 187.3459
235.2306, 186.6790
235.7127, 186.1134
236.1948, 186.6008
236.6770, 188.4293
237.1591, 190.1275
237.6412, 191.0128
238.1233, 191.3251
238.6054, 191.1791
239.0875, 190.4328
239.5697, 189.4990
240.0518, 189.2008
240.5339, 189.8883
241.0160, 190.0668
241.4981, 188.3308
241.9802, 186.1688
242.4624, 185.0770
242.9445, 185.6819
243.4266, 187.1942
243.9087, 188.3782
244.3908, 189.2862
244.8729, 189.6789
245.3550, 188.9628
245.8372, 188.0154
246.3193, 187.7232
246.8014, 188.4228
247.2835, 189.4020
247.7656, 189.2977
248.2477, 187.4409
248.7299, 186.1028
249.2120, 186.2874
249.6941, 186.7284
250.1762, 186.3861
250.6583, 184.9555
251.1404, 183.0144
251.6226, 181.4371
252.1047, 180.1414
252.5868, 179.4844
253.0689, 180.1651
253.5510, 180.9533
254.0331, 180.7929
254.5153, 179.4920
254.9974, 177.8701
255.4795, 177.2761
255.9616, 178.5258
256.4437, 179.0380
256.9258, 178.1987
257.4080, 177.1594
257.8901, 176.7796
258.3722, 177.1576
258.8543, 177.6761
259.3364, 177.4794
259.8185, 176.2398
260.3007, 175.0736
260.7828, 173.6753
261.2649, 172.5472
261.7470, 172.1144
262.2291, 172.3503
262.7112, 172.8675
263.1934, 173.3076
263.6755, 173.8941
264.1576, 173.4637
264.6397, 171.3051
265.1218, 168.9391
265.6039, 167.0601
266.0861, 165.7717
266.5682, 164.9221
267.0503, 164.3900
267.5324, 164.2107
268.0145, 164.1814
268.4966, 164.6563
268.9788, 164.9350
269.4609, 164.7115
269.9430, 163.9823
270.4251, 162.8374
270.9072, 161.2916
271.3893, 159.3330
271.8715, 157.6158
272.3536, 155.8462
272.8357, 154.5391
273.3178, 154.2323
273.7999, 154.6201
274.2820, 154.8514
274.7642, 154.2923
275.2463, 153.0489
275.7284, 152.4745
276.2105, 153.2579
276.6926, 153.7986
277.1747, 153.4377
277.6568, 152.4238
278.1389, 151.2308
278.6211, 150.0157
279.1032, 148.9578
279.5853, 148.9256
280.0674, 151.3826
280.5495, 152.9516
281.0316, 151.9428
281.5138, 149.5784
281.9959, 148.2039
282.4780, 148.9673
282.9601, 150.8288
283.4422, 150.9915
283.9243, 148.4351
284.4065, 146.3995
284.8886, 145.9361
285.3707, 146.2820
285.8528, 146.2345
286.3349, 145.3517
286.8170, 144.2780
287.2992, 144.2727
287.7813, 145.8542
288.2634, 146.6603
288.7455, 145.7015
289.2276, 144.0191
289.7097, 142.7362
290.1919, 142.0938
290.6740, 142.1044
291.1561, 143.1587
291.6382, 145.5339
292.1203, 146.5869
292.6024, 145.0350
293.0846, 142.6202
293.5667, 140.9916
294.0488, 140.3570
294.5309, 140.0879
295.0130, 139.6073
295.4951, 138.9254
295.9773, 138.5591
296.4594, 138.8700
296.9415, 139.2534
297.4236, 139.2838
297.9057, 138.9430
298.3878, 138.3244
298.8700, 137.3891
299.3521, 136.2137
299.8342, 135.2936
300.3163, 134.7767
300.7984, 134.3798
301.2805, 133.8280
301.7627, 133.2089
302.2448, 132.9728
302.7269, 133.5148
303.2090, 134.4859
303.6911, 134.8422
304.1732, 134.3887
304.6554, 133.7273
305.1375, 132.9322
305.6196, 132.1197
306.1017, 131.7048
306.5838, 132.0107
307.0659, 132.4759
307.5481, 131.8148
308.0302, 129.6776
308.5123, 128.0210
308.9944, 127.7938
309.4765, 128.3915
309.9586, 128.8004
310.4408, 128.7521
310.9229, 128.5254
311.4050, 128.5348
311.8871, 128.8031
312.3692, 128.8228
312.8513, 128.3354
313.3335, 127.6197
313.8156, 126.9696
314.2977, 126.4265
314.7798, 125.9759
315.2619, 125.6393
315.7440, 125.4059
316.2262, 125.1163
316.7083, 124.6179
317.1904, 124.1574
317.6725, 124.0166
318.1546, 124.1749
318.6367, 124.2817
319.1188, 124.1092
319.6010, 123.6815
320.0831, 123.2085
320.5652, 122.3201
321.0473, 121.7466
321.5294, 122.3290
322.0115, 123.6735
322.4937, 124.2840
322.9758, 123.2514
323.4579, 121.3087
323.9400, 120.4008
324.4221, 120.9669
324.9042, 121.4024
325.3864, 121.1122
325.8685, 120.3123
326.3506, 119.3415
326.8327, 118.2588
327.3148, 117.1957
327.7969, 116.2458
328.2791, 115.2622
328.7612, 115.0524
329.2433, 116.7738
329.7254, 118.8849
330.2075, 119.3521
330.6896, 117.8246
331.1718, 115.8601
331.6539, 114.9540
332.1360, 115.2165
332.6181, 115.5680
333.1002, 116.3536
333.5823, 116.9307
334.0645, 116.6389
334.5466, 115.5701
335.0287, 114.5259
335.5108, 114.0926
335.9929, 114.1706
336.4750, 113.9784
336.9572, 113.1625
337.4393, 112.4743
337.9214, 112.2748
338.4035, 112.4441
338.8856, 112.7278
339.3677, 113.0360
339.8499, 113.3204
340.3320, 113.4327
340.8141, 113.3146
341.2962, 113.1619
341.7783, 113.0037
342.2604, 112.8333
342.7426, 112.6401
343.2247, 112.4219
343.7068, 112.1915
344.1889, 111.9757
344.6710, 111.8068
345.1531, 111.5380
345.6353, 111.1194
346.1174, 110.6372
346.5995, 110.1362
347.0816, 109.6328
347.5637, 109.1082
348.0458, 108.4835
348.5280, 107.7341
349.0101, 107.6936
349.4922, 108.8083
349.9743, 110.0505
350.4564, 111.3627
350.9385, 112.4616
351.4207, 112.6864
351.9028, 111.5576
352.3849, 109.4648
352.8670, 108.0737
353.3491, 107.6337
353.8312, 107.5812
354.3134, 108.2125
354.7955, 109.0565
355.2776, 109.5816
355.7597, 109.6012
356.2418, 109.2859
356.7239, 108.9280
357.2061, 108.6237
357.6882, 108.0450
358.1703, 106.8144
358.6524, 105.6146
359.1345, 104.8967
359.6166, 104.6992
360.0987, 104.8571
360.5808, 105.2911
361.0630, 106.0940
361.5451, 106.2421
362.0272, 104.5611
362.5093, 103.4805
362.9914, 104.4542
363.4735, 106.5827
363.9557, 108.0289
364.4378, 107.6193
364.9199, 105.8640
365.4020, 104.9575
365.8841, 105.7609
366.3662, 106.2673
366.8484, 105.9117
367.3305, 105.3294
367.8126, 105.2179
368.2947, 105.7779
368.7768, 106.5723
369.2589, 106.9136
369.7411, 106.6387
370.2232, 106.3394
370.7053, 106.0797
371.1874, 105.7660
371.6695, 105.2792
372.1516, 104.6657
372.6338, 104.0984
373.1159, 103.7150
373.5980, 103.5148
374.0801, 103.4807
374.5622, 103.6903
375.0443, 103.9878
375.5265, 104.4936
376.0086, 105.0106
376.4907, 105.1540
376.9728, 104.6269
377.4549, 103.8878
377.9370, 104.1549
378.4192, 106.0218
378.9013, 107.1984
379.3834, 106.2949
379.8655, 104.9273
380.3476, 104.4502
380.8297, 105.1218
381.3119, 105.9212
381.7940, 105.6799
382.2761, 104.4253
382.7582, 103.5287
383.2403, 103.2224
383.7224, 103.2796
384.2046, 103.6294
384.6867, 104.1929
385.1688, 104.7060
385.6509, 105.1274
386.1330, 105.3791
386.6151, 105.2004
387.0973, 104.4707
387.5794, 103.7450
388.0615, 103.3273
388.5436, 103.1153
389.0257, 102.9718
389.5078, 102.8289
389.9900, 102.8263
390.4721, 103.2831
390.9542, 104.1043
391.4363, 104.4714
391.9184, 103.9012
392.4005, 103.0259
392.8827, 102.7499
393.3648, 103.1013
393.8469, 103.4883
394.3290, 103.5867
394.8111, 103.6086
395.2932, 103.9032
395.7754, 104.5352
396.2575, 105.3344
396.7396, 106.3332
397.2217, 107.4440
397.7038, 107.9237
398.1859, 106.9598
398.6681, 106.0447
399.1501, 106.3502
399.6323, 107.5903
400.1144, 108.7297
400.5965, 109.3150
401.0786, 109.3630
401.5607, 108.7914
402.0428, 106.8631
402.5250, 105.6885
403.0071, 106.1037
403.4892, 107.2456
403.9713, 108.1203
404.4534, 108.5032
404.9355, 108.8416
405.4177, 109.7283
405.8998, 111.3977
406.3819, 112.3535
406.8640, 112.1304
407.3461, 111.7334
407.8282, 111.7444
408.3104, 111.9990
408.7925, 111.9030
409.2746, 111.0185
409.7567, 109.6465
410.2388, 109.1778
410.7209, 110.8273
411.2031, 111.8260
411.6852, 111.7799
412.1673, 111.0908
412.6494, 109.8885
413.1315, 108.3162
413.6136, 106.9120
414.0958, 106.4550
414.5779, 107.1798
415.0600, 107.9109
415.5421, 109.0352
416.0242, 109.7946
416.5063, 109.8185
416.9885, 109.2239
417.4706, 108.2708
417.9527, 106.9770
418.4348, 105.5796
418.9169, 105.0046
419.3990, 105.7912
419.8812, 106.2054
420.3633, 105.0983
420.8454, 103.7278
421.3275, 103.4264
421.8096, 104.5403
422.2917, 105.8650
422.7739, 105.9686
423.2560, 104.9329
423.7381, 104.5887
424.2202, 105.7854
424.7023, 106.9202
425.1844, 106.4300
425.6666, 104.7805
426.1487, 103.6760
426.6308, 104.2378
427.1129, 105.5690
427.5950, 106.3495
428.0771, 106.5513
428.5593, 106.6504
429.0414, 106.8918
429.5235, 107.1863
430.0056, 107.3885
430.4877, 107.6099
430.9698, 107.4856
431.4520, 106.3714
431.9341, 104.8550
432.4162, 104.2369
432.8983, 104.9151
433.3804, 105.9937
433.8625, 106.4306
434.3447, 106.1135
434.8268, 106.0122
435.3089, 106.3531
435.7910, 106.7523
436.2731, 106.8133
436.7552, 106.6800
437.2374, 106.9539
437.7195, 108.0684
438.2016, 109.6821
438.6837, 110.4678
439.1658, 109.7078
439.6479, 109.0232
440.1301, 108.3389
440.6122, 107.8792
441.0943, 108.0420
441.5764, 108.8106
442.0585, 109.6053
442.5406, 109.7460
443.0227, 109.1459
443.5049, 108.5310
443.9870, 107.4555
444.4691, 106.8372
444.9512, 107.2854
445.4333, 108.3263
445.9154, 109.2215
446.3976, 109.5988
446.8797, 109.5711
447.3618, 109.2840
447.8439, 108.5186
448.3260, 108.1510
448.8081, 108.6104
449.2903, 109.3258
449.7724, 110.1387
450.2545, 110.9508
450.7366, 111.4167
451.2187, 110.8737
451.7008, 109.6854
452.1830, 109.5736
452.6651, 110.9927
453.1472, 112.4265
453.6293, 113.0047
454.1114, 113.0242
454.5935, 112.8183
455.0757, 112.3921
455.5578, 111.8793
456.0399, 111.2500
456.5220, 110.5890
457.0041, 110.3275
457.4862, 110.7189
457.9684, 111.2729
458.4505, 111.3997
458.9326, 111.1314
459.4147, 110.5159
459.8968, 109.1849
460.3789, 107.7821
460.8611, 106.8412
461.3432, 106.3629
461.8253, 106.1724
462.3074, 106.2334
462.7895, 106.4283
463.2716, 106.2576
463.7538, 105.4630
464.2359, 104.6697
464.7180, 103.8170
465.2001, 103.0620
465.6822, 102.5857
466.1643, 102.4098
466.6465, 102.4121
467.1286, 102.4629
467.6107, 102.5592
468.0928, 102.7368
468.5749, 103.4967
469.0570, 103.7914
469.5392, 102.8811
470.0213, 101.4452
470.5034, 100.4788
470.9855, 100.4215
471.4676, 100.9453
471.9497, 101.5752
472.4319, 102.3981
472.9140, 102.9447
473.3961, 103.1281
473.8782, 103.0061
474.3603, 102.5219
474.8424, 101.7376
475.3246, 100.8454
475.8067, 99.56937
476.2888, 98.40500
476.7709, 98.70779
477.2530, 100.7430
477.7351, 102.5735
478.2173, 103.3072
478.6994, 103.2653
479.1815, 102.9622
479.6636, 102.3525
480.1457, 101.7213
480.6278, 101.1799
481.1100, 100.7204
481.5920, 100.4154
482.0742, 100.2921
482.5563, 99.96268
483.0384, 98.88052
483.5205, 97.09984
484.0026, 96.34797
484.4847, 97.41141
484.9669, 98.58020
485.4490, 99.34357
485.9311, 99.70306
486.4132, 99.67243
486.8953, 99.26049
487.3774, 98.56785
487.8596, 97.72020
488.3417, 96.49976
488.8238, 95.72562
489.3059, 95.74232
489.7880, 95.79982
490.2701, 95.50595
490.7523, 94.95901
491.2344, 94.44355
491.7165, 94.12729
492.1986, 93.96938
492.6807, 93.87602
493.1628, 93.88537
493.6450, 93.85503
494.1271, 93.71760
494.6092, 93.55814
495.0913, 93.48355
495.5734, 93.47471
496.0555, 93.34001
496.5377, 92.86790
497.0198, 92.17693
497.5019, 91.59280
497.9840, 91.13536
498.4661, 90.70615
498.9482, 90.09959
499.4304, 89.55435
499.9125, 89.56783
500.3946, 90.43671
500.8767, 91.19620
501.3588, 91.44827
501.8409, 91.25194
502.3231, 90.59393
502.8052, 89.46578
503.2873, 88.28433
503.7694, 87.43826
504.2515, 86.93675
504.7336, 86.50486
505.2158, 86.34797
505.6979, 86.02572
506.1800, 85.26793
506.6621, 84.27743
507.1442, 83.23148
507.6263, 82.22122
508.1085, 81.55624
508.5906, 81.85204
509.0727, 83.57777
509.5548, 84.56487
510.0369, 84.16973
510.5190, 83.67307
511.0012, 83.49358
511.4833, 83.57689
511.9654, 83.77593
512.4475, 84.05045
512.9296, 84.29781
513.4117, 84.40008
513.8939, 84.39302
514.3760, 83.92054
514.8581, 82.39831
515.3402, 80.89623
515.8223, 80.28470
516.3044, 80.49313
516.7866, 80.98388
517.2687, 81.89482
517.7508, 82.75952
518.2329, 82.78497
518.7150, 82.03897
519.1971, 81.54827
519.6793, 81.86752
520.1614, 82.64767
520.6435, 83.13519
521.1256, 83.37589
521.6077, 83.29431
522.0898, 82.64586
522.5720, 81.83108
523.0541, 81.15154
523.5362, 80.64925
524.0183, 80.29230
524.5004, 80.08188
524.9825, 79.97163
525.4647, 79.70739
525.9468, 79.11501
526.4289, 78.61853
526.9110, 78.17533
527.3931, 77.88821
527.8752, 77.93351
528.3574, 78.27061
528.8395, 78.59653
529.3216, 78.59277
529.8037, 78.33775
530.2858, 78.34974
530.7679, 78.77378
531.2501, 79.12807
531.7322, 79.09862
532.2143, 78.94376
532.6964, 78.95958
533.1785, 79.22247
533.6606, 79.42126
534.1428, 79.27523
534.6249, 78.93514
535.1070, 78.78591
535.5891, 78.89932
536.0712, 78.86404
536.5533, 78.24040
537.0355, 77.19211
537.5176, 76.73325
537.9997, 77.01948
538.4818, 77.64077
538.9639, 78.86174
539.4460, 80.18209
539.9282, 80.82549
540.4103, 80.70789
540.8924, 80.60828
541.3745, 81.45909
541.8566, 83.31726
542.3387, 84.14159
542.8209, 82.91041
543.3029, 81.81330
543.7850, 81.37708
544.2672, 81.25694
544.7493, 80.97334
545.2314, 80.41581
545.7135, 80.02058
546.1956, 80.37993
546.6777, 81.42477
547.1599, 82.39925
547.6420, 83.46503
548.1241, 84.03101
548.6062, 83.03548
549.0883, 81.43863
549.5704, 80.87621
550.0526, 81.99651
550.5347, 83.37288
551.0168, 84.36678
551.4989, 84.93057
551.9810, 84.68572
552.4631, 83.52483
552.9453, 82.65678
553.4274, 83.39690
553.9095, 85.75671
554.3916, 87.02080
554.8737, 86.48157
555.3558, 85.87063
555.8380, 85.64376
556.3201, 85.61570
556.8022, 85.53186
557.2843, 85.32969
557.7664, 85.13052
558.2485, 85.05135
558.7307, 85.08913
559.2128, 85.37486
559.6949, 86.43324
560.1770, 86.95281
560.6591, 85.97622
561.1412, 84.51785
561.6234, 83.87386
562.1055, 84.42184
562.5876, 85.23098
563.0697, 85.61860
563.5518, 85.62123
564.0339, 85.27982
564.5161, 84.52870
564.9982, 83.78094
565.4803, 83.28743
565.9624, 83.05275
566.4445, 83.01107
566.9266, 83.38769
567.4088, 83.63587
567.8909, 83.28526
568.3730, 82.83773
568.8551, 83.04311
569.3372, 83.96351
569.8193, 84.96662
570.3015, 85.44652
570.7836, 85.43581
571.2657, 85.52987
571.7478, 85.70403
572.2299, 86.03085
572.7120, 86.77837
573.1942, 87.51777
573.6763, 87.96514
574.1584, 88.02613
574.6405, 87.56640
575.1226, 85.98373
575.6047, 83.72075
576.0869, 82.83205
576.5690, 83.67174
577.0511, 84.39954
577.5332, 84.07507
578.0153, 83.15857
578.4974, 82.35767
578.9796, 81.64090
579.4617, 81.23630
579.9438, 81.55924
580.4259, 82.04467
580.9080, 81.97178
581.3901, 81.36011
581.8723, 80.72208
582.3544, 80.36070
582.8365, 80.25180
583.3186, 80.31953
583.8007, 80.82482
584.2828, 81.10728
584.7650, 81.02248
585.2471, 80.84002
585.7292, 80.58234
586.2113, 80.37546
586.6934, 80.58968
