##NAMES=Bisbeeite
##RRUFFID=R060317
##IDEAL CHEMISTRY=(Cu,Mg)SiO_3_&#183;nH_2_O
##LOCALITY=Shangulowe, Katanga Province, Democratic Republic of Congo
##OWNER=RRUFF
##SOURCE=Herb Obodda
##DESCRIPTION=Light blue granular massive
##STATUS=The identification of this mineral has been confirmed by X-ray diffraction and chemical analysis
##URL=rruff.info/R060317
##MEASURED CHEMISTRY=(Cu_0.99_Mg_0.01_)_Σ=1_Si_1.00_O_3_·0.40H_2_O
90.49219, 145.4173
90.97430, 144.9774
91.45642, 144.8259
91.93854, 145.1620
92.42065, 145.7292
92.90277, 146.1456
93.38489, 146.3712
93.86700, 146.5338
94.34912, 146.9372
94.83124, 147.4991
95.31335, 147.7289
95.79547, 146.8249
96.27759, 145.1984
96.75970, 144.5909
97.24182, 145.4400
97.72394, 147.1772
98.20605, 148.7568
98.68817, 150.2051
99.17029, 151.3114
99.65240, 151.5683
100.1345, 150.8654
100.6166, 151.1141
101.0988, 153.1555
101.5809, 156.6332
102.0630, 158.4279
102.5451, 158.0363
103.0272, 156.8859
103.5093, 156.5852
103.9915, 157.4716
104.4736, 158.3405
104.9557, 158.8433
105.4378, 158.8923
105.9199, 159.0673
106.4020, 159.4238
106.8842, 159.8795
107.3663, 160.2590
107.8484, 160.1059
108.3305, 160.4065
108.8126, 161.6156
109.2947, 165.0305
109.7769, 167.1929
110.2590, 167.2899
110.7411, 165.9938
111.2232, 165.3902
111.7053, 166.0615
112.1874, 167.0460
112.6696, 167.9091
113.1517, 168.0857
113.6338, 168.7034
114.1159, 170.3966
114.5980, 172.9296
115.0801, 174.6635
115.5623, 174.2540
116.0444, 173.3460
116.5265, 173.2112
117.0086, 174.8242
117.4907, 176.7022
117.9728, 178.2340
118.4550, 179.3844
118.9371, 180.7580
119.4192, 183.2825
119.9013, 186.0474
120.3834, 187.8496
120.8655, 186.9756
121.3477, 185.7445
121.8298, 185.8608
122.3119, 187.6019
122.7940, 189.8946
123.2761, 191.6867
123.7582, 193.4341
124.2404, 196.1524
124.7225, 200.7709
125.2046, 206.5508
125.6867, 212.3995
126.1688, 217.9608
126.6509, 224.1400
127.1331, 231.7564
127.6152, 240.7924
128.0973, 251.1579
128.5794, 262.4436
129.0615, 275.0033
129.5436, 289.5382
130.0258, 305.8882
130.5079, 324.6435
130.9900, 347.1661
131.4721, 373.2617
131.9542, 402.8662
132.4363, 435.1839
132.9185, 470.5332
133.4006, 511.0349
133.8827, 557.3459
134.3648, 608.9127
134.8469, 666.5681
135.3290, 730.0314
135.8112, 801.1541
136.2933, 880.8029
136.7754, 969.2738
137.2575, 1066.508
137.7396, 1173.132
138.2217, 1287.336
138.7039, 1413.052
139.1860, 1553.354
139.6681, 1700.693
140.1502, 1847.933
140.6323, 1994.662
141.1144, 2137.833
141.5966, 2276.112
142.0787, 2407.863
142.5608, 2539.476
143.0429, 2673.419
143.5250, 2805.579
144.0071, 2924.292
144.4893, 3021.390
144.9714, 3116.635
145.4535, 3215.940
145.9356, 3314.254
146.4177, 3429.037
146.8998, 3563.279
147.3820, 3714.657
147.8641, 3879.941
148.3462, 4058.485
148.8283, 4249.412
149.3104, 4454.701
149.7925, 4679.052
150.2747, 4910.455
150.7568, 5147.868
151.2389, 5390.623
151.7210, 5630.882
152.2031, 5869.604
152.6852, 6102.829
153.1674, 6330.747
153.6495, 6556.581
154.1316, 6771.534
154.6137, 6973.817
155.0958, 7163.341
155.5779, 7343.782
156.0601, 7515.631
156.5422, 7678.992
157.0243, 7831.874
157.5064, 7967.237
157.9885, 8098.438
158.4706, 8230.003
158.9528, 8362.864
159.4349, 8489.843
159.9170, 8604.504
160.3991, 8713.670
160.8812, 8825.223
161.3633, 8936.569
161.8455, 9054.676
162.3276, 9182.976
162.8097, 9320.254
163.2918, 9466.910
163.7739, 9623.396
164.2560, 9777.662
164.7382, 9866.004
165.2203, 9939.895
165.7024, 10018.73
166.1845, 10100.91
166.6666, 10186.36
167.1487, 10275.76
167.6309, 10372.76
168.1130, 10475.12
168.5951, 10576.29
169.0772, 10676.60
169.5593, 10773.79
170.0414, 10865.96
170.5236, 10953.22
171.0057, 11035.36
171.4878, 11113.06
171.9699, 11186.73
172.4520, 11255.91
172.9341, 11324.88
173.4163, 11388.48
173.8984, 11439.27
174.3805, 11471.14
174.8626, 11497.50
175.3447, 11532.45
175.8268, 11574.16
176.3090, 11614.69
176.7911, 11647.47
177.2732, 11675.34
177.7553, 11702.92
178.2374, 11732.96
178.7195, 11761.35
179.2017, 11781.49
179.6838, 11794.20
180.1659, 11805.73
180.6480, 11818.38
181.1301, 11833.43
181.6122, 11854.90
182.0944, 11887.89
182.5765, 11924.88
183.0586, 11952.20
183.5407, 11969.55
184.0228, 11987.02
184.5049, 12015.74
184.9871, 12052.61
185.4692, 12085.35
185.9513, 12109.26
186.4334, 12127.07
186.9155, 12143.62
187.3976, 12158.38
187.8798, 12177.30
188.3619, 12210.63
188.8440, 12256.03
189.3261, 12296.14
189.8082, 12323.25
190.2903, 12340.89
190.7725, 12362.20
191.2546, 12387.98
191.7367, 12414.75
192.2188, 12440.22
192.7009, 12464.43
193.1830, 12484.29
193.6652, 12495.15
194.1473, 12499.51
194.6294, 12513.94
195.1115, 12540.34
195.5936, 12570.40
196.0757, 12593.01
196.5579, 12607.95
197.0400, 12622.23
197.5221, 12639.81
198.0042, 12660.16
198.4863, 12674.28
198.9684, 12680.32
199.4506, 12684.35
199.9327, 12695.82
200.4148, 12715.50
200.8969, 12735.80
201.3790, 12752.70
201.8611, 12765.77
202.3433, 12784.61
202.8254, 12811.00
203.3075, 12840.00
203.7896, 12861.99
204.2717, 12875.37
204.7538, 12889.25
205.2360, 12908.16
205.7181, 12932.80
206.2002, 12954.12
206.6823, 12970.46
207.1644, 12985.34
207.6465, 13006.36
208.1287, 13035.33
208.6108, 13063.69
209.0929, 13087.37
209.5750, 13105.60
210.0571, 13125.32
210.5392, 13148.44
211.0214, 13172.15
211.5035, 13191.03
211.9856, 13205.61
212.4677, 13214.44
212.9498, 13216.45
213.4319, 13210.83
213.9141, 13202.29
214.3962, 13191.21
214.8783, 13176.84
215.3604, 13156.44
215.8425, 13126.24
216.3246, 13097.54
216.8067, 13075.87
217.2889, 13064.03
217.7710, 13049.06
218.2531, 13028.85
218.7352, 13006.02
219.2173, 12986.61
219.6994, 12971.27
220.1816, 12957.55
220.6637, 12944.02
221.1458, 12930.06
221.6279, 12918.00
222.1100, 12907.85
222.5921, 12899.84
223.0743, 12894.59
223.5564, 12894.04
224.0385, 12893.65
224.5206, 12891.45
225.0027, 12887.00
225.4848, 12882.36
225.9670, 12875.87
226.4491, 12870.01
226.9312, 12871.65
227.4133, 12884.08
227.8954, 12898.64
228.3775, 12911.19
228.8597, 12921.41
229.3418, 12929.96
229.8239, 12935.49
230.3060, 12939.15
230.7881, 12944.59
231.2702, 12952.84
231.7524, 12960.50
232.2345, 12965.21
232.7166, 12963.53
233.1987, 12966.98
233.6808, 12979.11
234.1629, 12995.45
234.6451, 13003.50
235.1272, 12997.62
235.6093, 12992.37
236.0914, 12995.70
236.5735, 13016.45
237.0556, 13026.05
237.5378, 13019.23
238.0199, 13003.40
238.5020, 12997.70
238.9841, 13008.92
239.4662, 13020.63
239.9483, 13025.52
240.4305, 13020.01
240.9126, 13015.75
241.3947, 13011.70
241.8768, 13008.90
242.3589, 13010.91
242.8410, 13022.06
243.3232, 13030.73
243.8053, 13030.45
244.2874, 13013.24
244.7695, 13006.63
245.2516, 13016.31
245.7337, 13034.24
246.2159, 13041.49
246.6980, 13030.42
247.1801, 13020.93
247.6622, 13021.58
248.1443, 13037.37
248.6264, 13049.73
249.1086, 13058.04
249.5907, 13063.52
250.0728, 13068.49
250.5549, 13073.08
251.0370, 13076.87
251.5191, 13079.07
252.0013, 13078.05
252.4834, 13080.55
252.9655, 13088.30
253.4476, 13098.15
253.9297, 13104.22
254.4118, 13104.74
254.8940, 13104.20
255.3761, 13103.62
255.8582, 13102.25
256.3403, 13104.25
256.8224, 13111.77
257.3046, 13121.14
257.7867, 13126.04
258.2688, 13125.57
258.7509, 13123.22
259.2330, 13120.69
259.7151, 13118.79
260.1973, 13112.36
260.6794, 13098.37
261.1615, 13083.35
261.6436, 13077.66
262.1257, 13084.28
262.6078, 13092.93
263.0900, 13100.99
263.5721, 13108.60
264.0542, 13113.75
264.5363, 13114.91
265.0184, 13115.13
265.5005, 13119.27
265.9827, 13129.46
266.4648, 13136.40
266.9469, 13135.24
267.4290, 13125.53
267.9111, 13125.55
268.3932, 13140.33
268.8754, 13156.89
269.3575, 13159.08
269.8396, 13142.79
270.3217, 13127.53
270.8038, 13118.47
271.2859, 13115.25
271.7681, 13110.67
272.2502, 13103.75
272.7323, 13097.72
273.2144, 13097.18
273.6965, 13103.67
274.1786, 13107.27
274.6608, 13105.06
275.1429, 13098.00
275.6250, 13092.75
276.1071, 13089.38
276.5892, 13087.74
277.0714, 13088.44
277.5535, 13091.87
278.0356, 13094.35
278.5177, 13094.73
278.9998, 13093.90
279.4819, 13095.53
279.9641, 13100.22
280.4462, 13105.62
280.9283, 13110.67
281.4104, 13115.48
281.8925, 13117.25
282.3746, 13114.04
282.8568, 13108.67
283.3389, 13108.90
283.8210, 13114.82
284.3031, 13124.80
284.7852, 13138.98
285.2673, 13156.83
285.7495, 13173.94
286.2316, 13189.72
286.7137, 13203.93
287.1958, 13215.66
287.6779, 13224.69
288.1600, 13233.06
288.6422, 13242.34
289.1243, 13252.21
289.6064, 13260.15
290.0885, 13265.74
290.5706, 13270.21
291.0527, 13276.15
291.5349, 13283.49
292.0170, 13289.41
292.4991, 13292.21
292.9812, 13292.54
293.4633, 13291.55
293.9454, 13288.97
294.4276, 13287.14
294.9097, 13290.02
295.3918, 13296.84
295.8739, 13303.35
296.3560, 13307.61
296.8381, 13309.95
297.3203, 13310.16
297.8024, 13307.77
298.2845, 13306.39
298.7666, 13311.23
299.2487, 13320.39
299.7308, 13328.25
300.2130, 13332.04
300.6951, 13333.31
301.1772, 13333.57
301.6593, 13332.92
302.1414, 13334.21
302.6235, 13341.82
303.1057, 13353.33
303.5878, 13363.61
304.0699, 13371.58
304.5520, 13377.39
305.0341, 13380.42
305.5162, 13380.97
305.9984, 13381.52
306.4805, 13382.76
306.9626, 13385.30
307.4447, 13390.10
307.9268, 13398.37
308.4089, 13407.40
308.8911, 13414.81
309.3732, 13420.78
309.8553, 13426.44
310.3374, 13434.98
310.8195, 13442.24
311.3016, 13442.19
311.7838, 13428.06
312.2659, 13418.35
312.7480, 13430.44
313.2301, 13456.96
313.7122, 13479.68
314.1943, 13488.13
314.6765, 13491.49
315.1586, 13495.93
315.6407, 13502.47
316.1228, 13510.12
316.6049, 13518.05
317.0870, 13526.83
317.5692, 13537.24
318.0513, 13554.25
318.5334, 13568.92
319.0155, 13574.67
319.4976, 13569.17
319.9797, 13566.93
320.4619, 13575.68
320.9440, 13588.84
321.4261, 13599.03
321.9082, 13600.38
322.3903, 13602.24
322.8724, 13608.39
323.3546, 13619.09
323.8367, 13627.92
324.3188, 13634.84
324.8009, 13639.20
325.2830, 13640.54
325.7651, 13632.42
326.2473, 13629.01
326.7294, 13637.35
327.2115, 13655.24
327.6936, 13664.23
328.1757, 13651.43
328.6578, 13638.33
329.1400, 13635.68
329.6221, 13656.04
330.1042, 13669.77
330.5863, 13674.16
331.0684, 13671.53
331.5505, 13668.27
332.0327, 13659.20
332.5148, 13655.13
332.9969, 13661.83
333.4790, 13685.91
333.9611, 13701.15
334.4432, 13703.36
334.9254, 13698.98
335.4075, 13698.83
335.8896, 13703.97
336.3717, 13711.43
336.8538, 13721.32
337.3359, 13734.37
337.8180, 13743.29
338.3001, 13746.66
338.7823, 13748.35
339.2644, 13753.20
339.7465, 13762.42
340.2286, 13769.88
340.7107, 13774.17
341.1928, 13775.41
341.6750, 13773.27
342.1571, 13766.22
342.6392, 13760.87
343.1213, 13765.73
343.6034, 13780.92
344.0855, 13787.19
344.5677, 13778.82
345.0498, 13762.05
345.5319, 13752.02
346.0140, 13748.87
346.4961, 13748.37
346.9782, 13750.02
347.4604, 13752.81
347.9425, 13750.18
348.4246, 13740.19
348.9067, 13729.33
349.3888, 13727.89
349.8709, 13734.60
350.3531, 13741.75
350.8352, 13747.69
351.3173, 13751.13
351.7994, 13746.62
352.2815, 13733.19
352.7636, 13722.26
353.2458, 13727.82
353.7279, 13744.04
354.2100, 13758.36
354.6921, 13764.57
355.1742, 13767.29
355.6563, 13771.26
356.1385, 13776.23
356.6206, 13780.55
357.1027, 13781.88
357.5848, 13782.27
358.0669, 13784.15
358.5490, 13788.19
359.0312, 13793.60
359.5133, 13800.13
359.9954, 13807.61
360.4775, 13815.62
360.9596, 13826.74
361.4417, 13836.39
361.9239, 13840.56
362.4060, 13836.15
362.8881, 13833.40
363.3702, 13838.36
363.8523, 13846.94
364.3344, 13852.88
364.8166, 13852.15
365.2987, 13850.57
365.7808, 13850.25
366.2629, 13851.48
366.7450, 13853.28
367.2271, 13857.99
367.7093, 13862.25
368.1914, 13863.13
368.6735, 13857.29
369.1556, 13851.75
369.6377, 13846.73
370.1198, 13842.46
370.6020, 13841.35
371.0841, 13846.49
371.5662, 13851.93
372.0483, 13853.94
372.5304, 13847.04
373.0125, 13847.53
373.4947, 13860.75
373.9768, 13879.68
374.4589, 13886.76
374.9410, 13875.55
375.4231, 13865.63
375.9052, 13864.75
376.3874, 13874.06
376.8695, 13884.06
377.3516, 13895.58
377.8337, 13906.69
378.3158, 13914.49
378.7979, 13918.40
379.2801, 13924.14
379.7622, 13934.56
380.2443, 13947.89
380.7264, 13955.75
381.2085, 13957.35
381.6906, 13958.33
382.1728, 13963.92
382.6549, 13973.34
383.1370, 13981.58
383.6191, 13987.44
384.1012, 13992.39
384.5833, 13999.78
385.0655, 14009.17
385.5476, 14017.19
386.0297, 14021.03
386.5118, 14022.56
386.9939, 14024.85
387.4760, 14027.98
387.9582, 14033.01
388.4403, 14043.51
388.9224, 14056.67
389.4045, 14066.59
389.8866, 14068.25
390.3687, 14067.58
390.8509, 14069.13
391.3330, 14072.79
391.8151, 14077.44
392.2972, 14084.96
392.7793, 14091.83
393.2614, 14094.12
393.7436, 14085.58
394.2257, 14079.74
394.7078, 14084.57
395.1899, 14096.76
395.6720, 14107.57
396.1541, 14116.82
396.6363, 14122.23
397.1184, 14121.37
397.6005, 14110.87
398.0826, 14104.44
398.5647, 14106.52
399.0468, 14113.07
399.5290, 14119.17
400.0111, 14127.75
400.4932, 14132.36
400.9753, 14130.12
401.4574, 14121.03
401.9395, 14115.01
402.4217, 14111.43
402.9038, 14111.26
403.3859, 14115.38
403.8680, 14124.94
404.3501, 14136.29
404.8322, 14151.21
405.3144, 14166.64
405.7965, 14173.82
406.2786, 14171.39
406.7607, 14165.27
407.2428, 14155.82
407.7249, 14142.69
408.2071, 14138.50
408.6892, 14145.33
409.1713, 14154.64
409.6534, 14153.85
410.1355, 14143.65
410.6176, 14137.80
411.0998, 14141.78
411.5819, 14151.77
412.0640, 14160.23
412.5461, 14167.01
413.0282, 14169.91
413.5103, 14163.18
413.9925, 14151.78
414.4746, 14146.63
414.9567, 14150.91
415.4388, 14157.63
415.9209, 14160.67
416.4030, 14160.55
416.8852, 14158.63
417.3673, 14154.58
417.8494, 14149.67
418.3315, 14144.07
418.8136, 14137.77
419.2957, 14133.52
419.7779, 14133.01
420.2600, 14135.29
420.7421, 14139.47
421.2242, 14147.90
421.7063, 14155.62
422.1884, 14161.15
422.6706, 14164.85
423.1527, 14168.07
423.6348, 14170.71
424.1169, 14173.47
424.5990, 14177.41
425.0811, 14185.41
425.5633, 14188.19
426.0454, 14178.28
426.5275, 14166.13
427.0096, 14165.19
427.4917, 14181.60
427.9738, 14200.22
428.4560, 14219.10
428.9381, 14238.20
429.4202, 14253.50
429.9023, 14263.28
430.3844, 14271.81
430.8665, 14283.25
431.3487, 14299.08
431.8308, 14306.60
432.3129, 14301.17
432.7950, 14291.24
433.2771, 14296.51
433.7592, 14317.46
434.2414, 14337.46
434.7235, 14348.88
435.2056, 14352.95
435.6877, 14353.87
436.1698, 14351.35
436.6519, 14348.09
437.1341, 14346.99
437.6162, 14347.28
438.0983, 14347.25
438.5804, 14347.93
439.0625, 14346.19
439.5446, 14335.14
440.0268, 14317.77
440.5089, 14304.67
440.9910, 14306.55
441.4731, 14313.03
441.9552, 14315.55
442.4373, 14313.14
442.9195, 14306.94
443.4016, 14295.45
443.8837, 14281.25
444.3658, 14267.48
444.8479, 14254.33
445.3300, 14242.53
445.8122, 14230.50
446.2943, 14219.02
446.7764, 14213.56
447.2585, 14224.88
447.7406, 14234.70
448.2227, 14232.98
448.7049, 14209.87
449.1870, 14194.30
449.6691, 14190.76
450.1512, 14192.58
450.6333, 14188.77
451.1154, 14175.24
451.5976, 14164.88
452.0797, 14162.47
452.5618, 14167.20
453.0439, 14167.77
453.5260, 14164.19
454.0081, 14156.47
454.4903, 14141.82
454.9724, 14120.54
455.4545, 14105.92
455.9366, 14100.56
456.4187, 14100.74
456.9008, 14100.82
457.3830, 14100.94
457.8651, 14102.13
458.3472, 14106.74
458.8293, 14112.21
459.3114, 14114.16
459.7935, 14112.56
460.2757, 14108.24
460.7578, 14098.92
461.2399, 14088.17
461.7220, 14081.04
462.2041, 14079.54
462.6862, 14080.44
463.1684, 14081.08
463.6505, 14082.40
464.1326, 14086.67
464.6147, 14099.27
465.0968, 14111.23
465.5789, 14117.16
466.0611, 14115.86
466.5432, 14114.43
467.0253, 14114.85
467.5074, 14115.19
467.9895, 14113.82
468.4716, 14109.01
468.9538, 14104.38
469.4359, 14099.46
469.9180, 14095.00
470.4001, 14093.88
470.8822, 14099.16
471.3643, 14102.80
471.8465, 14101.30
472.3286, 14094.36
472.8107, 14087.65
473.2928, 14081.59
473.7749, 14075.70
474.2570, 14069.11
474.7392, 14061.95
475.2213, 14056.34
475.7034, 14052.71
476.1855, 14050.96
476.6676, 14050.86
477.1497, 14052.36
477.6319, 14055.44
478.1140, 14061.42
478.5961, 14068.33
479.0782, 14072.36
479.5603, 14072.91
480.0424, 14073.49
480.5246, 14077.25
481.0067, 14082.66
481.4888, 14087.52
481.9709, 14090.53
482.4530, 14093.46
482.9352, 14098.28
483.4173, 14103.92
483.8994, 14107.10
484.3815, 14106.37
484.8636, 14103.14
485.3457, 14096.91
485.8279, 14085.73
486.3100, 14078.91
486.7921, 14082.25
487.2742, 14087.61
487.7563, 14087.56
488.2384, 14077.09
488.7206, 14070.09
489.2027, 14069.38
489.6848, 14073.11
490.1669, 14075.20
490.6490, 14076.00
491.1311, 14074.31
491.6133, 14068.27
492.0954, 14058.06
492.5775, 14052.08
493.0596, 14051.01
493.5417, 14051.99
494.0238, 14051.95
494.5060, 14051.26
494.9881, 14051.66
495.4702, 14054.01
495.9523, 14056.94
496.4344, 14057.87
496.9165, 14057.45
497.3987, 14058.09
497.8808, 14063.69
498.3629, 14069.36
498.8450, 14068.00
499.3271, 14058.52
499.8092, 14053.79
500.2914, 14064.72
500.7735, 14081.47
501.2556, 14095.04
501.7377, 14103.58
502.2198, 14107.82
502.7019, 14107.37
503.1841, 14102.66
503.6662, 14094.95
504.1483, 14076.64
504.6304, 14063.63
505.1125, 14063.19
505.5946, 14077.07
506.0768, 14081.44
506.5589, 14072.45
507.0410, 14059.95
507.5231, 14051.25
508.0052, 14046.50
508.4873, 14046.29
508.9695, 14052.37
509.4516, 14060.61
509.9337, 14062.36
510.4158, 14057.96
510.8979, 14054.05
511.3800, 14053.15
511.8622, 14054.66
512.3443, 14059.23
512.8264, 14066.42
513.3085, 14070.03
513.7906, 14060.15
514.2728, 14045.79
514.7549, 14040.44
515.2370, 14050.49
515.7191, 14058.04
516.2012, 14046.95
516.6833, 14027.25
517.1655, 14014.19
517.6476, 14021.45
518.1297, 14027.67
518.6118, 14024.25
519.0939, 14012.04
519.5760, 14002.00
520.0582, 13997.28
520.5403, 13993.54
521.0224, 13988.56
521.5045, 13980.08
521.9866, 13977.02
522.4688, 13981.84
522.9509, 13989.14
523.4330, 13992.11
523.9151, 13989.80
524.3972, 13987.76
524.8793, 13987.15
525.3615, 13987.47
525.8436, 13987.19
526.3257, 13986.32
526.8078, 13986.47
527.2899, 13992.16
527.7720, 13999.04
528.2542, 13995.62
528.7363, 13981.25
529.2184, 13965.14
529.7005, 13952.13
530.1826, 13943.27
530.6647, 13940.63
531.1469, 13948.24
531.6290, 13956.49
532.1111, 13960.10
532.5932, 13960.45
533.0753, 13960.38
533.5574, 13960.46
534.0396, 13960.36
534.5217, 13959.89
535.0038, 13958.96
535.4859, 13957.34
535.9680, 13952.56
536.4501, 13949.26
536.9323, 13950.88
537.4144, 13961.02
537.8965, 13965.24
538.3786, 13960.97
538.8607, 13954.01
539.3428, 13955.79
539.8250, 13967.65
540.3071, 13970.54
540.7892, 13955.67
541.2713, 13931.31
541.7534, 13917.58
542.2355, 13913.94
542.7177, 13914.07
543.1998, 13916.46
543.6819, 13919.17
544.1640, 13918.34
544.6461, 13913.45
545.1282, 13909.58
545.6104, 13911.29
546.0925, 13915.51
546.5746, 13918.68
547.0567, 13918.25
547.5388, 13918.67
548.0209, 13923.78
548.5031, 13930.59
548.9852, 13932.73
549.4673, 13925.19
549.9494, 13917.03
550.4315, 13909.99
550.9136, 13904.09
551.3958, 13900.48
551.8779, 13901.38
552.3600, 13900.89
552.8421, 13893.44
553.3242, 13877.59
553.8063, 13869.83
554.2885, 13872.89
554.7706, 13878.52
555.2527, 13873.84
555.7348, 13860.80
556.2169, 13851.75
556.6990, 13851.54
557.1812, 13855.71
557.6633, 13859.20
558.1454, 13861.92
558.6275, 13863.47
559.1096, 13864.44
559.5917, 13863.63
560.0739, 13858.50
560.5560, 13848.83
561.0381, 13842.22
561.5202, 13846.25
562.0023, 13851.91
562.4844, 13852.29
562.9666, 13839.56
563.4487, 13831.85
563.9308, 13833.75
564.4129, 13839.43
564.8950, 13839.65
565.3771, 13830.97
565.8593, 13824.03
566.3414, 13820.67
566.8235, 13820.78
567.3056, 13826.12
567.7877, 13837.82
568.2698, 13845.72
568.7520, 13840.26
569.2341, 13825.63
569.7162, 13819.05
570.1983, 13821.61
570.6804, 13824.41
571.1625, 13818.80
571.6447, 13808.12
572.1268, 13797.28
572.6089, 13786.38
573.0910, 13778.04
573.5731, 13778.55
574.0552, 13782.12
574.5374, 13778.53
575.0195, 13754.54
575.5016, 13733.20
575.9837, 13723.00
576.4658, 13723.51
576.9479, 13725.03
577.4301, 13729.08
577.9122, 13732.14
578.3943, 13732.28
578.8764, 13728.67
579.3585, 13726.81
579.8406, 13726.61
580.3228, 13728.26
580.8049, 13733.07
581.2870, 13740.67
581.7691, 13745.27
582.2512, 13744.69
582.7333, 13743.03
583.2155, 13747.57
583.6976, 13756.17
584.1797, 13762.65
584.6617, 13760.07
585.1439, 13756.64
585.6260, 13760.36
586.1081, 13770.05
586.5902, 13780.08
