##NAMES=Bismutite
##RRUFFID=R050634
##IDEAL CHEMISTRY=Bi_2_O_2_(CO_3_)
##LOCALITY=Outpost mine, Wickenburg, White Picacho District, Maricopa County, Arizona, USA
##OWNER=RRUFF
##SOURCE=University of Arizona Mineral Museum
##DESCRIPTION=Pale brown flattened spear-head shaped crystals
##STATUS=The identification of this mineral has been confirmed by single-crystal X-ray diffraction.
##URL=rruff.info/R050634
89.15009, 4704.982
89.63220, 4825.137
90.11432, 4935.088
90.59644, 5015.783
91.07855, 5034.587
91.56067, 5053.319
92.04279, 5117.095
92.52490, 5234.586
93.00702, 5373.811
93.48914, 5476.846
93.97125, 5521.599
94.45337, 5546.202
94.93549, 5497.984
95.41760, 5410.335
95.89972, 5330.320
96.38184, 5259.150
96.86395, 5200.005
97.34607, 5160.441
97.82819, 5158.400
98.31030, 5152.261
98.79242, 5111.082
99.27454, 5035.392
99.75665, 4962.135
100.2388, 4911.213
100.7209, 4878.819
101.2030, 4862.202
101.6851, 4874.821
102.1672, 4900.246
102.6494, 4902.725
103.1315, 4874.675
103.6136, 4833.707
104.0957, 4774.492
104.5778, 4708.673
105.0599, 4665.363
105.5421, 4680.960
106.0242, 4764.580
106.5063, 4817.116
106.9884, 4815.928
107.4705, 4799.019
107.9526, 4772.917
108.4348, 4742.473
108.9169, 4717.077
109.3990, 4712.811
109.8811, 4751.538
110.3632, 4775.306
110.8453, 4782.676
111.3275, 4777.041
111.8096, 4757.797
112.2917, 4724.699
112.7738, 4683.227
113.2559, 4654.280
113.7380, 4639.179
114.2202, 4633.514
114.7023, 4645.263
115.1844, 4666.928
115.6665, 4681.090
116.1486, 4674.620
116.6307, 4649.744
117.1129, 4632.565
117.5950, 4629.481
118.0771, 4628.939
118.5592, 4618.694
119.0413, 4597.222
119.5234, 4581.881
120.0056, 4600.326
120.4877, 4639.741
120.9698, 4661.437
121.4519, 4637.101
121.9340, 4587.365
122.4161, 4562.371
122.8982, 4577.230
123.3804, 4602.631
123.8625, 4621.771
124.3446, 4633.933
124.8267, 4635.369
125.3088, 4614.287
125.7909, 4567.560
126.2731, 4541.824
126.7552, 4567.980
127.2373, 4600.472
127.7194, 4620.629
128.2015, 4624.333
128.6837, 4615.470
129.1658, 4597.498
129.6479, 4560.827
130.1300, 4534.244
130.6121, 4516.128
131.0942, 4508.782
131.5764, 4518.490
132.0585, 4547.960
132.5406, 4588.959
133.0227, 4611.974
133.5048, 4592.676
133.9869, 4580.751
134.4691, 4584.072
134.9512, 4598.537
135.4333, 4616.521
135.9154, 4632.954
136.3975, 4648.432
136.8796, 4672.154
137.3618, 4718.661
137.8439, 4758.909
138.3260, 4774.273
138.8081, 4766.940
139.2902, 4756.761
139.7723, 4759.737
140.2545, 4776.492
140.7366, 4794.511
141.2187, 4814.346
141.7008, 4834.621
142.1829, 4853.016
142.6650, 4868.375
143.1472, 4885.249
143.6293, 4912.474
144.1114, 4947.372
144.5935, 4976.275
145.0756, 4984.957
145.5577, 4981.582
146.0399, 4993.987
146.5220, 5030.869
147.0041, 5081.589
147.4862, 5140.759
147.9683, 5207.332
148.4504, 5268.932
148.9326, 5311.304
149.4147, 5332.476
149.8968, 5358.196
150.3789, 5393.715
150.8610, 5435.216
151.3431, 5485.482
151.8252, 5544.517
152.3074, 5602.217
152.7895, 5638.829
153.2716, 5635.717
153.7537, 5652.720
154.2358, 5709.366
154.7179, 5779.392
155.2001, 5840.866
155.6822, 5884.654
156.1643, 5915.777
156.6464, 5950.178
157.1285, 6004.686
157.6106, 6042.531
158.0928, 6053.931
158.5749, 6047.897
159.0570, 6034.559
159.5391, 6018.970
160.0212, 6002.276
160.5033, 5998.944
160.9855, 6017.751
161.4676, 6038.763
161.9497, 6063.129
162.4318, 6086.119
162.9139, 6096.151
163.3960, 6082.856
163.8782, 6044.784
164.3603, 6009.169
164.8424, 5984.434
165.3245, 5955.463
165.8066, 5913.020
166.2887, 5856.265
166.7709, 5789.835
167.2530, 5717.479
167.7351, 5638.551
168.2172, 5551.177
168.6993, 5443.212
169.1814, 5331.211
169.6636, 5237.797
170.1457, 5169.242
170.6278, 5107.215
171.1099, 5031.691
171.5920, 4945.126
172.0741, 4859.006
172.5563, 4775.653
173.0384, 4695.734
173.5205, 4623.275
174.0026, 4562.958
174.4847, 4503.700
174.9668, 4432.765
175.4490, 4351.188
175.9311, 4273.912
176.4132, 4210.012
176.8953, 4159.038
177.3774, 4118.313
177.8595, 4099.990
178.3417, 4081.847
178.8238, 4046.781
179.3059, 3993.726
179.7880, 3939.177
180.2701, 3906.734
180.7522, 3905.849
181.2344, 3886.253
181.7165, 3818.322
182.1986, 3743.934
182.6807, 3688.280
183.1628, 3658.383
183.6449, 3644.077
184.1271, 3630.328
184.6092, 3622.279
185.0913, 3603.545
185.5734, 3564.901
186.0555, 3520.869
186.5376, 3484.538
187.0198, 3461.127
187.5019, 3445.405
187.9840, 3423.068
188.4661, 3386.937
188.9482, 3352.782
189.4303, 3323.929
189.9125, 3296.939
190.3946, 3267.200
190.8767, 3231.795
191.3588, 3192.981
191.8409, 3160.464
192.3230, 3133.416
192.8052, 3113.633
193.2873, 3105.220
193.7694, 3104.318
194.2515, 3106.063
194.7336, 3108.765
195.2157, 3111.081
195.6979, 3097.919
196.1800, 3054.496
196.6621, 3014.543
197.1442, 2994.691
197.6263, 2989.630
198.1084, 2981.165
198.5906, 2954.863
199.0727, 2913.090
199.5548, 2886.354
200.0369, 2895.032
200.5190, 2900.249
201.0011, 2872.569
201.4833, 2814.697
201.9654, 2759.082
202.4475, 2730.116
202.9296, 2726.855
203.4117, 2722.077
203.8938, 2718.144
204.3760, 2710.509
204.8581, 2691.608
205.3402, 2660.300
205.8223, 2631.579
206.3044, 2621.143
206.7865, 2623.900
207.2687, 2621.673
207.7508, 2607.624
208.2329, 2588.059
208.7150, 2570.288
209.1971, 2554.169
209.6792, 2541.918
210.1614, 2539.759
210.6435, 2543.401
211.1256, 2542.553
211.6077, 2530.515
212.0898, 2511.748
212.5719, 2496.026
213.0541, 2484.722
213.5362, 2474.587
214.0183, 2461.753
214.5004, 2447.949
214.9825, 2437.880
215.4646, 2438.309
215.9468, 2445.634
216.4289, 2444.285
216.9110, 2429.868
217.3931, 2411.677
217.8752, 2394.850
218.3573, 2379.011
218.8395, 2363.083
219.3216, 2345.723
219.8037, 2327.208
220.2858, 2309.953
220.7679, 2288.135
221.2500, 2274.951
221.7322, 2283.706
222.2143, 2307.696
222.6964, 2326.592
223.1785, 2321.740
223.6606, 2292.015
224.1427, 2263.820
224.6249, 2230.561
225.1070, 2205.432
225.5891, 2197.288
226.0712, 2203.222
226.5533, 2212.601
227.0354, 2216.125
227.5176, 2213.178
227.9997, 2208.378
228.4818, 2202.474
228.9639, 2193.952
229.4460, 2178.671
229.9281, 2158.872
230.4103, 2142.083
230.8924, 2137.410
231.3745, 2148.582
231.8566, 2154.983
232.3387, 2153.175
232.8208, 2149.927
233.3030, 2149.704
233.7851, 2151.794
234.2672, 2151.524
234.7493, 2143.385
235.2314, 2125.176
235.7135, 2106.764
236.1957, 2082.461
236.6778, 2062.388
237.1599, 2056.501
237.6420, 2062.902
238.1241, 2068.736
238.6062, 2057.094
239.0884, 2016.140
239.5705, 1997.856
240.0526, 2022.511
240.5347, 2049.766
241.0168, 2054.726
241.4989, 2035.589
241.9811, 2006.914
242.4632, 1984.612
242.9453, 1968.977
243.4274, 1960.672
243.9095, 1966.455
244.3916, 1973.443
244.8738, 1972.081
245.3559, 1961.847
245.8380, 1950.404
246.3201, 1947.182
246.8022, 1956.739
247.2843, 1959.761
247.7665, 1952.082
248.2486, 1941.497
248.7307, 1932.913
249.2128, 1927.176
249.6949, 1923.151
250.1770, 1919.841
250.6592, 1917.921
251.1413, 1913.956
251.6234, 1902.883
252.1055, 1893.272
252.5876, 1894.332
253.0697, 1906.195
253.5519, 1918.213
254.0340, 1917.890
254.5161, 1900.620
254.9982, 1888.581
255.4803, 1883.853
255.9624, 1882.858
256.4445, 1884.051
256.9267, 1886.898
257.4088, 1889.829
257.8909, 1892.488
258.3730, 1895.906
258.8551, 1888.481
259.3372, 1855.425
259.8194, 1821.084
260.3015, 1806.543
260.7836, 1813.777
261.2657, 1829.257
261.7478, 1841.251
262.2299, 1849.226
262.7121, 1854.196
263.1942, 1857.074
263.6763, 1856.353
264.1584, 1848.158
264.6405, 1832.695
265.1227, 1818.216
265.6048, 1811.850
266.0869, 1814.566
266.5690, 1821.385
267.0511, 1835.756
267.5332, 1851.874
268.0154, 1868.306
268.4975, 1884.267
268.9796, 1891.422
269.4617, 1879.432
269.9438, 1848.306
270.4259, 1826.811
270.9081, 1817.406
271.3902, 1816.594
271.8723, 1824.643
272.3544, 1840.961
272.8365, 1858.144
273.3186, 1873.012
273.8008, 1883.956
274.2829, 1884.597
274.7650, 1862.232
275.2471, 1838.915
275.7292, 1834.294
276.2113, 1847.373
276.6935, 1859.252
277.1756, 1856.771
277.6577, 1841.228
278.1398, 1828.032
278.6219, 1813.749
279.1040, 1804.488
279.5862, 1808.602
280.0683, 1824.230
280.5504, 1836.177
281.0325, 1833.259
281.5146, 1819.284
281.9967, 1812.190
282.4789, 1817.675
282.9610, 1824.628
283.4431, 1827.976
283.9252, 1827.499
284.4073, 1820.935
284.8894, 1803.670
285.3716, 1781.202
285.8537, 1769.874
286.3358, 1775.022
286.8179, 1784.000
287.3000, 1791.860
287.7821, 1798.300
288.2643, 1801.805
288.7464, 1801.312
289.2285, 1797.618
289.7106, 1792.798
290.1927, 1785.008
290.6748, 1779.395
291.1570, 1776.958
291.6391, 1778.394
292.1212, 1787.992
292.6033, 1811.600
293.0854, 1838.490
293.5675, 1845.046
294.0497, 1823.964
294.5318, 1806.128
295.0139, 1808.972
295.4960, 1824.068
295.9781, 1830.651
296.4602, 1819.640
296.9424, 1802.522
297.4245, 1801.542
297.9066, 1820.070
298.3887, 1833.993
298.8708, 1831.250
299.3529, 1819.813
299.8351, 1814.994
300.3172, 1822.245
300.7993, 1831.526
301.2814, 1825.086
301.7635, 1800.605
302.2456, 1785.792
302.7278, 1797.887
303.2099, 1819.369
303.6920, 1823.718
304.1741, 1804.409
304.6562, 1780.826
305.1383, 1776.428
305.6205, 1792.447
306.1026, 1803.889
306.5847, 1807.364
307.0668, 1804.823
307.5489, 1795.959
308.0310, 1780.779
308.5132, 1765.876
308.9953, 1756.534
309.4774, 1753.334
309.9595, 1755.564
310.4416, 1768.557
310.9237, 1783.225
311.4059, 1791.502
311.8880, 1793.471
312.3701, 1796.192
312.8522, 1806.784
313.3343, 1823.914
313.8164, 1830.335
314.2986, 1811.928
314.7807, 1795.771
315.2628, 1803.039
315.7449, 1828.417
316.2270, 1847.520
316.7091, 1843.479
317.1913, 1821.105
317.6734, 1809.612
318.1555, 1815.888
318.6376, 1823.703
319.1197, 1828.152
319.6018, 1829.568
320.0840, 1829.202
320.5661, 1827.855
321.0482, 1824.809
321.5303, 1816.918
322.0124, 1789.004
322.4945, 1776.962
322.9767, 1803.986
323.4588, 1847.795
323.9409, 1873.273
324.4230, 1866.435
324.9051, 1842.386
325.3872, 1830.257
325.8694, 1826.470
326.3515, 1842.005
326.8336, 1907.226
327.3157, 1978.082
327.7978, 2003.534
328.2799, 1971.709
328.7621, 1917.260
329.2442, 1887.198
329.7263, 1894.262
330.2084, 1896.961
330.6905, 1892.496
331.1726, 1885.912
331.6548, 1880.390
332.1369, 1876.465
332.6190, 1873.053
333.1011, 1868.492
333.5832, 1861.435
334.0653, 1861.668
334.5475, 1874.932
335.0296, 1888.752
335.5117, 1898.167
335.9938, 1902.891
336.4759, 1903.631
336.9580, 1899.966
337.4402, 1892.080
337.9223, 1892.566
338.4044, 1910.467
338.8865, 1926.604
339.3686, 1934.818
339.8507, 1938.042
340.3329, 1941.898
340.8150, 1949.750
341.2971, 1960.335
341.7792, 1968.037
342.2613, 1964.859
342.7434, 1969.241
343.2256, 1991.618
343.7077, 2018.823
344.1898, 2035.426
344.6719, 2035.493
345.1540, 2027.081
345.6361, 2026.357
346.1183, 2036.704
346.6004, 2048.773
347.0825, 2061.043
347.5646, 2074.869
348.0467, 2093.962
348.5288, 2117.788
349.0110, 2139.267
349.4931, 2146.907
349.9752, 2135.194
350.4573, 2131.765
350.9394, 2144.288
351.4215, 2159.445
351.9037, 2172.934
352.3858, 2183.865
352.8679, 2192.042
353.3500, 2197.402
353.8321, 2199.931
354.3142, 2197.842
354.7964, 2178.540
355.2785, 2170.816
355.7606, 2196.797
356.2427, 2241.179
356.7248, 2273.847
357.2069, 2275.689
357.6891, 2255.419
358.1712, 2234.293
358.6533, 2205.217
359.1354, 2191.904
359.6175, 2218.256
360.0996, 2259.081
360.5818, 2286.107
361.0639, 2289.291
361.5460, 2278.422
362.0281, 2262.297
362.5102, 2239.377
362.9923, 2225.014
363.4745, 2233.351
363.9566, 2246.557
364.4387, 2246.148
364.9208, 2228.890
365.4029, 2208.966
365.8850, 2197.252
366.3672, 2192.272
366.8493, 2184.859
367.3314, 2170.365
367.8135, 2157.179
368.2956, 2154.829
368.7777, 2162.462
369.2599, 2171.040
369.7420, 2179.937
370.2241, 2186.585
370.7062, 2184.521
371.1883, 2171.558
371.6704, 2158.521
372.1526, 2155.740
372.6347, 2161.367
373.1168, 2164.588
373.5989, 2160.779
374.0810, 2156.513
374.5631, 2158.478
375.0453, 2165.953
375.5274, 2172.646
376.0095, 2176.416
376.4916, 2175.672
376.9737, 2165.094
377.4558, 2129.675
377.9380, 2102.547
378.4201, 2100.223
378.9022, 2114.097
379.3843, 2129.722
379.8664, 2142.234
380.3485, 2149.516
380.8307, 2146.098
381.3128, 2122.671
381.7949, 2105.791
382.2770, 2098.932
382.7591, 2098.338
383.2412, 2102.429
383.7234, 2110.160
384.2055, 2117.904
384.6876, 2120.906
385.1697, 2116.942
385.6518, 2118.044
386.1339, 2129.757
386.6161, 2140.518
387.0982, 2145.560
387.5803, 2144.798
388.0624, 2139.354
388.5445, 2129.534
389.0266, 2115.836
389.5088, 2103.807
389.9909, 2089.175
390.4730, 2081.751
390.9551, 2087.757
391.4372, 2100.356
391.9193, 2111.480
392.4015, 2117.660
392.8836, 2120.329
393.3657, 2122.774
393.8478, 2126.572
394.3299, 2125.959
394.8120, 2113.585
395.2942, 2101.380
395.7763, 2099.129
396.2584, 2107.593
396.7405, 2117.532
397.2226, 2119.224
397.7047, 2112.601
398.1869, 2107.147
398.6690, 2103.159
399.1511, 2100.953
399.6332, 2097.902
400.1153, 2096.159
400.5974, 2102.098
401.0796, 2127.386
401.5617, 2160.264
402.0438, 2172.714
402.5259, 2160.669
403.0080, 2144.115
403.4901, 2127.382
403.9723, 2114.861
404.4544, 2115.609
404.9365, 2138.857
405.4186, 2162.947
405.9007, 2171.960
406.3828, 2166.761
406.8650, 2147.225
407.3471, 2102.287
407.8292, 2057.849
408.3113, 2062.816
408.7934, 2126.758
409.2755, 2180.747
409.7577, 2198.896
410.2398, 2196.429
410.7219, 2190.693
411.2040, 2184.854
411.6861, 2181.776
412.1682, 2185.333
412.6504, 2196.742
413.1325, 2203.758
413.6146, 2201.441
414.0967, 2199.443
414.5788, 2203.950
415.0609, 2213.552
415.5431, 2223.688
416.0252, 2231.967
416.5073, 2237.966
416.9894, 2239.696
417.4715, 2230.776
417.9536, 2225.276
418.4358, 2228.038
418.9179, 2233.294
419.4000, 2234.500
419.8821, 2229.802
420.3642, 2222.653
420.8463, 2217.076
421.3285, 2210.115
421.8106, 2213.344
422.2927, 2238.782
422.7748, 2263.257
423.2569, 2273.107
423.7390, 2270.964
424.2212, 2270.022
424.7033, 2284.026
425.1854, 2308.179
425.6675, 2309.952
426.1496, 2272.090
426.6317, 2241.043
427.1139, 2237.214
427.5960, 2248.437
428.0781, 2260.242
428.5602, 2268.214
429.0423, 2273.769
429.5244, 2277.821
430.0066, 2280.313
430.4887, 2284.019
430.9708, 2289.729
431.4529, 2297.127
431.9350, 2306.613
432.4171, 2318.459
432.8993, 2327.726
433.3814, 2327.768
433.8635, 2324.727
434.3456, 2334.021
434.8277, 2359.788
435.3098, 2379.660
435.7920, 2370.930
436.2741, 2335.695
436.7562, 2310.745
437.2383, 2306.734
437.7204, 2304.635
438.2025, 2290.613
438.6847, 2268.945
439.1668, 2252.719
439.6489, 2248.500
440.1310, 2253.300
440.6131, 2259.306
441.0952, 2272.803
441.5774, 2278.528
442.0595, 2270.258
442.5416, 2257.177
443.0237, 2245.821
443.5058, 2238.192
443.9879, 2235.333
444.4701, 2239.003
444.9522, 2250.151
445.4343, 2260.966
445.9164, 2275.918
446.3985, 2285.899
446.8806, 2289.015
447.3628, 2284.736
447.8449, 2270.476
448.3270, 2242.408
448.8091, 2209.444
449.2912, 2194.834
449.7733, 2204.709
450.2555, 2216.093
450.7376, 2223.865
451.2197, 2230.393
451.7018, 2239.000
452.1839, 2250.062
452.6660, 2256.769
453.1482, 2252.010
453.6303, 2237.760
454.1124, 2222.584
454.5945, 2206.133
455.0766, 2191.519
455.5587, 2181.954
456.0409, 2176.357
456.5230, 2172.527
457.0051, 2169.188
457.4872, 2167.971
457.9693, 2172.695
458.4514, 2181.915
458.9336, 2187.145
459.4156, 2183.611
459.8978, 2174.467
460.3799, 2168.500
460.8620, 2170.643
461.3441, 2166.279
461.8262, 2140.874
462.3083, 2114.013
462.7905, 2111.291
463.2726, 2135.136
463.7547, 2162.583
464.2368, 2169.255
464.7189, 2152.393
465.2010, 2138.572
465.6832, 2128.584
466.1653, 2120.668
466.6474, 2112.308
467.1295, 2106.087
467.6116, 2107.841
468.0938, 2121.272
468.5759, 2139.165
469.0580, 2143.720
469.5401, 2128.502
470.0222, 2118.312
470.5043, 2126.752
470.9865, 2134.757
471.4686, 2125.586
471.9507, 2100.174
472.4328, 2079.612
472.9149, 2083.938
473.3970, 2106.316
473.8792, 2123.519
474.3613, 2135.866
474.8434, 2138.922
475.3255, 2119.480
475.8076, 2089.686
476.2897, 2075.635
476.7719, 2091.830
477.2540, 2111.022
477.7361, 2114.489
478.2182, 2105.794
478.7003, 2095.566
479.1824, 2087.496
479.6646, 2079.002
480.1467, 2064.459
480.6288, 2037.900
481.1109, 2025.201
481.5930, 2038.862
482.0751, 2058.095
482.5573, 2070.495
483.0394, 2074.761
483.5215, 2072.414
484.0036, 2063.638
484.4857, 2050.002
484.9678, 2041.687
485.4500, 2033.957
485.9321, 2039.047
486.4142, 2074.225
486.8963, 2113.798
487.3784, 2131.360
487.8605, 2120.915
488.3427, 2099.649
488.8248, 2087.396
489.3069, 2084.762
489.7890, 2074.939
490.2711, 2043.552
490.7532, 2023.795
491.2354, 2046.619
491.7175, 2093.307
492.1996, 2119.002
492.6817, 2092.780
493.1638, 2052.080
493.6459, 2041.865
494.1281, 2060.337
494.6102, 2083.748
495.0923, 2107.200
495.5744, 2126.113
496.0565, 2131.100
496.5386, 2120.853
497.0208, 2107.373
497.5029, 2088.161
497.9850, 2070.194
498.4671, 2061.185
498.9492, 2061.298
499.4313, 2065.300
499.9135, 2069.226
500.3956, 2073.198
500.8777, 2079.256
501.3598, 2098.851
501.8419, 2106.643
502.3240, 2089.109
502.8062, 2061.951
503.2883, 2042.305
503.7704, 2035.349
504.2525, 2034.530
504.7346, 2033.201
505.2167, 2032.262
505.6989, 2023.578
506.1810, 1996.506
506.6631, 1973.909
507.1452, 1972.637
507.6273, 1983.482
508.1094, 1985.049
508.5916, 1963.837
509.0737, 1934.657
509.5558, 1917.366
510.0379, 1911.703
510.5200, 1909.084
511.0021, 1908.618
511.4843, 1907.402
511.9664, 1900.263
512.4485, 1886.527
512.9306, 1873.440
513.4127, 1867.833
513.8948, 1860.570
514.3770, 1836.486
514.8591, 1798.366
515.3412, 1770.193
515.8233, 1770.926
516.3054, 1794.574
516.7875, 1802.632
517.2697, 1778.212
517.7518, 1758.669
518.2339, 1747.033
518.7160, 1742.089
519.1981, 1747.537
519.6802, 1761.610
520.1624, 1770.362
520.6445, 1752.679
521.1266, 1707.403
521.6087, 1684.327
522.0908, 1696.858
522.5729, 1712.526
523.0551, 1719.648
523.5372, 1719.640
524.0193, 1713.447
524.5014, 1698.792
524.9835, 1684.127
525.4656, 1680.606
525.9478, 1685.503
526.4299, 1683.417
526.9120, 1668.639
527.3941, 1650.445
527.8762, 1639.717
528.3583, 1636.705
528.8405, 1633.958
529.3226, 1624.257
529.8047, 1620.357
530.2868, 1640.299
530.7689, 1673.520
531.2510, 1689.223
531.7332, 1670.581
532.2153, 1632.832
532.6974, 1613.606
533.1795, 1624.048
533.6616, 1633.453
534.1437, 1643.161
534.6259, 1650.115
535.1080, 1652.734
535.5901, 1650.888
536.0722, 1644.643
536.5543, 1632.920
537.0364, 1617.504
537.5186, 1602.791
538.0007, 1587.100
538.4828, 1578.635
538.9649, 1587.930
539.4470, 1601.636
539.9291, 1603.044
540.4113, 1589.258
540.8934, 1576.368
541.3755, 1572.007
541.8576, 1573.627
542.3397, 1580.268
542.8218, 1591.353
543.3040, 1597.133
543.7861, 1588.711
544.2682, 1568.395
544.7503, 1556.050
545.2324, 1557.338
545.7145, 1558.349
546.1967, 1554.618
546.6788, 1550.248
547.1609, 1552.264
547.6430, 1560.897
548.1251, 1566.521
548.6072, 1555.269
549.0894, 1526.078
549.5715, 1513.529
550.0536, 1529.829
550.5357, 1545.662
551.0178, 1550.792
551.4999, 1548.840
551.9821, 1543.310
552.4642, 1533.616
552.9463, 1526.893
553.4284, 1534.685
553.9105, 1551.991
554.3926, 1556.782
554.8748, 1542.354
555.3569, 1524.584
555.8390, 1518.370
556.3211, 1523.690
556.8032, 1526.905
557.2853, 1529.422
557.7675, 1528.041
558.2496, 1517.467
558.7317, 1502.860
559.2138, 1493.920
559.6959, 1494.008
560.1780, 1497.107
560.6602, 1493.973
561.1423, 1482.921
561.6244, 1472.503
562.1065, 1458.933
562.5886, 1450.075
563.0707, 1454.678
563.5529, 1464.947
564.0350, 1465.605
564.5171, 1447.691
564.9992, 1424.954
565.4813, 1416.814
565.9634, 1422.341
566.4456, 1425.899
566.9277, 1422.322
567.4098, 1418.827
567.8919, 1426.609
568.3740, 1443.997
568.8561, 1452.591
569.3383, 1441.507
569.8204, 1428.398
570.3025, 1426.081
570.7846, 1430.817
571.2667, 1431.543
571.7488, 1423.502
572.2310, 1413.602
572.7131, 1415.471
573.1952, 1437.419
573.6773, 1448.597
574.1594, 1437.361
574.6415, 1427.520
575.1237, 1433.839
575.6058, 1449.006
576.0879, 1455.301
576.5700, 1441.531
577.0521, 1421.942
577.5342, 1422.523
578.0164, 1443.458
578.4985, 1452.734
578.9806, 1439.057
579.4627, 1417.276
579.9448, 1397.914
580.4269, 1381.403
580.9091, 1379.057
581.3912, 1409.031
581.8733, 1439.292
582.3554, 1447.594
582.8375, 1438.417
583.3196, 1422.509
583.8018, 1403.969
584.2839, 1388.214
584.7660, 1386.291
585.2481, 1406.956
585.7302, 1416.385
