##NAMES=Bismuthinite
##RRUFFID=R070617
##IDEAL CHEMISTRY=Bi^3+^_2_S^2-^_3_
##LOCALITY=Hachita, Grants County, New Mexico, USA
##OWNER=RRUFF
##SOURCE=James Shigley
##DESCRIPTION=Steel-gray metallic massive lamellar, associated with quartz.
##STATUS=The identification of this mineral has been confirmed only by single crystal X-ray diffraction.
##URL=rruff.info/R070617
133.1569, 11421.36
133.6390, 11437.20
134.1211, 11486.05
134.6032, 11540.10
135.0853, 11583.66
135.5674, 11615.95
136.0496, 11629.19
136.5317, 11604.38
137.0138, 11581.90
137.4959, 11583.53
137.9780, 11608.05
138.4601, 11638.46
138.9423, 11662.65
139.4244, 11680.02
139.9065, 11692.58
140.3886, 11701.84
140.8707, 11705.69
141.3528, 11698.17
141.8350, 11625.36
142.3171, 11695.22
142.7992, 11737.59
143.2813, 11753.96
143.7634, 11666.46
144.2455, 11713.09
144.7277, 11705.96
145.2098, 11696.63
145.6919, 11762.15
146.1740, 11689.75
146.6561, 11754.07
147.1382, 11763.82
147.6204, 11798.55
148.1025, 11779.18
148.5846, 11776.52
149.0667, 11827.97
149.5488, 11849.47
150.0309, 11823.88
150.5130, 11860.19
150.9952, 11785.90
151.4773, 11808.67
151.9594, 11873.31
152.4415, 11850.44
152.9236, 11887.74
153.4057, 11902.13
153.8879, 11812.37
154.3700, 11903.73
154.8521, 11865.74
155.3342, 11842.33
155.8163, 11828.27
156.2984, 11826.87
156.7806, 11832.70
157.2627, 11859.88
157.7448, 11891.15
158.2269, 11900.96
158.7090, 11872.35
159.1911, 11809.93
159.6733, 11766.46
160.1554, 11750.29
160.6375, 11741.23
161.1196, 11734.65
161.6017, 11730.34
162.0838, 11728.86
162.5660, 11730.02
163.0481, 11734.34
163.5302, 11747.62
164.0123, 11786.45
164.4944, 11820.87
164.9765, 11829.15
165.4587, 11810.37
165.9408, 11779.73
166.4229, 11744.38
166.9050, 11705.28
167.3871, 11688.13
167.8692, 11717.28
168.3514, 11761.49
168.8335, 11782.53
169.3156, 11773.29
169.7977, 11748.06
170.2798, 11713.04
170.7619, 11670.58
171.2441, 11637.63
171.7262, 11619.22
172.2083, 11615.17
172.6904, 11631.78
173.1725, 11694.52
173.6546, 11741.73
174.1368, 11705.27
174.6189, 11592.41
175.1010, 11494.81
175.5831, 11494.62
176.0652, 11588.44
176.5473, 11649.50
177.0295, 11631.18
177.5116, 11591.72
177.9937, 11561.70
178.4758, 11545.05
178.9579, 11540.89
179.4400, 11556.92
179.9222, 11604.51
180.4043, 11623.67
180.8864, 11576.55
181.3685, 11517.44
181.8506, 11479.62
182.3327, 11472.11
182.8149, 11479.67
183.2970, 11475.89
183.7791, 11450.50
184.2612, 11434.40
184.7433, 11437.55
185.2254, 11446.23
185.7076, 11448.47
186.1897, 11439.43
186.6718, 11423.41
187.1539, 11411.23
187.6360, 11402.19
188.1181, 11399.04
188.6003, 11411.01
189.0824, 11426.00
189.5645, 11424.88
190.0466, 11396.46
190.5287, 11352.25
191.0108, 11346.71
191.4930, 11442.80
191.9751, 11507.73
192.4572, 11495.99
192.9393, 11438.23
193.4214, 11386.78
193.9035, 11371.75
194.3857, 11390.89
194.8678, 11425.20
195.3499, 11496.02
195.8320, 11556.69
196.3141, 11589.60
196.7962, 11597.96
197.2784, 11591.54
197.7605, 11572.49
198.2426, 11543.49
198.7247, 11533.58
199.2068, 11544.49
199.6889, 11570.46
200.1711, 11615.72
200.6532, 11677.85
201.1353, 11738.55
201.6174, 11785.83
202.0995, 11818.78
202.5816, 11845.07
203.0638, 11859.15
203.5459, 11870.29
204.0280, 11881.92
204.5101, 11893.72
204.9922, 11919.33
205.4743, 11985.08
205.9565, 12076.93
206.4386, 12142.38
206.9207, 12154.32
207.4028, 12140.80
207.8849, 12136.93
208.3671, 12144.62
208.8492, 12161.44
209.3313, 12183.66
209.8134, 12212.60
210.2955, 12255.51
210.7776, 12329.22
211.2598, 12417.12
211.7419, 12480.15
212.2240, 12506.38
212.7061, 12527.99
213.1882, 12567.50
213.6703, 12619.71
214.1525, 12672.73
214.6346, 12714.26
215.1167, 12749.86
215.5988, 12806.42
216.0809, 12909.55
216.5630, 12997.72
217.0452, 13033.91
217.5273, 13029.22
218.0094, 13015.70
218.4915, 13003.79
218.9736, 12995.63
219.4557, 13021.04
219.9379, 13111.63
220.4200, 13204.50
220.9021, 13278.01
221.3842, 13330.49
221.8663, 13362.57
222.3484, 13366.48
222.8306, 13340.35
223.3127, 13328.13
223.7948, 13320.01
224.2769, 13337.54
224.7590, 13409.62
225.2411, 13521.59
225.7233, 13625.80
226.2054, 13668.79
226.6875, 13636.68
227.1696, 13638.84
227.6517, 13732.57
228.1338, 13812.87
228.6160, 13824.06
229.0981, 13775.11
229.5802, 13717.93
230.0623, 13710.89
230.5444, 13772.42
231.0265, 13799.95
231.5087, 13755.30
231.9908, 13711.50
232.4729, 13704.10
232.9550, 13733.03
233.4371, 13776.16
233.9192, 13812.40
234.4014, 13846.36
234.8835, 13854.54
235.3656, 13821.01
235.8477, 13779.70
236.3298, 13745.40
236.8119, 13720.95
237.2941, 13704.00
237.7762, 13693.65
238.2583, 13695.93
238.7404, 13683.84
239.2225, 13648.20
239.7046, 13608.29
240.1868, 13572.74
240.6689, 13543.75
241.1510, 13522.61
241.6331, 13512.92
242.1152, 13525.37
242.5973, 13513.25
243.0795, 13474.51
243.5616, 13417.13
244.0437, 13331.81
244.5258, 13224.16
245.0079, 13124.45
245.4900, 13070.42
245.9722, 13083.23
246.4543, 13076.70
246.9364, 13053.16
247.4185, 13010.98
247.9006, 12944.91
248.3827, 12856.04
248.8649, 12755.26
249.3470, 12654.48
249.8291, 12554.70
250.3112, 12450.38
250.7933, 12336.90
251.2754, 12222.43
251.7576, 12113.19
252.2397, 12010.32
252.7218, 11907.52
253.2039, 11797.93
253.6860, 11677.74
254.1681, 11569.59
254.6503, 11484.10
255.1324, 11403.84
255.6145, 11317.30
256.0966, 11222.62
256.5787, 11119.91
257.0608, 11005.61
257.5429, 10874.61
258.0251, 10766.35
258.5072, 10721.64
258.9893, 10673.81
259.4714, 10551.05
259.9535, 10349.74
260.4356, 10149.24
260.9178, 10034.06
261.3999, 10021.91
261.8820, 9967.467
262.3641, 9841.503
262.8462, 9691.136
263.3283, 9538.722
263.8105, 9389.680
264.2926, 9273.911
264.7747, 9232.323
265.2568, 9271.395
265.7389, 9267.574
266.2210, 9196.759
266.7032, 9096.683
267.1853, 8987.566
267.6674, 8872.973
268.1495, 8769.958
268.6316, 8695.336
269.1137, 8649.548
269.5959, 8603.153
270.0780, 8560.468
270.5601, 8513.409
271.0422, 8449.688
271.5243, 8369.795
272.0064, 8297.095
272.4886, 8253.636
272.9707, 8236.053
273.4528, 8200.224
273.9349, 8128.154
274.4170, 8050.641
274.8991, 7992.953
275.3813, 7954.480
275.8634, 7915.160
276.3455, 7862.377
276.8276, 7796.165
277.3097, 7728.767
277.7918, 7646.866
278.2740, 7574.115
278.7561, 7535.435
279.2382, 7526.438
279.7203, 7511.990
280.2024, 7469.792
280.6845, 7404.268
281.1667, 7341.425
281.6488, 7267.028
282.1309, 7207.567
282.6130, 7192.498
283.0951, 7213.595
283.5772, 7223.980
284.0594, 7197.429
284.5415, 7142.336
285.0236, 7089.736
285.5057, 7036.725
285.9878, 6989.700
286.4699, 6954.602
286.9521, 6929.291
287.4342, 6907.307
287.9163, 6889.002
288.3984, 6868.648
288.8805, 6831.997
289.3626, 6768.249
289.8448, 6709.229
290.3269, 6673.448
290.8090, 6654.967
291.2911, 6636.237
291.7732, 6610.927
292.2553, 6581.126
292.7375, 6550.222
293.2196, 6515.574
293.7017, 6485.784
294.1838, 6469.889
294.6659, 6461.318
295.1480, 6444.122
295.6302, 6411.692
296.1123, 6371.688
296.5944, 6337.035
297.0765, 6307.349
297.5586, 6281.118
298.0407, 6258.834
298.5229, 6239.485
299.0050, 6220.734
299.4871, 6201.401
299.9692, 6184.430
300.4513, 6175.554
300.9334, 6175.379
301.4156, 6173.864
301.8977, 6173.013
302.3798, 6168.003
302.8619, 6151.419
303.3440, 6121.390
303.8261, 6083.425
304.3083, 6037.625
304.7904, 5982.647
305.2725, 5946.824
305.7546, 5949.741
306.2367, 5965.131
306.7188, 5966.831
307.2010, 5951.480
307.6831, 5928.136
308.1652, 5901.643
308.6473, 5872.245
309.1294, 5854.403
309.6115, 5868.791
310.0937, 5880.789
310.5758, 5852.492
311.0579, 5786.621
311.5400, 5729.813
312.0221, 5721.667
312.5042, 5759.491
312.9864, 5774.993
313.4685, 5750.547
313.9506, 5720.502
314.4327, 5705.748
314.9148, 5703.465
315.3969, 5698.345
315.8791, 5680.273
316.3612, 5651.753
316.8433, 5628.159
317.3254, 5602.783
317.8075, 5588.159
318.2896, 5602.593
318.7718, 5631.871
319.2539, 5639.676
319.7360, 5604.733
320.2181, 5543.174
320.7002, 5509.884
321.1823, 5524.241
321.6645, 5535.323
322.1466, 5534.360
322.6287, 5523.305
323.1108, 5502.847
323.5929, 5472.573
324.0750, 5438.062
324.5572, 5409.964
325.0393, 5388.408
325.5214, 5373.625
326.0035, 5372.836
326.4856, 5375.592
326.9677, 5369.501
327.4499, 5351.759
327.9320, 5331.362
328.4141, 5321.164
328.8962, 5328.689
329.3783, 5327.669
329.8604, 5305.442
330.3426, 5284.055
330.8247, 5285.694
331.3068, 5309.276
331.7889, 5329.826
332.2710, 5318.939
332.7531, 5266.606
333.2353, 5240.313
333.7174, 5267.720
334.1995, 5290.787
334.6816, 5275.576
335.1637, 5229.631
335.6458, 5181.207
336.1280, 5150.714
336.6101, 5138.096
337.0922, 5142.038
337.5743, 5181.207
338.0564, 5216.038
338.5385, 5234.857
339.0207, 5242.546
339.5028, 5251.768
339.9849, 5271.423
340.4670, 5292.986
340.9491, 5278.905
341.4312, 5186.007
341.9134, 5110.253
342.3955, 5060.174
342.8776, 5032.891
343.3597, 5030.561
343.8418, 5053.524
344.3239, 5087.288
344.8061, 5101.480
345.2882, 5081.773
345.7703, 5069.745
346.2524, 5067.440
346.7345, 5072.927
347.2166, 5092.756
347.6988, 5124.715
348.1809, 5149.637
348.6630, 5138.783
349.1451, 5080.668
349.6272, 5032.333
350.1093, 4983.097
350.5915, 4953.795
351.0736, 4967.323
351.5557, 5014.579
352.0378, 5060.841
352.5199, 5073.474
353.0020, 5053.708
353.4842, 5044.416
353.9663, 5062.007
354.4484, 5069.771
354.9305, 5043.504
355.4126, 4998.049
355.8947, 4963.128
356.3769, 4958.438
356.8590, 4974.036
357.3411, 4983.135
357.8232, 4986.526
358.3053, 4981.124
358.7874, 4949.120
359.2696, 4914.217
359.7517, 4908.199
360.2338, 4948.616
360.7159, 5002.449
361.1980, 5025.173
361.6801, 5014.177
362.1623, 4995.650
362.6444, 4967.542
363.1265, 4942.662
363.6086, 4939.864
364.0907, 4965.092
364.5728, 4981.521
365.0550, 4946.051
365.5371, 4871.614
366.0192, 4830.914
366.5013, 4850.597
366.9834, 4892.960
367.4655, 4924.688
367.9477, 4946.257
368.4298, 4953.084
368.9119, 4933.574
369.3940, 4900.726
369.8761, 4875.524
370.3582, 4860.286
370.8404, 4852.282
371.3225, 4849.021
371.8046, 4851.128
372.2867, 4862.086
372.7688, 4895.707
373.2509, 4928.490
373.7331, 4940.074
374.2152, 4931.595
374.6973, 4916.951
375.1794, 4904.010
375.6615, 4891.088
376.1436, 4871.413
376.6258, 4829.290
377.1079, 4798.761
377.5900, 4802.231
378.0721, 4824.900
378.5542, 4836.603
379.0363, 4824.376
379.5185, 4801.010
380.0006, 4793.759
380.4827, 4816.470
380.9648, 4829.580
381.4469, 4822.137
381.9290, 4808.685
382.4112, 4803.483
382.8933, 4808.958
383.3754, 4818.442
383.8575, 4825.821
384.3396, 4834.807
384.8217, 4823.771
385.3039, 4773.193
385.7860, 4724.234
386.2681, 4694.164
386.7502, 4682.994
387.2323, 4686.242
387.7144, 4702.460
388.1966, 4729.800
388.6787, 4747.813
389.1608, 4748.602
389.6429, 4748.306
390.1250, 4742.369
390.6071, 4739.290
391.0893, 4753.987
391.5714, 4793.652
392.0535, 4840.562
392.5356, 4856.277
393.0177, 4826.302
393.4998, 4799.899
393.9820, 4782.959
394.4641, 4772.114
394.9462, 4767.570
395.4283, 4768.481
395.9104, 4769.476
396.3925, 4766.920
396.8747, 4760.871
397.3568, 4744.857
397.8389, 4702.060
398.3210, 4669.596
398.8031, 4673.579
399.2852, 4704.610
399.7674, 4735.163
400.2495, 4751.976
400.7316, 4758.260
401.2137, 4763.147
401.6958, 4769.435
402.1779, 4763.063
402.6601, 4719.544
403.1422, 4663.037
403.6243, 4632.138
404.1064, 4643.414
404.5885, 4664.787
405.0706, 4670.058
405.5528, 4661.959
406.0349, 4655.553
406.5170, 4656.852
406.9991, 4661.284
407.4812, 4659.099
407.9633, 4646.918
408.4455, 4644.351
408.9276, 4667.283
409.4097, 4699.508
409.8918, 4718.158
410.3739, 4719.100
410.8560, 4713.520
411.3382, 4712.657
411.8203, 4717.542
412.3024, 4716.082
412.7845, 4691.743
413.2666, 4676.232
413.7487, 4698.057
414.2309, 4745.494
414.7130, 4783.808
415.1951, 4792.245
415.6772, 4774.090
416.1593, 4744.426
416.6414, 4675.527
417.1236, 4628.675
417.6057, 4620.983
418.0878, 4633.131
418.5699, 4646.408
419.0520, 4654.532
419.5341, 4660.003
420.0163, 4666.588
420.4984, 4674.917
420.9805, 4682.574
421.4626, 4696.343
421.9447, 4703.562
422.4268, 4689.364
422.9090, 4660.851
423.3911, 4642.751
423.8732, 4661.563
424.3553, 4707.598
424.8374, 4715.271
425.3195, 4649.848
425.8017, 4605.550
426.2838, 4635.675
426.7659, 4698.728
427.2480, 4742.427
427.7301, 4746.901
428.2122, 4731.825
428.6944, 4716.829
429.1765, 4701.751
429.6586, 4694.694
430.1407, 4700.927
430.6228, 4713.896
431.1049, 4729.383
431.5871, 4748.188
432.0692, 4755.501
432.5513, 4735.818
433.0334, 4702.075
433.5155, 4679.520
433.9977, 4672.825
434.4798, 4665.667
434.9619, 4640.738
435.4440, 4600.280
435.9261, 4574.543
436.4082, 4567.294
436.8904, 4572.439
437.3725, 4598.503
437.8546, 4635.423
438.3367, 4652.847
438.8188, 4633.313
439.3009, 4592.235
439.7831, 4571.534
440.2652, 4593.330
440.7473, 4604.468
441.2294, 4596.502
441.7115, 4580.360
442.1936, 4562.317
442.6758, 4545.278
443.1579, 4534.183
443.6400, 4534.618
444.1221, 4547.231
444.6042, 4566.851
445.0863, 4616.734
445.5685, 4649.886
446.0506, 4643.674
446.5327, 4610.327
447.0148, 4571.455
447.4969, 4536.799
447.9790, 4508.254
448.4612, 4490.387
448.9433, 4484.376
449.4254, 4486.102
449.9075, 4508.327
450.3896, 4529.268
450.8717, 4526.282
451.3539, 4496.135
451.8360, 4470.616
452.3181, 4480.542
452.8002, 4518.377
453.2823, 4550.648
453.7644, 4576.438
454.2466, 4590.500
454.7287, 4581.864
455.2108, 4556.984
455.6929, 4533.329
456.1750, 4519.150
456.6571, 4504.255
457.1393, 4470.217
457.6214, 4422.933
458.1035, 4399.247
458.5856, 4422.517
459.0677, 4473.089
459.5498, 4496.733
460.0319, 4474.854
460.5140, 4465.860
460.9962, 4491.062
461.4783, 4528.070
461.9604, 4558.624
462.4425, 4577.266
462.9246, 4577.285
463.4067, 4546.782
463.8889, 4478.406
464.3710, 4444.729
464.8531, 4480.314
465.3352, 4511.690
465.8173, 4510.039
466.2994, 4489.340
466.7816, 4476.897
467.2637, 4487.465
467.7458, 4506.896
468.2279, 4498.987
468.7100, 4447.201
469.1921, 4415.237
469.6743, 4440.596
470.1564, 4470.002
470.6385, 4465.607
471.1206, 4426.860
471.6027, 4386.210
472.0848, 4368.553
472.5670, 4368.639
473.0491, 4368.784
473.5312, 4369.482
474.0133, 4366.367
474.4954, 4349.743
474.9775, 4328.021
475.4597, 4319.320
475.9418, 4332.252
476.4239, 4351.245
476.9060, 4366.907
477.3881, 4380.127
477.8702, 4396.594
478.3524, 4420.796
478.8345, 4439.233
479.3166, 4425.967
479.7987, 4362.493
480.2808, 4327.350
480.7629, 4349.563
481.2451, 4381.787
481.7272, 4389.205
482.2093, 4373.626
482.6914, 4355.933
483.1735, 4350.609
483.6556, 4356.575
484.1378, 4367.310
484.6199, 4395.678
485.1020, 4359.917
485.5841, 4420.370
486.0662, 4453.344
486.5483, 4460.315
487.0305, 4363.404
487.5126, 4400.635
487.9947, 4384.109
488.4768, 4365.378
488.9589, 4421.490
489.4410, 4339.688
489.9232, 4394.612
490.4053, 4394.958
490.8874, 4420.284
491.3695, 4391.519
491.8516, 4379.461
492.3337, 4421.510
492.8159, 4433.600
493.2980, 4398.608
493.7801, 4425.521
494.2622, 4341.831
494.7443, 4355.196
495.2264, 4410.438
495.7086, 4378.166
496.1907, 4406.067
496.6728, 4411.052
497.1549, 4311.886
497.6370, 4393.848
498.1191, 4397.479
498.6013, 4320.678
499.0834, 4396.434
499.5655, 4330.723
500.0476, 4315.506
500.5297, 4338.291
501.0118, 4321.461
501.4940, 4367.088
501.9761, 4352.545
502.4582, 4332.627
502.9403, 4336.169
503.4224, 4273.232
503.9045, 4333.628
504.3867, 4309.776
504.8688, 4327.803
505.3509, 4355.321
505.8330, 4310.159
506.3151, 4341.942
506.7972, 4254.400
507.2794, 4266.702
507.7615, 4268.252
508.2436, 4333.621
508.7257, 4246.661
509.2078, 4256.189
509.6899, 4306.800
510.1721, 4299.926
510.6542, 4317.086
511.1363, 4263.095
511.6184, 4275.945
512.1005, 4270.372
512.5826, 4328.465
513.0648, 4336.295
513.5469, 4302.879
514.0290, 4319.992
514.5111, 4269.517
514.9932, 4329.438
515.4753, 4361.879
515.9575, 4368.318
516.4396, 4270.875
516.9217, 4307.575
517.4038, 4290.516
517.8859, 4271.252
518.3680, 4326.832
518.8502, 4244.498
519.3323, 4298.891
519.8144, 4298.705
520.2965, 4323.498
520.7786, 4294.201
521.2607, 4281.610
521.7429, 4323.127
522.2250, 4334.685
522.7071, 4299.161
523.1892, 4325.542
523.6713, 4241.319
524.1534, 4254.153
524.6356, 4308.861
525.1177, 4276.058
525.5998, 4303.427
526.0819, 4307.880
526.5640, 4208.181
527.0461, 4289.612
527.5283, 4292.709
528.0104, 4215.377
528.4925, 4290.601
528.9746, 4224.357
529.4567, 4208.609
529.9388, 4230.862
530.4210, 4213.499
530.9031, 4258.594
531.3852, 4243.520
531.8673, 4223.069
532.3494, 4226.079
532.8315, 4162.610
533.3137, 4222.473
533.7958, 4198.090
534.2779, 4215.584
534.7600, 4242.570
535.2421, 4196.875
535.7242, 4228.127
536.2064, 4140.053
536.6885, 4151.823
537.1706, 4152.841
537.6527, 4217.677
538.1348, 4130.186
538.6169, 4139.182
539.0991, 4189.259
539.5812, 4181.854
540.0633, 4198.482
540.5454, 4143.959
541.0275, 4156.277
541.5096, 4150.172
541.9918, 4207.732
542.4739, 4215.031
542.9560, 4161.715
543.4381, 4108.655
543.9202, 4170.797
544.4023, 4123.750
544.8845, 4135.609
545.3666, 4086.631
545.8487, 4090.181
546.3308, 4092.898
546.8129, 4122.543
547.2950, 4070.537
547.7772, 4124.445
548.2593, 4117.137
548.7414, 4127.862
549.2235, 4136.581
549.7056, 4063.153
550.1877, 4057.066
550.6699, 4147.335
551.1520, 4090.656
551.6341, 4063.635
552.1162, 4057.699
552.5983, 4151.270
553.0804, 4152.350
553.5626, 4042.875
554.0447, 4132.061
554.5268, 4099.027
555.0089, 4102.313
555.4910, 4092.348
555.9731, 4086.306
556.4553, 4030.369
556.9374, 4040.184
557.4195, 4103.459
557.9016, 4075.591
558.3837, 4109.655
558.8658, 4030.851
559.3480, 4019.042
559.8301, 4025.019
560.3122, 4037.480
560.7943, 3998.119
561.2764, 4062.396
561.7585, 4057.667
562.2407, 3993.141
562.7228, 3993.483
563.2049, 3983.054
563.6870, 4084.752
564.1691, 4032.290
564.6512, 3968.911
565.1334, 4027.742
565.6155, 4047.404
566.0976, 4014.108
566.5797, 4008.952
567.0618, 3950.409
567.5439, 3973.738
568.0261, 3968.907
568.5082, 4010.471
568.9903, 3952.144
569.4724, 4008.812
569.9545, 3953.163
570.4366, 4014.487
570.9188, 3956.463
571.4009, 4004.755
571.8830, 3926.145
572.3651, 3939.386
572.8472, 3960.951
573.3293, 3968.583
573.8115, 3975.719
574.2936, 3961.904
574.7757, 3939.881
575.2578, 3940.400
575.7399, 3984.770
576.2220, 4041.291
576.7042, 4059.030
577.1863, 4037.715
577.6684, 4012.784
578.1505, 3990.606
578.6326, 3970.163
579.1147, 3941.874
579.5969, 3908.198
580.0790, 3904.637
580.5611, 3977.620
581.0432, 4046.833
581.5253, 4040.264
582.0074, 3985.635
582.4896, 3960.883
582.9717, 3999.448
583.4538, 4063.755
583.9359, 4086.719
584.4180, 4048.141
584.9001, 4025.391
585.3823, 4032.391
585.8644, 4040.240
586.3465, 4036.732
586.8286, 4025.099
587.3107, 4012.860
587.7928, 4002.831
588.2750, 3995.639
588.7571, 3992.015
589.2392, 3991.962
589.7213, 3996.332
590.2034, 4006.890
590.6855, 4019.134
591.1677, 4033.854
591.6498, 4049.262
592.1319, 4046.331
592.6140, 3993.109
593.0961, 3949.851
593.5782, 3962.466
594.0604, 4009.010
594.5425, 4048.787
595.0246, 4066.984
595.5067, 4065.029
595.9888, 4040.828
596.4709, 3985.979
596.9531, 3949.244
597.4352, 3930.720
597.9173, 3932.138
598.3994, 3972.944
598.8815, 4028.817
599.3636, 4062.021
599.8458, 4056.604
600.3279, 4038.453
600.8100, 4035.470
601.2921, 4043.936
601.7742, 4042.606
602.2563, 4024.330
602.7385, 4011.511
603.2206, 4030.928
603.7027, 4076.604
604.1848, 4090.445
604.6669, 4043.082
605.1490, 3998.722
605.6312, 3978.606
606.1133, 3974.577
606.5954, 3980.120
607.0775, 3991.672
607.5596, 3999.964
608.0417, 3991.506
608.5239, 3967.093
609.0060, 3968.418
609.4881, 4022.210
609.9702, 4056.947
610.4523, 4032.859
610.9344, 3988.082
611.4166, 3964.142
611.8987, 3969.405
612.3808, 3977.720
612.8629, 3970.513
613.3450, 3955.332
613.8271, 3942.331
614.3093, 3932.832
614.7914, 3938.043
615.2735, 3970.118
615.7556, 4018.183
616.2377, 4043.143
616.7198, 4041.031
617.2020, 4020.858
617.6841, 3951.550
618.1662, 3888.319
618.6483, 3886.552
619.1304, 3933.957
619.6125, 3969.536
620.0947, 3944.591
620.5768, 3888.601
621.0589, 3886.329
621.5410, 3948.986
622.0231, 3999.213
622.5052, 4014.323
622.9874, 4011.819
623.4695, 4009.300
623.9516, 4006.619
624.4337, 4000.489
624.9158, 3983.129
625.3979, 3967.991
625.8801, 3967.607
626.3622, 3978.011
626.8443, 3990.259
627.3264, 4000.935
627.8085, 4005.829
628.2906, 3995.460
628.7728, 3961.725
629.2549, 3945.596
629.7370, 3964.108
630.2191, 3983.380
630.7012, 3997.167
