##NAMES=Bismutite
##RRUFFID=R060665
##IDEAL CHEMISTRY=Bi_2_O_2_(CO_3_)
##LOCALITY=Ecuador, Rio Grande do Norte, Brazil
##OWNER=RRUFF
##SOURCE=Michael Scott
##DESCRIPTION=Green massive, platy
##STATUS=The identification of this mineral has been confirmed by X-ray diffraction and chemical analysis
##URL=rruff.info/R060665
##MEASURED CHEMISTRY=(Bi_1.99_Sb_0.01_)O_2_(CO_3_) ; is the lighter phase. The darker phase is: (Bi_1.98_Sb_0.02_)O_2_(CO_3_) ; C not measured but estimated by difference and stoichiometry
108.988, 8099.006
109.470, 8907.233
109.952, 9751.707
110.434, 10636.200
110.916, 11536.680
111.399, 12463.860
111.881, 13405.080
112.363, 14347.130
112.845, 15262.520
113.327, 16209.340
113.809, 17204.170
114.291, 18242.789
114.773, 19326.961
115.256, 20450.570
115.738, 21616.641
116.220, 22812.461
116.702, 24056.330
117.184, 25307.850
117.666, 26582.670
118.148, 27875.930
118.630, 29132.250
119.113, 30309.170
119.595, 31425.410
120.077, 32498.760
120.559, 33549.051
121.041, 34546.078
121.523, 35476.109
122.005, 36328.051
122.487, 37126.922
122.969, 37877.461
123.451, 38583.488
123.934, 39246.410
124.416, 39837.898
124.898, 40394.711
125.380, 40971.539
125.862, 41591.289
126.344, 42216.738
126.826, 42795.730
127.308, 43329.121
127.790, 43867.660
128.273, 44421.629
128.755, 45003.730
129.237, 45643.000
129.719, 46347.859
130.201, 47115.281
130.683, 47939.000
131.165, 48823.000
131.648, 49762.961
132.130, 50755.309
132.612, 51803.070
133.094, 52899.590
133.576, 54042.039
134.058, 55234.801
134.540, 56469.270
135.022, 57752.020
135.504, 59080.230
135.986, 60430.719
136.469, 61793.789
136.951, 63200.469
137.433, 64690.469
137.915, 66263.828
138.397, 67791.281
138.879, 69250.039
139.361, 70671.023
139.843, 72154.250
140.326, 73713.289
140.808, 75337.906
141.290, 77063.969
141.772, 78921.773
142.254, 80748.820
142.736, 82472.617
143.218, 84125.648
143.700, 85928.773
144.182, 87928.117
144.665, 90025.906
145.147, 92093.211
145.629, 94076.703
146.111, 96142.883
146.593, 98329.891
147.075, 100679.203
147.557, 103002.297
148.039, 105246.398
148.521, 107468.703
149.004, 109780.500
149.486, 112273.898
149.968, 114729.797
150.450, 117122.602
150.932, 119442.797
151.414, 121686.398
151.896, 123874.898
152.378, 125994.500
152.861, 128005.398
153.343, 129909.000
153.825, 131741.406
154.307, 133519.906
154.789, 135318.797
155.271, 137014.000
155.753, 138605.406
156.235, 140083.703
156.717, 141455.000
157.200, 142711.094
157.682, 143880.297
158.164, 144982.000
158.646, 146096.703
159.128, 147057.703
159.610, 147824.094
160.092, 148388.906
160.574, 148750.406
161.057, 148868.203
161.539, 148781.203
162.021, 148525.906
162.503, 148151.500
162.985, 147566.094
163.467, 146720.703
163.949, 145616.703
164.431, 144283.203
164.913, 142681.500
165.396, 140872.906
165.878, 138941.500
166.360, 136953.500
166.842, 134843.906
167.324, 132549.297
167.806, 130036.703
168.288, 127466.297
168.770, 124890.203
169.253, 122315.602
169.735, 119742.000
170.217, 117184.102
170.699, 114650.203
171.181, 112154.398
171.663, 109682.297
172.145, 107275.703
172.627, 104906.703
173.109, 102608.703
173.592, 100417.602
174.074, 98374.930
174.556, 96443.023
175.038, 94597.602
175.520, 92819.867
176.002, 91108.133
176.484, 89473.789
176.966, 87923.008
177.449, 86452.383
177.931, 85063.477
178.413, 83762.258
178.895, 82534.758
179.377, 81400.070
179.859, 80318.727
180.341, 79210.773
180.823, 78067.242
181.305, 76971.617
181.788, 75994.477
182.270, 75122.367
182.752, 74276.367
183.234, 73433.562
183.716, 72600.258
184.198, 71818.508
184.680, 71091.344
185.162, 70387.828
185.645, 69654.977
186.127, 68906.789
186.609, 68185.703
187.091, 67528.297
187.573, 66916.406
188.055, 66311.273
188.537, 65705.508
189.019, 65103.859
189.501, 64495.879
189.984, 63877.852
190.466, 63276.680
190.948, 62720.020
191.430, 62195.891
191.912, 61643.719
192.394, 61049.641
192.876, 60450.910
193.358, 59919.039
193.840, 59459.012
194.323, 59012.910
194.805, 58557.238
195.287, 58092.570
195.769, 57621.020
196.251, 57136.160
196.733, 56644.641
197.215, 56154.719
197.697, 55658.891
198.180, 55200.770
198.662, 54843.781
199.144, 54594.520
199.626, 54262.770
200.108, 53806.422
200.590, 53258.309
201.072, 52724.750
201.554, 52192.488
202.036, 51708.711
202.519, 51325.328
203.001, 51054.852
203.483, 50780.328
203.965, 50478.398
204.447, 50152.750
204.929, 49849.879
205.411, 49583.031
205.893, 49296.000
206.376, 48921.281
206.858, 48432.629
207.340, 47977.391
207.822, 47598.641
208.304, 47289.160
208.786, 46936.980
209.268, 46532.691
209.750, 46113.480
210.232, 45714.891
210.714, 45341.309
211.197, 44995.648
211.679, 44690.289
212.161, 44427.539
212.643, 44136.469
213.125, 43806.461
213.607, 43468.922
214.089, 43160.340
214.572, 42891.488
215.054, 42620.328
215.536, 42330.789
216.018, 42015.141
216.500, 41734.391
216.982, 41504.941
217.464, 41293.961
217.946, 41048.359
218.428, 40751.000
218.911, 40458.441
219.393, 40188.129
219.875, 39946.031
220.357, 39706.141
220.839, 39466.801
221.321, 39232.219
221.803, 38999.680
222.285, 38772.461
222.767, 38547.781
223.250, 38328.730
223.732, 38116.262
224.214, 37904.488
224.696, 37692.641
225.178, 37483.012
225.660, 37272.391
226.142, 37073.699
226.624, 36854.840
227.107, 36592.699
227.589, 36237.070
228.071, 35972.570
228.553, 35841.441
229.035, 35783.969
229.517, 35655.039
229.999, 35418.852
230.481, 35161.109
230.963, 34915.941
231.445, 34678.871
231.928, 34458.852
232.410, 34260.051
232.892, 34076.230
233.374, 33899.691
233.856, 33732.629
234.338, 33569.102
234.820, 33406.441
235.303, 33252.871
235.785, 33084.730
236.267, 32894.262
236.749, 32689.221
237.231, 32502.609
237.713, 32350.801
238.195, 32198.619
238.677, 32027.381
239.159, 31824.449
239.641, 31630.221
240.124, 31442.051
240.606, 31263.100
241.088, 31103.760
241.570, 30978.529
242.052, 30856.180
242.534, 30717.250
243.016, 30543.170
243.498, 30389.850
243.981, 30259.510
244.463, 30151.131
244.945, 30065.381
245.427, 30020.131
245.909, 29971.830
246.391, 29894.070
246.873, 29776.980
247.355, 29646.359
247.837, 29492.000
248.320, 29322.490
248.802, 29186.359
249.284, 29104.990
249.766, 29030.529
250.248, 28934.881
250.730, 28814.180
251.212, 28683.070
251.694, 28537.020
252.176, 28382.961
252.659, 28246.510
253.141, 28134.600
253.623, 28033.590
254.105, 27932.529
254.587, 27826.930
255.069, 27738.830
255.551, 27681.020
256.033, 27644.930
256.516, 27577.170
256.998, 27458.461
257.480, 27335.010
257.962, 27234.250
258.444, 27152.211
258.926, 27100.910
259.408, 27093.789
259.890, 27118.859
260.372, 27105.631
260.855, 27024.711
261.337, 26951.131
261.819, 26948.490
262.301, 27060.609
262.783, 27110.461
263.265, 27062.289
263.747, 26936.539
264.229, 26834.619
264.711, 26770.189
265.194, 26705.461
265.676, 26606.400
266.158, 26454.830
266.640, 26343.939
267.122, 26300.260
267.604, 26304.779
268.086, 26268.230
268.569, 26172.430
269.051, 26076.029
269.533, 26025.740
270.015, 26036.391
270.497, 26028.221
270.979, 25989.051
271.461, 25926.061
271.943, 25869.250
272.425, 25822.881
272.908, 25772.631
273.390, 25699.340
273.872, 25594.699
274.354, 25529.199
274.836, 25520.369
275.318, 25550.961
275.800, 25564.561
276.282, 25559.410
276.764, 25542.250
277.247, 25521.270
277.729, 25498.270
278.211, 25441.010
278.693, 25328.779
279.175, 25191.939
279.657, 25121.910
280.139, 25127.090
280.621, 25152.020
281.103, 25165.930
281.586, 25168.600
282.068, 25157.801
282.550, 25130.699
283.032, 25092.650
283.514, 25057.170
283.996, 25025.100
284.478, 24988.820
284.960, 24943.680
285.443, 24889.900
285.925, 24828.840
286.407, 24757.260
286.889, 24685.131
287.371, 24635.439
287.853, 24608.650
288.335, 24584.529
288.817, 24545.480
289.299, 24495.930
289.782, 24465.580
290.264, 24462.471
290.746, 24468.740
291.228, 24454.631
291.710, 24421.051
292.192, 24383.939
292.674, 24351.289
293.156, 24322.529
293.638, 24300.500
294.121, 24290.330
294.603, 24273.461
295.085, 24210.580
295.567, 24110.750
296.049, 24026.410
296.531, 24005.600
297.013, 24021.301
297.496, 24007.090
297.978, 23954.461
298.460, 23893.070
298.942, 23853.109
299.424, 23832.891
299.906, 23826.801
300.388, 23832.439
300.870, 23849.779
301.352, 23885.311
301.835, 23942.109
302.317, 23991.680
302.799, 23998.609
303.281, 23975.230
303.763, 23952.910
304.245, 23943.260
304.727, 23942.590
305.209, 23949.520
305.691, 23964.211
306.174, 23976.961
306.656, 23981.039
307.138, 23977.961
307.620, 23970.721
308.102, 23957.590
308.584, 23943.689
309.066, 23939.920
309.548, 23947.070
310.030, 23940.510
310.513, 23881.990
310.995, 23806.490
311.477, 23759.980
311.959, 23786.631
312.441, 23826.461
312.923, 23843.971
313.405, 23839.590
313.887, 23828.119
314.370, 23810.100
314.852, 23791.660
315.334, 23778.740
315.816, 23786.240
316.298, 23787.711
316.780, 23764.090
317.262, 23720.141
317.744, 23687.891
318.226, 23688.551
318.709, 23701.801
319.191, 23712.539
319.673, 23701.539
320.155, 23705.730
320.637, 23743.000
321.119, 23806.461
321.601, 23866.840
322.083, 23921.529
322.565, 23966.510
323.048, 23998.561
323.530, 24005.699
324.012, 24014.760
324.494, 24034.859
324.976, 24059.910
325.458, 24072.580
325.940, 24030.949
326.422, 24008.080
326.905, 24037.330
327.387, 24167.830
327.869, 24268.359
328.351, 24325.529
328.833, 24352.070
329.315, 24372.641
329.797, 24364.250
330.279, 24374.980
330.762, 24427.510
331.244, 24549.971
331.726, 24631.051
332.208, 24650.750
332.690, 24640.760
333.172, 24648.461
333.654, 24683.510
334.136, 24720.461
334.618, 24750.910
335.100, 24772.570
335.583, 24810.029
336.065, 24869.500
336.547, 24937.859
337.029, 25002.109
337.511, 25062.680
337.993, 25115.801
338.475, 25152.580
338.957, 25176.141
339.440, 25240.949
339.922, 25366.289
340.404, 25485.520
340.886, 25523.119
341.368, 25467.029
341.850, 25443.150
342.332, 25486.609
342.814, 25576.119
343.297, 25632.840
343.779, 25654.230
344.261, 25668.900
344.743, 25700.551
345.225, 25748.010
345.707, 25792.641
346.189, 25831.930
346.671, 25868.859
347.153, 25910.650
347.635, 25956.881
348.118, 26003.170
348.600, 26048.320
349.082, 26090.699
349.564, 26126.689
350.046, 26155.000
350.528, 26177.080
351.010, 26194.061
351.492, 26205.859
351.975, 26214.330
352.457, 26206.070
352.939, 26199.391
353.421, 26232.590
353.903, 26313.939
354.385, 26386.631
354.867, 26391.480
355.349, 26353.590
355.832, 26319.930
356.314, 26328.811
356.796, 26340.029
357.278, 26315.289
357.760, 26254.480
358.242, 26192.301
358.724, 26144.660
359.206, 26108.359
359.688, 26079.689
360.171, 26071.051
360.653, 26057.061
361.135, 26015.510
361.617, 25951.930
362.099, 25905.801
362.581, 25913.730
363.063, 25930.221
363.545, 25923.600
364.027, 25875.881
364.510, 25819.270
364.992, 25763.061
365.474, 25703.770
365.956, 25630.949
366.438, 25512.340
366.920, 25405.789
367.402, 25337.180
367.884, 25327.080
368.366, 25318.689
368.849, 25327.869
369.331, 25334.359
369.813, 25302.670
370.295, 25197.490
370.777, 25097.170
371.259, 25023.480
371.741, 24982.141
372.224, 24939.721
372.706, 24897.320
373.188, 24851.789
373.670, 24797.641
374.152, 24726.760
374.634, 24666.199
375.116, 24627.240
375.598, 24605.990
376.080, 24563.789
376.562, 24496.600
377.045, 24418.090
377.527, 24337.199
378.009, 24252.230
378.491, 24177.590
378.973, 24120.221
379.455, 24071.180
379.937, 24004.061
380.419, 23917.051
380.902, 23835.109
381.384, 23779.109
381.866, 23744.680
382.348, 23699.230
382.830, 23637.311
383.312, 23573.510
383.794, 23531.590
384.276, 23508.330
384.759, 23486.510
385.241, 23453.500
385.723, 23416.369
386.205, 23392.730
386.687, 23383.311
387.169, 23370.500
387.651, 23336.660
388.133, 23287.711
388.615, 23234.240
389.098, 23177.830
389.580, 23119.680
390.062, 23059.250
390.544, 22996.721
391.026, 22940.000
391.508, 22901.381
391.990, 22867.891
392.472, 22827.500
392.954, 22777.869
393.437, 22722.301
393.919, 22663.859
394.401, 22602.240
394.883, 22532.699
395.365, 22433.721
395.847, 22343.119
396.329, 22283.609
396.811, 22272.689
397.293, 22253.311
397.776, 22206.600
398.258, 22148.141
398.740, 22100.289
399.222, 22075.420
399.704, 22049.250
400.186, 22021.000
400.668, 21992.650
401.151, 21938.939
401.633, 21834.311
402.115, 21726.971
402.597, 21660.580
403.079, 21660.020
403.561, 21645.939
404.043, 21606.990
404.525, 21546.580
405.007, 21477.391
405.490, 21394.279
405.972, 21315.270
406.454, 21252.949
406.936, 21208.141
407.418, 21165.449
407.900, 21126.400
408.382, 21084.400
408.864, 21024.699
409.346, 20947.189
409.828, 20866.020
410.311, 20777.061
410.793, 20689.410
411.275, 20616.150
411.757, 20551.180
412.239, 20486.727
412.721, 20439.137
413.203, 20387.449
413.685, 20331.885
414.168, 20260.861
414.650, 20209.812
415.132, 20150.756
415.614, 20091.377
416.096, 20043.135
416.578, 19974.354
417.060, 19925.936
417.542, 19867.910
418.025, 19775.279
418.507, 19741.631
418.989, 19687.461
419.471, 19619.619
419.953, 19550.900
420.435, 19490.770
420.917, 19428.430
421.399, 19360.211
421.881, 19286.400
422.364, 19205.369
422.846, 19100.789
423.328, 18996.160
423.810, 18916.529
424.292, 18904.240
424.774, 18872.789
425.256, 18796.430
425.738, 18679.820
426.220, 18590.359
426.703, 18544.539
427.185, 18506.730
427.667, 18459.199
428.149, 18403.830
428.631, 18331.699
429.113, 18233.631
429.595, 18122.770
430.077, 18025.650
430.560, 17940.080
431.042, 17874.699
431.524, 17844.109
432.006, 17845.910
432.488, 17814.811
432.970, 17744.039
433.452, 17667.211
433.934, 17628.910
434.417, 17623.609
434.899, 17600.461
435.381, 17540.801
435.863, 17460.400
436.345, 17381.510
436.827, 17305.410
437.309, 17242.211
437.791, 17208.631
438.273, 17190.221
438.755, 17168.119
439.238, 17141.971
439.720, 17102.391
440.202, 17027.529
440.684, 16933.971
441.166, 16854.100
441.648, 16819.279
442.130, 16789.949
442.612, 16739.189
443.095, 16664.510
443.577, 16595.980
444.059, 16546.900
444.541, 16506.990
445.023, 16467.711
445.505, 16426.689
445.987, 16387.109
446.469, 16359.630
446.952, 16337.080
447.434, 16289.110
447.916, 16193.380
448.398, 16094.240
448.880, 16008.560
449.362, 15937.170
449.844, 15875.290
450.326, 15826.440
450.808, 15783.890
451.290, 15739.060
451.773, 15691.940
452.255, 15643.380
452.737, 15593.850
453.219, 15543.120
453.701, 15484.500
454.183, 15415.760
454.665, 15352.360
455.147, 15310.790
455.630, 15287.580
456.112, 15256.790
456.594, 15214.170
457.076, 15165.350
457.558, 15119.680
458.040, 15075.980
458.522, 15029.060
459.004, 14974.460
459.487, 14915.890
459.969, 14852.880
460.451, 14785.870
460.933, 14728.560
461.415, 14695.380
461.897, 14677.310
462.379, 14664.000
462.861, 14657.500
463.343, 14649.390
463.826, 14644.940
464.308, 14637.940
464.790, 14606.720
465.272, 14522.440
465.754, 14429.910
466.236, 14347.450
466.718, 14271.580
467.200, 14217.040
467.682, 14192.110
468.165, 14185.460
468.647, 14186.030
469.129, 14206.260
469.611, 14212.760
470.093, 14194.430
470.575, 14154.670
471.057, 14127.910
471.539, 14122.950
472.022, 14110.770
472.504, 14061.850
472.986, 13971.560
473.468, 13916.370
473.950, 13909.550
474.432, 13923.980
474.914, 13917.650
475.396, 13892.400
475.878, 13865.770
476.361, 13847.330
476.843, 13832.660
477.325, 13811.020
477.807, 13783.010
478.289, 13756.940
478.771, 13739.510
479.253, 13728.550
479.735, 13722.890
480.217, 13729.560
480.700, 13727.390
481.182, 13687.300
481.664, 13626.860
482.146, 13585.740
482.628, 13588.280
483.110, 13606.760
483.592, 13636.140
484.074, 13679.910
484.556, 13698.130
485.039, 13648.150
485.521, 13586.860
486.003, 13563.040
486.485, 13608.700
486.967, 13649.360
487.449, 13686.430
487.931, 13714.790
488.414, 13713.830
488.896, 13675.200
489.378, 13625.390
489.860, 13569.650
490.342, 13506.810
490.824, 13468.900
491.306, 13459.570
491.788, 13466.490
492.270, 13481.910
492.753, 13504.440
493.235, 13515.280
493.717, 13504.370
494.199, 13484.580
494.681, 13480.260
495.163, 13489.230
495.645, 13498.230
496.127, 13500.200
496.609, 13496.160
497.092, 13485.670
497.574, 13467.630
498.056, 13450.800
498.538, 13441.050
499.020, 13436.450
499.502, 13434.690
499.984, 13441.660
500.466, 13445.060
500.948, 13438.530
501.431, 13423.830
501.913, 13410.260
502.395, 13398.240
502.877, 13389.020
503.359, 13383.220
503.841, 13380.590
504.323, 13381.730
504.805, 13389.060
505.288, 13397.760
505.770, 13401.530
506.252, 13398.400
506.734, 13395.290
507.216, 13394.650
507.698, 13394.800
508.180, 13387.160
508.662, 13370.780
509.145, 13354.530
509.627, 13350.240
510.109, 13352.840
510.591, 13335.220
511.073, 13292.110
511.555, 13245.890
512.037, 13223.440
512.519, 13217.800
513.001, 13212.150
513.484, 13194.100
513.966, 13178.390
514.448, 13184.820
514.930, 13207.640
515.412, 13219.030
515.894, 13198.690
516.376, 13166.140
516.858, 13133.030
517.341, 13098.790
517.823, 13069.290
518.305, 13044.850
518.787, 13025.940
519.269, 13013.430
519.751, 13009.490
520.233, 13008.960
520.715, 13011.920
521.197, 13017.910
521.680, 13028.630
522.162, 13057.110
522.644, 13062.540
523.126, 13007.610
523.608, 12885.450
524.090, 12812.710
524.572, 12799.780
525.054, 12811.770
525.536, 12809.760
526.019, 12794.860
526.501, 12772.390
526.983, 12738.400
527.465, 12703.880
527.947, 12687.800
528.429, 12687.410
528.911, 12688.140
529.393, 12691.500
529.875, 12685.770
530.358, 12655.400
530.840, 12595.300
531.322, 12536.200
531.804, 12491.400
532.286, 12455.950
532.768, 12425.870
533.250, 12410.100
533.732, 12388.020
534.214, 12350.470
534.697, 12303.000
535.179, 12265.430
535.661, 12245.750
536.143, 12226.140
536.625, 12202.780
537.107, 12176.600
537.589, 12132.490
538.071, 12062.690
538.554, 11992.680
539.036, 11952.610
539.518, 11941.970
540.000, 11929.490
540.482, 11909.570
540.964, 11885.210
541.446, 11863.690
541.928, 11843.060
542.411, 11813.760
542.893, 11759.330
543.375, 11698.990
543.857, 11660.520
544.339, 11644.190
544.821, 11625.390
545.303, 11586.630
545.785, 11539.630
546.268, 11495.610
546.750, 11462.220
547.232, 11423.150
547.714, 11368.700
548.196, 11307.160
548.678, 11251.640
549.160, 11204.740
549.642, 11163.420
550.124, 11130.960
550.606, 11106.430
551.089, 11068.570
551.571, 11011.510
552.053, 10952.900
552.535, 10904.580
553.017, 10866.660
553.499, 10831.600
553.981, 10799.130
554.463, 10769.020
554.945, 10746.210
555.428, 10727.310
555.910, 10695.820
556.392, 10642.240
556.874, 10577.830
557.356, 10512.840
557.838, 10448.580
558.320, 10390.400
558.802, 10338.380
559.284, 10295.960
559.767, 10267.590
560.249, 10255.960
560.731, 10244.990
561.213, 10231.270
561.695, 10214.770
562.177, 10195.280
562.659, 10165.580
563.141, 10142.150
563.624, 10134.680
564.106, 10132.150
564.588, 10104.230
565.070, 10039.330
565.552, 9977.825
566.034, 9934.644
566.516, 9908.399
566.998, 9880.740
567.481, 9851.826
567.963, 9821.366
568.445, 9785.356
568.927, 9747.210
569.409, 9718.495
569.891, 9702.859
570.373, 9690.236
570.855, 9672.264
571.338, 9649.419
571.820, 9623.438
572.302, 9595.031
572.784, 9563.188
573.266, 9523.147
573.748, 9477.673
574.230, 9438.255
574.712, 9411.624
575.194, 9389.645
575.677, 9368.646
576.159, 9347.971
576.641, 9331.007
577.123, 9323.225
577.605, 9314.026
578.087, 9292.444
578.569, 9254.559
579.051, 9218.919
579.533, 9187.215
580.016, 9159.854
580.498, 9135.581
580.980, 9114.681
581.462, 9105.070
581.944, 9125.451
582.426, 9153.798
582.908, 9136.566
583.390, 9077.624
583.872, 9022.533
584.355, 9007.740
584.837, 9010.417
585.319, 9007.162
585.801, 8991.751
586.283, 8977.820
586.765, 8979.299
587.247, 8982.455
587.729, 8970.722
588.211, 8917.209
588.694, 8877.554
589.176, 8868.653
589.658, 8879.297
590.140, 8867.953
590.622, 8822.510
591.104, 8780.907
591.586, 8759.728
592.068, 8757.919
592.551, 8757.143
593.033, 8757.735
593.515, 8757.806
593.997, 8755.987
594.479, 8752.310
594.961, 8748.318
595.443, 8746.045
595.925, 8736.924
596.407, 8702.037
596.890, 8655.292
597.372, 8622.824
597.854, 8634.098
598.336, 8643.616
598.818, 8623.367
599.300, 8580.191
599.782, 8546.184
600.265, 8532.404
600.747, 8525.312
601.229, 8519.605
601.711, 8514.636
602.193, 8515.536
602.675, 8529.519
603.157, 8538.858
603.639, 8525.159
