##NAMES=Bismuthinite
##RRUFFID=R070533
##IDEAL CHEMISTRY=Bi^3+^_2_S^2-^_3_
##LOCALITY=Llallagua, Bustillos Province, Potosi, Bolivia
##OWNER=RRUFF
##SOURCE=James Shigley
##DESCRIPTION=Elongated tin-white prismatic crystals associated with black cassiterite
##STATUS=The identification of this mineral has been confirmed by single-crystal X-ray diffraction.
##URL=rruff.info/R070533
133.2813, 158.6147
133.7634, 165.9386
134.2455, 176.7230
134.7276, 190.5181
135.2097, 201.2227
135.6918, 207.1756
136.1740, 209.0253
136.6561, 208.6349
137.1382, 204.8222
137.6203, 202.3909
138.1024, 208.3588
138.5845, 224.7883
139.0667, 238.0296
139.5488, 242.1988
140.0309, 236.5403
140.5130, 239.6049
140.9951, 255.3670
141.4772, 275.5155
141.9594, 284.7351
142.4415, 278.1114
142.9236, 271.6643
143.4057, 271.3803
143.8878, 278.4536
144.3699, 289.0302
144.8521, 306.5973
145.3342, 327.1623
145.8163, 337.3598
146.2984, 331.3029
146.7805, 321.9337
147.2626, 315.6639
147.7448, 313.1014
148.2269, 312.7898
148.7090, 314.8821
149.1911, 319.3380
149.6732, 325.3483
150.1554, 337.3094
150.6375, 348.0902
151.1196, 352.4111
151.6017, 337.6465
152.0838, 329.6667
152.5659, 333.0232
153.0481, 348.9009
153.5302, 365.9001
154.0123, 390.7521
154.4944, 413.7168
154.9765, 424.9070
155.4586, 407.7023
155.9408, 392.6377
156.4229, 388.7883
156.9050, 397.8834
157.3871, 406.4847
157.8692, 417.3235
158.3513, 427.5410
158.8335, 432.3431
159.3156, 424.0880
159.7977, 415.4370
160.2798, 412.1353
160.7619, 416.5248
161.2440, 422.9370
161.7262, 431.2443
162.2083, 440.4738
162.6904, 448.1140
163.1725, 452.3130
163.6546, 455.1268
164.1367, 457.7840
164.6189, 459.6482
165.1010, 462.5443
165.5831, 467.5442
166.0652, 474.3931
166.5473, 481.9604
167.0294, 489.4992
167.5116, 497.3611
167.9937, 505.8302
168.4758, 516.2692
168.9579, 526.3592
169.4400, 534.5911
169.9221, 541.0002
170.4043, 546.4351
170.8864, 553.4662
171.3685, 559.5385
171.8506, 560.9752
172.3327, 549.3834
172.8148, 536.3773
173.2970, 533.6008
173.7791, 542.1095
174.2612, 553.6270
174.7433, 561.5248
175.2254, 567.1773
175.7076, 573.6707
176.1897, 585.4633
176.6718, 597.8869
177.1539, 604.7553
177.6360, 605.0272
178.1181, 601.8337
178.6003, 594.6379
179.0824, 585.3842
179.5645, 581.9784
180.0466, 594.0125
180.5287, 614.3225
181.0108, 628.4941
181.4930, 633.4710
181.9751, 634.1945
182.4572, 637.9012
182.9393, 644.0652
183.4214, 648.1615
183.9035, 646.0646
184.3857, 639.3243
184.8678, 631.8113
185.3499, 623.1084
185.8320, 615.3459
186.3141, 613.5624
186.7962, 617.7218
187.2784, 623.4089
187.7605, 628.1407
188.2426, 631.6218
188.7247, 632.4977
189.2068, 630.7484
189.6889, 626.0265
190.1711, 615.8177
190.6532, 599.6470
191.1353, 582.8423
191.6174, 570.4660
192.0995, 562.5138
192.5816, 557.4824
193.0638, 556.0242
193.5459, 557.3084
194.0280, 557.3900
194.5101, 556.1229
194.9922, 554.2590
195.4743, 553.9880
195.9565, 555.4203
196.4386, 552.8578
196.9207, 540.0198
197.4028, 518.4311
197.8849, 511.2241
198.3671, 522.1820
198.8492, 539.0060
199.3313, 541.5024
199.8134, 527.8943
200.2955, 514.0795
200.7776, 507.6578
201.2598, 508.9682
201.7419, 507.4440
202.2240, 501.9583
202.7061, 494.8719
203.1882, 491.1493
203.6703, 491.4954
204.1525, 492.0496
204.6346, 490.7952
205.1167, 487.5074
205.5988, 484.1809
206.0809, 480.7780
206.5630, 477.4814
207.0452, 474.6042
207.5273, 471.9397
208.0094, 470.3028
208.4915, 469.5872
208.9736, 469.2384
209.4557, 473.3132
209.9379, 484.0629
210.4200, 498.8297
210.9021, 507.5486
211.3842, 508.0917
211.8663, 507.4781
212.3484, 510.6298
212.8306, 518.6219
213.3127, 526.2003
213.7948, 533.1188
214.2769, 539.2006
214.7590, 542.2988
215.2411, 539.4140
215.7233, 538.8561
216.2054, 548.3922
216.6875, 572.0352
217.1696, 593.3283
217.6517, 610.8001
218.1338, 624.2938
218.6160, 630.2358
219.0981, 624.4120
219.5802, 617.1460
220.0623, 617.7913
220.5444, 628.6525
221.0265, 641.7131
221.5087, 656.8320
221.9908, 674.0056
222.4729, 686.8658
222.9550, 693.6596
223.4371, 698.3804
223.9192, 704.9063
224.4014, 713.0016
224.8835, 723.3343
225.3656, 737.2070
225.8477, 755.2184
226.3298, 767.9282
226.8119, 772.3622
227.2941, 774.5505
227.7762, 781.6052
228.2583, 795.3793
228.7404, 810.0701
229.2225, 824.9957
229.7046, 840.5441
230.1868, 852.2561
230.6689, 858.8216
231.1510, 862.4904
231.6331, 866.0799
232.1152, 869.7157
232.5974, 873.0385
233.0795, 876.3629
233.5616, 880.1022
234.0437, 881.2076
234.5258, 877.7048
235.0079, 873.0550
235.4901, 873.1646
235.9722, 883.5197
236.4543, 889.2232
236.9364, 884.3937
237.4185, 865.4050
237.9006, 851.8781
238.3828, 846.2462
238.8649, 844.5317
239.3470, 840.4448
239.8291, 833.4689
240.3112, 824.8643
240.7933, 815.0411
241.2755, 803.8860
241.7576, 791.3885
242.2397, 776.0748
242.7218, 760.1758
243.2039, 747.6879
243.6860, 739.2655
244.1682, 733.1986
244.6503, 729.8976
245.1324, 731.5917
245.6145, 728.3022
246.0966, 717.9055
246.5787, 703.6221
247.0609, 691.4081
247.5430, 681.1435
248.0251, 673.1447
248.5072, 667.3311
248.9893, 663.2594
249.4714, 663.1519
249.9536, 668.8105
250.4357, 677.5843
250.9178, 684.1843
251.3999, 688.6038
251.8820, 690.7569
252.3641, 690.0493
252.8463, 684.8587
253.3284, 681.5214
253.8105, 679.8437
254.2926, 680.1263
254.7747, 683.5197
255.2568, 691.9627
255.7390, 700.1454
256.2211, 706.1121
256.7032, 709.6176
257.1853, 711.3574
257.6674, 710.5603
258.1495, 708.3868
258.6317, 708.6592
259.1138, 715.7596
259.5959, 716.8275
260.0780, 703.3805
260.5601, 666.0258
261.0422, 644.2511
261.5244, 644.0423
262.0065, 655.9068
262.4886, 658.3672
262.9707, 648.9648
263.4528, 635.5481
263.9349, 621.3787
264.4171, 606.7999
264.8992, 589.3220
265.3813, 566.5689
265.8634, 542.2483
266.3455, 525.0764
266.8276, 517.3454
267.3098, 510.6260
267.7919, 500.5202
268.2740, 485.7011
268.7561, 473.7864
269.2382, 465.5090
269.7203, 459.8669
270.2025, 456.0481
270.6846, 455.9260
271.1667, 452.0149
271.6488, 438.1372
272.1309, 411.1351
272.6130, 394.2159
273.0952, 390.4127
273.5773, 393.9066
274.0594, 393.3155
274.5415, 387.9192
275.0236, 381.5248
275.5057, 375.8529
275.9879, 371.0029
276.4700, 366.0756
276.9521, 361.3969
277.4342, 356.1816
277.9163, 348.5074
278.3984, 337.9300
278.8806, 327.5246
279.3627, 318.2030
279.8448, 309.9537
280.3269, 304.4353
280.8090, 302.1476
281.2911, 301.8501
281.7733, 302.3259
282.2554, 303.8212
282.7375, 303.3187
283.2196, 297.6325
283.7017, 287.1935
284.1838, 281.7857
284.6660, 282.5093
285.1481, 285.9550
285.6302, 287.6890
286.1123, 287.7142
286.5944, 286.0326
287.0765, 281.3946
287.5587, 274.4614
288.0408, 270.9256
288.5229, 271.8178
289.0050, 272.8239
289.4871, 266.3072
289.9692, 253.0217
290.4514, 242.2245
290.9335, 239.4133
291.4156, 242.6570
291.8977, 243.9728
292.3798, 243.0636
292.8619, 241.6705
293.3441, 241.7057
293.8262, 243.0720
294.3083, 245.2259
294.7904, 249.7662
295.2726, 254.8144
295.7547, 255.0165
296.2368, 250.0856
296.7189, 242.9454
297.2010, 235.2374
297.6831, 227.6259
298.1653, 222.2196
298.6474, 220.0166
299.1295, 220.5132
299.6116, 224.2054
300.0937, 231.2113
300.5758, 236.9190
301.0580, 235.4484
301.5401, 229.3257
302.0222, 224.2823
302.5043, 223.0226
302.9864, 223.6915
303.4685, 224.7280
303.9507, 226.0699
304.4328, 225.9576
304.9149, 220.3219
305.3970, 212.7176
305.8791, 209.1130
306.3612, 215.3257
306.8434, 223.3355
307.3255, 225.1208
307.8076, 221.1736
308.2897, 215.7065
308.7718, 208.7506
309.2539, 202.8348
309.7361, 201.4804
310.2182, 210.1164
310.7003, 218.8445
311.1824, 219.1368
311.6645, 212.4742
312.1466, 206.4017
312.6288, 203.3975
313.1109, 203.7182
313.5930, 208.2192
314.0751, 222.4808
314.5572, 233.5108
315.0393, 232.6616
315.5215, 222.4396
316.0036, 211.6235
316.4857, 200.5571
316.9678, 192.3257
317.4499, 189.6888
317.9320, 197.4238
318.4142, 203.3276
318.8963, 201.2521
319.3784, 193.9823
319.8605, 188.1842
320.3426, 186.1686
320.8247, 186.1104
321.3069, 187.2592
321.7890, 190.0868
322.2711, 192.8255
322.7532, 195.4711
323.2353, 197.7328
323.7174, 199.0687
324.1996, 198.8936
324.6817, 198.1775
325.1638, 196.7855
325.6459, 193.4794
326.1280, 192.9539
326.6101, 199.9796
327.0923, 209.0114
327.5744, 211.9658
328.0565, 200.0403
328.5386, 190.3093
329.0207, 187.8557
329.5028, 195.1190
329.9850, 198.9974
330.4671, 197.9223
330.9492, 194.3149
331.4313, 190.5672
331.9134, 184.7757
332.3955, 181.5922
332.8777, 182.9954
333.3598, 189.2500
333.8419, 193.0175
334.3240, 193.3198
334.8061, 192.1327
335.2882, 191.2160
335.7704, 190.8868
336.2525, 190.1396
336.7346, 189.1046
337.2167, 187.6103
337.6988, 183.5704
338.1809, 175.2128
338.6631, 167.7511
339.1452, 165.7307
339.6273, 170.2278
340.1094, 174.8192
340.5915, 178.8953
341.0736, 182.4583
341.5558, 185.5899
342.0379, 188.5347
342.5200, 190.1630
343.0021, 189.5242
343.4842, 186.6322
343.9663, 182.8024
344.4485, 177.6447
344.9306, 172.4599
345.4127, 170.4527
345.8948, 171.5963
346.3769, 172.9374
346.8590, 172.2917
347.3412, 170.2892
347.8233, 170.1887
348.3054, 172.5332
348.7875, 175.4294
349.2696, 175.6277
349.7517, 173.7873
350.2339, 173.1629
350.7160, 177.4083
351.1981, 183.4474
351.6802, 184.8749
352.1623, 181.2205
352.6444, 176.0644
353.1266, 172.6063
353.6087, 170.2530
354.0908, 167.8348
354.5729, 162.7845
355.0550, 158.6662
355.5371, 160.9238
356.0193, 169.1350
356.5014, 176.3398
356.9835, 175.6213
357.4656, 171.6216
357.9477, 170.2165
358.4298, 176.1828
358.9120, 182.0122
359.3941, 181.4071
359.8762, 175.9807
360.3583, 172.5461
360.8404, 177.9907
361.3225, 184.7879
361.8047, 186.9265
362.2868, 180.6301
362.7689, 173.8762
363.2510, 168.8410
363.7331, 165.4577
364.2152, 163.5651
364.6974, 163.6959
365.1795, 164.8669
365.6616, 166.9708
366.1437, 170.8812
366.6258, 173.3695
367.1079, 172.5082
367.5901, 170.2663
368.0722, 169.5977
368.5543, 172.4581
369.0364, 175.2992
369.5185, 177.7020
370.0006, 180.0714
370.4828, 179.8745
370.9649, 175.4239
371.4470, 169.5041
371.9291, 164.5410
372.4112, 159.7806
372.8933, 157.2605
373.3755, 157.8849
373.8576, 161.4097
374.3397, 164.8484
374.8218, 168.7102
375.3039, 171.6084
375.7861, 171.8495
376.2682, 168.1305
376.7503, 166.9331
377.2324, 169.4877
377.7145, 174.7043
378.1967, 179.8931
378.6788, 185.2249
379.1609, 189.4991
379.6430, 192.7243
380.1251, 194.8307
380.6072, 192.2255
381.0894, 183.5598
381.5715, 172.8246
382.0536, 165.8922
382.5357, 162.5919
383.0178, 161.2841
383.4999, 162.2306
383.9821, 164.5830
384.4642, 165.7133
384.9463, 165.5305
385.4284, 164.8762
385.9105, 164.3994
386.3926, 164.0986
386.8748, 163.9536
387.3569, 163.7134
387.8390, 163.7963
388.3211, 164.8835
388.8032, 166.9085
389.2853, 169.0950
389.7675, 172.5946
390.2496, 175.3754
390.7317, 174.5301
391.2138, 167.1605
391.6959, 159.6423
392.1780, 155.5460
392.6602, 154.4587
393.1423, 155.1069
393.6244, 158.2025
394.1065, 161.9194
394.5886, 165.8046
395.0707, 170.8880
395.5529, 172.5873
396.0350, 165.3764
396.5171, 154.8076
396.9992, 149.0007
397.4813, 154.5584
397.9634, 160.5300
398.4456, 163.7918
398.9277, 163.8621
399.4098, 163.4798
399.8919, 162.5070
400.3740, 161.3204
400.8561, 160.1698
401.3383, 158.4090
401.8204, 157.6878
402.3025, 158.8410
402.7846, 161.4246
403.2667, 162.1788
403.7488, 159.3889
404.2310, 157.3950
404.7131, 159.4364
405.1952, 167.3159
405.6773, 172.2829
406.1594, 173.6543
406.6415, 172.2021
407.1237, 168.5450
407.6058, 162.0645
408.0879, 157.2450
408.5700, 156.4781
409.0521, 159.4988
409.5342, 163.4982
410.0164, 169.0175
410.4985, 173.0145
410.9806, 169.2097
411.4627, 159.2989
411.9448, 154.7046
412.4269, 162.9196
412.9091, 176.1677
413.3912, 177.3055
413.8733, 167.3664
414.3554, 157.9051
414.8375, 160.6777
415.3196, 169.1487
415.8018, 172.5980
416.2839, 167.4345
416.7660, 159.4879
417.2481, 150.9728
417.7302, 143.4518
418.2123, 141.0870
418.6945, 151.8299
419.1766, 164.6190
419.6587, 170.5138
420.1408, 167.3479
420.6229, 165.0345
421.1050, 169.8038
421.5872, 177.0744
422.0693, 181.5835
422.5514, 178.7417
423.0335, 176.1127
423.5156, 176.8671
423.9977, 180.8888
424.4799, 182.0228
424.9620, 176.5624
425.4441, 170.0271
425.9262, 165.5462
426.4083, 164.0791
426.8904, 163.3093
427.3726, 162.9638
427.8547, 163.3069
428.3368, 165.3385
428.8189, 170.6756
429.3010, 174.8658
429.7831, 175.7004
430.2653, 172.5378
430.7474, 171.5096
431.2295, 173.7603
431.7116, 176.1393
432.1937, 173.3417
432.6758, 164.7278
433.1580, 159.7157
433.6401, 162.5445
434.1222, 170.2565
434.6043, 172.9974
435.0864, 170.6531
435.5685, 166.2657
436.0507, 160.3336
436.5328, 154.0888
437.0149, 151.9148
437.4970, 155.4756
437.9791, 160.7323
438.4612, 163.1551
438.9434, 163.2090
439.4255, 162.3705
439.9076, 159.4328
440.3897, 157.1015
440.8718, 159.5356
441.3539, 167.3603
441.8361, 173.2572
442.3182, 170.3186
442.8003, 163.9644
443.2824, 160.3746
443.7645, 165.8665
444.2466, 170.1795
444.7288, 167.3354
445.2109, 159.0658
445.6930, 154.7803
446.1751, 159.3738
446.6572, 166.3462
447.1393, 172.7135
447.6215, 179.8076
448.1036, 183.4264
448.5857, 180.8904
449.0678, 175.7533
449.5499, 173.9982
450.0320, 178.5557
450.5142, 181.6295
450.9963, 180.5597
451.4784, 175.2045
451.9605, 172.1206
452.4426, 172.0087
452.9247, 172.7329
453.4069, 171.9353
453.8890, 169.2887
454.3711, 169.0672
454.8532, 172.7669
455.3353, 178.2608
455.8174, 180.8184
456.2996, 180.4702
456.7817, 178.2664
457.2638, 173.8177
457.7459, 168.0477
458.2281, 162.4577
458.7102, 156.8576
459.1923, 154.0765
459.6744, 160.3335
460.1565, 171.4340
460.6386, 178.4939
461.1208, 176.1904
461.6029, 170.4536
462.0850, 164.8956
462.5671, 159.7119
463.0492, 156.2545
463.5313, 156.4206
464.0135, 157.7959
464.4956, 158.4272
464.9777, 157.3013
465.4598, 156.9701
465.9419, 158.8434
466.4240, 161.8362
466.9062, 164.1572
467.3883, 165.7693
467.8704, 166.4149
468.3525, 165.1687
468.8346, 161.7170
469.3167, 161.3144
469.7989, 167.0954
470.2810, 172.6566
470.7631, 172.6824
471.2452, 164.4066
471.7273, 158.4007
472.2094, 156.0719
472.6916, 156.2348
473.1737, 155.7311
473.6558, 154.2779
474.1379, 154.0117
474.6200, 157.2344
475.1021, 163.1986
475.5843, 165.1553
476.0664, 162.6418
476.5485, 159.1185
477.0306, 158.1383
477.5127, 159.1903
477.9948, 160.8694
478.4770, 163.3818
478.9591, 165.5631
479.4412, 165.0957
479.9233, 162.7059
480.4054, 161.5539
480.8875, 165.6717
481.3697, 170.5313
481.8518, 171.8953
482.3339, 168.5196
482.8160, 164.8552
483.2981, 163.1440
483.7802, 162.2214
484.2624, 160.6522
484.7445, 154.6951
485.2266, 151.5721
485.7087, 154.5455
486.1908, 163.1171
486.6729, 169.9556
487.1551, 175.7218
487.6372, 178.9458
488.1193, 178.6111
488.6014, 173.1703
489.0835, 167.9014
489.5656, 162.4296
490.0478, 157.4854
490.5299, 153.9667
491.0120, 151.7710
491.4941, 151.6760
491.9762, 155.1393
492.4583, 160.8520
492.9405, 161.7659
493.4226, 157.5303
493.9047, 153.0114
494.3868, 152.3241
494.8689, 154.5018
495.3510, 156.8033
495.8332, 159.1044
496.3153, 160.4604
496.7974, 158.5396
497.2795, 154.7540
497.7616, 152.5907
498.2437, 154.8932
498.7259, 158.5450
499.2080, 161.1224
499.6901, 162.5999
500.1722, 164.4724
500.6543, 168.7941
501.1364, 172.9670
501.6186, 174.9992
502.1007, 173.0475
502.5828, 171.0770
503.0649, 168.9930
503.5470, 167.3812
504.0291, 167.6291
504.5113, 173.3188
504.9934, 176.3101
505.4755, 173.7451
505.9576, 165.3915
506.4397, 158.2656
506.9218, 152.1357
507.4040, 147.7341
507.8861, 146.0020
508.3682, 147.1505
508.8503, 148.6934
509.3324, 150.2274
509.8145, 152.2026
510.2967, 156.4534
510.7788, 162.6418
511.2609, 166.9584
511.7430, 166.9173
512.2252, 163.9064
512.7073, 159.7540
513.1894, 154.5141
513.6715, 150.3482
514.1536, 148.9783
514.6357, 149.6651
515.1179, 151.8214
515.6000, 156.7636
516.0821, 160.4230
516.5642, 160.4276
517.0463, 157.6276
517.5284, 153.7679
518.0106, 146.3243
518.4927, 140.7275
518.9748, 140.3443
519.4569, 146.1245
519.9390, 148.6029
520.4211, 144.3207
520.9033, 139.3342
521.3854, 137.8627
521.8675, 142.0679
522.3496, 144.6437
522.8317, 144.3447
523.3138, 142.8733
523.7960, 144.6099
524.2781, 150.3749
524.7602, 154.0641
525.2423, 152.0168
525.7244, 145.9492
526.2065, 144.1520
526.6887, 146.8117
527.1708, 149.9990
527.6529, 149.5500
528.1350, 147.2080
528.6171, 147.3703
529.0992, 152.2551
529.5814, 155.9201
530.0635, 149.5126
530.5456, 138.1719
531.0277, 131.9607
531.5098, 141.5845
531.9919, 152.0817
532.4741, 154.5791
532.9562, 149.2270
533.4383, 145.7554
533.9204, 149.0327
534.4025, 153.3879
534.8846, 155.2169
535.3668, 151.2032
535.8489, 150.2936
536.3310, 155.2047
536.8131, 161.6158
537.2952, 162.6245
537.7773, 156.2590
538.2595, 149.7770
538.7416, 144.0836
539.2237, 139.7034
539.7058, 140.2424
540.1879, 146.2228
540.6700, 152.4588
541.1522, 155.4111
541.6343, 155.6387
542.1164, 155.1443
542.5985, 154.1803
543.0806, 152.0307
543.5627, 145.8129
544.0449, 138.0535
544.5270, 133.7986
545.0091, 138.0201
545.4912, 143.2906
545.9733, 144.0797
546.4554, 141.4603
546.9376, 139.4774
547.4197, 139.4664
547.9018, 140.7041
548.3839, 143.7305
548.8660, 150.2231
549.3481, 152.3676
549.8303, 144.7725
550.3124, 135.7419
550.7945, 132.7495
551.2766, 138.5590
551.7587, 144.4642
552.2408, 150.1643
552.7230, 154.9913
553.2051, 156.1476
553.6872, 152.8554
554.1693, 151.2204
554.6514, 156.1532
555.1335, 165.4214
555.6157, 167.6302
556.0978, 162.5938
556.5799, 156.3150
557.0620, 154.6071
557.5441, 155.2721
558.0262, 153.9673
558.5084, 148.9290
558.9905, 143.8997
559.4726, 142.0740
559.9547, 142.1630
560.4368, 141.8567
560.9189, 139.6788
561.4011, 137.5228
561.8832, 135.4669
562.3653, 133.6526
562.8474, 134.2282
563.3295, 142.3082
563.8116, 148.7563
564.2938, 148.5796
564.7759, 137.7516
565.2580, 132.0312
565.7401, 133.0840
566.2222, 137.2231
566.7043, 139.7063
567.1865, 140.2712
567.6686, 141.6478
568.1507, 144.9935
568.6328, 148.9872
569.1149, 150.3548
569.5970, 149.3071
570.0792, 148.0438
570.5613, 148.9411
571.0434, 149.9777
571.5255, 146.8040
572.0076, 139.1292
572.4897, 133.8351
572.9719, 130.2731
573.4540, 140.8424
573.9361, 146.7809
574.4182, 148.3374
574.9003, 132.3876
575.3824, 139.0436
575.8646, 136.6402
576.3467, 133.8653
576.8288, 143.7030
577.3109, 130.2995
577.7930, 139.9371
578.2751, 140.3772
578.7573, 145.0267
579.2394, 140.5610
579.7215, 138.9106
580.2036, 146.3785
580.6857, 148.7976
581.1678, 143.2825
581.6500, 148.1997
582.1321, 134.4776
582.6142, 137.1118
583.0963, 146.8028
583.5784, 141.7460
584.0605, 146.8298
584.5427, 148.0515
585.0248, 131.7216
585.5069, 145.9157
585.9890, 146.9092
586.4711, 134.3485
586.9532, 147.4967
587.4354, 136.8046
587.9175, 134.6221
588.3996, 138.8435
588.8817, 136.3890
589.3638, 150.9413
589.8459, 156.0485
590.3281, 149.3568
590.8102, 143.8938
591.2923, 140.0271
591.7744, 137.1429
592.2565, 134.1623
592.7386, 130.9201
593.2208, 128.9115
593.7029, 128.5093
594.1850, 129.6226
594.6671, 133.2655
595.1492, 139.0179
595.6313, 142.7749
596.1135, 139.0902
596.5956, 133.2191
597.0777, 133.3481
597.5598, 140.1480
598.0419, 146.0788
598.5240, 145.1682
599.0062, 141.8945
599.4883, 140.5611
599.9704, 144.0072
600.4525, 146.3706
600.9346, 145.8566
601.4167, 143.5774
601.8989, 141.3426
602.3810, 138.2579
602.8631, 136.9485
603.3452, 139.2531
603.8273, 143.9199
604.3094, 142.9522
604.7916, 134.8453
605.2737, 127.5651
605.7558, 125.9722
606.2379, 129.2708
606.7200, 134.2123
607.2021, 141.0371
607.6843, 145.9249
608.1664, 142.9830
608.6485, 136.2329
609.1306, 132.9077
609.6127, 136.4396
610.0948, 140.1116
610.5770, 138.4856
611.0591, 134.2331
611.5412, 131.9506
612.0233, 136.6990
612.5054, 139.7886
612.9875, 136.9429
613.4697, 129.0056
613.9518, 125.1922
614.4339, 128.0837
614.9160, 131.1979
615.3981, 131.1880
615.8802, 127.6346
616.3624, 126.8579
616.8445, 129.6131
617.3266, 132.6246
617.8087, 131.1406
618.2908, 126.5816
618.7729, 127.1118
619.2551, 135.8636
619.7372, 144.7006
620.2193, 141.7391
620.7014, 132.0418
621.1835, 126.4628
621.6656, 134.7839
622.1478, 143.8077
622.6299, 145.9118
623.1120, 142.4107
623.5941, 139.2409
624.0762, 138.4078
624.5583, 137.7740
625.0405, 136.0768
625.5226, 132.8915
626.0047, 132.0679
626.4868, 134.7011
626.9689, 138.0028
627.4510, 139.7817
627.9332, 139.9358
628.4153, 139.9745
628.8974, 140.0881
629.3795, 139.9359
629.8616, 138.9138
630.3438, 137.1932
