##NAMES=Bismuth
##RRUFFID=R050650
##IDEAL CHEMISTRY=Bi
##LOCALITY=Wolfram Camp, Queensland, Australia
##OWNER=RRUFF
##SOURCE=University of Arizona Mineral Museum
##DESCRIPTION=Gray metallic fragment
##STATUS=The identification of this mineral has been confirmed by X-ray diffraction and chemical analysis
##URL=rruff.info/R050650
##MEASURED CHEMISTRY=Bi
92.02539, 1513.242
92.50751, 1553.735
92.98962, 1583.849
93.47174, 1571.759
93.95386, 1541.451
94.43597, 1503.835
94.91809, 1467.667
95.40021, 1430.529
95.88232, 1376.826
96.36444, 1298.175
96.84656, 1215.122
97.32867, 1131.327
97.81078, 1048.757
98.29290, 969.7465
98.77502, 895.2692
99.25713, 823.6127
99.73925, 757.7906
100.2214, 698.0242
100.7035, 641.6452
101.1856, 585.0203
101.6677, 528.7761
102.1498, 478.6995
102.6320, 442.3177
103.1141, 425.2596
103.5962, 409.7879
104.0783, 398.2585
104.5604, 387.2475
105.0425, 372.6334
105.5247, 352.7390
106.0068, 330.2622
106.4889, 309.2593
106.9710, 289.1742
107.4531, 271.3520
107.9352, 256.1744
108.4173, 243.6261
108.8995, 233.7615
109.3816, 228.1803
109.8637, 224.3171
110.3458, 219.1771
110.8279, 212.0966
111.3100, 204.9773
111.7922, 200.2207
112.2743, 198.4538
112.7564, 197.1624
113.2385, 196.0168
113.7206, 194.7843
114.2027, 193.2586
114.6849, 191.3562
115.1670, 189.0950
115.6491, 186.5498
116.1312, 183.0623
116.6133, 180.0412
117.0954, 177.7431
117.5776, 176.0347
118.0597, 174.7805
118.5418, 173.9507
119.0239, 173.5581
119.5060, 172.3576
119.9881, 168.5191
120.4703, 165.6962
120.9524, 166.2428
121.4345, 169.6293
121.9166, 173.0742
122.3987, 173.9160
122.8808, 171.6099
123.3630, 169.8913
123.8451, 168.9748
124.3272, 168.5288
124.8093, 168.5813
125.2914, 169.2942
125.7735, 169.5563
126.2557, 167.2827
126.7378, 163.0567
127.2199, 159.6252
127.7020, 159.1356
128.1841, 160.4408
128.6662, 159.6535
129.1483, 154.7241
129.6305, 149.2658
130.1126, 146.0943
130.5947, 145.0767
131.0768, 144.6924
131.5589, 143.6838
132.0410, 141.9626
132.5232, 140.3474
133.0053, 139.0790
133.4874, 137.8416
133.9695, 136.3492
134.4516, 134.5898
134.9337, 132.9340
135.4159, 132.0280
135.8980, 132.5522
136.3801, 132.5357
136.8622, 131.8981
137.3443, 130.7750
137.8264, 129.2025
138.3086, 127.2081
138.7907, 124.9045
139.2728, 122.6447
139.7549, 120.3344
140.2370, 118.1703
140.7191, 116.1336
141.2013, 114.2519
141.6834, 112.6669
142.1655, 111.5429
142.6476, 110.6409
143.1297, 108.9097
143.6118, 105.4375
144.0939, 102.2675
144.5761, 100.3340
145.0582, 99.46816
145.5403, 98.89792
146.0224, 98.29221
146.5045, 97.61964
146.9866, 96.82525
147.4688, 95.82388
147.9509, 94.77068
148.4330, 93.86275
148.9151, 93.13891
149.3972, 92.30650
149.8793, 90.81111
150.3615, 89.15981
150.8436, 88.05202
151.3257, 88.00159
151.8078, 88.52182
152.2899, 88.40381
152.7720, 87.06382
153.2542, 86.13454
153.7363, 86.62964
154.2184, 87.84306
154.7005, 88.67838
155.1826, 88.33728
155.6647, 86.96514
156.1469, 86.07413
156.6290, 86.10396
157.1111, 86.24247
157.5932, 86.15112
158.0753, 85.98739
158.5574, 86.15288
159.0396, 87.07491
159.5217, 88.91058
160.0038, 90.02881
160.4859, 89.83929
160.9680, 89.57237
161.4501, 89.78496
161.9323, 90.44740
162.4144, 91.14562
162.8965, 91.41386
163.3786, 91.06026
163.8607, 91.17986
164.3428, 92.01845
164.8250, 93.11028
165.3071, 94.22609
165.7892, 95.30996
166.2713, 96.22613
166.7534, 96.72280
167.2355, 96.71130
167.7177, 96.95210
168.1998, 97.74856
168.6819, 98.76505
169.1640, 99.61733
169.6461, 100.2523
170.1282, 100.6224
170.6104, 100.4122
171.0925, 99.69418
171.5746, 99.34336
172.0567, 100.1602
172.5388, 101.6601
173.0209, 102.3367
173.5031, 101.5256
173.9852, 100.3430
174.4673, 99.69801
174.9494, 99.56815
175.4315, 99.76531
175.9136, 100.3214
176.3958, 101.2186
176.8779, 101.8818
177.3600, 102.0781
177.8421, 102.1274
178.3242, 102.2837
178.8063, 102.5278
179.2885, 102.5925
179.7706, 102.1371
180.2527, 101.0298
180.7348, 99.96410
181.2169, 99.01028
181.6990, 98.09003
182.1812, 97.18076
182.6633, 96.26973
183.1454, 95.35369
183.6275, 94.42831
184.1096, 93.50488
184.5917, 92.54368
185.0738, 91.54409
185.5560, 90.51559
186.0381, 89.51213
186.5202, 88.53075
187.0023, 87.47176
187.4844, 86.16531
187.9665, 84.37901
188.4487, 82.68913
188.9308, 81.13412
189.4129, 79.66273
189.8950, 78.24349
190.3771, 76.87134
190.8592, 75.51604
191.3414, 74.08379
191.8235, 72.19820
192.3056, 70.96800
192.7877, 71.18313
193.2698, 71.94070
193.7519, 71.99036
194.2341, 70.84092
194.7162, 69.00253
195.1983, 67.40105
195.6804, 65.93484
196.1625, 64.84019
196.6446, 64.32220
197.1268, 64.22666
197.6089, 64.23500
198.0910, 64.29847
198.5731, 64.33281
199.0552, 64.19087
199.5373, 63.84502
200.0195, 63.50292
200.5016, 63.42307
200.9837, 63.50279
201.4658, 63.14677
201.9479, 61.78521
202.4300, 60.31507
202.9122, 59.76192
203.3943, 60.21119
203.8764, 60.91152
204.3585, 61.50298
204.8406, 61.98541
205.3227, 61.77826
205.8048, 59.85085
206.2870, 57.84242
206.7691, 57.01702
207.2512, 57.50761
207.7333, 58.42293
208.2154, 58.94806
208.6975, 59.08547
209.1797, 58.80906
209.6618, 57.34642
210.1439, 55.98039
210.6260, 55.56362
211.1081, 56.19226
211.5902, 57.18844
212.0724, 57.73781
212.5545, 57.80222
213.0366, 57.49041
213.5187, 56.16826
214.0008, 54.95876
214.4829, 54.77693
214.9651, 55.70065
215.4472, 56.89031
215.9293, 57.01331
216.4114, 55.16445
216.8935, 54.13042
217.3756, 54.20210
217.8578, 54.72813
218.3399, 55.50360
218.8220, 56.37728
219.3041, 57.01714
219.7862, 56.83754
220.2683, 55.00945
220.7505, 53.98869
221.2326, 54.11659
221.7147, 54.73476
222.1968, 55.58422
222.6789, 56.52047
223.1610, 57.15587
223.6432, 56.84959
224.1253, 54.76095
224.6074, 53.46514
225.0895, 53.32316
225.5716, 53.75440
226.0537, 54.34550
226.5358, 54.98315
227.0180, 55.60649
227.5001, 56.15088
227.9822, 56.65322
228.4643, 56.90276
228.9464, 56.78278
229.4285, 56.44983
229.9107, 56.07166
230.3928, 55.68792
230.8749, 55.21498
231.3570, 54.44884
231.8391, 53.33050
232.3212, 52.54807
232.8034, 52.44346
233.2855, 52.64618
233.7676, 52.56675
234.2497, 52.02219
234.7318, 51.66217
235.2139, 52.60211
235.6961, 54.65082
236.1782, 56.11255
236.6603, 56.38464
237.1424, 55.86786
237.6245, 55.00669
238.1066, 53.69661
238.5888, 52.56777
239.0709, 52.36988
239.5530, 52.86087
240.0351, 53.38751
240.5172, 53.78289
240.9993, 54.06102
241.4815, 54.31432
241.9636, 54.66426
242.4457, 54.66849
242.9278, 53.48492
243.4099, 51.70555
243.8920, 50.63102
244.3742, 51.37271
244.8563, 53.10679
245.3384, 53.91029
245.8205, 53.51021
246.3026, 52.75873
246.7847, 51.97825
247.2668, 51.21913
247.7490, 50.56703
248.2311, 50.04652
248.7132, 49.66622
249.1953, 49.46381
249.6774, 49.52148
250.1595, 49.59788
250.6417, 49.65377
251.1238, 49.65065
251.6059, 49.50899
252.0880, 49.14378
252.5701, 48.67949
253.0522, 48.49695
253.5344, 48.92809
254.0165, 48.96526
254.4986, 47.95721
254.9807, 46.59357
255.4628, 45.62000
255.9449, 45.37891
256.4271, 45.63848
256.9092, 45.88551
257.3913, 46.14027
257.8734, 46.33633
258.3555, 46.43910
258.8376, 46.49980
259.3198, 46.57775
259.8019, 46.69643
260.2840, 46.81026
260.7661, 46.85704
261.2482, 46.99025
261.7303, 46.71984
262.2125, 45.60336
262.6946, 44.35291
263.1767, 43.51911
263.6588, 43.28112
264.1409, 43.51748
264.6230, 44.12019
265.1052, 45.65294
265.5873, 46.39831
266.0694, 45.64019
266.5515, 44.62513
267.0336, 44.37617
267.5157, 45.07180
267.9979, 46.04194
268.4800, 46.26903
268.9621, 45.33965
269.4442, 44.52397
269.9263, 43.57258
270.4084, 42.88635
270.8906, 42.97649
271.3727, 43.77314
271.8548, 44.55620
272.3369, 44.34904
272.8190, 42.57149
273.3011, 41.77844
273.7833, 42.61074
274.2654, 43.68695
274.7475, 44.26825
275.2296, 44.31819
275.7117, 44.20886
276.1938, 44.33057
276.6760, 44.78042
277.1581, 44.83730
277.6402, 44.27100
278.1223, 43.62349
278.6044, 42.95070
279.0865, 42.37925
279.5686, 42.22060
280.0508, 42.79383
280.5329, 44.12246
281.0150, 44.96751
281.4971, 44.75875
281.9792, 44.74672
282.4613, 45.87733
282.9435, 47.61116
283.4256, 48.56705
283.9077, 47.74886
284.3898, 45.41968
284.8719, 44.00069
285.3540, 44.22239
285.8362, 44.37086
286.3183, 43.87447
286.8004, 43.00808
287.2825, 42.28930
287.7646, 41.98565
288.2467, 42.00448
288.7289, 42.02795
289.2110, 42.18774
289.6931, 42.19373
290.1752, 42.00274
290.6573, 41.63035
291.1394, 41.00574
291.6216, 40.08003
292.1037, 39.11264
292.5858, 38.67088
293.0679, 39.15348
293.5500, 39.39472
294.0321, 38.90916
294.5143, 38.28796
294.9964, 38.31366
295.4785, 39.19316
295.9606, 40.31326
296.4427, 40.80705
296.9248, 40.44469
297.4070, 40.07367
297.8891, 39.66015
298.3712, 39.28532
298.8533, 39.04936
299.3354, 38.95964
299.8175, 38.89268
300.2997, 38.69534
300.7818, 38.32802
301.2639, 38.20353
301.7460, 38.55872
302.2281, 38.96625
302.7102, 39.13580
303.1924, 39.06561
303.6745, 38.90703
304.1566, 38.72317
304.6387, 38.54167
305.1208, 38.65738
305.6029, 39.53279
306.0851, 40.23339
306.5672, 40.11469
307.0493, 39.39044
307.5314, 38.79160
308.0135, 38.76258
308.4956, 39.14833
308.9778, 39.26535
309.4599, 39.07286
309.9420, 38.72570
310.4241, 38.09351
310.9062, 37.35395
311.3883, 36.87194
311.8705, 36.81159
312.3526, 37.04038
312.8347, 37.25864
313.3168, 37.31658
313.7989, 37.69496
314.2810, 39.12292
314.7632, 40.70626
315.2453, 41.09556
315.7274, 39.88351
316.2095, 38.05666
316.6916, 36.92743
317.1737, 36.65965
317.6559, 36.39051
318.1380, 35.90631
318.6201, 35.48024
319.1022, 35.46910
319.5843, 35.89097
320.0664, 36.29500
320.5485, 36.18737
321.0306, 35.51764
321.5128, 35.33397
321.9949, 36.08175
322.4770, 36.92357
322.9591, 37.31941
323.4412, 37.30523
323.9233, 37.24368
324.4055, 37.42493
324.8876, 37.75060
325.3697, 37.55260
325.8518, 36.17918
326.3339, 35.06820
326.8160, 34.88616
327.2982, 35.35799
327.7803, 35.87471
328.2624, 36.15394
328.7445, 36.31755
329.2266, 36.72451
329.7087, 37.64962
330.1909, 38.29570
330.6730, 38.44500
331.1551, 38.25675
331.6372, 37.90762
332.1193, 37.44764
332.6014, 36.88440
333.0836, 36.16093
333.5657, 35.06423
334.0478, 34.53289
334.5299, 35.06818
335.0120, 35.87430
335.4941, 36.41309
335.9763, 36.57744
336.4584, 36.35169
336.9405, 35.63554
337.4226, 34.36038
337.9047, 33.50033
338.3868, 33.05179
338.8690, 32.95310
339.3511, 33.35462
339.8332, 34.10883
340.3153, 34.81792
340.7974, 35.23005
341.2795, 35.38822
341.7617, 35.55204
342.2438, 35.77956
342.7259, 35.94460
343.2080, 36.21920
343.6901, 36.36657
344.1722, 35.85936
344.6544, 34.46013
345.1365, 32.75177
345.6186, 31.95498
346.1007, 32.81058
346.5828, 33.53431
347.0649, 34.14040
347.5471, 34.59495
348.0292, 34.83183
348.5113, 34.85298
348.9934, 34.76929
349.4755, 34.73009
349.9576, 34.81063
350.4398, 34.58181
350.9219, 33.68914
351.4040, 32.85649
351.8861, 32.50399
352.3682, 32.56498
352.8503, 32.72802
353.3325, 32.76005
353.8146, 32.67370
354.2967, 32.67389
354.7788, 32.84969
355.2609, 33.00925
355.7430, 33.09594
356.2252, 33.14622
356.7073, 33.26347
357.1894, 33.50010
357.6715, 33.71925
358.1536, 33.52974
358.6357, 32.15131
359.1179, 31.59456
359.5999, 32.63464
360.0821, 34.00964
360.5642, 34.70130
361.0463, 34.51259
361.5284, 33.90759
362.0105, 33.44582
362.4926, 33.16991
362.9748, 32.87488
363.4569, 32.51399
363.9390, 32.17938
364.4211, 31.74653
364.9032, 31.35522
365.3853, 31.40534
365.8675, 32.33017
366.3496, 33.96281
366.8317, 34.66582
367.3138, 33.56621
367.7959, 32.59546
368.2780, 32.26637
368.7602, 32.26706
369.2423, 32.19304
369.7244, 31.86848
370.2065, 31.42769
370.6886, 31.14035
371.1707, 31.07009
371.6529, 30.99754
372.1350, 30.75291
372.6171, 30.59250
373.0992, 30.77053
373.5813, 31.28126
374.0634, 31.81163
374.5456, 32.07513
375.0277, 32.06963
375.5098, 31.86050
375.9919, 31.54677
376.4740, 30.87542
376.9561, 29.14872
377.4383, 26.98186
377.9204, 25.82473
378.4025, 26.89607
378.8846, 29.31759
379.3667, 30.55540
379.8488, 30.16227
380.3310, 29.73422
380.8131, 30.21466
381.2952, 30.85991
381.7773, 30.77689
382.2594, 29.60754
382.7415, 28.29664
383.2237, 27.94438
383.7058, 28.54333
384.1879, 29.13573
384.6700, 29.46598
385.1521, 29.75077
385.6342, 30.24539
386.1164, 30.92594
386.5985, 31.48807
387.0806, 31.74545
387.5627, 31.76065
388.0448, 31.66934
388.5269, 31.47066
389.0091, 31.20491
389.4912, 30.92847
389.9733, 30.60464
390.4554, 30.11505
390.9375, 29.14050
391.4196, 28.26256
391.9018, 28.17941
392.3839, 28.79627
392.8660, 29.19876
393.3481, 28.82026
393.8302, 28.16195
394.3123, 28.29660
394.7945, 29.53454
395.2766, 30.48729
395.7587, 30.48104
396.2408, 29.86780
396.7229, 29.14170
397.2050, 28.37707
397.6872, 27.77132
398.1693, 27.57562
398.6514, 27.83340
399.1335, 28.09899
399.6156, 28.39582
400.0977, 28.66314
400.5798, 28.78537
401.0620, 28.81468
401.5441, 29.02447
402.0262, 29.65928
402.5083, 30.54968
402.9904, 30.79939
403.4725, 29.75110
403.9547, 28.97759
404.4368, 29.20990
404.9189, 29.71342
405.4010, 29.28991
405.8831, 27.62661
406.3652, 25.86261
406.8474, 25.79518
407.3295, 28.42608
407.8116, 29.84044
408.2937, 29.18902
408.7758, 28.22677
409.2579, 28.00424
409.7401, 28.38589
410.2222, 28.54374
410.7043, 27.77700
411.1864, 26.28380
411.6685, 25.80186
412.1506, 27.63515
412.6328, 28.90536
413.1149, 28.71716
413.5970, 27.97307
414.0791, 27.75848
414.5612, 28.42651
415.0433, 29.35773
415.5255, 29.50690
416.0076, 28.55097
416.4897, 27.93269
416.9718, 28.11262
417.4539, 28.33333
417.9360, 28.14548
418.4182, 27.65531
418.9003, 27.33623
419.3824, 27.68851
419.8645, 28.46896
420.3466, 28.45411
420.8287, 27.06603
421.3109, 26.09749
421.7930, 26.74339
422.2751, 27.97291
422.7572, 28.64037
423.2393, 28.39518
423.7214, 27.72712
424.2036, 26.90732
424.6857, 25.96632
425.1678, 25.71820
425.6499, 26.73792
426.1320, 28.02234
426.6141, 28.60753
427.0963, 28.57294
427.5784, 28.52817
428.0605, 28.91683
428.5426, 29.37433
429.0247, 29.22522
429.5068, 28.39691
429.9890, 27.60692
430.4711, 27.32661
430.9532, 27.43084
431.4353, 27.42555
431.9174, 27.12046
432.3995, 26.98648
432.8817, 27.76471
433.3638, 28.83687
433.8459, 28.55016
434.3280, 26.21511
434.8101, 23.56508
435.2922, 23.21245
435.7744, 25.99911
436.2565, 27.68558
436.7386, 27.40884
437.2207, 26.56878
437.7028, 25.96025
438.1849, 25.66473
438.6671, 25.57540
439.1492, 25.62384
439.6313, 25.81466
440.1134, 26.17790
440.5955, 27.01182
441.0776, 27.65075
441.5598, 28.04032
442.0418, 28.19074
442.5240, 28.03703
443.0061, 27.59565
443.4882, 27.05654
443.9703, 26.63479
444.4524, 26.29300
444.9345, 26.24373
445.4167, 26.83189
445.8988, 27.37528
446.3809, 27.63032
446.8630, 27.65816
447.3451, 27.60122
447.8272, 27.52480
448.3094, 27.44707
448.7915, 27.41891
449.2736, 27.45773
449.7557, 27.49594
450.2378, 27.36661
450.7199, 27.33258
451.2021, 27.79333
451.6842, 28.72824
452.1663, 29.35466
452.6484, 28.68493
453.1305, 27.10111
453.6126, 26.42356
454.0948, 27.09539
454.5769, 27.88381
455.0590, 27.83779
455.5411, 27.34629
456.0232, 27.10003
456.5053, 27.48042
456.9875, 27.83012
457.4696, 27.41213
457.9517, 26.42254
458.4338, 25.73761
458.9159, 25.63154
459.3980, 25.98398
459.8802, 26.80344
460.3623, 28.16708
460.8444, 29.16546
461.3265, 29.63345
461.8086, 29.66623
462.2907, 29.10996
462.7729, 28.09359
463.2550, 27.26446
463.7371, 27.08290
464.2192, 27.43883
464.7013, 27.69570
465.1834, 27.58790
465.6656, 27.72436
466.1477, 28.60517
466.6298, 29.56770
467.1119, 29.81147
467.5940, 29.19454
468.0761, 28.25933
468.5583, 27.63090
469.0404, 27.33113
469.5225, 27.17269
470.0046, 27.39875
470.4867, 27.51404
470.9688, 27.16453
471.4510, 26.64589
471.9331, 26.44641
472.4152, 26.80628
472.8973, 27.53150
473.3794, 28.38504
473.8615, 29.52012
474.3437, 30.11847
474.8258, 29.46758
475.3079, 28.67321
475.7900, 28.48816
476.2721, 28.84295
476.7542, 29.12475
477.2364, 28.82759
477.7185, 28.22232
478.2006, 27.96912
478.6827, 28.13430
479.1648, 28.25851
479.6469, 27.93230
480.1291, 27.50858
480.6112, 27.67979
481.0933, 28.74366
481.5754, 29.64643
482.0575, 29.78756
482.5396, 29.42104
483.0217, 28.95662
483.5038, 28.46683
483.9860, 28.03694
484.4681, 27.76278
484.9502, 27.65326
485.4323, 27.49993
485.9144, 27.21878
486.3965, 26.98551
486.8787, 27.05341
487.3608, 27.18754
487.8429, 26.76167
488.3250, 25.52643
488.8071, 24.25520
489.2892, 24.41847
489.7714, 26.90708
490.2535, 28.66070
490.7356, 29.68125
491.2177, 30.09856
491.6998, 29.63146
492.1819, 28.60985
492.6641, 27.73362
493.1462, 27.45757
493.6283, 27.59999
494.1104, 27.65715
494.5925, 27.64563
495.0746, 27.50304
495.5568, 26.90712
496.0389, 26.39125
496.5210, 26.49201
497.0031, 27.18082
497.4852, 27.73649
497.9673, 27.47004
498.4495, 26.69635
498.9316, 26.34746
499.4137, 26.55351
499.8958, 26.70617
500.3779, 26.32093
500.8600, 25.69556
501.3422, 25.42882
501.8243, 25.58115
502.3064, 25.28456
502.7885, 26.26431
503.2706, 26.83725
503.7527, 27.02515
504.2349, 25.68070
504.7170, 26.31045
505.1991, 26.14625
505.6812, 25.94761
506.1633, 26.84957
506.6454, 25.71781
507.1276, 26.59835
507.6097, 26.67285
508.0918, 27.11336
508.5739, 26.75505
509.0560, 26.64088
509.5381, 27.32185
510.0203, 27.55948
510.5024, 27.10153
510.9845, 27.55359
511.4666, 26.37425
511.9487, 26.62278
512.4308, 27.48624
512.9130, 27.05848
513.3951, 27.51523
513.8772, 27.63238
514.3593, 26.21321
514.8414, 27.46045
515.3235, 27.55173
515.8057, 26.45613
516.2878, 27.60601
516.7699, 26.66981
517.2520, 26.47554
517.7341, 26.83912
518.2162, 26.61713
518.6984, 27.31327
519.1805, 27.54412
519.6626, 27.72969
520.1447, 27.37269
520.6268, 26.89461
521.1089, 26.42202
521.5911, 26.03404
522.0732, 25.97586
522.5553, 26.38448
523.0374, 26.65651
523.5195, 26.53797
524.0016, 26.34898
524.4838, 26.48648
524.9659, 26.87849
525.4480, 26.98904
525.9301, 26.35089
526.4122, 25.22358
526.8943, 24.99130
527.3765, 26.87176
527.8586, 27.89853
528.3407, 27.15998
528.8228, 25.98158
529.3049, 25.42497
529.7870, 25.60129
530.2692, 25.97348
530.7513, 26.12200
531.2334, 26.06691
531.7155, 25.85262
532.1976, 25.27057
532.6797, 25.02121
533.1619, 25.78815
533.6440, 26.85111
534.1261, 27.49299
534.6082, 27.58195
535.0903, 27.46441
535.5724, 27.26063
536.0546, 27.03272
536.5367, 26.95363
537.0188, 27.05858
537.5009, 27.08750
537.9830, 26.72225
538.4651, 26.12408
538.9473, 26.15591
539.4294, 27.64436
539.9115, 28.66496
540.3936, 28.28292
540.8757, 27.32966
541.3578, 26.71488
541.8400, 26.66496
542.3221, 27.12123
542.8042, 28.16265
543.2863, 29.81420
543.7684, 30.48817
544.2505, 29.07714
544.7326, 27.98538
545.2147, 27.82106
545.6968, 28.12410
546.1790, 28.39181
546.6611, 28.49244
547.1432, 28.60514
547.6253, 29.03088
548.1074, 29.71686
548.5895, 29.99609
549.0717, 29.70874
549.5538, 29.30355
550.0359, 29.13805
550.5180, 29.00046
551.0001, 28.45472
551.4822, 27.13042
551.9644, 26.13485
552.4465, 26.44301
552.9286, 27.51780
553.4107, 28.32808
553.8928, 28.67715
554.3749, 28.64778
554.8571, 28.26889
555.3392, 27.54530
555.8213, 26.78276
556.3034, 25.75424
556.7855, 24.96625
557.2676, 24.57051
557.7498, 24.47063
558.2319, 24.66639
558.7140, 25.10124
559.1961, 25.48849
559.6782, 25.48391
560.1603, 25.08227
560.6425, 24.79132
561.1246, 24.67892
561.6067, 24.58601
562.0888, 24.31357
562.5709, 24.10217
563.0530, 24.37387
563.5352, 25.25313
564.0173, 25.94093
564.4994, 25.46395
564.9815, 24.23486
565.4636, 23.67758
565.9457, 24.02115
566.4279, 24.52687
566.9100, 24.69449
567.3921, 24.64334
567.8742, 24.83163
568.3563, 25.58085
568.8384, 26.03488
569.3206, 25.60655
569.8027, 24.87426
570.2848, 24.54058
570.7669, 24.70234
571.2490, 25.06845
571.7311, 25.42366
572.2133, 25.74889
572.6954, 25.82131
573.1775, 25.56805
573.6596, 25.13838
574.1417, 24.27375
574.6238, 23.43255
575.1060, 23.07810
575.5881, 23.21726
576.0702, 23.42423
576.5523, 23.22447
577.0344, 22.81869
577.5165, 23.07662
577.9987, 24.19214
578.4808, 25.11871
578.9629, 25.35536
579.4450, 25.18353
579.9271, 24.95569
580.4092, 24.64282
580.8914, 24.52193
581.3735, 25.06164
581.8556, 25.61860
582.3377, 25.22410
582.8198, 24.02707
583.3019, 23.18772
583.7841, 23.41821
584.2662, 24.34805
584.7483, 24.97043
585.2304, 25.30630
585.7125, 25.26054
586.1946, 24.20781
586.6768, 23.34746
587.1589, 23.68292
587.6410, 24.85463
588.1231, 25.78506
588.6052, 25.83337
589.0873, 25.34083
589.5695, 24.97165
590.0516, 24.73026
