##NAMES=Bismuth
##RRUFFID=R050650
##IDEAL CHEMISTRY=Bi
##LOCALITY=Wolfram Camp, Queensland, Australia
##OWNER=RRUFF
##SOURCE=University of Arizona Mineral Museum
##DESCRIPTION=Gray metallic fragment
##STATUS=The identification of this mineral has been confirmed by X-ray diffraction and chemical analysis
##URL=rruff.info/R050650
##MEASURED CHEMISTRY=Bi
89.78156, 0.0000000E+00
90.26367, 13.34114
90.74579, 13.35550
91.22791, 13.31571
91.71002, 13.23436
92.19214, 13.22655
92.67426, 13.33291
93.15638, 13.57914
93.63850, 14.04424
94.12061, 14.96829
94.60273, 16.07663
95.08485, 16.78574
95.56696, 17.09386
96.04908, 16.97246
96.53120, 15.93461
97.01331, 14.07222
97.49543, 12.88667
97.97755, 13.65811
98.45966, 16.20955
98.94178, 17.14034
99.42390, 16.02035
99.90602, 13.86419
100.3881, 12.53060
100.8703, 12.12834
101.3524, 12.15607
101.8345, 12.45386
102.3166, 13.12603
102.7987, 13.59400
103.2808, 13.74197
103.7630, 13.65891
104.2451, 13.74850
104.7272, 14.14233
105.2093, 14.53608
105.6914, 14.74711
106.1735, 14.78381
106.6557, 14.60031
107.1378, 13.96349
107.6199, 12.83384
108.1020, 12.47635
108.5841, 13.77119
109.0662, 15.37448
109.5484, 16.09765
110.0305, 14.80693
110.5126, 13.77057
110.9947, 13.60952
111.4768, 14.67527
111.9590, 15.00284
112.4411, 13.40565
112.9232, 11.21588
113.4053, 10.19350
113.8874, 12.03396
114.3695, 13.95626
114.8517, 14.79694
115.3338, 13.94493
115.8159, 13.22058
116.2980, 13.29098
116.7801, 13.86779
117.2622, 14.31728
117.7444, 13.72325
118.2265, 13.32598
118.7086, 14.07049
119.1907, 16.96129
119.6728, 19.81336
120.1549, 21.25418
120.6371, 21.56362
121.1192, 21.87783
121.6013, 22.97269
122.0834, 24.37732
122.5655, 25.55805
123.0476, 26.21648
123.5298, 26.70687
124.0119, 27.25954
124.4940, 27.88288
124.9761, 28.69902
125.4582, 30.06706
125.9404, 31.68998
126.4225, 32.97087
126.9046, 33.32499
127.3867, 33.30285
127.8688, 33.92270
128.3509, 35.25151
128.8331, 36.56962
129.3152, 36.73130
129.7973, 36.02480
130.2794, 35.88300
130.7615, 37.40718
131.2436, 40.08364
131.7258, 42.17535
132.2079, 43.59899
132.6900, 44.49173
133.1721, 44.67918
133.6542, 44.14627
134.1364, 44.17764
134.6185, 45.73468
135.1006, 48.76328
135.5827, 51.58037
136.0648, 54.10264
136.5469, 56.33692
137.0291, 58.31059
137.5112, 60.01785
137.9933, 61.43125
138.4754, 62.55151
138.9575, 63.37103
139.4396, 63.88829
139.9218, 64.10645
140.4039, 64.02028
140.8860, 63.46859
141.3681, 62.15398
141.8502, 60.90979
142.3323, 60.51147
142.8145, 61.38031
143.2966, 61.96395
143.7787, 61.81776
144.2608, 60.96486
144.7429, 60.92945
145.2250, 62.21136
145.7072, 63.86364
146.1893, 64.98841
146.6714, 65.28408
147.1535, 65.49580
147.6356, 65.68544
148.1178, 65.80431
148.5999, 66.22188
149.0820, 67.05947
149.5641, 68.14471
150.0462, 69.27110
150.5283, 70.55180
151.0105, 71.74660
151.4926, 72.17449
151.9747, 72.43476
152.4568, 72.46765
152.9389, 72.01010
153.4210, 71.39518
153.9032, 71.08347
154.3853, 71.78191
154.8674, 72.21231
155.3495, 71.84510
155.8316, 70.10024
156.3137, 68.84868
156.7959, 68.76623
157.2780, 69.32915
157.7601, 69.55447
158.2422, 68.68797
158.7243, 67.83313
159.2065, 67.55741
159.6886, 68.30872
160.1707, 68.98996
160.6528, 69.17030
161.1349, 69.02711
161.6170, 69.03003
162.0992, 69.59753
162.5813, 70.21364
163.0634, 70.53117
163.5455, 70.33695
164.0276, 70.02393
164.5097, 69.60647
164.9919, 69.16145
165.4740, 68.99509
165.9561, 69.54678
166.4382, 70.31118
166.9203, 70.83501
167.4024, 70.85422
167.8846, 70.74206
168.3667, 70.55434
168.8488, 70.34708
169.3309, 70.49617
169.8130, 71.89884
170.2952, 73.60432
170.7773, 74.40207
171.2594, 73.05711
171.7415, 71.29662
172.2236, 70.57796
172.7057, 70.84957
173.1879, 71.40310
173.6700, 71.78515
174.1521, 72.08596
174.6342, 72.45963
175.1163, 73.02273
175.5984, 73.66259
176.0806, 74.37973
176.5627, 75.18393
177.0448, 75.65659
177.5269, 75.02790
178.0090, 73.75269
178.4911, 72.89628
178.9733, 73.30630
179.4554, 74.29661
179.9375, 74.77004
180.4196, 74.67981
180.9017, 74.37833
181.3838, 74.13894
181.8660, 73.97131
182.3481, 73.90132
182.8302, 74.01244
183.3123, 74.22592
183.7944, 74.40345
184.2766, 74.56614
184.7587, 74.58237
185.2408, 74.32155
185.7229, 73.78809
186.2050, 72.97923
186.6871, 71.63593
187.1693, 69.96223
187.6514, 68.85033
188.1335, 68.39812
188.6156, 68.22896
189.0977, 67.73943
189.5798, 66.95383
190.0620, 66.31753
190.5441, 66.29557
191.0262, 66.73080
191.5083, 66.51878
191.9904, 65.48237
192.4725, 64.05004
192.9547, 62.87143
193.4368, 61.93742
193.9189, 61.20821
194.4010, 60.72093
194.8831, 60.46070
195.3652, 60.19623
195.8474, 59.91835
196.3295, 59.62157
196.8116, 59.26622
197.2937, 58.84150
197.7758, 58.46973
198.2579, 58.32903
198.7401, 58.43132
199.2222, 58.14932
199.7043, 57.30856
200.1864, 56.21297
200.6685, 55.57557
201.1507, 55.46361
201.6328, 55.50902
202.1149, 55.65717
202.5970, 55.97718
203.0791, 55.57510
203.5612, 54.07543
204.0434, 52.04464
204.5255, 51.13726
205.0076, 51.59216
205.4897, 52.34314
205.9718, 52.83942
206.4539, 53.10601
206.9361, 52.90329
207.4182, 51.97036
207.9003, 50.66497
208.3824, 50.18740
208.8645, 50.76740
209.3466, 51.57368
209.8288, 52.22815
210.3109, 52.83747
210.7930, 52.73152
211.2751, 51.45897
211.7572, 49.52936
212.2393, 48.97595
212.7215, 50.39173
213.2036, 51.88959
213.6857, 52.13758
214.1678, 50.63805
214.6499, 49.57937
215.1320, 49.21393
215.6142, 49.41842
216.0963, 49.72797
216.5784, 50.27974
217.0605, 50.67712
217.5426, 50.59593
218.0247, 49.81496
218.5069, 49.20496
218.9890, 48.82006
219.4711, 48.66547
219.9532, 48.82551
220.4353, 49.55263
220.9175, 50.18385
221.3996, 50.23762
221.8817, 49.40252
222.3638, 48.80622
222.8459, 48.59086
223.3280, 48.69918
223.8102, 48.87453
224.2923, 49.19304
224.7744, 49.46659
225.2565, 49.55322
225.7386, 49.34416
226.2207, 49.22043
226.7029, 49.28131
227.1850, 49.46343
227.6671, 49.45163
228.1492, 49.27443
228.6313, 48.86433
229.1134, 48.06707
229.5956, 46.36703
230.0777, 45.46822
230.5598, 45.85200
231.0419, 47.18390
231.5240, 47.75275
232.0062, 47.04310
232.4883, 46.27361
232.9704, 46.24303
233.4525, 47.46568
233.9346, 48.29582
234.4167, 48.56666
234.8989, 48.34591
235.3810, 47.89875
235.8631, 46.96688
236.3452, 46.14010
236.8273, 45.79171
237.3094, 46.23379
237.7916, 46.46222
238.2737, 46.29719
238.7558, 45.86918
239.2379, 45.78766
239.7200, 46.46495
240.2021, 46.93061
240.6843, 46.52774
241.1664, 44.43743
241.6485, 43.31991
242.1306, 43.70807
242.6127, 45.15111
243.0948, 45.90898
243.5770, 45.67512
244.0591, 45.18451
244.5412, 44.81130
245.0233, 44.64575
245.5054, 44.36971
245.9876, 43.81313
246.4697, 43.16248
246.9518, 43.04444
247.4339, 43.78400
247.9160, 44.57252
248.3981, 45.01637
248.8803, 45.00204
249.3624, 44.90776
249.8445, 44.66291
250.3266, 44.36152
250.8087, 44.31055
251.2908, 44.75867
251.7730, 45.05486
252.2551, 44.82514
252.7372, 43.68642
253.2193, 43.01768
253.7014, 42.96762
254.1835, 43.32528
254.6657, 43.60697
255.1478, 43.72623
255.6299, 43.92445
256.1120, 44.38079
256.5941, 45.31840
257.0763, 45.75614
257.5584, 45.49798
258.0405, 44.86881
258.5226, 44.58092
259.0047, 44.91607
259.4868, 45.00130
259.9690, 44.36037
260.4511, 42.69570
260.9332, 41.68615
261.4153, 41.46010
261.8974, 41.76376
262.3795, 42.27045
262.8617, 43.20150
263.3438, 43.79891
263.8259, 43.61275
264.3080, 42.42149
264.7901, 42.17001
265.2722, 43.30610
265.7544, 44.84914
266.2365, 45.27556
266.7186, 44.22264
267.2007, 43.16433
267.6828, 42.55107
268.1649, 42.39801
268.6471, 42.33712
269.1292, 42.40618
269.6113, 42.50656
270.0934, 42.46770
270.5755, 42.20530
271.0576, 42.13851
271.5398, 42.45643
272.0219, 43.14551
272.5040, 43.59862
272.9861, 43.75186
273.4682, 43.79774
273.9503, 43.97240
274.4325, 44.32445
274.9146, 44.53195
275.3967, 44.53947
275.8788, 44.34267
276.3610, 43.76320
276.8431, 42.62490
277.3252, 41.65482
277.8073, 41.76965
278.2894, 43.10616
278.7715, 43.88618
279.2537, 43.49265
279.7358, 42.33747
280.2179, 42.41762
280.7000, 44.04512
281.1821, 45.50397
281.6642, 45.00392
282.1464, 42.52875
282.6285, 41.00028
283.1106, 41.13434
283.5927, 42.30713
284.0748, 42.86468
284.5569, 42.76522
285.0391, 42.42876
285.5212, 41.96883
286.0033, 41.42774
286.4854, 41.42856
286.9675, 42.26516
287.4496, 43.34586
287.9318, 43.33631
288.4139, 42.21763
288.8960, 41.05972
289.3781, 40.47238
289.8602, 40.38044
290.3423, 40.44294
290.8245, 40.67174
291.3066, 40.94415
291.7887, 40.97691
292.2708, 40.80946
292.7529, 40.81506
293.2350, 41.45569
293.7172, 42.44743
294.1993, 42.84886
294.6814, 42.56270
295.1635, 41.95433
295.6456, 41.30508
296.1277, 40.66832
296.6099, 40.28849
297.0920, 40.46150
297.5741, 40.93430
298.0562, 41.21075
298.5383, 41.27247
299.0204, 41.25793
299.5026, 41.28720
299.9847, 41.34610
300.4668, 41.39844
300.9489, 41.44304
301.4311, 41.46607
301.9132, 41.35747
302.3953, 41.12837
302.8774, 41.07861
303.3595, 41.80446
303.8416, 42.82758
304.3238, 43.29408
304.8059, 42.60315
305.2880, 41.55316
305.7701, 40.89654
306.2522, 40.59534
306.7343, 40.45875
307.2165, 40.47663
307.6986, 40.54295
308.1807, 40.51365
308.6628, 40.29437
309.1449, 40.06580
309.6270, 39.95337
310.1092, 39.94152
310.5913, 39.98498
311.0734, 39.87562
311.5555, 39.90751
312.0376, 40.48460
312.5197, 42.00670
313.0019, 43.18348
313.4840, 43.05469
313.9661, 42.07441
314.4482, 41.17421
314.9303, 40.83986
315.4124, 40.64638
315.8946, 40.25758
316.3767, 39.53266
316.8588, 39.13126
317.3409, 39.66751
317.8230, 40.59338
318.3051, 41.18425
318.7873, 40.89029
319.2694, 40.51228
319.7515, 40.39594
320.2336, 40.58057
320.7157, 40.74284
321.1978, 40.79865
321.6800, 40.78761
322.1621, 40.74477
322.6442, 40.64547
323.1263, 40.54705
323.6084, 40.51592
324.0905, 40.53805
324.5727, 40.40061
325.0548, 39.64730
325.5369, 38.99947
326.0190, 38.89561
326.5012, 39.92572
326.9833, 40.85451
327.4654, 41.73463
327.9475, 42.48193
328.4296, 42.74059
328.9117, 41.99642
329.3939, 41.21707
329.8760, 40.81840
330.3581, 41.21406
330.8402, 41.20203
331.3223, 40.37351
331.8044, 39.24829
332.2866, 38.93648
332.7687, 40.04551
333.2508, 41.08441
333.7329, 41.61427
334.2150, 41.59074
334.6971, 41.21441
335.1793, 40.26348
335.6614, 39.16932
336.1435, 38.48964
336.6256, 38.27380
337.1077, 38.34277
337.5898, 38.73433
338.0720, 39.43086
338.5541, 39.98790
339.0362, 40.43068
339.5183, 40.69337
340.0004, 40.59172
340.4825, 40.02689
340.9647, 39.86846
341.4468, 40.50456
341.9289, 41.52019
342.4110, 41.34733
342.8931, 39.80512
343.3752, 38.26756
343.8574, 37.76186
344.3395, 38.22206
344.8216, 38.72079
345.3037, 39.19775
345.7858, 39.61104
346.2679, 39.92264
346.7501, 40.12910
347.2322, 40.14211
347.7143, 39.75382
348.1964, 39.12352
348.6785, 38.79578
349.1607, 38.81843
349.6428, 38.95712
350.1249, 38.99509
350.6070, 38.93896
351.0891, 38.80389
351.5713, 38.46876
352.0534, 38.12241
352.5355, 38.10828
353.0176, 38.41481
353.4997, 38.72374
353.9818, 38.78910
354.4640, 38.69394
354.9461, 38.55793
355.4282, 38.38124
355.9103, 38.22145
356.3924, 38.06610
356.8745, 37.95021
357.3567, 38.01249
357.8388, 38.62358
358.3209, 39.28395
358.8030, 39.51028
359.2851, 39.05971
359.7672, 38.59309
360.2494, 38.48162
360.7315, 38.59896
361.2136, 38.71262
361.6957, 38.77495
362.1778, 38.77972
362.6599, 38.65055
363.1421, 38.33966
363.6242, 38.24572
364.1063, 38.85553
364.5884, 39.59302
365.0705, 39.86408
365.5526, 38.86584
366.0348, 38.10457
366.5169, 38.07265
366.9990, 38.72313
367.4811, 39.15504
367.9632, 39.42150
368.4453, 39.35203
368.9275, 38.82986
369.4096, 37.14831
369.8917, 35.99706
370.3738, 35.55893
370.8559, 35.66332
371.3380, 35.84549
371.8202, 36.11139
372.3023, 36.45580
372.7844, 36.98249
373.2665, 37.90767
373.7487, 38.08681
374.2308, 37.24348
374.7129, 35.93291
375.1950, 34.73271
375.6771, 33.41313
376.1592, 33.00192
376.6414, 34.16994
377.1235, 36.65880
377.6056, 37.71598
378.0877, 37.01623
378.5698, 35.98481
379.0519, 36.07119
379.5341, 37.28572
380.0162, 37.75795
380.4983, 36.91566
380.9804, 35.46245
381.4625, 35.11965
381.9446, 35.85985
382.4268, 36.68705
382.9089, 36.89035
383.3910, 36.68549
383.8731, 36.86011
384.3552, 37.54409
384.8373, 38.26449
385.3195, 38.44566
385.8016, 38.20521
386.2837, 37.89025
386.7658, 37.66547
387.2479, 37.44784
387.7300, 37.14586
388.2122, 36.75902
388.6943, 36.26688
389.1764, 35.28526
389.6585, 34.31181
390.1406, 34.07169
390.6227, 35.29866
391.1049, 36.53868
391.5870, 36.58040
392.0691, 35.80669
392.5512, 35.37098
393.0333, 36.40493
393.5154, 37.52703
393.9976, 37.75851
394.4797, 36.69307
394.9618, 35.68630
395.4439, 35.15929
395.9260, 34.94159
396.4081, 34.80708
396.8903, 34.63911
397.3724, 34.61579
397.8545, 34.88946
398.3366, 35.47965
398.8188, 35.84015
399.3009, 35.65460
399.7830, 35.41341
400.2651, 35.43447
400.7472, 36.01080
401.2293, 36.40571
401.7115, 36.50895
402.1936, 36.41549
402.6757, 36.46533
403.1578, 36.93371
403.6399, 37.05919
404.1220, 36.27913
404.6042, 34.23597
405.0863, 33.47765
405.5684, 34.40828
406.0505, 35.98378
406.5326, 36.85540
407.0147, 36.94761
407.4969, 36.93210
407.9790, 37.04379
408.4611, 37.17690
408.9432, 36.73485
409.4253, 35.65076
409.9074, 34.72003
410.3896, 34.79908
410.8717, 35.62798
411.3538, 35.94052
411.8359, 35.37189
412.3180, 34.67665
412.8001, 35.24002
413.2823, 36.70762
413.7644, 37.69918
414.2465, 36.84701
414.7286, 35.37638
415.2107, 35.07161
415.6928, 36.04704
416.1750, 37.05954
416.6571, 37.11207
417.1392, 36.63921
417.6213, 36.23632
418.1034, 36.28592
418.5855, 36.26218
419.0677, 35.58537
419.5498, 34.49908
420.0319, 33.94270
420.5140, 34.89730
420.9961, 36.06698
421.4782, 36.66554
421.9604, 36.44939
422.4425, 36.02417
422.9246, 35.08563
423.4067, 34.13490
423.8889, 33.85018
424.3710, 35.20795
424.8531, 36.30865
425.3352, 36.59520
425.8173, 36.06446
426.2994, 35.89558
426.7816, 36.52391
427.2637, 37.07388
427.7458, 36.88020
428.2279, 35.38295
428.7100, 34.53859
429.1921, 34.69609
429.6743, 35.43179
430.1564, 35.73785
430.6385, 35.51433
431.1206, 35.25470
431.6027, 35.29063
432.0848, 35.58586
432.5670, 35.05518
433.0491, 33.47827
433.5312, 31.97520
434.0133, 31.97398
434.4954, 33.24411
434.9775, 34.23784
435.4597, 34.56789
435.9418, 34.43453
436.4239, 33.91444
436.9060, 33.11029
437.3881, 32.65111
437.8702, 33.32776
438.3524, 34.45664
438.8345, 34.96212
439.3166, 34.64353
439.7987, 34.30052
440.2808, 34.81417
440.7629, 35.67459
441.2451, 36.08260
441.7272, 35.19105
442.2093, 34.24453
442.6914, 33.89748
443.1735, 34.09668
443.6556, 34.43334
444.1378, 35.03798
444.6199, 35.54472
445.1020, 35.68437
445.5841, 35.15485
446.0662, 34.77575
446.5483, 34.74208
447.0305, 34.90626
447.5126, 35.02608
447.9947, 35.10848
448.4768, 35.12354
448.9590, 34.96483
449.4411, 34.62210
449.9232, 34.75133
450.4053, 35.69604
450.8874, 36.61869
451.3695, 36.78577
451.8517, 35.94081
452.3338, 35.53085
452.8159, 35.84713
453.2980, 36.47615
453.7801, 36.46759
454.2622, 35.76695
454.7444, 35.23948
455.2265, 35.49640
455.7086, 36.27559
456.1907, 36.34596
456.6728, 35.66075
457.1549, 34.87553
457.6371, 34.43852
458.1192, 34.36312
458.6013, 34.73836
459.0834, 35.76936
459.5655, 36.91358
460.0476, 37.69249
460.5298, 38.11910
461.0119, 38.19922
461.4940, 37.64396
461.9761, 36.95118
462.4582, 36.48430
462.9403, 36.27340
463.4225, 36.23267
463.9046, 36.31107
464.3867, 36.54584
464.8688, 36.96957
465.3509, 38.13969
465.8330, 38.88542
466.3152, 38.73663
466.7973, 37.92744
467.2794, 37.30377
467.7615, 36.97006
468.2436, 36.77216
468.7257, 36.67785
469.2079, 36.71033
469.6900, 36.72982
470.1721, 36.66509
470.6542, 36.66534
471.1363, 36.92412
471.6184, 37.52236
472.1006, 38.09004
472.5827, 38.66160
473.0648, 39.10040
473.5469, 38.80126
474.0291, 37.68760
474.5112, 36.73861
474.9933, 36.69224
475.4754, 37.31943
475.9575, 37.59690
476.4396, 37.45704
476.9218, 37.21476
477.4039, 37.21051
477.8860, 37.36137
478.3681, 37.46032
478.8502, 37.33326
479.3323, 37.26111
479.8145, 37.71124
480.2966, 38.50875
480.7787, 38.99555
481.2608, 38.60689
481.7429, 37.95577
482.2250, 37.40360
482.7072, 36.96827
483.1893, 36.77821
483.6714, 37.18831
484.1535, 37.72927
484.6356, 37.92882
485.1177, 37.31947
485.5999, 36.81719
486.0820, 36.71997
486.5641, 36.86901
487.0462, 36.59684
487.5283, 35.17298
488.0104, 34.32064
488.4926, 34.96029
488.9747, 37.46935
489.4568, 38.98006
489.9389, 39.29852
490.4210, 38.94494
490.9031, 38.38114
491.3853, 37.59027
491.8674, 36.78701
492.3495, 35.91494
492.8316, 35.18187
493.3137, 35.18993
493.7958, 35.87735
494.2780, 36.56178
494.7601, 36.75879
495.2422, 36.69964
495.7243, 36.89121
496.2064, 37.37288
496.6885, 37.70921
497.1707, 37.40520
497.6528, 36.79101
498.1349, 36.32995
498.6170, 36.27969
499.0992, 36.21948
499.5813, 35.77242
500.0634, 35.13342
500.5455, 34.77547
501.0276, 35.05433
501.5097, 35.46411
501.9919, 35.82787
502.4740, 36.13129
502.9561, 36.38696
503.4382, 36.59445
503.9203, 36.75882
504.4024, 36.89463
504.8846, 37.07084
505.3667, 37.05877
505.8488, 36.75202
506.3309, 36.30780
506.8130, 36.08620
507.2951, 36.13633
507.7773, 36.18870
508.2594, 36.11717
508.7415, 35.96056
509.2236, 36.01142
509.7057, 36.29534
510.1878, 36.46491
510.6700, 35.90929
511.1521, 34.99396
511.6342, 34.98409
512.1163, 36.31947
512.5984, 37.69773
513.0806, 37.54408
513.5627, 36.41837
514.0448, 35.49051
514.5269, 35.35791
515.0090, 35.52654
515.4911, 35.78764
515.9733, 36.10682
516.4554, 36.29211
516.9375, 35.98541
517.4196, 35.73162
517.9017, 35.91952
518.3839, 36.90327
518.8660, 37.56533
519.3481, 37.64762
519.8302, 37.40968
520.3123, 37.09706
520.7944, 36.60277
521.2766, 36.23396
521.7587, 36.09343
522.2408, 36.10661
522.7229, 35.94006
523.2050, 35.52699
523.6871, 35.18372
524.1693, 35.12688
524.6514, 35.32835
525.1335, 35.35987
525.6156, 35.18642
526.0977, 35.07527
526.5798, 35.47779
527.0620, 36.17769
527.5441, 36.48156
528.0262, 36.08838
528.5083, 35.52984
528.9904, 35.40869
529.4725, 35.57232
529.9547, 35.65136
530.4368, 35.40587
530.9189, 35.06165
531.4010, 34.66832
531.8831, 34.23609
532.3652, 34.07570
532.8474, 34.62263
533.3295, 35.23732
533.8116, 35.50454
534.2937, 35.08377
534.7758, 34.81013
535.2579, 34.73693
535.7401, 34.80488
536.2222, 34.94887
536.7043, 35.23922
537.1864, 35.44273
537.6685, 35.48016
538.1506, 35.39752
538.6328, 35.46601
539.1149, 35.73824
539.5970, 35.83767
540.0791, 35.43458
540.5612, 34.63877
541.0433, 33.84282
541.5255, 33.01502
542.0076, 32.64165
542.4897, 33.86525
542.9718, 35.81301
543.4539, 36.64648
543.9360, 35.33984
544.4182, 33.68554
544.9003, 32.97221
545.3824, 32.97807
545.8645, 33.21042
546.3466, 33.57258
546.8287, 34.02372
547.3109, 34.68896
547.7930, 35.57033
548.2751, 36.02122
548.7572, 35.52318
549.2393, 34.89451
549.7214, 34.61639
550.2036, 35.07725
550.6857, 34.93120
551.1678, 33.73903
551.6499, 32.38758
552.1320, 32.27254
552.6141, 33.61613
553.0963, 34.74822
553.5784, 35.30897
554.0605, 35.38966
554.5426, 35.08443
555.0247, 34.41674
555.5068, 33.80780
555.9890, 33.55756
556.4711, 33.52086
556.9532, 33.41048
557.4353, 33.21616
557.9174, 33.15320
558.3995, 33.60299
558.8817, 34.17261
559.3638, 34.41493
559.8459, 34.10499
560.3281, 33.69841
560.8102, 33.27202
561.2923, 32.88947
561.7744, 32.65468
562.2565, 32.65545
562.7386, 32.73598
563.2208, 32.96925
563.7029, 33.29738
564.1850, 33.26298
564.6671, 32.56881
565.1492, 32.04222
565.6313, 32.16938
566.1135, 33.01198
566.5956, 33.67257
567.0777, 34.14846
567.5598, 34.43500
568.0419, 34.40197
568.5240, 34.13346
569.0062, 34.13159
569.4883, 34.62754
569.9704, 35.10044
570.4525, 34.65884
570.9346, 33.64328
571.4167, 32.95179
571.8989, 33.32703
572.3810, 33.88129
572.8631, 34.07909
573.3452, 33.92491
573.8273, 33.54126
574.3094, 32.55746
574.7916, 31.68406
575.2737, 31.35636
575.7558, 31.82364
576.2379, 32.16720
576.7200, 32.24845
577.2021, 32.29100
577.6843, 32.52114
578.1664, 33.05122
578.6485, 33.42503
579.1306, 33.58208
579.6127, 33.57774
580.0948, 33.47152
580.5770, 33.26308
581.0591, 33.16543
581.5412, 33.37560
582.0233, 33.68959
582.5054, 33.56142
582.9875, 33.05436
583.4697, 32.63689
583.9518, 32.75324
584.4339, 33.06216
584.9160, 33.21975
585.3981, 33.18726
585.8802, 33.01310
586.3624, 32.41455
586.8445, 31.84248
587.3266, 31.71537
