##NAMES=Bismutite
##RRUFFID=R050634
##IDEAL CHEMISTRY=Bi_2_O_2_(CO_3_)
##LOCALITY=Outpost mine, Wickenburg, White Picacho District, Maricopa County, Arizona, USA
##OWNER=RRUFF
##SOURCE=University of Arizona Mineral Museum
##DESCRIPTION=Pale brown flattened spear-head shaped crystals
##STATUS=The identification of this mineral has been confirmed by single-crystal X-ray diffraction.
##URL=rruff.info/R050634
116.2704, 3059.775
116.7525, 3181.276
117.2346, 3285.149
117.7167, 3378.643
118.1988, 3485.386
118.6810, 3622.548
119.1631, 3776.515
119.6452, 3933.501
120.1273, 4100.606
120.6094, 4262.500
121.0915, 4407.069
121.5737, 4534.165
122.0558, 4657.835
122.5379, 4794.833
123.0200, 4934.857
123.5021, 5059.320
123.9842, 5155.066
124.4664, 5232.217
124.9485, 5300.048
125.4306, 5357.139
125.9127, 5412.599
126.3948, 5472.986
126.8769, 5539.270
127.3591, 5616.466
127.8412, 5717.377
128.3233, 5831.675
128.8054, 5932.894
129.2875, 6010.159
129.7696, 6068.070
130.2518, 6113.431
130.7339, 6152.224
131.2160, 6196.690
131.6981, 6250.512
132.1802, 6310.438
132.6623, 6352.967
133.1445, 6351.460
133.6266, 6317.475
134.1087, 6330.630
134.5908, 6395.369
135.0729, 6493.230
135.5550, 6605.168
136.0372, 6733.957
136.5193, 6849.566
137.0014, 6933.675
137.4835, 6983.119
137.9656, 7032.336
138.4477, 7084.433
138.9299, 7137.748
139.4120, 7189.638
139.8941, 7242.925
140.3762, 7289.631
140.8583, 7321.215
141.3404, 7329.265
141.8226, 7348.583
142.3047, 7388.480
142.7868, 7449.363
143.2689, 7505.286
143.7510, 7552.156
144.2331, 7597.530
144.7152, 7652.022
145.1974, 7725.691
145.6795, 7793.865
146.1616, 7850.023
146.6437, 7890.864
147.1258, 7926.341
147.6079, 7945.166
148.0901, 7958.987
148.5722, 7998.577
149.0543, 8089.183
149.5364, 8183.184
150.0185, 8259.265
150.5006, 8305.790
150.9828, 8348.093
151.4649, 8381.444
151.9470, 8407.334
152.4291, 8443.851
152.9112, 8494.395
153.3933, 8553.721
153.8755, 8618.730
154.3576, 8704.738
154.8397, 8780.379
155.3218, 8834.424
155.8039, 8863.030
156.2860, 8896.876
156.7682, 8955.137
157.2503, 9017.499
157.7324, 9058.985
158.2145, 9051.881
158.6966, 9039.493
159.1787, 9039.901
159.6609, 9059.500
160.1430, 9082.900
160.6251, 9114.468
161.1072, 9147.296
161.5893, 9165.095
162.0714, 9165.850
162.5536, 9147.662
163.0357, 9108.149
163.5178, 9027.977
163.9999, 8947.639
164.4820, 8888.590
164.9641, 8847.686
165.4463, 8806.783
165.9284, 8768.857
166.4105, 8722.263
166.8926, 8654.402
167.3747, 8538.362
167.8568, 8415.004
168.3390, 8310.887
168.8211, 8229.301
169.3032, 8154.006
169.7853, 8074.144
170.2674, 7993.629
170.7495, 7919.404
171.2317, 7861.105
171.7138, 7807.356
172.1959, 7746.355
172.6780, 7675.289
173.1601, 7603.772
173.6422, 7533.192
174.1244, 7467.092
174.6065, 7418.083
175.0886, 7411.615
175.5707, 7422.074
176.0528, 7409.944
176.5349, 7359.032
177.0171, 7294.796
177.4992, 7243.338
177.9813, 7204.276
178.4634, 7171.241
178.9455, 7142.802
179.4276, 7116.906
179.9098, 7087.967
180.3919, 7049.111
180.8740, 7008.747
181.3561, 6982.125
181.8382, 6969.995
182.3203, 6959.776
182.8025, 6942.412
183.2846, 6917.721
183.7667, 6883.838
184.2488, 6823.890
184.7309, 6753.657
185.2130, 6727.305
185.6951, 6752.729
186.1773, 6793.022
186.6594, 6801.551
187.1415, 6780.096
187.6236, 6747.869
188.1057, 6706.237
188.5878, 6659.650
189.0700, 6629.248
189.5521, 6620.367
190.0342, 6623.300
190.5163, 6623.149
190.9984, 6619.800
191.4805, 6610.911
191.9627, 6590.405
192.4448, 6559.518
192.9269, 6536.704
193.4090, 6528.800
193.8911, 6528.604
194.3732, 6513.931
194.8554, 6483.186
195.3375, 6446.628
195.8196, 6410.948
196.3017, 6376.158
196.7838, 6348.231
197.2659, 6329.736
197.7481, 6319.909
198.2302, 6315.819
198.7123, 6320.834
199.1944, 6322.728
199.6765, 6301.504
200.1586, 6253.005
200.6408, 6212.633
201.1229, 6194.367
201.6050, 6198.606
202.0871, 6202.800
202.5692, 6205.608
203.0513, 6210.165
203.5335, 6224.964
204.0156, 6253.801
204.4977, 6276.252
204.9798, 6282.154
205.4619, 6269.702
205.9440, 6251.270
206.4262, 6223.846
206.9083, 6192.847
207.3904, 6173.034
207.8725, 6167.110
208.3546, 6164.546
208.8367, 6159.185
209.3189, 6150.000
209.8010, 6142.042
210.2831, 6135.995
210.7652, 6131.436
211.2473, 6127.211
211.7294, 6125.140
212.2116, 6120.190
212.6937, 6107.843
213.1758, 6085.775
213.6579, 6064.017
214.1400, 6042.331
214.6221, 6021.389
215.1043, 6010.697
215.5864, 6013.043
216.0685, 6021.845
216.5506, 6031.683
217.0327, 6044.757
217.5148, 6053.638
217.9970, 6055.859
218.4791, 6050.920
218.9612, 6045.402
219.4433, 6036.496
219.9254, 6029.523
220.4075, 6034.479
220.8897, 6062.205
221.3718, 6078.382
221.8539, 6067.672
222.3360, 6020.522
222.8181, 5991.458
223.3002, 5984.436
223.7824, 5993.135
224.2645, 6009.398
224.7466, 6044.555
225.2287, 6068.078
225.7108, 6065.758
226.1929, 6025.875
226.6750, 5992.917
227.1572, 5967.177
227.6393, 5948.699
228.1214, 5937.027
228.6035, 5931.333
229.0856, 5933.917
229.5677, 5948.443
230.0499, 5985.327
230.5320, 6009.380
231.0141, 6015.098
231.4962, 6006.523
231.9783, 5999.871
232.4604, 5994.358
232.9426, 5991.717
233.4247, 5993.797
233.9068, 6004.735
234.3889, 6012.309
234.8710, 6018.454
235.3531, 6021.813
235.8353, 6007.058
236.3174, 5959.864
236.7995, 5910.980
237.2816, 5885.884
237.7637, 5903.157
238.2458, 5907.706
238.7280, 5883.778
239.2101, 5832.186
239.6922, 5808.804
240.1743, 5828.977
240.6564, 5862.066
241.1385, 5879.039
241.6207, 5869.358
242.1028, 5862.674
242.5849, 5866.878
243.0670, 5883.568
243.5491, 5889.165
244.0313, 5874.523
244.5134, 5856.421
244.9955, 5856.051
245.4776, 5887.072
245.9597, 5912.180
246.4418, 5921.208
246.9240, 5911.155
247.4061, 5902.451
247.8882, 5895.194
248.3703, 5889.375
248.8524, 5884.943
249.3345, 5881.569
249.8167, 5880.365
250.2988, 5884.405
250.7809, 5899.208
251.2630, 5894.318
251.7451, 5853.484
252.2272, 5802.465
252.7094, 5792.141
253.1915, 5849.404
253.6736, 5901.302
254.1557, 5918.239
254.6378, 5884.876
255.1199, 5865.543
255.6021, 5865.839
256.0842, 5877.594
256.5663, 5882.868
257.0484, 5878.412
257.5305, 5873.211
258.0126, 5871.700
258.4948, 5876.429
258.9769, 5877.324
259.4590, 5871.357
259.9411, 5862.698
260.4232, 5864.156
260.9053, 5882.486
261.3875, 5898.757
261.8696, 5901.814
262.3517, 5885.788
262.8338, 5875.335
263.3159, 5873.127
263.7980, 5876.941
264.2802, 5878.226
264.7623, 5873.321
265.2444, 5872.992
265.7265, 5886.696
266.2086, 5920.621
266.6907, 5943.956
267.1729, 5951.001
267.6550, 5945.743
268.1371, 5945.813
268.6192, 5956.560
269.1013, 5960.336
269.5834, 5937.949
270.0656, 5879.054
270.5477, 5844.125
271.0298, 5845.526
271.5119, 5875.736
271.9940, 5906.249
272.4761, 5940.298
272.9583, 5966.061
273.4404, 5970.911
273.9225, 5949.962
274.4046, 5936.692
274.8867, 5940.277
275.3688, 5954.905
275.8510, 5952.309
276.3331, 5928.938
276.8152, 5899.174
277.2973, 5869.924
277.7794, 5839.302
278.2615, 5829.087
278.7437, 5851.935
279.2258, 5897.315
279.7079, 5914.491
280.1900, 5898.441
280.6721, 5873.829
281.1542, 5861.873
281.6364, 5862.993
282.1185, 5867.404
282.6006, 5873.632
283.0827, 5881.475
283.5648, 5891.823
284.0469, 5905.902
284.5291, 5916.388
285.0112, 5915.052
285.4933, 5902.163
285.9754, 5885.767
286.4575, 5862.052
286.9396, 5837.655
287.4217, 5843.816
287.9038, 5884.711
288.3860, 5925.010
288.8681, 5920.977
289.3502, 5878.296
289.8323, 5849.741
290.3144, 5856.429
290.7965, 5885.786
291.2787, 5904.836
291.7608, 5913.331
292.2429, 5914.406
292.7250, 5906.477
293.2071, 5892.076
293.6892, 5884.178
294.1714, 5893.170
294.6535, 5908.998
295.1356, 5906.178
295.6177, 5884.011
296.0998, 5861.260
296.5819, 5856.160
297.0641, 5865.127
297.5462, 5876.125
298.0283, 5885.771
298.5104, 5894.772
298.9925, 5905.349
299.4746, 5917.560
299.9568, 5927.580
300.4389, 5932.841
300.9210, 5933.334
301.4031, 5928.877
301.8852, 5910.686
302.3673, 5892.393
302.8495, 5897.145
303.3316, 5924.266
303.8137, 5948.617
304.2958, 5943.536
304.7779, 5921.695
305.2600, 5905.846
305.7422, 5908.806
306.2243, 5918.700
306.7064, 5925.908
307.1885, 5930.417
307.6706, 5930.469
308.1527, 5921.099
308.6349, 5907.437
309.1170, 5896.765
309.5991, 5886.448
310.0812, 5883.968
310.5633, 5902.408
311.0454, 5940.258
311.5276, 5968.523
312.0097, 5960.760
312.4918, 5937.215
312.9739, 5920.344
313.4560, 5927.822
313.9381, 5936.162
314.4203, 5927.814
314.9024, 5904.472
315.3845, 5889.611
315.8666, 5899.540
316.3487, 5920.838
316.8308, 5940.819
317.3130, 5957.079
317.7951, 5969.998
318.2772, 5979.518
318.7593, 5985.652
319.2414, 5988.040
319.7235, 5984.017
320.2057, 5977.521
320.6878, 5971.686
321.1699, 5962.274
321.6520, 5958.744
322.1341, 5971.410
322.6162, 5997.469
323.0984, 6007.541
323.5805, 5973.486
324.0626, 5934.961
324.5447, 5918.718
325.0268, 5950.359
325.5089, 5980.221
325.9911, 6002.722
326.4732, 6017.772
326.9553, 6027.953
327.4374, 6021.685
327.9195, 6018.128
328.4016, 6028.625
328.8838, 6085.576
329.3659, 6115.178
329.8480, 6096.635
330.3301, 6040.129
330.8122, 6009.833
331.2943, 6015.814
331.7765, 6037.507
332.2586, 6065.121
332.7407, 6107.326
333.2228, 6140.056
333.7049, 6162.295
334.1870, 6174.324
334.6692, 6176.590
335.1513, 6165.191
335.6334, 6150.680
336.1155, 6138.211
336.5976, 6127.012
337.0797, 6120.162
337.5619, 6117.824
338.0440, 6119.958
338.5261, 6127.654
339.0082, 6142.611
339.4903, 6157.665
339.9724, 6166.829
340.4546, 6168.613
340.9367, 6179.793
341.4188, 6206.088
341.9009, 6236.510
342.3830, 6245.590
342.8651, 6231.367
343.3473, 6215.431
343.8294, 6211.277
344.3115, 6217.739
344.7936, 6216.711
345.2757, 6204.815
345.7578, 6191.711
346.2400, 6193.897
346.7221, 6210.677
347.2042, 6229.377
347.6863, 6237.021
348.1684, 6240.936
348.6505, 6270.829
349.1327, 6332.976
349.6148, 6398.242
350.0969, 6427.039
350.5790, 6427.104
351.0611, 6428.973
351.5432, 6451.667
352.0254, 6483.375
352.5075, 6506.205
352.9896, 6518.956
353.4717, 6526.200
353.9538, 6529.870
354.4359, 6531.198
354.9181, 6532.463
355.4002, 6534.954
355.8823, 6537.911
356.3644, 6543.232
356.8465, 6551.095
357.3286, 6552.500
357.8108, 6538.938
358.2929, 6516.369
358.7750, 6492.330
359.2571, 6461.324
359.7392, 6436.568
360.2213, 6427.937
360.7035, 6434.535
361.1856, 6442.725
361.6677, 6445.369
362.1498, 6447.354
362.6319, 6452.931
363.1140, 6480.844
363.5962, 6494.484
364.0783, 6474.156
364.5604, 6425.115
365.0425, 6384.824
365.5246, 6358.026
366.0067, 6345.110
366.4889, 6346.182
366.9710, 6378.756
367.4531, 6404.834
367.9352, 6423.730
368.4173, 6434.503
368.8994, 6432.483
369.3815, 6406.795
369.8636, 6377.985
370.3458, 6355.038
370.8279, 6340.444
371.3100, 6327.070
371.7921, 6314.129
372.2742, 6302.454
372.7563, 6294.161
373.2385, 6289.866
373.7206, 6288.011
374.2027, 6291.179
374.6848, 6305.227
375.1669, 6297.723
375.6490, 6259.697
376.1312, 6209.412
376.6133, 6173.044
377.0954, 6148.906
377.5775, 6146.123
378.0596, 6177.950
378.5417, 6242.297
379.0239, 6285.952
379.5060, 6308.361
379.9881, 6310.757
380.4702, 6285.423
380.9523, 6233.354
381.4344, 6188.754
381.9166, 6159.190
382.3987, 6146.016
382.8808, 6161.730
383.3629, 6208.326
383.8450, 6249.185
384.3271, 6236.384
384.8093, 6187.037
385.2914, 6154.846
385.7735, 6161.937
386.2556, 6188.036
386.7377, 6215.586
387.2198, 6242.220
387.7020, 6250.150
388.1841, 6207.124
388.6662, 6143.782
389.1483, 6102.086
389.6304, 6102.078
390.1125, 6111.027
390.5947, 6106.108
391.0768, 6090.377
391.5589, 6073.199
392.0410, 6054.339
392.5231, 6039.120
393.0052, 6031.452
393.4874, 6033.124
393.9695, 6039.878
394.4516, 6057.507
394.9337, 6078.282
395.4158, 6088.092
395.8979, 6066.050
396.3801, 6046.421
396.8622, 6044.864
397.3443, 6068.342
397.8264, 6088.739
398.3085, 6102.062
398.7906, 6110.265
399.2728, 6115.821
399.7549, 6138.269
400.2370, 6135.785
400.7191, 6084.611
401.2012, 5978.262
401.6833, 5924.981
402.1655, 5958.632
402.6476, 6012.605
403.1297, 6026.726
403.6118, 5978.397
404.0939, 5946.055
404.5760, 5945.302
405.0582, 5970.173
405.5403, 5990.994
406.0224, 6009.225
406.5045, 6018.583
406.9866, 6008.183
407.4688, 5975.951
407.9509, 5961.173
408.4330, 5971.592
408.9151, 5995.995
409.3972, 6011.076
409.8793, 6016.715
410.3615, 6022.713
410.8436, 6040.144
411.3257, 6063.129
411.8078, 6067.667
412.2899, 6048.844
412.7720, 6027.444
413.2542, 6035.349
413.7363, 6062.409
414.2184, 6078.468
414.7005, 6056.621
415.1826, 6022.718
415.6647, 6005.519
416.1469, 6006.027
416.6290, 6017.189
417.1111, 6052.436
417.5932, 6090.241
418.0753, 6101.603
418.5574, 6039.390
419.0396, 5981.851
419.5217, 5978.763
420.0038, 6021.653
420.4859, 6053.653
420.9680, 6044.354
421.4501, 6021.379
421.9323, 6003.809
422.4144, 5998.278
422.8965, 5993.812
423.3786, 5982.766
423.8607, 5971.040
424.3428, 5974.970
424.8250, 6025.706
425.3071, 6066.086
425.7892, 6072.040
426.2713, 6021.344
426.7534, 5997.560
427.2355, 6016.748
427.7177, 6052.753
428.1998, 6065.346
428.6819, 6042.099
429.1640, 6022.720
429.6461, 6019.116
430.1282, 6030.792
430.6104, 6038.311
431.0925, 6040.412
431.5746, 6040.819
432.0567, 6044.873
432.5388, 6052.747
433.0209, 6053.348
433.5031, 6041.431
433.9852, 6023.216
434.4673, 6015.034
434.9494, 6016.779
435.4315, 6018.886
435.9136, 6013.249
436.3958, 6002.951
436.8779, 5995.960
437.3600, 5994.305
437.8421, 5994.345
438.3242, 5987.805
438.8063, 5979.080
439.2885, 5980.382
439.7706, 6016.725
440.2527, 6054.835
440.7348, 6058.481
441.2169, 6021.450
441.6990, 5986.344
442.1812, 5975.321
442.6633, 5979.969
443.1454, 5990.062
443.6275, 6009.507
444.1096, 6026.800
444.5917, 6037.236
445.0739, 6041.104
445.5560, 6043.815
446.0381, 6050.633
446.5202, 6053.809
447.0023, 6048.762
447.4844, 6032.357
447.9666, 6010.935
448.4487, 5976.079
448.9308, 5936.890
449.4129, 5919.501
449.8950, 5936.375
450.3771, 5955.132
450.8593, 5961.235
451.3413, 5950.360
451.8235, 5954.555
452.3056, 5981.004
452.7877, 6011.236
453.2698, 6018.921
453.7519, 6002.211
454.2340, 5982.652
454.7162, 5962.343
455.1983, 5944.842
455.6804, 5945.634
456.1625, 5965.593
456.6446, 5988.575
457.1267, 6006.043
457.6089, 6016.003
458.0910, 6011.247
458.5731, 5983.348
459.0552, 5952.957
459.5373, 5951.305
460.0194, 5969.727
460.5016, 5979.351
460.9837, 5946.615
461.4658, 5907.662
461.9479, 5898.254
462.4300, 5927.392
462.9121, 5957.964
463.3943, 5974.183
463.8764, 5979.828
464.3585, 5979.478
464.8406, 5966.354
465.3227, 5955.419
465.8048, 5950.929
466.2870, 5953.021
466.7691, 5960.003
467.2512, 5980.744
467.7333, 6000.042
468.2154, 6008.475
468.6975, 5998.819
469.1797, 5989.423
469.6618, 5978.063
470.1439, 5968.201
470.6260, 5972.411
471.1081, 6000.128
471.5902, 6018.758
472.0724, 6009.070
472.5545, 5968.252
473.0366, 5946.566
473.5187, 5947.684
474.0008, 5958.117
474.4829, 5962.440
474.9651, 5961.148
475.4472, 5960.000
475.9293, 5962.018
476.4114, 5964.566
476.8935, 5957.989
477.3756, 5943.669
477.8578, 5937.105
478.3399, 5960.364
478.8220, 5995.624
479.3041, 6016.410
479.7862, 6016.150
480.2683, 6004.650
480.7505, 5977.133
481.2326, 5943.976
481.7147, 5926.779
482.1968, 5946.189
482.6789, 5973.767
483.1610, 5997.196
483.6432, 6015.673
484.1253, 6026.895
484.6074, 6019.601
485.0895, 6009.810
485.5716, 6011.375
486.0537, 6045.472
486.5359, 6066.559
487.0180, 6064.379
487.5001, 6044.938
487.9822, 6035.697
488.4643, 6037.438
488.9464, 6048.330
489.4286, 6074.124
489.9107, 6122.942
490.3928, 6138.358
490.8749, 6109.828
491.3570, 6066.466
491.8391, 6051.964
492.3213, 6066.384
492.8034, 6083.302
493.2855, 6095.690
493.7676, 6103.370
494.2497, 6103.366
494.7318, 6095.947
495.2140, 6089.810
495.6961, 6092.755
496.1782, 6101.714
496.6603, 6111.259
497.1424, 6120.246
497.6245, 6129.734
498.1067, 6145.212
498.5888, 6161.892
499.0709, 6168.973
499.5530, 6155.188
500.0351, 6135.520
500.5172, 6112.865
500.9994, 6085.322
501.4815, 6074.572
501.9636, 6100.911
502.4457, 6138.208
502.9278, 6162.968
503.4099, 6170.836
503.8921, 6169.749
504.3742, 6158.532
504.8563, 6138.873
505.3384, 6116.777
505.8205, 6090.993
506.3026, 6065.915
506.7848, 6042.653
507.2669, 6020.378
507.7490, 6007.243
508.2311, 6005.229
508.7132, 6008.193
509.1953, 6010.354
509.6775, 6011.287
510.1596, 6005.302
510.6417, 5985.179
511.1238, 5960.301
511.6059, 5952.196
512.0880, 5959.159
512.5701, 5964.264
513.0522, 5952.481
513.5344, 5932.743
514.0165, 5917.053
514.4986, 5909.400
514.9807, 5900.100
515.4628, 5875.357
515.9449, 5846.052
516.4271, 5830.950
516.9092, 5853.495
517.3913, 5875.156
517.8734, 5880.602
518.3555, 5868.772
518.8376, 5856.616
519.3198, 5844.701
519.8019, 5834.198
520.2840, 5825.731
520.7661, 5819.752
521.2482, 5815.540
521.7303, 5772.312
522.2125, 5822.403
522.6946, 5849.228
523.1767, 5854.039
523.6588, 5770.692
524.1409, 5801.344
524.6230, 5786.410
525.1052, 5769.674
525.5873, 5816.574
526.0694, 5746.413
526.5515, 5792.446
527.0336, 5792.195
527.5157, 5813.230
527.9979, 5788.396
528.4800, 5777.823
528.9621, 5813.274
529.4442, 5823.351
529.9263, 5793.512
530.4084, 5816.319
530.8906, 5745.260
531.3727, 5756.704
531.8548, 5803.783
532.3369, 5776.607
532.8190, 5800.608
533.3011, 5805.216
533.7833, 5721.438
534.2654, 5791.565
534.7475, 5795.234
535.2296, 5730.665
535.7117, 5795.733
536.1938, 5740.722
536.6760, 5728.667
537.1581, 5748.958
537.6402, 5735.675
538.1223, 5775.508
538.6044, 5764.309
539.0865, 5748.615
539.5687, 5752.916
540.0508, 5700.827
540.5329, 5753.556
541.0150, 5734.804
541.4971, 5751.690
541.9792, 5776.708
542.4614, 5740.069
542.9435, 5768.851
543.4256, 5696.360
543.9077, 5708.737
544.3898, 5712.054
544.8719, 5769.643
545.3541, 5697.929
545.8362, 5708.233
546.3183, 5753.500
546.8004, 5750.016
547.2825, 5767.015
547.7646, 5723.654
548.2468, 5737.134
548.7289, 5735.037
549.2110, 5787.083
549.6931, 5796.511
550.1752, 5754.529
550.6573, 5712.836
551.1395, 5769.056
551.6216, 5732.610
552.1037, 5746.266
552.5858, 5708.321
553.0679, 5715.061
553.5500, 5721.164
554.0322, 5750.208
554.5143, 5709.974
554.9964, 5759.767
555.4785, 5757.638
555.9606, 5761.195
556.4427, 5740.020
556.9249, 5715.746
557.4070, 5691.170
557.8891, 5673.799
558.3712, 5677.486
558.8533, 5706.085
559.3354, 5728.649
559.8176, 5723.414
560.2997, 5705.431
560.7818, 5690.089
561.2639, 5679.812
561.7460, 5674.200
562.2281, 5676.196
562.7103, 5683.352
563.1924, 5686.001
563.6745, 5675.646
564.1566, 5672.127
564.6387, 5685.729
565.1208, 5719.603
565.6030, 5740.361
566.0851, 5746.044
566.5672, 5743.129
567.0493, 5733.813
567.5314, 5718.948
568.0135, 5714.701
568.4957, 5728.891
568.9778, 5746.756
569.4599, 5736.145
569.9420, 5704.887
570.4241, 5686.585
570.9063, 5720.542
571.3884, 5763.033
571.8705, 5766.402
572.3526, 5728.716
572.8347, 5687.359
573.3168, 5649.980
573.7990, 5624.119
574.2811, 5617.900
574.7632, 5657.954
575.2453, 5681.888
575.7274, 5668.670
576.2095, 5634.986
576.6917, 5613.054
577.1738, 5601.794
577.6559, 5604.917
578.1380, 5630.815
578.6201, 5676.748
579.1022, 5695.039
579.5844, 5680.139
580.0665, 5658.029
580.5486, 5646.819
581.0307, 5645.563
581.5128, 5649.793
581.9949, 5660.463
582.4771, 5671.244
582.9592, 5673.141
583.4413, 5668.994
583.9234, 5665.810
584.4055, 5673.731
584.8876, 5678.116
585.3698, 5655.146
585.8519, 5613.279
586.3340, 5598.080
586.8161, 5667.867
587.2982, 5740.458
587.7803, 5764.737
588.2625, 5707.809
588.7446, 5675.212
589.2267, 5683.701
589.7088, 5710.042
590.1909, 5729.724
590.6730, 5739.304
591.1552, 5752.378
591.6373, 5776.054
592.1194, 5801.658
592.6015, 5796.143
593.0836, 5757.016
593.5657, 5726.631
594.0479, 5735.917
594.5300, 5770.348
595.0121, 5792.618
595.4942, 5801.849
595.9763, 5800.844
596.4584, 5782.362
596.9406, 5758.375
597.4227, 5744.111
597.9048, 5744.012
598.3869, 5753.186
598.8690, 5781.517
599.3511, 5816.132
599.8333, 5832.625
600.3154, 5805.789
600.7975, 5781.133
601.2796, 5771.555
601.7617, 5776.771
602.2438, 5782.168
602.7260, 5791.765
603.2081, 5795.095
603.6902, 5781.760
604.1723, 5749.694
604.6544, 5729.912
605.1365, 5726.292
605.6187, 5728.347
606.1008, 5721.890
606.5829, 5708.972
607.0650, 5698.130
607.5471, 5692.537
608.0292, 5689.614
608.5114, 5685.928
608.9935, 5682.194
609.4756, 5681.063
609.9577, 5689.550
610.4398, 5696.625
610.9219, 5692.746
611.4041, 5674.618
611.8862, 5663.674
612.3683, 5665.148
612.8504, 5674.740
