##NAMES=Bismutotantalite
##RRUFFID=R130254
##IDEAL CHEMISTRY=Bi^3+^Ta^5+^O_4_
##LOCALITY=Wampewo Hill, Busiiro Co. (Bushiro Co.), Wakiso District, Uganda
##OWNER=RRUFF
##SOURCE=Rock Currier
##DESCRIPTION=Submetallic black anhedral crystals and grains
##STATUS=The identification of this mineral has been confirmed only by single crystal X-ray diffraction.
##URL=rruff.info/R130254
8.813672e+001, 3.262701e+002
8.861884e+001, 3.295517e+002
8.910095e+001, 3.333284e+002
8.958307e+001, 3.389803e+002
9.006519e+001, 3.461796e+002
9.054730e+001, 3.540677e+002
9.102942e+001, 3.638224e+002
9.151154e+001, 3.721722e+002
9.199365e+001, 3.742050e+002
9.247577e+001, 3.710357e+002
9.295789e+001, 3.680455e+002
9.344000e+001, 3.701919e+002
9.392212e+001, 3.752963e+002
9.440424e+001, 3.777363e+002
9.488635e+001, 3.761384e+002
9.536847e+001, 3.725331e+002
9.585059e+001, 3.709726e+002
9.633270e+001, 3.714398e+002
9.681482e+001, 3.730252e+002
9.729694e+001, 3.748390e+002
9.777905e+001, 3.768852e+002
9.826117e+001, 3.799785e+002
9.874329e+001, 3.850009e+002
9.922540e+001, 3.914235e+002
9.970752e+001, 3.951548e+002
1.001896e+002, 3.954564e+002
1.006718e+002, 3.945916e+002
1.011539e+002, 3.953268e+002
1.016360e+002, 3.978880e+002
1.021181e+002, 4.011698e+002
1.026002e+002, 4.047214e+002
1.030823e+002, 4.083981e+002
1.035645e+002, 4.131167e+002
1.040466e+002, 4.187607e+002
1.045287e+002, 4.255130e+002
1.050108e+002, 4.341232e+002
1.054929e+002, 4.459721e+002
1.059750e+002, 4.576371e+002
1.064572e+002, 4.680168e+002
1.069393e+002, 4.784735e+002
1.074214e+002, 4.853329e+002
1.079035e+002, 4.869832e+002
1.083856e+002, 4.849168e+002
1.088677e+002, 4.842414e+002
1.093499e+002, 4.851946e+002
1.098320e+002, 4.873720e+002
1.103141e+002, 4.905938e+002
1.107962e+002, 4.949165e+002
1.112783e+002, 5.002719e+002
1.117604e+002, 5.069173e+002
1.122426e+002, 5.147888e+002
1.127247e+002, 5.230030e+002
1.132068e+002, 5.313269e+002
1.136889e+002, 5.400316e+002
1.141710e+002, 5.492215e+002
1.146531e+002, 5.603820e+002
1.151353e+002, 5.706202e+002
1.156174e+002, 5.788297e+002
1.160995e+002, 5.849631e+002
1.165816e+002, 5.912336e+002
1.170637e+002, 5.993637e+002
1.175458e+002, 6.077318e+002
1.180280e+002, 6.146760e+002
1.185101e+002, 6.174267e+002
1.189922e+002, 6.199955e+002
1.194743e+002, 6.247220e+002
1.199564e+002, 6.318934e+002
1.204385e+002, 6.401257e+002
1.209207e+002, 6.480127e+002
1.214028e+002, 6.564024e+002
1.218849e+002, 6.667437e+002
1.223670e+002, 6.841752e+002
1.228491e+002, 7.020739e+002
1.233312e+002, 7.124521e+002
1.238134e+002, 7.130792e+002
1.242955e+002, 7.114540e+002
1.247776e+002, 7.134382e+002
1.252597e+002, 7.187590e+002
1.257418e+002, 7.264200e+002
1.262239e+002, 7.372595e+002
1.267061e+002, 7.500024e+002
1.271882e+002, 7.619566e+002
1.276703e+002, 7.729153e+002
1.281524e+002, 7.829001e+002
1.286345e+002, 7.914193e+002
1.291166e+002, 7.986057e+002
1.295988e+002, 8.059206e+002
1.300809e+002, 8.148322e+002
1.305630e+002, 8.248986e+002
1.310451e+002, 8.341575e+002
1.315272e+002, 8.416738e+002
1.320093e+002, 8.484434e+002
1.324915e+002, 8.570555e+002
1.329736e+002, 8.676259e+002
1.334557e+002, 8.788682e+002
1.339378e+002, 8.895281e+002
1.344199e+002, 8.996328e+002
1.349020e+002, 9.098107e+002
1.353842e+002, 9.204541e+002
1.358663e+002, 9.311497e+002
1.363484e+002, 9.408620e+002
1.368305e+002, 9.494263e+002
1.373126e+002, 9.573132e+002
1.377947e+002, 9.657763e+002
1.382769e+002, 9.756751e+002
1.387590e+002, 9.816926e+002
1.392411e+002, 9.819941e+002
1.397232e+002, 9.764687e+002
1.402053e+002, 9.687136e+002
1.406874e+002, 9.584474e+002
1.411696e+002, 9.461973e+002
1.416517e+002, 9.327096e+002
1.421338e+002, 9.176298e+002
1.426159e+002, 9.019770e+002
1.430980e+002, 8.856464e+002
1.435801e+002, 8.684128e+002
1.440623e+002, 8.522670e+002
1.445444e+002, 8.372699e+002
1.450265e+002, 8.233748e+002
1.455086e+002, 8.109547e+002
1.459907e+002, 8.011189e+002
1.464728e+002, 7.911928e+002
1.469550e+002, 7.800119e+002
1.474371e+002, 7.664595e+002
1.479192e+002, 7.543994e+002
1.484013e+002, 7.442811e+002
1.488834e+002, 7.356411e+002
1.493655e+002, 7.273029e+002
1.498477e+002, 7.187332e+002
1.503298e+002, 7.109757e+002
1.508119e+002, 7.045657e+002
1.512940e+002, 7.010881e+002
1.517761e+002, 6.965816e+002
1.522583e+002, 6.897783e+002
1.527404e+002, 6.817645e+002
1.532225e+002, 6.755846e+002
1.537046e+002, 6.741219e+002
1.541867e+002, 6.727040e+002
1.546688e+002, 6.691835e+002
1.551510e+002, 6.614564e+002
1.556331e+002, 6.538426e+002
1.561152e+002, 6.469246e+002
1.565973e+002, 6.406276e+002
1.570794e+002, 6.348121e+002
1.575615e+002, 6.295059e+002
1.580437e+002, 6.245818e+002
1.585258e+002, 6.199451e+002
1.590079e+002, 6.154839e+002
1.594900e+002, 6.114049e+002
1.599721e+002, 6.077147e+002
1.604542e+002, 6.044318e+002
1.609364e+002, 6.016602e+002
1.614185e+002, 5.999627e+002
1.619006e+002, 5.985400e+002
1.623827e+002, 5.967484e+002
1.628648e+002, 5.943109e+002
1.633469e+002, 5.915412e+002
1.638291e+002, 5.883132e+002
1.643112e+002, 5.847245e+002
1.647933e+002, 5.814643e+002
1.652754e+002, 5.791051e+002
1.657575e+002, 5.771707e+002
1.662396e+002, 5.751610e+002
1.667218e+002, 5.724459e+002
1.672039e+002, 5.699373e+002
1.676860e+002, 5.682155e+002
1.681681e+002, 5.672949e+002
1.686502e+002, 5.668312e+002
1.691323e+002, 5.671632e+002
1.696145e+002, 5.677177e+002
1.700966e+002, 5.677084e+002
1.705787e+002, 5.666693e+002
1.710608e+002, 5.650276e+002
1.715429e+002, 5.628893e+002
1.720250e+002, 5.602139e+002
1.725072e+002, 5.578531e+002
1.729893e+002, 5.566623e+002
1.734714e+002, 5.561945e+002
1.739535e+002, 5.556211e+002
1.744356e+002, 5.543352e+002
1.749177e+002, 5.528583e+002
1.753999e+002, 5.517423e+002
1.758820e+002, 5.509993e+002
1.763641e+002, 5.506201e+002
1.768462e+002, 5.508369e+002
1.773283e+002, 5.514235e+002
1.778104e+002, 5.518044e+002
1.782926e+002, 5.516419e+002
1.787747e+002, 5.511035e+002
1.792568e+002, 5.503928e+002
1.797389e+002, 5.494933e+002
1.802210e+002, 5.485802e+002
1.807031e+002, 5.477933e+002
1.811853e+002, 5.471465e+002
1.816674e+002, 5.467327e+002
1.821495e+002, 5.468538e+002
1.826316e+002, 5.472338e+002
1.831137e+002, 5.470861e+002
1.835958e+002, 5.462496e+002
1.840780e+002, 5.454026e+002
1.845601e+002, 5.457053e+002
1.850422e+002, 5.469696e+002
1.855243e+002, 5.479297e+002
1.860064e+002, 5.477109e+002
1.864885e+002, 5.466196e+002
1.869707e+002, 5.457036e+002
1.874528e+002, 5.450189e+002
1.879349e+002, 5.445400e+002
1.884170e+002, 5.443197e+002
1.888991e+002, 5.443404e+002
1.893812e+002, 5.442905e+002
1.898634e+002, 5.438557e+002
1.903455e+002, 5.431338e+002
1.908276e+002, 5.427455e+002
1.913097e+002, 5.427368e+002
1.917918e+002, 5.430278e+002
1.922739e+002, 5.435084e+002
1.927561e+002, 5.441818e+002
1.932382e+002, 5.449838e+002
1.937203e+002, 5.460514e+002
1.942024e+002, 5.473295e+002
1.946845e+002, 5.480987e+002
1.951666e+002, 5.481818e+002
1.956488e+002, 5.479223e+002
1.961309e+002, 5.480203e+002
1.966130e+002, 5.485236e+002
1.970951e+002, 5.490233e+002
1.975772e+002, 5.492692e+002
1.980593e+002, 5.492604e+002
1.985415e+002, 5.493134e+002
1.990236e+002, 5.494830e+002
1.995057e+002, 5.496904e+002
1.999878e+002, 5.497031e+002
2.004699e+002, 5.494688e+002
2.009520e+002, 5.493029e+002
2.014342e+002, 5.495072e+002
2.019163e+002, 5.501451e+002
2.023984e+002, 5.503810e+002
2.028805e+002, 5.501077e+002
2.033626e+002, 5.494477e+002
2.038447e+002, 5.486242e+002
2.043269e+002, 5.475577e+002
2.048090e+002, 5.466046e+002
2.052911e+002, 5.460609e+002
2.057732e+002, 5.460158e+002
2.062553e+002, 5.457589e+002
2.067374e+002, 5.452472e+002
2.072196e+002, 5.445004e+002
2.077017e+002, 5.435549e+002
2.081838e+002, 5.423904e+002
2.086659e+002, 5.410833e+002
2.091480e+002, 5.396129e+002
2.096301e+002, 5.378650e+002
2.101123e+002, 5.364394e+002
2.105944e+002, 5.354140e+002
2.110765e+002, 5.346998e+002
2.115586e+002, 5.341018e+002
2.120407e+002, 5.337343e+002
2.125228e+002, 5.332229e+002
2.130050e+002, 5.322505e+002
2.134871e+002, 5.305754e+002
2.139692e+002, 5.293705e+002
2.144513e+002, 5.288116e+002
2.149334e+002, 5.287173e+002
2.154155e+002, 5.285256e+002
2.158977e+002, 5.281508e+002
2.163798e+002, 5.278291e+002
2.168619e+002, 5.276840e+002
2.173440e+002, 5.277305e+002
2.178261e+002, 5.279017e+002
2.183082e+002, 5.282730e+002
2.187904e+002, 5.287346e+002
2.192725e+002, 5.289293e+002
2.197546e+002, 5.287330e+002
2.202367e+002, 5.284868e+002
2.207188e+002, 5.283157e+002
2.212009e+002, 5.280959e+002
2.216831e+002, 5.283461e+002
2.221652e+002, 5.293290e+002
2.226473e+002, 5.307360e+002
2.231294e+002, 5.315403e+002
2.236115e+002, 5.313020e+002
2.240936e+002, 5.312259e+002
2.245758e+002, 5.320137e+002
2.250579e+002, 5.342706e+002
2.255400e+002, 5.358644e+002
2.260221e+002, 5.364621e+002
2.265042e+002, 5.364648e+002
2.269863e+002, 5.369721e+002
2.274685e+002, 5.382494e+002
2.279506e+002, 5.396301e+002
2.284327e+002, 5.407830e+002
2.289148e+002, 5.415090e+002
2.293969e+002, 5.424715e+002
2.298790e+002, 5.436318e+002
2.303612e+002, 5.450342e+002
2.308433e+002, 5.468604e+002
2.313254e+002, 5.495004e+002
2.318075e+002, 5.519882e+002
2.322896e+002, 5.539150e+002
2.327717e+002, 5.551603e+002
2.332539e+002, 5.560769e+002
2.337360e+002, 5.564366e+002
2.342181e+002, 5.565215e+002
2.347002e+002, 5.570159e+002
2.351823e+002, 5.581573e+002
2.356644e+002, 5.593294e+002
2.361466e+002, 5.602966e+002
2.366287e+002, 5.610167e+002
2.371108e+002, 5.616193e+002
2.375929e+002, 5.620388e+002
2.380750e+002, 5.623584e+002
2.385571e+002, 5.627973e+002
2.390393e+002, 5.636566e+002
2.395214e+002, 5.641683e+002
2.400035e+002, 5.640126e+002
2.404856e+002, 5.629774e+002
2.409677e+002, 5.619431e+002
2.414498e+002, 5.609554e+002
2.419320e+002, 5.599660e+002
2.424141e+002, 5.588807e+002
2.428962e+002, 5.577856e+002
2.433783e+002, 5.564792e+002
2.438604e+002, 5.548381e+002
2.443425e+002, 5.527182e+002
2.448247e+002, 5.508406e+002
2.453068e+002, 5.493156e+002
2.457889e+002, 5.479720e+002
2.462710e+002, 5.464822e+002
2.467531e+002, 5.446570e+002
2.472352e+002, 5.430108e+002
2.477174e+002, 5.418320e+002
2.481995e+002, 5.413610e+002
2.486816e+002, 5.401130e+002
2.491637e+002, 5.376620e+002
2.496458e+002, 5.347338e+002
2.501279e+002, 5.323862e+002
2.506101e+002, 5.307955e+002
2.510922e+002, 5.294123e+002
2.515743e+002, 5.281854e+002
2.520564e+002, 5.271682e+002
2.525385e+002, 5.258358e+002
2.530206e+002, 5.241351e+002
2.535028e+002, 5.221501e+002
2.539849e+002, 5.200226e+002
2.544670e+002, 5.176979e+002
2.549491e+002, 5.152710e+002
2.554312e+002, 5.125383e+002
2.559133e+002, 5.094481e+002
2.563955e+002, 5.075658e+002
2.568776e+002, 5.075771e+002
2.573597e+002, 5.080262e+002
2.578418e+002, 5.073050e+002
2.583239e+002, 5.048801e+002
2.588061e+002, 5.025128e+002
2.592882e+002, 5.004756e+002
2.597703e+002, 4.987611e+002
2.602524e+002, 4.974731e+002
2.607345e+002, 4.968624e+002
2.612166e+002, 4.963104e+002
2.616988e+002, 4.951513e+002
2.621809e+002, 4.930893e+002
2.626630e+002, 4.913575e+002
2.631451e+002, 4.903194e+002
2.636272e+002, 4.898615e+002
2.641093e+002, 4.889677e+002
2.645915e+002, 4.874165e+002
2.650736e+002, 4.858172e+002
2.655557e+002, 4.846797e+002
2.660378e+002, 4.841987e+002
2.665199e+002, 4.835990e+002
2.670020e+002, 4.828631e+002
2.674842e+002, 4.819308e+002
2.679663e+002, 4.803908e+002
2.684484e+002, 4.779436e+002
2.689305e+002, 4.755784e+002
2.694126e+002, 4.740438e+002
2.698947e+002, 4.734827e+002
2.703769e+002, 4.730805e+002
2.708590e+002, 4.728721e+002
2.713411e+002, 4.727081e+002
2.718232e+002, 4.720457e+002
2.723053e+002, 4.707323e+002
2.727874e+002, 4.693820e+002
2.732696e+002, 4.683613e+002
2.737517e+002, 4.677236e+002
2.742338e+002, 4.670879e+002
2.747159e+002, 4.664585e+002
2.751980e+002, 4.657872e+002
2.756801e+002, 4.649019e+002
2.761623e+002, 4.637238e+002
2.766444e+002, 4.627007e+002
2.771265e+002, 4.621978e+002
2.776086e+002, 4.622765e+002
2.780907e+002, 4.619302e+002
2.785728e+002, 4.610205e+002
2.790550e+002, 4.598637e+002
2.795371e+002, 4.590108e+002
2.800192e+002, 4.584880e+002
2.805013e+002, 4.580516e+002
2.809834e+002, 4.575959e+002
2.814655e+002, 4.571210e+002
2.819477e+002, 4.567250e+002
2.824298e+002, 4.564406e+002
2.829119e+002, 4.561432e+002
2.833940e+002, 4.554793e+002
2.838761e+002, 4.544240e+002
2.843582e+002, 4.538537e+002
2.848404e+002, 4.544716e+002
2.853225e+002, 4.559583e+002
2.858046e+002, 4.562479e+002
2.862867e+002, 4.551728e+002
2.867688e+002, 4.536686e+002
2.872509e+002, 4.527362e+002
2.877331e+002, 4.523462e+002
2.882152e+002, 4.521021e+002
2.886973e+002, 4.520572e+002
2.891794e+002, 4.520291e+002
2.896615e+002, 4.512133e+002
2.901436e+002, 4.495351e+002
2.906258e+002, 4.479643e+002
2.911079e+002, 4.474895e+002
2.915900e+002, 4.479534e+002
2.920721e+002, 4.485082e+002
2.925542e+002, 4.490126e+002
2.930363e+002, 4.494274e+002
2.935185e+002, 4.496355e+002
2.940006e+002, 4.496415e+002
2.944827e+002, 4.495646e+002
2.949648e+002, 4.496026e+002
2.954469e+002, 4.496429e+002
2.959290e+002, 4.492328e+002
2.964112e+002, 4.480411e+002
2.968933e+002, 4.467743e+002
2.973754e+002, 4.466555e+002
2.978575e+002, 4.475401e+002
2.983396e+002, 4.485644e+002
2.988217e+002, 4.492409e+002
2.993039e+002, 4.496418e+002
2.997860e+002, 4.498264e+002
3.002681e+002, 4.497233e+002
3.007502e+002, 4.496554e+002
3.012323e+002, 4.502589e+002
3.017144e+002, 4.512925e+002
3.021966e+002, 4.518993e+002
3.026787e+002, 4.510356e+002
3.031608e+002, 4.497092e+002
3.036429e+002, 4.494328e+002
3.041250e+002, 4.504443e+002
3.046071e+002, 4.516382e+002
3.050893e+002, 4.520633e+002
3.055714e+002, 4.519293e+002
3.060535e+002, 4.516617e+002
3.065356e+002, 4.514332e+002
3.070177e+002, 4.511723e+002
3.074998e+002, 4.507200e+002
3.079820e+002, 4.500702e+002
3.084641e+002, 4.496013e+002
3.089462e+002, 4.496971e+002
3.094283e+002, 4.501141e+002
3.099104e+002, 4.505217e+002
3.103925e+002, 4.508092e+002
3.108747e+002, 4.510411e+002
3.113568e+002, 4.512686e+002
3.118389e+002, 4.514876e+002
3.123210e+002, 4.516472e+002
3.128031e+002, 4.518757e+002
3.132852e+002, 4.519659e+002
3.137674e+002, 4.516885e+002
3.142495e+002, 4.506448e+002
3.147316e+002, 4.496656e+002
3.152137e+002, 4.492945e+002
3.156958e+002, 4.493567e+002
3.161779e+002, 4.492690e+002
3.166601e+002, 4.483483e+002
3.171422e+002, 4.474701e+002
3.176243e+002, 4.472767e+002
3.181064e+002, 4.482156e+002
3.185885e+002, 4.491270e+002
3.190706e+002, 4.496883e+002
3.195528e+002, 4.499478e+002
3.200349e+002, 4.500027e+002
3.205170e+002, 4.497233e+002
3.209991e+002, 4.493706e+002
3.214812e+002, 4.490690e+002
3.219633e+002, 4.488653e+002
3.224455e+002, 4.485748e+002
3.229276e+002, 4.480480e+002
3.234097e+002, 4.474505e+002
3.238918e+002, 4.469859e+002
3.243739e+002, 4.469012e+002
3.248560e+002, 4.467472e+002
3.253382e+002, 4.464436e+002
3.258203e+002, 4.459932e+002
3.263024e+002, 4.453478e+002
3.267845e+002, 4.443230e+002
3.272666e+002, 4.432043e+002
3.277487e+002, 4.422136e+002
3.282309e+002, 4.413008e+002
3.287130e+002, 4.405947e+002
3.291951e+002, 4.400922e+002
3.296772e+002, 4.397980e+002
3.301593e+002, 4.397941e+002
3.306414e+002, 4.405786e+002
3.311236e+002, 4.411748e+002
3.316057e+002, 4.410003e+002
3.320878e+002, 4.393832e+002
3.325699e+002, 4.381992e+002
3.330520e+002, 4.377202e+002
3.335341e+002, 4.376699e+002
3.340163e+002, 4.372896e+002
3.344984e+002, 4.364557e+002
3.349805e+002, 4.354954e+002
3.354626e+002, 4.344571e+002
3.359447e+002, 4.331948e+002
3.364268e+002, 4.324671e+002
3.369090e+002, 4.324740e+002
3.373911e+002, 4.328090e+002
3.378732e+002, 4.328723e+002
3.383553e+002, 4.326755e+002
3.388374e+002, 4.321717e+002
3.393195e+002, 4.312100e+002
3.398017e+002, 4.298292e+002
3.402838e+002, 4.288739e+002
3.407659e+002, 4.284319e+002
3.412480e+002, 4.282000e+002
3.417301e+002, 4.278153e+002
3.422122e+002, 4.272556e+002
3.426944e+002, 4.269443e+002
3.431765e+002, 4.271118e+002
3.436586e+002, 4.275274e+002
3.441407e+002, 4.273097e+002
3.446228e+002, 4.264074e+002
3.451049e+002, 4.254678e+002
3.455871e+002, 4.250595e+002
3.460692e+002, 4.250920e+002
3.465513e+002, 4.249624e+002
3.470334e+002, 4.245307e+002
3.475155e+002, 4.240220e+002
3.479977e+002, 4.238478e+002
3.484798e+002, 4.239738e+002
3.489619e+002, 4.241329e+002
3.494440e+002, 4.242780e+002
3.499261e+002, 4.243336e+002
3.504082e+002, 4.240415e+002
3.508904e+002, 4.233365e+002
3.513725e+002, 4.226257e+002
3.518546e+002, 4.223955e+002
3.523367e+002, 4.225019e+002
3.528188e+002, 4.225602e+002
3.533009e+002, 4.223388e+002
3.537831e+002, 4.220136e+002
3.542652e+002, 4.217664e+002
3.547473e+002, 4.215980e+002
3.552294e+002, 4.215146e+002
3.557115e+002, 4.218580e+002
3.561936e+002, 4.221886e+002
3.566758e+002, 4.218519e+002
3.571579e+002, 4.199637e+002
3.576400e+002, 4.182363e+002
3.581221e+002, 4.181389e+002
3.586042e+002, 4.193047e+002
3.590863e+002, 4.203991e+002
3.595685e+002, 4.208985e+002
3.600506e+002, 4.209897e+002
3.605327e+002, 4.207505e+002
3.610148e+002, 4.200717e+002
3.614969e+002, 4.194067e+002
3.619790e+002, 4.187458e+002
3.624612e+002, 4.182515e+002
3.629433e+002, 4.181833e+002
3.634254e+002, 4.193045e+002
3.639075e+002, 4.202645e+002
3.643896e+002, 4.203447e+002
3.648717e+002, 4.193418e+002
3.653539e+002, 4.186743e+002
3.658360e+002, 4.188815e+002
3.663181e+002, 4.194208e+002
3.668002e+002, 4.197963e+002
3.672823e+002, 4.199770e+002
3.677644e+002, 4.199595e+002
3.682466e+002, 4.194774e+002
3.687287e+002, 4.186194e+002
3.692108e+002, 4.184215e+002
3.696929e+002, 4.197968e+002
3.701750e+002, 4.210358e+002
3.706571e+002, 4.212049e+002
3.711393e+002, 4.192496e+002
3.716214e+002, 4.181100e+002
3.721035e+002, 4.182234e+002
3.725856e+002, 4.190261e+002
3.730677e+002, 4.191886e+002
3.735498e+002, 4.183497e+002
3.740320e+002, 4.175665e+002
3.745141e+002, 4.172155e+002
3.749962e+002, 4.173270e+002
3.754783e+002, 4.176839e+002
3.759604e+002, 4.184698e+002
3.764425e+002, 4.191967e+002
3.769247e+002, 4.191505e+002
3.774068e+002, 4.181794e+002
3.778889e+002, 4.173727e+002
3.783710e+002, 4.170016e+002
3.788531e+002, 4.170045e+002
3.793352e+002, 4.172796e+002
3.798174e+002, 4.179030e+002
3.802995e+002, 4.182631e+002
3.807816e+002, 4.175801e+002
3.812637e+002, 4.160220e+002
3.817458e+002, 4.151125e+002
3.822279e+002, 4.151934e+002
3.827101e+002, 4.157057e+002
3.831922e+002, 4.158375e+002
3.836743e+002, 4.156074e+002
3.841564e+002, 4.151342e+002
3.846385e+002, 4.141479e+002
3.851206e+002, 4.130277e+002
3.856028e+002, 4.126666e+002
3.860849e+002, 4.131592e+002
3.865670e+002, 4.137476e+002
3.870491e+002, 4.136289e+002
3.875312e+002, 4.131006e+002
3.880133e+002, 4.127588e+002
3.884955e+002, 4.129892e+002
3.889776e+002, 4.133556e+002
3.894597e+002, 4.135514e+002
3.899418e+002, 4.135617e+002
3.904239e+002, 4.133025e+002
3.909060e+002, 4.122491e+002
3.913882e+002, 4.111469e+002
3.918703e+002, 4.107251e+002
3.923524e+002, 4.113666e+002
3.928345e+002, 4.121972e+002
3.933166e+002, 4.130778e+002
3.937987e+002, 4.138383e+002
3.942809e+002, 4.141282e+002
3.947630e+002, 4.133511e+002
3.952451e+002, 4.124995e+002
3.957272e+002, 4.119515e+002
3.962093e+002, 4.117502e+002
3.966914e+002, 4.118097e+002
3.971736e+002, 4.124992e+002
3.976557e+002, 4.132547e+002
3.981378e+002, 4.135583e+002
3.986199e+002, 4.128918e+002
3.991020e+002, 4.122837e+002
3.995841e+002, 4.118947e+002
4.000663e+002, 4.116848e+002
4.005484e+002, 4.114008e+002
4.010305e+002, 4.111161e+002
4.015126e+002, 4.106805e+002
4.019947e+002, 4.099548e+002
4.024768e+002, 4.086139e+002
4.029590e+002, 4.078353e+002
4.034411e+002, 4.079140e+002
4.039232e+002, 4.083487e+002
4.044053e+002, 4.081744e+002
4.048874e+002, 4.071388e+002
4.053695e+002, 4.062894e+002
4.058517e+002, 4.060438e+002
4.063338e+002, 4.063538e+002
4.068159e+002, 4.064766e+002
4.072980e+002, 4.064624e+002
4.077801e+002, 4.060954e+002
4.082622e+002, 4.047541e+002
4.087444e+002, 4.025128e+002
4.092265e+002, 4.014005e+002
4.097086e+002, 4.021075e+002
4.101907e+002, 4.037315e+002
4.106728e+002, 4.044917e+002
4.111549e+002, 4.044395e+002
4.116371e+002, 4.041409e+002
4.121192e+002, 4.038394e+002
4.126013e+002, 4.035498e+002
4.130834e+002, 4.033192e+002
4.135655e+002, 4.031544e+002
