##NAMES=Bixbyite
##RRUFFID=R050395
##IDEAL CHEMISTRY=Mn^3+^_2_O_3_
##LOCALITY=Thomas Range, Juab County, Utah, USA
##OWNER=RRUFF
##SOURCE=Marcus Origlieri
##DESCRIPTION=Black cube modified with octahedral corners
##STATUS=The identification of this mineral has been confirmed by X-ray diffraction and chemical analysis
##URL=rruff.info/R050395
##MEASURED CHEMISTRY=(Fe^3+^_1.09_Mn^3+^_0.83_Al_0.04_Ti_0.03_[box]_0.01_)_Î£=2_O_3_
101.611, 1953.518
102.093, 1952.786
102.575, 1952.755
103.057, 1950.322
103.539, 1945.882
104.021, 1945.033
104.504, 1958.005
104.986, 1998.000
105.468, 2030.093
105.950, 2051.232
106.432, 2066.779
106.914, 2081.624
107.396, 2097.571
107.878, 2112.814
108.360, 2122.892
108.843, 2122.930
109.325, 2122.811
109.807, 2125.455
110.289, 2127.591
110.771, 2124.043
111.253, 2111.814
111.735, 2093.378
112.217, 2080.048
112.700, 2061.020
113.182, 2057.546
113.664, 2076.481
114.146, 2115.131
114.628, 2168.018
115.110, 2233.101
115.592, 2310.051
116.074, 2393.168
116.557, 2488.535
117.039, 2584.285
117.521, 2671.889
118.003, 2753.383
118.485, 2837.530
118.967, 2926.668
119.449, 3024.965
119.931, 3145.571
120.413, 3299.720
120.896, 3468.533
121.378, 3645.199
121.860, 3829.155
122.342, 4002.447
122.824, 4159.940
123.306, 4295.625
123.788, 4376.058
124.270, 4384.003
124.752, 4337.815
125.235, 4256.278
125.717, 4137.435
126.199, 3994.959
126.681, 3822.290
127.163, 3630.781
127.645, 3455.064
128.127, 3312.912
128.609, 3195.859
129.092, 3086.885
129.574, 2984.429
130.056, 2890.984
130.538, 2807.119
131.020, 2732.229
131.502, 2663.554
131.984, 2597.897
132.466, 2536.572
132.948, 2486.355
133.431, 2449.892
133.913, 2423.815
134.395, 2405.082
134.877, 2393.302
135.359, 2386.071
135.841, 2384.659
136.323, 2388.889
136.805, 2386.939
137.288, 2372.715
137.770, 2355.329
138.252, 2337.129
138.734, 2319.063
139.216, 2307.167
139.698, 2308.734
140.180, 2325.378
140.662, 2343.889
141.144, 2362.091
141.626, 2382.128
142.109, 2408.815
142.591, 2441.907
143.073, 2471.168
143.555, 2486.208
144.037, 2488.529
144.519, 2469.793
145.001, 2417.291
145.484, 2352.513
145.966, 2284.980
146.448, 2217.866
146.930, 2154.203
147.412, 2098.712
147.894, 2054.143
148.376, 2012.568
148.858, 1968.823
149.340, 1929.446
149.822, 1901.048
150.305, 1885.775
150.787, 1877.197
151.269, 1862.211
151.751, 1832.041
152.233, 1811.181
152.715, 1802.301
153.197, 1801.671
153.680, 1805.892
154.162, 1813.650
154.644, 1825.915
155.126, 1845.215
155.608, 1874.597
156.090, 1907.975
156.572, 1955.821
157.054, 2002.726
157.536, 2031.724
158.018, 2035.294
158.501, 2020.630
158.983, 2008.775
159.465, 2002.329
159.947, 1995.890
160.429, 1989.030
160.911, 1981.957
161.393, 1976.585
161.875, 1974.062
162.358, 1971.266
162.840, 1957.024
163.322, 1923.158
163.804, 1885.716
164.286, 1843.469
164.768, 1799.110
165.250, 1755.138
165.732, 1713.041
166.214, 1672.792
166.697, 1636.019
167.179, 1602.594
167.661, 1572.809
168.143, 1548.714
168.625, 1527.897
169.107, 1506.758
169.589, 1483.261
170.071, 1458.162
170.553, 1435.273
171.036, 1412.811
171.518, 1394.280
172.000, 1382.809
172.482, 1375.645
172.964, 1368.165
173.446, 1357.793
173.928, 1345.151
174.411, 1333.462
174.893, 1324.109
175.375, 1314.120
175.857, 1301.443
176.339, 1287.679
176.821, 1276.148
177.303, 1268.942
177.785, 1265.193
178.267, 1259.693
178.749, 1248.881
179.232, 1240.560
179.714, 1238.330
180.196, 1240.202
180.678, 1241.703
181.160, 1240.180
181.642, 1236.481
182.124, 1235.588
182.607, 1242.160
183.089, 1245.861
183.571, 1240.807
184.053, 1230.380
184.535, 1222.235
185.017, 1220.801
185.499, 1224.709
185.981, 1226.693
186.463, 1228.694
186.945, 1227.300
187.428, 1217.368
187.910, 1202.979
188.392, 1194.014
188.874, 1196.771
189.356, 1208.107
189.838, 1213.136
190.320, 1207.017
190.802, 1201.341
191.285, 1198.992
191.767, 1199.849
192.249, 1204.162
192.731, 1212.843
193.213, 1224.289
193.695, 1231.940
194.177, 1234.681
194.659, 1235.785
195.141, 1236.176
195.624, 1235.677
196.106, 1233.018
196.588, 1226.555
197.070, 1218.753
197.552, 1219.335
198.034, 1237.138
198.516, 1250.566
198.998, 1249.959
199.480, 1240.419
199.963, 1233.146
200.445, 1234.137
200.927, 1239.403
201.409, 1235.509
201.891, 1216.678
202.373, 1199.040
202.855, 1188.006
203.337, 1181.175
203.820, 1174.657
204.302, 1167.212
204.784, 1158.220
205.266, 1145.460
205.748, 1127.118
206.230, 1108.848
206.712, 1091.690
207.194, 1075.519
207.676, 1060.314
208.159, 1046.081
208.641, 1032.685
209.123, 1019.905
209.605, 1006.443
210.087, 995.499
210.569, 990.247
211.051, 987.345
211.533, 981.577
212.016, 970.980
212.498, 957.545
212.980, 944.680
213.462, 930.316
213.944, 920.711
214.426, 920.238
214.908, 923.995
215.390, 925.473
215.872, 922.579
216.355, 918.002
216.837, 916.113
217.319, 917.336
217.801, 920.316
218.283, 926.912
218.765, 934.359
219.247, 938.528
219.730, 938.377
220.212, 938.333
220.694, 945.556
221.176, 965.889
221.658, 978.245
222.140, 976.064
222.622, 968.772
223.104, 963.856
223.586, 963.046
224.068, 965.592
224.551, 971.211
225.033, 981.878
225.515, 988.952
225.997, 989.829
226.479, 988.971
226.961, 990.146
227.443, 993.617
227.925, 996.592
228.408, 995.846
228.890, 989.997
229.372, 987.233
229.854, 992.909
230.336, 997.105
230.818, 991.924
231.300, 978.377
231.782, 963.947
232.264, 955.114
232.747, 952.290
233.229, 952.428
233.711, 962.185
234.193, 968.298
234.675, 961.272
235.157, 944.271
235.639, 927.880
236.121, 920.300
236.604, 921.472
237.086, 921.765
237.568, 921.501
238.050, 920.187
238.532, 916.086
239.014, 910.816
239.496, 908.002
239.978, 910.387
240.460, 916.864
240.943, 918.654
241.425, 913.086
241.907, 905.779
242.389, 896.789
242.871, 886.848
243.353, 876.604
243.835, 866.326
244.317, 856.368
244.799, 848.058
245.282, 844.009
245.764, 838.417
246.246, 826.526
246.728, 814.550
247.210, 811.169
247.692, 819.755
248.174, 833.431
248.656, 835.985
249.139, 816.462
249.621, 803.753
250.103, 802.045
250.585, 805.452
251.067, 810.763
251.549, 816.566
252.031, 820.861
252.513, 819.526
252.995, 807.971
253.478, 802.219
253.960, 804.427
254.442, 810.630
254.924, 820.906
255.406, 834.024
255.888, 845.499
256.370, 848.269
256.852, 838.798
257.335, 837.298
257.817, 852.938
258.299, 869.234
258.781, 879.367
259.263, 883.667
259.745, 886.013
260.227, 889.186
260.709, 893.189
261.191, 898.021
261.674, 905.771
262.156, 911.842
262.638, 914.165
263.120, 913.529
263.602, 911.699
264.084, 909.325
264.566, 906.663
265.048, 904.480
265.530, 902.032
266.013, 901.599
266.495, 905.344
266.977, 911.139
267.459, 916.427
267.941, 921.251
268.423, 923.609
268.905, 918.840
269.388, 905.103
269.870, 891.178
270.352, 878.286
270.834, 868.107
271.316, 863.988
271.798, 868.570
272.280, 874.027
272.762, 870.310
273.244, 857.341
273.727, 848.218
274.209, 850.678
274.691, 856.235
275.173, 854.253
275.655, 843.009
276.137, 831.286
276.619, 825.772
277.101, 824.703
277.583, 820.912
278.066, 811.430
278.548, 800.877
279.030, 794.555
279.512, 792.234
279.994, 791.999
280.476, 795.101
280.958, 799.336
281.440, 801.250
281.922, 800.278
282.405, 797.102
282.887, 790.826
283.369, 781.682
283.851, 776.500
284.333, 779.578
284.815, 784.554
285.297, 785.299
285.779, 781.844
286.262, 778.911
286.744, 780.111
287.226, 785.209
287.708, 789.437
288.190, 793.671
288.672, 796.305
289.154, 794.958
289.636, 791.276
290.118, 789.373
290.601, 791.429
291.083, 796.861
291.565, 803.466
292.047, 814.350
292.529, 822.544
293.011, 823.617
293.493, 822.584
293.975, 826.997
294.458, 839.474
294.940, 854.632
295.422, 862.245
295.904, 855.820
296.386, 852.558
296.868, 854.145
297.350, 857.489
297.832, 860.526
298.315, 862.869
298.797, 865.107
299.279, 867.821
299.761, 870.917
300.243, 875.026
300.725, 883.092
301.207, 889.369
301.689, 889.674
302.171, 886.008
302.654, 883.903
303.136, 887.747
303.618, 896.796
304.100, 905.462
304.582, 917.807
305.064, 923.547
305.546, 916.960
306.028, 903.499
306.510, 889.680
306.993, 877.825
307.475, 868.779
307.957, 865.391
308.439, 870.122
308.921, 872.244
309.403, 865.080
309.885, 855.748
310.367, 850.519
310.849, 850.950
311.332, 851.623
311.814, 847.178
312.296, 837.883
312.778, 827.838
313.260, 815.433
313.742, 805.679
314.224, 805.281
314.707, 813.524
315.189, 818.128
315.671, 808.992
316.153, 793.229
316.635, 785.420
317.117, 788.216
317.599, 793.381
318.081, 794.664
318.563, 792.495
319.046, 789.187
319.528, 783.643
320.010, 778.096
320.492, 774.486
320.974, 772.647
321.456, 771.094
321.938, 768.914
322.420, 766.421
322.902, 764.991
323.385, 761.528
323.867, 762.460
324.349, 774.230
324.831, 790.498
325.313, 801.165
325.795, 802.553
326.277, 798.138
326.759, 793.838
327.241, 787.360
327.724, 785.736
328.206, 793.769
328.688, 803.109
329.170, 806.421
329.652, 803.621
330.134, 800.872
330.616, 805.152
331.098, 818.050
331.581, 824.567
332.063, 817.777
332.545, 811.610
333.027, 810.659
333.509, 813.597
333.991, 817.603
334.473, 821.346
334.955, 824.322
335.438, 824.070
335.920, 817.253
336.402, 813.821
336.884, 817.891
337.366, 825.196
337.848, 832.101
338.330, 837.607
338.812, 842.078
339.294, 845.297
339.777, 847.161
340.259, 850.774
340.741, 859.782
341.223, 867.414
341.705, 867.331
342.187, 860.090
342.669, 853.324
343.151, 853.704
343.634, 856.960
344.116, 852.778
344.598, 838.812
345.080, 824.379
345.562, 816.537
346.044, 814.068
346.526, 811.933
347.008, 812.295
347.490, 810.535
347.973, 801.211
348.455, 786.231
348.937, 773.549
349.419, 767.102
349.901, 765.093
350.383, 762.620
350.865, 759.714
351.347, 756.391
351.829, 753.071
352.312, 749.133
352.794, 743.728
353.276, 736.717
353.758, 728.620
354.240, 719.782
354.722, 709.216
355.204, 701.816
355.686, 699.831
356.168, 698.288
356.651, 694.531
357.133, 689.141
357.615, 684.111
358.097, 680.690
358.579, 678.835
359.061, 678.570
359.543, 682.613
360.026, 683.867
360.508, 678.770
360.990, 671.440
361.472, 665.520
361.954, 662.090
362.436, 661.641
362.918, 666.849
363.400, 678.495
363.882, 684.639
364.365, 678.177
364.847, 670.678
365.329, 672.403
365.811, 682.264
366.293, 689.851
366.775, 686.934
367.257, 678.836
367.739, 676.221
368.221, 680.286
368.704, 685.764
369.186, 689.503
369.668, 691.811
370.150, 694.091
370.632, 697.230
371.114, 699.521
371.596, 699.727
372.078, 698.342
372.560, 696.399
373.043, 694.160
373.525, 692.118
374.007, 691.221
374.489, 691.417
374.971, 693.029
375.453, 699.554
375.935, 705.148
376.417, 702.978
376.900, 693.790
377.382, 685.651
377.864, 686.844
378.346, 697.751
378.828, 702.202
379.310, 690.929
379.792, 682.750
380.274, 685.254
380.757, 692.544
381.239, 695.438
381.721, 689.486
382.203, 679.599
382.685, 675.599
383.167, 679.513
383.649, 681.286
384.131, 678.953
384.613, 673.613
385.095, 664.009
385.578, 650.665
386.060, 639.502
386.542, 635.751
387.024, 637.142
387.506, 637.099
387.988, 634.856
388.470, 632.365
388.953, 631.660
389.435, 631.785
389.917, 629.816
390.399, 624.868
390.881, 618.242
391.363, 609.646
391.845, 599.929
392.327, 591.133
392.809, 583.788
393.292, 578.908
393.774, 579.053
394.256, 588.988
394.738, 594.107
395.220, 592.346
395.702, 586.558
396.184, 575.580
396.666, 561.513
397.148, 552.449
397.631, 556.809
398.113, 573.969
398.595, 581.577
399.077, 567.622
399.559, 557.925
400.041, 561.525
400.523, 570.968
401.005, 576.789
401.487, 575.356
401.970, 570.778
402.452, 568.921
402.934, 570.137
403.416, 571.029
403.898, 570.499
404.380, 570.083
404.862, 570.734
405.344, 572.438
405.827, 574.956
406.309, 579.256
406.791, 583.862
407.273, 586.402
407.755, 586.770
408.237, 585.792
408.719, 583.105
409.201, 579.710
409.684, 578.871
410.166, 582.269
410.648, 585.561
411.130, 586.585
411.612, 586.801
412.094, 588.671
412.576, 592.783
413.058, 597.416
413.540, 600.502
414.022, 602.174
414.505, 601.578
414.987, 595.325
415.469, 590.545
415.951, 592.870
416.433, 598.840
416.915, 600.618
417.397, 593.121
417.879, 580.888
418.362, 576.267
418.844, 582.583
419.326, 587.623
419.808, 589.083
420.290, 588.139
420.772, 584.935
421.254, 579.627
421.736, 573.659
422.219, 567.299
422.701, 561.101
423.183, 556.932
423.665, 555.247
424.147, 554.152
424.629, 552.795
425.111, 550.969
425.593, 548.126
426.075, 543.532
426.558, 538.679
427.040, 533.484
427.522, 528.670
428.004, 525.842
428.486, 525.588
428.968, 526.777
429.450, 527.798
429.932, 528.595
430.414, 529.393
430.897, 532.293
431.379, 533.276
431.861, 529.049
432.343, 521.106
432.825, 512.943
433.307, 506.422
433.789, 501.906
434.271, 501.286
434.754, 507.232
435.236, 510.609
435.718, 507.776
436.200, 502.749
436.682, 497.041
437.164, 491.144
437.646, 488.245
438.128, 493.552
438.611, 503.453
439.093, 507.126
439.575, 502.761
440.057, 497.270
440.539, 494.441
441.021, 494.368
441.503, 496.593
441.985, 504.254
442.467, 510.558
442.949, 512.410
443.432, 510.896
443.914, 506.392
444.396, 499.057
444.878, 493.281
445.360, 495.668
445.842, 509.660
446.324, 518.396
446.806, 518.756
447.289, 517.915
447.771, 518.611
448.253, 520.411
448.735, 522.035
449.217, 522.840
449.699, 522.956
450.181, 522.402
450.663, 520.871
451.146, 519.997
451.628, 519.534
452.110, 520.440
452.592, 525.007
453.074, 532.667
453.556, 537.302
454.038, 533.527
454.520, 525.906
455.002, 521.179
455.485, 519.616
455.967, 519.390
456.449, 519.747
456.931, 520.550
457.413, 521.445
457.895, 523.740
458.377, 524.068
458.859, 520.043
459.341, 514.730
459.824, 511.162
460.306, 509.835
460.788, 509.626
461.270, 509.928
461.752, 510.719
462.234, 507.820
462.716, 495.993
463.198, 487.138
463.681, 484.610
464.163, 486.199
464.645, 490.189
465.127, 496.255
465.609, 501.556
466.091, 502.274
466.573, 499.021
467.055, 497.224
467.538, 498.721
468.020, 499.289
468.502, 493.629
468.984, 483.680
469.466, 476.829
469.948, 476.373
470.430, 477.168
470.912, 475.438
471.394, 472.569
471.876, 472.307
472.359, 476.122
472.841, 481.366
473.323, 483.856
473.805, 482.448
474.287, 481.540
474.769, 483.574
475.251, 483.662
475.733, 476.753
476.216, 466.366
476.698, 460.153
477.180, 462.639
477.662, 469.948
478.144, 475.084
478.626, 478.163
479.108, 478.154
479.590, 471.837
480.073, 465.254
480.555, 464.091
481.037, 467.933
481.519, 471.737
482.001, 474.110
482.483, 475.154
482.965, 474.418
483.447, 472.217
483.929, 470.001
484.412, 468.182
484.894, 467.507
485.376, 469.996
485.858, 480.001
486.340, 486.134
486.822, 485.479
487.304, 483.061
487.786, 482.106
488.268, 482.776
488.751, 483.833
489.233, 484.366
489.715, 484.623
490.197, 485.782
490.679, 488.594
491.161, 490.224
491.643, 489.025
492.125, 486.786
492.608, 484.772
493.090, 483.099
493.572, 481.624
494.054, 480.908
494.536, 480.085
495.018, 477.060
495.500, 471.870
495.982, 468.224
496.465, 468.954
496.947, 472.388
497.429, 472.354
497.911, 464.717
498.393, 459.718
498.875, 460.719
499.357, 463.057
499.839, 462.311
500.321, 458.496
500.803, 454.867
501.286, 454.222
501.768, 456.013
502.250, 457.155
502.732, 457.529
503.214, 457.514
503.696, 456.941
504.178, 456.193
504.660, 455.392
505.143, 454.527
505.625, 454.399
506.107, 457.352
506.589, 460.649
507.071, 458.607
507.553, 450.957
508.035, 443.529
508.517, 439.891
509.000, 439.378
509.482, 439.351
509.964, 441.900
510.446, 442.103
510.928, 435.909
511.410, 429.662
511.892, 429.405
512.374, 435.070
512.856, 442.258
513.339, 448.179
513.821, 452.300
514.303, 451.217
514.785, 442.573
515.267, 434.928
515.749, 431.771
516.231, 430.547
516.713, 428.100
517.195, 423.928
517.678, 423.317
518.160, 433.716
518.642, 446.759
519.124, 449.309
519.606, 441.598
520.088, 434.298
520.570, 433.820
521.052, 438.377
521.534, 442.157
522.017, 444.318
522.499, 446.790
522.981, 451.322
523.463, 454.805
523.945, 453.215
524.427, 448.035
524.909, 445.485
525.391, 451.299
525.874, 461.402
526.356, 463.486
526.838, 455.665
527.320, 450.030
527.802, 451.112
528.284, 455.219
528.766, 458.617
529.248, 461.332
529.731, 462.246
530.213, 458.945
530.695, 455.253
531.177, 455.774
531.659, 459.282
532.141, 460.308
532.623, 455.849
533.105, 449.184
533.588, 447.771
534.070, 455.181
534.552, 460.250
535.034, 462.622
535.516, 463.223
535.998, 461.900
536.480, 459.186
536.962, 455.959
537.444, 452.259
537.927, 449.003
538.409, 447.404
538.891, 447.427
539.373, 449.623
539.855, 455.755
540.337, 460.110
540.819, 454.261
541.301, 438.098
541.783, 429.635
542.266, 436.808
542.748, 444.319
543.230, 445.307
543.712, 441.800
544.194, 436.563
544.676, 430.761
545.158, 426.111
545.640, 424.730
546.122, 426.692
546.605, 431.899
547.087, 445.912
547.569, 454.637
548.051, 447.432
548.533, 433.575
549.015, 426.051
549.497, 428.344
549.979, 433.896
550.461, 441.482
550.944, 448.467
551.426, 448.091
551.908, 439.859
552.390, 433.317
552.872, 436.421
553.354, 446.971
553.836, 451.321
554.318, 441.352
554.801, 435.461
555.283, 439.413
555.765, 444.409
556.247, 441.376
556.729, 431.445
557.211, 424.613
557.693, 430.277
558.175, 442.515
558.657, 446.658
559.140, 442.088
559.622, 436.161
560.104, 429.713
560.586, 424.938
561.068, 426.293
561.550, 434.313
562.032, 439.711
562.515, 438.887
562.997, 437.050
563.479, 438.268
563.961, 441.061
564.443, 441.425
564.925, 437.669
565.407, 432.389
565.889, 429.799
566.371, 430.254
566.854, 431.581
567.336, 435.817
567.818, 438.075
568.300, 434.786
568.782, 428.424
569.264, 422.950
569.746, 418.662
570.228, 417.007
570.710, 419.875
571.193, 425.776
571.675, 433.011
572.157, 441.083
572.639, 447.499
573.121, 450.635
573.603, 450.317
574.085, 445.032
574.567, 426.300
575.049, 414.914
575.532, 417.868
576.014, 424.682
576.496, 427.295
576.978, 425.619
577.460, 424.777
577.942, 429.698
578.424, 436.218
578.906, 436.131
579.388, 429.768
579.871, 423.824
580.353, 420.283
580.835, 418.613
581.317, 418.600
581.799, 420.952
582.281, 421.196
582.763, 416.029
583.245, 412.283
583.728, 414.740
584.210, 419.998
584.692, 421.957
585.174, 418.826
585.656, 415.506
586.138, 419.260
586.620, 429.386
587.102, 434.883
587.585, 434.683
588.067, 432.131
588.549, 427.438
589.031, 422.094
589.513, 419.211
589.995, 419.892
590.477, 419.968
590.959, 415.572
591.442, 411.859
591.924, 415.657
592.406, 425.177
592.888, 432.371
593.370, 432.419
593.852, 428.126
594.334, 426.237
594.816, 427.634
595.299, 427.975
595.781, 426.832
596.263, 424.477
596.745, 418.811
597.227, 412.180
597.709, 411.111
598.191, 421.733
598.673, 431.441
599.155, 429.758
599.638, 422.135
600.120, 418.806
600.602, 421.477
601.084, 425.010
601.566, 424.990
602.048, 421.804
602.530, 418.424
603.012, 412.988
603.494, 410.661
603.977, 415.751
604.459, 421.280
604.941, 421.307
605.423, 416.352
605.905, 412.112
606.387, 410.857
606.869, 412.242
607.351, 418.224
607.833, 426.965
608.316, 430.438
608.798, 425.785
609.280, 418.504
609.762, 415.002
610.244, 415.518
610.726, 417.535
611.208, 424.093
611.690, 428.507
612.172, 428.163
612.655, 425.657
613.137, 424.103
613.619, 423.949
614.101, 422.623
614.583, 415.287
615.065, 406.544
615.547, 407.420
616.029, 417.395
616.512, 424.563
616.994, 423.503
617.476, 418.006
617.958, 414.072
618.440, 411.530
618.922, 411.412
619.404, 416.023
619.886, 420.334
620.369, 422.052
620.851, 422.302
621.333, 422.570
621.815, 423.331
622.297, 425.143
622.779, 429.969
623.261, 436.233
623.743, 438.485
624.226, 436.233
624.708, 433.300
625.190, 431.677
625.672, 430.688
626.154, 428.669
626.636, 424.340
627.118, 421.801
627.600, 422.523
628.082, 423.678
628.565, 422.680
629.047, 421.176
629.529, 423.214
630.011, 430.747
630.493, 438.377
630.975, 438.560
631.457, 432.921
631.939, 429.029
632.421, 427.453
632.904, 428.599
633.386, 434.207
633.868, 441.890
634.350, 444.018
634.832, 436.594
635.314, 431.352
635.796, 429.636
636.278, 429.820
636.760, 431.664
637.243, 434.454
637.725, 436.964
638.207, 438.608
638.689, 439.865
639.171, 441.904
639.653, 444.330
640.135, 444.264
640.617, 440.894
641.099, 437.435
641.582, 435.747
642.064, 435.736
642.546, 437.259
643.028, 443.651
643.510, 446.122
643.992, 439.995
644.474, 433.179
644.956, 431.268
645.439, 433.306
645.921, 435.519
646.403, 436.045
646.885, 436.055
647.367, 437.649
647.849, 440.355
648.331, 441.018
648.813, 438.999
649.295, 436.187
649.778, 433.675
