##NAMES=Blixite
##RRUFFID=R070364
##IDEAL CHEMISTRY=Pb^2+^_8_O_5_(OH)_2_Cl_4_
##LOCALITY=Upper Bolivia Stope, 185 m level, Nya Schaktet Shaft, Langban, Filipstad, Varmland, Sweden
##OWNER=RRUFF
##SOURCE=Michael Scott
##DESCRIPTION=Pale gray-yellow massive with vitreous luster, associated with black hausmannite
##STATUS=The identification of this mineral has been confirmed only by single crystal X-ray diffraction.
##URL=rruff.info/R070364
115.2340, 737.1103
115.7161, 821.4383
116.1982, 912.2726
116.6804, 1012.104
117.1625, 1119.275
117.6446, 1232.606
118.1267, 1366.521
118.6088, 1522.972
119.0909, 1705.943
119.5731, 1922.737
120.0552, 2174.594
120.5373, 2461.370
121.0194, 2783.503
121.5015, 3142.300
121.9836, 3535.097
122.4658, 3986.540
122.9479, 4460.206
123.4300, 4916.479
123.9121, 5336.679
124.3942, 5745.572
124.8763, 6200.029
125.3585, 6728.842
125.8406, 7264.751
126.3227, 7767.232
126.8048, 8274.803
127.2869, 8833.728
127.7690, 9462.974
128.2512, 10161.56
128.7333, 10901.86
129.2154, 11667.66
129.6975, 12506.08
130.1796, 13453.81
130.6617, 14468.29
131.1439, 15500.60
131.6260, 16530.81
132.1081, 17545.32
132.5902, 18435.11
133.0723, 19154.56
133.5544, 19784.62
134.0366, 20261.47
134.5187, 20659.56
135.0008, 21088.44
135.4829, 21613.26
135.9650, 22234.56
136.4471, 22996.20
136.9293, 24144.06
137.4114, 25166.99
137.8935, 26067.59
138.3756, 26734.44
138.8577, 26966.69
139.3398, 26603.61
139.8220, 25635.96
140.3041, 24341.29
140.7862, 22513.97
141.2683, 20637.69
141.7504, 18845.59
142.2325, 17178.27
142.7147, 15700.22
143.1968, 14457.95
143.6789, 13473.11
144.1610, 12642.82
144.6431, 11989.34
145.1252, 11452.48
145.6074, 11023.66
146.0895, 10691.83
146.5716, 10414.60
147.0537, 10166.28
147.5358, 9949.361
148.0179, 9738.434
148.5001, 9538.284
148.9822, 9340.706
149.4643, 9138.147
149.9464, 8929.303
150.4285, 8722.219
150.9106, 8522.891
151.3928, 8331.151
151.8749, 8135.868
152.3570, 7932.129
152.8391, 7727.357
153.3212, 7522.400
153.8033, 7317.360
154.2855, 7125.407
154.7676, 6960.782
155.2497, 6818.815
155.7318, 6681.404
156.2139, 6536.900
156.6960, 6400.025
157.1782, 6288.198
157.6603, 6203.472
158.1424, 6136.208
158.6245, 6085.592
159.1066, 6047.880
159.5887, 6016.271
160.0709, 5991.365
160.5530, 5970.891
161.0351, 5949.935
161.5172, 5926.216
161.9993, 5910.652
162.4814, 5915.667
162.9636, 5934.228
163.4457, 5955.600
163.9278, 5982.379
164.4099, 6007.939
164.8920, 6018.028
165.3741, 6008.153
165.8563, 5995.197
166.3384, 5989.743
166.8205, 5988.502
167.3026, 5985.884
167.7847, 5976.564
168.2668, 5965.391
168.7490, 5964.174
169.2311, 5977.186
169.7132, 5990.607
170.1953, 5999.299
170.6774, 6003.387
171.1595, 6002.303
171.6417, 5994.574
172.1238, 5982.001
172.6059, 5969.226
173.0880, 5957.169
173.5701, 5942.819
174.0522, 5921.853
174.5344, 5898.441
175.0165, 5877.954
175.4986, 5859.596
175.9807, 5847.733
176.4628, 5858.059
176.9449, 5907.325
177.4271, 5947.830
177.9092, 5956.138
178.3913, 5947.215
178.8734, 5940.501
179.3555, 5944.831
179.8376, 5958.056
180.3197, 5975.237
180.8019, 6002.182
181.2840, 6022.272
181.7661, 6024.219
182.2482, 6019.308
182.7303, 6021.894
183.2124, 6039.886
183.6946, 6068.234
184.1767, 6092.174
184.6588, 6107.151
185.1409, 6125.547
185.6230, 6145.388
186.1051, 6171.363
186.5873, 6214.184
187.0694, 6282.979
187.5515, 6359.612
188.0336, 6394.186
188.5157, 6360.624
188.9978, 6327.092
189.4800, 6303.167
189.9621, 6289.116
190.4442, 6284.557
190.9263, 6289.348
191.4084, 6304.441
191.8905, 6334.665
192.3727, 6395.451
192.8548, 6443.769
193.3369, 6469.374
193.8190, 6482.936
194.3011, 6493.212
194.7832, 6503.577
195.2654, 6514.833
195.7475, 6528.757
196.2296, 6546.849
196.7117, 6565.180
197.1938, 6583.065
197.6759, 6601.022
198.1581, 6621.515
198.6402, 6645.141
199.1223, 6666.374
199.6044, 6673.676
200.0865, 6658.160
200.5686, 6645.957
201.0508, 6639.561
201.5329, 6636.547
202.0150, 6638.276
202.4971, 6644.172
202.9792, 6647.334
203.4613, 6634.838
203.9435, 6596.243
204.4256, 6565.453
204.9077, 6550.836
205.3898, 6538.547
205.8719, 6519.662
206.3540, 6492.245
206.8362, 6459.769
207.3183, 6425.530
207.8004, 6386.806
208.2825, 6354.312
208.7646, 6328.492
209.2467, 6307.597
209.7289, 6295.589
210.2110, 6290.292
210.6931, 6281.142
211.1752, 6252.439
211.6573, 6194.116
212.1395, 6154.329
212.6216, 6144.575
213.1037, 6142.183
213.5858, 6137.324
214.0679, 6129.493
214.5500, 6123.725
215.0322, 6127.188
215.5143, 6143.432
215.9964, 6144.690
216.4785, 6113.570
216.9606, 6083.799
217.4427, 6065.854
217.9249, 6060.165
218.4070, 6063.380
218.8891, 6073.588
219.3712, 6090.960
219.8533, 6109.131
220.3354, 6129.468
220.8176, 6149.321
221.2997, 6170.242
221.7818, 6190.094
222.2639, 6203.696
222.7460, 6205.422
223.2281, 6197.624
223.7103, 6205.646
224.1924, 6250.129
224.6745, 6288.819
225.1566, 6310.768
225.6387, 6321.943
226.1208, 6331.396
226.6030, 6344.017
227.0851, 6359.396
227.5672, 6375.216
228.0493, 6383.888
228.5314, 6404.560
229.0135, 6449.357
229.4957, 6503.652
229.9778, 6549.273
230.4599, 6577.693
230.9420, 6597.854
231.4241, 6635.215
231.9062, 6715.683
232.3884, 6766.749
232.8705, 6755.603
233.3526, 6728.483
233.8347, 6726.071
234.3168, 6761.625
234.7989, 6818.595
235.2811, 6868.083
235.7632, 6903.588
236.2453, 6947.724
236.7274, 7003.731
237.2095, 7067.122
237.6916, 7135.822
238.1738, 7209.168
238.6559, 7287.511
239.1380, 7373.246
239.6201, 7469.608
240.1022, 7561.907
240.5843, 7646.537
241.0665, 7729.470
241.5486, 7811.974
242.0307, 7895.302
242.5128, 7981.610
242.9949, 8071.487
243.4770, 8164.461
243.9592, 8268.851
244.4413, 8390.184
244.9234, 8520.113
245.4055, 8657.959
245.8876, 8802.404
246.3697, 8949.754
246.8519, 9097.303
247.3340, 9246.438
247.8161, 9401.118
248.2982, 9564.368
248.7803, 9730.541
249.2624, 9900.490
249.7446, 10071.99
250.2267, 10242.21
250.7088, 10414.05
251.1909, 10580.47
251.6730, 10717.44
252.1551, 10805.52
252.6373, 10904.71
253.1194, 11051.02
253.6015, 11210.16
254.0836, 11345.81
254.5657, 11444.39
255.0478, 11516.72
255.5300, 11576.25
256.0121, 11618.61
256.4942, 11664.11
256.9763, 11740.93
257.4584, 11809.80
257.9406, 11839.01
258.4227, 11821.18
258.9048, 11779.47
259.3869, 11728.88
259.8690, 11668.22
260.3511, 11626.34
260.8333, 11626.02
261.3154, 11630.98
261.7975, 11616.22
262.2796, 11581.06
262.7617, 11536.68
263.2438, 11483.49
263.7260, 11424.83
264.2081, 11380.79
264.6902, 11355.06
265.1723, 11342.91
265.6544, 11340.14
266.1365, 11346.29
266.6187, 11361.07
267.1008, 11381.51
267.5829, 11410.97
268.0650, 11458.43
268.5471, 11527.00
269.0292, 11603.73
269.5114, 11677.44
269.9935, 11753.14
270.4756, 11841.73
270.9577, 11941.65
271.4398, 12059.16
271.9219, 12206.25
272.4041, 12383.94
272.8862, 12568.42
273.3683, 12750.56
273.8504, 12931.21
274.3325, 13108.35
274.8146, 13271.18
275.2968, 13450.77
275.7789, 13679.37
276.2610, 13945.42
276.7431, 14202.03
277.2252, 14428.73
277.7073, 14644.49
278.1895, 14878.62
278.6716, 15127.59
279.1537, 15399.45
279.6358, 15707.59
280.1179, 16037.93
280.6000, 16368.18
281.0822, 16696.06
281.5643, 17013.16
282.0464, 17308.66
282.5285, 17579.44
283.0106, 17848.75
283.4927, 18130.81
283.9749, 18404.76
284.4570, 18654.54
284.9391, 18878.59
285.4212, 19084.73
285.9033, 19285.26
286.3854, 19475.60
286.8676, 19596.30
287.3497, 19609.81
287.8318, 19597.46
288.3139, 19615.63
288.7960, 19641.87
289.2781, 19614.65
289.7603, 19500.32
290.2424, 19306.62
290.7245, 19063.89
291.2066, 18751.45
291.6887, 18419.50
292.1708, 18063.91
292.6530, 17696.77
293.1351, 17334.60
293.6172, 16983.01
294.0993, 16631.31
294.5814, 16262.08
295.0635, 15857.63
295.5457, 15467.12
296.0278, 15084.16
296.5099, 14720.71
296.9920, 14387.94
297.4741, 14085.32
297.9562, 13808.98
298.4384, 13555.12
298.9205, 13325.95
299.4026, 13101.65
299.8847, 12876.19
300.3668, 12661.54
300.8489, 12456.64
301.3310, 12265.16
301.8131, 12096.03
302.2953, 11956.98
302.7774, 11842.50
303.2595, 11723.88
303.7416, 11593.02
304.2237, 11470.54
304.7058, 11355.81
305.1880, 11252.64
305.6701, 11168.34
306.1522, 11106.11
306.6343, 11053.40
307.1164, 10986.73
307.5985, 10899.00
308.0807, 10824.85
308.5628, 10781.59
309.0449, 10746.47
309.5270, 10704.62
310.0091, 10655.50
310.4912, 10613.63
310.9734, 10596.16
311.4555, 10600.43
311.9376, 10596.43
312.4197, 10573.91
312.9018, 10555.14
313.3839, 10556.84
313.8661, 10572.82
314.3482, 10586.87
314.8303, 10585.17
315.3124, 10579.95
315.7945, 10596.41
316.2766, 10638.47
316.7588, 10679.37
317.2409, 10707.81
317.7230, 10724.20
318.2051, 10729.68
318.6872, 10725.21
319.1693, 10708.22
319.6515, 10669.77
320.1336, 10614.89
320.6157, 10565.03
321.0978, 10527.34
321.5799, 10498.48
322.0620, 10477.24
322.5442, 10467.53
323.0263, 10443.71
323.5084, 10386.70
323.9905, 10316.43
324.4726, 10259.02
324.9547, 10218.61
325.4369, 10184.60
325.9190, 10149.72
326.4011, 10114.17
326.8832, 10062.41
327.3653, 9985.956
327.8474, 9901.619
328.3296, 9819.835
328.8117, 9738.098
329.2938, 9647.526
329.7759, 9542.001
330.2580, 9424.241
330.7401, 9309.943
331.2223, 9205.682
331.7044, 9096.010
332.1865, 8976.987
332.6686, 8852.489
333.1507, 8725.292
333.6328, 8596.897
334.1150, 8469.103
334.5971, 8343.909
335.0792, 8222.937
335.5613, 8101.603
336.0434, 7983.676
336.5255, 7862.438
337.0077, 7733.057
337.4898, 7597.484
337.9719, 7460.724
338.4540, 7326.292
338.9361, 7194.665
339.4182, 7070.628
339.9004, 6961.290
340.3825, 6850.391
340.8646, 6727.969
341.3467, 6602.740
341.8288, 6485.751
342.3109, 6380.714
342.7931, 6285.049
343.2752, 6196.513
343.7573, 6115.838
344.2394, 6036.190
344.7215, 5955.979
345.2036, 5875.937
345.6858, 5798.390
346.1679, 5722.968
346.6500, 5642.064
347.1321, 5539.954
347.6142, 5428.893
348.0963, 5345.147
348.5785, 5297.691
349.0606, 5260.457
349.5427, 5216.584
350.0248, 5166.932
350.5069, 5113.343
350.9890, 5051.534
351.4712, 4989.266
351.9533, 4932.019
352.4354, 4879.459
352.9175, 4829.229
353.3996, 4779.459
353.8817, 4732.235
354.3639, 4694.480
354.8460, 4671.478
355.3281, 4644.971
355.8102, 4612.759
356.2923, 4574.152
356.7744, 4522.583
357.2566, 4458.082
357.7387, 4400.496
358.2208, 4374.926
358.7029, 4390.920
359.1850, 4385.008
359.6671, 4340.106
360.1493, 4293.801
360.6314, 4266.504
361.1135, 4250.898
361.5956, 4227.293
362.0777, 4182.887
362.5598, 4125.526
363.0420, 4083.653
363.5241, 4063.724
364.0062, 4050.296
364.4883, 4050.795
364.9704, 4050.495
365.4525, 4035.246
365.9347, 4002.926
366.4168, 3964.722
366.8989, 3930.054
367.3810, 3898.108
367.8631, 3880.003
368.3452, 3885.852
368.8274, 3894.560
369.3095, 3898.268
369.7916, 3896.390
370.2737, 3887.854
370.7558, 3870.169
371.2379, 3847.179
371.7201, 3822.666
372.2022, 3795.595
372.6843, 3777.756
373.1664, 3779.840
373.6485, 3791.015
374.1306, 3793.925
374.6128, 3785.746
375.0949, 3777.679
375.5770, 3776.717
376.0591, 3779.788
376.5412, 3781.013
377.0233, 3779.209
377.5055, 3775.231
377.9876, 3768.382
378.4697, 3758.183
378.9518, 3755.413
379.4339, 3766.504
379.9160, 3779.404
380.3982, 3785.753
380.8803, 3787.798
381.3624, 3793.614
381.8445, 3808.223
382.3266, 3827.285
382.8087, 3837.718
383.2909, 3828.748
383.7730, 3824.854
384.2551, 3827.068
384.7372, 3834.129
385.2193, 3847.689
385.7014, 3866.436
386.1836, 3883.870
386.6657, 3892.380
387.1478, 3891.323
387.6299, 3892.991
388.1120, 3897.151
388.5941, 3904.749
389.0763, 3917.267
389.5584, 3932.975
390.0405, 3948.822
390.5226, 3963.278
391.0047, 3978.479
391.4868, 4000.332
391.9690, 4030.171
392.4511, 4052.915
392.9332, 4061.415
393.4153, 4063.635
393.8974, 4068.025
394.3795, 4074.653
394.8617, 4077.669
395.3438, 4070.678
395.8259, 4059.463
396.3080, 4055.744
396.7901, 4061.127
397.2722, 4063.130
397.7544, 4052.707
398.2365, 4031.197
398.7186, 4008.692
399.2007, 3987.082
399.6828, 3962.682
400.1649, 3927.972
400.6471, 3890.984
401.1292, 3868.291
401.6113, 3865.329
402.0934, 3866.675
402.5755, 3848.413
403.0576, 3800.931
403.5398, 3762.994
404.0219, 3743.001
404.5040, 3723.021
404.9861, 3691.798
405.4682, 3652.627
405.9503, 3616.263
406.4325, 3590.164
406.9146, 3570.367
407.3967, 3543.031
407.8788, 3505.168
408.3609, 3465.743
408.8430, 3419.041
409.3252, 3376.200
409.8073, 3349.585
410.2894, 3339.920
410.7715, 3330.774
411.2536, 3306.503
411.7357, 3270.084
412.2179, 3237.146
412.7000, 3208.750
413.1821, 3183.975
413.6642, 3163.818
414.1463, 3146.781
414.6284, 3131.002
415.1106, 3118.750
415.5927, 3104.327
416.0748, 3081.255
416.5569, 3052.310
417.0390, 3024.525
417.5211, 2999.015
418.0033, 2980.850
418.4854, 2980.482
418.9675, 3007.364
419.4496, 3019.193
419.9317, 3004.235
420.4138, 2982.181
420.8960, 2964.650
421.3781, 2951.820
421.8602, 2939.880
422.3423, 2926.420
422.8244, 2911.607
423.3065, 2895.812
423.7887, 2873.954
424.2708, 2859.435
424.7529, 2861.888
425.2350, 2865.979
425.7171, 2859.436
426.1992, 2840.507
426.6814, 2815.432
427.1635, 2785.966
427.6456, 2753.132
428.1277, 2733.218
428.6098, 2732.003
429.0919, 2732.758
429.5741, 2729.533
430.0562, 2722.013
430.5383, 2707.998
431.0204, 2683.313
431.5025, 2659.965
431.9846, 2650.302
432.4668, 2650.653
432.9489, 2648.367
433.4310, 2640.549
433.9131, 2627.996
434.3952, 2609.588
434.8773, 2584.364
435.3595, 2565.530
435.8416, 2557.080
436.3237, 2552.338
436.8058, 2550.517
437.2879, 2549.046
437.7701, 2541.801
438.2522, 2525.321
438.7343, 2503.313
439.2164, 2485.254
439.6985, 2473.167
440.1806, 2461.699
440.6628, 2449.177
441.1449, 2438.276
441.6270, 2433.661
442.1091, 2433.028
442.5912, 2427.444
443.0733, 2407.536
443.5555, 2378.515
444.0376, 2362.336
444.5197, 2364.633
445.0018, 2363.942
445.4839, 2347.587
445.9660, 2326.415
446.4482, 2311.686
446.9303, 2305.739
447.4124, 2298.963
447.8945, 2284.097
448.3766, 2264.491
448.8587, 2246.547
449.3409, 2230.933
449.8230, 2218.813
450.3051, 2213.339
450.7872, 2212.884
451.2693, 2202.613
451.7514, 2172.386
452.2336, 2144.944
452.7157, 2128.072
453.1978, 2118.389
453.6799, 2114.486
454.1620, 2114.931
454.6441, 2111.196
455.1263, 2090.159
455.6084, 2046.780
456.0905, 2014.861
456.5726, 2005.009
457.0547, 1996.553
457.5368, 1985.076
458.0190, 1970.503
458.5011, 1952.741
458.9832, 1931.163
459.4653, 1909.122
459.9474, 1892.527
460.4295, 1881.573
460.9117, 1866.560
461.3938, 1842.984
461.8759, 1818.465
462.3580, 1796.674
462.8401, 1778.463
463.3222, 1770.072
463.8044, 1782.411
464.2865, 1797.992
464.7686, 1803.675
465.2507, 1799.474
465.7328, 1785.409
466.2149, 1760.255
466.6971, 1729.596
467.1792, 1704.412
467.6613, 1685.673
468.1434, 1671.116
468.6255, 1662.413
469.1076, 1656.315
469.5898, 1652.342
470.0719, 1649.334
470.5540, 1644.988
471.0361, 1637.619
471.5182, 1628.496
472.0003, 1621.647
472.4825, 1618.882
472.9646, 1613.553
473.4467, 1598.753
473.9288, 1584.973
474.4109, 1580.591
474.8930, 1585.123
475.3752, 1589.613
475.8573, 1591.150
476.3394, 1588.522
476.8215, 1576.822
477.3036, 1555.892
477.7857, 1538.649
478.2679, 1532.516
478.7500, 1533.374
479.2321, 1531.447
479.7142, 1526.471
480.1963, 1520.066
480.6784, 1510.427
481.1606, 1500.904
481.6427, 1495.535
482.1248, 1493.799
482.6069, 1491.089
483.0890, 1483.423
483.5711, 1472.446
484.0533, 1467.405
484.5354, 1472.398
485.0175, 1476.785
485.4996, 1479.708
485.9817, 1481.046
486.4638, 1480.385
486.9460, 1477.841
487.4281, 1474.393
487.9102, 1470.733
488.3923, 1466.759
488.8744, 1462.066
489.3565, 1456.573
489.8387, 1450.875
490.3208, 1445.402
490.8029, 1439.836
491.2850, 1433.599
491.7671, 1426.565
492.2492, 1419.228
492.7314, 1409.818
493.2135, 1401.336
493.6956, 1398.301
494.1777, 1400.485
494.6598, 1402.882
495.1419, 1401.494
495.6241, 1397.184
496.1062, 1395.743
496.5883, 1403.179
497.0704, 1404.837
497.5525, 1391.587
498.0346, 1377.541
498.5168, 1377.119
498.9989, 1390.078
499.4810, 1402.067
499.9631, 1400.496
500.4452, 1388.523
500.9273, 1377.207
501.4095, 1365.974
501.8916, 1357.950
502.3737, 1356.322
502.8558, 1357.692
503.3379, 1356.577
503.8200, 1352.364
504.3022, 1347.874
504.7843, 1343.336
505.2664, 1339.556
505.7485, 1337.716
506.2306, 1337.760
506.7127, 1338.776
507.1949, 1340.282
507.6770, 1342.100
508.1591, 1343.512
508.6412, 1346.113
509.1233, 1345.778
509.6054, 1340.342
510.0876, 1333.559
510.5697, 1327.768
511.0518, 1323.285
511.5339, 1319.432
512.0161, 1314.982
512.4982, 1311.281
512.9803, 1313.025
513.4624, 1321.286
513.9445, 1328.660
514.4266, 1334.071
514.9088, 1335.884
515.3909, 1331.107
515.8730, 1319.100
516.3551, 1309.013
516.8372, 1304.776
517.3193, 1302.781
517.8015, 1299.445
518.2836, 1295.138
518.7657, 1292.098
519.2478, 1291.512
519.7299, 1292.973
520.2120, 1295.688
520.6942, 1301.106
521.1763, 1304.998
521.6584, 1308.267
522.1405, 1309.389
522.6226, 1307.175
523.1047, 1302.122
523.5869, 1295.489
524.0690, 1287.692
524.5511, 1279.141
525.0332, 1269.227
525.5153, 1257.987
525.9974, 1252.116
526.4796, 1256.379
526.9617, 1261.282
527.4438, 1252.194
527.9259, 1231.525
528.4080, 1223.574
528.8901, 1245.578
529.3723, 1267.524
529.8544, 1268.443
530.3365, 1257.103
530.8186, 1251.816
531.3007, 1258.719
531.7828, 1269.530
532.2650, 1272.684
532.7471, 1266.830
533.2292, 1261.782
533.7113, 1257.864
534.1934, 1254.413
534.6755, 1248.654
535.1577, 1244.219
535.6398, 1247.696
536.1219, 1261.865
536.6040, 1275.570
537.0861, 1276.364
537.5682, 1268.262
538.0504, 1265.053
538.5325, 1269.054
539.0146, 1272.265
539.4967, 1267.960
539.9788, 1258.262
540.4609, 1253.893
540.9431, 1260.699
541.4252, 1264.169
541.9073, 1260.504
542.3894, 1252.786
542.8715, 1240.719
543.3536, 1226.524
543.8358, 1218.151
544.3179, 1223.241
544.8000, 1237.951
545.2821, 1244.613
545.7642, 1239.392
546.2463, 1236.659
546.7285, 1243.493
547.2106, 1251.555
547.6926, 1254.855
548.1747, 1253.270
548.6569, 1249.190
549.1390, 1240.928
549.6211, 1232.604
550.1032, 1228.409
550.5853, 1228.158
551.0674, 1232.016
551.5496, 1240.940
552.0317, 1249.403
552.5138, 1247.686
552.9959, 1230.726
553.4780, 1220.739
553.9601, 1221.814
554.4423, 1224.373
554.9244, 1223.909
555.4065, 1222.591
555.8886, 1225.725
556.3707, 1235.486
556.8528, 1243.730
557.3350, 1237.408
557.8171, 1218.955
558.2992, 1209.035
558.7813, 1211.365
559.2634, 1216.618
559.7455, 1220.942
560.2277, 1223.115
560.7098, 1219.483
561.1919, 1202.924
561.6740, 1192.980
562.1561, 1202.132
562.6382, 1217.036
563.1204, 1223.595
563.6025, 1220.838
564.0846, 1215.616
564.5667, 1212.868
565.0488, 1211.584
565.5309, 1207.241
566.0131, 1197.544
566.4952, 1190.589
566.9773, 1188.318
567.4594, 1188.892
567.9415, 1193.460
568.4236, 1200.549
568.9058, 1204.134
569.3879, 1199.592
569.8700, 1192.327
570.3521, 1186.411
570.8342, 1182.219
571.3163, 1182.186
571.7985, 1187.482
572.2806, 1192.732
572.7627, 1190.979
573.2448, 1181.152
573.7269, 1174.406
574.2090, 1174.047
574.6912, 1172.572
575.1733, 1163.521
575.6554, 1154.789
576.1375, 1159.458
576.6196, 1178.646
577.1017, 1193.171
577.5839, 1176.939
578.0660, 1142.222
578.5481, 1133.921
579.0302, 1155.693
579.5123, 1176.996
579.9944, 1183.874
580.4766, 1182.261
580.9587, 1183.512
581.4408, 1188.940
581.9229, 1191.399
582.4050, 1188.428
582.8871, 1183.526
583.3693, 1179.432
583.8514, 1175.226
584.3335, 1167.138
584.8156, 1153.421
585.2977, 1139.809
585.7798, 1136.813
586.2620, 1145.647
586.7441, 1150.782
587.2262, 1149.766
587.7083, 1147.880
588.1904, 1147.386
588.6725, 1148.203
589.1547, 1150.782
589.6368, 1156.512
590.1189, 1160.482
590.6010, 1159.943
591.0831, 1156.529
591.5652, 1150.611
592.0474, 1143.301
592.5295, 1139.402
593.0116, 1142.673
593.4937, 1150.000
593.9758, 1151.373
594.4579, 1143.527
594.9401, 1137.476
595.4222, 1133.043
595.9043, 1131.704
596.3864, 1136.922
596.8685, 1145.838
597.3506, 1151.109
597.8328, 1148.285
598.3149, 1144.369
598.7970, 1146.454
599.2791, 1152.325
599.7612, 1156.493
600.2433, 1157.918
600.7255, 1157.292
601.2076, 1154.666
601.6897, 1150.548
602.1718, 1149.144
602.6539, 1155.276
603.1360, 1157.460
603.6182, 1150.273
604.1003, 1142.497
604.5824, 1142.147
605.0645, 1147.846
605.5466, 1151.184
606.0287, 1145.247
606.5109, 1137.192
606.9930, 1139.680
607.4751, 1151.114
607.9572, 1158.292
608.4393, 1157.351
608.9214, 1153.772
609.4036, 1152.677
609.8857, 1154.087
610.3678, 1156.202
610.8499, 1161.248
