##NAMES=Blodite
##RRUFFID=R050341
##IDEAL CHEMISTRY=Na_2_Mg(S^6+^O_4_)_2_&#183;4H_2_O
##LOCALITY=Soda Lake, San Luis Obispo County, California, USA
##OWNER=RRUFF
##SOURCE=George Rossman
##DESCRIPTION=Gray to colorless equant crystal
##STATUS=The identification of this mineral has been confirmed by X-ray diffraction and chemical analysis
##URL=rruff.info/R050341
##MEASURED CHEMISTRY=Na_2.00_Mg_1.00_(S_1.00_O_4_)_2_Â·4H_2_O
94.93402, 228.4313
95.41614, 232.3165
95.89825, 233.3227
96.38037, 233.2226
96.86249, 232.2474
97.34460, 231.2094
97.82672, 229.6821
98.30884, 229.0065
98.79095, 229.4257
99.27306, 230.5061
99.75518, 231.9708
100.2373, 234.5256
100.7194, 238.1691
101.2015, 241.7136
101.6836, 244.6601
102.1658, 247.7831
102.6479, 251.6472
103.1300, 256.2665
103.6121, 261.3714
104.0942, 267.5508
104.5763, 274.0527
105.0585, 279.4317
105.5406, 282.9797
106.0227, 285.0523
106.5048, 286.7198
106.9869, 288.2814
107.4690, 288.7082
107.9512, 287.2688
108.4333, 284.4175
108.9154, 281.2739
109.3975, 278.6944
109.8796, 276.7171
110.3617, 274.9800
110.8439, 273.4942
111.3260, 272.2034
111.8081, 271.3421
112.2902, 270.8071
112.7723, 270.1115
113.2544, 268.5170
113.7366, 265.1833
114.2187, 262.4851
114.7008, 260.7507
115.1829, 259.4132
115.6650, 257.8368
116.1471, 255.7777
116.6293, 253.7117
117.1114, 252.8381
117.5935, 253.2779
118.0756, 254.3809
118.5577, 256.4529
119.0398, 259.1213
119.5220, 261.4780
120.0041, 262.9644
120.4862, 263.9941
120.9683, 265.6489
121.4504, 268.5788
121.9325, 271.0530
122.4147, 271.4759
122.8968, 269.7119
123.3789, 267.5324
123.8610, 266.1889
124.3431, 264.7305
124.8252, 262.1841
125.3074, 258.2286
125.7895, 253.0475
126.2716, 246.8175
126.7537, 238.8344
127.2358, 231.1010
127.7179, 224.5735
128.2001, 218.5684
128.6822, 212.0425
129.1643, 204.2809
129.6464, 195.3999
130.1285, 187.3123
130.6106, 180.1876
131.0928, 173.7298
131.5749, 168.0751
132.0570, 163.1005
132.5391, 158.5186
133.0212, 154.0948
133.5033, 149.7554
133.9855, 146.1495
134.4676, 143.7047
134.9497, 141.4855
135.4318, 138.7959
135.9139, 135.6461
136.3960, 132.7251
136.8782, 130.8770
137.3603, 130.3250
137.8424, 129.9362
138.3245, 129.8764
138.8066, 129.8646
139.2887, 129.4806
139.7709, 128.5536
140.2530, 127.5710
140.7351, 127.1905
141.2172, 127.3438
141.6993, 127.6069
142.1814, 127.8750
142.6636, 128.1271
143.1457, 128.2356
143.6278, 127.9075
144.1099, 127.7569
144.5920, 128.3506
145.0741, 129.6799
145.5563, 131.1548
146.0384, 132.2180
146.5205, 132.8018
147.0026, 133.5402
147.4847, 134.7673
147.9668, 136.0406
148.4490, 137.0584
148.9311, 137.7721
149.4132, 138.4493
149.8953, 139.4829
150.3774, 140.9632
150.8595, 142.6817
151.3417, 144.8764
151.8238, 147.1048
152.3059, 149.0318
152.7880, 150.5172
153.2701, 151.6547
153.7522, 152.6532
154.2344, 153.2928
154.7165, 154.0272
155.1986, 154.8517
155.6807, 155.7847
156.1628, 156.9134
156.6449, 158.3043
157.1271, 159.8280
157.6092, 160.9249
158.0913, 161.1679
158.5734, 161.5556
159.0555, 162.4063
159.5376, 163.6218
160.0198, 164.9596
160.5019, 166.3185
160.9840, 167.6852
161.4661, 169.0155
161.9482, 170.5267
162.4303, 171.7928
162.9125, 172.4361
163.3946, 172.4778
163.8767, 172.3750
164.3588, 172.2848
164.8409, 172.2529
165.3230, 172.3605
165.8052, 172.6780
166.2873, 173.0896
166.7694, 173.4559
167.2515, 173.7823
167.7336, 174.0470
168.2157, 174.2155
168.6979, 174.3284
169.1800, 174.4259
169.6621, 174.5167
170.1442, 174.6092
170.6263, 174.6840
171.1084, 174.5195
171.5906, 174.7358
172.0727, 175.6282
172.5548, 176.9388
173.0369, 178.3492
173.5190, 179.7128
174.0011, 181.0011
174.4833, 181.9669
174.9654, 182.0677
175.4475, 182.3763
175.9296, 183.1754
176.4117, 184.3471
176.8938, 185.6902
177.3759, 187.0939
177.8581, 188.5698
178.3402, 189.6219
178.8223, 189.8990
179.3044, 190.1487
179.7865, 190.7070
180.2686, 191.4869
180.7508, 192.2079
181.2329, 192.6792
181.7150, 192.8996
182.1971, 192.4254
182.6792, 190.5957
183.1613, 188.7281
183.6435, 187.6702
184.1256, 187.4172
184.6077, 187.2590
185.0898, 186.4260
185.5719, 184.8982
186.0540, 184.2963
186.5362, 185.2114
187.0183, 186.7476
187.5004, 188.2108
187.9825, 189.5431
188.4646, 190.6409
188.9467, 191.0880
189.4289, 191.1155
189.9110, 191.7655
190.3931, 193.6036
190.8752, 196.1019
191.3573, 198.5683
191.8394, 201.0530
192.3216, 203.2164
192.8037, 204.7049
193.2858, 205.6891
193.7679, 206.4914
194.2500, 207.4035
194.7321, 208.2589
195.2143, 208.4723
195.6964, 207.7343
196.1785, 206.7731
196.6606, 206.2262
197.1427, 205.8188
197.6248, 204.9591
198.1070, 203.3396
198.5891, 200.9595
199.0712, 197.7675
199.5533, 193.0848
200.0354, 188.2602
200.5175, 183.7025
200.9997, 179.4310
201.4818, 175.4181
201.9639, 171.6803
202.4460, 168.2191
202.9281, 164.9024
203.4102, 161.9698
203.8924, 158.9930
204.3745, 155.4606
204.8566, 151.7091
205.3387, 148.6569
205.8208, 147.2259
206.3029, 147.6610
206.7851, 147.3794
207.2672, 145.7972
207.7493, 144.1316
208.2314, 142.8454
208.7135, 141.9200
209.1956, 141.0795
209.6778, 140.0423
210.1599, 138.7290
210.6420, 137.9311
211.1241, 138.1041
211.6062, 138.2907
212.0883, 137.8847
212.5705, 136.9550
213.0526, 136.0734
213.5347, 135.8085
214.0168, 136.2657
214.4989, 136.1982
214.9810, 135.4236
215.4632, 134.3222
215.9453, 133.0211
216.4274, 131.5643
216.9095, 130.1451
217.3916, 128.9258
217.8737, 127.9207
218.3559, 126.9906
218.8380, 126.4742
219.3201, 125.8056
219.8022, 124.2680
220.2843, 121.8104
220.7664, 119.4626
221.2486, 118.1815
221.7307, 117.7395
222.2128, 117.1701
222.6949, 116.5431
223.1770, 115.6183
223.6591, 113.8401
224.1413, 111.0266
224.6234, 108.5333
225.1055, 107.6905
225.5876, 107.8587
226.0697, 107.9636
226.5518, 107.7994
227.0340, 107.3851
227.5161, 106.6808
227.9982, 105.6034
228.4803, 104.5210
228.9624, 103.5556
229.4445, 102.7388
229.9267, 102.1504
230.4088, 101.8994
230.8909, 101.8356
231.3730, 101.6597
231.8551, 101.2990
232.3372, 101.0154
232.8194, 100.9548
233.3015, 101.0114
233.7836, 101.0450
234.2657, 100.9589
234.7478, 100.8796
235.2299, 101.1683
235.7121, 102.1575
236.1942, 102.8330
236.6763, 102.7583
237.1584, 102.3291
237.6405, 101.9219
238.1226, 101.6831
238.6048, 101.6054
239.0869, 101.6791
239.5690, 101.9652
240.0511, 102.3118
240.5332, 102.6062
241.0153, 102.9682
241.4975, 103.5940
241.9796, 104.5740
242.4617, 105.6764
242.9438, 106.2552
243.4259, 105.6684
243.9080, 105.5853
244.3902, 106.6284
244.8723, 107.9940
245.3544, 108.8927
245.8365, 109.0254
246.3186, 108.7002
246.8007, 108.6144
247.2829, 108.8781
247.7650, 109.2586
248.2471, 109.6396
248.7292, 110.1708
249.2113, 111.0703
249.6934, 112.3933
250.1756, 113.9055
250.6577, 115.1493
251.1398, 115.8817
251.6219, 116.6634
252.1040, 117.5062
252.5861, 118.3825
253.0683, 119.3513
253.5504, 120.4040
254.0325, 121.3404
254.5146, 121.7890
254.9967, 121.1313
255.4788, 121.1693
255.9610, 122.7990
256.4431, 124.6045
256.9252, 125.2020
257.4073, 124.3092
257.8894, 122.8735
258.3716, 122.2018
258.8537, 122.8287
259.3358, 122.7938
259.8179, 121.4846
260.3000, 119.8812
260.7821, 119.0158
261.2643, 119.0199
261.7464, 118.9732
262.2285, 117.8290
262.7106, 115.2888
263.1927, 112.7890
263.6748, 110.0344
264.1570, 107.5321
264.6391, 105.9109
265.1212, 105.1883
265.6033, 104.5703
266.0854, 103.2216
266.5675, 101.1191
267.0497, 99.69958
267.5318, 99.66679
268.0139, 99.86659
268.4960, 99.31087
268.9781, 97.97321
269.4602, 96.56583
269.9423, 95.62312
270.4244, 95.10203
270.9066, 94.49358
271.3887, 93.61266
271.8708, 92.77214
272.3529, 92.26057
272.8350, 92.05576
273.3171, 91.87317
273.7993, 91.54391
274.2814, 91.10493
274.7635, 90.67619
275.2456, 90.02786
275.7277, 89.65178
276.2098, 90.14559
276.6920, 91.38659
277.1741, 92.36208
277.6562, 92.56136
278.1383, 92.18156
278.6204, 91.68813
279.1025, 90.88045
279.5847, 90.37961
280.0668, 90.83687
280.5489, 92.08060
281.0310, 93.04504
281.5131, 93.18435
281.9952, 93.04593
282.4774, 93.46678
282.9595, 94.54549
283.4416, 95.58649
283.9237, 96.06702
284.4058, 96.12946
284.8879, 96.41362
285.3701, 97.21081
285.8522, 98.08125
286.3343, 98.57310
286.8164, 98.70429
287.2985, 98.70965
287.7806, 98.55257
288.2628, 98.34709
288.7449, 98.50750
289.2270, 99.22896
289.7091, 100.0809
290.1912, 100.7142
290.6733, 101.1753
291.1555, 101.6401
291.6376, 102.2020
292.1197, 102.8202
292.6018, 103.4673
293.0839, 104.2557
293.5660, 104.7804
294.0482, 104.6252
294.5303, 104.0481
295.0124, 103.4802
295.4945, 103.0419
295.9766, 102.7370
296.4587, 102.6199
296.9409, 102.7571
297.4230, 102.8538
297.9051, 102.8541
298.3872, 102.6964
298.8693, 102.2399
299.3514, 101.3500
299.8336, 100.3101
300.3157, 99.51020
300.7978, 98.99092
301.2799, 98.44068
301.7620, 97.82811
302.2441, 97.07256
302.7263, 96.00000
303.2084, 94.52003
303.6905, 93.06610
304.1726, 92.15634
304.6547, 91.82051
305.1368, 91.36104
305.6190, 90.54921
306.1011, 89.59142
306.5832, 88.62425
307.0653, 87.66049
307.5474, 86.71745
308.0295, 85.73085
308.5117, 84.72664
308.9938, 84.00594
309.4759, 83.66933
309.9580, 83.58900
310.4401, 83.79837
310.9222, 84.20210
311.4044, 84.45535
311.8865, 84.31999
312.3686, 83.84911
312.8507, 83.21759
313.3328, 82.23200
313.8149, 81.43711
314.2971, 81.19649
314.7792, 81.31334
315.2613, 81.42980
315.7434, 81.35894
316.2255, 81.20326
316.7076, 81.19787
317.1898, 81.39455
317.6719, 81.59838
318.1540, 81.82373
318.6361, 81.97334
319.1182, 81.84090
319.6003, 81.24555
320.0825, 80.68526
320.5646, 80.94895
321.0467, 82.18161
321.5288, 83.31561
322.0109, 84.03365
322.4930, 84.49532
322.9752, 84.75923
323.4573, 84.82883
323.9394, 84.83545
324.4215, 84.85368
324.9036, 84.88523
325.3857, 85.03983
325.8679, 85.29182
326.3500, 85.74395
326.8321, 86.52272
327.3142, 87.58389
327.7963, 88.65804
328.2784, 89.56245
328.7606, 90.32697
329.2427, 91.10036
329.7248, 91.87967
330.2069, 92.68524
330.6890, 93.51958
331.1711, 94.38520
331.6533, 95.29069
332.1354, 96.20751
332.6175, 97.18302
333.0996, 98.31657
333.5817, 99.63021
334.0638, 101.0513
334.5460, 102.6338
335.0281, 104.2694
335.5102, 105.8465
335.9923, 107.3678
336.4744, 108.7731
336.9565, 109.9021
337.4387, 110.7204
337.9208, 111.7684
338.4029, 113.3254
338.8850, 115.1366
339.3671, 116.9809
339.8492, 118.8566
340.3314, 120.6685
340.8135, 122.1839
341.2956, 123.5101
341.7777, 125.2780
342.2598, 127.7809
342.7419, 130.5072
343.2241, 133.0028
343.7062, 135.3191
344.1883, 137.6628
344.6704, 140.2424
345.1525, 142.9022
345.6346, 145.2144
346.1168, 147.0108
346.5989, 148.9227
347.0810, 151.7106
347.5631, 154.8978
348.0452, 157.6573
348.5273, 159.6928
349.0095, 161.2897
349.4916, 162.7681
349.9737, 164.1261
350.4558, 165.2615
350.9379, 166.4367
351.4200, 167.1000
351.9022, 166.4351
352.3843, 164.1222
352.8664, 161.2682
353.3485, 158.6313
353.8306, 156.0761
354.3127, 153.0376
354.7949, 149.2524
355.2770, 145.0748
355.7591, 140.7910
356.2412, 136.4015
356.7233, 132.2794
357.2054, 128.7094
357.6876, 125.4413
358.1697, 122.0036
358.6518, 118.2867
359.1339, 114.7476
359.6160, 111.8150
360.0981, 109.4284
360.5803, 107.3366
361.0624, 105.7888
361.5445, 104.3257
362.0266, 102.4913
362.5087, 100.3396
362.9908, 98.36870
363.4730, 96.87909
363.9551, 95.76167
364.4372, 94.57563
364.9193, 93.01266
365.4014, 91.88523
365.8835, 92.02948
366.3657, 92.80165
366.8478, 92.76373
367.3299, 91.33031
367.8120, 89.39932
368.2941, 88.40621
368.7762, 88.53432
369.2584, 88.69276
369.7405, 88.82103
370.2226, 88.86658
370.7047, 88.79532
371.1868, 88.59706
371.6689, 88.22325
372.1511, 87.56383
372.6332, 86.60361
373.1153, 85.99831
373.5974, 85.76715
374.0795, 85.82294
374.5616, 86.40955
375.0438, 87.26540
375.5259, 87.71458
376.0080, 87.33451
376.4901, 86.40826
376.9722, 85.94162
377.4543, 86.45475
377.9365, 86.74864
378.4186, 86.51385
378.9007, 86.08452
379.3828, 85.80771
379.8649, 85.78387
380.3470, 85.92583
380.8292, 86.12174
381.3113, 86.39717
381.7934, 86.65425
382.2755, 86.77397
382.7576, 86.97926
383.2397, 87.58022
383.7219, 88.42427
384.2040, 88.99059
384.6861, 88.82566
385.1682, 87.99030
385.6503, 87.45126
386.1324, 87.31367
386.6146, 87.38502
387.0967, 87.76796
387.5788, 88.30181
388.0609, 88.82224
388.5430, 89.25640
389.0251, 89.59090
389.5073, 89.78728
389.9894, 89.77162
390.4715, 89.76665
390.9536, 89.59731
391.4357, 89.57945
391.9178, 90.02717
392.3999, 90.89336
392.8820, 91.80061
393.3642, 92.41264
393.8463, 92.72643
394.3284, 92.81826
394.8105, 92.29537
395.2926, 92.01307
395.7747, 92.42091
396.2569, 93.22484
396.7390, 93.93896
397.2211, 94.31928
397.7032, 94.47594
398.1853, 94.61753
398.6674, 94.70034
399.1496, 94.90589
399.6317, 95.50743
400.1138, 96.11780
400.5959, 96.36911
401.0780, 96.20753
401.5602, 96.03168
402.0423, 96.26679
402.5244, 96.86708
403.0065, 97.29787
403.4886, 97.33181
403.9707, 97.43436
404.4529, 98.02454
404.9350, 98.94319
405.4171, 99.74712
405.8992, 100.1547
406.3813, 100.3821
406.8634, 100.7548
407.3456, 101.2792
407.8277, 101.9150
408.3098, 102.8193
408.7919, 103.7386
409.2740, 104.1887
409.7561, 103.9189
410.2383, 103.7757
410.7204, 104.3861
411.2025, 105.5379
411.6846, 106.6477
412.1667, 107.6054
412.6488, 108.3940
413.1310, 108.8261
413.6131, 108.9078
414.0952, 109.4257
414.5773, 111.1033
415.0594, 112.8794
415.5415, 113.6050
416.0237, 113.3363
416.5058, 113.0766
416.9879, 113.4667
417.4700, 114.4136
417.9521, 115.3962
418.4342, 116.2435
418.9164, 117.3168
419.3985, 118.9908
419.8806, 120.8710
420.3627, 122.3152
420.8448, 123.1256
421.3269, 123.6655
421.8091, 124.4641
422.2912, 125.5915
422.7733, 126.8030
423.2554, 128.0240
423.7375, 129.3788
424.2196, 131.1520
424.7018, 133.1538
425.1839, 134.8075
425.6660, 135.6602
426.1481, 135.8409
426.6302, 136.2484
427.1123, 136.7985
427.5945, 137.7233
428.0766, 138.9524
428.5587, 140.6043
429.0408, 143.0855
429.5229, 146.4225
430.0050, 149.7964
430.4872, 151.9218
430.9693, 152.4052
431.4514, 153.2556
431.9335, 154.5536
432.4156, 156.2351
432.8977, 158.4790
433.3799, 161.1099
433.8620, 163.7478
434.3441, 166.1154
434.8262, 168.3410
435.3083, 170.7428
435.7904, 173.2539
436.2726, 176.1107
436.7547, 179.8644
437.2368, 183.7751
437.7189, 187.0390
438.2010, 189.4599
438.6831, 191.9494
439.1653, 195.4803
439.6474, 199.8221
440.1295, 203.7195
440.6116, 206.7904
441.0937, 209.7386
441.5758, 213.0609
442.0580, 216.7124
442.5401, 220.6678
443.0222, 224.8391
443.5043, 229.3500
443.9864, 234.6765
444.4685, 240.6685
444.9507, 246.1000
445.4328, 250.1465
445.9149, 253.5359
446.3970, 257.8363
446.8791, 262.9373
447.3612, 268.9266
447.8434, 276.5427
448.3255, 284.7365
448.8076, 292.0971
449.2897, 298.4545
449.7718, 304.7867
450.2539, 312.1587
450.7361, 320.6911
451.2182, 327.9467
451.7003, 333.5944
452.1824, 338.5505
452.6645, 343.5488
453.1466, 348.0291
453.6288, 351.1928
454.1109, 352.6976
454.5930, 352.3279
455.0751, 349.5435
455.5572, 343.2937
456.0393, 336.5198
456.5215, 329.2602
457.0036, 321.5453
457.4857, 313.1827
457.9678, 304.3369
458.4499, 295.3369
458.9320, 286.3683
459.4142, 277.4899
459.8963, 268.9421
460.3784, 260.7227
460.8605, 252.9044
461.3426, 245.2626
461.8247, 238.0258
462.3069, 231.3283
462.7890, 225.2054
463.2711, 219.7905
463.7532, 215.5039
464.2353, 212.2395
464.7174, 208.7997
465.1996, 204.7901
465.6817, 201.0208
466.1638, 198.2016
466.6459, 196.0460
467.1280, 193.8544
467.6101, 191.3824
468.0923, 188.7978
468.5744, 186.2892
469.0565, 183.8334
469.5386, 181.4344
470.0207, 179.1832
470.5028, 176.8687
470.9850, 174.0763
471.4671, 170.7279
471.9492, 167.4322
472.4313, 164.2898
472.9134, 161.2901
473.3955, 158.5140
473.8777, 155.9305
474.3598, 153.2224
474.8419, 150.1290
475.3240, 146.6987
475.8061, 143.4792
476.2882, 141.0636
476.7704, 138.0926
477.2525, 133.5190
477.7346, 128.5887
478.2167, 124.9705
478.6988, 123.0256
479.1809, 121.6560
479.6631, 119.3623
480.1452, 115.8581
480.6273, 112.9739
481.1094, 111.1896
481.5915, 109.5539
482.0736, 107.7666
482.5558, 105.9169
483.0379, 104.1448
483.5200, 102.4818
484.0021, 101.0687
484.4842, 100.3463
484.9663, 100.5761
485.4485, 100.2596
485.9306, 98.53588
486.4127, 96.65774
486.8948, 95.51814
487.3769, 95.03046
487.8590, 94.51364
488.3412, 93.48538
488.8233, 92.20076
489.3054, 91.12727
489.7875, 90.27657
490.2696, 89.61982
490.7517, 89.19565
491.2339, 88.94851
491.7160, 88.76410
492.1981, 88.71404
492.6802, 88.52098
493.1623, 87.80878
493.6444, 86.97833
494.1266, 86.80266
494.6087, 87.38857
495.0908, 87.85806
495.5729, 87.33961
496.0550, 85.85168
496.5371, 84.96497
497.0193, 85.17667
497.5014, 85.31506
497.9835, 84.87834
498.4656, 84.20082
498.9477, 83.78514
499.4298, 83.78960
499.9120, 83.97100
500.3941, 83.97107
500.8762, 83.71901
501.3583, 83.56696
501.8404, 83.62022
502.3225, 83.66668
502.8047, 83.60023
503.2868, 83.47722
503.7689, 83.42061
504.2510, 83.50215
504.7331, 83.62766
505.2152, 83.55202
505.6974, 83.19408
506.1795, 83.16475
506.6616, 84.03539
507.1437, 84.83921
507.6258, 84.71964
508.1079, 83.82962
508.5901, 83.07368
509.0722, 82.92921
509.5543, 83.15199
510.0364, 83.47829
510.5185, 83.90016
511.0006, 84.17358
511.4828, 84.15489
511.9649, 83.94044
512.4470, 83.71513
512.9291, 83.45090
513.4112, 83.26373
513.8933, 83.12752
514.3754, 83.11757
514.8575, 83.41799
515.3397, 83.98436
515.8218, 84.45183
516.3039, 84.52393
516.7860, 84.27467
517.2681, 84.24001
517.7502, 84.86425
518.2324, 85.14253
518.7145, 84.58517
519.1966, 83.88197
519.6787, 83.74937
520.1608, 84.26120
520.6429, 84.90407
521.1251, 85.13741
521.6072, 84.97926
522.0893, 85.04190
522.5714, 85.51235
523.0535, 85.90727
523.5356, 85.98265
524.0178, 85.93874
524.4999, 86.04591
524.9820, 86.39159
525.4641, 86.68398
525.9462, 86.44179
526.4283, 85.86504
526.9105, 86.01014
527.3926, 87.28587
527.8747, 88.48608
528.3568, 88.44793
528.8389, 87.54353
529.3210, 87.07973
529.8032, 87.68177
530.2853, 88.18239
530.7674, 87.51139
531.2495, 86.36327
531.7316, 86.27697
532.2137, 87.71339
532.6959, 89.58760
533.1780, 90.58342
533.6601, 90.58337
534.1422, 90.39687
534.6243, 89.66557
535.1064, 89.16393
535.5886, 89.32797
536.0707, 89.86878
536.5528, 90.34810
537.0349, 90.58745
537.5170, 90.69569
537.9991, 90.86057
538.4813, 91.12574
538.9634, 91.21249
539.4455, 90.85741
539.9276, 90.60264
540.4097, 90.64931
540.8918, 90.97899
541.3740, 91.61499
541.8561, 92.75446
542.3382, 93.80149
542.8203, 93.79973
543.3024, 92.88351
543.7845, 92.36825
544.2667, 92.64351
544.7488, 93.27859
545.2309, 93.91499
545.7130, 94.54323
546.1951, 95.01529
546.6772, 95.15965
547.1594, 95.27628
547.6415, 95.63953
548.1236, 96.12966
548.6057, 96.37343
549.0878, 96.20539
549.5699, 95.97621
550.0521, 96.31274
550.5342, 97.55357
551.0163, 98.31403
551.4984, 98.35075
551.9805, 98.23143
552.4626, 97.99790
552.9448, 97.82969
553.4269, 98.06325
553.9090, 98.88277
554.3911, 99.91474
554.8732, 100.4477
555.3553, 100.3828
555.8375, 100.5204
556.3196, 101.1087
556.8017, 101.7551
557.2838, 102.1074
557.7659, 102.3086
558.2480, 102.7916
558.7302, 104.0146
559.2123, 105.2162
559.6944, 105.4036
560.1765, 104.8250
560.6586, 104.5619
561.1407, 104.9251
561.6229, 105.7943
562.1050, 107.2346
562.5871, 109.4209
563.0692, 110.6786
563.5513, 110.2214
564.0334, 109.5991
564.5156, 109.3910
564.9977, 109.6218
565.4798, 110.3430
565.9619, 111.5617
566.4440, 112.9643
566.9261, 114.0474
567.4083, 114.7320
567.8904, 115.4170
568.3725, 116.1725
568.8546, 116.8505
569.3367, 117.3263
569.8188, 117.7095
570.3010, 118.1710
570.7831, 118.7800
571.2652, 119.4761
571.7473, 120.2353
572.2294, 121.0401
572.7115, 121.7916
573.1937, 122.5067
573.6758, 123.0703
574.1579, 123.1896
574.6400, 123.0441
575.1221, 123.3500
575.6042, 124.6981
576.0864, 125.9156
576.5685, 126.2312
577.0506, 126.0843
577.5327, 126.2311
578.0148, 126.8510
578.4969, 127.5946
578.9791, 128.1183
579.4612, 128.4253
579.9433, 128.4408
580.4254, 127.6580
580.9075, 127.1819
581.3896, 127.1660
581.8718, 127.5832
582.3539, 128.6551
582.8360, 130.3215
583.3181, 131.7395
583.8002, 131.7947
584.2823, 130.7295
584.7645, 130.4578
585.2466, 131.3250
585.7287, 132.0035
586.2108, 131.5009
586.6929, 130.5788
587.1750, 130.3914
587.6572, 131.1802
588.1393, 131.9891
588.6214, 132.4446
589.1035, 132.6393
589.5856, 132.5775
590.0677, 132.3110
590.5499, 132.1718
591.0320, 132.3874
