##NAMES=Blodite
##RRUFFID=R050341
##IDEAL CHEMISTRY=Na_2_Mg(S^6+^O_4_)_2_&#183;4H_2_O
##LOCALITY=Soda Lake, San Luis Obispo County, California, USA
##OWNER=RRUFF
##SOURCE=George Rossman
##DESCRIPTION=Gray to colorless equant crystal
##STATUS=The identification of this mineral has been confirmed by X-ray diffraction and chemical analysis
##URL=rruff.info/R050341
##MEASURED CHEMISTRY=Na_2.00_Mg_1.00_(S_1.00_O_4_)_2_Â·4H_2_O
96.69257, 22.90978
97.17468, 23.56457
97.65680, 25.24146
98.13892, 27.92452
98.62103, 30.50320
99.10315, 32.50397
99.58527, 34.09502
100.0674, 36.34243
100.5495, 39.30244
101.0316, 42.75467
101.5137, 46.37380
101.9958, 50.14068
102.4780, 54.22054
102.9601, 58.59766
103.4422, 63.23195
103.9243, 68.39827
104.4064, 74.12978
104.8885, 80.39694
105.3707, 87.39667
105.8528, 95.67232
106.3349, 103.8368
106.8170, 111.3766
107.2991, 118.4718
107.7813, 124.5922
108.2634, 129.5086
108.7455, 133.4420
109.2276, 136.9673
109.7097, 139.3895
110.1918, 141.9413
110.6740, 145.1382
111.1561, 148.6192
111.6382, 153.1655
112.1203, 159.2278
112.6024, 166.6349
113.0845, 174.0149
113.5667, 179.9559
114.0488, 186.4256
114.5309, 194.8302
115.0130, 207.2214
115.4951, 219.8648
115.9772, 231.3126
116.4594, 241.7027
116.9415, 253.1909
117.4236, 267.5287
117.9057, 283.0839
118.3878, 298.0455
118.8699, 310.0074
119.3521, 322.6639
119.8342, 339.2321
120.3163, 360.3260
120.7984, 380.6162
121.2805, 396.6980
121.7626, 409.7870
122.2448, 421.9620
122.7269, 434.9986
123.2090, 447.2037
123.6911, 456.9140
124.1732, 463.8637
124.6553, 468.6969
125.1375, 472.4726
125.6196, 474.7529
126.1017, 474.1525
126.5838, 468.3980
127.0659, 459.4126
127.5480, 450.4595
128.0302, 441.7659
128.5123, 433.6324
128.9944, 426.4192
129.4765, 420.1224
129.9586, 414.7030
130.4407, 410.8604
130.9229, 408.0886
131.4050, 404.0607
131.8871, 397.7462
132.3692, 390.5589
132.8513, 386.3158
133.3334, 384.6568
133.8156, 381.5101
134.2977, 374.6695
134.7798, 365.5759
135.2619, 356.6365
135.7440, 348.0510
136.2261, 340.1009
136.7083, 333.7325
137.1904, 329.2711
137.6725, 325.2617
138.1546, 319.8667
138.6367, 312.6627
139.1188, 306.3695
139.6010, 301.8688
140.0831, 299.1761
140.5652, 295.7432
141.0473, 291.0802
141.5294, 286.2918
142.0115, 282.9825
142.4937, 281.6763
142.9758, 280.4528
143.4579, 278.3734
143.9400, 274.7878
144.4221, 273.6356
144.9042, 276.0409
145.3864, 280.1774
145.8685, 282.8306
146.3506, 282.9499
146.8327, 283.0496
147.3148, 283.9173
147.7969, 285.6823
148.2791, 287.9323
148.7612, 291.4639
149.2433, 295.4060
149.7254, 297.7666
150.2075, 297.0811
150.6896, 296.0984
151.1718, 295.8550
151.6539, 297.4833
152.1360, 298.2076
152.6181, 298.1289
153.1002, 297.1513
153.5823, 294.9741
154.0645, 289.8793
154.5466, 284.7946
155.0287, 281.1010
155.5108, 280.4111
155.9929, 279.2633
156.4750, 276.4677
156.9572, 272.5755
157.4393, 269.9184
157.9214, 270.2590
158.4035, 271.1841
158.8856, 271.1902
159.3677, 268.9552
159.8499, 266.7647
160.3320, 265.0451
160.8141, 263.8218
161.2962, 263.3004
161.7783, 264.6125
162.2604, 266.1747
162.7426, 266.6813
163.2247, 264.4104
163.7068, 262.1790
164.1889, 261.5469
164.6710, 262.3994
165.1531, 262.8893
165.6353, 261.5695
166.1174, 259.5948
166.5995, 258.2086
167.0816, 258.4593
167.5637, 258.9862
168.0458, 258.9694
168.5280, 258.3925
169.0101, 257.5368
169.4922, 256.1974
169.9743, 254.7667
170.4564, 253.8045
170.9385, 254.1002
171.4207, 254.6260
171.9028, 254.4936
172.3849, 253.6587
172.8670, 252.4552
173.3491, 250.8478
173.8312, 249.0565
174.3134, 247.4955
174.7955, 246.6122
175.2776, 245.9624
175.7597, 244.8566
176.2418, 243.1669
176.7239, 241.7666
177.2061, 241.9471
177.6882, 243.1232
178.1703, 243.7030
178.6524, 242.4663
179.1345, 240.2560
179.6166, 238.4676
180.0988, 237.1831
180.5809, 236.2005
181.0630, 235.4663
181.5451, 234.8894
182.0272, 234.1371
182.5093, 232.4219
182.9915, 230.4157
183.4736, 230.1788
183.9557, 232.2554
184.4378, 234.5980
184.9199, 233.7953
185.4020, 230.3357
185.8842, 227.5907
186.3663, 228.0856
186.8484, 230.9407
187.3305, 232.8736
187.8126, 233.4877
188.2947, 233.5803
188.7769, 234.5179
189.2590, 236.2563
189.7411, 237.8513
190.2232, 238.4258
190.7053, 238.2310
191.1874, 238.9388
191.6696, 240.7984
192.1517, 243.4050
192.6338, 246.3748
193.1159, 249.7467
193.5980, 252.5008
194.0801, 254.0680
194.5623, 254.4722
195.0444, 253.8015
195.5265, 251.6796
196.0086, 249.0251
196.4907, 248.1950
196.9728, 249.4622
197.4550, 250.2547
197.9371, 248.4989
198.4192, 244.1382
198.9013, 240.9737
199.3834, 239.6546
199.8655, 239.3849
200.3477, 238.0974
200.8298, 235.5683
201.3119, 233.0426
201.7940, 231.2452
202.2761, 230.2199
202.7582, 229.4068
203.2404, 228.6864
203.7225, 228.2013
204.2046, 228.5698
204.6867, 230.1019
205.1688, 231.4341
205.6509, 231.3248
206.1331, 229.3520
206.6152, 228.8117
207.0973, 230.3664
207.5794, 233.3318
208.0615, 235.5583
208.5436, 236.8027
209.0257, 237.9583
209.5079, 239.5198
209.9900, 241.4899
210.4721, 243.9107
210.9542, 247.1582
211.4363, 250.7296
211.9184, 252.7194
212.4006, 252.4956
212.8827, 252.0561
213.3648, 252.7184
213.8469, 254.8823
214.3290, 256.7328
214.8111, 258.2929
215.2933, 259.4020
215.7754, 259.3438
216.2575, 257.5276
216.7396, 255.6518
217.2217, 254.8029
217.7038, 255.3679
218.1860, 255.8058
218.6681, 256.1226
219.1502, 256.2250
219.6323, 255.6950
220.1144, 254.3023
220.5965, 252.6854
221.0787, 251.2283
221.5608, 250.0526
222.0429, 248.7369
222.5250, 247.3103
223.0071, 245.7265
223.4892, 243.6938
223.9714, 240.4608
224.4535, 237.9352
224.9356, 237.5254
225.4177, 241.0270
225.8998, 242.2148
226.3819, 240.0879
226.8641, 235.5239
227.3462, 231.5845
227.8283, 228.4780
228.3104, 225.6768
228.7925, 222.9267
229.2746, 220.0262
229.7568, 217.5948
230.2389, 215.9150
230.7210, 214.6536
231.2031, 212.7956
231.6852, 210.1507
232.1673, 207.1958
232.6495, 204.0843
233.1316, 200.4385
233.6137, 197.5121
234.0958, 195.6003
234.5779, 194.4032
235.0600, 193.1404
235.5422, 191.8407
236.0243, 190.4135
236.5064, 188.7471
236.9885, 186.4944
237.4706, 184.8039
237.9527, 183.9478
238.4349, 183.6016
238.9170, 182.8698
239.3991, 181.0983
239.8812, 179.9200
240.3633, 180.1979
240.8454, 182.8675
241.3276, 184.6745
241.8097, 185.4464
242.2918, 185.3958
242.7739, 184.8844
243.2560, 183.5146
243.7381, 182.2973
244.2203, 181.5929
244.7024, 181.4367
245.1845, 181.7309
245.6666, 182.7018
246.1487, 184.0143
246.6308, 185.0755
247.1130, 185.9361
247.5951, 186.4445
248.0772, 186.2594
248.5593, 184.7233
249.0414, 185.0250
249.5235, 188.1735
250.0057, 192.5202
250.4878, 195.3350
250.9699, 195.8553
251.4520, 196.2042
251.9341, 197.1083
252.4162, 198.7848
252.8984, 199.9028
253.3805, 200.1044
253.8626, 200.0276
254.3447, 200.6961
254.8268, 202.6535
255.3089, 204.2722
255.7911, 205.0777
256.2732, 205.0250
256.7553, 204.5435
257.2374, 203.3748
257.7195, 202.0294
258.2017, 201.1975
258.6838, 201.1924
259.1659, 200.9737
259.6480, 200.2714
260.1301, 199.0808
260.6122, 197.6740
261.0944, 195.8278
261.5765, 194.0368
262.0586, 192.9491
262.5407, 192.9784
263.0228, 192.5942
263.5049, 191.5357
263.9871, 189.7939
264.4692, 187.2604
264.9513, 183.5307
265.4334, 179.6242
265.9155, 176.4119
266.3976, 174.0844
266.8798, 171.9986
267.3619, 170.0655
267.8440, 168.2828
268.3261, 166.7574
268.8082, 165.4708
269.2903, 164.4823
269.7725, 163.9751
270.2546, 164.1214
270.7367, 163.9957
271.2188, 163.5025
271.7009, 162.6395
272.1830, 161.2693
272.6652, 159.2334
273.1473, 157.1501
273.6294, 155.1914
274.1115, 153.1997
274.5936, 152.5271
275.0757, 153.7058
275.5579, 155.9969
276.0400, 157.2608
276.5221, 157.3666
277.0042, 156.9683
277.4863, 155.8885
277.9684, 153.9341
278.4506, 154.4023
278.9327, 158.4831
279.4148, 163.8745
279.8969, 165.2119
280.3790, 161.9467
280.8611, 158.5008
281.3433, 157.1563
281.8254, 157.9003
282.3075, 159.0009
282.7896, 160.5114
283.2717, 162.1415
283.7538, 163.3564
284.2360, 164.1372
284.7181, 165.0132
285.2002, 166.2111
285.6823, 167.7124
286.1644, 169.4307
286.6465, 171.4121
287.1287, 173.3805
287.6108, 175.0499
288.0929, 176.4152
288.5750, 177.3689
289.0571, 177.5831
289.5392, 177.3458
290.0214, 177.8954
290.5035, 179.2964
290.9856, 180.9139
291.4677, 182.0912
291.9498, 182.8925
292.4319, 183.6768
292.9141, 184.5653
293.3962, 185.5109
293.8783, 186.3392
294.3604, 187.0446
294.8425, 187.8908
295.3246, 189.4261
295.8068, 191.3602
296.2889, 192.6704
296.7710, 193.0254
297.2531, 192.7712
297.7352, 192.4097
298.2173, 191.9393
298.6995, 191.3220
299.1816, 190.5607
299.6637, 189.6297
300.1458, 188.4220
300.6279, 186.7708
301.1100, 185.1313
301.5922, 184.1854
302.0743, 183.7944
302.5564, 183.4070
303.0385, 183.0451
303.5206, 182.3681
304.0027, 180.6569
304.4849, 177.6050
304.9670, 174.4607
305.4491, 172.5667
305.9312, 171.5419
306.4133, 170.4721
306.8954, 168.4595
307.3776, 166.4163
307.8597, 165.5457
308.3418, 166.0257
308.8239, 166.3873
309.3060, 165.1650
309.7881, 163.1623
310.2703, 161.6855
310.7524, 161.9818
311.2345, 162.4516
311.7166, 161.7440
312.1987, 159.8868
312.6808, 158.2356
313.1630, 157.6084
313.6451, 157.5536
314.1272, 157.5802
314.6093, 157.4147
315.0914, 157.3956
315.5735, 157.9104
316.0557, 158.8164
316.5378, 159.3620
317.0199, 159.0212
317.5020, 158.3185
317.9841, 157.5998
318.4662, 156.7949
318.9484, 156.2287
319.4305, 156.1304
319.9126, 156.3656
320.3947, 156.5815
320.8768, 156.7094
321.3589, 156.7679
321.8411, 156.6859
322.3232, 156.2074
322.8053, 156.2038
323.2874, 157.3390
323.7695, 158.9594
324.2516, 160.0300
324.7338, 159.8480
325.2159, 159.5940
325.6980, 159.4776
326.1801, 159.3736
326.6622, 160.0443
327.1443, 162.4704
327.6265, 165.2954
328.1086, 167.1579
328.5907, 167.2529
329.0728, 167.2423
329.5549, 167.2763
330.0370, 167.3549
330.5192, 167.6566
331.0013, 167.8876
331.4834, 168.5901
331.9655, 170.2787
332.4476, 174.2669
332.9297, 176.9300
333.4118, 177.2957
333.8940, 176.0219
334.3761, 176.0836
334.8582, 178.1694
335.3403, 180.4839
335.8224, 182.0469
336.3045, 182.4578
336.7867, 183.3674
337.2688, 185.0549
337.7509, 187.0723
338.2330, 188.4455
338.7151, 188.9012
339.1972, 189.5379
339.6794, 190.7739
340.1615, 192.6102
340.6436, 194.9133
341.1257, 197.8479
341.6078, 200.8482
342.0899, 202.9745
342.5721, 204.0918
343.0542, 205.7496
343.5363, 208.6049
344.0184, 212.3264
344.5005, 215.4924
344.9826, 218.0177
345.4648, 220.4321
345.9469, 223.1090
346.4290, 226.0743
346.9111, 229.3173
347.3932, 233.0634
347.8753, 236.8059
348.3575, 239.3982
348.8396, 240.8944
349.3217, 242.0626
349.8038, 243.7194
350.2859, 245.3972
350.7680, 245.8262
351.2502, 244.6919
351.7323, 242.9283
352.2144, 241.8532
352.6965, 241.0817
353.1786, 239.4802
353.6607, 235.8155
354.1429, 231.3197
354.6250, 227.2905
355.1071, 223.7772
355.5892, 221.0893
356.0713, 220.5234
356.5534, 220.7178
357.0356, 219.6405
357.5177, 215.2828
357.9998, 210.4523
358.4819, 207.0993
358.9640, 205.0747
359.4461, 203.6622
359.9283, 203.0571
360.4104, 202.5951
360.8925, 201.6466
361.3746, 199.5890
361.8567, 197.8586
362.3388, 197.5128
362.8210, 197.9351
363.3031, 197.7196
363.7852, 195.3994
364.2673, 193.1634
364.7494, 192.2475
365.2315, 193.2921
365.7137, 193.7614
366.1958, 192.2057
366.6779, 190.1479
367.1600, 189.3653
367.6421, 191.7950
368.1242, 193.7168
368.6064, 194.1236
369.0885, 192.9140
369.5706, 192.1395
370.0527, 192.0364
370.5348, 192.1819
371.0169, 192.2809
371.4991, 192.0373
371.9812, 192.2797
372.4633, 193.3551
372.9454, 194.9505
373.4275, 195.8747
373.9096, 195.7147
374.3918, 195.6241
374.8739, 196.2138
375.3560, 197.7268
375.8381, 198.8505
376.3202, 199.5271
376.8023, 199.8736
377.2845, 199.9109
377.7666, 199.5103
378.2487, 199.5200
378.7308, 200.3841
379.2129, 201.9407
379.6950, 202.9513
380.1772, 203.3342
380.6593, 203.6296
381.1414, 204.2512
381.6235, 205.1984
382.1056, 206.6792
382.5877, 209.0866
383.0699, 211.5506
383.5520, 212.0475
384.0341, 210.7682
384.5162, 209.6075
384.9983, 210.1404
385.4804, 211.6067
385.9626, 212.2187
386.4447, 211.6556
386.9268, 211.0163
387.4089, 211.2052
387.8910, 212.1667
388.3731, 213.7754
388.8553, 216.6472
389.3374, 219.7180
389.8195, 221.9638
390.3016, 223.3685
390.7837, 224.3836
391.2658, 224.9180
391.7480, 225.3426
392.2301, 226.0465
392.7122, 227.2175
393.1943, 228.5766
393.6764, 230.2538
394.1585, 232.0556
394.6407, 233.3982
395.1228, 232.8748
395.6049, 232.8073
396.0870, 234.8199
396.5691, 240.1945
397.0512, 244.0064
397.5334, 244.1071
398.0155, 242.5346
398.4976, 241.8405
398.9797, 242.6800
399.4618, 243.9803
399.9439, 245.6987
400.4261, 247.8280
400.9082, 249.8148
401.3903, 251.8880
401.8724, 253.5935
402.3545, 254.3730
402.8366, 252.7145
403.3188, 253.6172
403.8009, 258.6362
404.2830, 265.8203
404.7651, 269.9673
405.2472, 270.0607
405.7293, 269.9119
406.2115, 271.1469
406.6936, 273.8035
407.1757, 276.0937
407.6578, 277.9493
408.1399, 279.6432
408.6220, 281.4543
409.1042, 283.3851
409.5863, 285.5149
410.0684, 287.9003
410.5505, 290.4670
411.0326, 293.1862
411.5147, 296.0667
411.9969, 298.9945
412.4790, 301.8378
412.9611, 304.7103
413.4432, 307.8784
413.9253, 311.4652
414.4074, 315.1411
414.8896, 318.5107
415.3717, 321.7046
415.8538, 325.0091
416.3359, 328.7413
416.8180, 332.5038
417.3001, 335.7420
417.7823, 338.5101
418.2644, 341.4448
418.7465, 344.8706
419.2286, 348.7336
419.7107, 352.9998
420.1928, 358.4799
420.6750, 363.3154
421.1571, 366.0008
421.6392, 367.4566
422.1213, 370.0079
422.6034, 375.4486
423.0855, 381.0861
423.5677, 385.7840
424.0498, 389.0866
424.5319, 392.6704
425.0140, 396.7749
425.4961, 401.2094
425.9782, 405.8054
426.4604, 410.7536
426.9425, 415.6017
427.4246, 420.2665
427.9067, 424.8031
428.3888, 429.1444
428.8709, 432.7844
429.3531, 437.1015
429.8352, 443.1828
430.3173, 451.3755
430.7994, 459.0746
431.2815, 466.0263
431.7636, 472.7305
432.2458, 479.7117
432.7279, 486.9416
433.2100, 494.8344
433.6921, 503.6564
434.1742, 513.2639
434.6563, 522.9362
435.1385, 532.7905
435.6206, 542.7645
436.1027, 552.8512
436.5848, 563.0432
437.0669, 573.0459
437.5490, 582.3729
438.0312, 592.6678
438.5133, 607.1041
438.9954, 624.3254
439.4775, 640.5525
439.9596, 652.6932
440.4417, 663.7201
440.9239, 676.0917
441.4060, 689.9583
441.8881, 704.9233
442.3702, 720.1744
442.8523, 736.5053
443.3344, 754.8411
443.8166, 776.8700
444.2987, 799.2180
444.7808, 819.9242
445.2629, 840.0306
445.7450, 862.7919
446.2271, 889.3737
446.7093, 917.7147
447.1914, 946.9344
447.6735, 976.8099
448.1556, 1008.519
448.6377, 1042.893
449.1198, 1078.219
449.6020, 1112.920
450.0841, 1146.010
450.5662, 1179.183
451.0483, 1213.287
451.5304, 1247.747
452.0125, 1279.544
452.4947, 1309.438
452.9768, 1335.153
453.4589, 1356.449
453.9410, 1373.480
454.4231, 1382.580
454.9052, 1383.607
455.3874, 1377.465
455.8695, 1363.982
456.3516, 1343.615
456.8337, 1320.425
457.3158, 1295.219
457.7979, 1268.062
458.2801, 1238.677
458.7622, 1207.304
459.2443, 1174.391
459.7264, 1138.614
460.2085, 1102.408
460.6906, 1069.747
461.1728, 1041.710
461.6549, 1015.096
462.1370, 988.2584
462.6191, 961.6842
463.1012, 936.6999
463.5833, 913.3361
464.0655, 892.0215
464.5476, 873.6769
465.0297, 858.1159
465.5118, 843.0563
465.9939, 828.1810
466.4760, 813.7441
466.9582, 800.0309
467.4403, 787.4999
467.9224, 774.6241
468.4045, 761.2335
468.8866, 747.6026
469.3687, 734.0339
469.8509, 721.7413
470.3330, 707.6471
470.8151, 690.4237
471.2972, 670.4913
471.7793, 652.4552
472.2614, 636.7062
472.7436, 621.3217
473.2257, 605.2134
473.7078, 588.3175
474.1899, 570.0173
474.6720, 549.9340
475.1541, 529.0443
475.6363, 508.0993
476.1184, 487.3266
476.6005, 468.2306
477.0826, 451.7707
477.5647, 437.1627
478.0468, 423.1465
478.5290, 409.6660
479.0111, 396.2133
479.4932, 381.9205
479.9753, 367.6738
480.4574, 354.4964
480.9395, 342.6031
481.4217, 331.5943
481.9038, 321.3753
482.3859, 312.0274
482.8680, 303.8165
483.3501, 297.9358
483.8322, 292.1272
484.3144, 285.3886
484.7965, 277.8374
485.2786, 270.6728
485.7607, 263.6401
486.2428, 257.4744
486.7249, 252.6096
487.2071, 249.8821
487.6892, 246.7575
488.1713, 242.9572
488.6534, 238.9639
489.1355, 235.4557
489.6176, 232.5860
490.0998, 229.6944
490.5819, 226.4843
491.0640, 223.0912
491.5461, 220.3065
492.0282, 218.1596
492.5103, 216.3025
492.9925, 214.4662
493.4746, 212.6960
493.9567, 211.3974
494.4388, 210.6120
494.9209, 210.1054
495.4030, 209.7564
495.8852, 209.4704
496.3673, 209.0253
496.8494, 208.6228
497.3315, 207.7448
497.8136, 205.3187
498.2957, 201.7773
498.7779, 199.0112
499.2600, 198.6333
499.7421, 198.9184
500.2242, 198.6272
500.7063, 197.4470
501.1884, 196.4052
501.6706, 195.5743
502.1527, 195.1455
502.6348, 195.3327
503.1169, 198.0870
503.5990, 199.1225
504.0811, 196.9135
504.5633, 192.5559
505.0454, 190.1447
505.5275, 190.5902
506.0096, 191.4894
506.4917, 191.8721
506.9738, 191.6660
507.4560, 191.9676
507.9381, 192.9768
508.4202, 193.9521
508.9023, 194.0472
509.3844, 193.3085
509.8665, 192.4525
510.3487, 191.4326
510.8308, 190.6859
511.3129, 191.2324
511.7950, 192.8212
512.2772, 194.2783
512.7593, 195.0651
513.2414, 195.3358
513.7235, 195.1931
514.2056, 194.6557
514.6877, 193.9833
515.1699, 193.0539
515.6520, 192.2131
516.1341, 191.7980
516.6162, 192.0125
517.0983, 192.3968
517.5804, 192.7944
518.0626, 193.2635
518.5447, 193.9008
519.0268, 195.3398
519.5089, 196.2696
519.9910, 196.0487
520.4731, 194.7977
520.9553, 194.5106
521.4374, 195.7374
521.9195, 197.1108
522.4016, 197.8029
522.8837, 197.6129
523.3658, 197.8316
523.8480, 198.5961
524.3301, 199.5108
524.8122, 199.9944
525.2943, 200.0764
525.7764, 200.2232
526.2585, 200.5408
526.7407, 201.0197
527.2228, 201.8831
527.7049, 203.0145
528.1870, 203.7108
528.6691, 203.0508
529.1512, 201.9864
529.6334, 201.5823
530.1155, 201.9147
530.5976, 202.7000
531.0797, 204.3153
531.5618, 206.0428
532.0439, 207.1095
532.5261, 206.5302
533.0082, 206.4292
533.4903, 207.6303
533.9724, 209.6466
534.4545, 211.4786
534.9366, 213.5699
535.4188, 214.8347
535.9009, 214.8110
536.3830, 213.5329
536.8651, 212.2747
537.3472, 210.7044
537.8293, 209.8129
538.3115, 210.5735
538.7936, 213.1414
539.2757, 215.1644
539.7578, 216.5374
540.2399, 217.3038
540.7220, 217.1923
541.2042, 216.3905
541.6863, 216.0020
542.1684, 216.5630
542.6505, 217.4644
543.1326, 217.8304
543.6147, 217.7691
544.0969, 217.7040
544.5790, 217.5237
545.0611, 217.6784
545.5432, 218.9124
546.0253, 221.3570
546.5074, 223.0708
546.9896, 222.2017
547.4717, 220.8268
547.9538, 220.6478
548.4359, 223.3756
548.9180, 225.3578
549.4001, 225.7314
549.8823, 225.3851
550.3644, 225.8949
550.8465, 227.9914
551.3286, 229.5656
551.8107, 229.9528
552.2928, 229.3369
552.7750, 229.0326
553.2571, 229.0592
553.7392, 229.2900
554.2213, 229.5799
554.7034, 229.9769
555.1855, 230.9396
555.6677, 232.5720
556.1498, 234.1466
556.6319, 234.7885
557.1140, 234.8040
557.5961, 234.7727
558.0782, 234.7128
558.5604, 234.9063
559.0425, 235.5672
559.5246, 236.6508
560.0067, 238.0639
560.4888, 240.1801
560.9709, 242.2323
561.4531, 243.9449
561.9352, 245.3102
562.4173, 246.1865
562.8994, 246.1606
563.3815, 245.9547
563.8636, 245.8066
564.3458, 245.3000
564.8279, 246.0845
565.3100, 248.6160
565.7921, 251.8762
566.2742, 254.7645
566.7563, 257.3643
567.2385, 258.8246
567.7206, 258.5592
568.2027, 257.5433
568.6848, 258.0051
569.1669, 259.7787
569.6490, 261.5915
570.1312, 262.5665
570.6133, 263.2776
571.0954, 264.7348
571.5775, 266.9091
572.0596, 268.7662
572.5417, 269.4215
573.0239, 269.6208
573.5060, 270.0475
573.9881, 271.0267
574.4702, 271.6850
574.9523, 271.3154
575.4344, 270.6535
575.9166, 270.6351
576.3987, 271.8882
576.8808, 273.0311
577.3629, 273.8163
577.8450, 274.4040
578.3271, 275.3685
578.8092, 276.8221
579.2913, 278.3098
579.7734, 279.7224
580.2556, 281.0077
580.7377, 281.8272
581.2198, 282.1393
581.7019, 282.3440
582.1840, 282.4956
582.6661, 282.8091
583.1483, 284.1057
583.6304, 286.7052
584.1125, 288.9968
584.5946, 289.2921
585.0767, 288.4346
585.5588, 287.6470
586.0410, 287.0118
586.5231, 286.9159
587.0052, 287.7604
587.4873, 289.2991
587.9694, 290.8424
588.4515, 292.5404
588.9337, 293.9541
589.4158, 294.8799
589.8979, 295.3159
590.3800, 295.8011
590.8621, 296.0574
591.3442, 296.8538
591.8264, 298.8711
592.3085, 302.2127
592.7906, 305.1228
