##NAMES=Blodite
##RRUFFID=R050317
##IDEAL CHEMISTRY=Na_2_Mg(S^6+^O_4_)_2_&#183;4H_2_O
##LOCALITY=Stassfurt, Germany
##OWNER=RRUFF
##SOURCE=American Museum of Natural History
##DESCRIPTION=Colorless fragment
##STATUS=The identification of this mineral has been confirmed by X-ray diffraction and chemical analysis
##URL=rruff.info/R050317
##MEASURED CHEMISTRY=Na_2.00_Mg_1.00_(S_1.00_O_4_)_2_Â·4H_2_O
116.4594, 170.8223
116.9415, 178.9599
117.4236, 189.4285
117.9057, 201.3125
118.3878, 213.5773
118.8699, 227.5194
119.3521, 240.6501
119.8342, 251.1161
120.3163, 258.5425
120.7984, 266.1947
121.2805, 276.7387
121.7626, 288.8138
122.2448, 300.0931
122.7269, 309.9059
123.2090, 318.1931
123.6911, 325.0843
124.1732, 330.7580
124.6553, 334.3417
125.1375, 334.2932
125.6196, 331.2826
126.1017, 327.4313
126.5838, 324.3929
127.0659, 321.2827
127.5480, 316.4174
128.0302, 309.3041
128.5123, 300.8436
128.9944, 291.7882
129.4765, 282.2256
129.9586, 272.9746
130.4407, 264.4282
130.9229, 256.6297
131.4050, 249.7448
131.8871, 244.0565
132.3692, 239.2492
132.8513, 234.8647
133.3334, 230.5681
133.8156, 225.4444
134.2977, 219.5674
134.7798, 213.7332
135.2619, 208.4079
135.7440, 203.6154
136.2261, 199.4338
136.7083, 195.9136
137.1904, 193.0929
137.6725, 190.7392
138.1546, 188.6870
138.6367, 187.0023
139.1188, 185.1833
139.6010, 182.8805
140.0831, 180.0951
140.5652, 178.4296
141.0473, 178.3962
141.5294, 178.7256
142.0115, 177.5823
142.4937, 174.1271
142.9758, 171.1359
143.4579, 169.3358
143.9400, 168.7976
144.4221, 169.1418
144.9042, 170.8276
145.3864, 173.1117
145.8685, 174.5836
146.3506, 174.1273
146.8327, 174.3811
147.3148, 176.3997
147.7969, 181.4062
148.2791, 185.3702
148.7612, 187.7813
149.2433, 189.2056
149.7254, 190.9843
150.2075, 193.8205
150.6896, 196.3940
151.1718, 198.2094
151.6539, 198.9981
152.1360, 199.4577
152.6181, 199.4753
153.1002, 199.1595
153.5823, 198.8330
154.0645, 198.4651
154.5466, 198.1243
155.0287, 197.8489
155.5108, 197.9281
155.9929, 197.7186
156.4750, 197.0080
156.9572, 195.8937
157.4393, 194.7859
157.9214, 193.1331
158.4035, 191.8798
158.8856, 191.6062
159.3677, 193.9618
159.8499, 195.7848
160.3320, 195.7276
160.8141, 194.1290
161.2962, 193.0110
161.7783, 193.6949
162.2604, 194.8875
162.7426, 195.5218
163.2247, 195.0255
163.7068, 194.1367
164.1889, 192.7406
164.6710, 190.9417
165.1531, 189.9757
165.6353, 191.1209
166.1174, 193.1875
166.5995, 194.8947
167.0816, 195.7932
167.5637, 196.1806
168.0458, 196.0379
168.5280, 195.3738
169.0101, 194.8201
169.4922, 194.5213
169.9743, 194.6304
170.4564, 195.3698
170.9385, 197.8200
171.4207, 200.3494
171.9028, 201.3625
172.3849, 200.7467
172.8670, 199.7368
173.3491, 198.8957
173.8312, 198.3424
174.3134, 198.3074
174.7955, 199.0535
175.2776, 200.3012
175.7597, 201.8101
176.2418, 203.6109
176.7239, 205.4343
177.2061, 207.1782
177.6882, 208.8066
178.1703, 210.1884
178.6524, 211.1512
179.1345, 211.8739
179.6166, 212.7741
180.0988, 213.9767
180.5809, 214.8671
181.0630, 214.5597
181.5451, 213.2710
182.0272, 211.8826
182.5093, 210.7179
182.9915, 209.7794
183.4736, 209.1128
183.9557, 208.7324
184.4378, 208.5492
184.9199, 208.2278
185.4020, 207.8648
185.8842, 208.1242
186.3663, 209.8512
186.8484, 212.5947
187.3305, 214.5242
187.8126, 215.3289
188.2947, 215.8055
188.7769, 217.4778
189.2590, 220.2767
189.7411, 222.7320
190.2232, 223.6671
190.7053, 223.3689
191.1874, 223.6459
191.6696, 224.6019
192.1517, 226.2716
192.6338, 229.2739
193.1159, 233.6868
193.5980, 237.3914
194.0801, 238.9871
194.5623, 238.5823
195.0444, 237.5762
195.5265, 235.9105
196.0086, 233.9567
196.4907, 232.7170
196.9728, 232.3237
197.4550, 231.5295
197.9371, 229.3387
198.4192, 225.7248
198.9013, 222.5147
199.3834, 220.0822
199.8655, 217.9321
200.3477, 214.4500
200.8298, 209.2429
201.3119, 204.5302
201.7940, 201.9894
202.2761, 201.8770
202.7582, 200.9519
203.2404, 198.6431
203.7225, 195.5656
204.2046, 193.3586
204.6867, 192.0670
205.1688, 191.4858
205.6509, 191.7542
206.1331, 193.0859
206.6152, 193.8098
207.0973, 193.5622
207.5794, 192.7326
208.0615, 192.5816
208.5436, 193.3111
209.0258, 194.1873
209.5079, 194.6670
209.9900, 194.5721
210.4721, 194.9196
210.9542, 195.8792
211.4363, 197.3027
211.9185, 198.7923
212.4006, 200.5323
212.8827, 201.9431
213.3648, 202.5449
213.8469, 202.0935
214.3290, 201.7965
214.8112, 201.8982
215.2933, 202.1835
215.7754, 201.8814
216.2575, 200.9052
216.7396, 199.4970
217.2217, 197.7932
217.7038, 195.7970
218.1860, 193.4883
218.6681, 190.7636
219.1502, 187.7560
219.6323, 184.9923
220.1144, 182.5906
220.5965, 180.2753
221.0787, 177.8825
221.5608, 175.2952
222.0429, 172.9668
222.5250, 170.9461
223.0071, 169.2069
223.4892, 167.7327
223.9714, 166.5326
224.4535, 165.5648
224.9356, 164.8394
225.4177, 164.5260
225.8998, 164.0644
226.3819, 163.4435
226.8641, 162.6521
227.3462, 161.6407
227.8283, 160.2665
228.3104, 158.8904
228.7925, 157.5993
229.2746, 155.9315
229.7568, 155.4857
230.2389, 157.0439
230.7210, 159.7419
231.2031, 160.6631
231.6852, 158.8126
232.1673, 156.6605
232.6495, 155.3817
233.1316, 155.1819
233.6137, 155.4310
234.0958, 156.3223
234.5779, 157.6104
235.0600, 158.5880
235.5422, 159.1393
236.0243, 159.5650
236.5064, 159.9355
236.9885, 159.9748
237.4706, 160.6361
237.9527, 162.3759
238.4349, 164.6065
238.9170, 165.7618
239.3991, 165.1735
239.8812, 164.5066
240.3633, 164.4120
240.8454, 164.9174
241.3276, 165.9883
241.8097, 168.0199
242.2918, 170.4560
242.7739, 171.9721
243.2560, 171.8899
243.7381, 171.9391
244.2203, 172.8521
244.7024, 175.0714
245.1845, 176.8817
245.6666, 178.0352
246.1487, 178.8957
246.6308, 180.2462
247.1130, 182.5078
247.5951, 184.5661
248.0772, 185.8305
248.5593, 185.8036
249.0414, 186.9124
249.5235, 189.8230
250.0057, 193.4451
250.4878, 195.9496
250.9699, 196.6611
251.4520, 197.4705
251.9341, 199.1113
252.4162, 201.9205
252.8984, 203.8493
253.3805, 204.3779
253.8626, 204.4339
254.3447, 205.5523
254.8268, 208.7221
255.3089, 210.9521
255.7911, 211.0921
256.2732, 208.8173
256.7553, 207.3207
257.2374, 207.1039
257.7195, 207.1676
258.2017, 206.2554
258.6838, 204.0413
259.1659, 201.5614
259.6480, 198.9218
260.1301, 196.1241
260.6122, 193.8156
261.0944, 192.3627
261.5765, 190.9337
262.0586, 188.5303
262.5407, 184.7527
263.0228, 181.1636
263.5049, 178.3281
263.9871, 176.1616
264.4692, 172.9505
264.9513, 168.0296
265.4334, 163.0842
265.9155, 159.8342
266.3976, 159.0294
266.8798, 157.5206
267.3619, 154.4555
267.8440, 150.0996
268.3261, 146.9305
268.8082, 145.3078
269.2903, 144.1218
269.7725, 142.4927
270.2546, 140.3259
270.7367, 138.2408
271.2188, 136.3230
271.7009, 134.5705
272.1830, 132.8817
272.6652, 131.1812
273.1473, 129.7859
273.6294, 129.0985
274.1115, 129.3246
274.5936, 128.9100
275.0757, 127.4683
275.5579, 125.4466
276.0400, 124.2123
276.5221, 123.8976
277.0042, 123.8310
277.4863, 123.5446
277.9684, 122.9899
278.4506, 123.0378
278.9327, 124.0843
279.4148, 125.3381
279.8969, 124.6787
280.3790, 121.7543
280.8611, 119.3963
281.3433, 119.5663
281.8254, 122.2408
282.3075, 123.7083
282.7896, 123.6567
283.2717, 122.8504
283.7538, 122.3678
284.2360, 122.2100
284.7181, 122.3473
285.2002, 123.0002
285.6823, 124.0636
286.1644, 124.5066
286.6465, 124.2360
287.1287, 123.6701
287.6108, 123.1762
288.0929, 122.7700
288.5750, 122.7777
289.0571, 123.5251
289.5392, 124.7915
290.0214, 125.6516
290.5035, 126.0669
290.9856, 126.3722
291.4677, 127.0500
291.9498, 127.9988
292.4319, 128.5497
292.9141, 128.3443
293.3962, 127.7038
293.8783, 127.4024
294.3604, 127.4473
294.8425, 127.5083
295.3246, 127.3655
295.8068, 127.0183
296.2889, 126.4038
296.7710, 125.2854
297.2531, 124.1504
297.7352, 124.0373
298.2173, 124.8308
298.6995, 125.5418
299.1816, 125.4530
299.6637, 124.7604
300.1458, 123.8116
300.6279, 122.5537
301.1100, 121.2933
301.5922, 120.4315
302.0743, 119.9129
302.5564, 119.5196
303.0385, 119.2998
303.5206, 119.0634
304.0027, 118.3975
304.4849, 117.1149
304.9670, 115.9783
305.4491, 116.1864
305.9312, 117.1558
306.4133, 117.4871
306.8954, 115.7332
307.3776, 113.4049
307.8597, 112.1840
308.3418, 112.2565
308.8239, 112.4086
309.3060, 111.6483
309.7881, 110.3858
310.2703, 109.2933
310.7524, 108.5768
311.2345, 108.1633
311.7166, 108.1473
312.1987, 108.5085
312.6808, 108.7857
313.1630, 108.3788
313.6451, 107.8786
314.1272, 107.9242
314.6093, 109.4515
315.0914, 110.8820
315.5735, 111.3895
316.0557, 111.0911
316.5378, 110.6112
317.0199, 109.6656
317.5020, 108.9606
317.9841, 109.1116
318.4662, 111.2135
318.9484, 112.7441
319.4305, 112.2183
319.9126, 110.4266
320.3947, 109.4455
320.8768, 110.6419
321.3589, 112.2210
321.8411, 113.2559
322.3232, 113.3170
322.8053, 113.5748
323.2874, 114.6059
323.7695, 115.9037
324.2516, 116.6666
324.7338, 115.9505
325.2159, 115.4369
325.6980, 115.6632
326.1801, 116.7707
326.6622, 118.1055
327.1443, 120.2772
327.6265, 122.3821
328.1086, 123.4989
328.5907, 121.7491
329.0728, 121.1023
329.5549, 122.5633
330.0370, 126.1674
330.5192, 129.2053
331.0013, 131.6514
331.4834, 133.5805
331.9655, 134.9744
332.4476, 135.0458
332.9297, 135.9712
333.4119, 138.2587
333.8940, 141.5693
334.3761, 144.3777
334.8582, 146.3759
335.3403, 148.2628
335.8224, 150.3690
336.3046, 152.7486
336.7867, 155.2172
337.2688, 157.8548
337.7509, 160.5291
338.2330, 162.9782
338.7151, 165.0647
339.1973, 167.3026
339.6794, 169.9120
340.1615, 172.8775
340.6436, 176.1048
341.1257, 179.6211
341.6078, 183.2736
342.0899, 186.8009
342.5721, 190.1114
343.0542, 193.7649
343.5363, 197.9507
344.0184, 202.5672
344.5005, 207.4357
344.9826, 212.5822
345.4648, 217.5127
345.9469, 221.5273
346.4290, 224.7952
346.9111, 228.2305
347.3932, 232.0976
347.8753, 236.1398
348.3575, 239.9391
348.8396, 243.4574
349.3217, 246.4780
349.8038, 248.9101
350.2859, 250.6954
350.7680, 251.8148
351.2502, 252.3716
351.7323, 251.8400
352.2144, 249.4876
352.6965, 245.5146
353.1786, 240.5902
353.6607, 234.6839
354.1429, 228.1866
354.6250, 221.4330
355.1071, 214.4303
355.5892, 207.5744
356.0713, 200.9598
356.5534, 194.7365
357.0356, 189.1268
357.5177, 184.3645
357.9998, 180.0917
358.4819, 176.4406
358.9640, 173.2659
359.4461, 169.8429
359.9283, 165.4684
360.4104, 160.8531
360.8925, 156.5705
361.3746, 152.7279
361.8567, 149.2648
362.3388, 145.8787
362.8210, 142.8610
363.3031, 140.7905
363.7852, 140.8973
364.2673, 141.1540
364.7494, 140.5705
365.2315, 138.8262
365.7137, 137.0342
366.1958, 135.1903
366.6779, 133.5059
367.1600, 132.2130
367.6421, 131.5626
368.1242, 131.0740
368.6064, 130.8088
369.0885, 130.7907
369.5706, 130.3102
370.0527, 128.7804
370.5348, 127.2414
371.0169, 126.3929
371.4991, 126.8629
371.9812, 126.9381
372.4633, 126.1324
372.9454, 124.8658
373.4275, 124.7490
373.9096, 126.5073
374.3918, 128.1514
374.8739, 128.5945
375.3560, 127.4226
375.8381, 127.0362
376.3202, 127.7560
376.8023, 128.8481
377.2845, 129.1727
377.7666, 128.6257
378.2487, 127.8494
378.7308, 127.0123
379.2129, 126.1145
379.6950, 125.1899
380.1772, 124.1962
380.6593, 123.3488
381.1414, 122.7652
381.6235, 122.4645
382.1056, 122.6095
382.5877, 123.2958
383.0699, 124.3626
383.5520, 125.8200
384.0341, 127.5938
384.5162, 128.7947
384.9983, 128.3177
385.4804, 126.9423
385.9626, 126.4583
386.4447, 127.1614
386.9268, 128.1117
387.4089, 128.3692
387.8910, 128.1422
388.3731, 127.8934
388.8553, 127.7695
389.3374, 127.7550
389.8195, 127.8048
390.3016, 127.9245
390.7837, 128.2306
391.2658, 129.2591
391.7480, 130.3146
392.2301, 130.5937
392.7122, 129.0248
393.1943, 127.8199
393.6764, 128.3695
394.1585, 130.1637
394.6407, 131.7358
395.1228, 132.8109
395.6049, 133.3719
396.0870, 133.1783
396.5691, 131.7288
397.0512, 131.0969
397.5334, 132.4001
398.0155, 134.5042
398.4976, 135.9719
398.9797, 136.3849
399.4618, 136.4521
399.9439, 135.9630
400.4261, 134.9230
400.9082, 134.8846
401.3903, 136.5499
401.8724, 138.5459
402.3545, 140.0145
402.8366, 140.7480
403.3188, 141.3503
403.8009, 141.7531
404.2830, 142.0876
404.7651, 142.7083
405.2472, 143.6790
405.7293, 144.7393
406.2115, 145.8154
406.6936, 146.9015
407.1757, 147.9130
407.6578, 148.8482
408.1399, 149.7225
408.6220, 150.5177
409.1042, 151.2385
409.5863, 152.0780
410.0684, 153.1091
410.5505, 154.2726
411.0326, 155.5945
411.5147, 157.0674
411.9969, 158.3120
412.4790, 158.7752
412.9611, 158.8412
413.4432, 159.4547
413.9253, 160.8093
414.4074, 162.4803
414.8896, 164.2031
415.3717, 165.9023
415.8538, 167.3864
416.3359, 168.3401
416.8180, 169.1692
417.3001, 170.2038
417.7823, 171.4627
418.2644, 172.8195
418.7465, 174.2015
419.2286, 175.6746
419.7107, 177.2820
420.1928, 179.0361
420.6750, 180.9489
421.1571, 183.2493
421.6392, 185.7394
422.1213, 187.8464
422.6034, 189.1417
423.0855, 190.2562
423.5677, 191.3737
424.0498, 192.3888
424.5319, 193.8239
425.0140, 196.1434
425.4961, 198.7191
425.9782, 200.9097
426.4604, 202.2938
426.9425, 203.9025
427.4246, 205.7681
427.9067, 207.9532
428.3888, 210.8337
428.8709, 214.7094
429.3531, 218.7381
429.8352, 222.6578
430.3173, 226.5564
430.7994, 229.3574
431.2815, 230.4932
431.7636, 231.3777
432.2458, 234.5385
432.7279, 240.1074
433.2100, 245.6687
433.6921, 250.1977
434.1742, 254.1051
434.6563, 258.9148
435.1385, 264.7136
435.6206, 270.5745
436.1027, 275.3601
436.5848, 279.5887
437.0669, 284.6390
437.5490, 290.7778
438.0312, 297.8389
438.5133, 306.3062
438.9954, 315.7015
439.4775, 324.6916
439.9596, 331.9479
440.4417, 338.9102
440.9239, 346.9017
441.4060, 356.0033
441.8881, 365.5018
442.3702, 374.4885
442.8523, 383.7932
443.3344, 394.3001
443.8166, 406.8449
444.2987, 419.9052
444.7808, 432.7676
445.2629, 445.7534
445.7450, 459.9270
446.2271, 475.6155
446.7093, 492.0801
447.1914, 509.0859
447.6735, 526.7856
448.1556, 544.6112
448.6377, 562.3495
449.1198, 580.1779
449.6020, 598.3153
450.0841, 616.2917
450.5662, 634.9003
451.0483, 654.8796
451.5304, 675.6209
452.0125, 694.4532
452.4947, 712.2469
452.9768, 725.9389
453.4589, 733.7286
453.9410, 735.5599
454.4231, 733.6628
454.9052, 727.7542
455.3874, 719.2236
455.8695, 710.1493
456.3516, 700.1744
456.8337, 686.9437
457.3158, 668.1172
457.7979, 646.7285
458.2801, 628.3990
458.7622, 612.7847
459.2443, 596.7546
459.7264, 577.6723
460.2085, 557.2488
460.6906, 537.8150
461.1728, 519.6940
461.6549, 502.8012
462.1370, 487.3362
462.6191, 473.2784
463.1012, 460.9701
463.5833, 452.0991
464.0655, 443.5069
464.5476, 433.6799
465.0297, 422.8169
465.5118, 412.4041
465.9939, 403.4560
466.4760, 394.8163
466.9582, 385.8177
467.4403, 375.2961
467.9224, 366.2543
468.4045, 359.1664
468.8866, 353.4219
469.3687, 348.2628
469.8509, 344.8800
470.3330, 339.9952
470.8151, 332.2326
471.2972, 322.0106
471.7793, 313.9932
472.2614, 308.8135
472.7436, 303.9074
473.2257, 297.4275
473.7078, 289.3195
474.1899, 281.0572
474.6720, 272.5874
475.1541, 264.2945
475.6363, 256.8363
476.1184, 250.1203
476.6005, 243.5662
477.0826, 236.9339
477.5647, 230.3386
478.0468, 223.7737
478.5290, 217.2626
479.0111, 211.0176
479.4932, 204.8726
479.9753, 199.2130
480.4574, 194.6880
480.9395, 191.7517
481.4217, 188.7862
481.9038, 184.4245
482.3859, 179.5389
482.8680, 175.4676
483.3501, 173.5446
483.8322, 171.6392
484.3144, 168.8436
484.7965, 165.2332
485.2786, 161.8817
485.7607, 158.8658
486.2428, 156.2543
486.7249, 154.0904
487.2071, 152.5722
487.6892, 151.1240
488.1713, 149.7005
488.6534, 148.3831
489.1355, 147.3069
489.6176, 146.5746
490.0998, 145.7671
490.5819, 144.7335
491.0640, 143.5374
491.5461, 142.6053
492.0282, 141.9926
492.5103, 141.2196
492.9925, 139.4569
493.4746, 137.0833
493.9567, 136.5651
494.4388, 138.3834
494.9209, 140.3559
495.4030, 139.4674
495.8852, 136.7589
496.3673, 134.8713
496.8494, 135.5479
497.3315, 136.7501
497.8136, 136.1421
498.2957, 134.2228
498.7779, 133.0745
499.2600, 134.9165
499.7421, 137.1271
500.2242, 137.6761
500.7063, 135.8963
501.1884, 134.4011
501.6706, 134.1918
502.1527, 134.5642
502.6348, 134.8158
503.1169, 134.7123
503.5990, 134.6687
504.0811, 134.8677
504.5633, 135.1764
505.0454, 135.0166
505.5275, 133.9370
506.0096, 133.1811
506.4917, 133.4133
506.9738, 134.7663
507.4560, 135.4505
507.9381, 135.3308
508.4202, 134.9054
508.9023, 134.5514
509.3844, 134.2834
509.8665, 134.4321
510.3487, 135.1955
510.8308, 136.1512
511.3129, 136.5128
511.7950, 136.4021
512.2772, 136.3836
512.7593, 136.8944
513.2414, 137.5871
513.7235, 138.0568
514.2056, 138.2987
514.6877, 138.4529
515.1699, 138.5926
515.6520, 138.6927
516.1341, 138.6983
516.6162, 138.4423
517.0983, 138.3943
517.5804, 138.6235
518.0626, 139.1716
518.5447, 140.1073
519.0268, 142.7116
519.5089, 144.3202
519.9910, 143.8123
520.4731, 141.3827
520.9553, 140.0978
521.4374, 140.1862
521.9195, 141.0915
522.4016, 142.8864
522.8837, 146.0223
523.3658, 147.3820
523.8480, 146.4730
524.3301, 144.7847
524.8122, 144.4123
525.2943, 145.2666
525.7764, 145.8276
526.2585, 145.4848
526.7407, 144.8528
527.2228, 144.9819
527.7049, 145.8282
528.1870, 147.1090
528.6691, 149.2567
529.1512, 151.4471
529.6334, 152.6604
530.1155, 152.8166
530.5976, 152.5906
531.0797, 151.9444
531.5618, 151.3239
532.0439, 151.1992
532.5261, 152.1162
533.0082, 152.9124
533.4903, 153.1187
533.9724, 153.0210
534.4545, 153.2433
534.9366, 154.3412
535.4188, 155.1726
535.9009, 155.2366
536.3830, 154.5704
536.8651, 154.9025
537.3472, 156.6996
537.8293, 158.5778
538.3115, 159.5695
538.7936, 159.6113
539.2757, 159.5917
539.7578, 159.4581
540.2399, 159.5385
540.7220, 160.5690
541.2042, 162.3308
541.6863, 163.6063
542.1684, 163.7953
542.6505, 163.5937
543.1326, 164.0001
543.6147, 164.8885
544.0969, 165.7968
544.5790, 166.4014
545.0611, 166.9272
545.5432, 167.6162
546.0253, 168.5002
546.5074, 169.2022
546.9896, 169.1910
547.4717, 169.1345
547.9538, 169.5810
548.4359, 171.1264
548.9180, 172.4918
549.4001, 173.4172
549.8823, 174.1627
550.3644, 175.1845
550.8465, 176.6903
551.3286, 178.0915
551.8107, 179.1549
552.2928, 179.9736
552.7750, 181.2802
553.2571, 183.1970
553.7392, 185.0357
554.2213, 186.2540
554.7034, 186.9602
555.1855, 187.9639
555.6677, 189.3689
556.1498, 190.5721
556.6319, 190.3806
557.1140, 189.5615
557.5961, 189.7623
558.0782, 191.8192
558.5604, 194.4252
559.0425, 196.7926
559.5246, 198.8914
560.0067, 200.6354
560.4888, 202.3253
560.9709, 203.3278
561.4531, 202.7193
561.9352, 200.5055
562.4173, 199.7028
562.8994, 201.7754
563.3815, 204.5139
563.8636, 206.8479
564.3458, 208.5197
564.8279, 210.4842
565.3100, 212.9511
565.7921, 215.4759
566.2742, 217.3793
566.7563, 218.5970
567.2385, 219.9888
567.7206, 221.8704
568.2027, 223.8516
568.6848, 224.7452
569.1669, 224.7311
569.6490, 225.0663
570.1312, 226.8869
570.6133, 229.2620
571.0954, 230.5236
571.5775, 230.7577
572.0596, 231.5350
572.5417, 234.8709
573.0239, 238.6273
573.5060, 240.6885
573.9881, 239.9095
574.4702, 239.6358
574.9523, 241.2587
575.4344, 243.7988
575.9166, 245.9988
576.3987, 247.6379
576.8808, 249.1272
577.3629, 250.3273
577.8450, 251.4366
578.3271, 253.2601
578.8093, 256.1350
579.2914, 258.6821
579.7735, 260.0833
580.2556, 260.5394
580.7377, 261.9442
581.2198, 264.3754
581.7020, 266.8091
582.1841, 268.3100
582.6662, 269.1683
583.1483, 270.1465
583.6304, 271.3738
584.1125, 272.4650
584.5947, 272.6171
585.0768, 272.5360
585.5589, 273.2651
586.0410, 275.7809
586.5231, 278.4865
587.0052, 280.6338
587.4873, 282.4644
587.9694, 284.5767
588.4515, 287.8948
588.9337, 290.6846
589.4158, 292.0661
589.8979, 292.0254
590.3800, 293.3687
590.8621, 296.5370
591.3442, 300.3185
591.8264, 304.1018
592.3085, 307.9359
592.7906, 311.0707
593.2727, 313.3403
593.7548, 315.4272
594.2369, 317.8796
594.7191, 320.8135
595.2012, 324.6673
595.6833, 329.7407
596.1654, 335.4285
596.6475, 341.5958
597.1296, 347.8427
597.6118, 353.3884
598.0939, 356.1956
598.5760, 359.6989
599.0581, 366.2503
599.5402, 375.4979
600.0223, 384.7193
600.5045, 393.3354
600.9866, 401.7605
601.4687, 410.1700
601.9508, 418.4260
602.4329, 427.3176
602.9150, 436.8668
603.3972, 446.9443
603.8793, 457.1985
604.3614, 467.5543
604.8435, 479.5619
605.3256, 493.6407
605.8077, 508.6064
606.2899, 522.1696
606.7720, 534.7460
607.2541, 547.6881
607.7362, 561.0772
608.2183, 575.5230
608.7004, 591.9027
609.1826, 609.9467
609.6647, 628.1261
610.1468, 645.3209
610.6289, 663.0422
611.1110, 682.6104
611.5931, 704.4355
612.0753, 724.6729
612.5574, 741.2060
613.0395, 757.2427
