##NAMES=Bobdownsite
##RRUFFID=R050109
##IDEAL CHEMISTRY=Ca_9_Mg(PO_4_)_6_(PO_3_F)
##LOCALITY=Big Fish River, Yukon Territory, Canada
##OWNER=RRUFF
##SOURCE=Rock Currier
##DESCRIPTION=Colorless hexagonal tabular crystals, type sample
##STATUS=The identification of this mineral is confirmed by single-crystal X-ray diffraction and chemical analysis.
##URL=rruff.info/R050109
##MEASURED CHEMISTRY=(Ca_8.76_Na_0.24_)_Σ=9_(Mg_0.72_Fe^3+^_0.13_Al_0.11_Fe^2+^_0.04_)_Σ=1_(P_1.00_O_4_)_6_(P_1.00_O_3_F_1.00_); Fe^2+^ and Fe^3+^ by charge balance
128.4501, 4202.425
128.9322, 4312.247
129.4144, 4418.859
129.8965, 4516.971
130.3786, 4606.866
130.8607, 4721.046
131.3428, 4867.933
131.8249, 4997.521
132.3071, 5061.346
132.7892, 5074.030
133.2713, 5113.282
133.7534, 5202.055
134.2355, 5314.443
134.7176, 5381.661
135.1998, 5402.047
135.6819, 5395.623
136.1640, 5373.223
136.6461, 5334.153
137.1282, 5298.935
137.6103, 5274.911
138.0925, 5261.074
138.5746, 5242.551
139.0567, 5221.426
139.5388, 5192.206
140.0209, 5139.445
140.5030, 5049.912
140.9852, 4978.245
141.4673, 4950.261
141.9494, 4981.442
142.4315, 4996.896
142.9136, 4985.797
143.3957, 4962.378
143.8779, 4971.123
144.3600, 5031.436
144.8421, 5094.602
145.3242, 5130.250
145.8063, 5118.709
146.2884, 5117.926
146.7705, 5138.565
147.2527, 5179.622
147.7348, 5207.913
148.2169, 5223.559
148.6990, 5226.773
149.1811, 5217.257
149.6632, 5183.263
150.1454, 5149.763
150.6275, 5121.586
151.1096, 5100.127
151.5917, 5078.096
152.0738, 5047.969
152.5559, 5018.386
153.0381, 5002.769
153.5202, 5012.291
154.0023, 5026.643
154.4844, 5039.144
154.9665, 5046.239
155.4486, 5056.325
155.9308, 5078.190
156.4129, 5105.252
156.8950, 5117.318
157.3771, 5105.317
157.8592, 5080.984
158.3413, 5051.083
158.8235, 4999.938
159.3056, 4960.252
159.7877, 4954.602
160.2698, 4978.947
160.7519, 4978.750
161.2340, 4913.283
161.7162, 4824.481
162.1983, 4753.155
162.6804, 4728.126
163.1625, 4709.993
163.6446, 4684.524
164.1267, 4651.396
164.6089, 4605.177
165.0910, 4537.417
165.5731, 4455.577
166.0552, 4371.694
166.5373, 4285.892
167.0194, 4202.885
167.5016, 4124.589
167.9837, 4050.113
168.4658, 3985.500
168.9479, 3934.434
169.4300, 3896.347
169.9121, 3869.518
170.3943, 3862.534
170.8764, 3862.951
171.3585, 3857.219
171.8406, 3836.709
172.3227, 3815.079
172.8048, 3805.391
173.2870, 3806.441
173.7691, 3807.828
174.2512, 3797.632
174.7333, 3783.414
175.2154, 3777.492
175.6975, 3803.994
176.1797, 3831.999
176.6618, 3821.905
177.1439, 3772.037
177.6260, 3708.888
178.1081, 3658.313
178.5902, 3613.366
179.0724, 3556.271
179.5545, 3462.697
180.0366, 3354.458
180.5187, 3272.284
181.0008, 3221.939
181.4829, 3181.942
181.9651, 3121.703
182.4472, 3045.496
182.9293, 2978.859
183.4114, 2938.071
183.8935, 2918.250
184.3756, 2907.055
184.8578, 2906.593
185.3399, 2908.269
185.8220, 2896.777
186.3041, 2872.469
186.7862, 2845.747
187.2683, 2822.732
187.7504, 2803.509
188.2326, 2787.218
188.7147, 2773.719
189.1968, 2763.353
189.6789, 2757.326
190.1610, 2755.793
190.6431, 2757.232
191.1253, 2766.084
191.6074, 2780.734
192.0895, 2780.927
192.5716, 2752.611
193.0537, 2703.495
193.5358, 2668.701
194.0180, 2649.625
194.5001, 2640.892
194.9822, 2639.591
195.4643, 2646.152
195.9464, 2648.313
196.4285, 2639.062
196.9107, 2619.199
197.3928, 2602.246
197.8749, 2590.438
198.3570, 2578.267
198.8391, 2552.237
199.3212, 2509.672
199.8034, 2471.927
200.2855, 2452.257
200.7676, 2451.981
201.2497, 2450.210
201.7318, 2445.082
202.2139, 2437.712
202.6961, 2431.314
203.1782, 2426.133
203.6603, 2420.682
204.1424, 2412.635
204.6245, 2400.849
205.1066, 2394.163
205.5888, 2394.612
206.0709, 2400.984
206.5530, 2408.071
207.0351, 2416.855
207.5172, 2424.236
207.9993, 2426.373
208.4815, 2421.460
208.9636, 2419.198
209.4457, 2421.306
209.9278, 2427.772
210.4099, 2439.149
210.8920, 2458.452
211.3742, 2477.962
211.8563, 2488.739
212.3384, 2488.472
212.8205, 2486.146
213.3026, 2481.949
213.7847, 2474.840
214.2669, 2479.402
214.7490, 2501.104
215.2311, 2528.777
215.7132, 2544.918
216.1953, 2546.124
216.6774, 2543.441
217.1596, 2539.210
217.6417, 2531.521
218.1238, 2530.948
218.6059, 2539.848
219.0880, 2554.515
219.5701, 2567.942
220.0523, 2581.151
220.5344, 2591.354
221.0165, 2596.117
221.4986, 2591.512
221.9807, 2592.587
222.4628, 2601.529
222.9450, 2615.941
223.4271, 2627.878
223.9092, 2634.469
224.3913, 2642.757
224.8734, 2658.509
225.3555, 2689.531
225.8377, 2708.504
226.3198, 2709.112
226.8019, 2694.994
227.2840, 2688.344
227.7661, 2692.260
228.2482, 2699.728
228.7303, 2705.995
229.2125, 2710.677
229.6946, 2714.840
230.1767, 2718.018
230.6588, 2720.415
231.1409, 2725.313
231.6230, 2734.664
232.1052, 2744.460
232.5873, 2749.651
233.0694, 2742.636
233.5515, 2746.306
234.0336, 2770.397
234.5157, 2817.005
234.9979, 2844.307
235.4800, 2843.212
235.9621, 2831.060
236.4442, 2827.051
236.9263, 2834.882
237.4084, 2844.357
237.8906, 2853.410
238.3727, 2861.842
238.8548, 2871.604
239.3369, 2886.680
239.8190, 2900.288
240.3011, 2900.887
240.7833, 2873.815
241.2654, 2857.764
241.7475, 2867.709
242.2296, 2914.379
242.7117, 2944.647
243.1938, 2950.734
243.6760, 2944.465
244.1581, 2946.922
244.6402, 2962.405
245.1223, 2979.895
245.6044, 2996.003
246.0865, 3011.734
246.5687, 3022.691
247.0508, 3024.632
247.5329, 3023.286
248.0150, 3031.762
248.4971, 3053.765
248.9792, 3080.143
249.4614, 3107.512
249.9435, 3139.105
250.4256, 3164.145
250.9077, 3178.621
251.3898, 3187.317
251.8719, 3205.087
252.3541, 3238.362
252.8362, 3271.340
253.3183, 3295.822
253.8004, 3308.286
254.2825, 3321.911
254.7646, 3339.506
255.2468, 3358.591
255.7289, 3367.945
256.2110, 3360.448
256.6931, 3354.186
257.1752, 3362.061
257.6573, 3394.663
258.1395, 3413.660
258.6216, 3411.499
259.1037, 3392.829
259.5858, 3382.058
260.0679, 3381.112
260.5500, 3384.711
261.0322, 3390.100
261.5143, 3398.826
261.9964, 3405.039
262.4785, 3409.228
262.9606, 3410.581
263.4427, 3401.798
263.9249, 3375.178
264.4070, 3350.903
264.8891, 3346.777
265.3712, 3371.402
265.8533, 3390.308
266.3354, 3398.932
266.8176, 3397.778
267.2997, 3388.419
267.7818, 3364.465
268.2639, 3344.130
268.7460, 3347.189
269.2281, 3381.900
269.7103, 3409.075
270.1924, 3419.708
270.6745, 3415.602
271.1566, 3414.900
271.6387, 3418.881
272.1208, 3423.688
272.6030, 3422.298
273.0851, 3410.504
273.5672, 3412.791
274.0493, 3438.547
274.5314, 3485.045
275.0135, 3523.799
275.4957, 3553.115
275.9778, 3578.493
276.4599, 3604.768
276.9420, 3631.945
277.4241, 3659.706
277.9063, 3686.079
278.3884, 3712.245
278.8705, 3747.112
279.3526, 3792.110
279.8347, 3841.762
280.3168, 3892.641
280.7990, 3945.466
281.2811, 3990.272
281.7632, 4015.271
282.2453, 4026.965
282.7274, 4084.661
283.2095, 4204.791
283.6917, 4314.085
284.1738, 4311.503
284.6559, 4195.646
285.1380, 4085.757
285.6201, 4025.184
286.1022, 4003.905
286.5844, 3965.763
287.0665, 3908.489
287.5486, 3844.117
288.0307, 3785.578
288.5128, 3732.603
288.9949, 3681.306
289.4771, 3633.319
289.9591, 3586.316
290.4413, 3525.145
290.9234, 3447.829
291.4055, 3370.896
291.8876, 3314.989
292.3697, 3277.896
292.8518, 3243.778
293.3340, 3208.264
293.8161, 3171.187
294.2982, 3134.901
294.7803, 3099.812
295.2624, 3059.999
295.7445, 3002.249
296.2267, 2931.290
296.7088, 2868.938
297.1909, 2830.399
297.6730, 2804.574
298.1551, 2765.941
298.6372, 2713.093
299.1194, 2661.861
299.6015, 2634.083
300.0836, 2622.198
300.5657, 2604.809
301.0478, 2570.002
301.5299, 2525.361
302.0121, 2483.011
302.4942, 2442.963
302.9763, 2400.530
303.4584, 2344.404
303.9405, 2282.326
304.4226, 2229.661
304.9048, 2198.594
305.3869, 2177.854
305.8690, 2159.016
306.3511, 2141.865
306.8332, 2117.646
307.3153, 2072.322
307.7975, 2015.796
308.2796, 1965.861
308.7617, 1932.299
309.2438, 1906.179
309.7259, 1879.449
310.2080, 1851.514
310.6902, 1828.472
311.1723, 1822.019
311.6544, 1821.119
312.1365, 1810.873
312.6186, 1775.285
313.1007, 1736.192
313.5829, 1707.589
314.0650, 1690.187
314.5471, 1676.630
315.0292, 1666.592
315.5113, 1657.138
315.9934, 1644.873
316.4756, 1623.905
316.9577, 1603.875
317.4398, 1590.349
317.9219, 1583.413
318.4040, 1575.731
318.8861, 1561.950
319.3683, 1547.152
319.8504, 1536.171
320.3325, 1530.583
320.8146, 1528.752
321.2967, 1533.164
321.7788, 1543.549
322.2610, 1548.489
322.7431, 1538.624
323.2252, 1525.658
323.7073, 1518.915
324.1894, 1530.550
324.6715, 1537.533
325.1537, 1531.629
325.6358, 1513.284
326.1179, 1501.651
326.6000, 1505.890
327.0821, 1513.141
327.5642, 1514.606
328.0464, 1499.703
328.5285, 1490.280
329.0106, 1491.263
329.4927, 1501.682
329.9748, 1508.257
330.4569, 1511.131
330.9391, 1510.142
331.4212, 1505.005
331.9033, 1493.926
332.3854, 1481.344
332.8675, 1464.067
333.3496, 1444.282
333.8318, 1437.236
334.3139, 1450.480
334.7960, 1466.946
335.2781, 1476.100
335.7602, 1474.766
336.2423, 1474.038
336.7245, 1475.857
337.2066, 1478.741
337.6887, 1476.440
338.1708, 1466.889
338.6529, 1456.659
339.1350, 1448.514
339.6172, 1441.867
340.0993, 1441.260
340.5814, 1448.783
341.0635, 1461.198
341.5456, 1471.967
342.0277, 1481.866
342.5099, 1486.159
342.9920, 1476.828
343.4741, 1453.806
343.9562, 1447.579
344.4383, 1464.760
344.9204, 1491.374
345.4026, 1496.459
345.8847, 1470.531
346.3668, 1487.556
346.8489, 1498.096
347.3310, 1502.499
347.8131, 1482.385
348.2953, 1493.930
348.7774, 1492.787
349.2595, 1491.124
349.7416, 1507.125
350.2237, 1490.577
350.7058, 1506.297
351.1880, 1510.548
351.6701, 1524.092
352.1522, 1541.156
352.6343, 1553.994
353.1164, 1548.568
353.5985, 1531.773
354.0807, 1521.572
354.5628, 1532.528
355.0449, 1550.799
355.5270, 1560.089
356.0091, 1559.602
356.4912, 1557.416
356.9734, 1558.572
357.4555, 1562.162
357.9376, 1566.727
358.4197, 1574.193
358.9018, 1580.582
359.3839, 1581.613
359.8661, 1577.433
360.3482, 1575.267
360.8303, 1579.391
361.3124, 1587.171
361.7945, 1595.969
362.2766, 1611.159
362.7588, 1621.160
363.2409, 1616.142
363.7230, 1598.453
364.2051, 1589.428
364.6872, 1602.403
365.1693, 1622.349
365.6515, 1638.887
366.1336, 1647.787
366.6157, 1655.506
367.0978, 1661.049
367.5799, 1665.482
368.0620, 1673.919
368.5442, 1694.574
369.0263, 1713.674
369.5084, 1724.392
369.9905, 1712.859
370.4726, 1712.155
370.9547, 1727.219
371.4369, 1752.965
371.9190, 1775.113
372.4011, 1789.516
372.8832, 1805.463
373.3653, 1827.814
373.8474, 1862.157
374.3295, 1887.342
374.8116, 1899.907
375.2938, 1906.301
375.7759, 1917.912
376.2580, 1935.296
376.7401, 1956.428
377.2222, 1980.183
377.7043, 2006.776
378.1865, 2037.732
378.6686, 2074.054
379.1507, 2113.408
379.6328, 2151.843
380.1149, 2189.056
380.5970, 2233.168
381.0792, 2292.727
381.5613, 2361.915
382.0434, 2411.245
382.5255, 2436.860
383.0076, 2464.651
383.4897, 2524.501
383.9719, 2609.972
384.4540, 2693.972
384.9361, 2764.433
385.4182, 2831.499
385.9003, 2903.160
386.3824, 2981.464
386.8646, 3082.606
387.3467, 3250.385
387.8288, 3444.611
388.3109, 3589.396
388.7930, 3647.735
389.2751, 3682.241
389.7573, 3738.349
390.2394, 3816.536
390.7215, 3917.718
391.2036, 4055.833
391.6857, 4211.224
392.1678, 4367.444
392.6500, 4521.109
393.1321, 4675.598
393.6142, 4834.580
394.0963, 4993.678
394.5784, 5147.470
395.0605, 5284.795
395.5427, 5422.618
396.0248, 5570.070
396.5069, 5727.921
396.9890, 5892.452
397.4711, 6055.757
397.9532, 6226.832
398.4354, 6419.492
398.9175, 6659.308
399.3996, 6896.734
399.8817, 7115.614
400.3638, 7312.474
400.8459, 7526.933
401.3281, 7774.366
401.8102, 8029.375
402.2923, 8268.833
402.7744, 8494.700
403.2565, 8704.658
403.7386, 8898.738
404.2208, 9076.817
404.7029, 9236.909
405.1850, 9376.440
405.6671, 9504.095
406.1492, 9634.728
406.6313, 9781.136
407.1135, 9856.931
407.5956, 9846.381
408.0777, 9768.822
408.5598, 9663.527
409.0419, 9530.794
409.5240, 9377.421
410.0062, 9205.303
410.4883, 9014.722
410.9704, 8814.182
411.4525, 8599.908
411.9346, 8386.767
412.4167, 8190.937
412.8989, 8013.300
413.3810, 7849.348
413.8631, 7703.379
414.3452, 7569.618
414.8273, 7434.778
415.3094, 7297.676
415.7916, 7172.944
416.2737, 7080.695
416.7558, 7006.259
417.2379, 6924.355
417.7200, 6812.374
418.2021, 6703.111
418.6843, 6623.891
419.1664, 6570.744
419.6485, 6513.668
420.1306, 6429.450
420.6127, 6340.633
421.0948, 6266.081
421.5770, 6213.708
422.0591, 6169.042
422.5412, 6127.538
423.0233, 6089.889
423.5054, 6057.649
423.9875, 6031.065
424.4697, 6009.415
424.9518, 5991.701
425.4339, 5976.329
425.9160, 5968.465
426.3981, 5966.912
426.8802, 5973.050
427.3624, 5989.563
427.8445, 6023.851
428.3266, 6057.321
428.8087, 6086.556
429.2908, 6111.609
429.7729, 6129.770
430.2551, 6138.522
430.7372, 6144.523
431.2193, 6156.924
431.7014, 6179.017
432.1835, 6187.135
432.6656, 6175.306
433.1478, 6147.621
433.6299, 6113.750
434.1120, 6073.447
434.5941, 6034.589
435.0762, 6004.641
435.5583, 5981.191
436.0405, 5953.364
436.5226, 5919.839
437.0047, 5881.148
437.4868, 5841.881
437.9689, 5799.404
438.4510, 5744.624
438.9332, 5658.842
439.4153, 5564.649
439.8974, 5491.514
440.3795, 5442.396
440.8616, 5397.346
441.3438, 5341.987
441.8259, 5282.153
442.3080, 5224.896
442.7901, 5172.810
443.2722, 5123.871
443.7543, 5075.815
444.2365, 5029.454
444.7186, 4988.787
445.2007, 4953.851
445.6828, 4925.911
446.1649, 4906.038
446.6470, 4912.503
447.1292, 4902.873
447.6113, 4862.661
448.0934, 4802.917
448.5755, 4753.787
449.0576, 4726.700
449.5397, 4697.554
450.0219, 4657.349
450.5040, 4601.580
450.9861, 4552.783
451.4682, 4513.539
451.9503, 4477.878
452.4324, 4437.324
452.9146, 4389.205
453.3967, 4346.786
453.8788, 4315.951
454.3609, 4293.892
454.8430, 4269.775
455.3251, 4243.715
455.8072, 4213.643
456.2893, 4174.015
456.7715, 4127.314
457.2536, 4089.559
457.7357, 4065.967
458.2178, 4047.636
458.6999, 4025.786
459.1820, 3999.333
459.6642, 3962.450
460.1463, 3903.365
460.6284, 3835.892
461.1105, 3778.123
461.5926, 3732.644
462.0747, 3690.040
462.5569, 3647.036
463.0390, 3601.982
463.5211, 3553.260
464.0032, 3496.550
464.4853, 3439.384
464.9674, 3383.714
465.4496, 3330.565
465.9317, 3282.443
466.4138, 3240.252
466.8959, 3203.877
467.3780, 3172.843
467.8601, 3157.036
468.3423, 3134.651
468.8244, 3103.393
469.3065, 3065.245
469.7886, 3026.119
470.2707, 2982.937
470.7528, 2943.260
471.2350, 2910.137
471.7171, 2884.275
472.1992, 2860.384
472.6813, 2839.119
473.1634, 2818.716
473.6455, 2796.332
474.1277, 2771.531
474.6098, 2750.467
475.0919, 2735.375
475.5740, 2724.665
476.0561, 2712.876
476.5382, 2700.082
477.0204, 2691.573
477.5025, 2696.474
477.9846, 2708.122
478.4667, 2711.554
478.9488, 2703.080
479.4309, 2690.412
479.9131, 2677.354
480.3952, 2665.777
480.8773, 2659.938
481.3594, 2663.607
481.8415, 2672.517
482.3236, 2685.672
482.8058, 2703.060
483.2879, 2718.084
483.7700, 2734.333
484.2521, 2743.823
484.7342, 2739.425
485.2163, 2714.048
485.6985, 2680.828
486.1806, 2640.526
486.6627, 2593.448
487.1448, 2540.527
487.6269, 2468.633
488.1090, 2406.760
488.5912, 2371.774
489.0733, 2379.610
489.5554, 2357.648
490.0375, 2294.215
490.5196, 2215.066
491.0017, 2158.997
491.4839, 2128.990
491.9660, 2099.375
492.4481, 2063.432
492.9302, 2021.524
493.4123, 1973.768
493.8944, 1919.045
494.3766, 1870.074
494.8587, 1839.424
495.3408, 1822.090
495.8229, 1804.097
496.3050, 1782.521
496.7871, 1760.612
497.2693, 1741.133
497.7514, 1723.656
498.2335, 1707.664
498.7156, 1698.089
499.1977, 1686.023
499.6798, 1660.648
500.1620, 1620.356
500.6441, 1588.096
501.1262, 1579.603
501.6083, 1580.274
502.0904, 1577.165
502.5725, 1558.434
503.0547, 1546.457
503.5368, 1551.282
504.0189, 1567.036
504.5010, 1569.724
504.9831, 1551.175
505.4652, 1529.946
505.9474, 1512.492
506.4295, 1498.417
506.9116, 1491.103
507.3937, 1493.759
507.8758, 1498.188
508.3579, 1491.298
508.8401, 1471.489
509.3222, 1459.810
509.8043, 1465.571
510.2864, 1480.593
510.7685, 1478.545
511.2506, 1459.959
511.7328, 1444.587
512.2148, 1451.553
512.6970, 1470.696
513.1791, 1482.407
513.6612, 1482.831
514.1433, 1480.366
514.6254, 1482.128
515.1075, 1486.101
515.5897, 1488.653
516.0718, 1486.588
516.5539, 1484.200
517.0360, 1484.435
517.5181, 1487.193
518.0002, 1488.409
518.4824, 1482.318
518.9645, 1477.431
519.4466, 1479.194
519.9287, 1494.373
520.4108, 1508.094
520.8929, 1522.839
521.3751, 1535.071
521.8572, 1535.312
522.3393, 1513.898
522.8214, 1501.837
523.3035, 1513.658
523.7856, 1547.870
524.2678, 1563.655
524.7499, 1556.759
525.2320, 1547.471
525.7141, 1554.537
526.1962, 1576.261
526.6783, 1603.028
527.1605, 1635.543
527.6426, 1666.902
528.1247, 1682.779
528.6068, 1687.260
529.0889, 1696.753
529.5710, 1723.080
530.0532, 1756.749
530.5353, 1790.425
531.0174, 1823.846
531.4995, 1854.158
531.9816, 1873.104
532.4637, 1891.667
532.9459, 1920.718
533.4280, 1966.004
533.9101, 2018.197
534.3922, 2079.081
534.8743, 2146.191
535.3564, 2209.234
535.8386, 2265.162
536.3207, 2321.234
536.8028, 2380.595
537.2849, 2444.189
537.7670, 2503.147
538.2491, 2554.650
538.7313, 2607.436
539.2134, 2671.479
539.6955, 2746.857
540.1776, 2828.721
540.6597, 2917.684
541.1418, 3010.713
541.6240, 3098.237
542.1061, 3182.380
542.5882, 3274.998
543.0703, 3396.726
543.5524, 3526.301
544.0345, 3627.833
544.5167, 3697.280
544.9988, 3765.466
545.4809, 3860.724
545.9630, 3964.089
546.4451, 4054.767
546.9272, 4126.672
547.4094, 4183.094
547.8915, 4223.829
548.3736, 4249.413
548.8557, 4263.250
549.3378, 4244.103
549.8199, 4233.745
550.3021, 4252.227
550.7842, 4311.515
551.2663, 4344.220
551.7484, 4346.745
552.2305, 4327.250
552.7126, 4289.360
553.1948, 4229.667
553.6769, 4174.608
554.1590, 4130.136
554.6411, 4091.492
555.1232, 4039.033
555.6053, 3974.393
556.0875, 3932.865
556.5696, 3950.617
557.0517, 3999.675
557.5338, 4030.855
558.0159, 4041.368
558.4980, 4046.365
558.9802, 4057.929
559.4623, 4070.780
559.9444, 4078.453
560.4265, 4085.366
560.9086, 4079.115
561.3907, 4052.751
561.8729, 4009.258
562.3550, 3957.329
562.8371, 3902.537
563.3192, 3834.559
563.8013, 3749.022
564.2834, 3642.839
564.7656, 3537.271
565.2477, 3429.863
565.7298, 3325.927
566.2119, 3229.104
566.6940, 3139.646
567.1761, 3053.784
567.6583, 2970.102
568.1404, 2889.764
568.6225, 2811.957
569.1046, 2736.345
569.5867, 2662.927
570.0688, 2590.263
570.5510, 2519.872
571.0331, 2450.054
571.5152, 2382.338
571.9973, 2323.898
572.4794, 2287.248
572.9615, 2259.948
573.4437, 2229.947
573.9258, 2194.084
574.4079, 2155.487
574.8900, 2107.295
575.3721, 2057.983
575.8542, 2024.187
576.3364, 2017.639
576.8185, 2016.126
577.3006, 2013.919
577.7827, 2011.280
578.2648, 2017.779
578.7469, 2037.783
579.2291, 2058.959
579.7112, 2070.678
580.1933, 2071.783
580.6754, 2083.112
581.1575, 2107.485
581.6396, 2137.855
582.1218, 2162.159
582.6039, 2183.035
583.0860, 2213.091
583.5681, 2260.039
584.0502, 2315.400
584.5323, 2369.058
585.0145, 2421.823
585.4966, 2477.301
585.9787, 2541.926
586.4608, 2607.640
586.9429, 2667.166
587.4250, 2716.192
587.9072, 2771.667
588.3893, 2842.976
588.8714, 2920.380
589.3535, 2994.663
589.8356, 3076.793
590.3177, 3138.511
590.7999, 3172.688
591.2820, 3185.694
591.7641, 3197.579
592.2462, 3209.713
592.7283, 3215.643
593.2104, 3209.565
593.6926, 3193.664
594.1747, 3183.199
594.6568, 3178.159
595.1389, 3178.455
595.6210, 3183.945
596.1031, 3194.613
596.5853, 3210.930
597.0674, 3234.040
597.5495, 3260.311
598.0316, 3281.759
598.5137, 3304.781
598.9958, 3340.692
599.4780, 3408.896
599.9601, 3476.399
600.4422, 3525.262
600.9243, 3556.352
601.4064, 3605.026
601.8885, 3696.928
602.3707, 3783.448
602.8528, 3840.753
603.3349, 3861.564
603.8170, 3873.946
604.2991, 3876.332
604.7813, 3872.734
605.2634, 3870.118
605.7455, 3868.281
606.2276, 3854.641
606.7097, 3819.722
607.1918, 3779.169
607.6740, 3760.462
608.1561, 3760.451
608.6382, 3763.427
609.1203, 3756.471
609.6024, 3750.805
610.0845, 3756.880
610.5667, 3775.565
611.0488, 3801.819
611.5309, 3836.308
612.0130, 3876.043
612.4951, 3918.457
612.9772, 3959.196
613.4594, 4008.500
613.9415, 4063.016
614.4236, 4128.082
614.9057, 4213.493
615.3878, 4326.604
615.8699, 4443.680
616.3521, 4560.871
616.8342, 4677.089
617.3163, 4776.622
617.7984, 4857.990
618.2805, 4949.557
618.7626, 5090.201
619.2448, 5252.167
619.7269, 5369.561
620.2090, 5434.414
620.6911, 5484.707
621.1732, 5558.716
621.6553, 5634.404
