##NAMES=Bobdownsite
##RRUFFID=R100214
##IDEAL CHEMISTRY=Ca_9_Mg(PO_4_)_6_(PO_3_F)
##LOCALITY=Tip Top mine, Custer County, South Dakota, USA
##OWNER=RRUFF
##SOURCE=Tom Loomis, Dakota Matrix Minerals
##DESCRIPTION=Crust of pale yellow crystals on quartz
##STATUS=The identification of this mineral is confirmed by single-crystal X-ray diffraction and chemical analysis.
##URL=rruff.info/R100214
##MEASURED CHEMISTRY=(Ca_8.78_Na_0.13_Sr_0.03_)_Σ=8.94_(Mg_0.96_Fe_0.003_Mn_0.003_)_Σ=0.97_(P_1.00_O_4_)_6_(P_0.91_O_3_(F_0.80_(OH)_0.20_)_Σ=1.00_)
99.76568, 285.4920
100.2478, 283.3322
100.7299, 280.5163
101.2120, 276.7160
101.6941, 270.0642
102.1763, 264.4154
102.6584, 260.5222
103.1405, 257.5615
103.6226, 254.4390
104.1047, 250.5160
104.5868, 245.8773
105.0690, 241.2302
105.5511, 236.3653
106.0332, 231.6483
106.5153, 227.0404
106.9974, 222.5964
107.4795, 218.7170
107.9617, 215.9579
108.4438, 214.0326
108.9259, 211.8882
109.4080, 209.2903
109.8901, 206.4257
110.3722, 203.4378
110.8544, 200.1783
111.3365, 197.2318
111.8186, 194.8653
112.3007, 193.0289
112.7828, 191.7184
113.2649, 191.0844
113.7471, 191.0787
114.2292, 191.0996
114.7113, 190.8701
115.1934, 190.9627
115.6755, 191.7749
116.1576, 193.1741
116.6397, 194.6803
117.1219, 195.7725
117.6040, 196.2609
118.0861, 196.9099
118.5682, 197.4813
119.0503, 198.3357
119.5324, 199.8737
120.0146, 202.0996
120.4967, 204.5481
120.9788, 206.4236
121.4609, 207.1636
121.9430, 208.1071
122.4251, 209.1490
122.9073, 210.4275
123.3894, 212.1571
123.8715, 214.4633
124.3536, 217.1279
124.8357, 219.5979
125.3178, 221.8684
125.8000, 224.0499
126.2821, 225.6281
126.7642, 226.9678
127.2463, 229.4779
127.7284, 234.2151
128.2105, 240.3567
128.6927, 246.1804
129.1748, 251.4786
129.6569, 256.7289
130.1390, 262.4658
130.6211, 268.7773
131.1032, 275.0384
131.5854, 281.0315
132.0675, 286.8477
132.5496, 292.6387
133.0317, 298.6673
133.5138, 304.4348
133.9959, 308.8862
134.4781, 312.1631
134.9602, 313.5996
135.4423, 313.0664
135.9244, 310.9129
136.4065, 307.3929
136.8886, 302.4585
137.3708, 296.2539
137.8529, 291.2381
138.3350, 288.3629
138.8171, 285.7846
139.2992, 282.8451
139.7813, 279.8233
140.2635, 277.4218
140.7456, 276.2771
141.2277, 276.5244
141.7098, 277.0324
142.1919, 277.5577
142.6740, 278.4668
143.1561, 280.2731
143.6383, 282.8796
144.1204, 285.4481
144.6025, 287.1891
145.0846, 287.9774
145.5667, 288.0725
146.0488, 287.8067
146.5310, 286.7000
147.0131, 284.1609
147.4952, 280.0132
147.9773, 274.7827
148.4594, 268.3544
148.9415, 260.9754
149.4237, 254.0964
149.9058, 248.3083
150.3879, 243.4250
150.8700, 239.1496
151.3521, 235.8381
151.8342, 232.5037
152.3164, 228.1085
152.7985, 222.8095
153.2806, 217.6486
153.7627, 213.3653
154.2448, 209.9553
154.7269, 207.0763
155.2091, 205.1329
155.6912, 203.4353
156.1733, 201.7566
156.6554, 200.0293
157.1375, 198.1855
157.6196, 196.0199
158.1018, 193.2226
158.5839, 191.0459
159.0660, 189.6300
159.5481, 188.6992
160.0302, 188.2977
160.5123, 188.3621
160.9945, 188.5598
161.4766, 188.3409
161.9587, 187.8370
162.4408, 186.5761
162.9229, 184.1146
163.4050, 181.1810
163.8871, 178.4826
164.3693, 176.2734
164.8514, 174.2839
165.3335, 171.8367
165.8156, 168.2723
166.2977, 165.1884
166.7798, 162.8661
167.2620, 161.0936
167.7441, 159.6121
168.2262, 158.3459
168.7083, 157.2250
169.1904, 156.0769
169.6725, 154.9316
170.1547, 153.7247
170.6368, 152.2906
171.1189, 150.7392
171.6010, 149.4695
172.0831, 148.7439
172.5652, 148.3687
173.0474, 147.7957
173.5295, 146.7595
174.0116, 146.0266
174.4937, 146.6958
174.9758, 148.7645
175.4579, 149.8659
175.9401, 148.1056
176.4222, 145.2180
176.9043, 143.0220
177.3864, 141.8801
177.8685, 141.3850
178.3506, 141.0843
178.8328, 141.0131
179.3149, 141.0168
179.7970, 141.3432
180.2791, 141.5847
180.7612, 141.3175
181.2433, 140.3466
181.7255, 138.9521
182.2076, 137.6290
182.6897, 136.0190
183.1718, 135.2340
183.6539, 135.9767
184.1360, 137.3046
184.6181, 138.1983
185.1003, 138.1402
185.5824, 137.4792
186.0645, 137.4572
186.5466, 138.6085
187.0287, 139.8171
187.5108, 141.0015
187.9930, 142.1333
188.4751, 143.2146
188.9572, 144.2475
189.4393, 145.2049
189.9214, 145.9083
190.4035, 145.9164
190.8857, 146.1599
191.3678, 146.9139
191.8499, 148.0125
192.3320, 149.2428
192.8141, 150.5370
193.2962, 151.8088
193.7784, 152.3355
194.2605, 151.8080
194.7426, 151.0736
195.2247, 150.3446
195.7068, 149.6265
196.1889, 148.9065
196.6711, 148.1956
197.1532, 147.4633
197.6353, 146.5925
198.1174, 145.2803
198.5995, 144.1109
199.0816, 143.5577
199.5638, 143.5231
200.0459, 143.3513
200.5280, 142.5933
201.0101, 141.4175
201.4922, 140.4146
201.9743, 139.7063
202.4565, 139.0678
202.9386, 138.3313
203.4207, 137.4951
203.9028, 136.5678
204.3849, 135.2629
204.8670, 133.9865
205.3492, 133.3795
205.8313, 133.7827
206.3134, 134.6054
206.7955, 135.2489
207.2776, 135.7656
207.7597, 135.8519
208.2419, 134.9603
208.7240, 133.7146
209.2061, 132.6171
209.6882, 131.7296
210.1703, 131.2548
210.6524, 131.7499
211.1346, 133.7517
211.6167, 135.3170
212.0988, 135.5284
212.5809, 135.1842
213.0630, 135.0681
213.5451, 135.5252
214.0273, 136.2255
214.5094, 136.3721
214.9915, 135.5370
215.4736, 134.9108
215.9557, 134.9392
216.4378, 135.1652
216.9200, 135.1570
217.4021, 134.7249
217.8842, 133.9454
218.3663, 132.9785
218.8484, 131.2418
219.3305, 130.2227
219.8127, 130.4375
220.2948, 131.2452
220.7769, 132.1009
221.2590, 132.7576
221.7411, 133.1221
222.2232, 132.8996
222.7054, 130.9868
223.1875, 129.8135
223.6696, 129.8990
224.1517, 130.6548
224.6338, 131.4437
225.1159, 131.9849
225.5980, 132.3553
226.0802, 132.7772
226.5623, 133.4835
227.0444, 133.9568
227.5265, 133.9698
228.0086, 133.7817
228.4907, 133.7105
228.9729, 133.8887
229.4550, 134.2561
229.9371, 134.6675
230.4192, 135.1424
230.9013, 135.6273
231.3834, 136.0698
231.8656, 136.5263
232.3477, 137.1021
232.8298, 137.8506
233.3119, 138.6817
233.7940, 139.4376
234.2761, 140.2362
234.7583, 140.7252
235.2404, 140.3275
235.7225, 139.6328
236.2046, 139.7936
236.6867, 141.3490
237.1688, 143.4978
237.6510, 144.8946
238.1331, 145.5485
238.6152, 145.8701
239.0973, 145.8258
239.5794, 145.5530
240.0615, 145.3657
240.5437, 145.3871
241.0258, 145.4292
241.5079, 145.2319
241.9900, 144.8070
242.4721, 144.3284
242.9542, 143.5337
243.4364, 142.7323
243.9185, 142.8623
244.4006, 144.4636
244.8827, 146.3813
245.3648, 147.3370
245.8469, 147.4650
246.3290, 147.7141
246.8112, 148.8274
247.2933, 150.4420
247.7754, 151.3796
248.2575, 151.1452
248.7396, 150.7913
249.2217, 151.1245
249.7039, 152.0119
250.1860, 153.0422
250.6681, 153.8076
251.1502, 154.5040
251.6323, 156.0005
252.1144, 158.8614
252.5966, 161.6514
253.0787, 163.4066
253.5608, 164.4564
254.0429, 165.5580
254.5250, 167.1638
255.0071, 169.1478
255.4893, 171.0450
255.9714, 172.8253
256.4535, 174.5486
256.9356, 176.4098
257.4177, 178.2241
257.8998, 179.6573
258.3820, 180.3711
258.8641, 180.6355
259.3462, 181.4686
259.8283, 183.3684
260.3104, 185.0159
260.7925, 185.9371
261.2747, 186.4179
261.7568, 186.8637
262.2389, 187.5210
262.7210, 188.1917
263.2031, 188.2813
263.6852, 187.5344
264.1674, 186.5879
264.6495, 185.3175
265.1316, 184.0733
265.6137, 183.2746
266.0958, 183.1153
266.5779, 183.3621
267.0601, 183.4694
267.5422, 183.3413
268.0243, 183.2417
268.5064, 183.0819
268.9885, 183.0261
269.4706, 183.3241
269.9528, 184.0470
270.4349, 184.8806
270.9170, 185.1640
271.3991, 184.4105
271.8812, 184.0666
272.3633, 183.8714
272.8455, 184.2601
273.3276, 185.8683
273.8097, 188.7244
274.2918, 191.9626
274.7739, 194.1680
275.2560, 194.4569
275.7382, 195.6119
276.2202, 197.7741
276.7024, 200.4940
277.1845, 203.7713
277.6666, 207.4606
278.1487, 211.0685
278.6308, 213.9569
279.1129, 215.8297
279.5951, 217.9750
280.0772, 221.1015
280.5593, 223.8619
281.0414, 225.6283
281.5235, 226.3516
282.0056, 226.2843
282.4878, 225.6800
282.9699, 224.5748
283.4520, 222.5303
283.9341, 218.9866
284.4162, 215.1951
284.8983, 211.6475
285.3805, 208.2843
285.8626, 204.7825
286.3447, 200.8575
286.8268, 196.5360
287.3089, 192.4720
287.7910, 188.9288
288.2732, 185.3499
288.7553, 181.5125
289.2374, 177.5424
289.7195, 173.7305
290.2016, 170.2543
290.6837, 167.0720
291.1659, 163.8627
291.6480, 159.9169
292.1301, 156.7912
292.6122, 155.3581
293.0943, 154.7469
293.5764, 153.7557
294.0586, 151.8242
294.5407, 149.2433
295.0228, 146.7900
295.5049, 144.1835
295.9870, 142.0786
296.4691, 141.0087
296.9513, 140.2334
297.4334, 139.0227
297.9155, 137.1386
298.3976, 134.6825
298.8797, 131.7432
299.3618, 127.4039
299.8440, 124.4352
300.3261, 123.9337
300.8082, 124.1027
301.2903, 123.4859
301.7724, 121.8215
302.2545, 119.7626
302.7367, 118.0423
303.2188, 116.7487
303.7009, 115.5415
304.1830, 114.3686
304.6651, 113.3063
305.1472, 112.5990
305.6294, 112.1320
306.1115, 111.3495
306.5936, 109.6775
307.0757, 107.0285
307.5578, 105.2044
308.0399, 104.6177
308.5221, 104.2777
309.0042, 103.9428
309.4863, 103.5205
309.9684, 102.8468
310.4505, 101.7833
310.9326, 100.4074
311.4148, 99.29948
311.8969, 98.19209
312.3790, 97.59782
312.8611, 98.09850
313.3432, 99.11398
313.8253, 99.66902
314.3075, 99.29594
314.7896, 98.36897
315.2717, 97.84338
315.7538, 98.07577
316.2359, 98.19654
316.7180, 98.26103
317.2001, 98.12805
317.6823, 97.47932
318.1644, 96.24507
318.6465, 94.94473
319.1286, 94.38749
319.6107, 95.06441
320.0928, 95.34505
320.5750, 94.75628
321.0571, 94.10801
321.5392, 94.09180
322.0213, 94.74191
322.5034, 95.57814
322.9855, 96.16602
323.4677, 96.51601
323.9498, 96.40003
324.4319, 95.51808
324.9140, 94.52570
325.3961, 93.49551
325.8782, 92.59593
326.3604, 92.30897
326.8425, 93.12479
327.3246, 94.84705
327.8067, 95.20103
328.2888, 92.45779
328.7709, 90.50658
329.2531, 90.94573
329.7352, 92.72715
330.2173, 94.14677
330.6994, 94.39869
331.1815, 93.81136
331.6636, 93.26174
332.1458, 92.68309
332.6279, 92.23610
333.1100, 91.97341
333.5921, 91.82311
334.0742, 91.78189
334.5563, 91.82959
335.0385, 91.80077
335.5206, 91.39512
336.0027, 90.17859
336.4848, 89.76840
336.9669, 90.74516
337.4490, 91.97476
337.9312, 92.89798
338.4133, 93.38944
338.8954, 93.37502
339.3775, 92.67018
339.8596, 91.14207
340.3417, 90.60401
340.8239, 91.90849
341.3060, 93.17356
341.7881, 93.68047
342.2702, 93.64116
342.7523, 93.60600
343.2344, 93.92949
343.7166, 94.48709
344.1987, 94.66776
344.6808, 94.06667
345.1629, 93.52098
345.6450, 93.02149
346.1271, 92.65047
346.6093, 92.53520
347.0914, 92.71378
347.5735, 93.04905
348.0556, 93.29829
348.5377, 93.54444
349.0198, 93.52821
349.5020, 92.89719
349.9841, 92.30173
350.4662, 92.29612
350.9483, 92.86781
351.4304, 93.51282
351.9125, 93.63120
352.3947, 93.07741
352.8768, 92.97442
353.3589, 93.91973
353.8410, 94.71829
354.3231, 94.81700
354.8052, 94.44015
355.2874, 94.15124
355.7695, 94.37366
356.2516, 94.95415
356.7337, 94.97350
357.2158, 93.58712
357.6979, 92.80401
358.1800, 93.50307
358.6621, 94.72849
359.1443, 95.36364
359.6264, 94.98555
360.1085, 94.15645
360.5906, 93.89250
361.0727, 94.38902
361.5548, 94.95937
362.0370, 95.67809
362.5191, 96.33521
363.0012, 96.74643
363.4833, 96.92825
363.9654, 97.07957
364.4475, 97.38750
364.9297, 97.85641
365.4118, 98.41690
365.8939, 99.25326
366.3760, 99.97224
366.8581, 100.3871
367.3402, 100.5709
367.8224, 100.6683
368.3045, 100.7216
368.7866, 100.7790
369.2687, 100.9870
369.7508, 101.3705
370.2329, 101.8587
370.7151, 102.2187
371.1972, 102.7577
371.6793, 103.9979
372.1614, 106.1758
372.6435, 108.3510
373.1256, 109.0892
373.6078, 108.2474
374.0899, 108.0257
374.5720, 109.1777
375.0541, 110.8794
375.5362, 112.6582
376.0183, 114.4652
376.5005, 116.1123
376.9826, 117.1708
377.4647, 117.9308
377.9468, 119.6300
378.4289, 122.7846
378.9110, 125.8936
379.3932, 127.5322
379.8753, 128.4360
380.3574, 130.0478
380.8395, 133.1296
381.3216, 136.8307
381.8037, 140.0382
382.2859, 142.7427
382.7680, 145.6996
383.2501, 149.1993
383.7322, 153.2081
384.2143, 157.5950
384.6964, 162.3463
385.1786, 167.4400
385.6607, 173.1008
386.1428, 179.0588
386.6249, 184.5882
387.1070, 189.4207
387.5891, 194.0135
388.0713, 198.8030
388.5534, 203.7711
389.0355, 209.1438
389.5176, 215.2648
389.9997, 221.6284
390.4818, 227.6677
390.9640, 233.3979
391.4461, 239.1644
391.9282, 245.0227
392.4103, 251.1711
392.8924, 258.4270
393.3745, 267.6554
393.8567, 276.9467
394.3388, 285.5004
394.8209, 293.5870
395.3030, 301.2162
395.7851, 308.2959
396.2672, 316.0172
396.7494, 326.7743
397.2315, 341.9467
397.7136, 356.9361
398.1957, 370.2774
398.6778, 384.3462
399.1599, 401.5705
399.6420, 421.9063
400.1241, 443.2432
400.6063, 463.6829
401.0884, 483.2575
401.5705, 503.5071
402.0526, 525.4783
402.5347, 546.8998
403.0168, 567.6033
403.4990, 587.2274
403.9811, 605.7194
404.4632, 623.0433
404.9453, 637.9668
405.4274, 647.3737
405.9095, 649.9891
406.3917, 648.4874
406.8738, 642.9913
407.3559, 633.9680
407.8380, 620.8299
408.3201, 604.0726
408.8022, 585.6887
409.2844, 567.2323
409.7665, 548.7410
410.2486, 530.7214
410.7307, 513.0461
411.2128, 496.0878
411.6949, 479.4681
412.1771, 463.7372
412.6592, 449.8477
413.1413, 438.4285
413.6234, 428.5562
414.1055, 418.0317
414.5876, 406.0490
415.0698, 395.7501
415.5519, 389.2174
416.0340, 383.7825
416.5161, 377.6208
416.9982, 370.5176
417.4803, 363.7455
417.9625, 358.8292
418.4446, 355.4002
418.9267, 350.5879
419.4088, 343.5185
419.8909, 336.3284
420.3730, 330.3529
420.8552, 325.2828
421.3373, 320.6240
421.8194, 316.1833
422.3015, 312.1101
422.7836, 308.5949
423.2657, 305.6436
423.7479, 303.0562
424.2300, 300.3861
424.7121, 298.4530
425.1942, 298.4982
425.6763, 300.8157
426.1584, 303.4728
426.6406, 305.9652
427.1227, 308.1755
427.6048, 309.7976
428.0869, 310.7662
428.5690, 311.5253
429.0511, 312.5350
429.5333, 313.7691
430.0154, 314.4957
430.4975, 314.8915
430.9796, 314.6093
431.4617, 313.3578
431.9438, 311.2697
432.4260, 308.5983
432.9081, 305.4311
433.3902, 301.9294
433.8723, 298.4852
434.3544, 295.3112
434.8365, 291.8337
435.3187, 288.1445
435.8008, 284.0674
436.2829, 279.3308
436.7650, 273.9954
437.2471, 268.5000
437.7292, 263.2766
438.2114, 258.3182
438.6935, 253.1277
439.1756, 247.2722
439.6577, 241.6531
440.1398, 236.2238
440.6219, 231.2488
441.1040, 227.2171
441.5862, 224.3448
442.0683, 222.1238
442.5504, 219.6146
443.0325, 216.5574
443.5146, 213.9975
443.9967, 212.5259
444.4789, 211.1612
444.9610, 209.1835
445.4431, 206.8013
445.9252, 204.8774
446.4073, 204.2649
446.8894, 204.5840
447.3716, 204.3114
447.8537, 203.1751
448.3358, 202.1238
448.8179, 201.4700
449.3000, 201.1605
449.7821, 201.2464
450.2643, 201.8067
450.7464, 202.4308
451.2285, 202.7467
451.7106, 202.8112
452.1927, 202.9295
452.6748, 203.2254
453.1570, 203.4529
453.6391, 203.2717
454.1212, 202.7717
454.6033, 202.3428
455.0854, 202.4422
455.5675, 202.3815
456.0497, 201.3043
456.5318, 199.3793
457.0139, 197.6780
457.4960, 196.8071
457.9781, 196.4327
458.4602, 195.6418
458.9424, 194.3370
459.4245, 192.9144
459.9066, 191.5879
460.3887, 190.0987
460.8708, 187.9589
461.3529, 185.2075
461.8351, 182.6148
462.3172, 180.9333
462.7993, 180.2079
463.2814, 179.2981
463.7635, 178.6211
464.2456, 177.3014
464.7278, 174.6568
465.2099, 171.3726
465.6920, 168.2587
466.1741, 165.6328
466.6562, 163.5672
467.1383, 162.3496
467.6205, 162.4468
468.1026, 161.8995
468.5847, 160.2193
469.0668, 158.2544
469.5489, 156.2844
470.0310, 154.3369
470.5132, 152.3925
470.9953, 150.4140
471.4774, 148.4512
471.9595, 146.6487
472.4416, 145.0480
472.9237, 143.4659
473.4059, 141.9021
473.8880, 140.2950
474.3701, 138.4014
474.8522, 136.1763
475.3343, 134.4503
475.8164, 134.0809
476.2986, 134.5911
476.7807, 134.8090
477.2628, 134.5807
477.7449, 134.1641
478.2270, 133.4532
478.7091, 132.7062
479.1913, 132.9063
479.6734, 135.1636
480.1555, 137.1958
480.6376, 137.4468
481.1197, 136.6597
481.6018, 136.4587
482.0839, 137.3940
482.5660, 138.7834
483.0482, 139.8011
483.5303, 140.5937
484.0124, 140.1976
484.4945, 137.5954
484.9766, 134.8402
485.4587, 133.0409
485.9409, 131.9849
486.4230, 131.0710
486.9051, 129.9989
487.3872, 128.5763
487.8693, 126.1715
488.3514, 121.9149
488.8336, 118.2705
489.3157, 115.7737
489.7978, 113.5691
490.2799, 111.0487
490.7620, 108.2396
491.2441, 105.6073
491.7263, 103.5274
492.2084, 101.9411
492.6905, 100.6472
493.1726, 99.86352
493.6547, 98.85540
494.1368, 96.94907
494.6190, 94.85608
495.1011, 93.34813
495.5832, 92.61084
496.0653, 92.05136
496.5474, 91.29394
497.0295, 90.36848
497.5117, 89.32543
497.9938, 88.12769
498.4759, 86.99550
498.9580, 86.14935
499.4401, 85.53098
499.9222, 84.81561
500.4044, 83.87249
500.8865, 82.94093
501.3686, 81.93532
501.8507, 81.05173
502.3328, 80.83528
502.8149, 81.49913
503.2971, 82.35161
503.7792, 82.38591
504.2613, 81.30257
504.7434, 80.43829
505.2255, 80.03129
505.7076, 79.58525
506.1898, 78.57581
506.6719, 77.37560
507.1540, 76.84872
507.6361, 77.47826
508.1182, 78.69946
508.6003, 79.19653
509.0825, 78.75516
509.5646, 78.16213
510.0467, 77.20499
510.5288, 76.36179
511.0109, 75.84881
511.4930, 75.67911
511.9752, 75.83996
512.4573, 76.60088
512.9394, 77.51144
513.4215, 77.32137
513.9036, 75.79932
514.3857, 74.65063
514.8679, 74.73624
515.3500, 75.38133
515.8321, 75.67313
516.3142, 75.54839
516.7963, 75.49262
517.2784, 75.96220
517.7606, 76.50880
518.2427, 76.30899
518.7248, 75.34513
519.2069, 74.61095
519.6890, 74.80918
520.1711, 75.75773
520.6533, 76.55127
521.1354, 77.16641
521.6175, 77.69237
522.0996, 78.17851
522.5817, 78.56033
523.0638, 78.61697
523.5460, 78.40359
524.0281, 78.41676
524.5102, 79.23985
524.9923, 80.82821
525.4744, 81.58912
525.9565, 80.32161
526.4387, 79.80069
526.9208, 81.20825
527.4029, 83.27383
527.8850, 84.58927
528.3671, 84.82246
528.8492, 84.84123
529.3314, 85.49450
529.8135, 86.73943
530.2956, 88.25648
530.7777, 90.23533
531.2598, 92.04674
531.7419, 93.01908
532.2241, 93.62118
532.7062, 94.66785
533.1883, 96.51570
533.6704, 98.39453
534.1525, 99.56485
534.6346, 100.3967
535.1168, 101.8543
535.5989, 104.1894
536.0810, 106.7930
536.5631, 109.0419
537.0452, 110.9224
537.5273, 112.9795
538.0095, 115.2080
538.4916, 117.6065
538.9737, 120.4706
539.4558, 123.4165
539.9379, 125.8073
540.4200, 127.4614
540.9022, 128.8647
541.3843, 130.6308
541.8664, 132.7540
542.3485, 135.3061
542.8306, 139.8397
543.3127, 143.0442
543.7948, 142.8334
544.2769, 140.9270
544.7590, 139.8468
545.2411, 140.5034
545.7233, 142.2456
546.2054, 144.3592
546.6875, 146.8564
547.1696, 149.8218
547.6517, 153.3443
548.1339, 157.1778
548.6160, 161.2530
549.0981, 165.4787
549.5802, 169.6779
550.0623, 174.1500
550.5444, 178.2055
551.0266, 181.4786
551.5087, 184.0047
551.9908, 185.9372
552.4729, 187.3314
552.9550, 187.9566
553.4371, 187.5147
553.9193, 185.9311
554.4014, 183.5873
554.8835, 179.8076
555.3656, 176.1347
555.8477, 172.9655
556.3298, 170.2908
556.8120, 168.2324
557.2941, 166.7884
557.7762, 165.4736
558.2583, 163.4913
558.7404, 160.7337
559.2225, 158.2929
559.7047, 156.2476
560.1868, 154.5061
560.6689, 153.5482
561.1510, 152.7029
561.6331, 150.7030
562.1152, 146.8877
562.5974, 142.6457
563.0795, 139.1398
563.5616, 136.2590
564.0437, 133.5979
564.5258, 131.0524
565.0079, 128.7825
565.4901, 126.9745
565.9722, 125.6307
566.4543, 124.3433
566.9364, 123.4999
567.4185, 122.2756
567.9006, 120.0682
568.3828, 117.4015
568.8649, 114.9387
569.3470, 112.8877
569.8291, 111.1423
570.3112, 109.6869
570.7933, 108.5583
571.2755, 106.9476
571.7576, 104.3789
572.2397, 101.9024
572.7218, 99.70231
573.2039, 97.74606
573.6860, 95.96947
574.1682, 94.35100
574.6503, 92.97493
575.1324, 91.95589
575.6145, 91.25134
576.0966, 90.69547
576.5787, 90.30151
577.0609, 89.97710
577.5430, 89.79963
578.0251, 89.60772
578.5072, 88.97715
578.9893, 87.53688
579.4714, 86.47700
579.9536, 86.48830
580.4357, 87.00528
580.9178, 87.33745
581.3999, 87.41185
581.8820, 87.52927
582.3641, 87.91850
582.8463, 88.54644
583.3284, 89.23598
583.8105, 90.35115
584.2926, 90.97951
584.7747, 90.55625
585.2568, 90.02650
585.7390, 90.13491
586.2211, 90.87422
586.7032, 91.76950
587.1853, 92.54498
587.6674, 93.18982
588.1495, 93.49776
588.6317, 93.32005
589.1138, 93.84010
589.5959, 96.24117
590.0780, 98.73347
590.5601, 98.97641
591.0422, 97.01662
591.5244, 95.37210
592.0065, 94.83149
592.4886, 94.91335
592.9707, 95.40139
