##NAMES=Bobdownsite
##RRUFFID=R070654
##IDEAL CHEMISTRY=Ca_9_Mg(PO_4_)_6_(PO_3_F)
##LOCALITY=Tip Top mine, Custer County, South Dakota, USA
##OWNER=RRUFF
##SOURCE=Rock Currier
##DESCRIPTION=A druse of colorless rhombohedra
##STATUS=The identification of this mineral is confirmed by single-crystal X-ray diffraction and chemical analysis.
##URL=rruff.info/R070654
##MEASURED CHEMISTRY=(Ca_8.96_Na_0.04_)_Σ=9_(Mg_0.96_Al_0.04_)_Σ=1_(P_1.00_O_3_(F_0.84_(OH)_0.16_)_Σ=1_)(P_1.00_O_4_)_6_; OH estimated by difference and charge balance
118.2109, 5756.368
118.6931, 5784.530
119.1752, 5728.616
119.6573, 5692.711
120.1394, 5691.575
120.6215, 5717.327
121.1036, 5760.342
121.5858, 5816.736
122.0679, 5886.188
122.5500, 5930.596
123.0321, 5932.053
123.5142, 5931.423
123.9963, 5948.813
124.4785, 5983.044
124.9606, 6017.948
125.4427, 6035.846
125.9248, 6032.305
126.4069, 6048.451
126.8890, 6095.162
127.3712, 6157.445
127.8533, 6220.117
128.3354, 6280.947
128.8175, 6341.787
129.2996, 6408.628
129.7817, 6481.332
130.2639, 6547.054
130.7460, 6594.830
131.2281, 6630.020
131.7102, 6673.743
132.1923, 6732.518
132.6744, 6801.791
133.1566, 6881.057
133.6387, 6973.116
134.1208, 7055.635
134.6029, 7108.413
135.0850, 7129.722
135.5671, 7131.792
136.0493, 7084.239
136.5314, 7035.699
137.0135, 7028.500
137.4956, 7080.508
137.9777, 7162.085
138.4598, 7209.304
138.9420, 7202.197
139.4241, 7191.662
139.9062, 7186.712
140.3883, 7185.824
140.8704, 7184.680
141.3525, 7178.909
141.8347, 7171.463
142.3168, 7190.763
142.7989, 7256.282
143.2810, 7331.474
143.7631, 7418.274
144.2452, 7509.422
144.7274, 7592.176
145.2095, 7656.095
145.6916, 7697.976
146.1737, 7738.007
146.6558, 7780.795
147.1379, 7818.558
147.6201, 7846.444
148.1022, 7864.127
148.5843, 7875.974
149.0664, 7887.287
149.5485, 7899.976
150.0307, 7902.849
150.5128, 7883.418
150.9949, 7859.145
151.4770, 7851.207
151.9591, 7866.584
152.4412, 7890.760
152.9234, 7901.091
153.4055, 7898.569
153.8876, 7889.442
154.3697, 7867.197
154.8518, 7838.909
155.3339, 7826.743
155.8161, 7847.630
156.2982, 7876.014
156.7803, 7870.550
157.2624, 7820.925
157.7445, 7775.133
158.2266, 7777.866
158.7088, 7828.995
159.1909, 7866.415
159.6730, 7856.733
160.1551, 7826.193
160.6372, 7800.477
161.1193, 7787.959
161.6015, 7773.581
162.0836, 7733.162
162.5657, 7657.275
163.0478, 7581.807
163.5299, 7532.046
164.0120, 7484.570
164.4942, 7413.592
164.9763, 7304.027
165.4584, 7167.894
165.9405, 7043.646
166.4226, 6929.391
166.9047, 6832.914
167.3869, 6762.365
167.8690, 6708.427
168.3511, 6657.616
168.8332, 6599.517
169.3153, 6535.363
169.7974, 6489.241
170.2796, 6479.174
170.7617, 6471.372
171.2438, 6459.215
171.7259, 6442.429
172.2080, 6422.522
172.6901, 6399.705
173.1723, 6371.862
173.6544, 6355.870
174.1365, 6361.408
174.6186, 6367.916
175.1007, 6373.670
175.5828, 6374.155
176.0650, 6355.977
176.5471, 6301.597
177.0292, 6193.664
177.5113, 6102.102
177.9934, 6053.355
178.4755, 6004.178
178.9577, 5909.773
179.4398, 5762.201
179.9219, 5601.591
180.4040, 5487.086
180.8861, 5430.896
181.3682, 5380.367
181.8504, 5328.860
182.3325, 5280.034
182.8146, 5238.929
183.2967, 5207.393
183.7788, 5182.848
184.2609, 5163.962
184.7431, 5152.939
185.2252, 5136.828
185.7073, 5103.990
186.1894, 5061.930
186.6715, 5030.200
187.1536, 5015.504
187.6358, 5014.958
188.1179, 5023.731
188.6000, 5044.724
189.0821, 5064.176
189.5642, 5075.587
190.0463, 5078.828
190.5285, 5071.199
191.0106, 5043.682
191.4927, 5009.699
191.9748, 4984.890
192.4569, 4972.653
192.9390, 4964.756
193.4212, 4954.257
193.9033, 4941.154
194.3854, 4925.114
194.8675, 4907.816
195.3496, 4886.309
195.8317, 4854.189
196.3139, 4805.829
196.7960, 4756.629
197.2781, 4735.514
197.7602, 4757.495
198.2423, 4765.946
198.7244, 4733.905
199.2066, 4684.502
199.6887, 4638.728
200.1708, 4604.783
200.6529, 4579.724
201.1350, 4555.357
201.6171, 4526.514
202.0993, 4508.134
202.5814, 4510.455
203.0635, 4521.580
203.5456, 4526.381
204.0277, 4515.419
204.5098, 4493.361
204.9920, 4482.700
205.4741, 4496.573
205.9562, 4506.725
206.4383, 4509.277
206.9204, 4504.091
207.4025, 4489.688
207.8847, 4463.124
208.3668, 4426.573
208.8489, 4406.700
209.3310, 4416.477
209.8131, 4431.219
210.2952, 4457.806
210.7774, 4485.479
211.2595, 4493.080
211.7416, 4461.217
212.2237, 4388.626
212.7058, 4347.659
213.1879, 4353.643
213.6701, 4372.346
214.1522, 4403.662
214.6343, 4439.973
215.1164, 4466.034
215.5985, 4467.592
216.0806, 4441.691
216.5628, 4424.446
217.0449, 4417.020
217.5270, 4415.111
218.0091, 4421.575
218.4912, 4433.544
218.9733, 4440.583
219.4555, 4431.323
219.9376, 4401.796
220.4197, 4389.373
220.9018, 4411.519
221.3839, 4435.116
221.8660, 4437.760
222.3482, 4418.905
222.8303, 4394.231
223.3124, 4376.285
223.7945, 4365.720
224.2766, 4368.237
224.7587, 4379.087
225.2409, 4405.558
225.7230, 4468.150
226.2051, 4566.836
226.6872, 4656.026
227.1693, 4689.503
227.6514, 4661.073
228.1336, 4618.375
228.6157, 4543.367
229.0978, 4466.490
229.5799, 4419.570
230.0620, 4408.060
230.5441, 4411.312
231.0263, 4410.825
231.5084, 4406.703
231.9905, 4403.035
232.4726, 4395.879
232.9547, 4391.368
233.4368, 4403.645
233.9190, 4438.691
234.4011, 4467.874
234.8832, 4445.349
235.3653, 4380.198
235.8474, 4341.479
236.3295, 4368.002
236.8117, 4425.841
237.2938, 4463.760
237.7759, 4473.517
238.2580, 4467.789
238.7401, 4452.091
239.2222, 4428.870
239.7044, 4409.826
240.1865, 4390.483
240.6686, 4379.275
241.1507, 4401.213
241.6328, 4474.191
242.1149, 4544.296
242.5971, 4556.873
243.0792, 4523.561
243.5613, 4486.367
244.0434, 4455.243
244.5255, 4432.750
245.0076, 4426.507
245.4898, 4441.578
245.9719, 4465.250
246.4540, 4492.294
246.9361, 4520.645
247.4182, 4540.673
247.9003, 4536.450
248.3825, 4519.287
248.8646, 4526.922
249.3467, 4575.079
249.8288, 4626.749
250.3109, 4655.485
250.7930, 4665.868
251.2752, 4671.982
251.7573, 4681.812
252.2394, 4693.526
252.7215, 4698.588
253.2036, 4688.404
253.6857, 4684.702
254.1679, 4703.769
254.6500, 4739.908
255.1321, 4776.958
255.6142, 4805.803
256.0963, 4827.817
256.5785, 4850.645
257.0606, 4879.250
257.5427, 4900.759
258.0248, 4906.712
258.5069, 4900.907
258.9890, 4893.287
259.4712, 4888.979
259.9533, 4887.637
260.4354, 4888.102
260.9175, 4893.557
261.3996, 4895.975
261.8817, 4894.761
262.3639, 4888.256
262.8460, 4871.991
263.3281, 4831.885
263.8102, 4777.053
264.2923, 4758.103
264.7744, 4800.518
265.2566, 4843.547
265.7387, 4857.643
266.2208, 4851.849
266.7029, 4845.259
267.1850, 4851.956
267.6671, 4867.207
268.1493, 4866.474
268.6314, 4831.843
269.1135, 4808.281
269.5956, 4804.079
270.0777, 4822.590
270.5598, 4873.265
271.0420, 4978.128
271.5241, 5116.505
272.0062, 5198.851
272.4883, 5207.778
272.9704, 5182.523
273.4525, 5119.660
273.9347, 5041.283
274.4168, 4980.872
274.8989, 4957.561
275.3810, 4964.345
275.8631, 4977.707
276.3452, 4996.330
276.8274, 5024.924
277.3095, 5076.426
277.7916, 5134.132
278.2737, 5174.075
278.7558, 5181.608
279.2379, 5167.584
279.7201, 5163.405
280.2022, 5179.263
280.6843, 5185.726
281.1664, 5174.765
281.6485, 5151.081
282.1306, 5118.646
282.6128, 5078.247
283.0949, 5032.431
283.5770, 4988.495
284.0591, 4950.815
284.5412, 4904.938
285.0233, 4841.404
285.5055, 4771.188
285.9876, 4705.181
286.4697, 4648.272
286.9518, 4595.411
287.4339, 4537.296
287.9160, 4470.569
288.3982, 4405.836
288.8803, 4347.295
289.3624, 4291.015
289.8445, 4233.135
290.3266, 4172.350
290.8087, 4111.146
291.2909, 4050.458
291.7730, 3984.461
292.2551, 3938.332
292.7372, 3936.124
293.2193, 3943.369
293.7014, 3938.911
294.1836, 3917.277
294.6657, 3880.984
295.1478, 3825.300
295.6299, 3740.608
296.1120, 3679.895
296.5941, 3673.837
297.0763, 3680.948
297.5584, 3680.821
298.0405, 3669.456
298.5226, 3650.185
299.0047, 3624.260
299.4868, 3590.511
299.9690, 3558.939
300.4511, 3532.453
300.9332, 3507.143
301.4153, 3480.092
301.8974, 3451.617
302.3795, 3424.412
302.8617, 3401.752
303.3438, 3383.744
303.8259, 3365.264
304.3080, 3347.671
304.7901, 3327.386
305.2722, 3295.423
305.7544, 3256.628
306.2365, 3229.581
306.7186, 3241.658
307.2007, 3286.990
307.6828, 3296.567
308.1649, 3245.842
308.6471, 3187.375
309.1292, 3145.025
309.6113, 3116.892
310.0934, 3097.204
310.5755, 3086.889
311.0576, 3082.650
311.5398, 3069.354
312.0219, 3038.455
312.5040, 3013.902
312.9861, 3012.491
313.4682, 3024.137
313.9503, 3031.631
314.4325, 3027.322
314.9146, 3013.759
315.3967, 2993.900
315.8788, 2963.160
316.3609, 2938.741
316.8430, 2930.015
317.3252, 2931.656
317.8073, 2939.992
318.2894, 2958.913
318.7715, 2976.756
319.2536, 2972.015
319.7357, 2939.638
320.2179, 2913.686
320.7000, 2915.475
321.1821, 2928.417
321.6642, 2937.494
322.1463, 2941.401
322.6284, 2936.850
323.1106, 2912.693
323.5927, 2868.536
324.0748, 2840.867
324.5569, 2853.222
325.0390, 2879.349
325.5211, 2891.295
326.0033, 2886.660
326.4854, 2871.665
326.9675, 2838.621
327.4496, 2793.883
327.9317, 2776.108
328.4138, 2805.039
328.8960, 2852.026
329.3781, 2890.827
329.8602, 2922.348
330.3423, 2933.188
330.8244, 2896.094
331.3065, 2834.034
331.7887, 2810.041
332.2708, 2846.485
332.7529, 2893.036
333.2350, 2892.798
333.7171, 2853.938
334.1992, 2819.114
334.6814, 2803.316
335.1635, 2797.870
335.6456, 2790.759
336.1277, 2780.542
336.6098, 2771.593
337.0919, 2769.820
337.5741, 2773.307
338.0562, 2770.754
338.5383, 2745.654
339.0204, 2724.635
339.5025, 2738.682
339.9846, 2785.604
340.4668, 2827.386
340.9489, 2838.280
341.4310, 2823.674
341.9131, 2816.237
342.3952, 2824.704
342.8773, 2831.568
343.3595, 2826.460
343.8416, 2812.327
344.3237, 2797.135
344.8058, 2783.336
345.2879, 2772.559
345.7701, 2770.893
346.2522, 2783.069
346.7343, 2794.608
347.2164, 2802.366
347.6985, 2807.093
348.1806, 2809.628
348.6628, 2810.134
349.1449, 2809.526
349.6270, 2809.314
350.1091, 2809.116
350.5912, 2810.185
351.0733, 2811.723
351.5555, 2815.035
352.0376, 2823.889
352.5197, 2838.057
353.0018, 2850.042
353.4839, 2850.372
353.9660, 2834.880
354.4482, 2822.875
354.9303, 2809.739
355.4124, 2803.363
355.8945, 2812.791
356.3766, 2834.676
356.8587, 2857.219
357.3409, 2871.769
357.8230, 2878.424
358.3051, 2871.239
358.7872, 2825.798
359.2693, 2793.249
359.7514, 2799.323
360.2336, 2827.230
360.7157, 2845.499
361.1978, 2834.970
361.6799, 2804.605
362.1620, 2791.910
362.6441, 2810.806
363.1263, 2829.576
363.6084, 2846.288
364.0905, 2860.002
364.5726, 2868.875
365.0547, 2872.418
365.5368, 2874.029
366.0190, 2881.103
366.5011, 2899.265
366.9832, 2908.211
367.4653, 2893.492
367.9474, 2878.991
368.4295, 2879.824
368.9117, 2897.698
369.3938, 2923.868
369.8759, 2951.826
370.3580, 2982.109
370.8401, 3007.580
371.3222, 3027.130
371.8044, 3042.451
372.2865, 3050.490
372.7686, 3054.491
373.2507, 3062.928
373.7328, 3080.085
374.2149, 3105.940
374.6971, 3144.073
375.1792, 3206.051
375.6613, 3255.665
376.1434, 3260.247
376.6255, 3245.052
377.1076, 3247.641
377.5898, 3286.112
378.0719, 3339.713
378.5540, 3381.000
379.0361, 3408.926
379.5182, 3438.648
380.0003, 3474.019
380.4825, 3516.011
380.9646, 3565.459
381.4467, 3623.495
381.9288, 3685.391
382.4109, 3748.102
382.8930, 3811.876
383.3752, 3876.735
383.8573, 3941.431
384.3394, 4008.994
384.8215, 4085.289
385.3036, 4170.421
385.7857, 4254.402
386.2679, 4323.223
386.7500, 4394.691
387.2321, 4494.217
387.7142, 4625.366
388.1963, 4764.951
388.6784, 4889.658
389.1606, 4999.102
389.6427, 5129.782
390.1248, 5286.036
390.6069, 5459.543
391.0890, 5651.995
391.5711, 5858.856
392.0533, 6066.526
392.5354, 6265.738
393.0175, 6460.843
393.4996, 6673.604
393.9817, 6904.104
394.4638, 7151.123
394.9460, 7427.257
395.4281, 7715.143
395.9102, 7983.815
396.3923, 8225.014
396.8744, 8461.673
397.3565, 8738.739
397.8387, 9087.838
398.3208, 9411.107
398.8029, 9660.301
399.2850, 9922.020
399.7671, 10264.92
400.2492, 10683.36
400.7314, 11115.68
401.2135, 11502.35
401.6956, 11839.17
402.1777, 12208.95
402.6598, 12649.09
403.1419, 13083.40
403.6241, 13520.34
404.1062, 13932.72
404.5883, 14283.85
405.0704, 14556.05
405.5525, 14747.42
406.0346, 14846.45
406.5168, 14840.28
406.9989, 14772.55
407.4810, 14652.29
407.9631, 14480.02
408.4452, 14243.90
408.9273, 13938.71
409.4095, 13598.15
409.8916, 13245.87
410.3737, 12883.95
410.8558, 12534.30
411.3379, 12212.70
411.8200, 11891.85
412.3022, 11536.48
412.7843, 11151.53
413.2664, 10796.87
413.7485, 10496.67
414.2306, 10241.58
414.7127, 10022.95
415.1949, 9842.617
415.6770, 9673.188
416.1591, 9496.605
416.6412, 9313.803
417.1233, 9134.325
417.6054, 8953.361
418.0876, 8780.764
418.5697, 8618.355
419.0518, 8467.847
419.5339, 8334.687
420.0160, 8221.796
420.4981, 8126.279
420.9803, 8040.775
421.4624, 7964.019
421.9445, 7899.138
422.4266, 7855.108
422.9087, 7818.447
423.3908, 7768.844
423.8730, 7705.280
424.3551, 7652.463
424.8372, 7639.499
425.3193, 7674.794
425.8014, 7708.825
426.2835, 7736.386
426.7657, 7767.863
427.2478, 7814.506
427.7299, 7868.242
428.2120, 7912.183
428.6941, 7935.030
429.1762, 7941.654
429.6584, 7953.514
430.1405, 7989.654
430.6226, 7996.716
431.1047, 7956.566
431.5868, 7892.447
432.0689, 7823.676
432.5511, 7755.022
433.0332, 7685.053
433.5153, 7610.170
433.9974, 7530.188
434.4795, 7453.902
434.9616, 7392.452
435.4438, 7322.883
435.9259, 7226.511
436.4080, 7108.489
436.8901, 6992.070
437.3722, 6889.782
437.8543, 6796.434
438.3365, 6698.417
438.8186, 6593.244
439.3007, 6501.889
439.7828, 6444.137
440.2649, 6407.931
440.7470, 6361.117
441.2292, 6294.004
441.7113, 6227.607
442.1934, 6170.921
442.6755, 6123.977
443.1576, 6089.222
443.6397, 6068.265
444.1219, 6054.731
444.6040, 6037.192
445.0861, 6009.491
445.5682, 5997.700
446.0503, 6019.099
446.5324, 6045.398
447.0146, 6050.779
447.4967, 6037.159
447.9788, 6027.174
448.4609, 6040.610
448.9430, 6075.945
449.4251, 6096.742
449.9073, 6078.192
450.3894, 6073.238
450.8715, 6099.917
451.3536, 6142.741
451.8357, 6182.594
452.3178, 6211.969
452.8000, 6235.663
453.2821, 6262.257
453.7642, 6294.011
454.2463, 6321.003
454.7284, 6342.441
455.2105, 6358.210
455.6927, 6367.340
456.1748, 6370.203
456.6569, 6368.355
457.1390, 6366.264
457.6212, 6360.469
458.1033, 6336.852
458.5854, 6290.741
459.0675, 6240.914
459.5496, 6197.518
460.0317, 6156.741
460.5139, 6113.104
460.9960, 6067.773
461.4781, 6015.817
461.9602, 5948.669
462.4423, 5870.835
462.9244, 5799.033
463.4066, 5738.160
463.8887, 5685.079
464.3708, 5638.033
464.8529, 5600.631
465.3350, 5551.326
465.8171, 5477.443
466.2993, 5398.213
466.7814, 5328.689
467.2635, 5269.176
467.7456, 5209.789
468.2277, 5142.846
468.7098, 5069.854
469.1920, 5007.708
469.6741, 4966.357
470.1562, 4923.911
470.6383, 4873.019
471.1204, 4821.199
471.6025, 4776.367
472.0847, 4741.143
472.5668, 4713.352
473.0489, 4692.147
473.5310, 4680.039
474.0131, 4662.645
474.4952, 4629.186
474.9774, 4600.241
475.4595, 4587.010
475.9416, 4586.104
476.4237, 4587.022
476.9058, 4582.625
477.3879, 4577.366
477.8701, 4582.706
478.3522, 4601.016
478.8343, 4614.092
479.3164, 4604.231
479.7985, 4591.040
480.2806, 4604.533
480.7628, 4652.867
481.2449, 4703.276
481.7270, 4745.936
482.2091, 4778.094
482.6912, 4794.731
483.1733, 4794.857
483.6555, 4780.075
484.1376, 4749.105
484.6197, 4700.230
485.1018, 4657.016
485.5839, 4634.452
486.0660, 4601.893
486.5482, 4541.749
487.0303, 4461.471
487.5124, 4376.262
487.9945, 4293.557
488.4766, 4209.287
488.9587, 4112.965
489.4409, 3982.812
489.9230, 3883.122
490.4051, 3838.189
490.8872, 3801.096
491.3693, 3743.597
491.8514, 3664.874
492.3336, 3579.039
492.8157, 3492.981
493.2978, 3408.913
493.7799, 3338.058
494.2620, 3286.746
494.7441, 3234.791
495.2263, 3169.381
495.7084, 3099.880
496.1905, 3036.005
496.6726, 2979.312
497.1547, 2930.193
497.6368, 2891.727
498.1190, 2861.377
498.6011, 2831.085
499.0832, 2798.900
499.5653, 2766.521
500.0474, 2735.811
500.5295, 2706.981
501.0117, 2676.636
501.4938, 2636.889
501.9759, 2602.372
502.4580, 2587.311
502.9401, 2585.127
503.4222, 2576.184
503.9044, 2549.691
504.3865, 2514.773
504.8686, 2496.524
505.3507, 2515.212
505.8328, 2517.445
506.3149, 2488.648
506.7971, 2455.234
507.2792, 2436.491
507.7613, 2432.152
508.2434, 2428.875
508.7255, 2414.715
509.2076, 2392.158
509.6898, 2375.229
510.1719, 2364.453
510.6540, 2358.454
511.1361, 2357.584
511.6182, 2360.656
512.1003, 2368.946
512.5825, 2384.980
513.0646, 2395.765
513.5467, 2387.801
514.0288, 2366.306
514.5109, 2346.934
514.9930, 2332.686
515.4752, 2321.028
515.9573, 2309.861
516.4394, 2299.260
516.9215, 2289.763
517.4036, 2271.621
517.8857, 2264.118
518.3679, 2288.215
518.8500, 2329.698
519.3321, 2357.588
519.8142, 2358.288
520.2963, 2344.236
520.7784, 2340.750
521.2606, 2358.382
521.7427, 2364.219
522.2248, 2355.255
522.7069, 2339.023
523.1890, 2309.544
523.6711, 2275.357
524.1533, 2259.271
524.6354, 2281.793
525.1175, 2326.972
525.5996, 2348.327
526.0817, 2339.298
526.5638, 2331.203
527.0460, 2331.268
527.5281, 2339.706
528.0102, 2360.421
528.4923, 2395.411
528.9744, 2424.102
529.4565, 2426.798
529.9387, 2419.573
530.4208, 2429.211
530.9029, 2458.658
531.3850, 2497.099
531.8671, 2539.397
532.3492, 2583.981
532.8314, 2620.184
533.3135, 2637.220
533.7956, 2660.409
534.2777, 2696.515
534.7598, 2741.337
535.2419, 2791.099
535.7241, 2844.171
536.2062, 2900.245
536.6883, 2958.632
537.1704, 3019.619
537.6525, 3082.507
538.1346, 3151.433
538.6168, 3217.607
539.0989, 3263.249
539.5810, 3308.343
540.0631, 3385.945
540.5452, 3512.884
541.0273, 3656.737
541.5095, 3783.891
541.9916, 3894.761
542.4737, 3991.003
542.9558, 4066.764
543.4379, 4139.317
543.9200, 4237.030
544.4022, 4354.986
544.8843, 4436.342
545.3664, 4448.535
545.8485, 4442.885
546.3306, 4454.198
546.8127, 4475.616
547.2949, 4483.931
547.7770, 4468.172
548.2591, 4440.607
548.7412, 4424.519
549.2233, 4418.361
549.7054, 4428.490
550.1876, 4472.589
550.6697, 4514.162
551.1518, 4529.880
551.6339, 4526.404
552.1160, 4525.542
552.5981, 4540.232
553.0803, 4565.968
553.5624, 4594.825
554.0445, 4628.517
554.5266, 4654.540
555.0087, 4653.614
555.4908, 4657.844
555.9730, 4706.651
556.4551, 4800.836
556.9372, 4884.659
557.4193, 4930.754
557.9014, 4958.442
558.3835, 4990.771
558.8657, 5027.197
559.3478, 5054.601
559.8299, 5066.572
560.3120, 5062.463
560.7941, 5039.986
561.2762, 4997.223
561.7584, 4936.796
562.2405, 4851.107
562.7226, 4753.197
563.2047, 4651.370
563.6868, 4546.666
564.1689, 4437.856
564.6511, 4323.291
565.1332, 4204.020
565.6153, 4083.540
566.0974, 3959.445
566.5795, 3840.777
567.0616, 3728.049
567.5438, 3624.564
568.0259, 3537.150
568.5080, 3467.284
568.9901, 3395.360
569.4722, 3303.206
569.9543, 3205.116
570.4365, 3124.682
570.9186, 3063.602
571.4007, 3012.040
571.8828, 2965.435
572.3649, 2922.537
572.8470, 2878.360
573.3292, 2831.271
573.8113, 2785.304
574.2934, 2729.471
574.7755, 2681.987
575.2576, 2666.509
575.7397, 2679.853
576.2219, 2692.648
576.7040, 2677.737
577.1861, 2640.663
577.6682, 2618.186
578.1503, 2615.633
578.6324, 2616.106
579.1146, 2615.226
579.5967, 2614.145
580.0788, 2613.567
580.5609, 2613.516
581.0430, 2615.190
581.5251, 2616.813
582.0073, 2621.505
582.4894, 2636.113
582.9715, 2660.908
583.4536, 2687.927
583.9357, 2711.692
584.4178, 2733.656
584.9000, 2760.322
585.3821, 2798.029
585.8642, 2831.737
586.3463, 2853.907
586.8284, 2875.630
587.3105, 2909.114
587.7927, 2953.307
588.2748, 2997.097
588.7569, 3033.798
589.2390, 3061.531
589.7211, 3067.470
590.2032, 3041.606
590.6854, 3020.379
591.1675, 3020.956
591.6496, 3028.441
592.1317, 3028.627
592.6138, 3020.002
593.0959, 3013.734
593.5781, 3015.489
594.0602, 3022.775
594.5423, 3024.944
595.0244, 3024.553
595.5065, 3053.487
595.9886, 3138.901
596.4708, 3254.250
596.9529, 3317.811
597.4350, 3264.469
597.9171, 3248.831
598.3992, 3295.626
598.8813, 3360.604
599.3635, 3416.196
599.8456, 3460.703
600.3277, 3504.724
600.8098, 3555.429
601.2919, 3609.880
601.7740, 3664.491
602.2562, 3722.851
602.7383, 3759.015
603.2204, 3752.683
603.7025, 3732.971
604.1846, 3734.379
604.6667, 3756.216
605.1489, 3767.464
605.6310, 3753.446
606.1131, 3728.663
606.5952, 3702.782
607.0773, 3677.053
607.5594, 3655.184
608.0416, 3639.676
608.5237, 3622.161
609.0058, 3583.075
609.4879, 3499.153
609.9700, 3451.102
610.4521, 3454.190
610.9343, 3474.530
611.4164, 3504.206
