##NAMES=Bobdownsite
##RRUFFID=R110026
##IDEAL CHEMISTRY=Ca_9_Mg(PO_4_)_6_(PO_3_F)
##LOCALITY=Tip Top mine, Custer County, South Dakota, USA
##OWNER=RRUFF
##SOURCE=Tom Loomis, Dakota Matrix Minerals
##DESCRIPTION=Crust of pale purple crystals on quartz
##STATUS=The identification of this mineral is confirmed by single-crystal X-ray diffraction and chemical analysis.
##URL=rruff.info/R110026
##MEASURED CHEMISTRY=(Ca_8.67_Na_0.23_)_Σ=8.90_(Mg_0.93_Mn_0.06_)_Σ=0.99_(P_0.93_O_3_(F_0.79_(OH)_0.21_)_Σ=1.00_)(P_1.00_O_4_)_6_
191.3678, 1166.487
191.8499, 1167.555
192.3320, 1167.928
192.8141, 1167.968
193.2962, 1167.744
193.7784, 1167.810
194.2605, 1168.832
194.7426, 1169.379
195.2247, 1168.910
195.7068, 1167.554
196.1889, 1165.760
196.6711, 1163.863
197.1532, 1161.659
197.6353, 1158.429
198.1174, 1153.122
198.5995, 1147.835
199.0816, 1143.871
199.5638, 1141.044
200.0459, 1138.124
200.5280, 1134.097
201.0101, 1129.545
201.4922, 1126.186
201.9743, 1124.746
202.4565, 1123.826
202.9386, 1122.017
203.4207, 1119.277
203.9028, 1117.187
204.3849, 1117.363
204.8670, 1118.491
205.3492, 1118.656
205.8313, 1117.213
206.3134, 1115.087
206.7955, 1113.654
207.2776, 1113.256
207.7597, 1111.959
208.2419, 1107.161
208.7240, 1101.638
209.2061, 1098.309
209.6882, 1098.469
210.1703, 1100.442
210.6524, 1101.318
211.1346, 1100.586
211.6167, 1100.047
212.0988, 1100.560
212.5809, 1101.393
213.0630, 1101.910
213.5451, 1101.877
214.0273, 1101.317
214.5094, 1100.157
214.9915, 1097.746
215.4736, 1095.937
215.9557, 1095.365
216.4378, 1095.340
216.9200, 1095.343
217.4021, 1095.170
217.8842, 1094.619
218.3663, 1092.988
218.8484, 1088.624
219.3305, 1085.630
219.8127, 1085.021
220.2948, 1085.666
220.7769, 1086.566
221.2590, 1087.270
221.7411, 1087.665
222.2232, 1087.412
222.7054, 1085.831
223.1875, 1084.355
223.6696, 1082.781
224.1517, 1081.450
224.6338, 1080.718
225.1159, 1080.738
225.5980, 1081.462
226.0802, 1082.778
226.5623, 1086.396
227.0444, 1088.542
227.5265, 1088.119
228.0086, 1086.300
228.4907, 1084.352
228.9729, 1082.766
229.4550, 1081.701
229.9371, 1081.698
230.4192, 1083.654
230.9013, 1085.204
231.3834, 1085.500
231.8656, 1085.283
232.3477, 1085.709
232.8298, 1087.270
233.3119, 1089.456
233.7940, 1091.121
234.2761, 1091.911
234.7583, 1093.130
235.2404, 1095.127
235.7225, 1097.754
236.2046, 1101.057
236.6867, 1105.370
237.1688, 1109.583
237.6510, 1111.655
238.1331, 1111.578
238.6152, 1110.713
239.0973, 1108.815
239.5794, 1106.481
240.0615, 1105.034
240.5437, 1104.928
241.0258, 1105.609
241.5079, 1106.678
241.9900, 1108.187
242.4721, 1108.952
242.9542, 1107.684
243.4364, 1105.283
243.9185, 1104.077
244.4006, 1104.677
244.8827, 1106.336
245.3648, 1108.344
245.8469, 1110.678
246.3290, 1113.317
246.8112, 1116.336
247.2933, 1119.649
247.7754, 1123.183
248.2575, 1127.270
248.7396, 1130.943
249.2217, 1132.987
249.7039, 1133.904
250.1860, 1135.416
250.6681, 1138.705
251.1502, 1143.363
251.6323, 1148.075
252.1144, 1153.130
252.5966, 1157.567
253.0787, 1160.333
253.5608, 1162.111
254.0429, 1164.500
254.5250, 1168.738
255.0071, 1174.295
255.4893, 1179.089
255.9714, 1182.575
256.4535, 1186.132
256.9356, 1190.273
257.4177, 1194.891
257.8998, 1199.971
258.3820, 1205.876
258.8641, 1212.043
259.3462, 1216.362
259.8283, 1217.902
260.3104, 1218.993
260.7925, 1220.465
261.2747, 1222.035
261.7568, 1223.280
262.2389, 1223.940
262.7210, 1224.249
263.2031, 1224.878
263.6852, 1225.822
264.1674, 1227.153
264.6495, 1228.749
265.1316, 1230.714
265.6137, 1233.299
266.0958, 1236.651
266.5779, 1240.323
267.0601, 1243.139
267.5422, 1244.242
268.0243, 1246.044
268.5064, 1249.385
268.9885, 1253.206
269.4706, 1256.615
269.9528, 1259.295
270.4349, 1261.434
270.9170, 1263.342
271.3991, 1264.788
271.8812, 1266.442
272.3633, 1267.406
272.8455, 1269.122
273.3276, 1272.879
273.8097, 1278.904
274.2918, 1286.234
274.7739, 1293.430
275.2560, 1300.229
275.7382, 1307.499
276.2202, 1315.792
276.7024, 1324.051
277.1845, 1331.579
277.6666, 1338.333
278.1487, 1344.855
278.6308, 1352.142
279.1129, 1361.433
279.5951, 1366.872
280.0772, 1366.883
280.5593, 1365.189
281.0414, 1364.375
281.5235, 1364.013
282.0056, 1361.490
282.4878, 1354.085
282.9699, 1341.043
283.4520, 1328.047
283.9341, 1315.305
284.4162, 1302.364
284.8983, 1289.189
285.3805, 1275.682
285.8626, 1261.535
286.3447, 1246.343
286.8268, 1230.205
287.3089, 1215.413
287.7910, 1202.978
288.2732, 1190.722
288.7553, 1177.624
289.2374, 1164.335
289.7195, 1152.321
290.2016, 1142.503
290.6837, 1134.564
291.1659, 1126.524
291.6480, 1118.249
292.1301, 1110.074
292.6122, 1101.883
293.0943, 1093.861
293.5764, 1086.295
294.0586, 1079.285
294.5407, 1072.722
295.0228, 1066.282
295.5049, 1059.815
295.9870, 1053.672
296.4691, 1047.798
296.9513, 1042.287
297.4334, 1037.543
297.9155, 1033.669
298.3976, 1029.811
298.8797, 1024.527
299.3618, 1016.922
299.8440, 1009.383
300.3261, 1000.971
300.8082, 993.2523
301.2903, 987.7226
301.7724, 984.5686
302.2545, 982.4865
302.7367, 980.0604
303.2188, 977.3792
303.7009, 973.7469
304.1830, 967.9219
304.6651, 962.2151
305.1472, 958.2074
305.6294, 955.8200
306.1115, 953.9100
306.5936, 951.5471
307.0757, 948.6942
307.5578, 945.8044
308.0399, 943.1183
308.5221, 940.1710
309.0042, 936.4113
309.4863, 932.1854
309.9684, 928.4335
310.4505, 925.7939
310.9326, 924.1214
311.4148, 922.5079
311.8969, 920.9429
312.3790, 919.4354
312.8611, 917.9402
313.3432, 916.5188
313.8253, 915.2905
314.3075, 914.3283
314.7896, 913.5168
315.2717, 912.5546
315.7538, 911.5628
316.2359, 910.2426
316.7180, 908.1620
317.2001, 905.9218
317.6823, 904.0717
318.1644, 902.7789
318.6465, 902.1277
319.1286, 902.3658
319.6107, 904.3551
320.0928, 905.0439
320.5750, 903.1713
321.0571, 900.8983
321.5392, 899.9011
322.0213, 900.3346
322.5034, 901.3322
322.9855, 902.1696
323.4677, 902.9450
323.9498, 902.4689
324.4319, 899.3825
324.9140, 896.4912
325.3961, 895.2264
325.8782, 895.3909
326.3604, 896.1232
326.8425, 896.9334
327.3246, 897.7606
327.8067, 897.8593
328.2888, 897.2294
328.7709, 896.0170
329.2531, 893.5765
329.7352, 890.7060
330.2173, 888.7277
330.6994, 888.2951
331.1815, 888.9194
331.6636, 889.2781
332.1458, 889.6335
332.6279, 889.3552
333.1100, 887.6289
333.5921, 885.6553
334.0742, 884.5051
334.5563, 884.5129
335.0385, 885.5065
335.5206, 887.3313
336.0027, 890.5607
336.4848, 893.1480
336.9669, 895.4855
337.4490, 896.9826
337.9312, 896.8291
338.4133, 895.2691
338.8954, 893.5314
339.3775, 892.7761
339.8596, 893.0992
340.3417, 893.1663
340.8239, 893.0139
341.3060, 892.6085
341.7881, 891.5156
342.2702, 890.1709
342.7523, 889.4053
343.2344, 889.7382
343.7166, 891.0324
344.1987, 892.6296
344.6808, 895.9989
345.1629, 897.9194
345.6450, 896.7989
346.1271, 894.5963
346.6093, 893.4588
347.0914, 894.1805
347.5735, 896.0761
348.0556, 897.9957
348.5377, 900.8751
349.0198, 901.9540
349.5020, 900.1002
349.9841, 897.5731
350.4662, 895.6636
350.9483, 894.6506
351.4304, 894.3067
351.9125, 894.4547
352.3947, 895.1609
352.8768, 895.9275
353.3589, 896.8900
353.8410, 897.7747
354.3231, 898.4890
354.8052, 899.0443
355.2874, 899.5193
355.7695, 899.9938
356.2516, 900.3947
356.7337, 900.2408
357.2158, 898.2620
357.6979, 897.5260
358.1800, 900.0332
358.6621, 903.3663
359.1443, 904.4849
359.6264, 902.2438
360.1085, 898.7399
360.5906, 897.9333
361.0727, 901.1080
361.5548, 903.6693
362.0370, 905.1757
362.5191, 905.9630
363.0012, 905.7026
363.4833, 904.6451
363.9654, 903.9706
364.4475, 904.9866
364.9297, 907.7897
365.4118, 910.6484
365.8939, 913.5500
366.3760, 916.5215
366.8581, 919.9755
367.3402, 923.4750
367.8224, 926.0468
368.3045, 926.7233
368.7866, 926.3854
369.2687, 927.7664
369.7508, 931.5501
370.2329, 935.5872
370.7151, 939.6274
371.1972, 943.3308
371.6793, 946.0221
372.1614, 947.3137
372.6435, 948.8821
373.1256, 953.1615
373.6078, 960.3656
374.0899, 967.0500
374.5720, 971.8116
375.0541, 976.4684
375.5362, 982.3333
376.0183, 989.4036
376.5005, 996.8998
376.9826, 1004.666
377.4647, 1012.514
377.9468, 1019.512
378.4289, 1024.837
378.9110, 1031.018
379.3932, 1039.984
379.8753, 1050.934
380.3574, 1062.573
380.8395, 1074.373
381.3216, 1086.821
381.8037, 1100.274
382.2859, 1114.745
382.7680, 1130.656
383.2501, 1148.470
383.7322, 1167.800
384.2143, 1187.938
384.6964, 1208.814
385.1786, 1230.347
385.6607, 1251.826
386.1428, 1273.729
386.6249, 1297.606
387.1070, 1323.884
387.5891, 1351.752
388.0713, 1380.821
388.5534, 1410.954
389.0355, 1441.574
389.5176, 1471.783
389.9997, 1502.928
390.4818, 1536.619
390.9640, 1572.965
391.4461, 1610.055
391.9282, 1646.303
392.4103, 1682.366
392.8924, 1721.404
393.3745, 1762.984
393.8567, 1807.712
394.3388, 1855.370
394.8209, 1906.350
395.3030, 1960.638
395.7851, 2018.705
396.2672, 2080.483
396.7494, 2146.600
397.2315, 2216.520
397.7136, 2292.319
398.1957, 2376.511
398.6778, 2465.667
399.1599, 2558.166
399.6420, 2653.329
400.1241, 2750.217
400.6063, 2848.356
401.0884, 2948.283
401.5705, 3043.419
402.0526, 3136.471
402.5347, 3222.763
403.0168, 3303.762
403.4990, 3376.600
403.9811, 3437.961
404.4632, 3486.214
404.9453, 3518.952
405.4274, 3529.861
405.9095, 3515.953
406.3917, 3482.281
406.8738, 3424.074
407.3559, 3352.551
407.8380, 3272.770
408.3201, 3186.957
408.8022, 3097.307
409.2844, 3004.005
409.7665, 2906.969
410.2486, 2813.282
410.7307, 2721.247
411.2128, 2635.184
411.6949, 2556.173
412.1771, 2483.992
412.6592, 2418.043
413.1413, 2358.159
413.6234, 2303.902
414.1055, 2254.823
414.5876, 2211.486
415.0698, 2170.996
415.5519, 2133.735
416.0340, 2098.583
416.5161, 2065.158
416.9982, 2033.188
417.4803, 2002.777
417.9625, 1973.064
418.4446, 1944.544
418.9267, 1919.989
419.4088, 1900.711
419.8909, 1883.742
420.3730, 1868.337
420.8552, 1853.718
421.3373, 1838.233
421.8194, 1819.680
422.3015, 1801.735
422.7836, 1789.019
423.2657, 1781.521
423.7479, 1775.976
424.2300, 1770.380
424.7121, 1766.979
425.1942, 1769.141
425.6763, 1777.651
426.1584, 1787.299
426.6406, 1796.602
427.1227, 1805.414
427.6048, 1813.603
428.0869, 1821.254
428.5690, 1827.667
429.0511, 1831.821
429.5333, 1833.694
430.0154, 1836.283
430.4975, 1842.344
430.9796, 1846.540
431.4617, 1846.429
431.9438, 1842.075
432.4260, 1833.618
432.9081, 1820.988
433.3902, 1804.987
433.8723, 1787.381
434.3544, 1766.762
434.8365, 1746.858
435.3187, 1729.425
435.8008, 1711.642
436.2829, 1690.723
436.7650, 1666.731
437.2471, 1642.194
437.7292, 1619.484
438.2114, 1598.555
438.6935, 1577.863
439.1756, 1555.625
439.6577, 1535.604
440.1398, 1519.520
440.6219, 1505.964
441.1040, 1493.388
441.5862, 1481.184
442.0683, 1469.225
442.5504, 1457.018
443.0325, 1443.532
443.5146, 1432.919
443.9967, 1427.289
444.4789, 1423.203
444.9610, 1419.075
445.4431, 1414.959
445.9252, 1411.661
446.4073, 1409.915
446.8894, 1409.456
447.3716, 1409.293
447.8537, 1409.425
448.3358, 1409.842
448.8179, 1410.393
449.3000, 1411.278
449.7821, 1412.732
450.2643, 1414.788
450.7464, 1417.460
451.2285, 1421.167
451.7106, 1425.637
452.1927, 1429.220
452.6748, 1431.128
453.1570, 1432.992
453.6391, 1438.179
454.1212, 1445.533
454.6033, 1448.487
455.0854, 1442.405
455.5675, 1433.585
456.0497, 1427.675
456.5318, 1424.355
457.0139, 1420.415
457.4960, 1413.897
457.9781, 1406.129
458.4602, 1401.091
458.9424, 1401.238
459.4245, 1398.597
459.9066, 1390.727
460.3887, 1380.004
460.8708, 1368.066
461.3529, 1355.516
461.8351, 1343.548
462.3172, 1333.337
462.7993, 1325.017
463.2814, 1316.021
463.7635, 1306.724
464.2456, 1296.382
464.7278, 1283.499
465.2099, 1269.790
465.6920, 1257.548
466.1741, 1247.602
466.6562, 1239.287
467.1383, 1231.760
467.6205, 1225.517
468.1026, 1218.294
468.5847, 1208.824
469.0668, 1199.420
469.5489, 1191.267
470.0310, 1184.086
470.5132, 1176.962
470.9953, 1169.170
471.4774, 1161.210
471.9595, 1154.679
472.4416, 1150.195
472.9237, 1144.870
473.4059, 1136.027
473.8880, 1126.942
474.3701, 1120.771
474.8522, 1117.958
475.3343, 1116.105
475.8164, 1113.572
476.2986, 1110.890
476.7807, 1109.224
477.2628, 1108.653
477.7449, 1109.382
478.2270, 1111.737
478.7091, 1115.639
479.1913, 1120.403
479.6734, 1127.743
480.1555, 1133.981
480.6376, 1136.337
481.1197, 1136.298
481.6018, 1137.209
482.0839, 1140.217
482.5660, 1143.695
483.0482, 1145.706
483.5303, 1146.667
484.0124, 1143.693
484.4945, 1134.902
484.9766, 1124.230
485.4587, 1113.304
485.9409, 1102.188
486.4230, 1090.571
486.9051, 1078.239
487.3872, 1065.209
487.8693, 1051.676
488.3514, 1037.579
488.8336, 1022.825
489.3157, 1006.895
489.7978, 990.8518
490.2799, 975.0137
490.7620, 959.6837
491.2441, 945.6645
491.7263, 933.9416
492.2084, 924.0944
492.6905, 914.1270
493.1726, 904.0564
493.6547, 893.8906
494.1368, 882.6832
494.6190, 871.9264
495.1011, 863.6017
495.5832, 858.3316
496.0653, 853.3333
496.5474, 846.4291
497.0295, 838.1691
497.5117, 829.9625
497.9938, 821.7416
498.4759, 814.7107
498.9580, 810.3593
499.4401, 808.1816
499.9222, 805.2843
500.4044, 800.6799
500.8865, 796.1481
501.3686, 792.2799
501.8507, 789.1662
502.3328, 787.4199
502.8149, 787.3353
503.2971, 787.0680
503.7792, 783.7412
504.2613, 775.8038
504.7434, 770.3645
505.2255, 768.5452
505.7076, 767.8263
506.1898, 767.8409
506.6719, 767.9402
507.1540, 767.0195
507.6361, 764.4613
508.1182, 760.9811
508.6003, 758.1837
509.0825, 756.0949
509.5646, 754.6213
510.0467, 754.3457
510.5288, 754.1782
511.0109, 753.4504
511.4930, 752.2716
511.9752, 751.1751
512.4573, 750.3080
512.9394, 749.8611
513.4215, 750.6107
513.9036, 752.8593
514.3857, 754.4285
514.8679, 754.6786
515.3500, 753.6025
515.8321, 750.7881
516.3142, 745.9053
516.7963, 742.2750
517.2784, 742.2705
517.7606, 743.9055
518.2427, 744.2657
518.7248, 743.1544
519.2069, 742.3057
519.6890, 743.0027
520.1711, 744.8514
520.6533, 745.8522
521.1354, 745.5231
521.6175, 745.1450
522.0996, 744.4310
522.5817, 744.0460
523.0638, 745.0110
523.5460, 747.2740
524.0281, 749.5323
524.5102, 750.4101
524.9923, 749.9672
525.4744, 750.5383
525.9565, 752.9767
526.4387, 755.3552
526.9208, 756.7900
527.4029, 758.2361
527.8850, 760.9465
528.3671, 765.1707
528.8492, 769.5567
529.3314, 772.5244
529.8135, 774.2451
530.2956, 776.4362
530.7777, 779.1826
531.2598, 782.4146
531.7419, 786.0295
532.2241, 790.1064
532.7062, 794.9988
533.1883, 801.0869
533.6704, 807.3339
534.1525, 813.3543
534.6346, 818.9889
535.1168, 823.5448
535.5989, 826.7293
536.0810, 830.2596
536.5631, 835.8806
537.0452, 843.7301
537.5273, 851.8186
538.0095, 860.2935
538.4916, 868.8409
538.9737, 876.6036
539.4558, 884.6484
539.9379, 894.9227
540.4200, 907.9197
540.9022, 921.9227
541.3843, 934.3917
541.8664, 944.9387
542.3485, 956.1961
542.8306, 968.8804
543.3127, 981.4609
543.7948, 994.3378
544.2769, 1006.513
544.7590, 1016.382
545.2411, 1023.295
545.7233, 1028.451
546.2054, 1033.064
546.6875, 1037.142
547.1696, 1040.443
547.6517, 1042.504
548.1339, 1044.571
548.6160, 1048.175
549.0981, 1052.668
549.5802, 1056.199
550.0623, 1057.592
550.5444, 1058.792
551.0266, 1061.475
551.5087, 1064.879
551.9908, 1067.344
552.4729, 1068.380
552.9550, 1068.201
553.4371, 1066.891
553.9193, 1064.130
554.4014, 1062.191
554.8835, 1060.448
555.3656, 1060.085
555.8477, 1062.368
556.3298, 1066.031
556.8120, 1069.168
557.2941, 1071.110
557.7762, 1074.439
558.2583, 1075.526
558.7404, 1079.828
559.2225, 1082.865
559.7047, 1085.401
560.1868, 1085.322
560.6689, 1081.553
561.1510, 1074.886
561.6331, 1066.591
562.1152, 1057.033
562.5974, 1046.011
563.0795, 1033.067
563.5616, 1018.464
564.0437, 1002.945
564.5258, 986.3906
565.0079, 969.8217
565.4901, 953.9233
565.9722, 938.8121
566.4543, 924.8973
566.9364, 912.5114
567.4185, 900.9421
567.9006, 889.6650
568.3828, 879.1567
568.8649, 870.4036
569.3470, 863.5509
569.8291, 857.0583
570.3112, 849.2423
570.7933, 839.9962
571.2755, 830.7916
571.7576, 820.7269
572.2397, 811.8666
572.7218, 805.4548
573.2039, 800.0423
573.6860, 793.7084
574.1682, 785.9920
574.6503, 778.7805
575.1324, 773.9273
575.6145, 771.0982
576.0966, 768.9188
576.5787, 767.3908
577.0609, 766.1833
577.5430, 765.2178
578.0251, 764.4203
578.5072, 763.5533
578.9893, 762.3866
579.4714, 761.6605
579.9536, 762.3765
580.4357, 763.3161
580.9178, 762.4920
581.3999, 759.9691
581.8820, 757.9495
582.3641, 758.1569
582.8463, 760.2619
583.3284, 762.3231
583.8105, 764.1177
584.2926, 766.2288
584.7747, 768.4470
585.2568, 771.1801
585.7390, 775.2208
586.2211, 780.2339
586.7032, 784.7557
587.1853, 787.6959
587.6674, 789.4377
588.1495, 791.0466
588.6317, 792.6302
589.1138, 793.3810
589.5959, 792.7205
590.0780, 791.3850
590.5601, 790.2213
591.0422, 789.2225
591.5244, 788.2531
592.0065, 786.8900
592.4886, 785.8364
592.9707, 785.9305
593.4528, 786.9294
593.9349, 787.8514
594.4171, 788.2151
594.8992, 788.6516
595.3813, 790.3124
595.8634, 793.6063
596.3455, 796.9633
596.8276, 799.1932
597.3098, 802.6982
597.7919, 809.1568
598.2740, 817.4238
598.7561, 825.5460
599.2382, 832.7344
599.7203, 841.0451
600.2025, 847.7967
600.6846, 856.9362
601.1667, 865.3674
601.6488, 873.3717
602.1309, 879.6883
602.6130, 882.5677
603.0952, 883.2280
603.5773, 883.8478
604.0594, 884.6215
604.5415, 885.5671
605.0236, 886.8356
605.5057, 888.2374
605.9879, 889.6094
606.4700, 890.8737
606.9521, 891.6208
607.4342, 891.3679
607.9163, 890.3369
608.3984, 890.2079
608.8806, 890.2382
609.3627, 892.3522
609.8448, 897.9459
610.3269, 904.6707
610.8090, 910.6412
611.2911, 915.8691
611.7733, 921.5425
612.2554, 928.3448
612.7375, 936.2717
613.2196, 945.5914
613.7017, 956.4699
614.1838, 967.5323
614.6660, 978.2792
615.1481, 989.2377
615.6302, 1000.875
616.1123, 1013.190
616.5944, 1026.850
617.0765, 1043.379
617.5587, 1059.972
618.0408, 1074.524
618.5229, 1087.704
619.0050, 1101.679
619.4871, 1117.146
619.9692, 1131.767
620.4514, 1142.316
620.9335, 1148.475
621.4156, 1153.216
621.8977, 1155.076
622.3798, 1157.211
622.8619, 1160.798
623.3441, 1164.884
623.8262, 1168.171
624.3083, 1170.369
624.7904, 1172.675
625.2725, 1175.779
625.7546, 1179.787
626.2367, 1185.786
626.7188, 1194.168
627.2009, 1200.604
627.6830, 1202.389
628.1652, 1205.821
628.6473, 1201.386
629.1294, 1204.651
629.6115, 1203.693
630.0936, 1197.543
630.5757, 1186.748
631.0579, 1171.373
631.5400, 1151.666
632.0221, 1127.625
632.5042, 1099.298
632.9863, 1067.909
633.4684, 1035.700
633.9506, 1002.502
634.4327, 968.3893
634.9148, 931.1882
635.3969, 896.1643
635.8790, 865.7913
636.3611, 839.1658
636.8433, 814.6054
637.3254, 791.6014
637.8075, 771.2529
638.2896, 755.2615
638.7717, 742.3947
639.2538, 729.9769
639.7360, 717.7353
640.2181, 707.0487
640.7002, 699.0505
641.1823, 693.2436
641.6644, 687.5316
642.1465, 681.6000
642.6287, 676.2668
643.1108, 671.6115
643.5929, 667.5091
644.0750, 663.9536
644.5571, 660.8695
645.0392, 658.1037
645.5214, 655.6159
646.0035, 653.3110
646.4856, 650.8416
646.9677, 648.2125
647.4498, 646.5674
647.9319, 646.3676
648.4141, 646.6682
648.8962, 647.0029
649.3783, 647.2317
649.8604, 646.8171
650.3425, 645.6161
650.8246, 643.8940
651.3068, 641.2711
651.7889, 638.4320
652.2710, 636.3445
652.7531, 635.0447
653.2352, 633.7658
653.7173, 631.8629
654.1995, 629.5806
654.6816, 627.8896
655.1637, 626.7341
655.6458, 626.3209
656.1279, 628.2005
656.6100, 629.5508
657.0922, 627.9965
657.5743, 624.3962
658.0564, 621.8918
658.5385, 622.3193
659.0206, 623.4147
659.5027, 623.0935
659.9849, 621.7051
660.4670, 620.1041
660.9491, 618.4753
661.4312, 617.0471
661.9133, 615.9842
662.3954, 615.2988
662.8776, 615.1599
663.3597, 616.2550
663.8418, 617.0051
664.3239, 617.2224
664.8060, 617.0740
665.2881, 616.4400
665.7703, 615.5280
666.2524, 615.0601
666.7345, 615.8060
667.2166, 616.7780
667.6987, 615.8341
668.1808, 613.0390
668.6630, 610.7238
669.1451, 609.3297
669.6272, 608.8297
670.1093, 609.5359
670.5914, 611.3310
671.0735, 612.5763
671.5557, 612.8665
672.0378, 613.0602
672.5199, 613.7857
673.0020, 614.3376
673.4841, 613.7419
673.9662, 612.0397
674.4484, 610.1276
674.9305, 608.5955
675.4126, 607.5212
675.8947, 607.3076
676.3768, 608.2211
676.8589, 608.8046
677.3411, 608.4969
677.8232, 608.0870
678.3053, 608.3976
678.7874, 609.1725
679.2695, 609.4516
679.7516, 608.8262
680.2338, 607.8986
680.7159, 606.8337
681.1980, 605.7692
681.6801, 604.7115
682.1622, 603.7659
682.6443, 603.6920
683.1265, 605.3802
683.6086, 608.1174
684.0907, 608.2449
684.5728, 604.1613
685.0549, 600.9627
