##NAMES=Bobdownsite
##RRUFFID=R070653
##IDEAL CHEMISTRY=Ca_9_Mg(PO_4_)_6_(PO_3_F)
##LOCALITY=Tip Top mine, Custer County, South Dakota, USA
##OWNER=RRUFF
##SOURCE=Rock Currier
##DESCRIPTION=Colorless rhombohedral crystals embedded in a fine-grained matrix
##STATUS=The identification of this mineral is confirmed by single-crystal X-ray diffraction and chemical analysis.
##URL=rruff.info/R070653
##MEASURED CHEMISTRY=(Ca_8.97_Na_0.03_)_Σ=9_(Mg_0.97_Al_0.03_)_Σ=1_(P_1.00_O_3_(F_0.83_(OH)_0.17_)_Σ=1_)(P_1.00_O_4_)_6_; OH estimated by difference
186.0645, 116253.7
186.5466, 116271.7
187.0287, 116273.6
187.5108, 116242.5
187.9930, 116194.9
188.4751, 116150.3
188.9572, 116120.1
189.4393, 116103.0
189.9214, 116092.5
190.4035, 116105.7
190.8857, 116107.6
191.3678, 116076.2
191.8499, 116031.0
192.3320, 116012.1
192.8141, 116049.6
193.2962, 116129.6
193.7784, 116139.3
194.2605, 116019.9
194.7426, 115910.5
195.2247, 115855.9
195.7068, 115848.7
196.1889, 115866.0
196.6711, 115901.1
197.1532, 115946.6
197.6353, 115968.2
198.1174, 115956.8
198.5995, 115931.8
199.0816, 115897.0
199.5638, 115854.1
200.0459, 115816.4
200.5280, 115790.0
201.0101, 115776.3
201.4922, 115774.4
201.9743, 115798.0
202.4565, 115820.3
202.9386, 115819.1
203.4207, 115794.4
203.9028, 115757.2
204.3849, 115694.2
204.8670, 115630.3
205.3492, 115605.9
205.8313, 115648.1
206.3134, 115707.3
206.7955, 115719.2
207.2776, 115675.3
207.7597, 115624.4
208.2419, 115584.6
208.7240, 115550.1
209.2061, 115514.7
209.6882, 115473.5
210.1703, 115435.6
210.6524, 115420.3
211.1346, 115437.9
211.6167, 115450.1
212.0988, 115443.4
212.5809, 115426.2
213.0630, 115404.5
213.5451, 115379.2
214.0273, 115354.8
214.5094, 115343.5
214.9915, 115357.3
215.4736, 115362.0
215.9557, 115357.8
216.4378, 115340.7
216.9200, 115299.0
217.4021, 115226.8
217.8842, 115143.5
218.3663, 115108.5
218.8484, 115185.0
219.3305, 115219.1
219.8127, 115167.9
220.2948, 115079.9
220.7769, 115007.7
221.2590, 114975.3
221.7411, 114966.3
222.2232, 114931.0
222.7054, 114813.4
223.1875, 114737.6
223.6696, 114739.2
224.1517, 114776.2
224.6338, 114800.9
225.1159, 114792.1
225.5980, 114760.9
226.0802, 114739.3
226.5623, 114759.3
227.0444, 114750.4
227.5265, 114673.7
228.0086, 114574.8
228.4907, 114515.2
228.9729, 114522.0
229.4550, 114572.5
229.9371, 114610.8
230.4192, 114646.1
230.9013, 114656.7
231.3834, 114622.1
231.8656, 114564.1
232.3477, 114512.8
232.8298, 114478.7
233.3119, 114459.3
233.7940, 114452.9
234.2761, 114466.2
234.7583, 114472.0
235.2404, 114460.6
235.7225, 114437.0
236.2046, 114409.4
236.6867, 114379.7
237.1688, 114347.6
237.6510, 114309.8
238.1331, 114263.6
238.6152, 114224.3
239.0973, 114207.1
239.5794, 114199.4
240.0615, 114167.6
240.5437, 114091.5
241.0258, 114012.0
241.5079, 113992.5
241.9900, 114032.4
242.4721, 114063.0
242.9542, 114051.3
243.4364, 114009.6
243.9185, 113966.8
244.4006, 113926.4
244.8827, 113891.4
245.3648, 113867.4
245.8469, 113853.3
246.3290, 113837.2
246.8112, 113816.8
247.2933, 113790.8
247.7754, 113752.2
248.2575, 113693.7
248.7396, 113633.1
249.2217, 113581.3
249.7039, 113537.5
250.1860, 113501.1
250.6681, 113475.4
251.1502, 113457.3
251.6323, 113437.4
252.1144, 113418.8
252.5966, 113390.9
253.0787, 113336.5
253.5608, 113268.7
254.0429, 113216.8
254.5250, 113209.8
255.0071, 113232.9
255.4893, 113225.2
255.9714, 113168.4
256.4535, 113109.9
256.9356, 113068.4
257.4177, 113040.3
257.8998, 113019.7
258.3820, 113004.7
258.8641, 112994.4
259.3462, 112987.9
259.8283, 112996.6
260.3104, 112988.9
260.7925, 112946.6
261.2747, 112886.7
261.7568, 112830.5
262.2389, 112788.3
262.7210, 112756.7
263.2031, 112726.6
263.6852, 112699.5
264.1674, 112671.3
264.6495, 112651.5
265.1316, 112626.9
265.6137, 112576.3
266.0958, 112488.8
266.5779, 112388.8
267.0601, 112337.6
267.5422, 112365.8
268.0243, 112391.5
268.5064, 112414.9
268.9885, 112425.0
269.4706, 112407.4
269.9528, 112357.9
270.4349, 112291.1
270.9170, 112234.7
271.3991, 112193.8
271.8812, 112154.2
272.3633, 112110.2
272.8455, 112069.8
273.3276, 112042.1
273.8097, 112028.0
274.2918, 112017.8
274.7739, 111993.6
275.2560, 111934.8
275.7382, 111907.4
276.2202, 111944.6
276.7024, 111981.3
277.1845, 111968.4
277.6666, 111903.8
278.1487, 111826.5
278.6308, 111786.2
279.1129, 111801.7
279.5951, 111787.6
280.0772, 111705.8
280.5593, 111631.5
281.0414, 111623.8
281.5235, 111669.5
282.0056, 111702.3
282.4878, 111653.9
282.9699, 111508.2
283.4520, 111395.6
283.9341, 111339.6
284.4162, 111289.0
284.8983, 111222.5
285.3805, 111144.2
285.8626, 111069.2
286.3447, 111009.2
286.8268, 110964.6
287.3089, 110927.6
287.7910, 110904.3
288.2732, 110882.3
288.7553, 110862.4
289.2374, 110841.2
289.7195, 110813.5
290.2016, 110775.5
290.6837, 110728.7
291.1659, 110679.3
291.6480, 110617.8
292.1301, 110563.9
292.6122, 110525.1
293.0943, 110494.1
293.5764, 110459.9
294.0586, 110417.1
294.5407, 110370.3
295.0228, 110331.6
295.5049, 110316.7
295.9870, 110291.0
296.4691, 110245.8
296.9513, 110193.0
297.4334, 110144.6
297.9155, 110104.6
298.3976, 110071.4
298.8797, 110042.8
299.3618, 110031.5
299.8440, 109999.2
300.3261, 109921.8
300.8082, 109839.0
301.2903, 109785.1
301.7724, 109765.1
302.2545, 109757.6
302.7367, 109736.3
303.2188, 109694.0
303.7009, 109664.4
304.1830, 109664.3
304.6651, 109660.9
305.1472, 109629.3
305.6294, 109571.7
306.1115, 109509.6
306.5936, 109462.0
307.0757, 109429.4
307.5578, 109390.9
308.0399, 109340.0
308.5221, 109290.9
309.0042, 109253.1
309.4863, 109222.7
309.9684, 109189.5
310.4505, 109148.3
310.9326, 109098.7
311.4148, 109036.4
311.8969, 108928.1
312.3790, 108848.0
312.8611, 108837.1
313.3432, 108862.3
313.8253, 108868.4
314.3075, 108829.8
314.7896, 108763.4
315.2717, 108712.1
315.7538, 108697.3
316.2359, 108667.5
316.7180, 108597.6
317.2001, 108520.5
317.6823, 108479.1
318.1644, 108484.4
318.6465, 108504.0
319.1286, 108487.3
319.6107, 108408.2
320.0928, 108354.3
320.5750, 108337.5
321.0571, 108334.9
321.5392, 108334.0
322.0213, 108330.4
322.5034, 108320.1
322.9855, 108300.2
323.4677, 108270.3
323.9498, 108219.8
324.4319, 108116.3
324.9140, 108024.1
325.3961, 107988.5
325.8782, 107994.9
326.3604, 107993.9
326.8425, 107950.6
327.3246, 107869.2
327.8067, 107792.0
328.2888, 107716.5
328.7709, 107649.4
329.2531, 107609.8
329.7352, 107578.1
330.2173, 107516.8
330.6994, 107406.7
331.1815, 107271.8
331.6636, 107175.6
332.1458, 107150.4
332.6279, 107128.0
333.1100, 107115.2
333.5921, 107100.5
334.0742, 107066.1
334.5563, 107009.1
335.0385, 106950.4
335.5206, 106922.5
336.0027, 106945.1
336.4848, 106947.0
336.9669, 106911.8
337.4490, 106870.4
337.9312, 106844.7
338.4133, 106834.1
338.8954, 106823.3
339.3775, 106798.9
339.8596, 106760.1
340.3417, 106711.7
340.8239, 106636.5
341.3060, 106570.1
341.7881, 106531.3
342.2702, 106510.2
342.7523, 106487.6
343.2344, 106452.1
343.7166, 106404.1
344.1987, 106347.4
344.6808, 106271.1
345.1629, 106197.3
345.6450, 106114.2
346.1271, 106040.7
346.6093, 106008.1
347.0914, 106025.9
347.5735, 106061.0
348.0556, 106050.1
348.5377, 105971.4
349.0198, 105883.7
349.5020, 105772.1
349.9841, 105665.2
350.4662, 105589.4
350.9483, 105544.1
351.4304, 105503.5
351.9125, 105437.5
352.3947, 105339.1
352.8768, 105264.8
353.3589, 105229.1
353.8410, 105202.8
354.3231, 105177.5
354.8052, 105153.5
355.2874, 105136.8
355.7695, 105134.8
356.2516, 105140.0
356.7337, 105107.8
357.2158, 105002.8
357.6979, 104906.4
358.1800, 104834.4
358.6621, 104777.8
359.1443, 104730.6
359.6264, 104690.3
360.1085, 104649.7
360.5906, 104590.4
361.0727, 104494.8
361.5548, 104428.2
362.0370, 104431.1
362.5191, 104437.7
363.0012, 104405.2
363.4833, 104331.2
363.9654, 104244.9
364.4475, 104172.0
364.9297, 104112.7
365.4118, 104062.1
365.8939, 104026.9
366.3760, 103992.6
366.8581, 103946.1
367.3402, 103895.9
367.8224, 103861.3
368.3045, 103862.6
368.7866, 103880.5
369.2687, 103853.7
369.7508, 103760.4
370.2329, 103670.8
370.7151, 103612.0
371.1972, 103567.5
371.6793, 103523.2
372.1614, 103476.7
372.6435, 103425.1
373.1256, 103363.0
373.6078, 103290.2
374.0899, 103218.2
374.5720, 103135.2
375.0541, 103068.6
375.5362, 103054.9
376.0183, 103086.4
376.5005, 103095.7
376.9826, 103015.8
377.4647, 102874.3
377.9468, 102774.1
378.4289, 102730.8
378.9110, 102707.1
379.3932, 102687.3
379.8753, 102667.4
380.3574, 102639.9
380.8395, 102602.8
381.3216, 102556.2
381.8037, 102493.4
382.2859, 102413.6
382.7680, 102348.4
383.2501, 102323.2
383.7322, 102314.1
384.2143, 102283.1
384.6964, 102227.6
385.1786, 102160.5
385.6607, 102084.9
386.1428, 102004.5
386.6249, 101924.6
387.1070, 101844.0
387.5891, 101774.6
388.0713, 101741.2
388.5534, 101740.2
389.0355, 101724.1
389.5176, 101666.6
389.9997, 101600.4
390.4818, 101561.2
390.9640, 101549.4
391.4461, 101539.8
391.9282, 101513.4
392.4103, 101475.0
392.8924, 101449.9
393.3745, 101446.4
393.8567, 101444.9
394.3388, 101434.6
394.8209, 101420.3
395.3030, 101411.7
395.7851, 101411.7
396.2672, 101418.3
396.7494, 101429.8
397.2315, 101451.4
397.7136, 101462.6
398.1957, 101467.5
398.6778, 101457.6
399.1599, 101420.4
399.6420, 101357.9
400.1241, 101288.7
400.6063, 101228.4
401.0884, 101177.2
401.5705, 101130.9
402.0526, 101102.8
402.5347, 101065.8
403.0168, 101001.2
403.4990, 100925.3
403.9811, 100868.6
404.4632, 100847.0
404.9453, 100841.0
405.4274, 100800.7
405.9095, 100699.6
406.3917, 100610.3
406.8738, 100546.0
407.3559, 100485.9
407.8380, 100407.5
408.3201, 100312.9
408.8022, 100228.4
409.2844, 100183.9
409.7665, 100183.1
410.2486, 100161.8
410.7307, 100101.0
411.2128, 100037.4
411.6949, 99975.36
412.1771, 99917.88
412.6592, 99869.77
413.1413, 99834.64
413.6234, 99805.30
414.1055, 99765.89
414.5876, 99712.67
415.0698, 99660.18
415.5519, 99625.11
416.0340, 99583.61
416.5161, 99508.98
416.9982, 99401.11
417.4803, 99302.34
417.9625, 99251.12
418.4446, 99242.30
418.9267, 99239.74
419.4088, 99246.30
419.8909, 99249.81
420.3730, 99249.94
420.8552, 99241.39
421.3373, 99210.09
421.8194, 99139.62
422.3015, 99056.36
422.7836, 98994.43
423.2657, 98953.55
423.7479, 98907.20
424.2300, 98845.27
424.7121, 98771.58
425.1942, 98690.61
425.6763, 98600.16
426.1584, 98515.72
426.6406, 98437.29
427.1227, 98371.30
427.6048, 98332.21
428.0869, 98323.27
428.5690, 98329.51
429.0511, 98346.40
429.5333, 98371.85
430.0154, 98362.09
430.4975, 98294.15
430.9796, 98212.32
431.4617, 98135.20
431.9438, 98063.73
432.4260, 97995.20
432.9081, 97927.36
433.3902, 97866.29
433.8723, 97828.70
434.3544, 97842.43
434.8365, 97832.07
435.3187, 97774.98
435.8008, 97705.52
436.2829, 97656.69
436.7650, 97628.82
437.2471, 97595.14
437.7292, 97529.17
438.2114, 97429.59
438.6935, 97339.77
439.1756, 97260.50
439.6577, 97191.01
440.1398, 97126.48
440.6219, 97074.34
441.1040, 97054.97
441.5862, 97077.02
442.0683, 97106.88
442.5504, 97078.23
443.0325, 96969.77
443.5146, 96869.73
443.9967, 96779.20
444.4789, 96705.33
444.9610, 96658.06
445.4431, 96633.47
445.9252, 96617.42
446.4073, 96608.98
446.8894, 96599.88
447.3716, 96550.56
447.8537, 96437.86
448.3358, 96341.76
448.8179, 96315.86
449.3000, 96315.77
449.7821, 96291.23
450.2643, 96226.58
450.7464, 96160.58
451.2285, 96134.92
451.7106, 96139.52
452.1927, 96123.34
452.6748, 96069.82
453.1570, 96006.70
453.6391, 95965.39
454.1212, 95940.38
454.6033, 95905.79
455.0854, 95848.45
455.5675, 95784.63
456.0497, 95723.55
456.5318, 95667.45
457.0139, 95627.27
457.4960, 95613.94
457.9781, 95613.99
458.4602, 95590.43
458.9424, 95544.64
459.4245, 95479.34
459.9066, 95369.93
460.3887, 95255.67
460.8708, 95184.73
461.3529, 95159.93
461.8351, 95139.45
462.3172, 95081.63
462.7993, 94984.99
463.2814, 94906.68
463.7635, 94869.39
464.2456, 94822.71
464.7278, 94741.17
465.2099, 94646.00
465.6920, 94568.30
466.1741, 94519.38
466.6562, 94484.81
467.1383, 94441.92
467.6205, 94390.26
468.1026, 94329.80
468.5847, 94255.37
469.0668, 94176.74
469.5489, 94094.51
470.0310, 94011.73
470.5132, 93935.96
470.9953, 93873.60
471.4774, 93819.98
471.9595, 93761.64
472.4416, 93696.35
472.9237, 93636.73
473.4059, 93602.50
473.8880, 93567.09
474.3701, 93500.77
474.8522, 93399.67
475.3343, 93299.60
475.8164, 93221.09
476.2986, 93161.48
476.7807, 93118.52
477.2628, 93095.88
477.7449, 93068.02
478.2270, 93008.30
478.7091, 92926.05
479.1913, 92863.22
479.6734, 92834.83
480.1555, 92811.26
480.6376, 92775.16
481.1197, 92732.80
481.6018, 92703.55
482.0839, 92695.31
482.5660, 92680.38
483.0482, 92614.89
483.5303, 92475.13
484.0124, 92372.07
484.4945, 92328.05
484.9766, 92297.38
485.4587, 92266.60
485.9409, 92228.58
486.4230, 92168.99
486.9051, 92077.63
487.3872, 91971.36
487.8693, 91902.43
488.3514, 91901.36
488.8336, 91879.63
489.3157, 91829.19
489.7978, 91761.37
490.2799, 91675.59
490.7620, 91577.73
491.2441, 91485.89
491.7263, 91420.50
492.2084, 91373.42
492.6905, 91299.81
493.1726, 91184.22
493.6547, 91080.92
494.1368, 91020.57
494.6190, 90980.84
495.1011, 90940.48
495.5832, 90895.36
496.0653, 90854.05
496.5474, 90835.16
497.0295, 90825.64
497.5117, 90780.55
497.9938, 90685.96
498.4759, 90584.31
498.9580, 90510.06
499.4401, 90457.75
499.9222, 90398.36
500.4044, 90319.55
500.8865, 90243.36
501.3686, 90177.17
501.8507, 90121.83
502.3328, 90081.05
502.8149, 90056.81
503.2971, 90038.69
503.7792, 90014.12
504.2613, 89986.83
504.7434, 89936.16
505.2255, 89846.63
505.7076, 89752.70
506.1898, 89664.87
506.6719, 89586.30
507.1540, 89522.79
507.6361, 89477.98
508.1182, 89442.89
508.6003, 89393.67
509.0825, 89317.21
509.5646, 89262.09
510.0467, 89262.00
510.5288, 89259.38
511.0109, 89221.73
511.4930, 89152.38
511.9752, 89071.45
512.4573, 88979.48
512.9394, 88891.63
513.4215, 88853.33
513.9036, 88874.87
514.3857, 88878.48
514.8679, 88825.54
515.3500, 88744.98
515.8321, 88675.45
516.3142, 88618.86
516.7963, 88561.85
517.2784, 88487.73
517.7606, 88414.59
518.2427, 88377.51
518.7248, 88376.89
519.2069, 88365.32
519.6890, 88309.30
520.1711, 88217.37
520.6533, 88133.47
521.1354, 88054.09
521.6175, 87985.11
522.0996, 87941.86
522.5817, 87901.41
523.0638, 87832.70
523.5460, 87736.20
524.0281, 87644.89
524.5102, 87591.27
524.9923, 87574.63
525.4744, 87566.30
525.9565, 87600.54
526.4387, 87596.19
526.9208, 87504.92
527.4029, 87385.89
527.8850, 87302.98
528.3671, 87271.61
528.8492, 87256.42
529.3314, 87225.98
529.8135, 87180.88
530.2956, 87122.20
530.7777, 87045.45
531.2598, 86965.51
531.7419, 86886.98
532.2241, 86812.81
532.7062, 86747.86
533.1883, 86695.73
533.6704, 86647.98
534.1525, 86600.66
534.6346, 86552.98
535.1168, 86499.61
535.5989, 86438.15
536.0810, 86382.40
536.5631, 86349.55
537.0452, 86340.70
537.5273, 86317.01
538.0095, 86262.82
538.4916, 86212.30
538.9737, 86181.05
539.4558, 86160.21
539.9379, 86137.67
540.4200, 86109.16
540.9022, 86074.84
541.3843, 86035.62
541.8664, 85992.30
542.3485, 85940.58
542.8306, 85861.55
543.3127, 85796.19
543.7948, 85772.46
544.2769, 85766.60
544.7590, 85742.13
545.2411, 85684.77
545.7233, 85612.21
546.2054, 85538.73
546.6875, 85465.36
547.1696, 85416.76
547.6517, 85404.86
548.1339, 85401.73
548.6160, 85385.66
549.0981, 85359.44
549.5802, 85329.91
550.0623, 85296.27
550.5444, 85261.40
551.0266, 85229.35
551.5087, 85196.99
551.9908, 85157.58
552.4729, 85109.16
552.9550, 85051.70
553.4371, 84981.43
553.9193, 84891.30
554.4014, 84834.70
554.8835, 84851.80
555.3656, 84854.16
555.8477, 84800.02
556.3298, 84714.28
556.8120, 84635.27
557.2941, 84576.77
557.7762, 84527.94
558.2583, 84472.52
558.7404, 84409.46
559.2225, 84351.22
559.7047, 84305.59
560.1868, 84254.62
560.6689, 84181.48
561.1510, 84099.45
561.6331, 84031.56
562.1152, 83988.06
562.5974, 83950.56
563.0795, 83905.09
563.5616, 83851.70
564.0437, 83790.06
564.5258, 83718.80
565.0079, 83643.45
565.4901, 83564.80
565.9722, 83484.86
566.4543, 83424.22
566.9364, 83399.77
567.4185, 83376.04
567.9006, 83340.42
568.3828, 83297.70
568.8649, 83258.89
569.3470, 83225.53
569.8291, 83180.37
570.3112, 83099.42
570.7933, 82978.90
571.2755, 82887.61
571.7576, 82848.23
572.2397, 82810.18
572.7218, 82757.23
573.2039, 82700.45
573.6860, 82651.21
574.1682, 82611.99
574.6503, 82581.84
575.1324, 82564.94
575.6145, 82556.92
576.0966, 82540.77
576.5787, 82516.30
577.0609, 82478.67
577.5430, 82416.74
578.0251, 82341.98
578.5072, 82282.77
578.9893, 82245.20
579.4714, 82210.75
579.9536, 82180.70
580.4357, 82145.89
580.9178, 82093.24
581.3999, 82022.64
581.8820, 81941.33
582.3641, 81851.17
582.8463, 81758.49
583.3284, 81698.33
583.8105, 81692.30
584.2926, 81690.08
584.7747, 81715.23
585.2568, 81722.76
585.7390, 81662.25
586.2211, 81544.98
586.7032, 81435.36
587.1853, 81383.27
587.6674, 81368.83
588.1495, 81337.70
588.6317, 81286.27
589.1138, 81240.85
589.5959, 81209.20
590.0780, 81187.98
590.5601, 81180.77
591.0422, 81187.02
591.5244, 81170.53
592.0065, 81104.55
592.4886, 81023.04
592.9707, 80947.61
593.4528, 80882.53
593.9349, 80840.86
594.4171, 80830.35
594.8992, 80830.50
595.3813, 80801.84
595.8634, 80719.54
596.3455, 80682.42
596.8276, 80744.27
597.3098, 80787.88
597.7919, 80752.98
598.2740, 80668.70
598.7561, 80586.27
599.2382, 80526.16
599.7203, 80478.61
600.2025, 80431.43
600.6846, 80384.71
601.1667, 80342.38
601.6488, 80309.34
602.1309, 80273.15
602.6130, 80223.23
603.0952, 80164.91
603.5773, 80109.11
604.0594, 80058.11
604.5415, 80008.90
605.0236, 79965.47
605.5057, 79920.75
605.9879, 79856.71
606.4700, 79773.54
606.9521, 79701.51
607.4342, 79669.03
607.9163, 79668.78
608.3984, 79645.68
608.8806, 79569.02
609.3627, 79510.14
609.8448, 79485.86
610.3269, 79471.82
610.8090, 79452.95
611.2911, 79425.80
611.7733, 79389.79
612.2554, 79341.98
612.7375, 79287.27
613.2196, 79235.40
613.7017, 79185.81
614.1838, 79144.88
614.6660, 79122.41
615.1481, 79100.14
615.6302, 79052.94
616.1123, 78983.05
616.5944, 78917.84
617.0765, 78874.18
617.5587, 78826.92
618.0408, 78744.71
618.5229, 78647.80
619.0050, 78586.10
619.4871, 78576.25
619.9692, 78581.55
620.4514, 78550.30
620.9335, 78474.70
621.4156, 78419.73
621.8977, 78412.95
622.3798, 78393.92
622.8619, 78340.25
623.3441, 78269.97
623.8262, 78203.16
624.3083, 78145.02
624.7904, 78090.00
625.2725, 78033.34
625.7546, 77983.12
626.2367, 77927.13
626.7188, 77885.83
627.2009, 77842.45
627.6830, 77796.44
628.1652, 77741.26
628.6473, 77654.05
629.1294, 77520.11
629.6115, 77408.38
630.0936, 77334.27
630.5757, 77280.54
631.0579, 77244.34
631.5400, 77217.05
632.0221, 77179.82
632.5042, 77122.97
632.9863, 77058.39
633.4684, 77011.79
633.9506, 76989.70
634.4327, 76950.27
634.9148, 76873.80
635.3969, 76802.09
635.8790, 76761.05
636.3611, 76736.58
636.8433, 76704.27
637.3254, 76657.45
637.8075, 76604.27
638.2896, 76547.49
638.7717, 76489.63
639.2538, 76436.95
639.7360, 76390.19
640.2181, 76339.41
640.7002, 76277.62
641.1823, 76206.65
641.6644, 76132.85
642.1465, 76044.35
642.6287, 75971.20
643.1108, 75928.41
643.5929, 75889.23
644.0750, 75830.93
644.5571, 75760.62
645.0392, 75702.30
645.5214, 75671.25
646.0035, 75653.87
646.4856, 75629.90
646.9677, 75599.37
647.4498, 75558.66
647.9319, 75502.84
648.4141, 75445.41
648.8962, 75399.72
649.3783, 75361.31
649.8604, 75315.39
650.3425, 75249.77
650.8246, 75190.39
651.3068, 75155.38
651.7889, 75127.45
652.2710, 75086.27
652.7531, 75028.99
653.2352, 74960.37
653.7173, 74880.38
654.1995, 74798.06
654.6816, 74756.07
655.1637, 74779.22
655.6458, 74783.34
656.1279, 74739.92
656.6100, 74686.41
657.0922, 74640.27
657.5743, 74601.89
658.0564, 74569.58
658.5385, 74551.89
659.0206, 74526.93
659.5027, 74468.11
659.9849, 74385.39
660.4670, 74306.58
660.9491, 74238.36
661.4312, 74169.90
661.9133, 74088.71
662.3954, 73996.80
662.8776, 73923.52
663.3597, 73891.40
663.8418, 73849.20
664.3239, 73774.59
664.8060, 73701.48
665.2881, 73660.53
665.7703, 73649.20
666.2524, 73645.50
666.7345, 73643.18
667.2166, 73628.84
667.6987, 73566.71
668.1808, 73458.55
668.6630, 73368.51
669.1451, 73315.08
669.6272, 73275.95
670.1093, 73233.95
670.5914, 73188.20
671.0735, 73137.17
671.5557, 73066.36
672.0378, 73006.89
672.5199, 72980.64
673.0020, 72963.83
673.4841, 72927.72
673.9662, 72871.13
674.4484, 72815.48
674.9305, 72779.11
675.4126, 72752.91
675.8947, 72702.59
676.3768, 72620.94
676.8589, 72548.61
677.3411, 72496.09
677.8232, 72453.19
678.3053, 72414.42
678.7874, 72378.80
