##NAMES=Bobdownsite
##RRUFFID=R070654
##IDEAL CHEMISTRY=Ca_9_Mg(PO_4_)_6_(PO_3_F)
##LOCALITY=Tip Top mine, Custer County, South Dakota, USA
##OWNER=RRUFF
##SOURCE=Rock Currier
##DESCRIPTION=A druse of colorless rhombohedra
##STATUS=The identification of this mineral is confirmed by single-crystal X-ray diffraction and chemical analysis.
##URL=rruff.info/R070654
##MEASURED CHEMISTRY=(Ca_8.96_Na_0.04_)_Σ=9_(Mg_0.96_Al_0.04_)_Σ=1_(P_1.00_O_3_(F_0.84_(OH)_0.16_)_Σ=1_)(P_1.00_O_4_)_6_; OH estimated by difference and charge balance
134.4421, 8567.293
134.9242, 8533.234
135.4063, 8481.347
135.8884, 8445.313
136.3705, 8454.196
136.8526, 8513.664
137.3348, 8540.293
137.8169, 8521.033
138.2990, 8468.564
138.7811, 8424.789
139.2632, 8392.028
139.7453, 8362.593
140.2275, 8327.362
140.7096, 8280.520
141.1917, 8247.042
141.6738, 8227.736
142.1559, 8222.382
142.6380, 8251.080
143.1201, 8333.956
143.6023, 8432.344
144.0844, 8498.857
144.5665, 8517.488
145.0486, 8531.493
145.5307, 8556.146
146.0128, 8605.510
146.4950, 8625.217
146.9771, 8599.478
147.4592, 8545.413
147.9413, 8504.995
148.4234, 8480.392
148.9055, 8466.457
149.3877, 8461.519
149.8698, 8501.612
150.3519, 8507.469
150.8340, 8460.753
151.3161, 8368.765
151.7982, 8291.127
152.2804, 8226.900
152.7625, 8179.322
153.2446, 8149.871
153.7267, 8165.369
154.2088, 8172.642
154.6909, 8158.721
155.1731, 8121.026
155.6552, 8082.151
156.1373, 8037.739
156.6194, 7996.994
157.1015, 7970.229
157.5836, 7968.717
158.0658, 7974.711
158.5479, 7986.150
159.0300, 8012.292
159.5121, 8017.501
159.9942, 7969.912
160.4763, 7893.891
160.9585, 7838.991
161.4406, 7854.385
161.9227, 7878.801
162.4048, 7871.096
162.8869, 7796.789
163.3690, 7722.944
163.8512, 7690.627
164.3333, 7690.182
164.8154, 7676.228
165.2975, 7612.403
165.7796, 7529.018
166.2617, 7456.564
166.7439, 7414.656
167.2260, 7379.973
167.7081, 7336.430
168.1902, 7284.412
168.6723, 7233.137
169.1544, 7180.204
169.6366, 7132.774
170.1187, 7102.364
170.6008, 7105.446
171.0829, 7122.137
171.5650, 7133.756
172.0471, 7138.272
172.5293, 7140.632
173.0114, 7146.930
173.4935, 7154.994
173.9756, 7158.342
174.4577, 7155.211
174.9398, 7144.895
175.4220, 7123.829
175.9041, 7085.953
176.3862, 7047.527
176.8683, 7033.081
177.3504, 7038.380
177.8326, 7036.730
178.3147, 7003.241
178.7968, 6948.691
179.2789, 6895.702
179.7610, 6849.777
180.2431, 6808.777
180.7253, 6762.752
181.2074, 6711.956
181.6895, 6672.889
182.1716, 6676.271
182.6537, 6709.087
183.1358, 6722.956
183.6179, 6680.061
184.1001, 6606.518
184.5822, 6578.328
185.0643, 6600.299
185.5464, 6638.157
186.0285, 6651.954
186.5106, 6643.841
186.9928, 6632.665
187.4749, 6626.665
187.9570, 6624.955
188.4391, 6622.325
188.9212, 6617.142
189.4033, 6613.627
189.8855, 6620.489
190.3676, 6637.548
190.8497, 6655.563
191.3318, 6672.965
191.8139, 6688.435
192.2960, 6686.813
192.7782, 6659.913
193.2603, 6620.711
193.7424, 6600.403
194.2245, 6599.665
194.7066, 6611.909
195.1887, 6645.083
195.6709, 6699.818
196.1530, 6719.273
196.6351, 6679.017
197.1172, 6596.401
197.5993, 6552.765
198.0814, 6555.538
198.5636, 6572.219
199.0457, 6569.492
199.5278, 6545.364
200.0099, 6520.056
200.4920, 6498.444
200.9741, 6480.587
201.4563, 6463.999
201.9384, 6447.389
202.4205, 6434.218
202.9026, 6430.287
203.3847, 6436.953
203.8668, 6445.760
204.3490, 6456.507
204.8311, 6470.422
205.3132, 6467.638
205.7953, 6438.330
206.2774, 6402.698
206.7595, 6405.635
207.2417, 6460.606
207.7238, 6512.653
208.2059, 6532.944
208.6880, 6513.390
209.1701, 6498.458
209.6522, 6491.268
210.1344, 6488.909
210.6165, 6480.796
211.0986, 6461.923
211.5807, 6448.672
212.0628, 6455.814
212.5449, 6494.245
213.0271, 6515.384
213.5092, 6509.918
213.9913, 6483.006
214.4734, 6462.410
214.9555, 6443.990
215.4376, 6438.831
215.9198, 6462.506
216.4019, 6535.078
216.8840, 6581.762
217.3661, 6583.693
217.8482, 6542.795
218.3303, 6513.097
218.8125, 6494.680
219.2946, 6487.250
219.7767, 6493.829
220.2588, 6524.370
220.7409, 6545.377
221.2230, 6544.234
221.7052, 6517.646
222.1873, 6508.054
222.6694, 6522.970
223.1515, 6548.195
223.6336, 6564.442
224.1157, 6567.759
224.5978, 6569.902
225.0800, 6573.917
225.5621, 6579.800
226.0442, 6589.044
226.5263, 6607.345
227.0084, 6625.728
227.4905, 6625.006
227.9727, 6586.859
228.4548, 6560.107
228.9369, 6568.240
229.4190, 6632.867
229.9011, 6669.279
230.3832, 6661.527
230.8654, 6629.915
231.3475, 6626.925
231.8296, 6670.992
232.3117, 6716.847
232.7938, 6742.244
233.2759, 6730.493
233.7581, 6734.790
234.2402, 6764.690
234.7223, 6811.810
235.2044, 6843.120
235.6865, 6854.622
236.1686, 6855.836
236.6508, 6850.764
237.1329, 6834.213
237.6150, 6821.672
238.0971, 6810.675
238.5792, 6803.453
239.0613, 6817.680
239.5435, 6872.511
240.0256, 6926.082
240.5077, 6947.015
240.9898, 6913.508
241.4719, 6889.091
241.9540, 6882.844
242.4362, 6893.794
242.9183, 6904.476
243.4004, 6913.646
243.8825, 6923.860
244.3646, 6938.056
244.8467, 6960.972
245.3289, 6978.805
245.8110, 6986.893
246.2931, 6984.835
246.7752, 6991.064
247.2573, 7007.977
247.7394, 7030.781
248.2216, 7054.367
248.7037, 7076.479
249.1858, 7104.194
249.6679, 7142.955
250.1500, 7195.314
250.6321, 7230.619
251.1143, 7238.979
251.5964, 7238.670
252.0785, 7253.084
252.5606, 7292.571
253.0427, 7326.911
253.5248, 7345.905
254.0070, 7346.006
254.4891, 7355.847
254.9712, 7380.620
255.4533, 7410.660
255.9354, 7430.426
256.4175, 7431.704
256.8997, 7439.318
257.3818, 7465.360
257.8639, 7518.216
258.3460, 7549.202
258.8281, 7551.777
259.3102, 7538.172
259.7924, 7527.521
260.2745, 7518.475
260.7566, 7515.439
261.2387, 7520.617
261.7208, 7535.221
262.2029, 7552.805
262.6851, 7573.300
263.1672, 7596.685
263.6493, 7623.643
264.1314, 7657.467
264.6135, 7687.521
265.0956, 7710.765
265.5778, 7727.912
266.0599, 7730.869
266.5420, 7711.884
267.0241, 7683.651
267.5062, 7675.710
267.9883, 7693.341
268.4705, 7717.180
268.9526, 7738.669
269.4347, 7757.451
269.9168, 7773.775
270.3989, 7786.263
270.8810, 7797.165
271.3632, 7813.627
271.8453, 7838.363
272.3274, 7860.279
272.8095, 7871.375
273.2916, 7869.083
273.7737, 7872.616
274.2559, 7881.979
274.7380, 7898.830
275.2201, 7931.957
275.7022, 7986.140
276.1843, 8037.703
276.6664, 8069.064
277.1486, 8078.017
277.6307, 8094.881
278.1128, 8124.585
278.5949, 8162.047
279.0770, 8196.369
279.5591, 8228.819
280.0413, 8251.680
280.5234, 8254.289
281.0055, 8236.194
281.4876, 8231.311
281.9697, 8251.951
282.4518, 8280.205
282.9340, 8264.895
283.4161, 8201.819
283.8982, 8131.625
284.3803, 8085.634
284.8624, 8062.034
285.3445, 8029.310
285.8266, 7980.188
286.3087, 7922.504
286.7909, 7874.454
287.2730, 7836.182
287.7551, 7802.354
288.2372, 7774.475
288.7193, 7750.207
289.2014, 7710.475
289.6836, 7647.419
290.1657, 7573.076
290.6478, 7510.693
291.1299, 7460.056
291.6120, 7418.401
292.0941, 7382.536
292.5763, 7353.363
293.0584, 7336.608
293.5405, 7339.948
294.0226, 7348.495
294.5047, 7335.330
294.9868, 7301.322
295.4690, 7260.926
295.9511, 7223.189
296.4332, 7187.103
296.9153, 7149.715
297.3974, 7108.757
297.8795, 7068.810
298.3617, 7034.977
298.8438, 7007.137
299.3259, 6985.604
299.8080, 6972.611
300.2901, 6965.507
300.7722, 6959.879
301.2544, 6957.780
301.7365, 6952.187
302.2186, 6932.349
302.7007, 6900.057
303.1828, 6865.375
303.6649, 6831.420
304.1471, 6800.438
304.6292, 6776.375
305.1113, 6760.205
305.5934, 6751.026
306.0755, 6749.090
306.5576, 6753.842
307.0398, 6762.883
307.5219, 6793.087
308.0040, 6820.036
308.4861, 6811.599
308.9682, 6737.267
309.4503, 6660.842
309.9325, 6631.800
310.4146, 6640.582
310.8967, 6652.115
311.3788, 6649.635
311.8609, 6640.068
312.3430, 6629.241
312.8252, 6618.293
313.3073, 6606.799
313.7894, 6590.243
314.2715, 6571.861
314.7536, 6562.892
315.2357, 6577.334
315.7179, 6597.583
316.2000, 6611.904
316.6821, 6620.047
317.1642, 6618.340
317.6463, 6593.195
318.1284, 6554.918
318.6106, 6533.811
319.0927, 6553.784
319.5748, 6584.166
320.0569, 6608.602
320.5390, 6626.793
321.0211, 6635.118
321.5033, 6621.308
321.9854, 6596.046
322.4675, 6586.875
322.9496, 6621.254
323.4317, 6655.992
323.9138, 6670.563
324.3960, 6645.295
324.8781, 6629.861
325.3602, 6637.675
325.8423, 6658.837
326.3244, 6669.523
326.8065, 6659.654
327.2887, 6646.164
327.7708, 6634.231
328.2529, 6621.655
328.7350, 6614.380
329.2171, 6615.835
329.6992, 6621.818
330.1814, 6623.383
330.6635, 6612.676
331.1456, 6606.887
331.6277, 6612.969
332.1098, 6636.690
332.5919, 6657.009
333.0741, 6675.246
333.5562, 6689.722
334.0383, 6695.566
334.5204, 6684.498
335.0025, 6681.593
335.4846, 6701.680
335.9668, 6754.369
336.4489, 6773.557
336.9310, 6745.874
337.4131, 6699.466
337.8952, 6678.425
338.3773, 6688.871
338.8595, 6701.326
339.3416, 6705.635
339.8237, 6701.718
340.3058, 6698.054
340.7879, 6693.241
341.2701, 6691.715
341.7522, 6702.374
342.2343, 6726.185
342.7164, 6745.683
343.1985, 6753.213
343.6806, 6751.252
344.1628, 6754.589
344.6449, 6764.889
345.1270, 6773.328
345.6091, 6766.317
346.0912, 6746.266
346.5733, 6731.991
347.0555, 6730.360
347.5376, 6738.080
348.0197, 6748.897
348.5018, 6762.922
348.9839, 6775.049
349.4660, 6771.625
349.9482, 6761.228
350.4303, 6770.754
350.9124, 6826.047
351.3945, 6889.609
351.8766, 6904.360
352.3587, 6873.438
352.8409, 6835.868
353.3230, 6819.124
353.8051, 6815.290
354.2872, 6812.871
354.7693, 6807.423
355.2514, 6804.391
355.7336, 6808.020
356.2157, 6818.220
356.6978, 6834.030
357.1799, 6867.271
357.6620, 6900.398
358.1441, 6914.832
358.6263, 6893.605
359.1084, 6874.515
359.5905, 6885.650
360.0726, 6916.293
360.5547, 6935.399
361.0368, 6917.652
361.5190, 6892.419
362.0011, 6876.996
362.4832, 6874.236
362.9653, 6881.110
363.4474, 6904.086
363.9295, 6935.763
364.4117, 6961.072
364.8938, 6968.160
365.3759, 6975.286
365.8580, 6990.448
366.3401, 7018.084
366.8222, 7043.976
367.3044, 7071.476
367.7865, 7095.709
368.2686, 7108.697
368.7507, 7089.717
369.2328, 7081.721
369.7149, 7099.598
370.1970, 7152.379
370.6791, 7187.798
371.1613, 7193.134
371.6434, 7190.532
372.1255, 7208.685
372.6076, 7267.281
373.0897, 7306.399
373.5718, 7302.774
374.0540, 7257.373
374.5361, 7245.475
375.0182, 7277.603
375.5003, 7325.213
375.9824, 7361.541
376.4645, 7383.594
376.9467, 7411.158
377.4288, 7451.447
377.9109, 7499.595
378.3930, 7536.468
378.8751, 7559.979
379.3572, 7582.333
379.8394, 7609.174
380.3215, 7641.414
380.8036, 7687.521
381.2857, 7751.130
381.7678, 7826.833
382.2499, 7916.598
382.7321, 8017.806
383.2142, 8103.771
383.6963, 8137.058
384.1784, 8141.331
384.6605, 8176.204
385.1426, 8252.765
385.6248, 8349.120
386.1069, 8442.591
386.5890, 8534.205
387.0711, 8629.327
387.5532, 8720.837
388.0353, 8820.885
388.5175, 8951.012
388.9996, 9118.761
389.4817, 9283.878
389.9638, 9408.927
390.4459, 9515.959
390.9280, 9638.391
391.4102, 9812.734
391.8923, 9988.622
392.3744, 10127.77
392.8565, 10225.28
393.3386, 10348.48
393.8207, 10543.36
394.3029, 10769.41
394.7850, 10986.92
395.2671, 11170.50
395.7492, 11359.90
396.2313, 11564.77
396.7134, 11784.46
397.1956, 12008.61
397.6777, 12202.77
398.1598, 12419.70
398.6419, 12691.81
399.1240, 13066.20
399.6061, 13435.60
400.0883, 13786.81
400.5704, 14128.81
401.0525, 14499.80
401.5346, 14919.80
402.0167, 15337.02
402.4988, 15722.76
402.9810, 16057.38
403.4631, 16425.87
403.9452, 16855.85
404.4273, 17293.53
404.9094, 17638.45
405.3915, 17885.01
405.8737, 18049.05
406.3558, 18127.36
406.8379, 18120.14
407.3200, 18073.29
407.8021, 17990.83
408.2842, 17855.50
408.7664, 17632.13
409.2485, 17325.44
409.7306, 16993.37
410.2127, 16638.77
410.6948, 16274.45
411.1769, 15938.29
411.6591, 15628.89
412.1412, 15336.40
412.6233, 15049.74
413.1054, 14777.25
413.5875, 14532.70
414.0696, 14326.36
414.5518, 14145.26
415.0339, 13974.60
415.5160, 13818.10
415.9981, 13684.70
416.4802, 13622.20
416.9623, 13565.11
417.4445, 13445.94
417.9266, 13227.59
418.4087, 13004.28
418.8908, 12810.24
419.3729, 12645.35
419.8550, 12504.70
420.3372, 12407.51
420.8193, 12318.48
421.3014, 12222.68
421.7835, 12114.39
422.2656, 12014.86
422.7477, 11914.42
423.2299, 11829.56
423.7120, 11778.51
424.1941, 11791.14
424.6762, 11807.27
425.1583, 11819.07
425.6404, 11826.84
426.1226, 11830.23
426.6047, 11819.50
427.0868, 11814.59
427.5689, 11831.30
428.0510, 11877.43
428.5331, 11923.92
429.0153, 11970.82
429.4974, 12014.41
429.9795, 12047.55
430.4616, 12071.67
430.9437, 12077.71
431.4258, 12053.87
431.9080, 12000.41
432.3901, 11954.49
432.8722, 11921.82
433.3543, 11887.16
433.8364, 11824.16
434.3185, 11736.18
434.8007, 11645.23
435.2828, 11567.89
435.7649, 11494.62
436.2470, 11402.53
436.7291, 11292.08
437.2112, 11174.53
437.6934, 11051.82
438.1755, 10930.33
438.6576, 10821.36
439.1397, 10732.69
439.6218, 10653.75
440.1039, 10571.86
440.5861, 10489.81
441.0682, 10424.57
441.5503, 10395.17
442.0324, 10378.81
442.5145, 10357.42
442.9966, 10323.19
443.4788, 10291.55
443.9609, 10268.18
444.4430, 10250.38
444.9251, 10232.92
445.4072, 10208.00
445.8893, 10189.42
446.3715, 10184.19
446.8536, 10198.25
447.3357, 10205.22
447.8178, 10199.48
448.2999, 10190.53
448.7820, 10188.97
449.2642, 10199.46
449.7463, 10207.91
450.2284, 10209.13
450.7105, 10205.27
451.1926, 10215.61
451.6747, 10245.57
452.1568, 10276.03
452.6389, 10292.81
453.1211, 10295.33
453.6032, 10294.88
454.0853, 10290.59
454.5674, 10287.22
455.0495, 10300.24
455.5316, 10327.94
456.0138, 10343.13
456.4959, 10323.58
456.9780, 10282.30
457.4601, 10249.16
457.9422, 10226.98
458.4243, 10201.63
458.9065, 10144.73
459.3886, 10077.15
459.8707, 10036.57
460.3528, 10075.64
460.8349, 10118.95
461.3170, 10109.21
461.7992, 10051.72
462.2813, 9981.309
462.7634, 9900.417
463.2455, 9822.018
463.7276, 9758.562
464.2097, 9730.469
464.6919, 9689.063
465.1740, 9601.788
465.6561, 9493.212
466.1382, 9420.132
466.6203, 9422.131
467.1024, 9428.072
467.5846, 9416.171
468.0667, 9382.095
468.5488, 9349.323
469.0309, 9317.255
469.5130, 9287.550
469.9951, 9263.798
470.4773, 9250.165
470.9594, 9229.246
471.4415, 9196.799
471.9236, 9154.318
472.4057, 9107.249
472.8878, 9053.937
473.3700, 9007.481
473.8521, 8984.299
474.3342, 8979.845
474.8163, 8959.102
475.2984, 8913.979
475.7805, 8863.976
476.2627, 8834.248
476.7448, 8823.064
477.2269, 8822.152
477.7090, 8827.293
478.1911, 8840.826
478.6732, 8869.662
479.1554, 8914.188
479.6375, 8957.609
480.1196, 8989.488
480.6017, 9013.561
481.0838, 9034.124
481.5659, 9049.499
482.0481, 9064.688
482.5302, 9090.599
483.0123, 9120.039
483.4944, 9126.244
483.9765, 9077.616
484.4586, 9023.596
484.9408, 8988.775
485.4229, 8993.330
485.9050, 8974.813
486.3871, 8917.445
486.8692, 8845.041
487.3513, 8791.159
487.8335, 8767.155
488.3156, 8739.688
488.7977, 8703.100
489.2798, 8657.387
489.7619, 8593.964
490.2440, 8507.317
490.7262, 8421.150
491.2083, 8354.959
491.6904, 8308.241
492.1725, 8262.373
492.6546, 8216.448
493.1367, 8168.508
493.6189, 8110.478
494.1010, 8045.583
494.5831, 7987.114
495.0652, 7948.279
495.5473, 7917.837
496.0294, 7875.600
496.5116, 7819.137
496.9937, 7778.384
497.4758, 7794.214
497.9579, 7830.602
498.4400, 7843.399
498.9221, 7788.750
499.4043, 7738.395
499.8864, 7726.665
500.3685, 7744.542
500.8506, 7754.047
501.3327, 7743.667
501.8148, 7724.897
502.2970, 7702.243
502.7791, 7673.527
503.2612, 7646.239
503.7433, 7620.024
504.2254, 7595.852
504.7076, 7575.437
505.1897, 7560.927
505.6718, 7545.464
506.1539, 7524.867
506.6360, 7501.833
507.1181, 7496.281
507.6003, 7511.042
508.0824, 7531.269
508.5645, 7550.085
509.0466, 7566.279
509.5287, 7570.314
510.0108, 7558.292
510.4930, 7541.036
510.9751, 7529.966
511.4572, 7525.100
511.9393, 7527.090
512.4214, 7545.438
512.9035, 7564.747
513.3856, 7562.094
513.8677, 7538.438
514.3499, 7526.845
514.8320, 7570.771
515.3141, 7623.538
515.7962, 7639.464
516.2783, 7564.821
516.7604, 7515.289
517.2426, 7551.985
517.7247, 7636.543
518.2068, 7672.726
518.6889, 7592.710
519.1710, 7519.637
519.6531, 7487.926
520.1353, 7502.583
520.6174, 7526.620
521.0995, 7570.170
521.5816, 7609.752
522.0637, 7617.594
522.5458, 7586.439
523.0280, 7567.681
523.5101, 7573.376
523.9922, 7592.692
524.4743, 7599.423
524.9564, 7593.799
525.4385, 7587.622
525.9207, 7581.142
526.4028, 7580.138
526.8849, 7603.632
527.3670, 7654.389
527.8491, 7705.261
528.3312, 7727.930
528.8134, 7735.954
529.2955, 7750.827
529.7776, 7789.588
530.2597, 7826.945
530.7418, 7840.678
531.2239, 7838.848
531.7061, 7852.112
532.1882, 7901.722
532.6703, 7959.528
533.1524, 8013.139
533.6345, 8064.475
534.1166, 8103.321
534.5988, 8114.150
535.0809, 8122.368
535.5630, 8158.992
536.0451, 8243.030
536.5272, 8310.465
537.0093, 8344.083
537.4915, 8353.815
537.9736, 8381.015
538.4557, 8426.059
538.9378, 8488.692
539.4199, 8580.331
539.9020, 8693.162
540.3842, 8775.954
540.8663, 8820.483
541.3484, 8863.568
541.8305, 8952.228
542.3126, 9070.325
542.7947, 9180.763
543.2769, 9270.342
543.7590, 9346.252
544.2411, 9417.715
544.7232, 9481.919
545.2053, 9525.512
545.6874, 9522.284
546.1696, 9511.488
546.6517, 9519.575
547.1338, 9560.276
547.6159, 9590.874
548.0980, 9592.078
548.5801, 9585.660
549.0623, 9597.553
549.5444, 9639.567
550.0265, 9679.474
550.5086, 9710.901
550.9907, 9736.090
551.4728, 9767.011
551.9550, 9804.297
552.4371, 9845.732
552.9192, 9900.552
553.4013, 9964.276
553.8834, 9988.412
554.3655, 9965.876
554.8477, 9927.944
555.3298, 9902.410
555.8119, 9890.424
556.2940, 9896.830
556.7761, 9938.026
557.2582, 9983.152
557.7404, 9998.261
558.2225, 9989.808
558.7046, 9985.643
559.1867, 10002.31
559.6688, 10025.13
560.1509, 10052.76
560.6331, 10097.18
561.1152, 10099.75
561.5973, 10030.60
562.0794, 9921.522
562.5615, 9805.517
563.0436, 9655.952
563.5258, 9546.692
564.0079, 9505.971
564.4900, 9510.743
564.9721, 9465.237
565.4542, 9350.484
565.9363, 9256.971
566.4185, 9261.403
566.9006, 9347.707
567.3827, 9339.299
567.8648, 9226.586
568.3469, 9075.031
568.8290, 8934.474
569.3112, 8808.531
569.7933, 8711.463
570.2754, 8653.620
570.7575, 8613.900
571.2396, 8576.698
571.7217, 8541.879
572.2039, 8508.011
572.6860, 8468.776
573.1681, 8435.240
573.6502, 8418.823
574.1323, 8423.644
574.6144, 8414.901
575.0966, 8370.569
575.5787, 8321.143
576.0608, 8288.471
576.5429, 8274.646
577.0250, 8275.395
577.5071, 8299.979
577.9893, 8332.581
578.4714, 8330.042
578.9535, 8283.220
579.4356, 8260.517
579.9177, 8305.922
580.3998, 8395.651
580.8820, 8428.011
581.3641, 8402.435
581.8462, 8368.350
582.3283, 8366.798
582.8104, 8383.808
583.2925, 8394.652
583.7747, 8391.395
584.2568, 8392.548
584.7389, 8406.213
585.2210, 8433.865
585.7031, 8478.419
586.1852, 8568.757
586.6674, 8647.593
587.1495, 8689.557
587.6316, 8696.934
588.1137, 8711.582
588.5958, 8747.040
589.0779, 8777.546
589.5601, 8789.242
590.0422, 8775.293
590.5243, 8770.417
591.0064, 8777.384
591.4885, 8788.264
591.9706, 8792.074
592.4528, 8788.968
592.9349, 8789.911
593.4170, 8799.989
593.8991, 8812.157
594.3812, 8809.069
594.8633, 8794.811
595.3455, 8788.799
595.8276, 8806.093
596.3097, 8834.630
596.7918, 8860.558
597.2739, 8882.373
597.7560, 8916.520
598.2382, 8986.042
598.7203, 9062.670
599.2024, 9123.553
599.6845, 9152.792
600.1666, 9181.769
600.6487, 9210.937
601.1309, 9242.360
601.6130, 9282.057
602.0951, 9339.979
602.5772, 9382.896
603.0593, 9395.905
603.5414, 9385.083
604.0236, 9391.973
604.5057, 9419.164
604.9878, 9442.412
605.4699, 9438.688
605.9520, 9416.685
606.4341, 9398.519
606.9163, 9384.775
607.3984, 9383.881
607.8805, 9420.774
608.3626, 9471.871
608.8447, 9501.038
609.3268, 9468.439
609.8090, 9437.097
610.2911, 9425.687
610.7732, 9435.511
611.2553, 9471.775
611.7374, 9570.761
612.2195, 9662.408
612.7017, 9715.806
613.1838, 9723.116
613.6659, 9763.146
614.1480, 9848.750
614.6301, 9944.580
615.1122, 10015.81
615.5944, 10060.56
616.0765, 10121.88
616.5586, 10205.12
617.0407, 10305.19
617.5228, 10415.17
618.0049, 10535.47
618.4871, 10662.50
618.9692, 10814.01
619.4513, 10957.43
619.9334, 11054.25
620.4155, 11111.86
620.8976, 11163.74
621.3798, 11243.65
621.8619, 11309.54
622.3440, 11325.43
622.8261, 11263.21
623.3082, 11240.42
623.7903, 11298.13
624.2725, 11378.67
624.7546, 11430.07
625.2367, 11433.28
625.7188, 11461.44
626.2009, 11533.35
626.6830, 11623.17
627.1652, 11675.78
627.6473, 11691.03
