##NAMES=Bobdownsite
##RRUFFID=R100215
##IDEAL CHEMISTRY=Ca_9_Mg(PO_4_)_6_(PO_3_F)
##LOCALITY=Tip Top mine, Custer County, South Dakota, USA
##OWNER=RRUFF
##SOURCE=Tom Loomis, Dakota Matrix Minerals 
##DESCRIPTION=Crust of colorless crystals on quartz
##STATUS=The identification of this mineral is confirmed by single-crystal X-ray diffraction and chemical analysis.
##URL=rruff.info/R100215
##MEASURED CHEMISTRY=Ca_9.00_(Mg_0.89_Na_0.07_Sr_0.01_)_Σ=0.97_(P_1.00_O_4_)_6_(P_0.88_O_3_(F_0.74_(OH)_0.26_)_Σ=1.00_)
169.6203, 525.2040
170.1024, 523.8339
170.5845, 526.1483
171.0666, 530.1774
171.5487, 532.7078
172.0309, 533.8771
172.5130, 535.5627
172.9951, 539.4684
173.4772, 544.6627
173.9593, 549.7150
174.4414, 554.2664
174.9236, 558.2862
175.4057, 561.5515
175.8878, 564.0918
176.3699, 566.2947
176.8520, 568.3141
177.3341, 570.2479
177.8163, 572.3286
178.2984, 574.8049
178.7805, 577.4001
179.2626, 579.7616
179.7447, 581.8484
180.2268, 583.6249
180.7090, 585.1202
181.1911, 586.2782
181.6732, 586.8824
182.1553, 586.4485
182.6374, 585.4485
183.1195, 584.7593
183.6017, 584.3476
184.0838, 584.4944
184.5659, 585.8171
185.0480, 588.1035
185.5301, 590.3644
186.0123, 591.7816
186.4944, 592.7577
186.9765, 594.7719
187.4586, 598.1339
187.9407, 601.6080
188.4228, 603.1803
188.9050, 603.0221
189.3871, 603.0313
189.8692, 603.3754
190.3513, 604.4084
190.8334, 609.0588
191.3155, 618.5746
191.7977, 628.7662
192.2798, 631.9525
192.7619, 628.1688
193.2440, 624.5814
193.7261, 625.3110
194.2082, 629.9656
194.6904, 634.1543
195.1725, 637.8641
195.6546, 640.6816
196.1367, 641.0540
196.6188, 638.7626
197.1009, 636.9982
197.5831, 637.8350
198.0652, 641.2615
198.5473, 644.1630
199.0294, 646.3715
199.5115, 647.9651
199.9937, 649.3936
200.4758, 650.8390
200.9579, 650.9095
201.4400, 647.9726
201.9221, 641.6660
202.4042, 637.3223
202.8864, 635.2861
203.3685, 635.2881
203.8506, 637.5714
204.3327, 642.9827
204.8148, 647.1633
205.2969, 646.9354
205.7791, 641.4424
206.2612, 637.9874
206.7433, 637.6393
207.2254, 639.0637
207.7075, 638.5718
208.1896, 635.4007
208.6718, 632.5368
209.1539, 631.8644
209.6360, 633.9507
210.1181, 635.4299
210.6002, 636.2061
211.0823, 636.2453
211.5645, 635.3221
212.0466, 633.1901
212.5287, 630.7050
213.0108, 628.0523
213.4929, 624.8009
213.9750, 623.1426
214.4572, 623.7331
214.9393, 625.7769
215.4214, 626.9491
215.9035, 627.0450
216.3856, 626.6804
216.8678, 625.9456
217.3499, 624.3289
217.8320, 624.1240
218.3141, 626.3137
218.7962, 629.7070
219.2783, 630.2820
219.7605, 626.7142
220.2426, 622.6928
220.7247, 620.1560
221.2068, 619.4698
221.6889, 619.3007
222.1710, 620.0438
222.6532, 621.1686
223.1353, 620.7789
223.6174, 617.8379
224.0995, 615.1289
224.5816, 614.0876
225.0637, 615.2130
225.5459, 616.8776
226.0280, 619.7252
226.5101, 622.9417
226.9922, 623.6495
227.4743, 620.1485
227.9564, 616.8287
228.4386, 616.1180
228.9207, 619.9412
229.4028, 621.6077
229.8849, 620.0873
230.3670, 616.5729
230.8492, 614.3561
231.3313, 613.8253
231.8134, 614.0245
232.2955, 614.5677
232.7776, 615.4984
233.2597, 616.7396
233.7419, 618.6893
234.2240, 620.8592
234.7061, 621.7503
235.1882, 620.3328
235.6703, 619.2286
236.1524, 619.7405
236.6346, 623.1093
237.1167, 625.1980
237.5988, 625.4260
238.0809, 624.5995
238.5630, 624.7233
239.0451, 626.7398
239.5273, 628.2656
240.0094, 628.0880
240.4915, 624.9958
240.9736, 623.3378
241.4557, 623.4483
241.9378, 624.8053
242.4200, 626.5097
242.9021, 629.3690
243.3842, 631.3141
243.8663, 631.2460
244.3484, 627.9728
244.8306, 626.3348
245.3127, 627.1262
245.7948, 629.1433
246.2769, 630.0275
246.7590, 628.6999
247.2411, 628.0826
247.7233, 629.5665
248.2054, 634.2265
248.6875, 636.8920
249.1696, 636.6615
249.6517, 635.0360
250.1338, 634.4094
250.6160, 635.0823
251.0981, 636.2380
251.5802, 637.7598
252.0623, 639.8287
252.5444, 641.3538
253.0265, 642.0676
253.5087, 642.4538
253.9908, 643.2167
254.4729, 644.6100
254.9550, 645.8831
255.4371, 646.8038
255.9192, 647.3190
256.4014, 647.8746
256.8835, 648.5473
257.3656, 649.1838
257.8477, 649.5111
258.3298, 649.1625
258.8120, 649.3497
259.2941, 650.5663
259.7762, 652.9088
260.2583, 654.6410
260.7404, 655.5859
261.2225, 656.1412
261.7047, 656.5732
262.1868, 656.4645
262.6689, 657.3925
263.1510, 660.2802
263.6331, 664.9957
264.1152, 667.4807
264.5974, 666.8615
265.0795, 665.3259
265.5616, 664.9288
266.0437, 665.8873
266.5258, 667.3367
267.0079, 669.4604
267.4901, 672.0898
267.9722, 673.4569
268.4543, 673.4054
268.9364, 672.4733
269.4185, 670.7706
269.9006, 667.8958
270.3828, 666.0658
270.8649, 665.7541
271.3470, 666.7175
271.8291, 667.9170
272.3112, 669.4941
272.7933, 670.9282
273.2755, 671.6673
273.7576, 671.5336
274.2397, 671.8500
274.7218, 672.8387
275.2039, 674.3127
275.6860, 675.6717
276.1682, 676.8411
276.6503, 678.2239
277.1324, 680.3621
277.6145, 683.3678
278.0966, 685.4555
278.5787, 686.2884
279.0609, 686.4124
279.5430, 686.9820
280.0251, 688.0513
280.5072, 689.3504
280.9893, 691.0449
281.4715, 693.1241
281.9536, 694.1321
282.4357, 693.7748
282.9178, 692.7764
283.3999, 692.6328
283.8820, 693.4216
284.3642, 693.4397
284.8463, 691.3768
285.3284, 687.4438
285.8105, 684.3854
286.2926, 682.2333
286.7747, 680.7708
287.2569, 680.2348
287.7390, 680.5492
288.2211, 679.8908
288.7032, 676.8923
289.1853, 672.2169
289.6674, 668.9426
290.1496, 667.2133
290.6317, 665.8621
291.1138, 663.4631
291.5959, 660.1810
292.0780, 657.1995
292.5602, 654.8947
293.0423, 653.1462
293.5244, 651.8649
294.0065, 651.0909
294.4886, 650.1044
294.9707, 647.9847
295.4529, 645.0303
295.9350, 642.3582
296.4171, 640.2508
296.8992, 638.5535
297.3813, 636.9861
297.8634, 635.5698
298.3456, 634.4836
298.8277, 634.7811
299.3098, 635.4815
299.7919, 634.0640
300.2740, 629.1309
300.7561, 623.4668
301.2383, 621.0181
301.7204, 621.2336
302.2025, 621.7888
302.6846, 621.0455
303.1667, 619.7565
303.6488, 619.2186
304.1310, 619.9140
304.6131, 620.4951
305.0952, 619.0773
305.5773, 616.3824
306.0594, 614.3703
306.5415, 614.7080
307.0237, 615.9225
307.5058, 616.5310
307.9879, 616.3754
308.4700, 615.6964
308.9521, 614.1926
309.4343, 612.3343
309.9164, 610.9149
310.3985, 610.3790
310.8806, 610.3271
311.3627, 610.6034
311.8448, 611.2050
312.3270, 611.6906
312.8091, 611.9695
313.2912, 611.9313
313.7733, 611.4462
314.2554, 609.7506
314.7375, 608.2183
315.2197, 607.7220
315.7018, 608.1496
316.1839, 608.5521
316.6660, 608.6796
317.1481, 608.5095
317.6302, 607.9705
318.1124, 606.0774
318.5945, 605.0129
319.0766, 606.1782
319.5587, 608.9176
320.0408, 610.9708
320.5229, 611.5482
321.0051, 611.3010
321.4872, 610.4852
321.9693, 608.6772
322.4514, 607.1940
322.9335, 605.9437
323.4156, 605.2218
323.8978, 605.5974
324.3799, 609.1141
324.8620, 612.0546
325.3441, 612.8885
325.8262, 610.7379
326.3083, 608.8941
326.7905, 607.4760
327.2726, 606.5340
327.7547, 606.1452
328.2368, 606.9570
328.7189, 607.6378
329.2010, 607.6807
329.6832, 606.9376
330.1653, 607.2579
330.6474, 610.2291
331.1295, 613.1204
331.6116, 613.5771
332.0938, 609.2374
332.5759, 606.2148
333.0580, 605.4863
333.5401, 606.8030
334.0222, 608.5324
334.5043, 611.5215
334.9865, 613.7762
335.4686, 613.7059
335.9507, 609.6766
336.4328, 607.9326
336.9149, 609.6868
337.3970, 613.4970
337.8792, 615.3650
338.3613, 614.7648
338.8434, 613.8063
339.3255, 613.5026
339.8076, 614.0067
340.2898, 613.9435
340.7719, 613.1426
341.2540, 612.0866
341.7361, 611.3026
342.2182, 610.7576
342.7003, 611.0169
343.1825, 612.8788
343.6646, 615.8951
344.1467, 616.5400
344.6288, 614.4312
345.1109, 611.9026
345.5930, 611.4609
346.0752, 612.9122
346.5573, 614.1951
347.0394, 614.6052
347.5215, 614.7181
348.0036, 616.0193
348.4857, 618.4746
348.9679, 621.0067
349.4500, 623.2430
349.9321, 624.9696
350.4142, 625.2136
350.8963, 623.2505
351.3784, 621.2685
351.8606, 622.8723
352.3427, 627.1514
352.8248, 630.7770
353.3069, 631.0139
353.7890, 629.7820
354.2711, 629.8451
354.7533, 631.5419
355.2354, 633.3619
355.7175, 634.0817
356.1996, 634.0219
356.6817, 633.7399
357.1638, 633.1584
357.6460, 632.6669
358.1281, 632.7845
358.6102, 633.4388
359.0923, 633.7180
359.5744, 632.7112
360.0565, 631.2489
360.5387, 630.1174
361.0208, 629.3839
361.5029, 629.2094
361.9850, 630.3405
362.4671, 632.2209
362.9492, 633.1153
363.4314, 631.0047
363.9135, 628.7783
364.3956, 628.1643
364.8777, 630.1632
365.3598, 631.9532
365.8419, 632.7615
366.3241, 633.0483
366.8062, 633.4951
367.2883, 634.7790
367.7704, 635.6686
368.2526, 635.6433
368.7347, 634.4578
369.2168, 633.7119
369.6989, 633.1143
370.1810, 633.1472
370.6631, 634.2942
371.1453, 637.9673
371.6274, 640.6332
372.1095, 641.5320
372.5916, 640.9703
373.0737, 640.9201
373.5558, 641.3405
374.0380, 642.3258
374.5201, 644.0472
375.0022, 646.7551
375.4843, 649.3805
375.9664, 652.1146
376.4485, 654.5497
376.9307, 655.6256
377.4128, 654.9033
377.8949, 654.6484
378.3770, 655.9613
378.8591, 658.7407
379.3412, 661.2245
379.8234, 663.4195
380.3055, 665.2195
380.7876, 666.0728
381.2697, 666.0818
381.7518, 666.9617
382.2339, 669.4225
382.7161, 672.8361
383.1982, 675.7978
383.6803, 678.3011
384.1624, 680.8325
384.6445, 683.4477
385.1266, 686.3507
385.6088, 690.1548
386.0909, 695.0818
386.5730, 700.4778
387.0551, 705.4341
387.5372, 710.1444
388.0193, 715.2685
388.5015, 721.1260
388.9836, 727.5291
389.4657, 734.4226
389.9478, 741.8154
390.4299, 749.2005
390.9120, 755.7770
391.3942, 762.3016
391.8763, 769.6210
392.3584, 778.6953
392.8405, 788.0049
393.3226, 796.5443
393.8047, 804.5659
394.2869, 813.2208
394.7690, 823.2922
395.2511, 833.9117
395.7332, 844.5224
396.2154, 854.8312
396.6975, 865.5255
397.1796, 876.8263
397.6617, 888.7112
398.1438, 901.0321
398.6259, 912.9678
399.1081, 926.2159
399.5902, 941.6846
400.0723, 959.7960
400.5544, 977.1554
401.0365, 992.4596
401.5186, 1008.028
402.0008, 1025.749
402.4829, 1047.471
402.9650, 1068.005
403.4471, 1086.622
403.9292, 1103.681
404.4113, 1120.314
404.8935, 1136.810
405.3756, 1152.447
405.8577, 1167.145
406.3398, 1180.949
406.8219, 1193.074
407.3040, 1204.375
407.7862, 1212.422
408.2683, 1213.041
408.7504, 1206.095
409.2325, 1196.961
409.7146, 1187.025
410.1967, 1176.467
410.6789, 1165.311
411.1610, 1153.583
411.6431, 1140.867
412.1252, 1126.645
412.6073, 1111.219
413.0894, 1095.215
413.5716, 1078.593
414.0537, 1062.559
414.5358, 1048.870
415.0179, 1037.243
415.5000, 1026.300
415.9821, 1015.008
416.4643, 1004.293
416.9464, 995.5273
417.4285, 988.9597
417.9106, 982.4114
418.3927, 974.2640
418.8748, 965.3674
419.3570, 956.8856
419.8391, 948.6873
420.3212, 941.3861
420.8033, 935.4401
421.2854, 930.6733
421.7675, 926.1013
422.2497, 921.6673
422.7318, 917.1866
423.2139, 912.5175
423.6960, 907.2661
424.1781, 902.7186
424.6602, 898.9042
425.1424, 895.9453
425.6245, 894.1135
426.1066, 894.7571
426.5887, 894.7978
427.0709, 893.0402
427.5530, 889.4813
428.0351, 888.0769
428.5172, 889.7645
428.9993, 892.2857
429.4814, 894.1612
429.9636, 895.4044
430.4457, 895.8913
430.9278, 895.5307
431.4099, 894.4803
431.8920, 892.9352
432.3741, 890.8054
432.8563, 888.7662
433.3384, 887.2148
433.8205, 886.0486
434.3026, 884.7924
434.7847, 883.5042
435.2668, 881.6472
435.7490, 878.6648
436.2311, 874.6408
436.7132, 869.8225
437.1953, 863.7440
437.6774, 857.6398
438.1595, 853.2137
438.6417, 850.2028
439.1238, 847.5156
439.6059, 844.5380
440.0880, 841.5336
440.5701, 838.7950
441.0522, 836.3651
441.5344, 834.0733
442.0165, 832.0417
442.4986, 830.0135
442.9807, 827.6821
443.4628, 824.3237
443.9449, 821.2504
444.4271, 819.2697
444.9092, 818.1504
445.3913, 816.5482
445.8734, 813.0081
446.3555, 809.7937
446.8376, 808.0270
447.3198, 808.0641
447.8019, 809.0700
448.2840, 812.3638
448.7661, 816.0271
449.2482, 817.2096
449.7303, 814.0248
450.2125, 811.5505
450.6946, 810.9415
451.1767, 812.0916
451.6588, 813.4483
452.1409, 815.1737
452.6230, 816.7669
453.1052, 817.7404
453.5873, 818.0358
454.0694, 818.6168
454.5515, 819.5818
455.0337, 820.8004
455.5158, 821.9096
455.9979, 822.9543
456.4800, 824.4875
456.9621, 826.8606
457.4442, 829.8657
457.9264, 832.9150
458.4085, 836.0153
458.8906, 839.7451
459.3727, 844.8131
459.8548, 850.7472
460.3369, 856.5936
460.8191, 861.9648
461.3012, 867.8344
461.7833, 875.5549
462.2654, 884.3605
462.7475, 892.6180
463.2296, 900.7672
463.7118, 907.3363
464.1939, 911.5566
464.6760, 913.4130
465.1581, 913.2139
465.6402, 910.8547
466.1223, 906.5818
466.6045, 900.5750
467.0866, 892.6174
467.5687, 883.2125
468.0508, 871.3378
468.5329, 858.0792
469.0150, 845.5999
469.4972, 833.7865
469.9793, 823.1712
470.4614, 814.2922
470.9435, 807.2558
471.4256, 799.7258
471.9077, 791.1496
472.3899, 783.2092
472.8720, 777.6422
473.3541, 774.5675
473.8362, 771.7641
474.3183, 768.8548
474.8004, 766.1285
475.2826, 764.3734
475.7647, 763.5142
476.2468, 762.5080
476.7289, 760.8021
477.2110, 758.5609
477.6931, 755.9776
478.1753, 753.0443
478.6574, 750.4088
479.1395, 748.4711
479.6216, 747.2063
480.1037, 746.7380
480.5858, 747.7005
481.0680, 748.3342
481.5501, 746.5731
482.0322, 743.6321
482.5143, 742.0615
482.9964, 744.2106
483.4786, 746.8050
483.9607, 748.6166
484.4428, 749.5666
484.9249, 749.2883
485.4070, 747.1116
485.8892, 744.0659
486.3713, 740.8055
486.8534, 736.1671
487.3355, 733.1776
487.8176, 732.8724
488.2997, 733.9352
488.7819, 733.5175
489.2640, 731.1296
489.7461, 728.3090
490.2282, 725.4565
490.7103, 722.5500
491.1924, 719.6918
491.6746, 716.8197
492.1567, 714.1452
492.6388, 711.9550
493.1209, 710.1708
493.6030, 708.4969
494.0851, 706.9877
494.5673, 705.2213
495.0494, 702.3845
495.5315, 698.7136
496.0136, 695.1732
496.4957, 691.5380
496.9778, 688.6494
497.4600, 687.8665
497.9421, 688.9861
498.4242, 689.9274
498.9063, 689.4467
499.3884, 688.2495
499.8705, 686.9177
500.3527, 685.5816
500.8348, 684.0970
501.3169, 681.9443
501.7990, 679.7680
502.2811, 678.4700
502.7632, 679.2348
503.2454, 679.8234
503.7275, 679.5696
504.2096, 678.5859
504.6917, 678.1205
505.1738, 678.6339
505.6559, 679.0637
506.1381, 678.7338
506.6202, 677.3050
507.1023, 676.6343
507.5844, 677.0060
508.0665, 677.6404
508.5486, 677.3555
509.0308, 676.1222
509.5129, 675.1116
509.9950, 674.5869
510.4771, 674.4808
510.9592, 674.9470
511.4413, 675.8777
511.9235, 676.3748
512.4056, 675.3101
512.8877, 673.6478
513.3698, 672.7869
513.8519, 672.8430
514.3340, 673.4459
514.8162, 674.7670
515.2983, 676.3189
515.7804, 677.5453
516.2625, 678.6205
516.7446, 678.9258
517.2267, 677.4250
517.7089, 674.9577
518.1910, 673.5901
518.6731, 675.0783
519.1552, 676.5227
519.6373, 676.8518
520.1194, 675.9666
520.6016, 675.0165
521.0837, 673.4023
521.5658, 672.3891
522.0479, 673.1613
522.5300, 676.4363
523.0121, 678.7990
523.4943, 679.8767
523.9764, 680.1302
524.4585, 680.1304
524.9406, 679.8591
525.4227, 680.1458
525.9048, 681.8068
526.3870, 683.9769
526.8691, 684.0476
527.3513, 682.1751
527.8334, 680.6854
528.3155, 681.4509
528.7976, 683.5671
529.2797, 685.9423
529.7618, 688.5734
530.2440, 690.6962
530.7261, 691.3951
531.2082, 691.3643
531.6903, 691.4797
532.1724, 691.4435
532.6545, 692.2077
533.1367, 695.0348
533.6188, 699.0910
534.1009, 701.5117
534.5830, 699.2618
535.0651, 697.8269
535.5472, 699.3245
536.0294, 704.3143
536.5115, 708.3486
536.9936, 711.2547
537.4757, 713.4567
537.9578, 714.9700
538.4399, 715.5131
538.9221, 717.3787
539.4042, 721.1194
539.8863, 725.7609
540.3684, 729.7575
540.8505, 733.1268
541.3326, 736.0569
541.8148, 738.2345
542.2969, 740.2421
542.7790, 743.2484
543.2611, 747.1580
543.7432, 751.2855
544.2253, 755.6162
544.7075, 759.6932
545.1896, 762.9811
545.6717, 765.3282
546.1538, 767.3472
546.6359, 769.0866
547.1180, 770.7667
547.6002, 772.5981
548.0823, 774.3405
548.5644, 776.5745
549.0465, 779.9384
549.5286, 783.9045
550.0107, 786.9012
550.4929, 788.2618
550.9750, 789.6506
551.4571, 791.7092
551.9392, 794.4483
552.4213, 796.5815
552.9034, 798.1370
553.3856, 799.0371
553.8677, 799.2944
554.3498, 798.8854
554.8319, 797.3073
555.3140, 794.2849
555.7961, 790.9144
556.2783, 788.7926
556.7604, 787.5232
557.2425, 785.9587
557.7246, 783.0174
558.2067, 780.2956
558.6888, 779.9317
559.1710, 781.2512
559.6531, 781.9582
560.1352, 780.0461
560.6173, 777.8969
561.0994, 777.3298
561.5815, 778.8126
562.0637, 778.9558
562.5458, 776.0370
563.0279, 772.2187
563.5100, 769.0476
563.9921, 766.8015
564.4742, 764.7527
564.9564, 763.1642
565.4385, 761.5365
565.9206, 758.7336
566.4027, 754.3679
566.8848, 750.9005
567.3669, 749.3550
567.8491, 749.0547
568.3312, 748.0199
568.8133, 746.2670
569.2954, 744.0301
569.7775, 740.9278
570.2596, 737.6106
570.7418, 735.6605
571.2239, 735.2039
571.7060, 734.4749
572.1881, 731.4030
572.6702, 727.6589
573.1523, 725.2134
573.6345, 725.6750
574.1166, 725.5023
574.5987, 722.3143
575.0808, 717.8681
575.5629, 715.0323
576.0450, 716.8353
576.5272, 717.4185
577.0093, 714.7422
577.4914, 709.5891
577.9735, 707.2571
578.4556, 708.7891
578.9377, 711.0504
579.4199, 712.8608
579.9020, 714.2155
580.3841, 714.1740
580.8662, 712.5787
581.3483, 710.5019
581.8304, 708.6346
582.3126, 707.1381
582.7947, 706.6201
583.2768, 707.2857
583.7589, 708.6691
584.2410, 710.5135
584.7231, 712.6849
585.2053, 714.9208
585.6874, 717.5799
586.1696, 719.8138
586.6517, 721.1019
587.1338, 721.5338
587.6159, 721.5709
588.0980, 720.2238
588.5801, 719.4648
589.0623, 720.5006
589.5444, 723.7477
590.0265, 725.8618
590.5086, 726.3889
590.9907, 726.3730
591.4728, 726.5000
591.9550, 726.7255
592.4371, 727.5821
592.9192, 729.3148
593.4013, 731.2279
593.8834, 732.2916
594.3655, 732.6058
594.8477, 732.6910
595.3298, 732.5332
595.8119, 732.4769
596.2940, 732.9570
596.7761, 733.9250
597.2582, 735.2307
597.7404, 737.2352
598.2225, 739.1904
598.7046, 740.3624
599.1867, 740.7136
599.6688, 741.4753
600.1509, 743.4276
600.6331, 745.5952
601.1152, 747.3503
601.5973, 748.5272
602.0794, 749.6104
602.5615, 750.3313
603.0436, 751.2070
603.5258, 753.1086
604.0079, 756.4452
604.4900, 758.4912
604.9721, 758.4674
605.4542, 757.4417
605.9363, 757.3387
606.4185, 758.1381
606.9006, 759.6194
607.3827, 762.1790
607.8648, 765.0418
608.3469, 767.0100
608.8290, 768.1940
609.3112, 769.0958
609.7933, 769.5492
610.2754, 770.1677
610.7575, 771.3964
611.2396, 773.2680
611.7217, 775.6736
612.2039, 778.6881
612.6860, 782.1127
613.1681, 785.8890
613.6502, 790.7269
614.1323, 794.5333
614.6144, 796.8598
615.0966, 798.4661
615.5787, 800.2304
616.0608, 801.9635
616.5429, 805.2195
617.0250, 810.8212
617.5071, 817.6389
617.9893, 823.0293
618.4714, 827.1417
618.9535, 830.8788
619.4356, 834.3043
619.9177, 837.9547
620.3998, 842.8268
620.8820, 848.7868
621.3641, 854.5228
621.8462, 859.0641
622.3283, 863.3502
622.8104, 868.1326
623.2925, 873.7742
623.7747, 878.8997
624.2568, 883.2010
624.7389, 886.8900
625.2210, 890.0833
625.7031, 892.4711
626.1852, 895.0759
626.6674, 898.1308
627.1495, 901.1740
627.6316, 903.2999
628.1137, 904.4691
628.5958, 905.8019
629.0779, 908.0013
629.5601, 910.1276
630.0422, 910.0753
630.5243, 908.1800
631.0064, 905.9915
631.4885, 904.7225
631.9706, 903.3372
632.4528, 901.5367
632.9349, 899.1253
633.4170, 894.1671
633.8991, 884.1246
634.3812, 872.5636
634.8633, 861.3412
635.3455, 850.7185
635.8276, 840.6666
636.3097, 832.1015
636.7918, 823.2511
637.2739, 812.0432
637.7560, 797.3128
638.2382, 785.3751
638.7203, 777.1879
639.2024, 771.2280
639.6845, 765.5770
640.1666, 760.1381
640.6487, 754.2881
641.1309, 747.1805
641.6130, 740.3565
642.0951, 736.2499
642.5772, 734.2823
643.0594, 733.0277
643.5415, 732.4053
644.0236, 731.7152
644.5057, 730.2397
644.9879, 728.1161
645.4700, 726.7255
645.9521, 728.0303
646.4342, 728.6221
646.9163, 726.7225
647.3984, 721.7654
647.8806, 718.2093
648.3627, 716.3951
648.8448, 715.3288
649.3269, 714.2809
649.8090, 713.2620
650.2911, 712.2958
650.7733, 711.3368
651.2554, 710.6127
651.7375, 710.3603
652.2196, 710.5443
652.7017, 711.1235
653.1838, 712.2698
653.6660, 713.4207
654.1481, 714.1743
654.6302, 714.6070
655.1123, 714.8682
655.5944, 714.8005
656.0765, 714.7510
656.5587, 714.8522
657.0408, 715.0501
657.5229, 715.0860
658.0050, 714.6439
658.4871, 714.5847
658.9692, 715.4850
659.4514, 717.1674
659.9335, 717.4037
660.4156, 716.0060
660.8977, 714.7123
661.3798, 715.2073
661.8619, 716.7382
662.3441, 717.1953
662.8262, 716.4425
663.3083, 715.4252
