##NAMES=Bobfergusonite
##RRUFFID=R160069
##IDEAL CHEMISTRY=[box]Na_2_Mn^2+^_5_Fe^3+^Al(PO_4_)_6_
##LOCALITY=Nancy Pegmatite, Chacabuco Dept, San Luis, Argentina
##OWNER=RRUFF
##SOURCE=Thomas A. Loomis
##DESCRIPTION=Dark brown massive, associated with dark green dicksonite (R160071)
##STATUS=The identification of this mineral has been confirmed only by single crystal X-ray diffraction.
##URL=rruff.info/R160069
##MEASURED CHEMISTRY=(Na_1.64_Ca_0.16_)_Σ1.82_(Mn_3.27_Fe^2+^_1.03_Mg_0.69_)_Σ4.99_Fe^3+^_1.00_(Al_0.59_Fe^3+^_0.41_)_Σ1.00_(PO_4_)_6_  ; Grey phase. Lighter grey phase is dickinsonite (R160071).
91.83966, 1304.591
92.32178, 1281.366
92.80389, 1255.468
93.28601, 1230.979
93.76813, 1209.346
94.25024, 1190.398
94.73236, 1173.270
95.21448, 1159.124
95.69659, 1141.996
96.17871, 1124.833
96.66083, 1108.878
97.14294, 1094.459
97.62506, 1081.349
98.10718, 1069.334
98.58929, 1059.278
99.07141, 1052.551
99.55353, 1045.597
100.0356, 1036.672
100.5178, 1025.976
100.9999, 1014.990
101.4820, 1004.671
101.9641, 995.0190
102.4462, 987.3405
102.9283, 982.7498
103.4105, 979.2161
103.8926, 974.2390
104.3747, 966.9879
104.8568, 960.1443
105.3389, 957.4484
105.8210, 958.1077
106.3032, 958.7082
106.7853, 958.6233
107.2674, 957.5197
107.7495, 953.4822
108.2316, 943.4951
108.7137, 932.9123
109.1959, 925.2913
109.6780, 920.7964
110.1601, 918.0323
110.6422, 915.8798
111.1243, 914.6589
111.6064, 912.8344
112.0886, 909.9063
112.5707, 906.5565
113.0528, 903.1899
113.5349, 899.9353
114.0170, 896.7250
114.4991, 893.4551
114.9813, 890.5775
115.4634, 886.9680
115.9455, 882.0822
116.4276, 876.5984
116.9097, 871.3998
117.3918, 866.9859
117.8740, 863.1712
118.3561, 858.6633
118.8382, 852.3979
119.3203, 846.6868
119.8024, 842.5106
120.2845, 839.5904
120.7667, 836.8517
121.2488, 833.3046
121.7309, 829.3378
122.2130, 826.9706
122.6951, 828.4846
123.1772, 830.1974
123.6594, 828.4117
124.1415, 822.5432
124.6236, 816.0856
125.1057, 811.4073
125.5878, 808.0172
126.0699, 805.4108
126.5521, 803.7403
127.0342, 802.7307
127.5163, 801.5286
127.9984, 800.0632
128.4805, 798.4963
128.9626, 796.9328
129.4448, 795.3543
129.9269, 793.7356
130.4090, 792.2380
130.8911, 790.9529
131.3732, 788.7252
131.8553, 783.9358
132.3375, 779.5013
132.8196, 776.7893
133.3017, 775.6837
133.7838, 775.0661
134.2659, 773.5822
134.7480, 770.7621
135.2302, 768.2342
135.7123, 765.8505
136.1944, 763.8001
136.6765, 762.4271
137.1586, 761.7503
137.6407, 761.2497
138.1229, 760.0050
138.6050, 757.5012
139.0871, 755.1401
139.5692, 753.3989
140.0513, 751.7263
140.5334, 749.2364
141.0156, 745.4319
141.4977, 741.0966
141.9798, 738.0150
142.4619, 736.4851
142.9440, 734.9415
143.4261, 732.4793
143.9083, 729.3856
144.3904, 726.8076
144.8725, 725.4010
145.3546, 724.6388
145.8367, 723.7044
146.3188, 722.6272
146.8010, 721.2354
147.2831, 719.2122
147.7652, 716.4644
148.2473, 713.8488
148.7294, 711.7344
149.2115, 709.8996
149.6937, 708.2573
150.1758, 706.8188
150.6579, 705.4435
151.1400, 703.8041
151.6221, 701.6658
152.1042, 699.7716
152.5864, 698.3239
153.0685, 697.1615
153.5506, 696.2634
154.0327, 695.6761
154.5148, 695.1687
154.9969, 693.6945
155.4791, 690.0167
155.9612, 686.6642
156.4433, 684.2258
156.9254, 682.3375
157.4075, 680.4254
157.8896, 678.0935
158.3718, 675.3718
158.8539, 672.9227
159.3360, 670.6355
159.8181, 668.6700
160.3002, 667.3856
160.7823, 666.5486
161.2645, 665.4612
161.7466, 663.4916
162.2287, 660.6346
162.7108, 658.5048
163.1929, 658.2043
163.6750, 657.6970
164.1572, 655.2123
164.6393, 650.8016
165.1214, 646.5587
165.6035, 644.5740
166.0856, 644.5385
166.5677, 643.7822
167.0499, 641.3605
167.5320, 638.3712
168.0141, 636.1075
168.4962, 634.7265
168.9783, 633.7567
169.4604, 633.1312
169.9426, 632.6523
170.4247, 631.8087
170.9068, 630.4304
171.3889, 628.5445
171.8710, 626.0769
172.3531, 622.5159
172.8353, 619.2347
173.3174, 617.1526
173.7995, 615.9324
174.2816, 614.8223
174.7637, 613.4192
175.2458, 611.7207
175.7280, 609.7020
176.2101, 606.7709
176.6922, 604.1205
177.1743, 602.3323
177.6564, 601.2485
178.1385, 600.3507
178.6207, 599.2469
179.1028, 597.9510
179.5849, 596.3517
180.0670, 594.0118
180.5491, 591.7541
181.0313, 589.9824
181.5134, 588.6360
181.9955, 587.3770
182.4776, 585.8155
182.9597, 583.8229
183.4418, 582.0032
183.9240, 580.4860
184.4061, 579.0009
184.8882, 577.3530
185.3703, 575.5421
185.8524, 573.7277
186.3345, 572.0744
186.8167, 570.5395
187.2988, 569.4347
187.7809, 569.6344
188.2630, 569.7096
188.7451, 568.1151
189.2272, 564.5917
189.7094, 560.7225
190.1915, 558.6429
190.6736, 558.7882
191.1557, 558.6094
191.6378, 557.6377
192.1199, 556.2867
192.6021, 555.0323
193.0842, 553.9781
193.5663, 553.0287
194.0484, 552.1077
194.5305, 551.2109
195.0126, 550.2924
195.4948, 549.3057
195.9769, 548.2900
196.4590, 547.2432
196.9411, 546.0203
197.4232, 545.0800
197.9053, 545.0827
198.3875, 545.8889
198.8696, 546.5431
199.3517, 546.4212
199.8338, 545.6900
200.3159, 545.1047
200.7980, 544.8835
201.2802, 544.6948
201.7623, 544.2324
202.2444, 543.5521
202.7265, 542.9562
203.2086, 542.8292
203.6907, 543.1506
204.1729, 543.0498
204.6550, 542.0975
205.1371, 541.0131
205.6192, 540.2069
206.1013, 539.6328
206.5834, 538.9932
207.0656, 537.8466
207.5477, 536.0265
208.0298, 534.8338
208.5119, 534.9169
208.9940, 535.1340
209.4761, 535.0823
209.9583, 534.7288
210.4404, 534.2357
210.9225, 533.7721
211.4046, 533.3688
211.8867, 532.8561
212.3689, 532.1382
212.8510, 531.4013
213.3331, 530.6691
213.8152, 529.9825
214.2973, 529.4355
214.7794, 529.1495
215.2616, 529.2020
215.7437, 529.2553
216.2258, 529.4924
216.7079, 529.5901
217.1900, 529.2590
217.6721, 528.5397
218.1543, 527.7874
218.6364, 527.4460
219.1185, 527.7489
219.6006, 527.4836
220.0827, 525.9307
220.5648, 524.4005
221.0470, 523.8458
221.5291, 524.3329
222.0112, 525.2354
222.4933, 525.9802
222.9754, 526.5754
223.4575, 526.7106
223.9397, 525.9704
224.4218, 525.0555
224.9039, 524.5304
225.3860, 524.4604
225.8681, 524.5241
226.3502, 524.3997
226.8324, 524.0739
227.3145, 523.8716
227.7966, 524.1451
228.2787, 524.3599
228.7608, 523.7780
229.2429, 522.2817
229.7251, 520.9365
230.2072, 521.0012
230.6893, 522.1912
231.1714, 522.7595
231.6535, 522.0286
232.1356, 520.7402
232.6178, 519.6484
233.0999, 518.7771
233.5820, 518.2538
234.0641, 518.5833
234.5462, 519.3641
235.0283, 519.6376
235.5105, 518.6648
235.9926, 517.2483
236.4747, 516.6596
236.9568, 517.1265
237.4389, 517.5591
237.9210, 517.1853
238.4032, 516.3185
238.8853, 515.3325
239.3674, 514.2422
239.8495, 513.1769
240.3316, 512.3827
240.8137, 511.9585
241.2959, 511.5249
241.7780, 511.0237
242.2601, 510.3682
242.7422, 509.3764
243.2243, 507.8675
243.7064, 506.1359
244.1886, 504.6822
244.6707, 503.4909
245.1528, 502.6569
245.6349, 502.6755
246.1170, 502.8553
246.5991, 502.4559
247.0813, 501.1590
247.5634, 499.2851
248.0455, 497.3828
248.5276, 495.3904
249.0097, 493.5610
249.4918, 491.8870
249.9740, 490.4183
250.4561, 489.2475
250.9382, 488.4263
251.4203, 487.7712
251.9024, 486.8991
252.3845, 485.6288
252.8667, 484.5443
253.3488, 483.8927
253.8309, 483.3357
254.3130, 482.6057
254.7951, 481.6201
255.2772, 480.4636
255.7594, 479.2563
256.2415, 477.8521
256.7236, 476.7146
257.2057, 476.0296
257.6878, 475.4688
258.1699, 474.7778
258.6520, 473.9019
259.1342, 472.9729
259.6163, 472.1997
260.0984, 471.5927
260.5805, 471.1363
261.0626, 471.0022
261.5447, 470.8642
262.0269, 470.5462
262.5090, 469.9999
262.9911, 469.2335
263.4732, 468.2358
263.9553, 466.8732
264.4374, 465.6332
264.9196, 464.3838
265.4017, 463.3271
265.8838, 462.7280
266.3659, 462.5184
266.8480, 462.3078
267.3301, 461.6452
267.8123, 460.3860
268.2944, 459.2755
268.7765, 458.4104
269.2586, 457.5799
269.7407, 456.5669
270.2228, 455.4415
270.7050, 454.5020
271.1871, 454.0372
271.6692, 454.0984
272.1513, 454.1850
272.6334, 454.3841
273.1155, 454.5211
273.5977, 454.4899
274.0798, 454.3199
274.5619, 454.1179
275.0440, 453.9620
275.5261, 453.8508
276.0082, 453.7097
276.4904, 453.6861
276.9725, 453.4946
277.4546, 452.8243
277.9367, 451.8899
278.4188, 451.2645
278.9009, 451.3829
279.3831, 452.0421
279.8652, 451.8864
280.3473, 450.1580
280.8294, 448.6518
281.3115, 448.1092
281.7936, 448.1165
282.2758, 447.8195
282.7579, 446.7565
283.2400, 445.2695
283.7221, 444.4473
284.2042, 444.7831
284.6863, 444.9586
285.1685, 444.6346
285.6506, 444.0053
286.1327, 443.3106
286.6148, 442.6202
287.0969, 442.0070
287.5790, 441.6862
288.0612, 441.9224
288.5433, 441.7644
289.0254, 440.6522
289.5075, 439.2213
289.9896, 438.3604
290.4717, 438.3181
290.9539, 438.4929
291.4360, 438.0260
291.9181, 436.7560
292.4002, 435.6088
292.8823, 434.7606
293.3644, 434.0194
293.8466, 433.1512
294.3287, 432.1162
294.8108, 431.1432
295.2929, 430.4937
295.7750, 430.2001
296.2571, 429.7600
296.7393, 428.9777
297.2214, 428.1619
297.7035, 427.6212
298.1856, 427.3451
298.6677, 427.0337
299.1498, 426.4923
299.6320, 425.6943
300.1141, 424.7222
300.5962, 423.3819
301.0783, 422.0405
301.5604, 420.8626
302.0425, 419.8586
302.5247, 419.0949
303.0068, 418.7072
303.4889, 418.5397
303.9710, 418.0323
304.4531, 416.9945
304.9352, 415.9238
305.4174, 415.1515
305.8995, 414.5315
306.3816, 413.5768
306.8637, 411.9448
307.3458, 410.1316
307.8279, 409.3028
308.3101, 409.7871
308.7922, 410.0513
309.2743, 409.4855
309.7564, 408.4046
310.2385, 407.3957
310.7206, 406.6407
311.2028, 405.8517
311.6849, 404.4272
312.1670, 402.2523
312.6491, 400.6267
313.1312, 400.1974
313.6133, 400.2625
314.0955, 399.9875
314.5776, 399.2364
315.0597, 398.3170
315.5418, 397.5242
316.0239, 396.8488
316.5060, 396.0856
316.9882, 395.0517
317.4703, 394.0414
317.9524, 393.3181
318.4345, 392.8816
318.9166, 392.5619
319.3987, 392.3152
319.8809, 392.0855
320.3630, 391.6190
320.8451, 390.5172
321.3272, 389.5644
321.8093, 389.4982
322.2914, 390.0273
322.7736, 390.0353
323.2557, 388.8658
323.7378, 386.9672
324.2199, 385.5387
324.7020, 384.8048
325.1841, 384.0327
325.6663, 382.8153
326.1484, 381.4049
326.6305, 380.2855
327.1126, 379.6092
327.5947, 379.2669
328.0768, 379.2029
328.5590, 379.5343
329.0411, 379.5425
329.5232, 378.8783
330.0053, 377.9225
330.4874, 376.9991
330.9695, 376.1662
331.4517, 375.6725
331.9338, 375.9117
332.4159, 376.9791
332.8980, 377.5846
333.3801, 377.4152
333.8622, 376.9795
334.3444, 376.5944
334.8265, 376.2827
335.3086, 376.0100
335.7907, 375.7738
336.2729, 375.5526
336.7550, 375.1995
337.2371, 374.5226
337.7192, 373.9244
338.2013, 373.5718
338.6834, 373.4285
339.1656, 373.4112
339.6477, 373.4886
340.1298, 373.6522
340.6119, 373.9139
341.0940, 374.5333
341.5761, 374.7896
342.0583, 374.2377
342.5404, 373.3638
343.0225, 372.7738
343.5046, 372.6400
343.9867, 372.8021
344.4688, 373.0767
344.9510, 373.5702
345.4331, 373.8400
345.9152, 373.7365
346.3973, 373.5124
346.8794, 373.3443
347.3615, 373.2528
347.8437, 373.1654
348.3258, 372.9739
348.8079, 372.6637
349.2900, 372.8178
349.7721, 374.0112
350.2542, 375.0067
350.7364, 375.0674
351.2185, 374.5215
351.7006, 374.2282
352.1827, 374.7137
352.6648, 375.7319
353.1469, 376.2611
353.6291, 375.8637
354.1112, 375.5292
354.5933, 375.3838
355.0754, 375.3515
355.5575, 375.2884
356.0396, 375.1566
356.5218, 375.1339
357.0039, 375.5691
357.4860, 376.9617
357.9681, 377.7047
358.4502, 377.3152
358.9323, 376.7089
359.4145, 376.5540
359.8966, 376.8515
360.3787, 377.1162
360.8608, 376.8480
361.3429, 375.9790
361.8250, 375.3996
362.3072, 375.0712
362.7893, 375.0494
363.2714, 375.6266
363.7535, 376.5028
364.2356, 377.1324
364.7177, 377.1828
365.1999, 376.8142
365.6820, 376.6777
366.1641, 377.0675
366.6462, 377.2860
367.1283, 377.5013
367.6104, 377.4014
368.0926, 376.4789
368.5747, 374.6535
369.0568, 372.6120
369.5389, 371.4532
370.0210, 371.5103
370.5031, 371.4978
370.9853, 371.5731
371.4674, 371.4218
371.9495, 370.7075
372.4316, 369.5563
372.9137, 368.4777
373.3958, 367.9870
373.8780, 368.0360
374.3601, 367.5553
374.8422, 366.0923
375.3243, 364.6410
375.8064, 363.2026
376.2885, 362.0489
376.7707, 361.6969
377.2528, 362.5265
377.7349, 363.8306
378.2170, 364.0669
378.6991, 362.9189
379.1812, 361.6209
379.6634, 360.2771
380.1455, 359.0234
380.6276, 358.0592
381.1097, 357.4057
381.5918, 356.7166
382.0739, 355.4976
382.5561, 353.7797
383.0382, 352.5292
383.5203, 352.0343
384.0024, 351.8353
384.4845, 351.8652
384.9666, 351.9576
385.4488, 351.6264
385.9309, 350.3486
386.4130, 348.5576
386.8951, 347.1815
387.3772, 346.2533
387.8593, 345.6131
388.3415, 345.4435
388.8236, 345.4299
389.3057, 345.1796
389.7878, 344.6123
390.2699, 343.8188
390.7520, 342.7017
391.2342, 341.3310
391.7163, 340.3170
392.1984, 339.9466
392.6805, 339.8561
393.1626, 339.5905
393.6447, 339.1528
394.1269, 338.7286
394.6090, 338.4894
395.0911, 338.2752
395.5732, 337.7443
396.0553, 336.8301
396.5374, 336.0016
397.0196, 335.7279
397.5017, 335.9182
397.9838, 335.8911
398.4659, 335.3293
398.9480, 334.8038
399.4301, 334.6818
399.9123, 334.8942
400.3944, 335.2483
400.8765, 335.7225
401.3586, 336.1593
401.8407, 336.1218
402.3228, 335.3876
402.8050, 334.7532
403.2871, 334.3463
403.7692, 334.1136
404.2513, 334.0173
404.7334, 334.0433
405.2155, 334.1702
405.6977, 334.4318
406.1798, 334.9061
406.6619, 334.8594
407.1440, 333.6999
407.6261, 332.6776
408.1082, 332.6182
408.5904, 333.1497
409.0725, 333.3113
409.5546, 332.5196
410.0367, 331.1208
410.5188, 330.3999
411.0009, 331.3077
411.4831, 331.6356
411.9652, 330.7130
412.4473, 329.5202
412.9294, 329.0620
413.4115, 329.4699
413.8936, 329.9644
414.3758, 329.5228
414.8579, 327.9016
415.3400, 326.6999
415.8221, 326.0456
416.3042, 325.7140
416.7863, 325.7903
417.2685, 326.1294
417.7506, 326.5172
418.2327, 326.8625
418.7148, 327.1000
419.1969, 326.9936
419.6790, 326.3881
420.1612, 325.7909
420.6433, 325.4241
421.1254, 325.0546
421.6075, 324.4201
422.0896, 323.4819
422.5717, 322.5747
423.0539, 321.9786
423.5360, 321.6915
424.0181, 321.7505
424.5002, 322.4100
424.9823, 323.0454
425.4644, 323.1939
425.9466, 323.0027
426.4287, 322.8474
426.9108, 323.0014
427.3929, 323.1811
427.8750, 322.8886
428.3571, 322.0946
428.8393, 321.4470
429.3214, 321.3141
429.8035, 321.4435
430.2856, 321.4170
430.7677, 321.2525
431.2498, 320.8709
431.7320, 320.0811
432.2141, 319.0761
432.6962, 318.2304
433.1783, 317.6208
433.6604, 317.1062
434.1425, 316.4883
434.6247, 315.7778
435.1068, 315.4644
435.5889, 315.8680
436.0710, 316.4005
436.5531, 316.9817
437.0352, 317.4223
437.5174, 317.0760
437.9995, 315.4829
438.4816, 313.2905
438.9637, 312.2517
439.4458, 313.1856
439.9279, 314.0807
440.4101, 315.2180
440.8922, 316.0474
441.3743, 315.8889
441.8564, 314.7739
442.3385, 313.4870
442.8206, 312.7882
443.3028, 312.7072
443.7849, 312.7278
444.2670, 313.0678
444.7491, 313.2697
445.2312, 313.0844
445.7133, 312.7296
446.1955, 312.5214
446.6776, 312.5972
447.1597, 312.8403
447.6418, 313.0436
448.1239, 313.1988
448.6060, 313.3347
449.0882, 313.3203
449.5703, 313.3962
450.0524, 313.7045
450.5345, 314.2322
451.0166, 314.8843
451.4987, 315.7298
451.9809, 316.6355
452.4630, 317.0657
452.9451, 316.8675
453.4272, 316.5999
453.9093, 316.5039
454.3914, 316.4951
454.8736, 316.4662
455.3557, 316.3651
455.8378, 316.3653
456.3199, 316.5930
456.8020, 317.0376
457.2841, 317.7591
457.7663, 318.9558
458.2484, 319.9863
458.7305, 319.8718
459.2126, 318.8189
459.6947, 318.2822
460.1768, 318.7114
460.6590, 319.5999
461.1411, 320.7675
461.6232, 322.0894
462.1053, 323.1344
462.5874, 323.6829
463.0695, 323.8177
463.5517, 323.6975
464.0338, 322.8021
464.5159, 322.6232
464.9980, 324.0388
465.4801, 325.7957
465.9622, 326.5770
466.4444, 326.3262
466.9265, 326.0905
467.4086, 326.9105
467.8907, 328.7908
468.3728, 329.9465
468.8549, 329.4361
469.3371, 329.2552
469.8192, 330.2715
470.3013, 331.6525
470.7834, 332.2916
471.2655, 331.8087
471.7477, 330.8016
472.2298, 330.1499
472.7119, 329.9319
473.1940, 329.7100
473.6761, 329.5009
474.1582, 329.2483
474.6404, 328.9008
475.1225, 328.4903
475.6046, 328.0948
476.0867, 327.7584
476.5688, 327.4587
477.0509, 327.1734
477.5331, 326.9120
478.0152, 326.5990
478.4973, 326.3121
478.9794, 325.8598
479.4615, 324.9456
479.9436, 323.5153
480.4258, 322.2015
480.9079, 321.3743
481.3900, 320.8360
481.8721, 320.2357
482.3542, 319.5287
482.8363, 318.9320
483.3185, 318.6903
483.8006, 318.6950
484.2827, 318.3429
484.7648, 317.4250
485.2469, 316.4169
485.7290, 315.4548
486.2112, 314.5128
486.6933, 313.4862
487.1754, 312.3540
487.6575, 311.3524
488.1396, 310.8058
488.6217, 310.8459
489.1039, 310.7245
489.5860, 310.3365
490.0681, 309.9278
490.5502, 309.7074
491.0323, 309.5166
491.5144, 309.0396
491.9966, 308.1154
492.4787, 306.9477
492.9608, 305.9720
493.4429, 305.2441
493.9250, 304.5468
494.4071, 303.9245
494.8893, 303.2658
495.3714, 302.4634
495.8535, 301.5577
496.3356, 300.6985
496.8177, 299.9408
497.2998, 299.3081
497.7820, 298.9571
498.2641, 298.9904
498.7462, 298.7395
499.2283, 297.7376
499.7104, 296.4233
500.1925, 295.3156
500.6747, 294.4328
501.1568, 293.8093
501.6389, 293.7689
502.1210, 293.8973
502.6031, 293.4326
503.0852, 292.2819
503.5674, 291.0072
504.0495, 289.9522
504.5316, 289.1446
505.0137, 288.7390
505.4958, 289.1694
505.9779, 289.4267
506.4601, 289.1628
506.9422, 288.5929
507.4243, 288.0119
507.9064, 287.4884
508.3885, 286.8427
508.8706, 285.7819
509.3528, 284.1677
509.8349, 283.2231
510.3170, 283.8421
510.7991, 284.1596
511.2812, 283.5192
511.7633, 282.3010
512.2454, 280.9611
512.7275, 279.6849
513.2097, 278.6337
513.6918, 278.1722
514.1739, 278.3860
514.6560, 278.4101
515.1381, 278.1634
515.6202, 277.6744
516.1024, 276.8632
516.5845, 275.8457
517.0666, 274.9174
517.5487, 274.1719
518.0308, 273.5903
518.5129, 273.2292
518.9951, 273.0576
519.4772, 272.7918
519.9593, 272.3499
520.4414, 271.7467
520.9235, 270.9536
521.4056, 269.9566
521.8878, 269.0004
522.3699, 267.9276
522.8520, 267.0600
523.3341, 266.9452
523.8162, 267.3316
524.2983, 267.2301
524.7805, 266.0196
525.2626, 264.2261
525.7447, 263.3195
526.2268, 264.2142
526.7089, 264.6165
527.1910, 264.4151
527.6732, 263.8444
528.1553, 262.8093
528.6374, 261.5050
529.1195, 260.4709
529.6016, 260.1599
530.0837, 260.3441
530.5659, 260.1045
531.0480, 259.1329
531.5301, 258.5449
532.0122, 259.1240
532.4943, 259.8997
532.9764, 260.1281
533.4586, 259.7594
533.9407, 259.2805
534.4228, 258.9155
534.9049, 258.6693
535.3870, 258.5752
535.8691, 258.6406
536.3513, 258.7654
536.8334, 258.9057
537.3155, 259.0641
537.7976, 259.2757
538.2797, 259.6670
538.7618, 259.8192
539.2440, 259.2879
539.7261, 258.6461
540.2082, 258.5531
540.6903, 259.0475
541.1724, 259.7404
541.6545, 260.3466
542.1367, 260.8716
542.6188, 261.3728
543.1009, 261.9492
543.5830, 262.3615
544.0651, 262.4381
544.5472, 262.4417
545.0294, 262.6163
545.5115, 262.9855
545.9936, 263.3950
546.4757, 263.7197
546.9578, 263.9633
547.4399, 264.1419
547.9221, 264.2125
548.4042, 264.3207
548.8863, 264.5970
549.3684, 264.9125
549.8505, 265.1228
550.3326, 265.1962
550.8148, 265.2676
551.2969, 265.2595
551.7790, 265.3490
552.2611, 266.0957
552.7432, 267.5734
553.2253, 268.6933
553.7075, 268.5652
554.1896, 267.4813
554.6717, 266.9640
555.1538, 267.0611
555.6359, 267.5461
556.1180, 268.7322
556.6002, 270.0753
557.0823, 271.0723
557.5644, 271.6327
558.0465, 271.8748
558.5286, 271.8478
559.0107, 271.6006
559.4929, 271.6241
559.9750, 272.1583
560.4571, 272.5853
560.9392, 272.7546
561.4213, 272.7990
561.9034, 272.8522
562.3856, 272.9243
562.8677, 272.8951
563.3498, 272.5611
563.8319, 272.0557
564.3140, 271.8524
564.7961, 272.0301
565.2783, 272.0812
565.7604, 271.6020
566.2425, 270.9209
566.7246, 270.7263
567.2067, 271.1967
567.6888, 271.5285
568.1710, 271.2726
568.6531, 270.8445
569.1352, 270.6505
569.6173, 270.7395
570.0994, 271.0616
570.5815, 271.5990
571.0637, 272.3191
571.5458, 273.1008
572.0279, 274.1775
572.5100, 274.9589
572.9921, 275.0576
573.4742, 275.1480
573.9564, 275.8254
574.4385, 276.9854
574.9206, 278.0253
575.4027, 278.4393
575.8848, 278.5169
576.3669, 279.1462
576.8491, 280.4753
577.3312, 281.5984
577.8133, 282.1108
578.2954, 282.4369
578.7775, 282.9701
579.2596, 283.7110
579.7418, 284.5677
580.2239, 285.5319
580.7060, 286.5811
581.1881, 287.6666
581.6702, 288.8090
582.1523, 290.1354
582.6345, 291.7400
583.1166, 293.3904
