##NAMES=Bobierrite
##RRUFFID=R060681
##IDEAL CHEMISTRY=Mg_3_(PO_4_)_2_&#183;8H_2_O
##LOCALITY=Kovdor Massif, Kola Peninsula, Murmanskaja Oblast', Northern Region, Russia
##OWNER=RRUFF
##SOURCE=Michael Scott
##DESCRIPTION=Colorless sectile tabular crystals
##STATUS=The identification of this mineral has been confirmed by X-ray diffraction and chemical analysis
##URL=rruff.info/R060681
##MEASURED CHEMISTRY=(Mg_2.94_Fe_0.05_Mn_0.01_)_Σ=3_(P_1.00_O_4_)_2_·8H_2_O; H_2_O estimated by difference
113.809, 762.912
114.291, 778.121
114.773, 795.611
115.256, 818.222
115.738, 846.136
116.220, 871.990
116.702, 889.604
117.184, 904.565
117.666, 923.575
118.148, 948.118
118.630, 978.171
119.113, 1013.850
119.595, 1056.201
120.077, 1101.212
120.559, 1143.161
121.041, 1185.443
121.523, 1236.517
122.005, 1311.402
122.487, 1393.832
122.969, 1464.800
123.451, 1515.972
123.934, 1560.550
124.416, 1604.312
124.898, 1648.607
125.380, 1704.681
125.862, 1785.117
126.344, 1883.275
126.826, 1985.330
127.309, 2081.021
127.791, 2178.453
128.273, 2288.560
128.755, 2410.948
129.237, 2549.535
129.719, 2703.270
130.201, 2874.291
130.683, 3076.360
131.165, 3311.621
131.648, 3580.334
132.130, 3881.268
132.612, 4203.114
133.094, 4578.730
133.576, 5063.438
134.058, 5652.945
134.540, 6348.932
135.022, 7199.969
135.504, 8217.788
135.987, 9200.231
136.469, 10225.720
136.951, 11186.630
137.433, 11590.580
137.915, 11385.700
138.397, 10780.300
138.879, 9892.027
139.361, 8629.180
139.844, 7428.507
140.326, 6376.137
140.808, 5462.867
141.290, 4715.011
141.772, 4149.749
142.254, 3722.428
142.736, 3382.834
143.218, 3147.347
143.700, 2962.880
144.182, 2811.715
144.665, 2700.822
145.147, 2606.983
145.629, 2528.806
146.111, 2467.981
146.593, 2432.372
147.075, 2435.176
147.557, 2449.271
148.040, 2461.563
148.522, 2456.617
149.004, 2470.874
149.486, 2508.350
149.968, 2567.865
150.450, 2638.317
150.932, 2728.093
151.414, 2824.899
151.896, 2919.623
152.378, 2986.026
152.861, 3044.053
153.343, 3063.556
153.825, 3044.839
154.307, 2971.411
154.789, 2893.706
155.271, 2771.907
155.753, 2616.938
156.235, 2445.125
156.718, 2211.338
157.200, 1972.604
157.682, 1896.969
158.164, 1858.500
158.646, 1837.679
159.128, 1830.488
159.610, 1830.032
160.092, 1835.711
160.574, 1846.438
161.057, 1861.481
161.539, 1880.350
162.021, 1904.223
162.503, 1935.018
162.985, 1971.446
163.467, 2009.611
163.949, 2047.364
164.431, 2086.214
164.913, 2127.644
165.396, 2169.296
165.878, 2216.330
166.360, 2270.942
166.842, 2333.165
167.324, 2403.147
167.806, 2478.660
168.288, 2562.843
168.770, 2659.370
169.253, 2774.438
169.735, 2899.929
170.217, 3036.490
170.699, 3184.894
171.181, 3323.499
171.663, 3445.222
172.145, 3544.777
172.627, 3617.401
173.109, 3654.797
173.592, 3666.438
174.074, 3653.351
174.556, 3609.133
175.038, 3571.716
175.520, 3566.291
176.002, 3594.685
176.484, 3661.096
176.966, 3776.165
177.449, 3930.015
177.931, 4101.831
178.413, 4284.123
178.895, 4496.519
179.377, 4744.588
179.859, 5035.562
180.341, 5400.286
180.823, 5851.631
181.305, 6394.937
181.788, 7048.248
182.270, 7885.131
182.752, 8771.887
183.234, 9564.665
183.716, 10265.900
184.198, 10650.190
184.680, 10443.070
185.162, 9733.234
185.645, 8851.325
186.127, 7800.864
186.609, 6677.694
187.091, 5744.570
187.573, 5008.001
188.055, 4427.135
188.537, 4001.028
189.019, 3720.363
189.501, 3501.004
189.984, 3317.732
190.466, 3170.616
190.948, 3072.458
191.430, 3026.427
191.912, 3015.306
192.394, 3023.092
192.876, 3049.496
193.358, 3077.814
193.840, 3092.985
194.323, 3097.844
194.805, 3130.938
195.287, 3197.810
195.769, 3284.527
196.251, 3364.628
196.733, 3436.283
197.215, 3518.814
197.697, 3619.199
198.180, 3737.335
198.662, 3883.778
199.144, 4062.918
199.626, 4266.548
200.108, 4483.393
200.590, 4717.160
201.072, 4947.199
201.554, 5166.845
202.036, 5377.573
202.519, 5559.356
203.001, 5697.398
203.483, 5807.854
203.965, 5949.483
204.447, 6118.906
204.929, 6329.542
205.411, 6585.193
205.893, 6883.545
206.376, 7244.268
206.858, 7673.200
207.340, 8167.810
207.822, 8706.897
208.304, 9283.666
208.786, 9920.238
209.268, 10630.780
209.750, 11410.970
210.232, 12265.580
210.715, 13187.980
211.197, 14178.950
211.679, 15288.660
212.161, 16542.381
212.643, 17889.359
213.125, 19310.850
213.607, 20891.750
214.089, 22338.480
214.572, 23627.141
215.054, 24772.279
215.536, 25503.529
216.018, 25819.039
216.500, 25718.740
216.982, 25153.080
217.464, 23989.189
217.946, 22662.680
218.428, 21285.490
218.911, 19803.020
219.393, 18472.971
219.875, 17305.100
220.357, 16268.870
220.839, 15321.850
221.321, 14462.280
221.803, 13700.290
222.285, 13054.810
222.768, 12580.610
223.250, 12058.530
223.732, 11481.550
224.214, 10858.840
224.696, 10178.160
225.178, 9375.956
225.660, 8627.011
226.142, 8010.185
226.624, 7541.897
227.107, 7151.454
227.589, 6835.219
228.071, 6594.893
228.553, 6449.754
229.035, 6419.289
229.517, 6454.649
229.999, 6534.227
230.481, 6672.738
230.964, 6826.276
231.446, 6998.753
231.928, 7185.823
232.410, 7366.964
232.892, 7569.004
233.374, 7730.486
233.856, 7810.745
234.338, 7795.679
234.820, 7731.409
235.303, 7618.810
235.785, 7459.061
236.267, 7254.133
236.749, 6983.763
237.231, 6692.659
237.713, 6408.304
238.195, 6123.564
238.677, 5860.399
239.160, 5626.360
239.642, 5419.058
240.124, 5209.876
240.606, 4992.568
241.088, 4780.295
241.570, 4582.807
242.052, 4400.483
242.534, 4232.365
243.016, 4080.468
243.499, 3944.406
243.981, 3810.884
244.463, 3670.674
244.945, 3542.339
245.427, 3442.803
245.909, 3382.576
246.391, 3332.668
246.873, 3288.189
247.355, 3248.890
247.838, 3220.448
248.320, 3202.265
248.802, 3195.120
249.284, 3199.933
249.766, 3217.265
250.248, 3245.252
250.730, 3283.384
251.212, 3331.891
251.695, 3392.545
252.177, 3468.590
252.659, 3554.111
253.141, 3645.136
253.623, 3747.455
254.105, 3841.232
254.587, 3913.687
255.069, 3960.704
255.551, 4052.349
256.034, 4203.211
256.516, 4384.233
256.998, 4558.555
257.480, 4705.799
257.962, 4887.583
258.444, 5122.708
258.926, 5411.302
259.408, 5727.854
259.891, 6074.049
260.373, 6441.829
260.855, 6833.409
261.337, 7279.888
261.819, 7671.626
262.301, 7994.219
262.783, 8255.623
263.265, 8372.293
263.747, 8336.912
264.229, 8166.549
264.712, 7860.237
265.194, 7377.955
265.676, 6872.040
266.158, 6380.635
266.640, 5893.282
267.122, 5478.387
267.604, 5143.668
268.086, 4871.387
268.569, 4645.172
269.051, 4463.015
269.533, 4326.780
270.015, 4241.650
270.497, 4207.500
270.979, 4201.910
271.461, 4226.021
271.943, 4276.747
272.426, 4348.172
272.908, 4437.831
273.390, 4557.144
273.872, 4710.110
274.354, 4895.459
274.836, 5110.331
275.318, 5354.245
275.800, 5627.585
276.282, 5924.391
276.765, 6242.461
277.247, 6596.862
277.729, 6988.598
278.211, 7418.204
278.693, 7900.875
279.175, 8433.593
279.657, 9026.245
280.139, 9698.935
280.621, 10455.010
281.104, 11256.130
281.586, 12127.560
282.068, 13047.240
282.550, 13894.350
283.032, 14696.950
283.514, 15339.470
283.996, 15696.050
284.478, 15766.900
284.961, 15545.120
285.443, 14964.380
285.925, 14065.340
286.407, 13091.960
286.889, 12021.730
287.371, 10954.320
287.853, 9977.795
288.335, 9094.893
288.818, 8348.853
289.300, 7792.706
289.782, 7389.591
290.264, 7024.828
290.746, 6695.345
291.228, 6409.841
291.710, 6171.184
292.192, 5983.337
292.674, 5861.367
293.156, 5865.861
293.639, 5931.128
294.121, 5870.598
294.603, 5679.225
295.085, 5436.994
295.567, 5206.922
296.049, 4991.214
296.531, 4789.820
297.013, 4605.597
297.496, 4434.880
297.978, 4267.125
298.460, 4102.861
298.942, 3950.120
299.424, 3822.299
299.906, 3713.208
300.388, 3603.213
300.870, 3479.165
301.353, 3355.296
301.835, 3251.655
302.317, 3169.656
302.799, 3099.595
303.281, 3038.003
303.763, 2983.199
304.245, 2933.430
304.727, 2884.421
305.209, 2842.284
305.692, 2815.625
306.174, 2803.484
306.656, 2795.827
307.138, 2782.396
307.620, 2769.986
308.102, 2768.121
308.584, 2785.186
309.066, 2808.327
309.548, 2823.849
310.031, 2834.162
310.513, 2855.965
310.995, 2899.361
311.477, 2959.417
311.959, 3031.159
312.441, 3113.342
312.923, 3206.556
313.405, 3314.884
313.888, 3436.093
314.370, 3556.567
314.852, 3669.795
315.334, 3782.164
315.816, 3900.066
316.298, 4033.727
316.780, 4160.798
317.262, 4273.625
317.744, 4374.017
318.227, 4461.785
318.709, 4547.513
319.191, 4615.046
319.673, 4654.490
320.155, 4660.994
320.637, 4644.488
321.119, 4603.506
321.601, 4541.022
322.083, 4464.205
322.566, 4385.487
323.048, 4285.128
323.530, 4151.235
324.012, 3963.174
324.494, 3778.533
324.976, 3601.375
325.458, 3432.490
325.940, 3272.798
326.422, 3126.128
326.905, 2987.348
327.387, 2854.728
327.869, 2730.135
328.351, 2610.659
328.833, 2489.777
329.315, 2375.858
329.797, 2282.034
330.280, 2222.072
330.762, 2167.262
331.244, 2108.710
331.726, 2043.070
332.208, 1988.484
332.690, 1949.541
333.172, 1918.742
333.654, 1886.174
334.136, 1850.732
334.618, 1815.174
335.101, 1778.429
335.583, 1739.907
336.065, 1708.733
336.547, 1686.522
337.029, 1669.019
337.511, 1651.895
337.993, 1634.282
338.475, 1619.316
338.958, 1607.710
339.440, 1599.254
339.922, 1593.865
340.404, 1592.489
340.886, 1591.390
341.368, 1586.544
341.850, 1577.604
342.332, 1570.295
342.815, 1566.838
343.297, 1565.353
343.779, 1559.468
344.261, 1548.773
344.743, 1537.121
345.225, 1525.235
345.707, 1513.925
346.189, 1509.772
346.671, 1515.920
347.154, 1526.848
347.636, 1533.124
348.118, 1534.814
348.600, 1534.054
349.082, 1527.721
349.564, 1519.815
350.046, 1522.955
350.528, 1541.186
351.010, 1563.425
351.493, 1574.670
351.975, 1577.576
352.457, 1582.262
352.939, 1596.909
353.421, 1615.744
353.903, 1631.286
354.385, 1642.962
354.867, 1650.923
355.349, 1647.898
355.832, 1641.495
356.314, 1646.724
356.796, 1684.074
357.278, 1726.851
357.760, 1753.164
358.242, 1760.808
358.724, 1764.830
359.207, 1768.959
359.689, 1775.922
360.171, 1789.010
360.653, 1817.431
361.135, 1845.124
361.617, 1864.373
362.099, 1875.362
362.581, 1883.710
363.063, 1892.436
363.546, 1898.876
364.028, 1900.931
364.510, 1891.310
364.992, 1884.509
365.474, 1889.714
365.956, 1903.049
366.438, 1903.181
366.920, 1876.133
367.402, 1843.248
367.885, 1815.233
368.367, 1800.319
368.849, 1779.900
369.331, 1749.480
369.813, 1713.490
370.295, 1683.193
370.777, 1658.525
371.259, 1640.057
371.741, 1629.064
372.224, 1629.545
372.706, 1625.862
373.188, 1616.747
373.670, 1604.312
374.152, 1590.869
374.634, 1574.194
375.116, 1562.677
375.598, 1560.776
376.081, 1568.872
376.563, 1571.102
377.045, 1564.846
377.527, 1557.934
378.009, 1562.535
378.491, 1580.529
378.973, 1588.159
379.455, 1574.571
379.938, 1546.981
380.420, 1536.961
380.902, 1546.226
381.384, 1557.645
381.866, 1551.756
382.348, 1533.123
382.830, 1529.593
383.312, 1551.373
383.794, 1583.516
384.276, 1599.521
384.759, 1601.148
385.241, 1601.177
385.723, 1606.684
386.205, 1616.539
386.687, 1630.178
387.169, 1648.996
387.651, 1665.842
388.134, 1667.354
388.616, 1660.622
389.098, 1662.882
389.580, 1689.754
390.062, 1725.447
390.544, 1756.881
391.026, 1783.577
391.508, 1806.175
391.990, 1826.585
392.473, 1842.749
392.955, 1852.325
393.437, 1841.966
393.919, 1836.122
394.401, 1847.333
394.883, 1874.924
395.365, 1904.671
395.847, 1937.696
396.329, 1968.370
396.812, 1992.435
397.294, 2007.977
397.776, 2018.285
398.258, 2020.164
398.740, 2016.075
399.222, 2015.790
399.704, 2019.727
400.186, 2027.337
400.668, 2039.051
401.151, 2058.445
401.633, 2073.600
402.115, 2079.374
402.597, 2083.493
403.079, 2100.371
403.561, 2135.758
404.043, 2171.983
404.525, 2201.506
405.008, 2223.738
405.490, 2257.335
405.972, 2305.892
406.454, 2358.881
406.936, 2401.389
407.418, 2431.388
407.900, 2477.397
408.382, 2550.813
408.865, 2643.259
409.347, 2726.182
409.829, 2798.097
410.311, 2872.929
410.793, 2959.677
411.275, 3057.967
411.757, 3163.621
412.239, 3277.945
412.721, 3397.158
413.203, 3510.776
413.686, 3622.737
414.168, 3745.060
414.650, 3886.515
415.132, 4041.267
415.614, 4204.225
416.096, 4374.376
416.578, 4545.870
417.060, 4713.512
417.543, 4879.120
418.025, 5039.564
418.507, 5214.286
418.989, 5369.636
419.471, 5484.811
419.953, 5559.975
420.435, 5622.851
420.917, 5698.952
421.400, 5758.176
421.882, 5776.955
422.364, 5735.297
422.846, 5671.687
423.328, 5591.319
423.810, 5493.716
424.292, 5376.877
424.774, 5239.483
425.256, 5082.185
425.739, 4900.924
426.221, 4679.626
426.703, 4476.931
427.185, 4295.501
427.667, 4130.500
428.149, 3978.233
428.631, 3839.240
429.113, 3712.373
429.595, 3598.639
430.078, 3497.389
430.560, 3393.843
431.042, 3285.931
431.524, 3180.607
432.006, 3083.637
432.488, 2994.973
432.970, 2917.965
433.452, 2852.467
433.935, 2799.661
434.417, 2757.390
434.899, 2726.469
435.381, 2703.800
435.863, 2701.694
436.345, 2694.597
436.827, 2682.777
437.309, 2652.088
437.791, 2645.764
438.274, 2629.674
438.756, 2613.186
439.238, 2610.292
439.720, 2591.409
440.202, 2589.094
440.684, 2576.072
441.166, 2552.519
441.648, 2531.465
442.130, 2514.866
442.613, 2506.917
443.095, 2511.646
443.577, 2538.100
444.059, 2566.789
444.541, 2592.108
445.023, 2615.200
445.505, 2639.521
445.987, 2668.698
446.470, 2696.213
446.952, 2718.143
447.434, 2729.526
447.916, 2748.528
448.398, 2773.038
448.880, 2806.472
449.362, 2853.179
449.844, 2914.059
450.327, 2986.629
450.809, 3076.434
451.291, 3179.920
451.773, 3265.737
452.255, 3326.946
452.737, 3388.445
453.219, 3466.336
453.701, 3561.360
454.183, 3677.007
454.665, 3819.315
455.148, 3975.250
455.630, 4122.464
456.112, 4262.672
456.594, 4409.783
457.076, 4568.201
457.558, 4740.473
458.040, 4935.531
458.522, 5153.182
459.005, 5385.958
459.487, 5621.714
459.969, 5865.472
460.451, 6129.880
460.933, 6421.975
461.415, 6731.571
461.897, 7042.962
462.379, 7358.666
462.862, 7691.460
463.344, 8044.870
463.826, 8416.174
464.308, 8803.261
464.790, 9212.467
465.272, 9619.893
465.754, 10026.970
466.236, 10421.270
466.718, 10780.880
467.201, 11125.110
467.683, 11415.260
468.165, 11643.300
468.647, 11808.290
469.129, 11926.320
469.611, 12008.070
470.093, 12027.960
470.575, 11968.120
471.057, 11824.250
471.540, 11610.030
472.022, 11315.210
472.504, 10960.730
472.986, 10599.880
473.468, 10232.130
473.950, 9851.828
474.432, 9448.893
474.914, 9027.241
475.397, 8601.715
475.879, 8170.348
476.361, 7753.641
476.843, 7370.056
477.325, 7016.427
477.807, 6691.750
478.289, 6399.479
478.771, 6126.871
479.254, 5862.103
479.736, 5605.453
480.218, 5358.104
480.700, 5109.835
481.182, 4875.618
481.664, 4674.831
482.146, 4510.790
482.628, 4364.178
483.110, 4233.808
483.592, 4114.218
484.075, 3998.065
484.557, 3883.369
485.039, 3773.165
485.521, 3667.669
486.003, 3566.466
486.485, 3476.597
486.967, 3404.553
487.449, 3336.689
487.932, 3265.406
488.414, 3189.533
488.896, 3114.895
489.378, 3039.181
489.860, 2967.422
490.342, 2906.471
490.824, 2857.443
491.306, 2812.249
491.789, 2768.325
492.271, 2725.886
492.753, 2682.365
493.235, 2636.935
493.717, 2596.628
494.199, 2569.831
494.681, 2552.228
495.163, 2530.733
495.645, 2501.492
496.128, 2470.990
496.610, 2447.917
497.092, 2429.546
497.574, 2409.765
498.056, 2380.770
498.538, 2352.153
499.020, 2331.252
499.502, 2318.486
499.984, 2308.802
500.467, 2302.274
500.949, 2296.674
501.431, 2290.154
501.913, 2281.292
502.395, 2272.635
502.877, 2263.006
503.359, 2253.685
503.841, 2249.154
504.323, 2256.519
504.806, 2259.119
505.288, 2248.291
505.770, 2220.822
506.252, 2206.152
506.734, 2206.493
507.216, 2215.455
507.698, 2191.143
508.181, 2176.123
508.663, 2219.691
509.145, 2249.038
509.627, 2264.925
510.109, 2227.046
510.591, 2258.596
511.073, 2262.325
511.555, 2264.909
512.037, 2306.231
512.519, 2276.172
513.002, 2316.879
513.484, 2329.341
513.966, 2354.728
514.448, 2352.120
514.930, 2357.422
515.412, 2353.527
515.894, 2359.937
516.377, 2376.464
516.859, 2400.714
517.341, 2423.982
517.823, 2445.842
518.305, 2464.702
518.787, 2478.280
519.269, 2482.444
519.751, 2494.489
520.233, 2518.320
520.716, 2547.371
521.198, 2574.194
521.680, 2595.729
522.162, 2624.331
522.644, 2665.398
523.126, 2713.091
523.608, 2744.728
524.090, 2757.618
524.572, 2772.805
525.055, 2806.265
525.537, 2853.188
526.019, 2889.429
526.501, 2912.948
526.983, 2934.659
527.465, 2964.293
527.947, 3000.347
528.429, 3040.245
528.911, 3082.189
529.394, 3128.324
529.876, 3184.506
530.358, 3247.109
530.840, 3306.738
531.322, 3355.276
531.804, 3401.614
532.286, 3449.038
532.768, 3495.621
533.250, 3551.919
533.733, 3622.801
534.215, 3702.701
534.697, 3786.079
535.179, 3881.222
535.661, 3967.741
536.143, 4036.872
536.625, 4098.304
537.107, 4179.739
537.589, 4288.148
538.072, 4399.608
538.554, 4498.374
539.036, 4587.177
539.518, 4706.163
540.000, 4857.937
540.482, 5022.296
540.964, 5172.218
541.446, 5313.848
541.929, 5468.794
542.411, 5641.212
542.893, 5827.130
543.375, 6022.254
543.857, 6228.018
544.339, 6444.209
544.821, 6659.598
545.303, 6891.413
545.786, 7154.930
546.268, 7453.074
546.750, 7754.903
547.232, 8040.309
547.714, 8331.457
548.196, 8644.954
548.678, 8969.371
549.160, 9331.534
549.643, 9740.043
550.125, 10182.850
550.607, 10638.560
551.089, 11116.660
551.571, 11596.250
552.053, 12068.580
552.535, 12534.110
553.017, 13035.770
553.499, 13581.000
553.982, 14130.420
554.464, 14667.020
554.946, 15189.220
555.428, 15695.700
555.910, 16193.030
556.392, 16651.949
556.874, 17054.750
557.356, 17400.039
557.838, 17684.680
558.321, 17946.561
558.803, 18114.740
559.285, 18138.061
559.767, 18024.980
560.249, 17817.670
560.731, 17517.539
561.213, 17138.500
561.695, 16673.381
562.177, 16092.240
562.660, 15513.750
563.142, 14957.930
563.624, 14404.000
564.106, 13826.720
564.588, 13221.020
565.070, 12629.330
565.552, 12049.500
566.034, 11493.360
566.516, 10977.990
566.999, 10502.220
567.481, 10063.990
567.963, 9662.903
568.445, 9299.069
568.927, 8934.919
569.409, 8572.582
569.891, 8249.031
570.373, 8018.410
570.856, 7844.975
571.338, 7676.781
571.820, 7494.263
572.302, 7328.925
572.784, 7196.684
573.266, 7093.308
573.748, 7008.439
574.230, 6928.618
574.713, 6877.981
575.195, 6869.612
575.677, 6903.254
576.159, 6952.779
576.641, 7021.224
577.123, 7100.181
577.605, 7181.966
578.087, 7255.498
578.570, 7379.252
579.052, 7571.189
579.534, 7784.565
580.016, 7953.273
580.498, 8079.431
580.980, 8218.964
581.462, 8392.796
581.944, 8575.727
582.426, 8731.927
582.909, 8861.217
583.391, 8956.444
583.873, 9014.264
584.355, 9034.633
584.837, 9012.262
585.319, 8946.774
585.801, 8858.534
586.283, 8763.874
586.765, 8645.925
587.248, 8487.136
587.730, 8243.357
588.212, 8026.342
588.694, 7897.070
589.176, 7785.899
589.658, 7582.018
590.140, 7227.913
590.622, 6895.543
591.104, 6630.839
591.587, 6419.208
592.069, 6161.081
592.551, 5835.927
593.033, 5591.546
593.515, 5390.559
593.997, 5224.543
594.479, 5050.032
594.961, 4867.481
595.443, 4652.836
595.926, 4479.026
596.408, 4342.687
596.890, 4233.936
597.372, 4118.038
597.854, 4018.595
598.336, 3962.670
598.818, 3932.102
599.300, 3889.594
599.783, 3808.712
600.265, 3729.206
600.747, 3663.294
601.229, 3610.546
601.711, 3567.898
602.193, 3543.158
602.675, 3518.167
603.157, 3479.972
603.640, 3425.532
604.122, 3383.052
604.604, 3354.712
605.086, 3333.424
605.568, 3312.529
606.050, 3291.475
606.532, 3264.794
607.014, 3227.822
607.497, 3190.910
607.979, 3171.199
608.461, 3163.374
608.943, 3151.206
609.425, 3120.698
609.907, 3087.737
610.389, 3061.351
610.871, 3042.153
611.353, 3027.309
611.836, 2979.901
612.318, 2963.444
612.800, 2951.186
613.282, 2953.652
613.764, 2952.545
614.246, 2948.055
614.728, 2930.052
615.210, 2929.498
615.692, 2921.952
616.175, 2914.117
616.657, 2916.020
617.139, 2899.982
617.621, 2901.730
618.103, 2896.378
618.585, 2894.276
619.067, 2885.136
619.549, 2878.172
620.031, 2878.244
620.514, 2866.592
620.996, 2861.885
621.478, 2868.011
621.960, 2880.516
622.442, 2897.133
622.924, 2920.234
623.406, 2939.546
623.888, 2953.382
624.370, 2962.322
624.853, 2965.364
625.335, 2951.972
625.817, 2955.511
626.299, 2986.731
626.781, 3033.102
627.263, 3063.507
627.745, 3077.108
628.227, 3085.573
628.710, 3092.398
629.192, 3098.198
629.674, 3105.139
630.156, 3113.102
630.638, 3119.567
631.120, 3119.048
631.602, 3118.088
632.084, 3126.156
632.567, 3147.091
633.049, 3162.971
