##NAMES=Bobierrite
##RRUFFID=R060681
##IDEAL CHEMISTRY=Mg_3_(PO_4_)_2_&#183;8H_2_O
##LOCALITY=Kovdor Massif, Kola Peninsula, Murmanskaja Oblast', Northern Region, Russia
##OWNER=RRUFF
##SOURCE=Michael Scott
##DESCRIPTION=Colorless sectile tabular crystals
##STATUS=The identification of this mineral has been confirmed by X-ray diffraction and chemical analysis
##URL=rruff.info/R060681
##MEASURED CHEMISTRY=(Mg_2.94_Fe_0.05_Mn_0.01_)_Σ=3_(P_1.00_O_4_)_2_·8H_2_O; H_2_O estimated by difference
120.564, 1517.209
121.046, 1517.123
121.528, 1516.396
122.010, 1516.919
122.492, 1522.983
122.974, 1533.838
123.456, 1552.635
123.939, 1580.551
124.421, 1615.307
124.903, 1650.393
125.385, 1681.905
125.867, 1718.930
126.349, 1793.852
126.831, 1921.696
127.313, 2075.337
127.796, 2258.629
128.278, 2464.914
128.760, 2681.652
129.242, 2897.950
129.724, 3123.950
130.206, 3421.779
130.688, 3809.581
131.170, 4240.955
131.652, 4718.296
132.135, 5232.748
132.617, 5768.976
133.099, 6322.865
133.581, 6890.889
134.063, 7413.334
134.545, 7879.956
135.027, 8323.053
135.509, 8816.255
135.992, 9314.756
136.474, 9676.252
136.956, 9810.769
137.438, 9697.731
137.920, 9378.707
138.402, 8738.639
138.884, 8008.542
139.366, 7277.129
139.848, 6561.558
140.331, 5913.806
140.813, 5376.497
141.295, 4958.509
141.777, 4610.291
142.259, 4330.625
142.741, 4122.292
143.223, 3994.586
143.705, 3948.005
144.188, 3964.164
144.670, 4047.291
145.152, 4188.848
145.634, 4345.199
146.116, 4505.785
146.598, 4680.926
147.080, 4888.984
147.562, 5136.321
148.044, 5387.715
148.527, 5624.620
149.009, 5846.171
149.491, 6039.642
149.973, 6209.438
150.455, 6348.804
150.937, 6455.605
151.419, 6540.750
151.901, 6558.841
152.383, 6465.978
152.866, 6284.348
153.348, 6041.154
153.830, 5720.849
154.312, 5350.341
154.794, 4977.604
155.276, 4593.240
155.758, 4234.974
156.240, 3926.417
156.723, 3660.895
157.205, 3426.705
157.687, 3217.823
158.169, 3036.925
158.651, 2892.412
159.133, 2789.958
159.615, 2720.109
160.097, 2673.132
160.579, 2648.292
161.062, 2645.958
161.544, 2674.458
162.026, 2728.309
162.508, 2780.139
162.990, 2829.798
163.472, 2877.131
163.954, 2920.519
164.436, 2961.455
164.919, 3004.397
165.401, 3056.487
165.883, 3115.398
166.365, 3158.837
166.847, 3173.664
167.329, 3187.559
167.811, 3210.587
168.293, 3242.262
168.775, 3280.634
169.258, 3327.724
169.740, 3382.587
170.222, 3428.621
170.704, 3461.233
171.186, 3489.077
171.668, 3529.207
172.150, 3569.562
172.632, 3581.170
173.115, 3534.122
173.597, 3429.756
174.079, 3336.977
174.561, 3256.922
175.043, 3188.149
175.525, 3126.872
176.007, 3075.857
176.489, 3041.266
176.971, 3024.250
177.454, 3024.765
177.936, 3062.418
178.418, 3165.118
178.900, 3282.113
179.382, 3389.933
179.864, 3498.723
180.346, 3632.884
180.828, 3810.867
181.311, 4032.258
181.793, 4287.429
182.275, 4640.876
182.757, 4968.658
183.239, 5277.167
183.721, 5533.690
184.203, 5678.383
184.685, 5664.493
185.167, 5492.299
185.650, 5219.247
186.132, 4719.325
186.614, 4229.918
187.096, 3786.946
187.578, 3401.893
188.060, 3086.954
188.542, 2852.439
189.024, 2699.084
189.507, 2567.482
189.989, 2454.547
190.471, 2369.909
190.953, 2330.594
191.435, 2322.480
191.917, 2316.998
192.399, 2291.061
192.881, 2246.730
193.363, 2232.472
193.846, 2284.051
194.328, 2331.994
194.810, 2351.437
195.292, 2356.103
195.774, 2373.478
196.256, 2423.402
196.738, 2503.234
197.220, 2577.160
197.702, 2621.011
198.185, 2684.353
198.667, 2779.049
199.149, 2900.619
199.631, 3042.243
200.113, 3202.823
200.595, 3378.273
201.077, 3534.391
201.559, 3654.244
202.042, 3771.349
202.524, 3861.081
203.006, 3956.429
203.488, 4108.155
203.970, 4348.329
204.452, 4660.083
204.934, 4956.539
205.416, 5242.503
205.898, 5502.744
206.380, 5697.418
206.863, 5875.078
207.345, 6091.555
207.827, 6375.230
208.309, 6723.097
208.791, 7123.390
209.273, 7562.396
209.755, 8083.512
210.238, 8698.886
210.720, 9389.653
211.202, 10137.260
211.684, 10929.710
212.166, 11766.810
212.648, 12659.430
213.130, 13687.520
213.612, 14649.720
214.094, 15592.860
214.577, 16433.010
215.059, 17126.439
215.541, 17646.971
216.023, 17955.080
216.505, 17955.971
216.987, 17509.449
217.469, 16942.420
217.951, 16204.180
218.434, 15405.760
218.916, 14620.970
219.398, 13877.410
219.880, 13183.640
220.362, 12554.420
220.844, 11986.070
221.326, 11495.460
221.808, 11116.180
222.290, 10777.590
222.773, 10467.990
223.255, 10166.690
223.737, 9810.955
224.219, 9304.437
224.701, 8581.715
225.183, 7853.698
225.665, 7049.852
226.147, 6290.788
226.629, 5637.009
227.112, 5101.701
227.594, 4669.544
228.076, 4326.488
228.558, 4083.379
229.040, 3897.345
229.522, 3773.386
230.004, 3698.160
230.486, 3682.921
230.969, 3717.441
231.451, 3772.363
231.933, 3821.571
232.415, 3863.616
232.897, 3912.815
233.379, 3989.003
233.861, 4053.537
234.343, 4101.026
234.825, 4126.718
235.307, 4122.817
235.790, 4079.803
236.272, 3999.129
236.754, 3918.755
237.236, 3852.520
237.718, 3769.472
238.200, 3652.718
238.682, 3514.553
239.165, 3374.311
239.647, 3244.015
240.129, 3121.923
240.611, 3001.973
241.093, 2879.010
241.575, 2765.793
242.057, 2667.477
242.539, 2578.813
243.021, 2492.920
243.503, 2405.571
243.986, 2321.640
244.468, 2254.084
244.950, 2207.810
245.432, 2169.367
245.914, 2135.640
246.396, 2107.041
246.878, 2083.836
247.361, 2066.144
247.843, 2053.902
248.325, 2046.994
248.807, 2045.385
249.289, 2049.505
249.771, 2059.724
250.253, 2075.390
250.735, 2096.232
251.217, 2122.166
251.699, 2154.289
252.182, 2199.251
252.664, 2259.942
253.146, 2305.818
253.628, 2316.219
254.110, 2322.093
254.592, 2343.266
255.074, 2379.974
255.556, 2418.169
256.039, 2439.172
256.521, 2445.491
257.003, 2475.045
257.485, 2537.771
257.967, 2618.521
258.449, 2705.415
258.931, 2799.544
259.413, 2905.155
259.896, 3030.922
260.378, 3171.326
260.860, 3308.584
261.342, 3448.601
261.824, 3574.104
262.306, 3688.869
262.788, 3783.719
263.270, 3834.354
263.752, 3824.972
264.234, 3769.653
264.717, 3685.562
265.199, 3568.262
265.681, 3441.983
266.163, 3304.735
266.645, 3170.900
267.127, 3066.177
267.609, 2997.929
268.091, 2956.995
268.574, 2935.098
269.056, 2932.339
269.538, 2951.693
270.020, 2992.199
270.502, 3060.500
270.984, 3160.494
271.466, 3299.777
271.948, 3453.698
272.431, 3593.300
272.913, 3733.383
273.395, 3925.621
273.877, 4195.354
274.359, 4511.595
274.841, 4822.858
275.323, 5118.696
275.805, 5458.554
276.287, 5861.988
276.770, 6321.484
277.252, 6821.249
277.734, 7359.975
278.216, 7941.605
278.698, 8569.041
279.180, 9241.575
279.662, 9985.796
280.144, 10843.360
280.626, 11751.930
281.109, 12693.960
281.591, 13655.580
282.073, 14574.470
282.555, 15424.530
283.037, 16200.410
283.519, 16665.631
284.001, 16857.150
284.483, 16742.789
284.966, 16248.340
285.448, 15431.620
285.930, 14398.220
286.412, 13196.460
286.894, 11859.980
287.376, 10605.900
287.858, 9391.681
288.340, 8301.525
288.823, 7370.793
289.305, 6575.869
289.787, 5892.819
290.269, 5311.861
290.751, 4821.570
291.233, 4395.090
291.715, 4045.484
292.197, 3753.144
292.679, 3543.979
293.161, 3370.718
293.644, 3200.254
294.126, 3024.570
294.608, 2848.831
295.090, 2678.084
295.572, 2506.767
296.054, 2360.842
296.536, 2246.986
297.018, 2150.175
297.501, 2067.604
297.983, 1997.203
298.465, 1937.160
298.947, 1888.562
299.429, 1850.139
299.911, 1805.370
300.393, 1744.260
300.875, 1689.743
301.358, 1649.272
301.840, 1619.170
302.322, 1593.910
302.804, 1571.252
303.286, 1550.964
303.768, 1532.017
304.250, 1513.015
304.732, 1499.197
305.214, 1491.048
305.697, 1489.209
306.179, 1495.771
306.661, 1511.603
307.143, 1532.005
307.625, 1553.568
308.107, 1576.198
308.589, 1596.039
309.071, 1607.822
309.553, 1621.378
310.036, 1642.393
310.518, 1671.198
311.000, 1710.430
311.482, 1766.722
311.964, 1834.098
312.446, 1896.123
312.928, 1947.975
313.410, 2003.765
313.892, 2076.377
314.375, 2162.810
314.857, 2255.347
315.339, 2351.610
315.821, 2453.619
316.303, 2565.664
316.785, 2686.700
317.267, 2809.592
317.750, 2933.477
318.232, 3055.091
318.714, 3165.803
319.196, 3274.766
319.678, 3362.018
320.160, 3415.798
320.642, 3442.958
321.124, 3458.504
321.606, 3468.308
322.089, 3465.939
322.571, 3440.154
323.053, 3392.990
323.535, 3313.823
324.017, 3183.103
324.499, 3031.805
324.981, 2882.697
325.463, 2741.051
325.945, 2602.613
326.428, 2464.356
326.910, 2325.409
327.392, 2193.379
327.874, 2062.422
328.356, 1942.686
328.838, 1843.117
329.320, 1758.470
329.802, 1678.680
330.284, 1597.658
330.767, 1516.431
331.249, 1438.331
331.731, 1352.800
332.213, 1288.231
332.695, 1258.743
333.177, 1244.733
333.659, 1210.101
334.141, 1145.607
334.624, 1120.902
335.106, 1111.652
335.588, 1098.652
336.070, 1082.104
336.552, 1051.374
337.034, 1038.956
337.516, 1019.195
337.998, 999.137
338.480, 989.296
338.963, 967.441
339.445, 954.352
339.927, 940.455
340.409, 922.030
340.891, 909.426
341.373, 916.456
341.855, 933.020
342.337, 940.679
342.819, 929.120
343.302, 912.391
343.784, 904.310
344.266, 904.318
344.748, 906.962
345.230, 911.605
345.712, 916.023
346.194, 915.428
346.677, 907.655
347.159, 901.417
347.641, 897.968
348.123, 898.532
348.605, 906.598
349.087, 923.109
349.569, 941.951
350.051, 956.359
350.533, 965.526
351.016, 972.581
351.498, 972.095
351.980, 974.246
352.462, 990.051
352.944, 1014.816
353.426, 1031.741
353.908, 1027.852
354.390, 1008.457
354.872, 1006.469
355.355, 1039.347
355.837, 1070.814
356.319, 1098.977
356.801, 1123.031
357.283, 1140.969
357.765, 1152.506
358.247, 1161.819
358.729, 1175.909
359.211, 1196.897
359.694, 1215.263
360.176, 1227.570
360.658, 1239.751
361.140, 1254.026
361.622, 1270.661
362.104, 1289.964
362.586, 1317.989
363.069, 1348.982
363.551, 1355.915
364.033, 1329.841
364.515, 1300.467
364.997, 1279.809
365.479, 1265.230
365.961, 1255.333
366.443, 1253.023
366.925, 1248.613
367.408, 1232.736
367.890, 1206.386
368.372, 1174.391
368.854, 1134.370
369.336, 1095.272
369.818, 1072.626
370.300, 1068.102
370.782, 1057.915
371.264, 1030.514
371.747, 996.728
372.229, 966.335
372.711, 941.042
373.193, 924.580
373.675, 922.184
374.157, 933.408
374.639, 934.953
375.121, 922.202
375.603, 906.606
376.086, 885.481
376.568, 865.441
377.050, 858.516
377.532, 870.015
378.014, 891.374
378.496, 905.289
378.978, 909.818
379.460, 909.853
379.943, 901.078
380.425, 892.055
380.907, 888.832
381.389, 891.086
381.871, 894.360
382.353, 895.586
382.835, 894.633
383.317, 888.240
383.799, 866.213
384.282, 855.968
384.764, 879.995
385.246, 916.925
385.728, 935.469
386.210, 920.464
386.692, 898.207
387.174, 901.228
387.656, 928.413
388.138, 954.027
388.621, 971.972
389.103, 984.550
389.585, 992.220
390.067, 994.690
390.549, 1002.992
391.031, 1020.037
391.513, 1045.333
391.996, 1058.181
392.478, 1061.260
392.960, 1060.293
393.442, 1090.813
393.924, 1113.689
394.406, 1129.334
394.888, 1116.088
395.370, 1140.149
395.852, 1149.257
396.335, 1157.753
396.817, 1178.832
397.299, 1177.525
397.781, 1177.862
398.263, 1179.444
398.745, 1185.920
399.227, 1183.484
399.709, 1162.382
400.191, 1142.293
400.674, 1131.347
401.156, 1129.843
401.638, 1136.296
402.120, 1152.469
402.602, 1173.695
403.084, 1180.236
403.566, 1162.192
404.048, 1153.325
404.530, 1170.211
405.013, 1198.681
405.495, 1227.409
405.977, 1254.323
406.459, 1280.708
406.941, 1303.955
407.423, 1326.890
407.905, 1361.337
408.387, 1411.321
408.870, 1466.923
409.352, 1519.505
409.834, 1569.636
410.316, 1621.950
410.798, 1673.440
411.280, 1729.977
411.762, 1795.722
412.244, 1869.949
412.727, 1950.970
413.209, 2038.684
413.691, 2130.532
414.173, 2219.349
414.655, 2293.168
415.137, 2382.829
415.619, 2500.191
416.101, 2625.334
416.583, 2748.824
417.065, 2866.526
417.548, 2973.941
418.030, 3066.023
418.512, 3144.015
418.994, 3218.856
419.476, 3302.202
419.958, 3363.754
420.440, 3394.207
420.922, 3401.579
421.405, 3394.235
421.887, 3374.601
422.369, 3342.396
422.851, 3298.103
423.333, 3241.791
423.815, 3168.380
424.297, 3072.492
424.779, 2966.399
425.262, 2857.094
425.744, 2745.647
426.226, 2637.980
426.708, 2537.547
427.190, 2440.171
427.672, 2339.289
428.154, 2236.662
428.636, 2140.326
429.118, 2053.595
429.601, 1975.939
430.083, 1907.016
430.565, 1850.294
431.047, 1796.576
431.529, 1718.620
432.011, 1661.197
432.493, 1632.625
432.975, 1618.452
433.457, 1600.785
433.940, 1579.811
434.422, 1545.629
434.904, 1528.502
435.386, 1504.537
435.868, 1480.295
436.350, 1465.570
436.832, 1433.308
437.314, 1418.432
437.797, 1396.616
438.279, 1377.972
438.761, 1352.454
439.243, 1328.881
439.725, 1319.403
440.207, 1327.193
440.689, 1335.485
441.171, 1327.394
441.654, 1307.351
442.136, 1290.316
442.618, 1277.390
443.100, 1270.513
443.582, 1273.276
444.064, 1283.716
444.546, 1294.551
445.028, 1301.975
445.510, 1310.932
445.992, 1331.961
446.475, 1378.908
446.957, 1409.881
447.439, 1409.172
447.921, 1405.472
448.403, 1416.229
448.885, 1441.622
449.367, 1474.387
449.849, 1510.318
450.332, 1548.978
450.814, 1590.198
451.296, 1637.274
451.778, 1679.692
452.260, 1706.065
452.742, 1733.309
453.224, 1773.348
453.706, 1828.365
454.189, 1898.600
454.671, 1992.198
455.153, 2101.323
455.635, 2203.925
456.117, 2298.406
456.599, 2385.263
457.081, 2453.642
457.563, 2515.841
458.045, 2612.645
458.528, 2761.401
459.010, 2922.713
459.492, 3086.839
459.974, 3251.224
460.456, 3407.373
460.938, 3553.350
461.420, 3706.770
461.902, 3888.076
462.384, 4101.308
462.867, 4319.196
463.349, 4544.588
463.831, 4770.621
464.313, 5001.345
464.795, 5228.410
465.277, 5443.418
465.759, 5642.525
466.241, 5822.604
466.724, 5977.276
467.206, 6105.705
467.688, 6220.645
468.170, 6329.583
468.652, 6417.709
469.134, 6482.604
469.616, 6521.776
470.098, 6524.359
470.580, 6490.813
471.063, 6415.896
471.545, 6285.540
472.027, 6106.539
472.509, 5897.341
472.991, 5657.002
473.473, 5418.727
473.955, 5254.833
474.437, 5232.366
474.919, 5128.650
475.402, 4888.391
475.884, 4612.319
476.366, 4351.716
476.848, 4111.957
477.330, 3886.986
477.812, 3672.586
478.294, 3471.048
478.776, 3293.481
479.259, 3146.616
479.741, 3008.404
480.223, 2877.220
480.705, 2751.651
481.187, 2628.980
481.669, 2510.699
482.151, 2404.812
482.633, 2321.890
483.116, 2252.512
483.598, 2176.521
484.080, 2093.699
484.562, 2020.994
485.044, 1969.649
485.526, 1932.783
486.008, 1892.264
486.490, 1846.419
486.972, 1801.693
487.454, 1760.494
487.937, 1720.106
488.419, 1674.587
488.901, 1626.046
489.383, 1586.032
489.865, 1565.206
490.347, 1559.436
490.829, 1541.988
491.311, 1502.989
491.794, 1469.150
492.276, 1447.376
492.758, 1430.754
493.240, 1413.222
493.722, 1394.084
494.204, 1378.039
494.686, 1371.812
495.168, 1371.016
495.651, 1364.386
496.133, 1351.376
496.615, 1333.398
497.097, 1308.750
497.579, 1280.802
498.061, 1259.428
498.543, 1248.235
499.025, 1236.089
499.507, 1215.424
499.990, 1194.979
500.472, 1185.083
500.954, 1186.172
501.436, 1191.298
501.918, 1195.115
502.400, 1197.651
502.882, 1199.253
503.364, 1199.999
503.846, 1199.587
504.329, 1196.961
504.811, 1193.938
505.293, 1191.756
505.775, 1190.728
506.257, 1191.309
506.739, 1195.950
507.221, 1202.323
507.703, 1201.562
508.185, 1191.715
508.668, 1187.714
509.150, 1202.276
509.632, 1226.551
510.114, 1235.569
510.596, 1220.214
511.078, 1209.458
511.560, 1212.861
512.042, 1223.073
512.525, 1235.231
513.007, 1247.197
513.489, 1254.626
513.971, 1253.139
514.453, 1244.847
514.935, 1242.532
515.417, 1245.050
515.899, 1256.158
516.381, 1283.662
516.864, 1314.063
517.346, 1337.466
517.828, 1352.572
518.310, 1363.751
518.792, 1370.686
519.274, 1376.596
519.756, 1381.150
520.239, 1383.503
520.721, 1401.476
521.203, 1433.424
521.685, 1461.980
522.167, 1487.323
522.649, 1499.848
523.131, 1528.936
523.613, 1551.379
524.095, 1573.553
524.578, 1601.311
525.060, 1619.045
525.542, 1642.650
526.024, 1668.109
526.506, 1695.810
526.988, 1727.918
527.470, 1768.315
527.952, 1803.082
528.434, 1823.425
528.917, 1842.560
529.399, 1865.562
529.881, 1893.969
530.363, 1932.715
530.845, 1994.727
531.327, 2061.348
531.809, 2106.953
532.291, 2135.104
532.773, 2165.956
533.256, 2207.067
533.738, 2254.914
534.220, 2303.581
534.702, 2351.013
535.184, 2406.358
535.666, 2474.517
536.148, 2545.177
536.630, 2610.651
537.112, 2675.222
537.595, 2747.012
538.077, 2829.668
538.559, 2921.595
539.041, 3024.308
539.523, 3139.614
540.005, 3237.999
540.487, 3301.391
540.969, 3371.198
541.452, 3486.345
541.934, 3631.131
542.416, 3764.815
542.898, 3865.323
543.380, 3973.077
543.862, 4113.541
544.344, 4278.090
544.826, 4451.333
545.308, 4629.278
545.791, 4817.434
546.273, 5020.360
546.755, 5238.122
547.237, 5468.876
547.719, 5717.265
548.201, 5973.849
548.683, 6233.533
549.166, 6501.041
549.648, 6781.103
550.130, 7075.012
550.612, 7385.420
551.094, 7720.393
551.576, 8072.423
552.058, 8429.436
552.540, 8790.840
553.022, 9140.612
553.505, 9465.813
553.987, 9776.526
554.469, 10105.700
554.951, 10484.050
555.433, 10808.590
555.915, 11066.250
556.397, 11264.930
556.879, 11408.460
557.362, 11498.940
557.844, 11541.370
558.326, 11540.090
558.808, 11487.280
559.290, 11362.750
559.772, 11161.960
560.254, 10908.080
560.736, 10588.430
561.218, 10230.600
561.701, 9849.258
562.183, 9449.253
562.665, 9042.146
563.147, 8617.179
563.629, 8202.313
564.111, 7818.880
564.593, 7464.853
565.075, 7143.285
565.557, 6855.249
566.040, 6584.407
566.522, 6307.505
567.004, 6017.179
567.486, 5807.148
567.968, 5827.048
568.450, 5750.912
568.932, 5423.448
569.414, 5013.068
569.896, 4698.434
570.379, 4517.868
570.861, 4407.713
571.343, 4324.657
571.825, 4272.755
572.307, 4268.549
572.789, 4314.438
573.271, 4372.725
573.753, 4423.083
574.235, 4475.215
574.718, 4553.623
575.200, 4662.257
575.682, 4785.693
576.164, 4917.469
576.646, 5069.696
577.128, 5259.230
577.610, 5475.933
578.093, 5695.138
578.575, 5904.640
579.057, 6111.242
579.539, 6316.550
580.021, 6516.721
580.503, 6779.490
580.985, 7173.781
581.467, 7533.833
581.949, 7730.405
582.432, 7791.329
582.914, 7767.896
583.396, 7622.711
583.878, 7452.367
584.360, 7304.253
584.842, 7157.411
585.324, 6984.854
585.806, 6781.261
586.289, 6557.873
586.771, 6323.255
587.253, 6076.216
587.735, 5810.234
588.217, 5514.809
588.699, 5223.053
589.181, 4931.003
589.663, 4652.116
590.145, 4398.380
590.628, 4169.037
591.110, 3951.481
591.592, 3741.503
592.074, 3538.397
592.556, 3332.780
593.038, 3131.532
593.520, 2963.333
594.002, 2838.830
594.484, 2737.470
594.967, 2633.583
595.449, 2525.917
595.931, 2422.063
596.413, 2327.602
596.895, 2231.135
597.377, 2117.123
597.859, 2005.671
598.341, 1910.954
598.823, 1836.921
599.306, 1794.212
599.788, 1786.144
600.270, 1769.671
600.752, 1745.230
601.234, 1689.008
601.716, 1673.834
602.198, 1642.209
602.680, 1609.909
603.162, 1600.516
603.645, 1548.908
604.127, 1539.152
604.609, 1512.691
605.091, 1493.873
605.573, 1458.503
606.055, 1428.248
606.537, 1414.542
607.019, 1391.677
607.502, 1354.401
607.984, 1336.070
608.466, 1283.890
608.948, 1261.416
609.430, 1251.747
609.912, 1215.307
610.394, 1197.278
610.876, 1172.235
611.359, 1127.791
611.841, 1080.042
612.323, 1051.961
612.805, 1033.857
613.287, 1052.294
613.769, 1061.861
614.251, 1063.035
614.733, 1030.675
615.216, 1041.616
615.698, 1035.205
616.180, 1028.082
616.662, 1045.118
617.144, 1017.635
617.626, 1031.919
618.108, 1038.340
618.590, 1034.208
619.072, 1022.424
619.555, 1017.040
620.037, 1022.994
620.519, 1029.804
621.001, 1032.774
621.483, 1035.977
621.965, 1044.259
622.447, 1057.514
622.929, 1072.389
623.411, 1087.119
623.894, 1100.452
624.376, 1107.645
624.858, 1107.327
625.340, 1110.175
625.822, 1120.952
626.304, 1132.059
626.786, 1133.917
627.268, 1129.215
627.750, 1131.094
628.233, 1147.745
628.715, 1163.973
629.197, 1172.581
629.679, 1177.226
630.161, 1180.773
630.643, 1184.872
631.125, 1193.683
631.607, 1211.978
632.089, 1236.751
632.572, 1237.741
633.054, 1225.244
633.536, 1248.724
634.018, 1263.471
634.500, 1269.955
634.982, 1243.423
635.464, 1259.525
635.946, 1258.540
636.429, 1256.855
636.911, 1278.955
637.393, 1257.226
637.875, 1278.949
638.357, 1280.151
638.839, 1269.895
639.321, 1265.171
639.803, 1257.030
640.286, 1246.377
640.768, 1237.509
641.250, 1229.736
641.732, 1226.597
642.214, 1232.167
642.696, 1239.681
