##NAMES=Bobjonesite
##RRUFFID=R060530
##IDEAL CHEMISTRY=V^4+^OS^6+^O_4_&#183;3H_2_O
##LOCALITY=Petrified log in the North Mesa 5 mine, Temple Mountain, Emery County, Utah, USA
##OWNER=RRUFF
##SOURCE=Michael Scott
##DESCRIPTION=Blue granular crystals
##STATUS=The identification of this mineral has been confirmed by single-crystal X-ray diffraction.
##URL=rruff.info/R060530
93.97052, 610.5843
94.45264, 604.8622
94.93475, 597.7412
95.41687, 590.9503
95.89898, 585.0997
96.38110, 579.8698
96.86321, 575.1104
97.34533, 570.3771
97.82745, 564.4075
98.30956, 558.1588
98.79168, 551.0436
99.27380, 544.6049
99.75591, 539.0637
100.2380, 534.2811
100.7201, 530.1642
101.2023, 526.7206
101.6844, 523.8885
102.1665, 521.1784
102.6486, 518.7459
103.1307, 516.2433
103.6128, 513.1087
104.0950, 509.0909
104.5771, 505.5094
105.0592, 503.2893
105.5413, 501.9021
106.0234, 500.7270
106.5055, 499.4025
106.9877, 498.0298
107.4698, 497.1740
107.9519, 497.6609
108.4340, 497.5483
108.9161, 495.7234
109.3982, 492.6230
109.8804, 489.3451
110.3625, 486.7030
110.8446, 484.6278
111.3267, 483.6323
111.8088, 485.0163
112.2909, 486.3319
112.7731, 486.2510
113.2552, 484.6856
113.7373, 482.5539
114.2194, 481.1721
114.7015, 480.9192
115.1836, 480.8462
115.6658, 481.3586
116.1479, 481.8631
116.6300, 481.6871
117.1121, 480.5649
117.5942, 478.9130
118.0763, 477.7552
118.5584, 477.4259
119.0406, 476.7935
119.5227, 475.1861
120.0048, 472.9663
120.4869, 471.1706
120.9690, 470.4498
121.4511, 470.3058
121.9333, 469.5778
122.4154, 467.8719
122.8975, 466.2446
123.3796, 465.8781
123.8617, 466.9508
124.3438, 467.7289
124.8260, 467.1905
125.3081, 465.9838
125.7902, 464.5467
126.2723, 462.9558
126.7544, 461.3187
127.2365, 459.8717
127.7187, 458.5424
128.2008, 457.5746
128.6829, 457.2295
129.1650, 457.1822
129.6471, 456.9602
130.1292, 456.1950
130.6114, 454.9625
131.0935, 454.3700
131.5756, 455.4221
132.0577, 456.1862
132.5398, 456.1459
133.0219, 455.4048
133.5041, 454.3089
133.9862, 453.1146
134.4683, 451.7631
134.9504, 450.7331
135.4325, 449.9406
135.9146, 449.4530
136.3968, 449.4249
136.8789, 449.8244
137.3610, 450.3755
137.8431, 450.8109
138.3252, 451.1403
138.8073, 451.1715
139.2895, 450.6257
139.7716, 449.8782
140.2537, 449.4198
140.7358, 449.4132
141.2179, 449.4838
141.7000, 449.0956
142.1821, 448.2963
142.6643, 447.5000
143.1464, 446.8683
143.6285, 446.3744
144.1106, 445.9086
144.5927, 445.4145
145.0748, 444.9949
145.5570, 444.6639
146.0391, 444.4266
146.5212, 444.4012
147.0033, 444.8213
147.4854, 445.7573
147.9675, 446.4521
148.4497, 446.7533
148.9318, 446.7608
149.4139, 446.3850
149.8960, 445.6348
150.3781, 444.7812
150.8602, 444.2381
151.3424, 444.1270
151.8245, 444.0776
152.3066, 444.3411
152.7887, 444.4870
153.2708, 444.0308
153.7529, 442.8179
154.2351, 441.2525
154.7172, 440.3557
155.1993, 441.0058
155.6814, 441.3264
156.1635, 441.0475
156.6456, 440.4481
157.1278, 439.9053
157.6099, 439.6200
158.0920, 439.4589
158.5741, 438.8264
159.0562, 436.9480
159.5383, 435.5210
160.0205, 435.2325
160.5026, 435.7289
160.9847, 436.2132
161.4668, 436.2556
161.9489, 435.9059
162.4310, 435.4930
162.9131, 434.8358
163.3953, 434.2877
163.8774, 434.1020
164.3595, 434.2513
164.8416, 434.4661
165.3237, 434.5654
165.8058, 434.6280
166.2880, 434.8394
166.7701, 435.3985
167.2522, 435.9747
167.7343, 436.1603
168.2164, 435.8929
168.6985, 435.5306
169.1807, 435.2801
169.6628, 435.0624
170.1449, 434.7567
170.6270, 434.2314
171.1091, 433.6422
171.5912, 433.3765
172.0734, 433.5970
172.5555, 433.8608
173.0376, 434.0315
173.5197, 434.1230
174.0018, 434.1674
174.4839, 434.2140
174.9661, 434.2276
175.4482, 433.9437
175.9303, 432.6470
176.4124, 431.8949
176.8945, 432.3481
177.3766, 433.6137
177.8588, 435.0424
178.3409, 436.2366
178.8230, 437.2003
179.3051, 437.4835
179.7872, 436.2276
180.2693, 435.1364
180.7515, 434.7423
181.2336, 434.9538
181.7157, 435.4398
182.1978, 435.9567
182.6799, 436.5320
183.1620, 436.8001
183.6441, 436.5539
184.1263, 436.2552
184.6084, 436.0825
185.0905, 436.0597
185.5726, 436.1636
186.0547, 436.3873
186.5368, 436.7519
187.0190, 437.1085
187.5011, 437.5113
187.9832, 437.8696
188.4653, 438.1204
188.9474, 438.2565
189.4296, 438.3022
189.9117, 438.2509
190.3938, 438.1062
190.8759, 437.9865
191.3580, 437.7907
191.8401, 437.6801
192.3223, 437.9166
192.8044, 438.5898
193.2865, 439.2973
193.7686, 439.5087
194.2507, 439.3939
194.7328, 439.5056
195.2150, 440.2244
195.6971, 441.2484
196.1792, 441.9193
196.6613, 442.0010
197.1434, 442.1342
197.6255, 443.0172
198.1077, 444.3586
198.5898, 445.3795
199.0719, 445.4532
199.5540, 444.8212
200.0361, 444.5170
200.5182, 444.6385
201.0004, 445.0271
201.4825, 445.7892
201.9646, 446.7407
202.4467, 447.4146
202.9288, 447.2144
203.4109, 446.2352
203.8930, 446.1571
204.3752, 448.0372
204.8573, 449.7730
205.3394, 450.6540
205.8215, 450.7524
206.3036, 450.3431
206.7857, 449.4699
207.2679, 448.0737
207.7500, 447.3861
208.2321, 448.2843
208.7142, 449.1293
209.1963, 449.2870
209.6784, 448.9159
210.1606, 448.5904
210.6427, 448.8849
211.1248, 449.9311
211.6069, 450.3823
212.0890, 449.6196
212.5711, 448.8950
213.0533, 448.8210
213.5354, 449.2756
214.0175, 449.7195
214.4996, 449.6547
214.9817, 449.0053
215.4638, 448.3327
215.9460, 447.4020
216.4281, 446.6533
216.9102, 446.4421
217.3923, 446.6799
217.8744, 446.9196
218.3565, 446.7393
218.8387, 446.0718
219.3208, 445.5439
219.8029, 445.0761
220.2850, 444.7859
220.7671, 444.8335
221.2492, 445.1825
221.7314, 445.5723
222.2135, 445.8071
222.6956, 445.8622
223.1777, 445.7604
223.6598, 445.3070
224.1419, 444.8400
224.6240, 444.6556
225.1062, 444.7577
225.5883, 444.8763
226.0704, 444.7610
226.5525, 444.4538
227.0346, 444.2981
227.5167, 444.3224
227.9989, 444.5037
228.4810, 444.9201
228.9631, 445.5855
229.4452, 446.1562
229.9273, 446.3512
230.4094, 446.2473
230.8916, 446.0605
231.3737, 445.5828
231.8558, 445.1703
232.3379, 445.3537
232.8200, 446.2273
233.3021, 447.0334
233.7843, 447.2458
234.2664, 447.0798
234.7485, 446.8212
235.2306, 446.5108
235.7127, 446.1621
236.1948, 445.6782
236.6770, 444.9359
237.1591, 444.5694
237.6412, 445.3777
238.1233, 446.6018
238.6054, 447.3833
239.0875, 447.3292
239.5697, 446.9099
240.0518, 446.9063
240.5339, 447.4677
241.0160, 447.9687
241.4981, 448.1827
241.9802, 448.2159
242.4624, 448.0875
242.9445, 447.7467
243.4266, 447.4237
243.9087, 447.6365
244.3908, 448.7272
244.8729, 449.3983
245.3550, 448.8414
245.8372, 447.9742
246.3193, 447.5493
246.8014, 447.8225
247.2835, 448.5770
247.7656, 449.6137
248.2477, 451.3800
248.7299, 452.2865
249.2120, 451.4325
249.6941, 450.0966
250.1762, 449.1627
250.6583, 448.9126
251.1404, 449.1857
251.6226, 449.8617
252.1047, 451.4544
252.5868, 452.2320
253.0689, 451.1671
253.5510, 449.9373
254.0331, 449.9484
254.5153, 451.4681
254.9974, 453.4618
255.4795, 454.2874
255.9616, 453.2099
256.4437, 452.5197
256.9258, 452.3352
257.4080, 452.4193
257.8901, 452.7383
258.3722, 453.2272
258.8543, 453.6846
259.3364, 453.7884
259.8185, 453.2254
260.3007, 453.1219
260.7828, 453.5602
261.2649, 454.2832
261.7470, 455.3087
262.2291, 456.5407
262.7112, 457.6522
263.1934, 458.2394
263.6755, 458.0949
264.1576, 458.1644
264.6397, 458.0870
265.1218, 458.4609
265.6039, 460.0687
266.0861, 462.6372
266.5682, 464.9449
267.0503, 465.6926
267.5324, 464.5052
268.0145, 464.1389
268.4966, 464.8363
268.9788, 465.9409
269.4609, 467.4258
269.9430, 469.1011
270.4251, 470.5277
270.9072, 471.3456
271.3893, 471.5351
271.8715, 471.4543
272.3536, 470.6771
272.8357, 470.1032
273.3178, 470.3480
273.7999, 471.1498
274.2820, 471.7481
274.7642, 471.5969
275.2463, 470.7711
275.7284, 470.2016
276.2105, 470.1324
276.6926, 469.9881
277.1747, 469.6441
277.6568, 469.0785
278.1389, 468.2079
278.6211, 466.9311
279.1032, 465.3968
279.5853, 464.2563
280.0674, 463.6962
280.5495, 463.2159
281.0316, 462.7367
281.5138, 462.2501
281.9959, 461.7367
282.4780, 461.1872
282.9601, 460.6143
283.4422, 460.0370
283.9243, 459.2746
284.4065, 458.8273
284.8886, 459.0425
285.3707, 459.5724
285.8528, 459.9154
286.3349, 459.9055
286.8170, 459.6776
287.2992, 459.4343
287.7813, 459.1731
288.2634, 458.9111
288.7455, 458.6538
289.2276, 458.3967
289.7097, 458.0829
290.1919, 457.6913
290.6740, 457.4062
291.1561, 457.5426
291.6382, 458.1886
292.1203, 458.5334
292.6024, 458.0998
293.0846, 457.5534
293.5667, 457.5885
294.0488, 458.2886
294.5309, 459.2139
295.0130, 460.0227
295.4951, 460.7000
295.9773, 461.2310
296.4594, 461.6621
296.9415, 461.9095
297.4236, 461.7596
297.9057, 461.2565
298.3878, 460.8719
298.8700, 460.9243
299.3521, 461.4058
299.8342, 462.0128
300.3163, 463.2769
300.7984, 464.1801
301.2805, 463.8313
301.7627, 462.4876
302.2448, 461.3429
302.7269, 461.0442
303.2090, 461.3622
303.6911, 461.5176
304.1732, 461.2405
304.6554, 461.2442
305.1375, 462.1327
305.6196, 463.5679
306.1017, 464.6960
306.5838, 465.2173
307.0659, 465.2454
307.5481, 464.8112
308.0302, 463.6717
308.5123, 463.0430
308.9944, 463.7822
309.4765, 465.1934
309.9586, 465.9677
310.4408, 465.6689
310.9229, 465.1304
311.4050, 465.6008
311.8871, 467.1147
312.3692, 468.2928
312.8513, 468.8395
313.3335, 468.9183
313.8156, 468.5350
314.2977, 467.6639
314.7798, 466.9277
315.2619, 467.0583
315.7440, 467.9798
316.2262, 468.4489
316.7083, 467.9176
317.1904, 467.2131
317.6725, 467.1489
318.1546, 467.6928
318.6367, 468.0775
319.1188, 467.8091
319.6010, 466.9284
320.0831, 465.8842
320.5652, 464.3496
321.0473, 462.9742
321.5294, 462.1673
322.0115, 461.8322
322.4937, 461.6455
322.9758, 461.5161
323.4579, 461.3797
323.9400, 461.0653
324.4221, 460.5014
324.9042, 459.9537
325.3864, 459.4540
325.8685, 459.0430
326.3506, 458.8132
326.8327, 458.8118
327.3148, 458.9402
327.7969, 459.1300
328.2791, 459.4686
328.7612, 459.4302
329.2433, 458.5849
329.7254, 457.4663
330.2075, 456.6135
330.6896, 456.1194
331.1718, 456.0154
331.6539, 456.4824
332.1360, 457.5742
332.6181, 458.2178
333.1002, 458.0090
333.5823, 457.6191
334.0645, 457.4536
334.5466, 457.5462
335.0287, 457.8843
335.5108, 458.5204
335.9929, 459.3984
336.4750, 460.0794
336.9572, 460.5090
337.4393, 460.8297
337.9214, 461.1346
338.4035, 461.3774
338.8856, 461.4301
339.3677, 461.2186
339.8499, 460.8140
340.3320, 460.3911
340.8141, 459.9052
341.2962, 459.4803
341.7783, 459.0332
342.2604, 458.6971
342.7426, 458.7363
343.2247, 459.2270
343.7068, 459.8383
344.1889, 460.1075
344.6710, 459.8898
345.1531, 459.7070
345.6353, 459.5348
346.1174, 459.4205
346.5995, 459.3836
347.0816, 459.4347
347.5637, 459.6198
348.0458, 460.0159
348.5280, 460.6433
349.0101, 461.0235
349.4922, 461.0369
349.9743, 460.9727
350.4564, 460.9363
350.9385, 460.9201
351.4207, 460.8868
351.9028, 460.8160
352.3849, 460.7104
352.8670, 460.5749
353.3491, 460.1922
353.8312, 460.0502
354.3134, 460.2969
354.7955, 460.7807
355.2776, 461.4015
355.7597, 462.1129
356.2418, 462.7709
356.7239, 463.1242
357.2061, 462.9778
357.6882, 462.9027
358.1703, 462.8842
358.6524, 462.9370
359.1345, 463.1394
359.6166, 463.4533
360.0987, 463.7019
360.5808, 463.6996
361.0630, 463.4128
361.5451, 463.1797
362.0272, 463.0831
362.5093, 462.9494
362.9914, 462.5862
363.4735, 462.1526
363.9557, 461.9297
364.4378, 462.0815
364.9199, 462.5904
365.4020, 463.4292
365.8841, 465.4019
366.3662, 466.5538
366.8484, 465.9129
367.3305, 464.7669
367.8126, 464.4748
368.2947, 465.4383
368.7768, 466.8886
369.2589, 467.5321
369.7411, 466.8184
370.2232, 466.8135
370.7053, 468.6603
371.1874, 470.2903
371.6695, 470.3779
372.1516, 469.0914
372.6338, 467.6208
373.1159, 466.9757
373.5980, 467.1356
374.0801, 467.4545
374.5622, 468.1353
375.0443, 468.7236
375.5265, 468.9854
376.0086, 469.0810
376.4907, 469.3338
376.9728, 469.9969
377.4549, 470.6798
377.9370, 470.2973
378.4192, 468.2294
378.9013, 466.8683
379.3834, 467.4552
379.8655, 468.6404
380.3476, 469.5215
380.8297, 469.9121
381.3119, 469.9179
381.7940, 469.4494
382.2761, 468.5227
382.7582, 467.9507
383.2403, 467.8619
383.7224, 468.1668
384.2046, 468.8851
384.6867, 469.9198
385.1688, 470.9484
385.6509, 472.0010
386.1330, 472.8837
386.6151, 473.0268
387.0973, 472.2242
387.5794, 471.4120
388.0615, 471.0826
388.5436, 471.0871
389.0257, 471.2828
389.5078, 471.7490
389.9900, 472.2013
390.4721, 472.2771
390.9542, 472.0439
391.4363, 472.0791
391.9184, 472.7039
392.4005, 473.5133
392.8827, 473.9903
393.3648, 474.1474
393.8469, 474.0517
394.3290, 473.3359
394.8111, 472.5122
395.2932, 472.4737
395.7754, 473.3909
396.2575, 474.6739
396.7396, 476.0451
397.2217, 477.4138
397.7038, 478.0744
398.1859, 477.2159
398.6681, 476.3340
399.1501, 476.6099
399.6323, 477.7523
400.1144, 478.6427
400.5965, 478.7079
401.0786, 478.1823
401.5607, 477.7065
402.0428, 477.1968
402.5250, 476.8603
403.0071, 476.6923
403.4892, 476.7309
403.9713, 477.1532
404.4534, 477.9612
404.9355, 478.7444
405.4177, 478.9843
405.8998, 478.5136
406.3819, 478.3197
406.8640, 478.5797
407.3461, 478.9112
407.8282, 479.1494
408.3104, 479.3044
408.7925, 479.4359
409.2746, 479.5762
409.7567, 479.7404
410.2388, 480.0045
410.7209, 480.6277
411.2031, 481.0042
411.6852, 480.7280
412.1673, 480.3811
412.6494, 480.6273
413.1315, 481.5895
413.6136, 482.7304
414.0958, 483.2830
414.5779, 483.0371
415.0600, 483.0605
415.5421, 483.7455
416.0242, 484.3412
416.5063, 484.5228
416.9885, 484.3759
417.4706, 484.1223
417.9527, 483.8371
418.4348, 483.6117
418.9169, 483.8240
419.3990, 484.7427
419.8812, 485.5019
420.3633, 485.5900
420.8454, 485.5349
421.3275, 485.9751
421.8096, 487.0851
422.2917, 488.0269
422.7739, 487.5824
423.2560, 485.8535
423.7381, 485.0361
424.2202, 485.7820
424.7023, 487.0893
425.1844, 488.4103
425.6666, 489.6585
426.1487, 490.5077
426.6308, 490.6263
427.1129, 490.3552
427.5950, 490.0750
428.0771, 489.7680
428.5593, 489.8249
429.0414, 490.7209
429.5235, 491.9878
430.0056, 492.5795
430.4877, 492.2702
430.9698, 491.8025
431.4520, 491.3485
431.9341, 491.0267
432.4162, 491.1415
432.8983, 491.8036
433.3804, 492.6635
433.8625, 493.3491
434.3447, 493.8392
434.8268, 494.2345
435.3089, 494.4375
435.7910, 494.6296
436.2731, 494.9713
436.7552, 495.4141
437.2374, 495.7737
437.7195, 495.9349
438.2016, 495.9482
438.6837, 496.0045
439.1658, 496.0756
439.6479, 496.2294
440.1301, 496.4662
440.6122, 496.7917
441.0943, 497.2458
441.5764, 497.8183
442.0585, 498.4212
442.5406, 498.9501
443.0227, 499.3986
443.5049, 499.8443
443.9870, 500.2163
444.4691, 500.6624
444.9512, 501.3246
445.4333, 502.0709
445.9154, 502.6557
446.3976, 502.9249
446.8797, 503.0845
447.3618, 503.6216
447.8439, 504.6674
448.3260, 505.6951
448.8081, 507.0187
449.2903, 507.9907
449.7724, 507.8251
450.2545, 506.6578
450.7366, 505.7765
451.2187, 506.3506
451.7008, 508.0621
452.1830, 509.6114
452.6651, 511.0193
453.1472, 512.1311
453.6293, 512.7477
454.1114, 513.0298
454.5935, 513.0968
455.0757, 512.7462
455.5578, 512.6256
456.0399, 513.3837
456.5220, 514.8633
457.0041, 516.4728
457.4862, 518.1769
457.9684, 519.6788
458.4505, 520.5261
458.9326, 520.7505
459.4147, 520.7506
459.8968, 520.2178
460.3789, 519.7643
460.8611, 520.1168
461.3432, 521.1492
461.8253, 521.9857
462.3074, 522.0303
462.7895, 521.5349
463.2716, 521.5506
463.7538, 522.7305
464.2359, 523.5342
464.7180, 523.5860
465.2001, 523.2936
465.6822, 522.9922
466.1643, 522.7838
466.6465, 522.7148
467.1286, 522.8755
467.6107, 523.3165
468.0928, 523.4770
468.5749, 522.6858
469.0570, 522.3298
469.5392, 523.1127
470.0213, 524.4783
470.5034, 525.6629
470.9855, 526.3422
471.4676, 526.5557
471.9497, 526.2512
472.4319, 525.2594
472.9140, 524.5051
473.3961, 524.3302
473.8782, 524.2638
474.3603, 523.9998
474.8424, 523.5936
475.3246, 523.3137
475.8067, 523.2988
476.2888, 523.5294
476.7709, 524.0554
477.2530, 524.9444
477.7351, 525.7173
478.2173, 526.3326
478.6994, 526.5667
479.1815, 525.9993
479.6636, 524.3564
480.1457, 522.8596
480.6278, 521.9925
481.1100, 521.7151
481.5920, 522.1682
482.0742, 523.4116
482.5563, 524.5950
483.0384, 524.9276
483.5205, 524.4023
484.0026, 524.0006
484.4847, 523.8276
484.9669, 523.6528
485.4490, 523.3961
485.9311, 523.0678
486.4132, 522.5319
486.8953, 521.7440
487.3774, 521.2039
487.8596, 521.8292
488.3417, 524.3309
488.8238, 526.0636
489.3059, 527.0233
489.7880, 527.3619
490.2701, 526.8126
490.7523, 525.7116
491.2344, 524.6492
491.7165, 523.9263
492.1986, 523.6424
492.6807, 524.3162
493.1628, 526.6559
493.6450, 527.9905
494.1271, 526.7953
494.6092, 525.0927
495.0913, 524.1052
495.5734, 523.9300
496.0555, 524.0945
496.5377, 524.3982
497.0198, 524.7859
497.5019, 525.1374
497.9840, 525.4748
498.4661, 525.6444
498.9482, 525.4054
499.4304, 525.0016
499.9125, 524.9095
500.3946, 525.2484
500.8767, 525.6652
501.3588, 525.9983
501.8409, 526.2907
502.3231, 526.6485
502.8052, 527.0944
503.2873, 527.5056
503.7694, 527.7684
504.2515, 527.8784
504.7336, 527.9120
505.2158, 527.9128
505.6979, 527.8006
506.1800, 527.0244
506.6621, 526.2717
507.1442, 526.8441
507.6263, 529.1470
508.1085, 531.9728
508.5906, 533.4377
509.0727, 533.2070
509.5548, 532.8193
510.0369, 531.8217
510.5190, 531.1185
511.0012, 531.2277
511.4833, 531.8611
511.9654, 532.4930
512.4475, 532.9005
512.9296, 533.0558
513.4117, 532.7482
513.8939, 531.8562
514.3760, 531.4888
514.8581, 532.5157
515.3402, 533.4987
515.8223, 532.9271
516.3044, 531.0745
516.7866, 529.8029
517.2687, 530.3053
517.7508, 531.5729
518.2329, 532.3394
518.7150, 532.6190
519.1971, 532.9459
519.6793, 533.6537
520.1614, 534.4630
520.6435, 534.7018
521.1256, 534.3015
521.6077, 533.6909
522.0898, 532.3727
522.5720, 531.2670
523.0541, 531.4514
523.5362, 532.7667
524.0183, 534.0622
524.5004, 534.4712
524.9825, 534.2195
525.4647, 534.5149
525.9468, 536.1224
526.4289, 537.1748
526.9110, 537.0983
527.3931, 536.7259
527.8752, 536.8027
528.3574, 537.3624
528.8395, 537.8478
529.3216, 537.6754
529.8037, 536.9891
530.2858, 536.6593
530.7679, 536.7369
531.2501, 537.0597
531.7322, 537.7774
532.2143, 538.6019
532.6964, 539.2567
533.1785, 539.6948
533.6606, 539.9916
534.1428, 540.2582
534.6249, 540.4077
535.1070, 540.1087
535.5891, 539.2714
536.0712, 538.6292
536.5533, 538.8177
537.0355, 539.6925
537.5176, 540.2785
537.9997, 540.2490
538.4818, 540.3596
538.9639, 540.9851
539.4460, 541.7960
539.9282, 542.4208
540.4103, 542.7675
540.8924, 542.8941
541.3745, 542.8340
541.8566, 542.5800
542.3387, 542.3768
542.8209, 541.8936
543.3029, 541.8865
543.7850, 542.8165
544.2672, 544.1495
544.7493, 545.4114
545.2314, 546.4484
545.7135, 547.0950
546.1956, 546.8812
546.6777, 545.9230
547.1599, 545.7142
547.6420, 546.7136
548.1241, 547.6563
548.6062, 547.4587
549.0883, 546.7462
549.5704, 546.5391
550.0526, 547.1484
550.5347, 547.9768
551.0168, 548.8346
551.4989, 549.6115
551.9810, 550.0408
552.4631, 550.0621
552.9453, 549.9070
553.4274, 549.7724
553.9095, 549.6570
554.3916, 549.5400
554.8737, 548.9464
555.3558, 548.9089
555.8380, 550.3923
556.3201, 552.2795
556.8022, 553.0748
557.2843, 552.4606
557.7664, 551.3766
558.2485, 550.8286
558.7307, 550.8236
559.2128, 551.2042
559.6949, 552.1875
560.1770, 553.2589
560.6591, 554.5836
561.1412, 555.7429
561.6234, 556.0769
562.1055, 555.3471
562.5876, 554.5843
563.0697, 554.7792
563.5518, 555.6726
564.0339, 556.4272
564.5161, 556.9571
564.9982, 557.2992
565.4803, 557.3969
565.9624, 557.3239
566.4445, 557.4306
566.9266, 558.0834
567.4088, 558.3955
567.8909, 557.5743
568.3730, 556.4776
568.8551, 556.1475
569.3372, 556.7715
569.8193, 558.0513
570.3015, 559.8363
570.7836, 562.0638
571.2657, 563.3992
571.7478, 563.3124
572.2299, 562.9896
572.7120, 562.1038
573.1942, 561.3889
573.6763, 561.7295
574.1584, 563.1481
574.6405, 564.6133
575.1226, 565.0467
575.6047, 564.7563
576.0869, 565.1706
576.5690, 566.5262
577.0511, 567.5726
577.5332, 567.5271
578.0153, 566.9128
578.4974, 566.5350
578.9796, 566.3817
579.4617, 566.5831
579.9438, 567.7076
580.4259, 568.9073
580.9080, 568.9791
581.3901, 568.0204
581.8723, 567.1989
582.3544, 567.2386
582.8365, 567.9884
583.3186, 568.9562
583.8007, 570.8284
584.2828, 571.8475
584.7650, 571.2687
585.2471, 570.4933
585.7292, 570.4511
586.2113, 571.0621
586.6934, 571.7693
587.1755, 572.2589
587.6577, 572.5624
588.1398, 572.6770
588.6219, 572.5490
589.1040, 572.5961
589.5861, 572.9217
590.0682, 573.4606
590.5504, 574.1064
591.0325, 574.8720
