##NAMES=Bobjonesite
##RRUFFID=R060530
##IDEAL CHEMISTRY=V^4+^OS^6+^O_4_&#183;3H_2_O
##LOCALITY=Petrified log in the North Mesa 5 mine, Temple Mountain, Emery County, Utah, USA
##OWNER=RRUFF
##SOURCE=Michael Scott
##DESCRIPTION=Blue granular crystals
##STATUS=The identification of this mineral has been confirmed by single-crystal X-ray diffraction.
##URL=rruff.info/R060530
89.78320, 6010.726
90.26532, 5961.524
90.74744, 5959.547
91.22955, 6020.996
91.71167, 6113.785
92.19379, 6197.168
92.67590, 6275.533
93.15802, 6351.882
93.64014, 6422.871
94.12225, 6493.157
94.60437, 6573.688
95.08649, 6671.942
95.56860, 6776.732
96.05072, 6881.247
96.53284, 6994.115
97.01495, 7082.784
97.49707, 7123.583
97.97919, 7117.935
98.46130, 7051.792
98.94342, 6916.354
99.42554, 6715.604
99.90765, 6484.295
100.3898, 6213.782
100.8719, 5928.495
101.3540, 5657.293
101.8361, 5392.854
102.3182, 5156.355
102.8004, 4951.767
103.2825, 4779.971
103.7646, 4637.864
104.2467, 4528.596
104.7288, 4446.351
105.2109, 4379.258
105.6931, 4327.514
106.1752, 4288.442
106.6573, 4260.453
107.1394, 4245.322
107.6215, 4238.142
108.1036, 4242.710
108.5858, 4256.558
109.0679, 4265.966
109.5500, 4266.735
110.0321, 4266.583
110.5142, 4269.614
110.9963, 4276.112
111.4785, 4285.451
111.9606, 4296.647
112.4427, 4309.771
112.9248, 4328.253
113.4069, 4354.965
113.8890, 4385.768
114.3712, 4417.681
114.8533, 4447.179
115.3354, 4480.069
115.8175, 4518.977
116.2996, 4564.928
116.7817, 4611.666
117.2639, 4655.797
117.7460, 4700.160
118.2281, 4748.342
118.7102, 4805.352
119.1923, 4864.070
119.6744, 4919.961
120.1566, 4972.443
120.6387, 5022.850
121.1208, 5075.204
121.6029, 5125.857
122.0850, 5166.901
122.5671, 5197.403
123.0493, 5214.808
123.5314, 5216.279
124.0135, 5200.743
124.4956, 5170.155
124.9777, 5121.266
125.4598, 5056.994
125.9420, 4989.392
126.4241, 4920.675
126.9062, 4854.460
127.3883, 4797.469
127.8704, 4751.404
128.3525, 4714.640
128.8347, 4685.570
129.3168, 4664.019
129.7989, 4648.764
130.2810, 4641.161
130.7631, 4639.664
131.2452, 4637.641
131.7274, 4633.352
132.2095, 4627.567
132.6916, 4622.403
133.1737, 4617.966
133.6558, 4613.482
134.1379, 4608.170
134.6201, 4602.067
135.1022, 4595.224
135.5843, 4587.147
136.0664, 4578.190
136.5485, 4571.351
137.0306, 4566.888
137.5128, 4563.881
137.9949, 4560.789
138.4770, 4557.210
138.9591, 4555.392
139.4412, 4555.955
139.9233, 4558.869
140.4055, 4564.165
140.8876, 4572.792
141.3697, 4582.697
141.8518, 4590.441
142.3339, 4595.058
142.8160, 4599.441
143.2982, 4604.006
143.7803, 4607.353
144.2624, 4615.403
144.7445, 4629.429
145.2266, 4647.848
145.7087, 4666.314
146.1909, 4684.660
146.6730, 4703.732
147.1551, 4724.083
147.6372, 4745.513
148.1193, 4768.451
148.6014, 4794.464
149.0836, 4822.243
149.5657, 4848.219
150.0478, 4870.376
150.5299, 4891.808
151.0120, 4914.007
151.4941, 4940.718
151.9763, 4963.442
152.4584, 4983.662
152.9405, 5000.360
153.4226, 5009.244
153.9047, 5009.951
154.3868, 5002.727
154.8690, 4987.702
155.3511, 4959.928
155.8332, 4929.635
156.3153, 4899.194
156.7974, 4868.196
157.2795, 4833.137
157.7617, 4788.679
158.2438, 4742.394
158.7259, 4699.763
159.2080, 4662.234
159.6901, 4628.421
160.1722, 4598.227
160.6544, 4571.637
161.1365, 4547.946
161.6186, 4526.346
162.1007, 4507.893
162.5828, 4493.033
163.0649, 4483.120
163.5471, 4476.000
164.0292, 4471.107
164.5113, 4468.379
164.9934, 4466.713
165.4755, 4466.195
165.9576, 4466.189
166.4398, 4465.928
166.9219, 4463.544
167.4040, 4461.839
167.8861, 4462.811
168.3682, 4466.616
168.8503, 4471.725
169.3325, 4477.679
169.8146, 4484.295
170.2967, 4491.174
170.7788, 4497.805
171.2609, 4504.977
171.7430, 4513.650
172.2252, 4524.106
172.7073, 4534.680
173.1894, 4543.628
173.6715, 4551.748
174.1536, 4560.482
174.6357, 4570.618
175.1179, 4581.878
175.6000, 4594.230
176.0821, 4607.705
176.5642, 4621.399
177.0463, 4634.091
177.5284, 4646.216
178.0106, 4658.889
178.4927, 4672.956
178.9748, 4687.988
179.4569, 4702.755
179.9390, 4717.100
180.4211, 4731.998
180.9033, 4748.842
181.3854, 4767.579
181.8675, 4787.312
182.3496, 4807.704
182.8317, 4828.720
183.3138, 4851.701
183.7960, 4876.975
184.2781, 4903.040
184.7602, 4927.558
185.2423, 4950.752
185.7244, 4972.655
186.2065, 4992.405
186.6887, 5010.771
187.1708, 5031.626
187.6529, 5056.135
188.1350, 5081.448
188.6171, 5101.690
189.0992, 5117.123
189.5814, 5131.701
190.0635, 5147.618
190.5456, 5164.994
191.0277, 5182.938
191.5098, 5201.364
191.9919, 5220.530
192.4741, 5239.981
192.9562, 5259.541
193.4383, 5281.396
193.9204, 5306.805
194.4025, 5335.704
194.8846, 5367.080
195.3668, 5400.720
195.8489, 5436.852
196.3310, 5476.135
196.8131, 5518.624
197.2952, 5563.522
197.7773, 5611.246
198.2595, 5661.640
198.7416, 5713.021
199.2237, 5764.352
199.7058, 5816.651
200.1879, 5872.931
200.6700, 5934.757
201.1522, 5996.136
201.6343, 6053.127
202.1164, 6105.479
202.5985, 6157.057
203.0806, 6209.184
203.5627, 6259.911
204.0449, 6302.747
204.5270, 6337.866
205.0091, 6364.380
205.4912, 6380.761
205.9733, 6386.087
206.4554, 6386.437
206.9376, 6382.032
207.4197, 6373.260
207.9018, 6360.781
208.3839, 6343.624
208.8660, 6325.241
209.3481, 6307.841
209.8303, 6291.204
210.3124, 6276.600
210.7945, 6264.820
211.2766, 6255.237
211.7587, 6245.301
212.2408, 6236.231
212.7230, 6224.235
213.2051, 6207.132
213.6872, 6185.288
214.1693, 6156.394
214.6514, 6119.393
215.1335, 6074.940
215.6157, 6028.157
216.0978, 5978.478
216.5799, 5926.418
217.0620, 5870.831
217.5441, 5808.985
218.0262, 5750.827
218.5084, 5696.739
218.9905, 5646.354
219.4726, 5600.316
219.9547, 5557.184
220.4368, 5519.663
220.9189, 5490.285
221.4011, 5470.507
221.8832, 5454.892
222.3653, 5443.872
222.8474, 5436.791
223.3295, 5429.726
223.8116, 5421.510
224.2938, 5415.462
224.7759, 5413.469
225.2580, 5415.542
225.7401, 5421.929
226.2222, 5434.476
226.7043, 5451.284
227.1865, 5464.990
227.6686, 5474.084
228.1507, 5481.817
228.6328, 5490.102
229.1149, 5500.104
229.5970, 5507.921
230.0792, 5513.477
230.5613, 5516.711
231.0434, 5516.820
231.5255, 5512.370
232.0076, 5507.124
232.4897, 5503.569
232.9719, 5504.131
233.4540, 5500.924
233.9361, 5491.669
234.4182, 5478.628
234.9003, 5469.490
235.3824, 5465.200
235.8646, 5463.459
236.3467, 5462.969
236.8288, 5462.657
237.3109, 5465.961
237.7930, 5473.919
238.2751, 5485.293
238.7573, 5496.132
239.2394, 5505.488
239.7215, 5515.452
240.2036, 5527.120
240.6857, 5541.309
241.1678, 5555.288
241.6500, 5569.860
242.1321, 5583.869
242.6142, 5594.595
243.0963, 5601.319
243.5784, 5605.686
244.0605, 5608.648
244.5427, 5611.575
245.0248, 5609.592
245.5069, 5601.404
245.9890, 5588.868
246.4711, 5576.004
246.9532, 5562.454
247.4354, 5549.138
247.9175, 5536.575
248.3996, 5524.830
248.8817, 5513.543
249.3638, 5502.169
249.8459, 5491.692
250.3281, 5483.695
250.8102, 5477.695
251.2923, 5475.187
251.7744, 5476.849
252.2565, 5483.099
252.7386, 5491.820
253.2208, 5503.057
253.7029, 5516.743
254.1850, 5533.147
254.6671, 5552.927
255.1492, 5574.049
255.6313, 5595.245
256.1135, 5615.747
256.5956, 5640.810
257.0777, 5672.328
257.5598, 5706.052
258.0419, 5735.949
258.5240, 5759.776
259.0062, 5783.869
259.4883, 5809.810
259.9704, 5837.100
260.4525, 5866.398
260.9346, 5897.194
261.4167, 5930.203
261.8989, 5966.653
262.3810, 6007.290
262.8631, 6048.685
263.3452, 6089.071
263.8273, 6129.097
264.3094, 6173.038
264.7916, 6221.971
265.2737, 6274.416
265.7558, 6329.287
266.2379, 6385.324
266.7200, 6447.153
267.2021, 6516.875
267.6843, 6593.802
268.1664, 6673.834
268.6485, 6756.684
269.1306, 6842.764
269.6127, 6932.146
270.0948, 7025.266
270.5770, 7118.252
271.0591, 7210.932
271.5412, 7301.898
272.0233, 7389.100
272.5054, 7473.425
272.9875, 7547.272
273.4697, 7606.765
273.9518, 7653.518
274.4339, 7677.950
274.9160, 7678.491
275.3981, 7656.440
275.8802, 7613.208
276.3624, 7547.794
276.8445, 7467.636
277.3266, 7374.507
277.8087, 7267.637
278.2908, 7159.311
278.7729, 7049.752
279.2551, 6940.345
279.7372, 6836.451
280.2193, 6737.791
280.7014, 6644.462
281.1835, 6554.631
281.6656, 6468.375
282.1478, 6391.082
282.6299, 6323.467
283.1120, 6263.874
283.5941, 6210.500
284.0762, 6163.274
284.5583, 6119.871
285.0405, 6078.361
285.5226, 6039.053
286.0047, 6004.969
286.4868, 5976.328
286.9689, 5952.196
287.4510, 5931.913
287.9332, 5915.386
288.4153, 5900.959
288.8974, 5887.809
289.3795, 5876.323
289.8616, 5868.857
290.3438, 5865.591
290.8259, 5864.989
291.3080, 5865.134
291.7901, 5866.306
292.2722, 5870.308
292.7543, 5878.117
293.2365, 5888.907
293.7186, 5900.724
294.2007, 5913.454
294.6828, 5927.872
295.1649, 5944.750
295.6470, 5963.796
296.1292, 5984.606
296.6113, 6006.784
297.0934, 6030.689
297.5755, 6058.057
298.0576, 6088.736
298.5397, 6119.462
299.0219, 6146.706
299.5040, 6172.774
299.9861, 6202.622
300.4682, 6238.249
300.9503, 6275.865
301.4324, 6312.013
301.9146, 6346.586
302.3967, 6380.549
302.8788, 6414.178
303.3609, 6447.454
303.8430, 6479.505
304.3251, 6509.933
304.8073, 6540.138
305.2894, 6572.294
305.7715, 6605.314
306.2536, 6637.524
306.7357, 6666.574
307.2178, 6694.706
307.7000, 6722.849
308.1821, 6750.680
308.6642, 6781.500
309.1463, 6819.498
309.6284, 6861.522
310.1105, 6903.314
310.5927, 6940.897
311.0748, 6978.476
311.5569, 7020.322
312.0390, 7066.479
312.5211, 7111.841
313.0032, 7153.506
313.4854, 7193.547
313.9675, 7233.613
314.4496, 7280.174
314.9317, 7321.657
315.4138, 7353.734
315.8959, 7376.494
316.3781, 7391.359
316.8602, 7403.148
317.3423, 7404.852
317.8244, 7391.094
318.3065, 7358.049
318.7886, 7313.369
319.2708, 7257.735
319.7529, 7192.213
320.2350, 7119.521
320.7171, 7039.244
321.1992, 6953.617
321.6813, 6862.752
322.1635, 6762.989
322.6456, 6666.177
323.1277, 6574.891
323.6098, 6487.802
324.0919, 6402.376
324.5740, 6314.946
325.0562, 6233.142
325.5383, 6160.206
326.0204, 6097.935
326.5025, 6037.852
326.9846, 5976.945
327.4667, 5919.250
327.9489, 5868.307
328.4310, 5827.841
328.9131, 5790.039
329.3952, 5753.734
329.8773, 5718.970
330.3594, 5685.911
330.8416, 5654.282
331.3237, 5624.987
331.8058, 5598.785
332.2879, 5575.988
332.7700, 5555.550
333.2521, 5536.920
333.7343, 5520.266
334.2164, 5506.829
334.6985, 5498.401
335.1806, 5490.493
335.6627, 5480.360
336.1448, 5466.649
336.6270, 5455.024
337.1091, 5445.964
337.5912, 5438.926
338.0733, 5433.119
338.5554, 5429.221
339.0375, 5424.604
339.5197, 5417.648
340.0018, 5408.203
340.4839, 5400.663
340.9660, 5395.235
341.4481, 5391.563
341.9302, 5390.253
342.4124, 5391.567
342.8945, 5390.970
343.3766, 5386.213
343.8587, 5378.470
344.3408, 5373.097
344.8229, 5370.328
345.3051, 5368.456
345.7872, 5365.763
346.2693, 5362.484
346.7514, 5360.220
347.2335, 5359.564
347.7156, 5359.853
348.1978, 5359.854
348.6799, 5359.644
349.1620, 5359.648
349.6441, 5361.338
350.1262, 5363.460
350.6083, 5362.208
351.0905, 5356.272
351.5726, 5350.160
352.0547, 5349.532
352.5368, 5353.124
353.0189, 5357.108
353.5010, 5359.208
353.9832, 5360.773
354.4653, 5364.194
354.9474, 5369.696
355.4295, 5373.685
355.9116, 5370.677
356.3937, 5364.850
356.8759, 5362.540
357.3580, 5369.444
357.8401, 5377.757
358.3222, 5381.971
358.8043, 5382.695
359.2864, 5383.294
359.7686, 5385.818
360.2507, 5388.875
360.7328, 5391.050
361.2149, 5390.726
361.6970, 5391.671
362.1791, 5396.771
362.6613, 5404.215
363.1434, 5409.894
363.6255, 5410.876
364.1076, 5410.999
364.5897, 5412.111
365.0718, 5414.796
365.5540, 5416.993
366.0361, 5417.708
366.5182, 5417.966
367.0003, 5419.016
367.4824, 5423.493
367.9645, 5426.314
368.4467, 5425.272
368.9288, 5420.163
369.4109, 5418.093
369.8930, 5422.084
370.3751, 5426.967
370.8572, 5429.138
371.3394, 5425.706
371.8215, 5424.625
372.3036, 5427.562
372.7857, 5433.221
373.2678, 5436.767
373.7499, 5436.572
374.2321, 5437.049
374.7142, 5440.380
375.1963, 5447.213
375.6784, 5454.108
376.1605, 5461.247
376.6426, 5468.038
377.1248, 5473.208
377.6069, 5476.581
378.0890, 5479.603
378.5711, 5482.679
379.0532, 5485.805
379.5353, 5488.433
380.0175, 5490.392
380.4996, 5492.947
380.9817, 5498.228
381.4638, 5505.741
381.9459, 5511.299
382.4280, 5513.511
382.9102, 5513.933
383.3923, 5514.921
383.8744, 5516.496
384.3565, 5519.169
384.8386, 5524.736
385.3207, 5531.359
385.8029, 5534.585
386.2850, 5533.507
386.7671, 5531.644
387.2492, 5532.696
387.7313, 5535.747
388.2134, 5538.694
388.6956, 5540.111
389.1777, 5541.339
389.6598, 5543.970
390.1419, 5547.961
390.6240, 5551.618
391.1061, 5554.201
391.5883, 5555.935
392.0704, 5557.036
392.5525, 5557.333
393.0346, 5557.475
393.5167, 5557.148
393.9988, 5556.857
394.4810, 5557.962
394.9631, 5561.497
395.4452, 5566.107
395.9273, 5571.283
396.4094, 5577.200
396.8915, 5582.875
397.3737, 5587.528
397.8558, 5591.955
398.3379, 5597.143
398.8200, 5604.318
399.3021, 5610.871
399.7842, 5615.634
400.2664, 5618.563
400.7485, 5623.297
401.2306, 5631.522
401.7127, 5639.703
402.1948, 5645.403
402.6769, 5647.048
403.1591, 5649.533
403.6412, 5653.504
404.1233, 5658.263
404.6054, 5662.095
405.0875, 5664.592
405.5696, 5667.321
406.0518, 5671.203
406.5339, 5676.339
407.0160, 5680.616
407.4981, 5683.942
407.9802, 5686.865
408.4623, 5689.905
408.9445, 5693.142
409.4266, 5696.709
409.9087, 5700.670
410.3908, 5705.110
410.8729, 5710.110
411.3550, 5715.746
411.8372, 5721.969
412.3193, 5728.466
412.8014, 5735.611
413.2835, 5744.744
413.7656, 5756.555
414.2477, 5768.366
414.7299, 5776.515
415.2120, 5782.222
415.6941, 5788.287
416.1762, 5795.869
416.6583, 5804.375
417.1404, 5813.614
417.6226, 5823.503
418.1047, 5832.736
418.5868, 5839.410
419.0689, 5845.542
419.5510, 5853.264
420.0331, 5864.311
420.5153, 5875.319
420.9974, 5885.187
421.4795, 5894.069
421.9616, 5901.903
422.4437, 5909.389
422.9258, 5915.508
423.4080, 5919.451
423.8901, 5920.410
424.3722, 5922.619
424.8543, 5928.534
425.3364, 5935.028
425.8185, 5938.888
426.3007, 5937.418
426.7828, 5937.456
427.2649, 5940.490
427.7470, 5945.986
428.2291, 5950.649
428.7112, 5954.331
429.1934, 5957.252
429.6755, 5958.977
430.1576, 5958.690
430.6397, 5961.244
431.1218, 5967.338
431.6039, 5975.236
432.0861, 5982.055
432.5682, 5987.634
433.0503, 5994.619
433.5324, 6004.565
434.0145, 6016.594
434.4966, 6027.799
434.9788, 6038.233
435.4609, 6047.925
435.9430, 6056.075
436.4251, 6063.631
436.9072, 6073.247
437.3893, 6085.876
437.8715, 6099.730
438.3536, 6112.241
438.8357, 6124.221
439.3178, 6137.932
439.7999, 6155.428
440.2820, 6174.594
440.7642, 6193.242
441.2463, 6211.334
441.7284, 6229.731
442.2105, 6249.218
442.6926, 6269.130
443.1747, 6288.843
443.6569, 6308.247
444.1390, 6327.278
444.6211, 6344.161
445.1032, 6360.407
445.5853, 6379.893
446.0674, 6407.007
446.5496, 6434.533
447.0317, 6459.791
447.5138, 6482.195
447.9959, 6504.703
448.4780, 6527.489
448.9601, 6550.687
449.4423, 6574.641
449.9244, 6598.423
450.4065, 6624.833
450.8886, 6655.210
451.3707, 6688.391
451.8528, 6720.574
452.3350, 6751.793
452.8171, 6782.226
453.2992, 6811.834
453.7813, 6840.618
454.2634, 6871.074
454.7455, 6903.288
455.2277, 6937.374
455.7098, 6975.124
456.1919, 7015.628
456.6740, 7055.635
457.1561, 7092.519
457.6382, 7128.647
458.1204, 7168.361
458.6025, 7211.280
459.0846, 7251.729
459.5667, 7285.226
460.0488, 7314.866
460.5309, 7345.104
461.0131, 7376.902
461.4952, 7407.638
461.9773, 7436.414
462.4594, 7462.353
462.9415, 7484.521
463.4236, 7503.068
463.9058, 7516.890
464.3879, 7525.309
464.8700, 7528.314
465.3521, 7527.504
465.8342, 7523.363
466.3163, 7515.344
466.7985, 7502.804
467.2806, 7482.959
467.7627, 7463.533
468.2448, 7443.994
468.7269, 7425.369
469.2090, 7408.945
469.6912, 7395.289
470.1733, 7382.394
470.6554, 7369.427
471.1375, 7356.627
471.6196, 7346.320
472.1017, 7338.377
472.5839, 7333.181
473.0660, 7332.255
473.5481, 7335.679
474.0302, 7335.958
474.5123, 7332.103
474.9944, 7326.352
475.4766, 7322.508
475.9587, 7320.132
476.4408, 7316.015
476.9229, 7309.603
477.4050, 7300.478
477.8871, 7288.014
478.3693, 7272.274
478.8514, 7253.275
479.3335, 7228.982
479.8156, 7202.219
480.2977, 7176.829
480.7798, 7154.192
481.2620, 7130.626
481.7441, 7103.733
482.2262, 7074.521
482.7083, 7044.509
483.1904, 7011.464
483.6725, 6979.997
484.1547, 6952.626
484.6368, 6929.139
485.1189, 6905.309
485.6010, 6879.149
486.0831, 6853.458
486.5652, 6829.737
487.0474, 6807.838
487.5295, 6787.959
488.0116, 6771.366
488.4937, 6756.071
488.9758, 6738.571
489.4579, 6717.186
489.9401, 6698.859
490.4222, 6686.185
490.9043, 6677.690
491.3864, 6665.139
491.8685, 6647.750
492.3506, 6631.380
492.8328, 6621.088
493.3149, 6615.541
493.7970, 6608.227
494.2791, 6598.466
494.7612, 6588.039
495.2433, 6578.261
495.7255, 6569.349
496.2076, 6561.763
496.6897, 6557.111
497.1718, 6552.561
497.6539, 6544.203
498.1360, 6533.337
498.6182, 6524.732
499.1003, 6522.955
499.5824, 6523.005
500.0645, 6521.237
500.5466, 6516.550
501.0287, 6512.864
501.5109, 6512.949
501.9930, 6513.761
502.4751, 6512.258
502.9572, 6504.529
503.4393, 6498.584
503.9214, 6495.898
504.4036, 6495.662
504.8857, 6495.064
505.3678, 6494.066
505.8499, 6492.778
506.3320, 6491.127
506.8141, 6489.088
507.2963, 6487.376
507.7784, 6485.726
508.2605, 6485.167
508.7426, 6487.800
509.2247, 6493.286
509.7068, 6496.260
510.1890, 6495.168
510.6711, 6492.126
511.1532, 6490.659
511.6353, 6490.387
512.1174, 6489.678
512.5995, 6485.913
513.0817, 6482.122
513.5638, 6483.103
514.0459, 6488.672
514.5280, 6493.231
515.0101, 6492.618
515.4922, 6489.700
515.9744, 6486.990
516.4565, 6484.485
516.9386, 6483.417
517.4207, 6485.742
517.9028, 6489.530
518.3849, 6491.575
518.8671, 6489.554
519.3492, 6487.690
519.8313, 6486.748
520.3134, 6486.695
520.7955, 6487.321
521.2776, 6489.218
521.7598, 6490.785
522.2419, 6490.686
522.7240, 6488.213
523.2061, 6487.825
523.6882, 6490.135
524.1703, 6493.300
524.6525, 6495.003
525.1346, 6495.337
525.6167, 6495.268
526.0988, 6495.056
526.5809, 6494.734
527.0630, 6494.647
527.5452, 6494.678
528.0273, 6493.902
528.5094, 6490.860
528.9915, 6487.228
529.4736, 6484.760
529.9557, 6483.569
530.4379, 6483.220
530.9200, 6483.832
531.4021, 6484.854
531.8842, 6485.663
532.3663, 6484.775
532.8484, 6485.373
533.3306, 6490.353
533.8127, 6497.122
534.2948, 6500.086
534.7769, 6494.110
535.2590, 6489.831
535.7411, 6490.862
536.2233, 6496.987
536.7054, 6498.575
537.1875, 6493.435
537.6696, 6488.231
538.1517, 6487.970
538.6339, 6493.236
539.1160, 6496.261
539.5981, 6496.192
540.0802, 6495.233
540.5623, 6496.612
541.0444, 6499.861
541.5266, 6502.326
542.0087, 6502.913
542.4908, 6502.517
542.9729, 6501.467
543.4550, 6500.218
543.9371, 6500.663
544.4193, 6504.626
544.9014, 6510.170
545.3835, 6515.923
545.8656, 6521.752
546.3477, 6527.352
546.8298, 6533.437
547.3120, 6538.787
547.7941, 6542.343
548.2762, 6542.667
548.7583, 6542.887
549.2404, 6543.231
549.7225, 6543.563
550.2047, 6543.655
550.6868, 6543.378
551.1689, 6543.116
551.6510, 6543.130
552.1331, 6543.312
552.6152, 6542.917
553.0974, 6542.079
553.5795, 6540.438
554.0616, 6536.810
554.5437, 6531.962
555.0258, 6530.315
555.5079, 6532.466
555.9901, 6535.977
556.4722, 6538.570
556.9543, 6540.671
557.4364, 6543.081
557.9185, 6546.052
558.4006, 6549.331
558.8828, 6552.321
559.3649, 6555.354
559.8470, 6559.343
560.3291, 6566.128
560.8112, 6572.307
561.2933, 6575.769
561.7755, 6576.310
562.2576, 6577.630
562.7397, 6581.140
563.2218, 6584.615
563.7039, 6587.076
564.1860, 6588.619
564.6682, 6588.761
565.1503, 6586.762
565.6324, 6584.485
566.1145, 6584.577
566.5966, 6587.400
567.0787, 6590.408
567.5609, 6593.356
568.0430, 6596.110
568.5251, 6598.222
569.0072, 6599.787
569.4893, 6600.959
569.9714, 6601.116
570.4536, 6601.283
570.9357, 6603.021
571.4178, 6606.264
571.8999, 6610.057
572.3820, 6613.910
572.8641, 6617.842
573.3463, 6621.642
573.8284, 6624.817
574.3105, 6628.994
574.7926, 6636.173
575.2747, 6643.981
575.7568, 6649.384
576.2390, 6649.964
576.7211, 6651.002
577.2032, 6653.191
577.6853, 6656.248
578.1674, 6659.090
578.6495, 6661.552
579.1317, 6664.376
579.6138, 6667.834
580.0959, 6671.952
580.5780, 6677.251
581.0601, 6683.997
581.5422, 6689.948
582.0244, 6692.112
582.5065, 6692.192
582.9886, 6694.468
583.4707, 6699.779
583.9528, 6706.153
584.4349, 6711.490
584.9171, 6716.845
585.3992, 6723.821
585.8813, 6736.235
586.3634, 6746.802
586.8455, 6750.506
