##NAMES=Bobtraillite
##RRUFFID=R070414
##IDEAL CHEMISTRY=(Na,Ca)_13_Sr_11_(Zr^4+^,Y,Nb^5+^)_14_Si_42_B_6_O_132_(OH)_12_&#183;12H_2_O
##LOCALITY=Mont Saint-Hilaire, Rouville County, Quebec, Canada
##OWNER=RRUFF
##SOURCE=Michael Scott
##DESCRIPTION=Pale gray hexagonal prisms, co-type material
##STATUS=The identification of this mineral has been confirmed by single-crystal X-ray diffraction.
##URL=rruff.info/R070414
164.6075, 36515.09
165.0896, 36501.33
165.5717, 36517.78
166.0538, 36642.05
166.5359, 36821.92
167.0180, 36982.65
167.5002, 37101.03
167.9823, 37185.34
168.4644, 37228.20
168.9465, 37221.80
169.4286, 37224.41
169.9107, 37304.33
170.3929, 37425.57
170.8750, 37514.40
171.3571, 37503.54
171.8392, 37452.96
172.3213, 37428.44
172.8034, 37444.05
173.2856, 37467.05
173.7677, 37458.29
174.2498, 37428.64
174.7319, 37415.46
175.2140, 37455.64
175.6961, 37523.18
176.1783, 37579.99
176.6604, 37620.26
177.1425, 37644.77
177.6246, 37650.88
178.1067, 37639.83
178.5888, 37620.03
179.0710, 37582.48
179.5531, 37540.83
180.0352, 37529.88
180.5173, 37572.39
180.9994, 37634.73
181.4815, 37654.21
181.9637, 37632.39
182.4458, 37613.37
182.9279, 37643.40
183.4100, 37710.07
183.8921, 37765.75
184.3742, 37786.52
184.8564, 37792.20
185.3385, 37834.12
185.8206, 37915.18
186.3027, 38001.37
186.7848, 38056.85
187.2669, 38085.06
187.7491, 38114.30
188.2312, 38156.07
188.7133, 38206.41
189.1954, 38251.13
189.6775, 38289.15
190.1596, 38325.14
190.6418, 38374.57
191.1239, 38436.23
191.6060, 38473.07
192.0881, 38449.35
192.5702, 38375.92
193.0524, 38349.22
193.5345, 38373.09
194.0166, 38433.37
194.4987, 38523.74
194.9808, 38647.54
195.4629, 38751.32
195.9451, 38802.12
196.4272, 38801.67
196.9093, 38800.37
197.3914, 38796.41
197.8735, 38796.96
198.3556, 38823.70
198.8378, 38882.51
199.3199, 38929.70
199.8020, 38927.45
200.2841, 38869.84
200.7662, 38855.26
201.2483, 38899.49
201.7305, 38980.54
202.2126, 39045.52
202.6947, 39091.65
203.1768, 39132.13
203.6589, 39178.76
204.1410, 39234.79
204.6232, 39269.20
205.1053, 39272.55
205.5874, 39255.45
206.0695, 39250.81
206.5516, 39257.39
207.0337, 39279.75
207.5159, 39330.68
207.9980, 39421.08
208.4801, 39482.25
208.9622, 39498.03
209.4443, 39478.27
209.9264, 39469.21
210.4086, 39469.87
210.8907, 39483.34
211.3728, 39516.48
211.8549, 39578.74
212.3370, 39628.21
212.8191, 39653.46
213.3013, 39658.68
213.7834, 39683.43
214.2655, 39736.52
214.7476, 39795.20
215.2297, 39838.48
215.7118, 39860.99
216.1940, 39883.98
216.6761, 39910.75
217.1582, 39941.28
217.6403, 39974.08
218.1224, 40010.25
218.6045, 40046.66
219.0867, 40081.30
219.5688, 40116.46
220.0509, 40143.34
220.5330, 40156.44
221.0151, 40155.45
221.4972, 40162.29
221.9794, 40174.64
222.4615, 40197.45
222.9436, 40240.50
223.4257, 40321.41
223.9078, 40386.28
224.3899, 40417.52
224.8721, 40412.11
225.3542, 40417.29
225.8363, 40432.06
226.3184, 40458.36
226.8005, 40502.83
227.2827, 40582.20
227.7648, 40646.91
228.2469, 40681.26
228.7290, 40680.56
229.2111, 40685.14
229.6932, 40697.61
230.1754, 40713.19
230.6575, 40722.25
231.1396, 40706.84
231.6217, 40717.49
232.1038, 40776.28
232.5859, 40896.83
233.0681, 40992.53
233.5502, 41058.91
234.0323, 41103.46
234.5144, 41134.27
234.9965, 41136.59
235.4786, 41150.24
235.9608, 41194.09
236.4429, 41280.82
236.9250, 41331.55
237.4071, 41312.37
237.8892, 41278.00
238.3713, 41324.22
238.8535, 41513.47
239.3356, 41678.42
239.8177, 41756.75
240.2998, 41717.27
240.7819, 41711.53
241.2640, 41748.18
241.7462, 41813.39
242.2283, 41885.70
242.7104, 41972.17
243.1925, 42054.10
243.6746, 42124.57
244.1567, 42180.45
244.6389, 42236.23
245.1210, 42291.38
245.6031, 42346.63
246.0852, 42401.90
246.5673, 42452.83
247.0494, 42510.98
247.5316, 42577.24
248.0137, 42644.75
248.4958, 42748.45
248.9779, 42911.75
249.4600, 43097.61
249.9421, 43232.62
250.4243, 43301.22
250.9064, 43348.34
251.3885, 43382.64
251.8706, 43389.06
252.3527, 43440.98
252.8348, 43573.48
253.3170, 43729.66
253.7991, 43795.20
254.2812, 43733.64
254.7633, 43650.04
255.2454, 43582.01
255.7275, 43536.14
256.2097, 43482.17
256.6918, 43413.23
257.1739, 43341.54
257.6560, 43290.83
258.1381, 43269.70
258.6202, 43251.63
259.1024, 43224.18
259.5845, 43181.84
260.0666, 43157.00
260.5487, 43162.24
261.0308, 43175.42
261.5129, 43149.02
261.9951, 43061.82
262.4772, 42986.46
262.9593, 42959.79
263.4414, 42998.34
263.9235, 43000.20
264.4056, 42944.34
264.8878, 42871.41
265.3699, 42857.17
265.8520, 42920.52
266.3341, 42988.19
266.8162, 43030.06
267.2983, 43039.74
267.7805, 43064.42
268.2626, 43111.05
268.7447, 43164.75
269.2268, 43199.89
269.7089, 43213.75
270.1910, 43218.59
270.6732, 43214.50
271.1553, 43199.07
271.6374, 43197.42
272.1195, 43206.96
272.6016, 43234.20
273.0837, 43302.40
273.5659, 43425.34
274.0480, 43520.48
274.5301, 43546.08
275.0122, 43498.92
275.4943, 43469.05
275.9764, 43458.22
276.4586, 43461.35
276.9407, 43477.26
277.4228, 43508.59
277.9049, 43527.91
278.3870, 43510.63
278.8691, 43460.18
279.3513, 43464.74
279.8334, 43537.74
280.3155, 43631.20
280.7976, 43677.07
281.2798, 43672.95
281.7619, 43669.46
282.2440, 43687.93
282.7261, 43724.75
283.2082, 43753.28
283.6903, 43773.41
284.1725, 43785.72
284.6546, 43777.29
285.1367, 43750.13
285.6188, 43756.05
286.1009, 43830.34
286.5830, 43954.21
287.0652, 44039.55
287.5473, 44079.14
288.0294, 44118.56
288.5115, 44225.55
288.9936, 44389.81
289.4757, 44521.25
289.9579, 44578.53
290.4400, 44584.91
290.9221, 44600.09
291.4042, 44623.66
291.8863, 44661.06
292.3684, 44714.55
292.8506, 44785.57
293.3327, 44884.08
293.8148, 45043.66
294.2969, 45215.80
294.7790, 45288.93
295.2611, 45263.04
295.7433, 45234.89
296.2254, 45305.95
296.7075, 45444.29
297.1896, 45555.37
297.6717, 45596.75
298.1538, 45612.80
298.6360, 45679.84
299.1181, 45793.43
299.6002, 45893.78
300.0823, 45915.34
300.5644, 45894.17
301.0465, 45902.45
301.5287, 45979.79
302.0108, 46068.05
302.4929, 46086.79
302.9750, 46048.64
303.4571, 46025.08
303.9392, 46077.11
304.4214, 46168.82
304.9035, 46256.22
305.3856, 46335.31
305.8677, 46393.86
306.3498, 46393.72
306.8319, 46354.93
307.3141, 46348.61
307.7962, 46455.41
308.2783, 46596.96
308.7604, 46694.86
309.2425, 46717.28
309.7246, 46725.13
310.2068, 46774.48
310.6889, 46841.84
311.1710, 46867.09
311.6531, 46803.89
312.1352, 46698.13
312.6173, 46573.25
313.0995, 46417.88
313.5816, 46292.40
314.0637, 46238.13
314.5458, 46232.21
315.0279, 46230.92
315.5100, 46248.72
315.9922, 46243.20
316.4743, 46174.80
316.9564, 46014.40
317.4385, 45893.57
317.9206, 45878.69
318.4027, 45924.14
318.8849, 45966.17
319.3670, 46007.06
319.8491, 46024.62
320.3312, 45996.05
320.8133, 45906.61
321.2954, 45851.92
321.7776, 45884.94
322.2597, 45948.09
322.7418, 45979.98
323.2239, 45939.07
323.7060, 45898.84
324.1881, 45875.30
324.6703, 45869.86
325.1524, 45870.66
325.6345, 45887.04
326.1166, 45904.05
326.5987, 45909.29
327.0808, 45856.54
327.5630, 45846.91
328.0451, 45917.95
328.5272, 46063.81
329.0093, 46156.36
329.4914, 46159.80
329.9735, 46140.62
330.4557, 46142.65
330.9378, 46189.10
331.4199, 46213.66
331.9020, 46188.03
332.3841, 46132.71
332.8662, 46155.20
333.3484, 46297.58
333.8305, 46453.57
334.3126, 46568.46
334.7947, 46634.74
335.2768, 46676.37
335.7589, 46681.93
336.2411, 46670.33
336.7232, 46693.73
337.2053, 46763.55
337.6874, 46834.54
338.1695, 46882.19
338.6516, 46901.73
339.1338, 46939.71
339.6159, 47004.77
340.0980, 47075.42
340.5801, 47104.79
341.0622, 47087.08
341.5443, 47085.76
342.0265, 47143.43
342.5086, 47249.68
342.9907, 47305.91
343.4728, 47304.49
343.9549, 47280.96
344.4370, 47276.90
344.9192, 47290.42
345.4013, 47303.43
345.8834, 47305.67
346.3655, 47303.84
346.8476, 47313.98
347.3297, 47335.93
347.8119, 47370.60
348.2940, 47435.30
348.7761, 47515.63
349.2582, 47564.80
349.7403, 47554.41
350.2225, 47523.71
350.7046, 47527.28
351.1867, 47562.52
351.6688, 47609.23
352.1509, 47679.30
352.6331, 47744.87
353.1152, 47758.00
353.5973, 47687.84
354.0794, 47601.05
354.5615, 47555.09
355.0436, 47541.02
355.5258, 47531.72
356.0079, 47527.36
356.4900, 47512.86
356.9721, 47463.60
357.4542, 47357.07
357.9363, 47279.46
358.4185, 47321.46
358.9006, 47420.66
359.3827, 47469.06
359.8648, 47355.18
360.3469, 47234.66
360.8290, 47206.12
361.3112, 47295.30
361.7933, 47346.69
362.2754, 47264.60
362.7575, 47136.89
363.2396, 47058.74
363.7217, 47103.07
364.2039, 47148.59
364.6860, 47165.95
365.1681, 47154.04
365.6502, 47132.42
366.1323, 47082.65
366.6144, 47036.23
367.0966, 47014.98
367.5787, 47042.63
368.0608, 47067.44
368.5429, 47084.52
369.0250, 47095.77
369.5071, 47111.92
369.9893, 47147.48
370.4714, 47171.09
370.9535, 47164.69
371.4356, 47109.72
371.9177, 47065.41
372.3998, 47026.00
372.8820, 47000.93
373.3641, 47021.39
373.8462, 47113.30
374.3283, 47182.50
374.8104, 47171.38
375.2925, 47066.38
375.7747, 47053.08
376.2568, 47159.45
376.7389, 47301.85
377.2210, 47359.11
377.7031, 47324.81
378.1852, 47298.42
378.6674, 47315.23
379.1495, 47364.05
379.6316, 47392.17
380.1137, 47396.23
380.5958, 47408.06
381.0779, 47478.89
381.5601, 47591.62
382.0422, 47652.93
382.5243, 47627.59
383.0064, 47561.39
383.4885, 47525.30
383.9706, 47516.72
384.4528, 47518.96
384.9349, 47511.38
385.4170, 47509.48
385.8991, 47546.09
386.3812, 47637.73
386.8633, 47731.18
387.3455, 47783.89
387.8276, 47800.84
388.3097, 47793.88
388.7918, 47733.34
389.2739, 47673.91
389.7560, 47666.73
390.2382, 47719.69
390.7203, 47776.23
391.2024, 47810.50
391.6845, 47829.89
392.1666, 47843.21
392.6487, 47854.46
393.1309, 47858.82
393.6130, 47848.89
394.0951, 47826.52
394.5772, 47812.73
395.0593, 47825.33
395.5414, 47840.28
396.0236, 47842.34
396.5057, 47801.31
396.9878, 47780.71
397.4699, 47801.18
397.9520, 47848.42
398.4341, 47877.37
398.9163, 47878.98
399.3984, 47871.45
399.8805, 47857.33
400.3626, 47825.96
400.8447, 47821.33
401.3268, 47856.74
401.8090, 47909.06
402.2911, 47949.66
402.7732, 47982.90
403.2553, 47989.79
403.7374, 47949.78
404.2195, 47868.20
404.7017, 47850.43
405.1838, 47912.96
405.6659, 47995.15
406.1480, 48038.20
406.6301, 48041.58
407.1122, 48057.71
407.5944, 48099.62
408.0765, 48156.09
408.5586, 48195.51
409.0407, 48218.52
409.5228, 48250.52
410.0049, 48317.15
410.4871, 48405.52
410.9692, 48478.09
411.4513, 48528.15
411.9334, 48574.84
412.4155, 48645.34
412.8976, 48732.24
413.3798, 48811.42
413.8619, 48853.46
414.3440, 48894.33
414.8261, 48983.59
415.3082, 49122.23
415.7903, 49250.58
416.2725, 49326.82
416.7546, 49373.27
417.2367, 49415.93
417.7188, 49448.55
418.2009, 49493.54
418.6830, 49577.51
419.1652, 49686.91
419.6473, 49768.79
420.1294, 49752.53
420.6115, 49743.79
421.0937, 49809.65
421.5758, 50011.50
422.0579, 50171.53
422.5400, 50244.07
423.0221, 50266.21
423.5042, 50300.36
423.9864, 50372.08
424.4685, 50428.64
424.9506, 50445.05
425.4327, 50413.95
425.9148, 50441.94
426.3969, 50574.02
426.8791, 50713.88
427.3612, 50770.00
427.8433, 50711.15
428.3254, 50669.03
428.8075, 50673.15
429.2896, 50701.76
429.7718, 50671.80
430.2539, 50571.59
430.7360, 50474.65
431.2181, 50440.22
431.7002, 50461.47
432.1823, 50432.45
432.6645, 50340.21
433.1466, 50223.00
433.6287, 50130.34
434.1108, 50059.00
434.5929, 49992.65
435.0750, 49920.19
435.5572, 49851.19
436.0393, 49813.62
436.5214, 49805.44
437.0035, 49783.16
437.4856, 49679.68
437.9677, 49550.96
438.4499, 49482.00
438.9320, 49528.55
439.4141, 49581.52
439.8962, 49555.20
440.3783, 49474.04
440.8604, 49400.32
441.3426, 49362.70
441.8247, 49340.33
442.3068, 49326.45
442.7889, 49324.57
443.2710, 49310.30
443.7531, 49256.50
444.2353, 49195.09
444.7174, 49160.46
445.1995, 49190.91
445.6816, 49212.39
446.1637, 49209.45
446.6458, 49184.45
447.1280, 49161.20
447.6101, 49139.81
448.0922, 49120.02
448.5743, 49102.21
449.0564, 49087.43
449.5385, 49069.32
450.0207, 49040.40
450.5028, 49014.68
450.9849, 49022.39
451.4670, 49068.84
451.9491, 49122.39
452.4312, 49182.45
452.9134, 49243.00
453.3955, 49240.04
453.8776, 49162.32
454.3597, 49100.80
454.8418, 49170.80
455.3239, 49340.90
455.8061, 49478.43
456.2882, 49552.66
456.7703, 49584.81
457.2524, 49585.95
457.7345, 49565.42
458.2166, 49561.73
458.6988, 49596.49
459.1809, 49660.90
459.6630, 49751.82
460.1451, 49873.42
460.6272, 49994.19
461.1093, 50090.43
461.5915, 50174.95
462.0736, 50261.71
462.5557, 50345.20
463.0378, 50441.79
463.5199, 50568.11
464.0020, 50717.98
464.4842, 50850.36
464.9663, 50936.59
465.4484, 51016.72
465.9305, 51112.93
466.4126, 51242.41
466.8947, 51361.34
467.3769, 51467.54
467.8590, 51563.77
468.3411, 51654.25
468.8232, 51732.00
469.3053, 51818.38
469.7874, 51927.89
470.2696, 52057.53
470.7517, 52151.63
471.2338, 52208.44
471.7159, 52234.77
472.1980, 52235.65
472.6801, 52210.79
473.1623, 52153.68
473.6444, 52056.43
474.1265, 51939.70
474.6086, 51842.33
475.0907, 51760.07
475.5728, 51665.47
476.0550, 51526.93
476.5371, 51372.20
477.0192, 51256.32
477.5013, 51181.17
477.9834, 51099.53
478.4655, 50959.36
478.9477, 50795.15
479.4298, 50654.88
479.9119, 50570.24
480.3940, 50488.33
480.8761, 50374.85
481.3582, 50241.84
481.8404, 50125.30
482.3225, 50067.97
482.8046, 50004.31
483.2867, 49890.86
483.7688, 49692.84
484.2509, 49553.59
484.7331, 49529.82
485.2152, 49547.75
485.6973, 49538.24
486.1794, 49481.05
486.6615, 49430.58
487.1436, 49393.23
487.6258, 49368.07
488.1079, 49350.66
488.5900, 49340.75
489.0721, 49339.73
489.5542, 49353.52
490.0363, 49382.41
490.5185, 49398.21
491.0006, 49399.73
491.4827, 49389.26
491.9648, 49361.93
492.4470, 49321.92
492.9291, 49292.47
493.4112, 49281.64
493.8933, 49286.19
494.3754, 49306.33
494.8575, 49340.27
495.3397, 49375.31
495.8218, 49412.36
496.3039, 49442.16
496.7860, 49447.89
497.2681, 49417.61
497.7502, 49401.61
498.2324, 49439.94
498.7145, 49504.78
499.1966, 49559.00
499.6787, 49591.60
500.1608, 49611.53
500.6429, 49612.04
501.1251, 49595.55
501.6072, 49597.40
502.0893, 49617.93
502.5714, 49659.12
503.0535, 49727.68
503.5356, 49852.20
504.0178, 49932.27
504.4999, 49948.20
504.9820, 49936.81
505.4641, 49959.45
505.9462, 50025.96
506.4283, 50073.72
506.9105, 50077.34
507.3926, 50049.88
507.8747, 50048.14
508.3568, 50073.86
508.8389, 50092.88
509.3210, 50072.96
509.8032, 50026.88
510.2853, 49988.66
510.7674, 49962.40
511.2495, 49944.73
511.7316, 49944.66
512.2137, 49949.95
512.6959, 49935.96
513.1780, 49872.52
513.6601, 49802.87
514.1422, 49758.01
514.6243, 49734.37
515.1064, 49705.51
515.5886, 49642.12
516.0707, 49583.45
516.5528, 49557.54
517.0349, 49592.30
517.5170, 49608.09
517.9991, 49570.86
518.4813, 49520.92
518.9634, 49511.59
519.4455, 49572.49
519.9276, 49624.28
520.4097, 49656.99
520.8918, 49668.46
521.3740, 49634.31
521.8561, 49534.89
522.3382, 49454.87
522.8203, 49462.68
523.3024, 49552.30
523.7845, 49627.05
524.2667, 49686.13
524.7488, 49713.72
525.2309, 49669.15
525.7130, 49573.16
526.1951, 49499.09
526.6772, 49478.42
527.1594, 49485.27
527.6415, 49491.58
528.1236, 49499.38
528.6057, 49517.87
529.0878, 49572.20
529.5699, 49626.00
530.0521, 49648.38
530.5342, 49629.34
531.0163, 49607.72
531.4984, 49572.92
531.9805, 49551.49
532.4626, 49571.38
532.9448, 49690.90
533.4269, 49786.81
533.9090, 49843.96
534.3911, 49867.37
534.8732, 49871.08
535.3553, 49841.07
535.8375, 49817.88
536.3196, 49824.57
536.8017, 49863.60
537.2838, 49878.77
537.7659, 49864.75
538.2480, 49844.85
538.7302, 49838.75
539.2123, 49847.07
539.6944, 49878.58
540.1765, 49945.62
540.6586, 50017.45
541.1407, 50046.14
541.6229, 50042.01
542.1050, 50042.68
542.5871, 50078.95
543.0692, 50122.14
543.5513, 50136.65
544.0334, 50121.08
544.5156, 50128.54
544.9977, 50208.54
545.4798, 50307.67
545.9619, 50383.57
546.4440, 50424.44
546.9261, 50447.60
547.4083, 50433.08
547.8904, 50406.69
548.3725, 50416.09
548.8546, 50482.86
549.3367, 50550.50
549.8188, 50608.24
550.3010, 50655.89
550.7831, 50683.26
551.2652, 50678.92
551.7473, 50692.62
552.2294, 50774.37
552.7115, 50915.71
553.1937, 51025.01
553.6758, 51090.07
554.1579, 51143.66
554.6400, 51220.71
555.1221, 51319.05
555.6042, 51431.19
556.0864, 51562.81
556.5685, 51700.35
557.0506, 51827.47
557.5327, 51947.93
558.0148, 52073.77
558.4969, 52210.39
558.9791, 52355.16
559.4612, 52499.23
559.9433, 52633.94
560.4254, 52805.64
560.9075, 53059.70
561.3896, 53333.30
561.8718, 53573.79
562.3539, 53760.25
562.8360, 53949.73
563.3181, 54148.00
563.8002, 54349.03
564.2823, 54544.61
564.7645, 54735.78
565.2466, 54907.65
565.7287, 55033.66
566.2108, 55132.89
566.6929, 55323.31
567.1750, 55608.44
567.6572, 55870.62
568.1393, 55995.28
568.6214, 56025.03
569.1035, 56044.90
569.5856, 56076.18
570.0677, 56066.92
570.5499, 55960.69
571.0320, 55788.07
571.5141, 55597.28
571.9962, 55412.56
572.4783, 55206.47
572.9604, 54944.07
573.4426, 54643.49
573.9247, 54390.38
574.4068, 54280.90
574.8889, 54147.50
575.3710, 53915.08
575.8531, 53558.95
576.3353, 53248.09
576.8174, 52988.44
577.2995, 52769.71
577.7816, 52587.57
578.2637, 52446.43
578.7458, 52302.87
579.2280, 52147.26
579.7101, 51992.74
580.1922, 51857.27
580.6743, 51741.82
581.1564, 51651.89
581.6385, 51617.06
582.1207, 51594.60
582.6028, 51519.43
583.0849, 51399.14
583.5670, 51287.97
584.0491, 51223.97
584.5313, 51178.22
585.0134, 51130.11
585.4955, 51077.88
585.9776, 51019.27
586.4597, 50932.04
586.9418, 50847.63
587.4240, 50804.51
587.9061, 50843.49
588.3882, 50859.36
588.8703, 50829.87
589.3524, 50773.09
589.8345, 50742.37
590.3167, 50741.60
590.7988, 50752.69
591.2809, 50775.45
591.7630, 50804.63
592.2451, 50808.71
592.7272, 50786.95
593.2094, 50758.04
593.6915, 50739.39
594.1736, 50724.27
594.6557, 50697.73
595.1378, 50655.34
595.6199, 50612.43
596.1021, 50574.66
596.5842, 50545.30
597.0663, 50528.96
597.5485, 50519.70
598.0306, 50531.85
598.5127, 50589.51
598.9948, 50677.75
599.4769, 50732.36
599.9590, 50730.52
600.4412, 50718.48
600.9233, 50705.62
601.4054, 50690.34
601.8875, 50702.73
602.3696, 50753.54
602.8517, 50805.46
603.3339, 50813.49
603.8160, 50783.37
604.2981, 50798.05
604.7802, 50875.03
605.2623, 50968.52
605.7444, 51018.61
606.2266, 51037.39
606.7087, 51054.16
607.1908, 51064.75
607.6729, 51093.67
608.1550, 51187.22
608.6371, 51319.99
609.1193, 51412.65
609.6014, 51345.05
610.0835, 51305.21
610.5656, 51405.91
611.0477, 51678.76
611.5298, 51893.55
612.0120, 52012.60
612.4941, 52100.07
612.9762, 52195.46
613.4583, 52302.30
613.9404, 52399.41
614.4225, 52477.11
614.9047, 52559.84
615.3868, 52696.25
615.8689, 52882.19
616.3510, 53046.22
616.8331, 53161.30
617.3152, 53251.80
617.7974, 53358.18
618.2795, 53473.76
618.7616, 53578.15
619.2437, 53629.82
619.7258, 53687.90
620.2079, 53820.88
620.6901, 54029.97
621.1722, 54189.68
621.6543, 54226.08
622.1364, 54220.41
622.6185, 54225.83
623.1006, 54266.41
623.5828, 54267.14
624.0649, 54183.92
624.5470, 54101.30
625.0291, 54143.10
625.5112, 54344.98
625.9933, 54473.77
626.4755, 54467.68
626.9576, 54391.54
627.4397, 54374.47
627.9218, 54410.79
628.4039, 54457.06
628.8860, 54487.19
629.3682, 54517.61
629.8503, 54583.33
630.3324, 54677.62
630.8145, 54747.97
631.2966, 54770.82
631.7787, 54753.14
632.2609, 54691.04
632.7430, 54570.75
633.2251, 54459.02
633.7072, 54389.53
634.1893, 54321.84
634.6714, 54221.00
635.1536, 54072.06
635.6357, 53922.08
636.1178, 53776.05
636.5999, 53630.72
637.0820, 53487.36
637.5641, 53347.63
638.0463, 53178.87
638.5284, 52952.63
639.0105, 52704.96
639.4926, 52510.26
639.9747, 52359.37
640.4568, 52205.16
640.9390, 52000.98
641.4211, 51789.57
641.9032, 51615.69
642.3853, 51483.07
642.8674, 51344.56
643.3495, 51142.78
643.8317, 50954.89
644.3138, 50836.83
644.7959, 50852.63
645.2780, 50827.50
645.7601, 50734.26
646.2422, 50624.20
646.7244, 50558.29
647.2065, 50544.69
647.6886, 50539.28
648.1707, 50542.07
648.6528, 50538.75
649.1349, 50482.80
649.6171, 50384.46
650.0992, 50314.46
650.5813, 50322.17
651.0634, 50366.00
651.5455, 50407.66
652.0276, 50444.58
652.5098, 50460.75
652.9919, 50446.10
653.4740, 50409.35
653.9561, 50351.61
654.4382, 50269.48
654.9203, 50188.26
655.4025, 50107.47
655.8846, 50031.30
656.3667, 49960.26
656.8488, 49884.81
657.3309, 49847.66
657.8130, 49861.32
658.2952, 49892.83
658.7773, 49898.09
659.2594, 49878.48
659.7415, 49846.96
660.2236, 49798.08
660.7057, 49753.52
