##NAMES=Boleite
##RRUFFID=R050022
##IDEAL CHEMISTRY=KAg^1+^_9_Pb^2+^_26_Cu^2+^_24_Cl_62_(OH)_48_
##LOCALITY=Amelia mine, Boleo, Baja California, Mexico
##OWNER=RRUFF
##SOURCE=Eugene Schlepp
##DESCRIPTION=Dark blue colored interpenetrating cubes
##STATUS=The identification of this mineral has been confirmed by X-ray diffraction.
##URL=rruff.info/R050022
114.9494, 699.2214
115.4315, 756.0041
115.9136, 816.6611
116.3958, 880.2313
116.8779, 948.0362
117.3600, 1021.389
117.8421, 1100.517
118.3242, 1185.493
118.8063, 1278.160
119.2885, 1379.260
119.7706, 1481.153
120.2527, 1572.476
120.7348, 1661.373
121.2169, 1763.172
121.6990, 1885.762
122.1812, 2023.740
122.6633, 2170.783
123.1454, 2325.163
123.6275, 2491.135
124.1096, 2672.182
124.5917, 2868.149
125.0739, 3078.390
125.5560, 3306.282
126.0381, 3547.017
126.5202, 3797.304
127.0023, 4060.534
127.4844, 4328.154
127.9666, 4586.641
128.4487, 4836.054
128.9308, 5082.346
129.4129, 5327.619
129.8950, 5573.543
130.3772, 5815.269
130.8593, 6048.703
131.3414, 6278.571
131.8235, 6522.338
132.3056, 6778.332
132.7877, 7045.284
133.2699, 7318.937
133.7520, 7600.253
134.2341, 7895.464
134.7162, 8207.493
135.1983, 8537.623
135.6804, 8879.848
136.1626, 9234.023
136.6447, 9594.984
137.1268, 9952.701
137.6089, 10304.30
138.0910, 10653.42
138.5731, 10991.21
139.0553, 11317.30
139.5374, 11654.05
140.0195, 12008.23
140.5016, 12372.63
140.9837, 12700.72
141.4658, 12976.63
141.9480, 13246.25
142.4301, 13541.32
142.9122, 13880.92
143.3943, 14202.95
143.8764, 14492.58
144.3585, 14748.57
144.8407, 15038.12
145.3228, 15376.81
145.8049, 15735.39
146.2870, 16084.88
146.7691, 16421.27
147.2512, 16747.84
147.7334, 17055.16
148.2155, 17336.80
148.6976, 17641.65
149.1797, 17987.77
149.6618, 18352.85
150.1439, 18704.10
150.6261, 19022.95
151.1082, 19340.62
151.5903, 19661.08
152.0724, 19980.36
152.5545, 20310.15
153.0366, 20653.44
153.5188, 21006.18
154.0009, 21358.89
154.4830, 21732.97
154.9651, 22093.48
155.4472, 22428.57
155.9293, 22730.01
156.4115, 23014.27
156.8936, 23295.10
157.3757, 23564.68
157.8578, 23800.86
158.3399, 24010.98
158.8221, 24177.27
159.3042, 24290.61
159.7863, 24368.00
160.2684, 24373.08
160.7505, 24281.75
161.2326, 24099.45
161.7148, 23873.35
162.1969, 23646.63
162.6790, 23375.30
163.1611, 23020.57
163.6432, 22533.74
164.1253, 21986.10
164.6075, 21400.48
165.0896, 20777.18
165.5717, 20148.48
166.0538, 19525.90
166.5359, 18909.94
167.0180, 18300.06
167.5002, 17683.54
167.9823, 17075.41
168.4644, 16479.20
168.9465, 15891.37
169.4286, 15341.95
169.9107, 14860.51
170.3929, 14436.30
170.8750, 14034.04
171.3571, 13631.07
171.8392, 13247.92
172.3213, 12912.63
172.8034, 12639.62
173.2856, 12390.01
173.7677, 12132.91
174.2498, 11870.06
174.7319, 11612.31
175.2140, 11356.75
175.6961, 11112.09
176.1783, 10892.97
176.6604, 10705.68
177.1425, 10542.77
177.6246, 10402.53
178.1067, 10283.95
178.5888, 10170.97
179.0710, 10054.40
179.5531, 9936.699
180.0352, 9824.765
180.5173, 9720.339
180.9994, 9623.564
181.4815, 9538.493
181.9637, 9464.221
182.4458, 9395.957
182.9279, 9326.479
183.4100, 9258.290
183.8921, 9199.987
184.3742, 9157.317
184.8564, 9124.521
185.3385, 9091.530
185.8206, 9058.342
186.3027, 9021.560
186.7848, 8968.586
187.2669, 8903.521
187.7491, 8856.016
188.2312, 8845.787
188.7133, 8861.580
189.1954, 8859.883
189.6775, 8838.082
190.1596, 8810.431
190.6418, 8794.241
191.1239, 8789.337
191.6060, 8784.956
192.0881, 8776.659
192.5702, 8764.911
193.0524, 8753.613
193.5345, 8742.729
194.0166, 8732.456
194.4987, 8723.023
194.9808, 8714.380
195.4629, 8707.348
195.9451, 8701.020
196.4272, 8695.407
196.9093, 8699.221
197.3914, 8717.182
197.8735, 8737.573
198.3556, 8733.438
198.8378, 8700.381
199.3199, 8670.866
199.8020, 8664.212
200.2841, 8681.949
200.7662, 8701.582
201.2483, 8724.144
201.7305, 8745.800
202.2126, 8754.646
202.6947, 8747.168
203.1768, 8739.998
203.6589, 8743.320
204.1410, 8758.181
204.6232, 8777.162
205.1053, 8803.272
205.5874, 8831.505
206.0695, 8841.711
206.5516, 8826.813
207.0337, 8812.477
207.5159, 8818.252
207.9980, 8848.721
208.4801, 8876.871
208.9622, 8898.932
209.4443, 8916.166
209.9264, 8936.260
210.4086, 8962.904
210.8907, 8985.043
211.3728, 8993.194
211.8549, 8984.519
212.3370, 8970.618
212.8191, 8947.827
213.3013, 8919.371
213.7834, 8915.577
214.2655, 8951.104
214.7476, 8987.770
215.2297, 8989.329
215.7118, 8941.811
216.1940, 8897.852
216.6761, 8867.284
217.1582, 8849.377
217.6403, 8832.688
218.1224, 8821.695
218.6045, 8806.234
219.0867, 8776.545
219.5688, 8731.380
220.0509, 8674.806
220.5330, 8606.098
221.0151, 8524.044
221.4972, 8446.412
221.9794, 8376.816
222.4615, 8306.876
222.9436, 8224.706
223.4257, 8120.499
223.9078, 8023.700
224.3899, 7946.692
224.8721, 7891.334
225.3542, 7817.134
225.8363, 7716.161
226.3184, 7603.307
226.8005, 7492.923
227.2827, 7382.886
227.7648, 7281.237
228.2469, 7193.743
228.7290, 7124.330
229.2111, 7039.632
229.6932, 6929.737
230.1754, 6813.605
230.6575, 6714.664
231.1396, 6638.577
231.6217, 6571.373
232.1038, 6513.180
232.5859, 6468.602
233.0681, 6406.914
233.5502, 6318.863
234.0323, 6220.690
234.5144, 6134.971
234.9965, 6068.212
235.4786, 6003.966
235.9608, 5936.730
236.4429, 5865.898
236.9250, 5799.699
237.4071, 5743.977
237.8892, 5689.696
238.3713, 5621.811
238.8535, 5533.833
239.3356, 5442.817
239.8177, 5350.688
240.2998, 5251.201
240.7819, 5175.537
241.2640, 5132.779
241.7462, 5107.334
242.2283, 5072.821
242.7104, 5028.425
243.1925, 4976.133
243.6746, 4914.132
244.1567, 4836.300
244.6389, 4769.253
245.1210, 4716.834
245.6031, 4673.004
246.0852, 4627.925
246.5673, 4581.530
247.0494, 4533.972
247.5316, 4484.775
248.0137, 4432.643
248.4958, 4382.680
248.9779, 4333.633
249.4600, 4287.732
249.9421, 4251.780
250.4243, 4232.869
250.9064, 4210.722
251.3885, 4176.263
251.8706, 4123.352
252.3527, 4077.968
252.8348, 4040.812
253.3170, 4010.782
253.7991, 3987.547
254.2812, 3976.298
254.7633, 3962.381
255.2454, 3939.927
255.7275, 3907.275
256.2097, 3872.213
256.6918, 3832.157
257.1739, 3791.861
257.6560, 3761.823
258.1381, 3749.736
258.6202, 3731.816
259.1024, 3696.436
259.5845, 3637.942
260.0666, 3587.799
260.5487, 3550.502
261.0308, 3518.238
261.5129, 3473.314
261.9951, 3410.235
262.4772, 3348.570
262.9593, 3298.058
263.4414, 3261.799
263.9235, 3219.423
264.4056, 3168.210
264.8878, 3112.884
265.3699, 3059.691
265.8520, 3007.220
266.3341, 2959.623
266.8162, 2918.149
267.2983, 2883.521
267.7805, 2853.495
268.2626, 2830.456
268.7447, 2809.635
269.2268, 2780.744
269.7089, 2739.991
270.1910, 2704.950
270.6732, 2684.966
271.1553, 2682.484
271.6374, 2671.972
272.1195, 2652.565
272.6016, 2626.342
273.0837, 2596.376
273.5659, 2561.880
274.0480, 2526.985
274.5301, 2491.429
275.0122, 2455.139
275.4943, 2426.307
275.9764, 2406.569
276.4586, 2391.213
276.9407, 2373.016
277.4228, 2351.776
277.9049, 2331.380
278.3870, 2312.328
278.8691, 2294.817
279.3513, 2285.063
279.8334, 2285.312
280.3155, 2287.542
280.7976, 2278.954
281.2798, 2259.034
281.7619, 2242.063
282.2440, 2234.463
282.7261, 2234.999
283.2082, 2234.503
283.6903, 2232.902
284.1725, 2230.538
284.6546, 2226.147
285.1367, 2219.995
285.6188, 2218.272
286.1009, 2225.982
286.5830, 2240.175
287.0652, 2246.366
287.5473, 2243.143
288.0294, 2240.004
288.5115, 2250.594
288.9936, 2272.932
289.4757, 2289.930
289.9579, 2291.991
290.4400, 2285.649
290.9221, 2290.979
291.4042, 2308.840
291.8863, 2327.625
292.3684, 2330.928
292.8506, 2323.513
293.3327, 2326.501
293.8148, 2351.890
294.2969, 2388.692
294.7790, 2415.653
295.2611, 2432.850
295.7433, 2447.983
296.2254, 2469.289
296.7075, 2494.368
297.1896, 2515.730
297.6717, 2531.416
298.1538, 2542.697
298.6360, 2549.182
299.1181, 2551.411
299.6002, 2555.054
300.0823, 2569.798
300.5644, 2588.503
301.0465, 2597.734
301.5287, 2592.800
302.0108, 2578.473
302.4929, 2558.806
302.9750, 2533.863
303.4571, 2505.152
303.9392, 2471.854
304.4214, 2435.783
304.9035, 2398.953
305.3856, 2364.150
305.8677, 2326.302
306.3498, 2277.744
306.8319, 2221.936
307.3141, 2169.987
307.7962, 2133.905
308.2783, 2103.074
308.7604, 2065.127
309.2425, 2013.803
309.7246, 1965.191
310.2068, 1930.459
310.6889, 1906.479
311.1710, 1884.648
311.6531, 1864.951
312.1352, 1843.251
312.6173, 1815.220
313.0995, 1777.447
313.5816, 1742.284
314.0637, 1715.787
314.5458, 1695.764
315.0279, 1677.816
315.5100, 1661.217
315.9922, 1645.530
316.4743, 1631.203
316.9564, 1619.134
317.4385, 1604.880
317.9206, 1583.441
318.4027, 1559.739
318.8849, 1540.655
319.3670, 1532.033
319.8491, 1524.827
320.3312, 1515.595
320.8133, 1503.594
321.2954, 1492.330
321.7776, 1480.335
322.2597, 1470.133
322.7418, 1464.413
323.2239, 1469.363
323.7060, 1473.040
324.1881, 1473.001
324.6703, 1469.084
325.1524, 1462.339
325.6345, 1450.127
326.1166, 1436.609
326.5987, 1424.930
327.0808, 1409.230
327.5630, 1402.380
328.0451, 1409.823
328.5272, 1430.683
329.0093, 1445.934
329.4914, 1453.022
329.9735, 1456.514
330.4557, 1458.961
330.9378, 1458.635
331.4199, 1460.345
331.9020, 1465.044
332.3841, 1472.166
332.8662, 1479.143
333.3484, 1486.427
333.8305, 1492.777
334.3126, 1496.221
334.7947, 1493.100
335.2768, 1499.540
335.7589, 1521.825
336.2411, 1551.060
336.7232, 1563.167
337.2053, 1552.222
337.6874, 1541.191
338.1695, 1541.505
338.6516, 1554.521
339.1338, 1567.769
339.6159, 1582.111
340.0980, 1594.764
340.5801, 1599.425
341.0622, 1595.270
341.5443, 1591.160
342.0265, 1590.991
342.5086, 1594.305
342.9907, 1596.473
343.4728, 1597.084
343.9549, 1598.087
344.4370, 1604.241
344.9192, 1614.545
345.4013, 1619.222
345.8834, 1611.409
346.3655, 1596.395
346.8476, 1587.792
347.3297, 1585.671
347.8119, 1588.115
348.2940, 1594.016
348.7761, 1603.210
349.2582, 1615.060
349.7403, 1630.111
350.2225, 1647.270
350.7046, 1665.816
351.1867, 1685.669
351.6688, 1704.920
352.1509, 1719.060
352.6331, 1732.569
353.1152, 1753.376
353.5973, 1787.188
354.0794, 1821.252
354.5615, 1841.309
355.0436, 1851.632
355.5258, 1865.233
356.0079, 1892.751
356.4900, 1924.738
356.9721, 1952.720
357.4542, 1974.338
357.9363, 1995.546
358.4185, 2020.409
358.9006, 2047.045
359.3827, 2072.198
359.8648, 2094.467
360.3469, 2115.029
360.8290, 2136.161
361.3112, 2159.214
361.7933, 2174.443
362.2754, 2177.802
362.7575, 2172.295
363.2396, 2161.139
363.7217, 2143.810
364.2039, 2122.278
364.6860, 2098.783
365.1681, 2073.246
365.6502, 2037.885
366.1323, 1980.275
366.6144, 1919.325
367.0966, 1867.911
367.5787, 1835.819
368.0608, 1802.486
368.5429, 1767.459
369.0250, 1730.293
369.5071, 1689.129
369.9893, 1638.062
370.4714, 1590.034
370.9535, 1551.856
371.4356, 1528.848
371.9177, 1504.333
372.3998, 1477.004
372.8820, 1448.520
373.3641, 1422.584
373.8462, 1398.946
374.3283, 1378.719
374.8104, 1364.286
375.2925, 1356.483
375.7747, 1342.347
376.2568, 1320.042
376.7389, 1294.813
377.2210, 1273.617
377.7031, 1256.608
378.1852, 1241.417
378.6674, 1226.682
379.1495, 1213.177
379.6316, 1204.000
380.1137, 1199.438
380.5958, 1197.303
381.0779, 1198.427
381.5601, 1201.258
382.0422, 1197.522
382.5243, 1182.947
383.0064, 1163.971
383.4885, 1151.364
383.9706, 1144.361
384.4528, 1138.205
384.9349, 1130.667
385.4170, 1121.539
385.8991, 1109.353
386.3812, 1092.432
386.8633, 1076.843
387.3455, 1069.522
387.8276, 1067.912
388.3097, 1066.056
388.7918, 1063.572
389.2739, 1057.983
389.7560, 1045.256
390.2382, 1024.305
390.7203, 1005.699
391.2024, 998.9991
391.6845, 996.5192
392.1666, 989.3011
392.6487, 965.7864
393.1309, 945.0916
393.6130, 937.5592
394.0951, 941.9253
394.5772, 942.9895
395.0593, 934.1143
395.5414, 922.4708
396.0236, 912.6089
396.5057, 904.1088
396.9878, 898.6260
397.4699, 898.9003
397.9520, 902.6955
398.4341, 902.9058
398.9163, 895.1411
399.3984, 888.3614
399.8805, 886.4355
400.3626, 892.3294
400.8447, 893.8907
401.3268, 888.0025
401.8090, 880.0847
402.2911, 878.1829
402.7732, 884.6506
403.2553, 891.0975
403.7374, 895.6542
404.2195, 898.3300
404.7017, 899.3489
405.1838, 898.7880
405.6659, 896.3199
406.1480, 889.8994
406.6301, 879.3647
407.1122, 874.0737
407.5944, 877.6272
408.0765, 885.4031
408.5586, 884.6564
409.0407, 875.5817
409.5228, 868.5395
410.0049, 873.4402
410.4871, 885.7657
410.9692, 892.3746
411.4513, 891.1614
411.9334, 887.3980
412.4155, 886.5493
412.8976, 887.9778
413.3798, 889.8318
413.8619, 894.0722
414.3440, 896.7207
414.8261, 890.2990
415.3082, 874.7855
415.7903, 864.5171
416.2725, 876.7241
416.7546, 896.3341
417.2367, 906.4623
417.7188, 896.4966
418.2009, 881.5634
418.6830, 864.8917
419.1652, 847.8773
419.6473, 836.3022
420.1294, 832.5144
420.6115, 834.2153
421.0937, 841.7787
421.5758, 861.9031
422.0579, 873.1533
422.5400, 865.7505
423.0221, 849.3121
423.5042, 839.4645
423.9864, 841.7062
424.4685, 845.0487
424.9506, 846.9625
425.4327, 847.1748
425.9148, 849.3956
426.3969, 855.1699
426.8791, 861.1902
427.3612, 863.7696
427.8433, 860.5575
428.3254, 861.8110
428.8075, 871.2065
429.2896, 885.1616
429.7718, 889.7170
430.2539, 882.8989
430.7360, 877.2098
431.2181, 881.7982
431.7002, 895.7556
432.1823, 905.1558
432.6645, 908.4436
433.1466, 910.0877
433.6287, 916.4484
434.1108, 926.6881
434.5929, 936.7036
435.0750, 943.4272
435.5572, 949.3871
436.0393, 959.7124
436.5214, 974.2191
437.0035, 989.0562
437.4856, 999.7225
437.9677, 1009.151
438.4499, 1021.560
438.9320, 1039.181
439.4141, 1058.049
439.8962, 1075.487
440.3783, 1091.907
440.8604, 1108.895
441.3426, 1122.998
441.8247, 1140.769
442.3068, 1167.561
442.7889, 1206.242
443.2710, 1242.841
443.7531, 1274.462
444.2353, 1301.697
444.7174, 1325.752
445.1995, 1333.543
445.6816, 1352.318
446.1637, 1392.920
446.6458, 1452.286
447.1280, 1501.392
447.6101, 1531.889
448.0922, 1561.487
448.5743, 1599.358
449.0564, 1647.735
449.5385, 1699.968
450.0207, 1757.043
450.5028, 1816.616
450.9849, 1873.889
451.4670, 1927.850
451.9491, 1982.115
452.4312, 2039.515
452.9134, 2098.835
453.3955, 2153.496
453.8776, 2203.632
454.3597, 2247.055
454.8418, 2280.698
455.3239, 2305.344
455.8061, 2323.841
456.2882, 2339.823
456.7703, 2345.631
457.2524, 2326.497
457.7345, 2286.453
458.2166, 2241.223
458.6988, 2200.529
459.1809, 2159.652
459.6630, 2114.629
460.1451, 2064.677
460.6272, 2009.874
461.1093, 1947.479
461.5915, 1881.342
462.0736, 1817.473
462.5557, 1753.748
463.0378, 1696.540
463.5199, 1651.095
464.0020, 1616.245
464.4842, 1581.536
464.9663, 1541.398
465.4484, 1503.792
465.9305, 1473.490
466.4126, 1459.547
466.8947, 1436.257
467.3769, 1396.821
467.8590, 1351.150
468.3411, 1314.430
468.8232, 1287.394
469.3053, 1268.602
469.7874, 1259.030
470.2696, 1258.209
470.7517, 1258.517
471.2338, 1261.122
471.7159, 1261.297
472.1980, 1253.209
472.6801, 1237.064
473.1623, 1223.556
473.6444, 1213.957
474.1265, 1207.874
474.6086, 1205.612
475.0907, 1206.758
475.5728, 1208.639
476.0550, 1208.740
476.5371, 1209.072
477.0192, 1214.784
477.5013, 1226.178
477.9834, 1234.754
478.4655, 1228.443
478.9477, 1217.083
479.4298, 1213.958
479.9119, 1229.249
480.3940, 1245.739
480.8761, 1254.173
481.3582, 1256.651
481.8404, 1259.058
482.3225, 1264.332
482.8046, 1269.124
483.2867, 1271.048
483.7688, 1267.863
484.2509, 1268.923
484.7331, 1283.711
485.2152, 1298.552
485.6973, 1299.840
486.1794, 1275.049
486.6615, 1258.609
487.1436, 1259.274
487.6258, 1272.088
488.1079, 1271.472
488.5900, 1251.799
489.0721, 1234.271
489.5542, 1232.256
490.0363, 1245.871
490.5185, 1257.568
491.0006, 1267.293
491.4827, 1273.464
491.9648, 1271.349
492.4470, 1262.641
492.9291, 1256.936
493.4112, 1260.157
493.8933, 1265.950
494.3754, 1263.597
494.8575, 1254.183
495.3397, 1244.688
495.8218, 1239.935
496.3039, 1237.273
496.7860, 1234.284
497.2681, 1230.929
497.7502, 1225.756
498.2324, 1215.641
498.7145, 1203.882
499.1966, 1194.769
499.6787, 1193.266
500.1608, 1190.975
500.6429, 1185.377
501.1251, 1176.540
501.6072, 1166.616
502.0893, 1156.222
502.5714, 1144.242
503.0535, 1129.778
503.5356, 1110.958
504.0178, 1094.371
504.4999, 1081.090
504.9820, 1069.207
505.4641, 1054.921
505.9462, 1037.319
506.4283, 1022.339
506.9105, 1012.211
507.3926, 1005.999
507.8747, 1002.138
508.3568, 1000.980
508.8389, 994.9838
509.3210, 972.4385
509.8032, 940.6329
510.2853, 920.7612
510.7674, 917.2475
511.2495, 918.0529
511.7316, 911.1188
512.2137, 899.3365
512.6959, 888.7186
513.1780, 884.2018
513.6601, 879.5646
514.1422, 870.3514
514.6243, 857.0740
515.1064, 843.5229
515.5886, 829.3118
516.0707, 816.5478
516.5528, 807.1284
517.0349, 804.0597
517.5170, 798.3430
517.9991, 786.0008
518.4813, 771.8161
518.9634, 762.3118
519.4455, 762.3352
519.9276, 758.4407
520.4097, 745.7502
520.8918, 726.4799
521.3740, 714.6321
521.8561, 712.0555
522.3382, 710.7802
522.8203, 705.6973
523.3024, 697.0547
523.7845, 688.4092
524.2667, 679.9791
524.7488, 671.2314
525.2309, 658.7819
525.7130, 644.6945
526.1951, 636.6722
526.6772, 641.2340
527.1594, 649.3474
527.6415, 651.1103
528.1236, 647.2889
528.6057, 641.2052
529.0878, 633.9417
529.5699, 625.6938
530.0521, 615.7365
530.5342, 602.6931
531.0163, 593.4293
531.4984, 591.5061
531.9805, 593.7935
532.4626, 596.9312
532.9448, 605.2279
533.4269, 608.5145
533.9090, 603.1757
534.3911, 591.7327
534.8732, 584.2166
535.3553, 581.6985
535.8375, 581.0042
536.3196, 581.2020
536.8017, 582.3739
537.2838, 582.8876
537.7659, 582.8660
538.2480, 581.7873
538.7302, 578.9053
539.2123, 574.3490
539.6944, 569.0939
540.1765, 563.1191
540.6586, 556.9611
541.1407, 550.8912
541.6229, 545.0732
542.1050, 539.9940
542.5871, 535.3170
543.0692, 531.8773
543.5513, 530.8358
544.0334, 532.2427
544.5156, 534.2054
544.9977, 537.0215
545.4798, 539.3501
545.9619, 539.9840
546.4440, 536.6546
546.9261, 534.6697
547.4083, 537.3743
547.8904, 541.3311
548.3725, 539.9619
548.8546, 528.4142
549.3367, 519.6010
549.8188, 517.6423
550.3010, 521.7862
550.7831, 522.8904
551.2652, 520.1056
551.7473, 517.1096
552.2294, 516.6393
552.7115, 518.4645
553.1937, 521.2642
553.6758, 525.7136
554.1579, 527.8917
554.6400, 519.7112
555.1221, 504.9449
555.6042, 494.7075
556.0864, 496.0001
556.5685, 500.2999
557.0506, 499.4539
557.5327, 494.6383
558.0148, 490.2164
558.4969, 488.2450
558.9791, 487.3699
559.4612, 487.5002
559.9433, 489.3279
560.4254, 488.4428
560.9075, 480.0060
561.3896, 470.8080
561.8718, 466.8925
562.3539, 472.8504
562.8360, 476.2493
563.3181, 475.4818
563.8002, 471.9230
564.2823, 468.1582
564.7645, 463.6130
565.2466, 461.7954
565.7287, 466.2205
566.2108, 474.6850
566.6929, 474.8634
567.1750, 466.4262
567.6572, 457.1285
568.1393, 454.1177
568.6214, 454.9065
569.1035, 454.5393
569.5856, 451.9527
570.0677, 449.3193
570.5499, 449.6282
571.0320, 450.8152
571.5141, 449.6247
571.9962, 440.4193
572.4783, 433.0331
572.9604, 432.3730
573.4426, 437.3484
573.9247, 442.0945
574.4068, 446.1367
574.8889, 449.3265
575.3710, 451.7480
575.8531, 453.5952
576.3353, 453.2238
576.8174, 449.2475
577.2995, 445.1140
577.7816, 444.6246
578.2637, 448.2375
578.7458, 450.5453
579.2280, 450.5336
579.7101, 449.3142
580.1922, 449.1061
580.6743, 449.6093
581.1564, 449.1291
581.6385, 444.3342
582.1207, 439.4698
582.6028, 441.4696
583.0849, 449.4726
583.5670, 456.8617
584.0491, 459.8154
584.5313, 460.5353
585.0134, 460.8156
585.4955, 461.3120
585.9776, 460.1176
586.4597, 453.7850
586.9418, 446.7620
587.4240, 444.2674
587.9061, 449.5086
588.3882, 454.5922
588.8703, 460.0536
589.3524, 464.4473
589.8345, 462.1859
590.3167, 451.0326
590.7988, 441.8788
591.2809, 440.9264
591.7630, 446.1472
592.2451, 446.7909
592.7272, 442.7021
593.2094, 437.8271
593.6915, 433.4350
594.1736, 430.9995
594.6557, 434.7389
595.1378, 446.8849
595.6199, 458.2177
596.1021, 462.0887
596.5842, 460.6804
597.0663, 457.0894
597.5485, 450.1494
598.0306, 443.5630
598.5127, 436.7202
598.9948, 430.7388
599.4769, 430.4682
599.9590, 442.9583
600.4412, 452.8622
600.9233, 454.2264
601.4054, 446.3542
601.8875, 441.3094
602.3696, 439.8302
602.8517, 439.4625
603.3339, 438.2378
603.8160, 436.2265
604.2981, 434.5266
604.7802, 433.3602
605.2623, 432.2219
605.7444, 429.1794
606.2266, 425.5576
606.7087, 425.1696
607.1908, 432.8172
607.6729, 440.6539
608.1550, 441.2606
608.6371, 436.6946
609.1193, 433.6650
609.6014, 435.4490
610.0835, 438.9190
610.5656, 443.9092
611.0477, 451.1992
611.5298, 453.0134
612.0120, 443.2308
612.4941, 433.8145
