##NAMES=Boleite
##RRUFFID=R050022
##IDEAL CHEMISTRY=KAg^1+^_9_Pb^2+^_26_Cu^2+^_24_Cl_62_(OH)_48_
##LOCALITY=Amelia mine, Boleo, Baja California, Mexico
##OWNER=RRUFF
##SOURCE=Eugene Schlepp
##DESCRIPTION=Dark blue colored interpenetrating cubes
##STATUS=The identification of this mineral has been confirmed by X-ray diffraction.
##URL=rruff.info/R050022
130.1796, 828.2997
130.6617, 873.7295
131.1439, 918.5880
131.6260, 962.1155
132.1081, 1004.138
132.5902, 1043.219
133.0723, 1079.297
133.5544, 1112.202
134.0366, 1143.261
134.5187, 1170.876
135.0008, 1191.013
135.4829, 1199.660
135.9650, 1197.827
136.4471, 1208.312
136.9293, 1242.321
137.4114, 1275.847
137.8935, 1299.273
138.3756, 1316.137
138.8577, 1336.043
139.3398, 1366.113
139.8220, 1406.555
140.3041, 1448.205
140.7862, 1486.311
141.2683, 1529.599
141.7504, 1581.397
142.2325, 1641.479
142.7147, 1708.304
143.1968, 1781.921
143.6789, 1862.297
144.1610, 1942.214
144.6431, 2016.256
145.1252, 2094.016
145.6074, 2185.062
146.0895, 2287.432
146.5716, 2388.090
147.0537, 2478.345
147.5358, 2556.486
148.0179, 2622.806
148.5001, 2665.406
148.9822, 2705.122
149.4643, 2762.422
149.9464, 2837.450
150.4285, 2905.699
150.9106, 2946.614
151.3928, 2960.599
151.8749, 2971.295
152.3570, 2981.492
152.8391, 2987.938
153.3212, 2986.311
153.8033, 2976.110
154.2855, 2963.834
154.7676, 2956.123
155.2497, 2950.844
155.7318, 2938.930
156.2139, 2913.988
156.6960, 2884.143
157.1782, 2858.122
157.6603, 2836.499
158.1424, 2817.646
158.6245, 2798.998
159.1066, 2782.151
159.5887, 2772.345
160.0709, 2772.802
160.5530, 2780.377
161.0351, 2792.315
161.5172, 2809.964
161.9993, 2826.465
162.4814, 2840.717
162.9636, 2850.440
163.4457, 2849.161
163.9278, 2823.166
164.4099, 2787.883
164.8920, 2774.865
165.3741, 2792.431
165.8563, 2808.988
166.3384, 2800.200
166.8205, 2777.427
167.3026, 2759.553
167.7847, 2758.150
168.2668, 2765.174
168.7490, 2762.926
169.2311, 2748.994
169.7132, 2730.773
170.1953, 2711.398
170.6774, 2690.860
171.1595, 2668.826
171.6417, 2644.230
172.1238, 2618.421
172.6059, 2594.779
173.0880, 2573.665
173.5701, 2554.148
174.0522, 2536.825
174.5344, 2520.282
175.0165, 2502.661
175.4986, 2482.664
175.9807, 2461.146
176.4628, 2440.209
176.9449, 2420.138
177.4271, 2400.119
177.9092, 2379.055
178.3913, 2358.048
178.8734, 2339.131
179.3555, 2324.140
179.8376, 2310.828
180.3197, 2291.501
180.8019, 2260.912
181.2840, 2233.682
181.7661, 2213.957
182.2482, 2199.670
182.7303, 2188.919
183.2124, 2181.295
183.6946, 2175.760
184.1767, 2169.257
184.6588, 2160.903
185.1409, 2153.213
185.6230, 2146.993
186.1051, 2141.669
186.5873, 2137.576
187.0694, 2135.629
187.5515, 2132.842
188.0336, 2119.607
188.5157, 2085.937
188.9978, 2059.387
189.4800, 2050.171
189.9621, 2048.229
190.4442, 2042.187
190.9263, 2026.672
191.4084, 2007.242
191.8905, 1998.510
192.3727, 2009.911
192.8548, 2015.190
193.3369, 2007.794
193.8190, 1994.282
194.3011, 1980.273
194.7832, 1967.958
195.2654, 1957.058
195.7475, 1947.167
196.2296, 1938.587
196.7117, 1930.397
197.1938, 1923.301
197.6759, 1916.022
198.1581, 1906.665
198.6402, 1894.684
199.1223, 1882.615
199.6044, 1875.654
200.0865, 1877.361
200.5686, 1877.173
201.0508, 1874.715
201.5329, 1870.082
202.0150, 1861.198
202.4971, 1848.114
202.9792, 1836.143
203.4613, 1836.202
203.9435, 1860.474
204.4256, 1868.655
204.9077, 1845.542
205.3898, 1817.638
205.8719, 1805.709
206.3540, 1812.517
206.8362, 1822.737
207.3183, 1812.716
207.8004, 1768.560
208.2825, 1740.089
208.7646, 1736.218
209.2467, 1739.230
209.7289, 1740.701
210.2110, 1738.854
210.6931, 1735.562
211.1752, 1733.704
211.6573, 1735.387
212.1395, 1730.487
212.6216, 1712.354
213.1037, 1693.829
213.5858, 1681.437
214.0679, 1675.002
214.5500, 1670.089
215.0322, 1661.555
215.5143, 1647.852
215.9964, 1641.240
216.4785, 1648.890
216.9606, 1656.844
217.4427, 1659.417
217.9249, 1657.561
218.4070, 1655.755
218.8891, 1658.321
219.3712, 1665.514
219.8533, 1667.755
220.3354, 1664.015
220.8176, 1655.872
221.2997, 1638.115
221.7818, 1616.213
222.2639, 1601.181
222.7460, 1602.323
223.2281, 1617.330
223.7103, 1621.200
224.1924, 1603.792
224.6745, 1585.292
225.1566, 1564.839
225.6387, 1546.860
226.1208, 1538.924
226.6030, 1546.723
227.0851, 1564.880
227.5672, 1570.354
228.0493, 1551.610
228.5314, 1534.966
229.0135, 1525.005
229.4957, 1519.393
229.9778, 1515.540
230.4599, 1512.319
230.9420, 1509.782
231.4241, 1508.734
231.9062, 1513.935
232.3884, 1511.803
232.8705, 1493.436
233.3526, 1472.064
233.8347, 1461.127
234.3168, 1464.714
234.7989, 1472.907
235.2811, 1467.281
235.7632, 1438.975
236.2453, 1417.835
236.7274, 1403.859
237.2095, 1398.313
237.6916, 1406.419
238.1738, 1427.335
238.6559, 1449.837
239.1380, 1460.257
239.6201, 1456.594
240.1022, 1447.883
240.5843, 1426.443
241.0665, 1406.560
241.5486, 1396.157
242.0307, 1394.732
242.5128, 1395.911
242.9949, 1393.719
243.4770, 1387.821
243.9592, 1382.439
244.4413, 1376.116
244.9234, 1371.836
245.4055, 1372.693
245.8876, 1376.755
246.3697, 1379.225
246.8519, 1376.545
247.3340, 1369.131
247.8161, 1360.629
248.2982, 1348.330
248.7803, 1338.740
249.2624, 1334.515
249.7446, 1334.079
250.2267, 1335.112
250.7088, 1336.819
251.1909, 1338.698
251.6730, 1339.592
252.1551, 1340.315
252.6373, 1338.166
253.1194, 1330.502
253.6015, 1320.631
254.0836, 1311.885
254.5657, 1305.400
255.0478, 1300.703
255.5300, 1297.635
256.0121, 1297.026
256.4942, 1294.899
256.9763, 1287.769
257.4584, 1280.030
257.9406, 1274.768
258.4227, 1272.661
258.9048, 1272.405
259.3869, 1273.665
259.8690, 1276.606
260.3511, 1276.897
260.8333, 1270.383
261.3154, 1263.930
261.7975, 1263.672
262.2796, 1269.344
262.7617, 1274.032
263.2438, 1270.947
263.7260, 1261.837
264.2081, 1257.495
264.6902, 1261.798
265.1723, 1266.759
265.6544, 1265.276
266.1365, 1259.309
266.6187, 1255.422
267.1008, 1258.842
267.5829, 1266.051
268.0650, 1270.186
268.5471, 1271.363
269.0292, 1268.564
269.5114, 1253.330
269.9935, 1234.182
270.4756, 1227.326
270.9577, 1246.522
271.4398, 1271.858
271.9219, 1279.408
272.4041, 1268.666
272.8862, 1257.259
273.3683, 1252.621
273.8504, 1253.628
274.3325, 1258.027
274.8146, 1269.133
275.2968, 1277.427
275.7789, 1272.844
276.2610, 1258.967
276.7431, 1251.326
277.2252, 1257.545
277.7073, 1269.572
278.1895, 1272.601
278.6716, 1264.060
279.1537, 1260.089
279.6358, 1270.809
280.1179, 1288.925
280.6000, 1302.432
281.0822, 1308.814
281.5643, 1309.878
282.0464, 1305.858
282.5285, 1296.102
283.0106, 1289.896
283.4927, 1288.586
283.9749, 1291.082
284.4570, 1298.830
284.9391, 1311.140
285.4212, 1320.885
285.9033, 1321.139
286.3854, 1312.124
286.8676, 1308.918
287.3497, 1317.315
287.8318, 1325.341
288.3139, 1327.841
288.7960, 1325.323
289.2781, 1319.303
289.7603, 1310.154
290.2424, 1298.918
290.7245, 1290.203
291.2066, 1288.054
291.6887, 1283.263
292.1708, 1270.854
292.6530, 1256.329
293.1351, 1247.629
293.6172, 1247.418
294.0993, 1250.440
294.5814, 1247.330
295.0635, 1234.090
295.5457, 1221.813
296.0278, 1210.807
296.5099, 1200.532
296.9920, 1190.759
297.4741, 1181.380
297.9562, 1172.489
298.4384, 1164.306
298.9205, 1157.099
299.4026, 1148.578
299.8847, 1135.516
300.3668, 1124.392
300.8489, 1118.525
301.3311, 1116.331
301.8131, 1113.993
302.2953, 1108.655
302.7774, 1101.503
303.2595, 1099.106
303.7416, 1107.501
304.2237, 1111.634
304.7058, 1106.387
305.1880, 1096.681
305.6701, 1087.575
306.1522, 1080.929
306.6343, 1075.598
307.1164, 1069.004
307.5985, 1059.782
308.0807, 1054.530
308.5628, 1059.433
309.0449, 1065.240
309.5270, 1065.923
310.0091, 1061.188
310.4912, 1055.765
310.9734, 1053.372
311.4555, 1053.854
311.9376, 1055.919
312.4197, 1060.880
312.9018, 1065.380
313.3839, 1068.355
313.8661, 1069.447
314.3482, 1067.485
314.8303, 1060.096
315.3124, 1050.137
315.7945, 1042.159
316.2766, 1036.089
316.7588, 1032.546
317.2409, 1033.651
317.7230, 1037.037
318.2051, 1039.031
318.6872, 1039.778
319.1693, 1038.052
319.6515, 1029.323
320.1336, 1016.146
320.6157, 1010.793
321.0978, 1019.573
321.5799, 1034.627
322.0620, 1044.243
322.5442, 1048.602
323.0263, 1049.295
323.5084, 1043.496
323.9905, 1035.667
324.4726, 1032.234
324.9547, 1034.243
325.4369, 1037.015
325.9190, 1035.625
326.4011, 1029.512
326.8832, 1027.008
327.3653, 1029.345
327.8474, 1033.966
328.3296, 1043.136
328.8117, 1053.907
329.2938, 1057.013
329.7759, 1045.772
330.2580, 1024.902
330.7401, 1016.188
331.2223, 1032.741
331.7044, 1045.238
332.1865, 1048.915
332.6686, 1047.901
333.1507, 1046.868
333.6328, 1047.177
334.1150, 1046.673
334.5971, 1041.192
335.0792, 1026.178
335.5613, 1018.893
336.0434, 1027.047
336.5255, 1035.178
337.0077, 1032.705
337.4898, 1022.418
337.9719, 1015.535
338.4540, 1022.359
338.9361, 1040.775
339.4182, 1051.450
339.9004, 1049.590
340.3825, 1046.564
340.8646, 1046.185
341.3467, 1046.585
341.8288, 1044.940
342.3109, 1039.823
342.7931, 1034.046
343.2752, 1032.902
343.7573, 1037.499
344.2394, 1038.663
344.7215, 1031.311
345.2036, 1021.943
345.6858, 1015.265
346.1679, 1011.543
346.6500, 1009.648
347.1321, 1010.118
347.6142, 1011.857
348.0963, 1011.302
348.5785, 1007.245
349.0606, 1003.633
349.5427, 1006.216
350.0248, 1012.077
350.5069, 1012.024
350.9890, 997.5141
351.4712, 981.9910
351.9533, 976.2016
352.4354, 979.1472
352.9175, 986.2309
353.3996, 996.9900
353.8817, 1008.606
354.3639, 1013.049
354.8460, 1008.452
355.3281, 1002.560
355.8102, 992.9545
356.2923, 984.7958
356.7744, 986.7504
357.2566, 999.9827
357.7387, 1014.589
358.2208, 1019.227
358.7029, 1011.718
359.1850, 1005.927
359.6671, 1002.566
360.1493, 999.9474
360.6314, 997.7484
361.1135, 995.6852
361.5956, 992.5817
362.0777, 987.3006
362.5598, 981.9548
363.0420, 985.0860
363.5241, 1006.977
364.0062, 1020.618
364.4883, 1021.637
364.9704, 1014.935
365.4525, 1001.508
365.9347, 982.8403
366.4168, 965.8345
366.8989, 959.5308
367.3810, 964.6019
367.8631, 968.4456
368.3452, 970.3313
368.8274, 971.1718
369.3095, 970.5068
369.7916, 969.2390
370.2737, 969.5706
370.7558, 973.4583
371.2379, 978.7718
371.7201, 982.3015
372.2022, 984.0895
372.6843, 983.4821
373.1664, 978.2410
373.6485, 971.5922
374.1306, 969.0447
374.6128, 972.3404
375.0949, 974.0432
375.5770, 969.5051
376.0591, 960.7903
376.5412, 950.5346
377.0233, 938.6674
377.5055, 930.2086
377.9876, 932.2600
378.4697, 946.2850
378.9518, 952.6512
379.4339, 943.6616
379.9160, 933.6611
380.3982, 932.7205
380.8803, 938.0427
381.3624, 940.2275
381.8445, 933.7589
382.3266, 922.2053
382.8087, 916.3993
383.2909, 925.9686
383.7730, 928.6608
384.2551, 916.9386
384.7372, 902.8539
385.2193, 896.1285
385.7014, 898.2642
386.1836, 904.9490
386.6657, 913.4344
387.1478, 924.2485
387.6299, 925.5931
388.1120, 904.1619
388.5941, 888.6647
389.0763, 893.1146
389.5584, 908.2896
390.0405, 920.1863
390.5226, 923.4524
391.0047, 919.3365
391.4868, 906.7529
391.9690, 884.2081
392.4511, 867.9669
392.9332, 863.9051
393.4153, 866.9056
393.8974, 873.1939
394.3795, 882.5903
394.8617, 890.5389
395.3438, 893.3494
395.8259, 893.7883
396.3080, 897.3790
396.7901, 904.8430
397.2722, 910.6198
397.7544, 910.1557
398.2365, 904.5997
398.7186, 900.9714
399.2007, 898.0394
399.6828, 898.3434
400.1649, 906.5201
400.6471, 917.7434
401.1292, 923.1838
401.6113, 919.9255
402.0934, 913.4162
402.5755, 912.1738
403.0576, 920.1271
403.5398, 921.0506
404.0219, 906.5006
404.5040, 893.7502
404.9861, 896.8168
405.4682, 909.3090
405.9503, 912.4887
406.4325, 892.3742
406.9146, 859.0358
407.3967, 850.7891
407.8788, 884.0384
408.3609, 908.7798
408.8430, 908.2629
409.3252, 900.9664
409.8073, 902.9275
410.2894, 915.9999
410.7715, 927.0801
411.2536, 922.1487
411.7357, 904.6615
412.2179, 892.9227
412.7000, 889.8661
413.1821, 888.4136
413.6642, 883.5978
414.1463, 876.9154
414.6284, 871.3467
415.1106, 867.1733
415.5927, 864.5471
416.0748, 864.2477
416.5569, 865.6602
417.0390, 866.7375
417.5211, 866.6391
418.0033, 866.4880
418.4854, 867.9467
418.9675, 871.3302
419.4496, 875.4838
419.9317, 881.7160
420.4138, 887.5826
420.8960, 892.6192
421.3781, 895.9915
421.8602, 895.3505
422.3423, 888.7149
422.8244, 877.8752
423.3065, 870.4719
423.7887, 866.6946
424.2708, 866.4467
424.7529, 873.5909
425.2350, 881.3082
425.7171, 883.0967
426.1992, 878.5861
426.6814, 873.4604
427.1635, 873.8458
427.6456, 879.1274
428.1277, 881.6725
428.6098, 880.2031
429.0919, 878.4264
429.5741, 877.3425
430.0562, 877.4039
430.5383, 879.9769
431.0204, 886.9626
431.5025, 893.0937
431.9846, 893.6993
432.4668, 889.7729
432.9489, 884.6840
433.4310, 879.1448
433.9131, 873.0219
434.3952, 864.6314
434.8773, 853.2438
435.3595, 849.8296
435.8416, 867.4103
436.3237, 881.9606
436.8058, 874.2195
437.2879, 851.2148
437.7701, 832.7709
438.2522, 829.3359
438.7343, 834.6385
439.2164, 832.3539
439.6985, 814.1646
440.1806, 803.3394
440.6628, 805.2418
441.1449, 809.5791
441.6270, 810.5004
442.1091, 807.6149
442.5912, 802.7145
443.0733, 795.8124
443.5555, 788.4735
444.0376, 787.6249
444.5197, 795.7369
445.0018, 803.4440
445.4839, 808.5509
445.9660, 810.7349
446.4482, 807.9202
446.9303, 798.9392
447.4124, 792.3241
447.8945, 794.8553
448.3766, 803.1597
448.8587, 810.1097
449.3409, 814.6812
449.8230, 819.7123
450.3051, 828.2046
450.7872, 839.4681
451.2693, 846.7833
451.7514, 846.6577
452.2336, 846.9678
452.7157, 852.3452
453.1978, 858.9579
453.6799, 861.2708
454.1620, 857.7505
454.6441, 850.7953
455.1263, 842.7821
455.6084, 832.7579
456.0905, 827.1313
456.5726, 833.5187
457.0547, 836.5900
457.5368, 827.4760
458.0190, 812.9631
458.5011, 804.0551
458.9832, 805.5971
459.4653, 813.3028
459.9474, 823.3976
460.4295, 835.9607
460.9117, 842.7018
461.3938, 840.3019
461.8759, 833.8401
462.3580, 826.0048
462.8401, 817.4777
463.3222, 812.3210
463.8044, 813.8539
464.2865, 817.4484
464.7686, 820.9691
465.2507, 823.4104
465.7328, 820.2131
466.2149, 808.4532
466.6971, 793.3616
467.1792, 785.1637
467.6613, 786.2611
468.1434, 789.9950
468.6255, 799.4943
469.1076, 808.8760
469.5898, 815.3979
470.0719, 818.5724
470.5540, 818.1931
471.0361, 813.9599
471.5182, 806.5920
472.0003, 797.3585
472.4825, 784.5908
472.9646, 774.6918
473.4467, 767.6797
473.9288, 765.2048
474.4109, 771.3367
474.8930, 784.9589
475.3752, 796.5000
475.8573, 797.7497
476.3394, 794.5053
476.8215, 798.3791
477.3036, 809.6946
477.7857, 817.0482
478.2679, 813.3084
478.7500, 803.1830
479.2321, 798.3950
479.7142, 801.5468
480.1963, 802.7114
480.6784, 795.6392
481.1606, 788.7074
481.6427, 790.6255
482.1248, 801.0073
482.6069, 813.5451
483.0890, 824.1459
483.5711, 832.3401
484.0533, 835.3124
484.5354, 828.4412
485.0175, 823.8875
485.4996, 825.5604
485.9817, 828.4174
486.4638, 827.2565
486.9460, 822.1929
487.4281, 819.1153
487.9102, 825.5983
488.3923, 837.4705
488.8744, 840.8741
489.3565, 834.2338
489.8387, 827.5242
490.3208, 824.8785
490.8029, 825.9052
491.2850, 829.9775
491.7671, 839.3665
492.2492, 845.2717
492.7314, 842.3312
493.2135, 835.6566
493.6956, 828.8442
494.1777, 823.3840
494.6598, 823.8864
495.1419, 835.1420
495.6241, 854.5278
496.1062, 865.0894
496.5883, 858.2781
497.0704, 854.2896
497.5525, 858.5573
498.0346, 863.9418
498.5168, 863.2659
498.9989, 856.5756
499.4810, 850.7969
499.9631, 853.2895
500.4452, 861.1993
500.9273, 863.1925
501.4095, 858.0457
501.8916, 852.0835
502.3737, 847.7363
502.8558, 844.3090
503.3379, 840.9752
503.8200, 838.0815
504.3022, 833.7878
504.7843, 823.1089
505.2664, 813.1387
505.7485, 815.2828
506.2306, 828.3743
506.7127, 838.9633
507.1949, 837.8691
507.6770, 827.4481
508.1591, 817.8047
508.6412, 804.6169
509.1233, 798.9828
509.6054, 810.1254
510.0876, 821.9992
510.5697, 821.1074
511.0518, 808.6038
511.5339, 796.0325
512.0161, 791.5206
512.4982, 792.9937
512.9803, 795.5613
513.4624, 799.6163
513.9445, 802.2701
514.4266, 802.3621
514.9088, 800.6107
515.3909, 798.5440
515.8730, 796.3731
516.3551, 791.4533
516.8372, 778.0089
517.3193, 765.1224
517.8015, 762.9424
518.2836, 769.5704
518.7657, 775.5047
519.2478, 775.6678
519.7299, 772.2697
520.2120, 770.1194
520.6942, 766.2255
521.1763, 769.6680
521.6584, 791.7782
522.1405, 809.7917
522.6226, 804.6750
523.1047, 785.3448
523.5869, 776.9863
524.0690, 796.3922
524.5511, 825.2769
525.0332, 830.4364
525.5153, 812.0707
525.9974, 803.2265
526.4796, 815.8896
526.9617, 833.6293
527.4438, 837.6919
527.9259, 829.9260
528.4080, 825.4259
528.8901, 829.2591
529.3723, 833.9695
529.8544, 834.9488
530.3365, 833.6575
530.8186, 832.5604
531.3007, 832.5803
531.7828, 834.6870
532.2650, 840.9512
532.7471, 852.7560
533.2292, 860.2136
533.7113, 860.6778
534.1934, 859.6100
534.6755, 855.5845
535.1577, 852.2203
535.6398, 855.8658
536.1219, 869.1747
536.6040, 881.6699
537.0861, 882.2556
537.5682, 874.1376
538.0504, 866.7966
538.5325, 861.0530
539.0146, 858.5915
539.4967, 861.8816
539.9788, 869.4401
540.4609, 873.7446
540.9431, 872.5995
541.4252, 871.6585
541.9073, 871.0287
542.3894, 871.7678
542.8715, 877.9891
543.3536, 887.8333
543.8358, 891.3879
544.3179, 878.9340
544.8000, 855.6211
545.2821, 844.9718
545.7642, 851.6801
546.2463, 858.2272
546.7285, 860.5786
547.2106, 860.8466
547.6927, 859.2692
548.1748, 856.3442
548.6569, 856.1642
549.1390, 864.9810
549.6211, 874.2876
550.1032, 873.7079
550.5853, 864.9052
551.0674, 855.2695
551.5496, 847.3588
552.0317, 841.6204
552.5138, 839.1735
552.9959, 841.9884
553.4780, 841.3248
553.9601, 833.7362
554.4423, 826.8679
554.9244, 823.6187
555.4065, 823.1634
555.8886, 824.1042
556.3707, 825.9540
556.8528, 828.4215
557.3350, 830.0820
557.8171, 831.5133
558.2992, 839.5195
558.7813, 858.3847
559.2634, 871.8337
559.7455, 864.1691
560.2277, 843.3741
560.7098, 836.0281
561.1919, 852.1645
561.6740, 864.4711
562.1561, 861.4685
562.6382, 852.2250
563.1204, 844.0184
563.6025, 838.9733
564.0846, 839.5511
564.5667, 848.3638
565.0488, 862.7757
565.5309, 872.5972
566.0131, 877.0203
566.4952, 878.8830
566.9773, 877.0908
567.4594, 874.0473
567.9415, 870.1886
568.4236, 866.1193
568.9058, 864.0109
569.3879, 864.8300
569.8700, 867.9555
570.3521, 874.7673
570.8342, 883.5988
571.3163, 887.4794
571.7985, 883.7600
572.2806, 880.1415
572.7627, 887.3775
573.2448, 907.9238
573.7269, 916.0520
574.2090, 896.3243
574.6912, 883.3459
575.1733, 893.7313
575.6554, 911.1578
576.1375, 914.4456
576.6196, 900.1365
577.1017, 886.7321
577.5839, 895.6207
578.0660, 918.7892
578.5481, 928.7134
579.0302, 924.0266
579.5123, 913.5025
579.9944, 895.6713
580.4766, 879.0918
580.9587, 884.4511
581.4408, 918.9127
581.9229, 941.2994
582.4050, 936.3781
582.8871, 926.2737
583.3693, 926.3906
583.8514, 932.9522
584.3335, 934.1595
584.8156, 924.5504
585.2977, 912.1121
585.7798, 911.3654
586.2620, 923.9045
586.7441, 928.5668
587.2262, 918.8978
587.7083, 910.3221
588.1904, 914.9498
588.6725, 925.5591
589.1547, 929.8951
589.6368, 923.8732
590.1189, 918.1286
590.6010, 918.8477
591.0831, 922.1396
591.5652, 923.3937
592.0474, 922.1713
592.5295, 919.6000
593.0116, 916.2768
593.4937, 912.5643
593.9758, 909.4577
594.4579, 906.7571
594.9401, 905.1760
595.4222, 903.6018
595.9043, 904.3312
596.3864, 911.2014
596.8685, 921.2748
597.3506, 926.9307
597.8328, 923.5490
598.3149, 918.3968
598.7970, 917.4306
599.2791, 919.8658
599.7612, 925.8010
600.2433, 935.3044
600.7255, 939.6287
601.2076, 930.0484
601.6897, 908.7689
602.1718, 893.7899
602.6539, 887.5423
603.1360, 884.7338
603.6182, 889.7781
604.1003, 894.2824
604.5824, 890.7101
605.0645, 880.2964
605.5466, 870.0513
606.0287, 862.3376
606.5109, 859.1536
606.9930, 866.8857
607.4751, 883.6768
607.9572, 894.5500
608.4393, 895.5737
608.9214, 890.4902
609.4036, 880.8738
609.8857, 866.7185
610.3678, 861.8331
610.8499, 875.7422
611.3320, 885.9463
611.8141, 883.1274
612.2963, 876.7276
612.7784, 877.1348
613.2605, 884.7534
613.7426, 892.1265
614.2247, 894.0297
614.7068, 891.3667
615.1890, 873.6965
615.6711, 887.4142
616.1532, 895.1929
616.6353, 897.3519
617.1174, 877.0590
617.5995, 885.7580
618.0817, 882.8384
618.5638, 879.4423
619.0459, 892.2217
619.5280, 875.1945
620.0101, 887.7174
620.4922, 888.4445
620.9744, 886.1906
621.4565, 885.0964
621.9386, 884.9366
622.4207, 888.4075
622.9028, 893.7993
623.3849, 893.4713
623.8671, 886.2048
624.3492, 880.4146
624.8313, 879.3023
625.3134, 879.9646
625.7955, 879.8494
626.2776, 878.9880
626.7598, 875.1254
627.2419, 860.2782
627.7240, 850.6564
