##NAMES=Boltwoodite
##RRUFFID=R060753
##IDEAL CHEMISTRY=(K,Na)U^6+^O_2_(SiO_3_OH)&#183;1.5H_2_O
##LOCALITY=Rossing mine, between Rossing & Arandis, near Swakopmund, Namibia
##OWNER=RRUFF
##SOURCE=Michael Scott
##DESCRIPTION=Radiating tufts of pale yellow-orange bladed crystals
##STATUS=The identification of this mineral has been confirmed by single-crystal X-ray diffraction.
##URL=rruff.info/R060753
138.884, 1409.614
139.366, 1467.465
139.848, 1534.569
140.330, 1603.170
140.812, 1671.048
141.294, 1744.307
141.777, 1826.860
142.259, 1912.992
142.741, 1997.041
143.223, 2075.844
143.705, 2150.189
144.187, 2223.918
144.669, 2299.989
145.151, 2370.317
145.633, 2434.767
146.116, 2492.642
146.598, 2543.881
147.080, 2588.418
147.562, 2625.800
148.044, 2653.332
148.526, 2667.594
149.008, 2674.286
149.490, 2674.813
149.973, 2668.528
150.455, 2653.288
150.937, 2627.106
151.419, 2591.335
151.901, 2558.998
152.383, 2537.857
152.865, 2512.110
153.347, 2469.890
153.829, 2420.963
154.312, 2383.450
154.794, 2370.247
155.276, 2380.050
155.758, 2383.168
156.240, 2373.885
156.722, 2364.395
157.204, 2353.861
157.686, 2345.462
158.169, 2345.409
158.651, 2358.838
159.133, 2385.586
159.615, 2410.662
160.097, 2432.168
160.579, 2454.367
161.061, 2478.668
161.543, 2504.969
162.025, 2532.392
162.508, 2560.312
162.990, 2588.872
163.472, 2619.287
163.954, 2656.490
164.436, 2690.515
164.918, 2719.656
165.400, 2742.444
165.883, 2754.602
166.365, 2749.861
166.847, 2728.778
167.329, 2725.376
167.811, 2760.196
168.293, 2791.443
168.775, 2794.337
169.257, 2772.823
169.739, 2748.827
170.221, 2739.415
170.704, 2743.838
171.186, 2736.123
171.668, 2706.019
172.150, 2674.142
172.632, 2651.936
173.114, 2638.902
173.596, 2628.583
174.078, 2616.186
174.561, 2602.236
175.043, 2592.560
175.525, 2591.946
176.007, 2591.448
176.489, 2583.317
176.971, 2568.679
177.453, 2557.273
177.935, 2557.150
178.417, 2567.229
178.900, 2572.345
179.382, 2565.558
179.864, 2559.484
180.346, 2565.053
180.828, 2581.092
181.310, 2595.035
181.792, 2596.031
182.274, 2587.132
182.757, 2589.385
183.239, 2613.253
183.721, 2640.091
184.203, 2656.399
184.685, 2662.750
185.167, 2667.044
185.649, 2673.107
186.131, 2681.402
186.613, 2692.132
187.096, 2704.164
187.578, 2719.547
188.060, 2741.384
188.542, 2769.205
189.024, 2796.462
189.506, 2818.709
189.988, 2837.496
190.470, 2859.213
190.952, 2886.710
191.435, 2914.656
191.917, 2937.695
192.399, 2956.519
192.881, 2977.427
193.363, 3000.904
193.845, 3030.896
194.327, 3074.572
194.809, 3142.518
195.292, 3212.904
195.774, 3266.385
196.256, 3305.040
196.738, 3350.163
197.220, 3417.939
197.702, 3496.941
198.184, 3557.797
198.666, 3583.253
199.148, 3613.786
199.631, 3682.594
200.113, 3785.458
200.595, 3888.713
201.077, 3975.576
201.559, 4054.806
202.041, 4144.028
202.523, 4244.723
203.005, 4352.376
203.488, 4466.149
203.970, 4584.918
204.452, 4705.430
204.934, 4827.718
205.416, 4949.013
205.898, 5063.803
206.380, 5168.664
206.862, 5276.594
207.344, 5394.935
207.827, 5522.949
208.309, 5657.799
208.791, 5799.768
209.273, 5947.123
209.755, 6099.238
210.237, 6260.302
210.719, 6408.521
211.201, 6519.875
211.684, 6605.492
212.166, 6711.605
212.648, 6864.712
213.130, 7025.072
213.612, 7135.577
214.094, 7190.474
214.576, 7243.315
215.058, 7334.143
215.540, 7442.982
216.023, 7513.100
216.505, 7524.066
216.987, 7504.438
217.469, 7491.252
217.951, 7485.859
218.433, 7467.214
218.915, 7423.655
219.397, 7361.621
219.880, 7292.833
220.362, 7217.611
220.844, 7140.167
221.326, 7069.574
221.808, 7005.217
222.290, 6926.505
222.772, 6816.999
223.254, 6691.817
223.736, 6577.009
224.219, 6479.147
224.701, 6380.979
225.183, 6262.798
225.665, 6126.957
226.147, 5994.369
226.629, 5865.645
227.111, 5743.752
227.593, 5636.668
228.076, 5546.441
228.558, 5453.885
229.040, 5337.044
229.522, 5201.597
230.004, 5081.159
230.486, 4990.771
230.968, 4910.727
231.450, 4822.552
231.932, 4725.370
232.415, 4625.255
232.897, 4522.685
233.379, 4420.678
233.861, 4331.571
234.343, 4265.841
234.825, 4205.249
235.307, 4137.300
235.789, 4062.654
236.271, 3986.974
236.754, 3913.862
237.236, 3842.862
237.718, 3772.557
238.200, 3700.065
238.682, 3630.933
239.164, 3566.914
239.646, 3508.413
240.128, 3457.382
240.611, 3416.758
241.093, 3382.435
241.575, 3341.935
242.057, 3290.343
242.539, 3241.516
243.021, 3199.408
243.503, 3163.667
243.985, 3134.894
244.467, 3114.344
244.950, 3097.869
245.432, 3076.143
245.914, 3046.890
246.396, 3018.789
246.878, 2993.462
247.360, 2970.213
247.842, 2946.950
248.324, 2922.940
248.807, 2901.591
249.289, 2888.397
249.771, 2884.503
250.253, 2885.878
250.735, 2896.161
251.217, 2909.440
251.699, 2919.766
252.181, 2926.172
252.663, 2931.827
253.146, 2940.119
253.628, 2951.490
254.110, 2964.343
254.592, 2978.530
255.074, 2994.197
255.556, 3011.333
256.038, 3029.957
256.520, 3050.502
257.003, 3073.795
257.485, 3100.255
257.967, 3122.336
258.449, 3135.013
258.931, 3149.032
259.413, 3168.345
259.895, 3192.755
260.377, 3221.304
260.859, 3253.914
261.342, 3289.932
261.824, 3322.258
262.306, 3349.863
262.788, 3375.371
263.270, 3392.845
263.752, 3410.059
264.234, 3440.261
264.716, 3490.433
265.198, 3553.145
265.681, 3604.512
266.163, 3629.189
266.645, 3662.478
267.127, 3713.294
267.609, 3770.104
268.091, 3819.197
268.573, 3856.655
269.056, 3892.931
269.538, 3948.116
270.020, 4038.241
270.502, 4113.877
270.984, 4163.212
271.466, 4208.807
271.948, 4268.851
272.430, 4343.906
272.912, 4418.373
273.395, 4473.960
273.877, 4508.443
274.359, 4536.296
274.841, 4562.851
275.323, 4577.627
275.805, 4574.002
276.287, 4553.958
276.769, 4523.855
277.251, 4487.614
277.734, 4445.424
278.216, 4401.298
278.698, 4364.996
279.180, 4312.587
279.662, 4229.555
280.144, 4127.529
280.626, 4025.052
281.108, 3931.200
281.591, 3843.962
282.073, 3757.487
282.555, 3672.365
283.037, 3588.244
283.519, 3503.784
284.001, 3420.705
284.483, 3338.991
284.965, 3256.893
285.447, 3182.793
285.930, 3131.199
286.412, 3105.038
286.894, 3074.687
287.376, 3031.344
287.858, 2980.607
288.340, 2922.710
288.822, 2856.967
289.304, 2800.091
289.786, 2770.291
290.269, 2762.158
290.751, 2746.632
291.233, 2713.605
291.715, 2680.269
292.197, 2664.616
292.679, 2664.225
293.161, 2663.660
293.643, 2655.127
294.125, 2643.013
294.608, 2635.990
295.090, 2635.917
295.572, 2634.040
296.054, 2620.188
296.536, 2597.905
297.018, 2582.651
297.500, 2579.366
297.983, 2581.531
298.465, 2583.203
298.947, 2584.952
299.429, 2592.594
299.911, 2611.511
300.393, 2637.623
300.875, 2655.953
301.357, 2654.584
301.839, 2661.049
302.322, 2691.451
302.804, 2735.854
303.286, 2775.464
303.768, 2803.214
304.250, 2824.364
304.732, 2848.491
305.214, 2873.186
305.696, 2906.215
306.178, 2958.385
306.661, 3013.284
307.143, 3054.012
307.625, 3078.417
308.107, 3098.288
308.589, 3127.909
309.071, 3171.955
309.553, 3203.260
310.035, 3208.458
310.517, 3215.542
311.000, 3240.610
311.482, 3279.436
311.964, 3318.176
312.446, 3346.631
312.928, 3365.885
313.410, 3386.006
313.892, 3410.824
314.374, 3432.088
314.857, 3448.369
315.339, 3460.375
315.821, 3470.310
316.303, 3479.297
316.785, 3483.456
317.267, 3473.909
317.749, 3446.098
318.231, 3415.493
318.714, 3389.801
319.196, 3358.424
319.678, 3312.306
320.160, 3250.620
320.642, 3182.177
321.124, 3112.988
321.606, 3043.366
322.088, 2977.766
322.570, 2916.873
323.052, 2860.785
323.535, 2811.877
324.017, 2767.709
324.499, 2720.365
324.981, 2663.260
325.463, 2600.997
325.945, 2542.594
326.427, 2487.972
326.909, 2438.205
327.392, 2394.952
327.874, 2356.742
328.356, 2321.628
328.838, 2289.936
329.320, 2260.616
329.802, 2231.826
330.284, 2204.155
330.766, 2182.575
331.249, 2171.355
331.731, 2164.102
332.213, 2149.758
332.695, 2127.532
333.177, 2103.601
333.659, 2075.182
334.141, 2047.900
334.623, 2031.441
335.105, 2027.795
335.588, 2026.362
336.070, 2015.419
336.552, 1992.743
337.034, 1976.213
337.516, 1970.121
337.998, 1966.094
338.480, 1959.266
338.962, 1950.316
339.444, 1943.173
339.927, 1941.038
340.409, 1941.939
340.891, 1934.434
341.373, 1907.545
341.855, 1885.007
342.337, 1870.838
342.819, 1861.699
343.301, 1853.730
343.784, 1845.693
344.266, 1838.909
344.748, 1836.590
345.230, 1842.493
345.712, 1842.581
346.194, 1829.476
346.676, 1816.675
347.158, 1811.408
347.641, 1813.299
348.123, 1817.892
348.605, 1823.119
349.087, 1828.368
349.569, 1828.496
350.051, 1822.123
350.533, 1812.619
351.015, 1797.656
351.497, 1781.778
351.979, 1771.952
352.462, 1771.789
352.944, 1776.256
353.426, 1780.002
353.908, 1783.072
354.390, 1783.315
354.872, 1775.830
355.354, 1768.009
355.836, 1778.946
356.319, 1785.330
356.801, 1787.405
357.283, 1772.267
357.765, 1779.356
358.247, 1777.537
358.729, 1775.354
359.211, 1785.571
359.693, 1772.937
360.176, 1782.958
360.658, 1783.935
361.140, 1782.816
361.622, 1791.632
362.104, 1791.205
362.586, 1784.594
363.068, 1782.756
363.550, 1792.159
364.032, 1809.559
364.515, 1824.214
364.997, 1837.486
365.479, 1846.038
365.961, 1841.130
366.443, 1836.008
366.925, 1846.722
367.407, 1875.287
367.889, 1906.992
368.371, 1922.355
368.854, 1916.378
369.336, 1917.764
369.818, 1936.489
370.300, 1953.056
370.782, 1955.048
371.264, 1949.370
371.746, 1951.943
372.228, 1973.940
372.711, 2008.612
373.193, 2037.020
373.675, 2058.575
374.157, 2075.307
374.639, 2084.997
375.121, 2091.672
375.603, 2097.844
376.085, 2103.770
376.568, 2111.330
377.050, 2124.435
377.532, 2141.189
378.014, 2151.517
378.496, 2150.274
378.978, 2149.151
379.460, 2161.742
379.942, 2185.279
380.424, 2207.827
380.906, 2224.660
381.389, 2240.679
381.871, 2261.207
382.353, 2285.565
382.835, 2308.939
383.317, 2328.938
383.799, 2345.681
384.281, 2359.333
384.763, 2359.696
385.246, 2371.007
385.728, 2406.899
386.210, 2451.439
386.692, 2486.238
387.174, 2507.104
387.656, 2522.532
388.138, 2542.885
388.620, 2569.101
389.103, 2596.163
389.585, 2622.395
390.067, 2651.188
390.549, 2689.571
391.031, 2731.179
391.513, 2761.869
391.995, 2771.679
392.477, 2770.114
392.959, 2784.667
393.442, 2823.385
393.924, 2856.876
394.406, 2879.892
394.888, 2893.349
395.370, 2894.803
395.852, 2884.109
396.334, 2870.806
396.816, 2864.736
397.298, 2862.521
397.781, 2849.267
398.263, 2819.664
398.745, 2789.863
399.227, 2778.479
399.709, 2778.513
400.191, 2765.707
400.673, 2727.561
401.155, 2682.976
401.638, 2644.857
402.120, 2611.440
402.602, 2575.802
403.084, 2533.877
403.566, 2490.885
404.048, 2457.530
404.530, 2441.388
405.012, 2420.658
405.495, 2394.388
405.977, 2363.191
406.459, 2323.096
406.941, 2276.865
407.423, 2235.228
407.905, 2208.476
408.387, 2195.836
408.869, 2180.477
409.351, 2160.832
409.833, 2140.101
410.316, 2114.938
410.798, 2090.802
411.280, 2076.711
411.762, 2075.985
412.244, 2075.202
412.726, 2052.451
413.208, 2006.222
413.690, 1970.250
414.173, 1953.111
414.655, 1943.279
415.137, 1934.584
415.619, 1926.007
416.101, 1913.340
416.583, 1893.251
417.065, 1868.991
417.547, 1844.203
418.030, 1819.004
418.512, 1792.965
418.994, 1764.311
419.476, 1736.205
419.958, 1716.811
420.440, 1706.539
420.922, 1702.250
421.404, 1710.420
421.886, 1720.472
422.369, 1720.428
422.851, 1708.522
423.333, 1690.733
423.815, 1671.850
424.297, 1651.479
424.779, 1637.075
425.261, 1636.116
425.743, 1632.609
426.225, 1620.981
426.708, 1604.976
427.190, 1588.599
427.672, 1573.314
428.154, 1561.793
428.636, 1560.384
429.118, 1571.323
429.600, 1576.920
430.082, 1569.013
430.565, 1561.172
431.047, 1565.342
431.529, 1578.133
432.011, 1584.962
432.493, 1575.805
432.975, 1558.360
433.457, 1542.080
433.939, 1527.030
434.422, 1515.519
434.904, 1508.089
435.386, 1505.481
435.868, 1510.891
436.350, 1530.632
436.832, 1542.226
437.314, 1532.413
437.796, 1515.929
438.278, 1508.592
438.760, 1512.492
439.243, 1520.913
439.725, 1528.040
440.207, 1533.873
440.689, 1540.998
441.171, 1555.329
441.653, 1564.000
442.135, 1558.097
442.617, 1547.988
443.100, 1547.314
443.582, 1560.330
444.064, 1576.660
444.546, 1580.738
445.028, 1571.418
445.510, 1569.478
445.992, 1578.745
446.474, 1593.267
446.957, 1610.556
447.439, 1629.672
447.921, 1648.055
448.403, 1664.371
448.885, 1680.029
449.367, 1698.757
449.849, 1719.221
450.331, 1731.002
450.813, 1727.246
451.296, 1719.197
451.778, 1727.427
452.260, 1757.924
452.742, 1782.926
453.224, 1790.406
453.706, 1798.935
454.188, 1826.726
454.670, 1869.526
455.152, 1908.214
455.635, 1929.562
456.117, 1937.917
456.599, 1951.833
457.081, 1975.348
457.563, 1997.721
458.045, 2015.225
458.527, 2032.776
459.009, 2056.997
459.492, 2087.296
459.974, 2113.524
460.456, 2124.410
460.938, 2123.739
461.420, 2128.261
461.902, 2139.470
462.384, 2151.800
462.866, 2165.401
463.349, 2176.914
463.831, 2180.083
464.313, 2172.489
464.795, 2160.472
465.277, 2147.515
465.759, 2132.234
466.241, 2110.093
466.723, 2080.254
467.205, 2051.739
467.688, 2034.573
468.170, 2030.005
468.652, 2018.548
469.134, 1990.739
469.616, 1967.622
470.098, 1959.950
470.580, 1958.892
471.062, 1952.103
471.544, 1935.167
472.027, 1913.538
472.509, 1891.110
472.991, 1866.057
473.473, 1859.601
473.955, 1892.175
474.437, 1919.143
474.919, 1910.725
475.401, 1878.572
475.884, 1849.937
476.366, 1834.461
476.848, 1825.302
477.330, 1814.559
477.812, 1803.939
478.294, 1804.550
478.776, 1823.703
479.258, 1843.151
479.741, 1835.397
480.223, 1790.119
480.705, 1762.808
481.187, 1766.246
481.669, 1776.806
482.151, 1784.157
482.633, 1787.772
483.115, 1789.274
483.597, 1789.507
484.079, 1788.112
484.562, 1784.105
485.044, 1776.784
485.526, 1768.803
486.008, 1753.833
486.490, 1743.925
486.972, 1747.599
487.454, 1762.329
487.936, 1778.943
488.419, 1796.650
488.901, 1810.263
489.383, 1807.837
489.865, 1790.096
490.347, 1777.244
490.829, 1777.643
491.311, 1785.756
491.793, 1794.664
492.276, 1806.287
492.758, 1809.728
493.240, 1796.751
493.722, 1780.225
494.204, 1769.448
494.686, 1764.011
495.168, 1759.098
495.650, 1751.664
496.132, 1743.722
496.615, 1742.544
497.097, 1757.194
497.579, 1759.115
498.061, 1733.315
498.543, 1705.084
499.025, 1689.655
499.507, 1686.396
499.989, 1686.370
500.471, 1687.171
500.954, 1686.020
501.436, 1676.795
501.918, 1659.340
502.400, 1639.372
502.882, 1616.951
503.364, 1595.287
503.846, 1579.551
504.328, 1568.968
504.810, 1565.075
505.293, 1575.204
505.775, 1586.720
506.257, 1588.755
506.739, 1582.505
507.221, 1574.377
507.703, 1567.640
508.185, 1563.720
508.668, 1568.005
509.150, 1587.637
509.632, 1600.312
510.114, 1595.912
510.596, 1591.235
511.078, 1598.966
511.560, 1616.432
512.042, 1630.025
512.524, 1630.606
513.006, 1623.528
513.489, 1613.282
513.971, 1600.096
514.453, 1602.454
514.935, 1634.537
515.417, 1675.354
515.899, 1688.183
516.381, 1666.957
516.864, 1656.737
517.346, 1667.614
517.828, 1687.590
518.310, 1711.241
518.792, 1736.914
519.274, 1763.659
519.756, 1791.052
520.238, 1817.575
520.720, 1839.338
521.203, 1853.921
521.685, 1870.733
522.167, 1890.220
522.649, 1912.544
523.131, 1937.418
523.613, 1965.256
524.095, 1996.858
524.577, 2032.445
525.059, 2072.131
525.542, 2116.895
526.024, 2166.014
526.506, 2217.961
526.988, 2273.163
527.470, 2327.392
527.952, 2372.204
528.434, 2403.069
528.916, 2453.436
529.398, 2539.582
529.881, 2628.116
530.363, 2711.025
530.845, 2783.880
531.327, 2840.289
531.809, 2877.694
532.291, 2904.864
532.773, 2930.693
533.255, 2953.538
533.737, 2993.403
534.220, 3069.244
534.702, 3136.232
535.184, 3173.234
535.666, 3185.024
536.148, 3177.795
536.630, 3146.687
537.112, 3109.151
537.594, 3081.801
538.077, 3056.094
538.559, 3013.751
539.041, 2951.403
539.523, 2876.868
540.005, 2796.886
540.487, 2711.287
540.969, 2626.994
541.451, 2541.524
541.933, 2459.318
542.416, 2379.835
542.898, 2304.647
543.380, 2235.395
543.862, 2172.282
544.344, 2115.908
544.826, 2069.838
545.308, 2031.226
545.791, 1986.706
546.273, 1934.461
546.755, 1885.464
547.237, 1843.673
547.719, 1809.394
548.201, 1783.639
548.683, 1769.372
549.165, 1752.263
549.647, 1722.781
550.130, 1692.870
550.612, 1674.825
551.094, 1667.097
551.576, 1661.061
552.058, 1651.754
552.540, 1639.537
553.022, 1624.895
553.504, 1606.701
553.987, 1589.119
554.469, 1568.798
554.951, 1552.504
555.433, 1546.153
555.915, 1547.191
556.397, 1547.620
556.879, 1544.697
557.361, 1539.009
557.843, 1529.181
558.326, 1516.730
558.808, 1508.540
559.290, 1507.138
559.772, 1506.604
560.254, 1499.790
560.736, 1485.667
561.218, 1474.887
561.700, 1473.065
562.182, 1467.503
562.665, 1449.130
563.147, 1427.339
563.629, 1413.035
564.111, 1409.251
564.593, 1412.307
565.075, 1424.727
565.557, 1442.931
566.039, 1440.442
566.521, 1411.740
567.004, 1381.435
567.486, 1359.225
567.968, 1344.724
568.450, 1336.588
568.932, 1337.013
569.414, 1336.984
569.896, 1329.969
570.378, 1324.288
570.860, 1330.862
571.343, 1346.755
571.825, 1359.036
572.307, 1359.963
572.789, 1353.250
573.271, 1348.720
573.753, 1348.179
574.235, 1343.839
574.718, 1328.626
575.200, 1315.744
575.682, 1315.392
576.164, 1323.418
576.646, 1327.345
577.128, 1318.782
577.610, 1310.693
578.092, 1318.554
578.574, 1335.053
579.057, 1340.110
579.539, 1328.884
580.021, 1314.497
580.503, 1309.788
580.985, 1314.691
581.467, 1320.116
581.949, 1331.174
582.431, 1336.246
582.914, 1327.905
583.396, 1316.394
583.878, 1312.584
584.360, 1317.077
584.842, 1320.276
585.324, 1310.273
585.806, 1295.181
586.288, 1297.561
586.770, 1317.308
587.253, 1325.949
587.735, 1306.970
588.217, 1279.863
588.699, 1278.730
589.181, 1315.909
589.663, 1333.856
590.145, 1317.435
590.627, 1295.880
591.109, 1279.364
591.592, 1269.458
592.074, 1269.406
592.556, 1280.182
593.038, 1290.966
593.520, 1285.027
594.002, 1263.751
594.484, 1248.590
594.966, 1240.362
595.448, 1239.542
595.931, 1253.651
596.413, 1273.146
596.895, 1274.738
597.377, 1247.015
597.859, 1228.654
598.341, 1239.951
598.823, 1259.116
599.305, 1265.922
599.787, 1261.005
600.270, 1255.416
600.752, 1255.922
601.234, 1258.769
601.716, 1253.703
602.198, 1237.825
602.680, 1228.392
603.162, 1231.538
603.644, 1236.468
604.127, 1235.827
604.609, 1231.408
605.091, 1227.892
605.573, 1226.416
606.055, 1225.825
606.537, 1225.052
607.019, 1224.872
607.501, 1227.752
607.984, 1233.418
608.466, 1237.125
608.948, 1234.595
609.430, 1226.958
609.912, 1219.980
610.394, 1211.958
610.876, 1208.230
611.358, 1212.306
611.841, 1218.923
612.323, 1227.143
612.805, 1235.503
613.287, 1238.518
613.769, 1227.001
614.251, 1215.809
614.733, 1222.899
615.215, 1240.890
615.697, 1250.545
616.180, 1246.607
616.662, 1236.873
617.144, 1229.188
617.626, 1223.547
618.108, 1217.382
618.590, 1206.607
619.072, 1201.399
619.554, 1211.039
620.036, 1221.546
620.519, 1217.397
621.001, 1199.017
621.483, 1185.232
621.965, 1191.631
622.447, 1205.373
622.929, 1209.853
623.411, 1206.510
623.893, 1202.500
624.375, 1200.274
624.858, 1198.085
625.340, 1192.813
625.822, 1183.035
626.304, 1181.323
626.786, 1199.435
627.268, 1211.835
627.750, 1205.913
628.232, 1195.530
628.714, 1198.422
629.197, 1216.722
629.679, 1231.715
630.161, 1226.471
630.643, 1211.525
631.125, 1204.424
631.607, 1204.834
632.089, 1207.054
632.571, 1209.332
633.054, 1210.156
633.536, 1206.624
634.018, 1196.854
634.500, 1195.068
634.982, 1195.294
635.464, 1195.031
635.946, 1194.307
636.428, 1191.737
636.911, 1191.550
637.393, 1190.408
637.875, 1189.226
638.357, 1189.375
638.839, 1187.073
639.321, 1187.201
639.803, 1186.181
640.285, 1175.899
640.768, 1176.226
641.250, 1181.736
641.732, 1183.297
642.214, 1179.624
642.696, 1176.599
643.178, 1173.081
643.660, 1171.455
644.142, 1174.098
644.624, 1178.413
645.107, 1181.628
645.589, 1183.015
646.071, 1181.697
646.553, 1172.262
647.035, 1161.463
647.517, 1165.272
647.999, 1182.690
648.481, 1196.878
648.963, 1200.652
649.446, 1195.994
649.928, 1184.822
650.410, 1162.630
650.892, 1150.804
651.374, 1158.063
651.856, 1165.506
652.338, 1165.135
652.820, 1162.428
653.302, 1165.597
653.785, 1176.553
654.267, 1187.286
654.749, 1191.696
655.231, 1192.355
655.713, 1192.968
656.195, 1193.740
656.677, 1195.392
657.159, 1198.724
657.641, 1200.253
658.124, 1192.758
658.606, 1171.298
659.088, 1163.471
659.570, 1185.763
660.052, 1202.571
660.534, 1199.415
661.016, 1188.012
661.498, 1183.441
661.981, 1188.470
662.463, 1190.526
662.945, 1174.100
