##NAMES=Bonazziite
##RRUFFID=R061028
##IDEAL CHEMISTRY=As_4_S_4_
##LOCALITY=Radvanice, Bohemia
##OWNER=Michael Scott
##SOURCE=Michael Scott
##DESCRIPTION=Red flattened prismatic crystals
##STATUS=The identification of this mineral has been confirmed by single-crystal X-ray diffraction.
##URL=rruff.info/R061028
168.2931, 25630.40
168.7752, 25703.55
169.2573, 25759.45
169.7394, 25820.58
170.2215, 25896.24
170.7036, 25956.02
171.1858, 25978.77
171.6679, 25978.86
172.1500, 25977.11
172.6321, 25986.58
173.1142, 25999.44
173.5963, 25994.96
174.0785, 25969.30
174.5606, 25933.07
175.0427, 25882.20
175.5248, 25826.53
176.0069, 25781.80
176.4890, 25756.69
176.9711, 25746.93
177.4533, 25742.88
177.9354, 25753.80
178.4175, 25752.05
178.8996, 25718.51
179.3817, 25668.27
179.8638, 25623.36
180.3460, 25595.76
180.8281, 25580.67
181.3102, 25563.07
181.7923, 25541.84
182.2744, 25518.87
182.7565, 25495.88
183.2387, 25471.35
183.7208, 25443.74
184.2029, 25412.91
184.6850, 25377.67
185.1671, 25332.84
185.6492, 25269.21
186.1314, 25210.96
186.6135, 25170.95
187.0956, 25138.93
187.5777, 25100.22
188.0598, 25044.87
188.5419, 24980.34
189.0241, 24932.91
189.5062, 24929.07
189.9883, 24898.30
190.4704, 24804.71
190.9525, 24681.73
191.4346, 24570.99
191.9168, 24492.56
192.3989, 24441.32
192.8810, 24404.53
193.3631, 24400.12
193.8452, 24380.61
194.3273, 24323.16
194.8095, 24250.37
195.2916, 24190.19
195.7737, 24157.63
196.2558, 24141.30
196.7379, 24107.67
197.2200, 24042.09
197.7022, 23985.04
198.1843, 23957.31
198.6664, 23937.04
199.1485, 23899.60
199.6306, 23833.19
200.1127, 23747.83
200.5949, 23667.28
201.0770, 23587.68
201.5591, 23520.57
202.0412, 23478.61
202.5233, 23442.32
203.0054, 23393.94
203.4876, 23326.31
203.9697, 23241.09
204.4518, 23136.29
204.9339, 22987.29
205.4160, 22868.72
205.8981, 22810.73
206.3803, 22774.01
206.8624, 22724.81
207.3445, 22650.99
207.8266, 22564.31
208.3087, 22485.39
208.7908, 22415.63
209.2730, 22350.70
209.7551, 22282.05
210.2372, 22221.23
210.7193, 22185.11
211.2014, 22177.46
211.6835, 22173.97
212.1656, 22131.06
212.6478, 22025.86
213.1299, 21945.26
213.6120, 21901.52
214.0941, 21882.08
214.5762, 21892.01
215.0583, 21928.56
215.5405, 21963.60
216.0226, 21953.52
216.5047, 21879.53
216.9868, 21826.44
217.4689, 21829.99
217.9510, 21835.08
218.4332, 21806.88
218.9153, 21743.00
219.3974, 21669.85
219.8795, 21619.84
220.3616, 21600.20
220.8438, 21568.59
221.3259, 21509.10
221.8080, 21447.43
222.2901, 21391.04
222.7722, 21342.43
223.2543, 21305.15
223.7365, 21277.94
224.2186, 21257.76
224.7007, 21272.15
225.1828, 21362.54
225.6649, 21452.54
226.1470, 21512.80
226.6292, 21544.49
227.1113, 21560.41
227.5934, 21560.88
228.0755, 21546.61
228.5576, 21564.90
229.0397, 21649.99
229.5219, 21731.82
230.0040, 21784.62
230.4861, 21812.51
230.9682, 21828.08
231.4503, 21838.22
231.9324, 21843.03
232.4146, 21844.70
232.8967, 21856.12
233.3788, 21843.62
233.8609, 21795.84
234.3430, 21718.68
234.8251, 21622.70
235.3073, 21512.59
235.7894, 21387.63
236.2715, 21244.48
236.7536, 21074.09
237.2357, 20901.79
237.7178, 20729.83
238.2000, 20563.80
238.6821, 20409.43
239.1642, 20270.09
239.6463, 20143.90
240.1284, 20027.96
240.6105, 19922.87
241.0927, 19828.38
241.5748, 19757.54
242.0569, 19691.08
242.5390, 19602.97
243.0211, 19478.47
243.5032, 19358.01
243.9854, 19305.46
244.4675, 19333.61
244.9496, 19351.90
245.4317, 19324.48
245.9138, 19280.38
246.3959, 19238.51
246.8781, 19201.23
247.3602, 19172.45
247.8423, 19156.33
248.3244, 19152.65
248.8065, 19158.81
249.2886, 19186.46
249.7707, 19212.15
250.2529, 19210.08
250.7350, 19178.81
251.2171, 19153.32
251.6992, 19162.58
252.1813, 19200.30
252.6634, 19234.91
253.1456, 19262.26
253.6277, 19283.08
254.1098, 19298.58
254.5919, 19308.93
255.0740, 19314.38
255.5561, 19314.83
256.0383, 19310.55
256.5204, 19299.92
257.0025, 19279.48
257.4846, 19261.93
257.9667, 19267.03
258.4489, 19285.87
258.9310, 19289.74
259.4131, 19259.28
259.8952, 19214.16
260.3773, 19185.19
260.8594, 19176.15
261.3416, 19158.38
261.8237, 19106.81
262.3058, 19030.64
262.7879, 18957.76
263.2700, 18892.48
263.7521, 18831.18
264.2343, 18770.31
264.7163, 18710.06
265.1985, 18653.47
265.6806, 18602.09
266.1627, 18555.95
266.6448, 18514.10
267.1269, 18477.96
267.6090, 18443.76
268.0912, 18415.08
268.5733, 18387.51
269.0554, 18346.10
269.5375, 18280.45
270.0196, 18204.37
270.5017, 18149.14
270.9839, 18114.13
271.4660, 18093.23
271.9481, 18096.36
272.4302, 18109.17
272.9123, 18108.25
273.3944, 18086.17
273.8766, 18056.57
274.3587, 18037.45
274.8408, 18027.83
275.3229, 18033.68
275.8050, 18066.52
276.2871, 18108.03
276.7693, 18138.88
277.2514, 18157.80
277.7335, 18180.87
278.2156, 18224.88
278.6977, 18293.33
279.1798, 18364.40
279.6620, 18428.09
280.1441, 18502.56
280.6262, 18597.34
281.1083, 18711.33
281.5904, 18842.10
282.0725, 18990.95
282.5547, 19155.28
283.0368, 19286.71
283.5189, 19314.22
284.0010, 19388.92
284.4831, 19569.87
284.9652, 19817.71
285.4474, 20072.52
285.9295, 20303.63
286.4116, 20520.46
286.8937, 20748.73
287.3758, 20967.77
287.8579, 21234.13
288.3401, 21588.26
288.8222, 21970.01
289.3043, 22319.81
289.7864, 22620.37
290.2685, 22911.40
290.7506, 23255.88
291.2328, 23672.91
291.7149, 24099.97
292.1970, 24522.07
292.6791, 24962.78
293.1612, 25438.93
293.6433, 25952.21
294.1255, 26483.10
294.6076, 27017.80
295.0897, 27555.99
295.5718, 28101.67
296.0539, 28627.74
296.5360, 29191.18
297.0182, 29817.10
297.5003, 30494.50
297.9824, 31190.40
298.4645, 31894.56
298.9466, 32601.31
299.4287, 33299.16
299.9109, 33976.82
300.3930, 34672.60
300.8751, 35416.66
301.3572, 36180.86
301.8393, 36940.31
302.3214, 37679.20
302.8036, 38413.34
303.2857, 39165.18
303.7678, 39936.07
304.2499, 40702.24
304.7320, 41458.38
305.2141, 42209.21
305.6963, 42955.11
306.1784, 43696.36
306.6605, 44440.42
307.1426, 45209.43
307.6247, 45987.92
308.1068, 46745.93
308.5890, 47481.91
309.0711, 48175.86
309.5532, 48782.11
310.0353, 49308.83
310.5174, 49839.89
310.9995, 50418.24
311.4817, 51005.99
311.9638, 51538.65
312.4459, 52013.93
312.9280, 52516.70
313.4101, 53136.84
313.8922, 53868.41
314.3744, 54514.50
314.8565, 55026.28
315.3386, 55504.35
315.8207, 55995.43
316.3028, 56499.23
316.7849, 57011.44
317.2671, 57533.80
317.7492, 58056.58
318.2313, 58531.21
318.7134, 58870.95
319.1955, 59271.34
319.6776, 59814.45
320.1598, 60409.58
320.6419, 60940.95
321.1240, 61371.15
321.6061, 61766.53
322.0882, 62232.98
322.5703, 62830.45
323.0525, 63362.31
323.5346, 63779.48
324.0167, 64176.74
324.4988, 64616.04
324.9809, 65093.14
325.4630, 65558.52
325.9452, 65967.37
326.4273, 66317.63
326.9094, 66675.05
327.3915, 67075.02
327.8736, 67441.04
328.3557, 67735.09
328.8379, 67986.78
329.3200, 68249.00
329.8021, 68555.35
330.2842, 68874.13
330.7663, 69125.89
331.2484, 69285.14
331.7306, 69450.02
332.2127, 69699.01
332.6948, 69937.02
333.1769, 70061.94
333.6590, 70050.91
334.1411, 70026.63
334.6233, 70149.11
335.1053, 70402.50
335.5875, 70526.15
336.0696, 70413.46
336.5517, 70243.41
337.0338, 70165.60
337.5159, 70169.43
337.9980, 70188.86
338.4802, 70237.72
338.9623, 70269.95
339.4444, 70181.63
339.9265, 69951.80
340.4086, 69742.22
340.8907, 69688.82
341.3729, 69748.68
341.8550, 69734.44
342.3371, 69589.15
342.8192, 69412.60
343.3013, 69258.78
343.7834, 69118.57
344.2656, 68965.80
344.7477, 68783.74
345.2298, 68591.29
345.7119, 68433.13
346.1940, 68351.73
346.6761, 68220.73
347.1583, 67993.38
347.6404, 67727.71
348.1225, 67480.23
348.6046, 67259.84
349.0867, 67042.89
349.5688, 66799.00
350.0510, 66519.45
350.5331, 66268.84
351.0152, 66092.52
351.4973, 65896.36
351.9794, 65630.48
352.4615, 65316.19
352.9437, 65000.24
353.4258, 64712.66
353.9079, 64445.47
354.3900, 64172.02
354.8721, 63895.89
355.3542, 63606.60
355.8364, 63307.65
356.3185, 62994.98
356.8006, 62662.81
357.2827, 62309.34
357.7648, 61940.55
358.2469, 61546.24
358.7291, 61124.39
359.2112, 60752.45
359.6933, 60491.49
360.1754, 60220.98
360.6575, 59839.36
361.1396, 59375.20
361.6218, 58945.94
362.1039, 58658.27
362.5860, 58428.54
363.0681, 58083.65
363.5502, 57604.41
364.0323, 57138.75
364.5145, 56783.91
364.9966, 56500.35
365.4787, 56187.23
365.9608, 55842.11
366.4429, 55466.14
366.9250, 55016.45
367.4072, 54537.01
367.8893, 54144.73
368.3714, 53888.73
368.8535, 53684.54
369.3356, 53402.59
369.8177, 53013.54
370.2999, 52635.13
370.7820, 52272.55
371.2641, 51923.03
371.7462, 51594.43
372.2283, 51279.80
372.7104, 50947.77
373.1926, 50571.34
373.6747, 50151.87
374.1568, 49747.05
374.6389, 49373.63
375.1210, 48995.69
375.6031, 48595.54
376.0853, 48190.78
376.5674, 47808.57
377.0495, 47460.81
377.5316, 47128.11
378.0137, 46780.07
378.4958, 46418.46
378.9780, 46042.68
379.4601, 45652.06
379.9422, 45248.22
380.4243, 44820.62
380.9064, 44376.33
381.3885, 43937.01
381.8707, 43515.19
382.3528, 43110.91
382.8349, 42726.57
383.3170, 42369.42
383.7991, 42007.61
384.2813, 41612.17
384.7634, 41201.70
385.2455, 40804.70
385.7276, 40433.95
386.2097, 40064.71
386.6918, 39678.88
387.1740, 39280.45
387.6561, 38881.67
388.1382, 38483.25
388.6203, 38092.96
389.1024, 37717.93
389.5845, 37358.75
390.0667, 37008.00
390.5488, 36695.44
391.0309, 36367.40
391.5130, 35966.90
391.9951, 35500.21
392.4772, 35026.43
392.9594, 34590.80
393.4415, 34185.61
393.9236, 33753.71
394.4057, 33260.07
394.8878, 32777.13
395.3699, 32336.82
395.8521, 31904.45
396.3342, 31436.92
396.8163, 30922.72
397.2984, 30387.13
397.7805, 29877.24
398.2626, 29408.08
398.7448, 28894.16
399.2269, 28297.33
399.7090, 27685.10
400.1911, 27076.33
400.6732, 26479.90
401.1553, 25906.45
401.6375, 25369.36
402.1196, 24856.84
402.6017, 24331.67
403.0838, 23793.27
403.5659, 23267.86
404.0480, 22778.79
404.5302, 22306.54
405.0123, 21816.36
405.4944, 21295.95
405.9765, 20801.34
406.4586, 20366.71
406.9407, 19978.29
407.4228, 19613.49
407.9049, 19266.65
408.3871, 18938.42
408.8692, 18627.45
409.3513, 18334.67
409.8334, 18070.79
410.3155, 17848.55
410.7976, 17638.72
411.2798, 17415.40
411.7619, 17194.39
412.2440, 17011.29
412.7261, 16883.14
413.2082, 16795.69
413.6903, 16718.71
414.1725, 16656.49
414.6546, 16595.93
415.1367, 16530.13
415.6188, 16470.18
416.1009, 16430.66
416.5830, 16407.28
417.0652, 16377.25
417.5473, 16314.41
418.0294, 16228.65
418.5115, 16175.81
418.9936, 16171.48
419.4757, 16166.06
419.9579, 16119.82
420.4400, 16066.05
420.9221, 16053.90
421.4042, 16111.02
421.8863, 16158.80
422.3684, 16123.32
422.8506, 16026.82
423.3327, 15938.45
423.8148, 15870.85
424.2969, 15824.52
424.7790, 15804.87
425.2611, 15813.98
425.7433, 15819.30
426.2254, 15823.42
426.7075, 15819.18
427.1896, 15797.41
427.6717, 15763.22
428.1538, 15729.06
428.6360, 15701.10
429.1181, 15679.38
429.6002, 15664.08
430.0823, 15658.75
430.5644, 15654.59
431.0465, 15650.75
431.5287, 15648.32
432.0108, 15652.51
432.4929, 15660.65
432.9750, 15660.48
433.4571, 15637.46
433.9392, 15596.11
434.4214, 15566.15
434.9035, 15541.61
435.3856, 15541.46
435.8677, 15601.89
436.3498, 15679.25
436.8319, 15719.71
437.3141, 15705.65
437.7962, 15678.04
438.2783, 15662.21
438.7604, 15658.08
439.2425, 15669.63
439.7246, 15702.02
440.2068, 15732.30
440.6889, 15734.26
441.1710, 15706.36
441.6531, 15688.73
442.1352, 15681.03
442.6173, 15685.21
443.0995, 15705.25
443.5816, 15737.59
444.0637, 15778.23
444.5458, 15826.10
445.0279, 15872.72
445.5100, 15897.44
445.9922, 15872.94
446.4743, 15881.36
446.9564, 15947.32
447.4385, 16020.62
447.9206, 16073.10
448.4027, 16106.85
448.8849, 16138.57
449.3670, 16180.46
449.8491, 16227.85
450.3312, 16263.78
450.8133, 16284.51
451.2954, 16308.66
451.7776, 16339.49
452.2597, 16379.94
452.7418, 16437.86
453.2239, 16517.31
453.7060, 16588.39
454.1881, 16618.28
454.6703, 16635.49
455.1524, 16698.60
455.6345, 16814.50
456.1166, 16919.69
456.5987, 16958.22
457.0808, 16938.63
457.5630, 16960.96
458.0451, 17056.78
458.5272, 17148.68
459.0093, 17216.67
459.4914, 17270.03
459.9735, 17319.56
460.4557, 17368.46
460.9378, 17417.63
461.4199, 17468.71
461.9020, 17522.86
462.3841, 17570.34
462.8662, 17591.79
463.3484, 17630.80
463.8305, 17721.91
464.3126, 17835.17
464.7947, 17920.66
465.2768, 17952.07
465.7589, 17970.43
466.2411, 18033.74
466.7232, 18135.54
467.2053, 18209.27
467.6874, 18234.48
468.1695, 18237.57
468.6516, 18243.13
469.1338, 18250.96
469.6159, 18260.82
470.0980, 18284.02
470.5801, 18299.13
471.0622, 18280.15
471.5443, 18239.97
472.0265, 18219.38
472.5086, 18239.16
472.9907, 18274.77
473.4728, 18271.71
473.9549, 18201.87
474.4370, 18146.55
474.9192, 18125.41
475.4013, 18099.26
475.8834, 18031.52
476.3655, 17938.29
476.8476, 17870.76
477.3297, 17868.96
477.8118, 17903.27
478.2939, 17901.61
478.7761, 17857.78
479.2582, 17811.98
479.7403, 17770.67
480.2224, 17738.48
480.7045, 17718.26
481.1866, 17710.32
481.6688, 17714.45
482.1509, 17737.16
482.6330, 17768.17
483.1151, 17786.31
483.5972, 17795.52
484.0793, 17835.28
484.5615, 17935.28
485.0436, 18075.74
485.5257, 18183.77
486.0078, 18228.43
486.4899, 18279.98
486.9720, 18357.05
487.4542, 18429.17
487.9363, 18468.53
488.4184, 18476.46
488.9005, 18475.43
489.3826, 18483.78
489.8647, 18498.39
490.3469, 18503.85
490.8290, 18497.62
491.3111, 18488.66
491.7932, 18487.88
492.2753, 18481.38
492.7574, 18454.09
493.2396, 18403.61
493.7217, 18343.00
494.2038, 18282.18
494.6859, 18215.25
495.1680, 18132.18
495.6501, 18032.01
496.1323, 17921.57
496.6144, 17801.12
497.0965, 17674.58
497.5786, 17560.58
498.0607, 17484.74
498.5428, 17387.05
499.0250, 17248.18
499.5071, 17092.09
499.9892, 16933.35
500.4713, 16778.26
500.9534, 16637.42
501.4355, 16527.01
501.9177, 16439.85
502.3998, 16311.73
502.8819, 16114.46
503.3640, 15937.10
503.8461, 15829.91
504.3282, 15747.39
504.8104, 15644.37
505.2925, 15513.20
505.7746, 15380.90
506.2567, 15253.92
506.7388, 15139.42
507.2209, 15057.26
507.7031, 15008.24
508.1852, 14961.71
508.6673, 14895.87
509.1494, 14815.58
509.6315, 14746.68
510.1136, 14695.92
510.5958, 14646.97
511.0779, 14602.96
511.5600, 14556.62
512.0421, 14499.00
512.5242, 14431.04
513.0063, 14362.21
513.4885, 14296.46
513.9706, 14237.53
514.4527, 14211.33
514.9348, 14234.86
515.4169, 14248.26
515.8990, 14216.59
516.3812, 14172.15
516.8633, 14145.96
517.3454, 14141.96
517.8275, 14142.81
518.3096, 14151.68
518.7917, 14154.37
519.2739, 14120.03
519.7560, 14051.16
520.2381, 13996.70
520.7202, 13989.59
521.2023, 14015.18
521.6844, 14022.97
522.1666, 13997.42
522.6487, 13973.47
523.1308, 13946.06
523.6129, 13924.54
524.0950, 13919.23
524.5771, 13927.27
525.0593, 13936.40
525.5414, 13939.34
526.0235, 13935.92
526.5056, 13923.86
526.9877, 13901.37
527.4698, 13880.54
527.9520, 13867.24
528.4341, 13855.39
528.9162, 13835.55
529.3983, 13807.63
529.8804, 13787.51
530.3625, 13786.11
530.8447, 13790.54
531.3268, 13784.96
531.8089, 13773.88
532.2910, 13779.32
532.7731, 13814.21
533.2552, 13858.10
533.7374, 13865.33
534.2195, 13809.75
534.7016, 13774.78
535.1837, 13769.12
535.6658, 13773.24
536.1479, 13785.56
536.6301, 13799.45
537.1122, 13802.61
537.5943, 13787.30
538.0764, 13763.41
538.5585, 13743.33
539.0406, 13726.88
539.5228, 13714.51
540.0049, 13708.87
540.4870, 13700.88
540.9691, 13674.32
541.4512, 13630.95
541.9333, 13615.34
542.4155, 13667.57
542.8976, 13707.41
543.3797, 13680.26
543.8618, 13623.21
544.3439, 13599.55
544.8260, 13626.13
545.3082, 13663.83
545.7903, 13659.29
546.2724, 13608.51
546.7545, 13591.39
547.2366, 13637.45
547.7188, 13671.96
548.2009, 13662.35
548.6830, 13627.93
549.1651, 13587.96
549.6472, 13543.33
550.1293, 13510.22
550.6115, 13501.44
551.0936, 13510.72
551.5757, 13534.99
552.0578, 13572.19
552.5399, 13594.15
553.0220, 13579.01
553.5042, 13535.01
553.9863, 13499.32
554.4684, 13462.88
554.9505, 13448.34
555.4326, 13478.52
555.9147, 13513.87
556.3969, 13518.97
556.8790, 13498.89
557.3611, 13488.25
557.8432, 13517.70
558.3253, 13562.94
558.8074, 13558.73
559.2896, 13499.28
559.7717, 13468.13
560.2538, 13503.14
560.7359, 13557.96
561.2180, 13574.87
561.7001, 13555.66
562.1823, 13539.84
562.6644, 13528.56
563.1465, 13527.02
563.6286, 13553.79
564.1107, 13589.90
564.5928, 13593.81
565.0750, 13551.16
565.5571, 13492.36
566.0392, 13461.14
566.5213, 13461.83
567.0034, 13458.11
567.4855, 13445.69
567.9677, 13435.05
568.4498, 13428.65
568.9319, 13427.11
569.4140, 13434.34
569.8961, 13454.79
570.3782, 13467.51
570.8604, 13455.42
571.3425, 13427.60
571.8246, 13393.08
572.3067, 13354.71
572.7888, 13335.24
573.2709, 13355.69
573.7531, 13401.10
574.2352, 13408.58
574.7173, 13330.88
575.1994, 13285.40
575.6815, 13288.19
576.1636, 13313.02
576.6458, 13356.87
577.1279, 13408.39
577.6100, 13440.02
578.0921, 13429.66
578.5742, 13400.27
579.0563, 13393.05
579.5385, 13405.99
580.0206, 13402.08
580.5027, 13363.01
580.9848, 13326.46
581.4669, 13340.37
581.9490, 13409.26
582.4311, 13447.53
582.9132, 13429.00
583.3953, 13409.31
583.8774, 13411.29
584.3596, 13423.95
584.8417, 13437.85
585.3238, 13447.92
585.8059, 13440.96
586.2880, 13388.79
586.7701, 13301.78
587.2523, 13279.22
587.7344, 13345.02
588.2165, 13331.60
588.6986, 13372.84
589.1807, 13395.47
589.6628, 13400.49
590.1450, 13335.16
590.6271, 13360.67
591.1092, 13349.78
591.5913, 13337.40
592.0734, 13375.69
592.5555, 13320.60
593.0377, 13358.09
593.5198, 13358.62
594.0019, 13366.68
594.4840, 13352.54
594.9661, 13343.24
595.4482, 13346.71
595.9304, 13376.39
596.4125, 13402.07
596.8946, 13406.37
597.3767, 13398.88
597.8588, 13396.50
598.3409, 13405.36
598.8231, 13412.55
599.3052, 13404.61
599.7873, 13391.53
600.2694, 13391.92
600.7515, 13406.89
601.2336, 13422.96
601.7158, 13431.21
602.1979, 13433.25
602.6800, 13433.88
603.1621, 13423.42
603.6442, 13430.11
604.1263, 13479.54
604.6085, 13523.56
605.0906, 13524.39
605.5727, 13495.28
606.0548, 13479.82
606.5369, 13502.69
607.0190, 13536.88
607.5012, 13553.10
607.9833, 13555.42
608.4654, 13559.55
608.9475, 13569.19
609.4296, 13574.74
609.9117, 13564.75
610.3939, 13540.83
610.8760, 13532.59
611.3581, 13558.17
611.8402, 13576.10
612.3223, 13578.91
612.8044, 13573.99
613.2866, 13561.46
613.7687, 13545.78
614.2508, 13542.55
614.7329, 13570.39
615.2150, 13609.71
615.6971, 13625.33
616.1793, 13618.88
616.6614, 13608.10
617.1435, 13596.69
617.6256, 13587.62
618.1077, 13585.10
618.5898, 13590.04
619.0720, 13591.43
619.5541, 13584.50
620.0362, 13579.86
620.5183, 13581.34
621.0004, 13586.14
621.4825, 13590.01
621.9647, 13592.67
622.4468, 13599.18
622.9289, 13619.35
623.4110, 13645.06
623.8931, 13649.72
624.3752, 13632.17
624.8574, 13618.66
625.3395, 13619.50
625.8216, 13627.49
626.3037, 13632.90
626.7858, 13635.08
627.2679, 13639.03
627.7501, 13656.28
628.2322, 13663.01
628.7143, 13637.23
629.1964, 13599.83
629.6785, 13579.67
630.1606, 13584.50
630.6428, 13601.05
631.1249, 13618.70
631.6070, 13636.94
632.0891, 13656.14
632.5712, 13677.77
633.0533, 13688.79
633.5355, 13684.05
634.0176, 13665.22
634.4997, 13625.90
634.9818, 13553.02
635.4639, 13524.08
635.9460, 13584.67
636.4282, 13649.07
636.9103, 13672.29
637.3924, 13669.58
637.8745, 13670.96
638.3566, 13685.62
638.8387, 13696.10
639.3209, 13678.34
639.8030, 13638.03
640.2851, 13603.94
640.7672, 13574.29
641.2493, 13567.85
641.7314, 13606.91
642.2136, 13661.41
642.6957, 13673.05
643.1778, 13631.65
643.6599, 13595.44
644.1420, 13566.05
644.6241, 13546.58
645.1063, 13546.52
645.5884, 13555.54
646.0705, 13553.79
646.5526, 13535.33
647.0347, 13519.82
647.5168, 13539.60
647.9990, 13584.28
648.4811, 13590.87
648.9632, 13551.28
649.4453, 13518.95
649.9274, 13520.35
650.4095, 13541.60
650.8917, 13558.00
651.3738, 13568.92
651.8559, 13577.08
652.3380, 13582.16
652.8201, 13584.66
653.3022, 13583.22
653.7844, 13579.71
654.2665, 13577.67
654.7486, 13578.04
655.2307, 13576.79
655.7128, 13565.46
656.1949, 13548.69
656.6771, 13545.24
657.1592, 13556.28
657.6413, 13574.47
658.1234, 13601.43
658.6055, 13626.62
659.0876, 13629.60
659.5698, 13600.18
660.0519, 13580.94
660.5340, 13574.69
661.0161, 13575.75
661.4982, 13595.34
661.9803, 13615.26
662.4625, 13604.23
662.9446, 13555.41
663.4267, 13507.89
663.9088, 13501.46
664.3909, 13521.15
664.8730, 13535.06
665.3552, 13541.96
665.8373, 13527.82
666.3194, 13480.15
666.8015, 13426.35
667.2836, 13409.90
