##NAMES=Boracite
##RRUFFID=R070317
##IDEAL CHEMISTRY=Mg_3_B_7_O_13_Cl
##LOCALITY=Douglashall, Westereglen, Stassfurt District, Saxony-Anhalt, Germany
##OWNER=RRUFF
##SOURCE=James Shigley
##DESCRIPTION=Colorless single crystal tetrahedron with minor cube modifications
##STATUS=The identification of this mineral has been confirmed by single-crystal X-ray diffraction.
##URL=rruff.info/R070317
131.8235, 11694.80
132.3056, 12266.41
132.7877, 12874.27
133.2699, 13460.02
133.7520, 14024.75
134.2341, 14600.74
134.7162, 15206.43
135.1983, 15844.45
135.6804, 16474.90
136.1626, 17099.38
136.6447, 17704.15
137.1268, 18284.35
137.6089, 18862.35
138.0910, 19320.28
138.5731, 19579.48
139.0553, 19622.98
139.5374, 19556.53
140.0195, 19348.01
140.5016, 19039.02
140.9837, 18794.71
141.4658, 18615.05
141.9480, 18496.34
142.4301, 18440.96
142.9122, 18464.07
143.3943, 18518.62
143.8764, 18603.12
144.3585, 18716.52
144.8407, 18846.79
145.3228, 18984.15
145.8049, 19145.12
146.2870, 19345.91
146.7691, 19610.37
147.2512, 19879.83
147.7334, 20139.58
148.2155, 20387.49
148.6976, 20646.55
149.1797, 20913.58
149.6618, 21193.49
150.1439, 21489.99
150.6261, 21797.47
151.1082, 22123.18
151.5903, 22471.51
152.0724, 22858.96
152.5545, 23229.96
153.0366, 23560.69
153.5188, 23871.21
154.0009, 24199.57
154.4830, 24588.73
154.9651, 24972.27
155.4472, 25322.32
155.9293, 25603.81
156.4115, 25896.68
156.8936, 26233.50
157.3757, 26599.12
157.8578, 26945.97
158.3399, 27249.90
158.8221, 27536.08
159.3042, 27824.04
159.7863, 28135.21
160.2684, 28432.05
160.7505, 28692.33
161.2326, 28922.89
161.7148, 29158.14
162.1969, 29455.42
162.6790, 29749.34
163.1611, 29973.49
163.6432, 30069.61
164.1253, 30122.35
164.6075, 30177.33
165.0896, 30236.21
165.5717, 30268.11
166.0538, 30238.32
166.5359, 30173.59
167.0180, 30112.34
167.5002, 30045.10
167.9823, 30002.53
168.4644, 30016.35
168.9465, 30094.68
169.4286, 30188.90
169.9107, 30261.76
170.3929, 30323.90
170.8750, 30399.70
171.3571, 30526.80
171.8392, 30662.10
172.3213, 30753.77
172.8034, 30785.31
173.2856, 30803.16
173.7677, 30863.92
174.2498, 30951.46
174.7319, 31009.61
175.2140, 30986.03
175.6961, 30916.18
176.1783, 30852.62
176.6604, 30805.23
177.1425, 30767.51
177.6246, 30738.54
178.1067, 30716.30
178.5888, 30685.66
179.0710, 30620.62
179.5531, 30539.61
180.0352, 30488.65
180.5173, 30495.96
180.9994, 30521.22
181.4815, 30496.06
181.9637, 30421.38
182.4458, 30332.41
182.9279, 30257.65
183.4100, 30192.92
183.8921, 30120.20
184.3742, 30026.58
184.8564, 29924.87
185.3385, 29851.02
185.8206, 29806.07
186.3027, 29768.85
186.7848, 29709.20
187.2669, 29632.41
187.7491, 29577.34
188.2312, 29573.69
188.7133, 29603.02
189.1954, 29590.23
189.6775, 29528.43
190.1596, 29455.62
190.6418, 29422.02
191.1239, 29426.75
191.6060, 29426.48
192.0881, 29396.21
192.5702, 29341.04
193.0524, 29306.66
193.5345, 29295.56
194.0166, 29298.89
194.4987, 29309.33
194.9808, 29327.99
195.4629, 29337.01
195.9451, 29318.86
196.4272, 29274.23
196.9093, 29255.71
197.3914, 29270.31
197.8735, 29302.56
198.3556, 29327.33
198.8378, 29345.44
199.3199, 29350.94
199.8020, 29331.43
200.2841, 29283.91
200.7662, 29262.30
201.2483, 29277.74
201.7305, 29313.41
202.2126, 29323.05
202.6947, 29297.91
203.1768, 29279.40
203.6589, 29302.51
204.1410, 29377.12
204.6232, 29416.96
205.1053, 29398.16
205.5874, 29346.82
206.0695, 29356.80
206.5516, 29446.60
207.0337, 29549.18
207.5159, 29616.74
207.9980, 29638.94
208.4801, 29670.35
208.9622, 29721.41
209.4443, 29786.63
209.9264, 29840.74
210.4086, 29885.52
210.8907, 29915.68
211.3728, 29920.09
211.8549, 29885.39
212.3370, 29871.81
212.8191, 29893.85
213.3013, 29946.51
213.7834, 29989.00
214.2655, 30017.48
214.7476, 30042.05
215.2297, 30071.36
215.7118, 30108.02
216.1940, 30142.38
216.6761, 30169.09
217.1582, 30189.21
217.6403, 30227.82
218.1224, 30293.59
218.6045, 30365.64
219.0867, 30427.09
219.5688, 30483.08
220.0509, 30513.36
220.5330, 30502.09
221.0151, 30447.54
221.4972, 30430.24
221.9794, 30467.54
222.4615, 30522.48
222.9436, 30554.12
223.4257, 30547.47
223.9078, 30548.81
224.3899, 30570.85
224.8721, 30615.92
225.3542, 30653.95
225.8363, 30679.71
226.3184, 30703.69
226.8005, 30740.50
227.2827, 30799.17
227.7648, 30852.70
228.2469, 30891.62
228.7290, 30912.48
229.2111, 30945.28
229.6932, 30996.64
230.1754, 31054.17
230.6575, 31101.74
231.1396, 31132.93
231.6217, 31164.84
232.1038, 31201.44
232.5859, 31242.61
233.0681, 31292.36
233.5502, 31368.53
234.0323, 31440.37
234.5144, 31458.17
234.9965, 31384.49
235.4786, 31319.79
235.9608, 31297.29
236.4429, 31328.21
236.9250, 31350.51
237.4071, 31363.46
237.8892, 31368.05
238.3713, 31364.04
238.8535, 31342.76
239.3356, 31327.29
239.8177, 31324.16
240.2998, 31333.50
240.7819, 31357.39
241.2640, 31410.76
241.7462, 31470.39
242.2283, 31494.55
242.7104, 31464.73
243.1925, 31429.72
243.6746, 31404.03
244.1567, 31387.77
244.6389, 31380.68
245.1210, 31384.33
245.6031, 31396.15
246.0852, 31410.96
246.5673, 31425.07
247.0494, 31448.58
247.5316, 31486.98
248.0137, 31545.91
248.4958, 31602.57
248.9779, 31664.23
249.4600, 31719.19
249.9421, 31739.28
250.4243, 31699.11
250.9064, 31669.93
251.3885, 31683.14
251.8706, 31758.65
252.3527, 31808.59
252.8348, 31820.35
253.3170, 31814.38
253.7991, 31831.77
254.2812, 31886.54
254.7633, 31937.17
255.2454, 31961.66
255.7275, 31942.50
256.2097, 31964.47
256.6918, 32044.34
257.1739, 32153.55
257.6560, 32242.62
258.1381, 32311.89
258.6202, 32360.40
259.1024, 32386.95
259.5845, 32388.84
260.0666, 32376.71
260.5487, 32341.44
261.0308, 32299.10
261.5129, 32279.47
261.9951, 32290.20
262.4772, 32305.76
262.9593, 32314.96
263.4414, 32314.48
263.9235, 32324.93
264.4056, 32350.44
264.8878, 32383.21
265.3699, 32412.30
265.8520, 32440.81
266.3341, 32457.25
266.8162, 32448.20
267.2983, 32403.88
267.7805, 32401.54
268.2626, 32455.45
268.7447, 32535.65
269.2268, 32588.59
269.7089, 32606.13
270.1910, 32625.61
270.6732, 32667.95
271.1553, 32738.06
271.6374, 32777.48
272.1195, 32778.02
272.6016, 32759.89
273.0837, 32753.17
273.5659, 32757.97
274.0480, 32773.02
274.5301, 32799.32
275.0122, 32837.08
275.4943, 32882.77
275.9764, 32942.68
276.4586, 32998.68
276.9407, 33012.51
277.4228, 32976.83
277.9049, 32961.09
278.3870, 33002.73
278.8691, 33098.39
279.3513, 33169.13
279.8334, 33210.91
280.3155, 33238.15
280.7976, 33270.68
281.2798, 33308.69
281.7619, 33340.88
282.2440, 33364.46
282.7261, 33379.05
283.2082, 33377.46
283.6903, 33355.62
284.1725, 33332.56
284.6546, 33333.27
285.1367, 33357.04
285.6188, 33384.43
286.1009, 33400.29
286.5830, 33413.40
287.0652, 33477.45
287.5473, 33601.56
288.0294, 33718.75
288.5115, 33733.54
288.9936, 33659.73
289.4757, 33611.97
289.9579, 33641.84
290.4400, 33721.72
290.9221, 33776.35
291.4042, 33804.38
291.8863, 33824.20
292.3684, 33856.56
292.8506, 33897.35
293.3327, 33928.29
293.8148, 33935.28
294.2969, 33933.86
294.7790, 33957.01
295.2611, 34004.93
295.7433, 34059.08
296.2254, 34114.77
296.7075, 34165.88
297.1896, 34191.56
297.6717, 34171.05
298.1538, 34135.74
298.6360, 34134.53
299.1181, 34165.34
299.6002, 34203.59
300.0823, 34226.75
300.5644, 34244.68
301.0465, 34277.48
301.5287, 34337.21
302.0108, 34405.26
302.4929, 34464.51
302.9750, 34514.97
303.4571, 34553.46
303.9392, 34575.99
304.4214, 34586.25
304.9035, 34587.95
305.3856, 34576.02
305.8677, 34565.29
306.3498, 34559.40
306.8319, 34562.86
307.3141, 34592.09
307.7962, 34690.68
308.2783, 34803.56
308.7604, 34875.22
309.2425, 34881.52
309.7246, 34870.34
310.2068, 34863.83
310.6889, 34862.65
311.1710, 34868.38
311.6531, 34878.70
312.1352, 34898.06
312.6173, 34930.27
313.0995, 34976.85
313.5816, 35032.44
314.0637, 35120.48
314.5458, 35214.56
315.0279, 35265.88
315.5100, 35202.88
315.9922, 35132.07
316.4743, 35112.79
316.9564, 35161.83
317.4385, 35221.18
317.9206, 35290.23
318.4027, 35353.96
318.8849, 35391.42
319.3670, 35367.30
319.8491, 35342.05
320.3312, 35340.81
320.8133, 35370.28
321.2954, 35394.30
321.7776, 35403.65
322.2597, 35405.16
322.7418, 35406.10
323.2239, 35397.33
323.7060, 35398.25
324.1881, 35419.48
324.6703, 35463.84
325.1524, 35495.21
325.6345, 35490.60
326.1166, 35482.59
326.5987, 35497.98
327.0808, 35594.55
327.5630, 35645.99
328.0451, 35609.50
328.5272, 35491.52
329.0093, 35434.42
329.4914, 35474.71
329.9735, 35543.69
330.4557, 35597.66
330.9378, 35627.21
331.4199, 35658.52
331.9020, 35697.02
332.3841, 35739.53
332.8662, 35768.89
333.3484, 35775.00
333.8305, 35782.80
334.3126, 35808.21
334.7947, 35859.30
335.2768, 35901.55
335.7589, 35929.58
336.2411, 35949.82
336.7232, 35986.38
337.2053, 36052.98
337.6874, 36094.92
338.1695, 36068.61
338.6516, 35960.10
339.1338, 35911.82
339.6159, 35938.67
340.0980, 36007.13
340.5801, 36068.61
341.0622, 36125.15
341.5443, 36161.30
342.0265, 36157.79
342.5086, 36121.57
342.9907, 36123.12
343.4728, 36168.63
343.9549, 36227.62
344.4370, 36265.57
344.9192, 36283.38
345.4013, 36289.58
345.8834, 36276.84
346.3655, 36257.29
346.8476, 36263.17
347.3297, 36294.60
347.8119, 36344.04
348.2940, 36416.85
348.7761, 36503.73
349.2582, 36574.65
349.7403, 36617.02
350.2225, 36645.59
350.7046, 36678.70
351.1867, 36716.51
351.6688, 36758.10
352.1509, 36804.43
352.6331, 36853.78
353.1152, 36903.10
353.5973, 36950.34
354.0794, 37000.07
354.5615, 37058.48
355.0436, 37123.18
355.5258, 37186.94
356.0079, 37252.58
356.4900, 37311.74
356.9721, 37352.09
357.4542, 37363.33
357.9363, 37384.30
358.4185, 37425.60
358.9006, 37492.54
359.3827, 37594.36
359.8648, 37789.04
360.3469, 37976.40
360.8290, 38090.70
361.3112, 38114.11
361.7933, 38158.33
362.2754, 38313.41
362.7575, 38487.77
363.2396, 38582.20
363.7217, 38519.30
364.2039, 38428.04
364.6860, 38334.76
365.1681, 38240.12
365.6502, 38145.31
366.1323, 38052.76
366.6144, 37957.96
367.0966, 37856.89
367.5787, 37690.13
368.0608, 37591.96
368.5429, 37598.51
369.0250, 37689.31
369.5071, 37759.41
369.9893, 37800.79
370.4714, 37830.64
370.9535, 37851.33
371.4356, 37836.41
371.9177, 37875.84
372.3998, 37994.39
372.8820, 38156.30
373.3641, 38280.16
373.8462, 38355.49
374.3283, 38419.21
374.8104, 38481.34
375.2925, 38541.43
375.7747, 38612.70
376.2568, 38698.46
376.7389, 38790.05
377.2210, 38883.53
377.7031, 38981.19
378.1852, 39048.98
378.6674, 39083.73
379.1495, 39080.30
379.6316, 38994.68
380.1137, 38818.39
380.5958, 38643.57
381.0779, 38567.71
381.5601, 38572.75
382.0422, 38574.35
382.5243, 38550.97
383.0064, 38517.93
383.4885, 38509.70
383.9706, 38521.08
384.4528, 38514.39
384.9349, 38440.71
385.4170, 38337.97
385.8991, 38268.70
386.3812, 38245.92
386.8633, 38243.09
387.3455, 38249.25
387.8276, 38256.99
388.3097, 38249.29
388.7918, 38193.26
389.2739, 38133.90
389.7560, 38110.82
390.2382, 38129.47
390.7203, 38154.81
391.2024, 38175.29
391.6845, 38189.54
392.1666, 38196.20
392.6487, 38168.66
393.1309, 38157.83
393.6130, 38198.38
394.0951, 38284.70
394.5772, 38349.50
395.0593, 38353.52
395.5414, 38344.71
396.0236, 38352.93
396.5057, 38386.49
396.9878, 38432.41
397.4699, 38498.38
397.9520, 38577.05
398.4341, 38644.80
398.9163, 38698.74
399.3984, 38744.61
399.8805, 38782.15
400.3626, 38804.68
400.8447, 38840.65
401.3268, 38903.92
401.8090, 38970.37
402.2911, 39001.25
402.7732, 38976.30
403.2553, 38969.15
403.7374, 39008.36
404.2195, 39089.89
404.7017, 39139.08
405.1838, 39151.84
405.6659, 39143.30
406.1480, 39117.66
406.6301, 39074.20
407.1122, 39051.63
407.5944, 39059.07
408.0765, 39089.27
408.5586, 39125.08
409.0407, 39166.70
409.5228, 39218.88
410.0049, 39295.29
410.4871, 39384.36
410.9692, 39456.88
411.4513, 39511.33
411.9334, 39543.63
412.4155, 39536.46
412.8976, 39501.74
413.3798, 39474.25
413.8619, 39480.14
414.3440, 39494.89
414.8261, 39500.88
415.3082, 39497.22
415.7903, 39465.91
416.2725, 39358.85
416.7546, 39231.21
417.2367, 39144.31
417.7188, 39157.54
418.2009, 39173.52
418.6830, 39143.95
419.1652, 39079.45
419.6473, 39020.19
420.1294, 38966.26
420.6115, 38930.44
421.0937, 38919.56
421.5758, 38938.76
422.0579, 38974.78
422.5400, 39045.63
423.0221, 39128.28
423.5042, 39186.40
423.9864, 39213.18
424.4685, 39221.00
424.9506, 39204.84
425.4327, 39161.67
425.9148, 39137.63
426.3969, 39141.34
426.8791, 39154.32
427.3612, 39156.55
427.8433, 39135.62
428.3254, 39147.19
428.8075, 39216.56
429.2896, 39316.91
429.7718, 39341.75
430.2539, 39274.49
430.7360, 39219.97
431.2181, 39259.29
431.7002, 39383.54
432.1823, 39457.67
432.6645, 39467.97
433.1466, 39451.61
433.6287, 39449.13
434.1108, 39461.08
434.5929, 39492.06
435.0750, 39560.27
435.5572, 39641.49
436.0393, 39688.02
436.5214, 39701.39
437.0035, 39714.41
437.4856, 39772.96
437.9677, 39841.02
438.4499, 39862.77
438.9320, 39797.38
439.4141, 39727.92
439.8962, 39711.27
440.3783, 39736.56
440.8604, 39775.27
441.3426, 39837.16
441.8247, 39891.58
442.3068, 39919.45
442.7889, 39914.99
443.2710, 39901.75
443.7531, 39873.70
444.2353, 39844.89
444.7174, 39830.36
445.1995, 39838.57
445.6816, 39854.55
446.1637, 39874.65
446.6458, 39899.27
447.1280, 39936.64
447.6101, 39993.55
448.0922, 40055.99
448.5743, 40118.74
449.0564, 40191.80
449.5385, 40238.71
450.0207, 40252.76
450.5028, 40245.58
450.9849, 40233.56
451.4670, 40213.17
451.9491, 40206.91
452.4312, 40230.58
452.9134, 40278.68
453.3955, 40304.74
453.8776, 40305.61
454.3597, 40306.20
454.8418, 40350.88
455.3239, 40421.68
455.8061, 40436.32
456.2882, 40356.21
456.7703, 40243.32
457.2524, 40171.37
457.7345, 40139.41
458.2166, 40143.02
458.6988, 40199.82
459.1809, 40281.05
459.6630, 40363.91
460.1451, 40450.87
460.6272, 40509.01
461.1093, 40498.72
461.5915, 40453.18
462.0736, 40413.66
462.5557, 40378.00
463.0378, 40366.13
463.5199, 40392.75
464.0020, 40453.80
464.4842, 40520.19
464.9663, 40624.52
465.4484, 40703.48
465.9305, 40717.87
466.4126, 40588.45
466.8947, 40534.05
467.3769, 40599.54
467.8590, 40720.23
468.3411, 40791.79
468.8232, 40797.76
469.3053, 40784.76
469.7874, 40757.06
470.2696, 40716.62
470.7517, 40700.16
471.2338, 40709.96
471.7159, 40736.55
472.1980, 40783.75
472.6801, 40850.51
473.1623, 40881.65
473.6444, 40859.66
474.1265, 40818.47
474.6086, 40817.07
475.0907, 40850.75
475.5728, 40889.14
476.0550, 40919.79
476.5371, 40943.75
477.0192, 40964.31
477.5013, 40981.81
477.9834, 40988.41
478.4655, 40961.45
478.9477, 40925.06
479.4298, 40912.40
479.9119, 40954.09
480.3940, 40995.25
480.8761, 40998.21
481.3582, 40976.72
481.8404, 40970.27
482.3225, 41005.53
482.8046, 41047.36
483.2867, 41078.20
483.7688, 41090.33
484.2509, 41113.13
484.7331, 41169.39
485.2152, 41226.75
485.6973, 41254.99
486.1794, 41238.13
486.6615, 41217.84
487.1436, 41190.63
487.6258, 41163.86
488.1079, 41178.30
488.5900, 41247.58
489.0721, 41320.27
489.5542, 41373.82
490.0363, 41408.65
490.5185, 41406.30
491.0006, 41356.49
491.4827, 41302.26
491.9648, 41307.21
492.4470, 41361.36
492.9291, 41411.10
493.4112, 41438.33
493.8933, 41450.23
494.3754, 41447.99
494.8575, 41435.13
495.3397, 41433.88
495.8218, 41475.81
496.3039, 41528.91
496.7860, 41551.80
497.2681, 41527.94
497.7502, 41516.68
498.2324, 41562.95
498.7145, 41637.00
499.1966, 41699.26
499.6787, 41729.75
500.1608, 41754.52
500.6429, 41782.03
501.1251, 41811.89
501.6072, 41834.98
502.0893, 41851.61
502.5714, 41860.82
503.0535, 41859.51
503.5356, 41834.08
504.0178, 41834.50
504.4999, 41881.27
504.9820, 41935.09
505.4641, 41922.51
505.9462, 41823.53
506.4283, 41764.23
506.9105, 41793.30
507.3926, 41887.17
507.8747, 41955.25
508.3568, 41997.01
508.8389, 42025.51
509.3210, 42040.29
509.8032, 42049.90
510.2853, 42081.92
510.7674, 42144.04
511.2495, 42210.24
511.7316, 42247.18
512.2137, 42268.96
512.6959, 42303.62
513.1780, 42392.53
513.6601, 42473.93
514.1422, 42493.48
514.6243, 42461.14
515.1064, 42446.93
515.5886, 42496.20
516.0707, 42559.59
516.5528, 42604.96
517.0349, 42612.82
517.5170, 42635.83
517.9991, 42714.53
518.4813, 42797.00
518.9634, 42808.45
519.4455, 42668.17
519.9276, 42598.75
520.4097, 42671.85
520.8918, 42859.03
521.3740, 42980.85
521.8561, 43027.84
522.3382, 43040.81
522.8203, 43034.46
523.3024, 43010.79
523.7845, 43004.82
524.2667, 43020.75
524.7488, 43045.97
525.2309, 43066.41
525.7130, 43083.68
526.1951, 43102.90
526.6772, 43126.15
527.1594, 43152.29
527.6415, 43186.09
528.1236, 43223.63
528.6057, 43248.21
529.0878, 43226.42
529.5699, 43203.45
530.0521, 43219.12
530.5342, 43288.91
531.0163, 43350.16
531.4984, 43368.36
531.9805, 43374.59
532.4626, 43402.03
532.9448, 43504.14
533.4269, 43567.73
533.9090, 43562.34
534.3911, 43507.33
534.8732, 43478.50
535.3553, 43485.11
535.8375, 43500.47
536.3196, 43517.22
536.8017, 43536.42
537.2838, 43538.39
537.7659, 43521.75
538.2480, 43492.40
538.7302, 43450.36
539.2123, 43398.14
539.6944, 43352.14
540.1765, 43308.08
540.6586, 43286.07
541.1407, 43329.89
541.6229, 43423.72
542.1050, 43511.00
542.5871, 43551.39
543.0692, 43578.29
543.5513, 43625.04
544.0334, 43692.75
544.5156, 43750.28
544.9977, 43775.57
545.4798, 43788.97
545.9619, 43805.65
546.4440, 43824.25
546.9261, 43852.50
547.4083, 43898.96
547.8904, 43954.53
548.3725, 44002.50
548.8546, 44043.77
549.3367, 44077.04
549.8188, 44105.54
550.3010, 44127.57
550.7831, 44119.38
551.2652, 44074.07
551.7473, 44021.25
552.2294, 43976.99
552.7115, 43941.87
553.1937, 43927.63
553.6758, 43938.09
554.1579, 43957.32
554.6400, 43975.81
555.1221, 43988.12
555.6042, 43976.46
556.0864, 43904.70
556.5685, 43836.37
557.0506, 43847.76
557.5327, 43919.09
558.0148, 43976.76
558.4969, 43992.55
558.9791, 43977.82
559.4612, 43927.37
559.9433, 43828.55
560.4254, 43759.73
560.9075, 43767.37
561.3896, 43793.16
561.8718, 43784.33
562.3539, 43708.46
562.8360, 43652.04
563.3181, 43619.47
563.8002, 43611.49
564.2823, 43633.36
564.7645, 43689.13
565.2466, 43757.27
565.7287, 43841.87
566.2108, 43932.56
566.6929, 43965.94
567.1750, 43939.53
567.6572, 43905.62
568.1393, 43910.95
568.6214, 43939.98
569.1035, 43958.37
569.5856, 43956.25
570.0677, 43962.41
570.5499, 44021.16
571.0320, 44099.89
571.5141, 44147.44
571.9962, 44112.81
572.4783, 44075.62
572.9604, 44080.15
573.4426, 44114.60
573.9247, 44115.98
574.4068, 44036.66
574.8889, 43956.41
575.3710, 43903.77
575.8531, 43881.32
576.3353, 43876.18
576.8174, 43891.18
577.2995, 43919.41
577.7816, 43959.96
578.2637, 44015.04
578.7458, 44054.18
579.2280, 44067.92
579.7101, 44073.19
580.1922, 44100.38
580.6743, 44146.80
581.1564, 44197.25
581.6385, 44251.66
582.1207, 44302.53
582.6028, 44338.14
583.0849, 44359.30
583.5670, 44374.59
584.0491, 44383.34
584.5313, 44391.84
585.0134, 44405.24
585.4955, 44425.40
585.9776, 44446.80
586.4597, 44460.84
586.9418, 44478.46
587.4240, 44512.84
587.9061, 44583.74
588.3882, 44640.00
588.8703, 44666.59
589.3524, 44677.66
589.8345, 44709.03
590.3167, 44755.02
590.7988, 44847.71
591.2809, 45043.07
591.7630, 45301.99
592.2451, 45377.26
592.7272, 45261.55
593.2094, 45141.13
593.6915, 45187.45
594.1736, 45335.91
594.6557, 45471.77
595.1378, 45578.25
595.6199, 45652.87
596.1021, 45662.07
596.5842, 45645.75
597.0663, 45660.91
597.5485, 45756.47
598.0306, 45854.70
598.5127, 45934.10
598.9948, 45996.50
599.4769, 46052.24
599.9590, 46101.84
600.4412, 46145.86
600.9233, 46177.50
601.4054, 46194.01
601.8875, 46246.82
602.3696, 46344.37
602.8517, 46456.84
603.3339, 46566.81
603.8160, 46673.23
604.2981, 46741.62
604.7802, 46760.53
605.2623, 46765.60
605.7444, 46816.30
606.2266, 46890.88
606.7087, 46928.79
607.1908, 46896.73
607.6729, 46832.24
608.1550, 46768.14
608.6371, 46697.09
609.1193, 46593.07
609.6014, 46411.62
610.0835, 46224.23
610.5656, 46057.95
611.0477, 45910.77
611.5298, 45817.85
612.0120, 45816.01
612.4941, 45832.59
612.9762, 45813.87
613.4583, 45737.05
613.9404, 45712.97
614.4225, 45761.35
614.9047, 45836.75
615.3868, 45871.30
615.8689, 45868.72
616.3510, 45875.42
616.8331, 45908.88
617.3152, 45953.29
617.7974, 45983.20
618.2795, 46002.45
618.7616, 46027.38
619.2437, 46077.90
619.7258, 46129.20
620.2079, 46151.82
620.6901, 46145.02
621.1722, 46168.11
621.6543, 46288.44
622.1364, 46412.88
622.6185, 46478.51
623.1006, 46461.41
623.5828, 46432.39
624.0649, 46389.07
624.5470, 46335.99
625.0291, 46270.83
625.5112, 46185.00
625.9933, 46137.63
626.4755, 46151.63
626.9576, 46193.79
627.4397, 46186.48
627.9218, 46137.56
628.4039, 46106.90
