##NAMES=Boracite
##RRUFFID=R060009
##IDEAL CHEMISTRY=Mg_3_B_7_O_13_Cl
##LOCALITY=Luneberg, Hannover, Germany
##OWNER=RRUFF
##SOURCE=University of Arizona Mineral Museum
##DESCRIPTION=Adamantine gray cubo-octahedral single crystals in anhydrite
##STATUS=The identification of this mineral is confirmed by single-crystal X-ray diffraction and chemical analysis.
##URL=rruff.info/R060009
##MEASURED CHEMISTRY=(Mg_2.98_Fe^2+^_0.02_)_Î£=3_B_7_O_13_Cl_1.00_ ; B not analyzed but estimated by diifference and stoichiometry
92.02539, 323.8749
92.50751, 321.5803
92.98962, 322.8409
93.47174, 324.8846
93.95386, 328.1182
94.43597, 330.6033
94.91809, 332.1056
95.40021, 332.9747
95.88232, 333.0460
96.36444, 332.1423
96.84656, 330.7094
97.32867, 328.9680
97.81078, 327.0835
98.29290, 325.2300
98.77502, 323.3389
99.25713, 320.9167
99.73925, 318.5017
100.2214, 316.0403
100.7035, 313.7357
101.1856, 311.5478
101.6677, 309.4938
102.1498, 307.7321
102.6320, 306.4728
103.1141, 305.8515
103.5962, 305.4575
104.0783, 305.4435
104.5604, 305.5528
105.0425, 305.4076
105.5247, 304.8136
106.0068, 304.1896
106.4889, 304.3726
106.9710, 305.5205
107.4531, 306.3099
107.9352, 305.8564
108.4173, 304.3873
108.8995, 303.1801
109.3816, 302.7247
109.8637, 302.7156
110.3458, 302.7851
110.8279, 302.8749
111.3100, 303.1108
111.7922, 303.6953
112.2743, 304.7325
112.7564, 305.7749
113.2385, 306.8540
113.7206, 307.8144
114.2027, 308.4424
114.6849, 308.6009
115.1670, 308.4770
115.6491, 308.7433
116.1312, 309.9211
116.6133, 310.9026
117.0954, 311.4234
117.5776, 311.6407
118.0597, 311.7624
118.5418, 311.9008
119.0239, 312.0493
119.5060, 312.6912
119.9881, 314.5148
120.4703, 316.0904
120.9524, 316.5911
121.4345, 316.1688
121.9166, 315.7208
122.3987, 316.1371
122.8808, 317.5990
123.3630, 318.5803
123.8451, 318.7864
124.3272, 318.6623
124.8093, 318.5564
125.2914, 318.4972
125.7735, 318.5988
126.2557, 318.9604
126.7378, 319.5465
127.2199, 320.5072
127.7020, 322.2770
128.1841, 324.5292
128.6662, 326.1382
129.1483, 326.5830
129.6305, 326.7376
130.1126, 327.3236
130.5947, 328.3133
131.0768, 329.3424
131.5589, 330.1963
132.0410, 330.9045
132.5232, 331.1959
133.0053, 330.9178
133.4874, 330.2785
133.9695, 329.0805
134.4516, 327.3810
134.9337, 325.7602
135.4159, 325.1299
135.8980, 325.9824
136.3801, 327.0005
136.8622, 328.5486
137.3443, 329.9834
137.8264, 330.8332
138.3086, 330.9125
138.7907, 330.2552
139.2728, 328.9402
139.7549, 326.9536
140.2370, 324.2515
140.7191, 320.3389
141.2013, 315.7762
141.6834, 311.2970
142.1655, 307.2571
142.6476, 303.6729
143.1297, 300.6763
143.6118, 298.1049
144.0939, 296.1221
144.5761, 295.0547
145.0582, 294.7518
145.5403, 294.4785
146.0224, 293.6812
146.5045, 292.6561
146.9866, 292.2172
147.4688, 292.6270
147.9509, 293.4455
148.4330, 294.3822
148.9151, 295.4862
149.3972, 296.4020
149.8793, 296.6647
150.3615, 296.6571
150.8436, 296.8546
151.3257, 297.5037
151.8078, 298.4219
152.2899, 299.2055
152.7720, 299.8709
153.2542, 300.3539
153.7363, 300.4185
154.2184, 300.3461
154.7005, 300.6323
155.1826, 301.7753
155.6647, 303.6180
156.1469, 304.4799
156.6290, 302.9490
157.1111, 301.7603
157.5932, 301.7290
158.0753, 302.6216
158.5574, 303.8594
159.0396, 305.0131
159.5217, 306.1123
160.0038, 306.8155
160.4859, 306.6935
160.9680, 306.6177
161.4501, 306.9774
161.9323, 307.7560
162.4144, 308.7007
162.8965, 309.5669
163.3786, 310.3631
163.8607, 311.0057
164.3428, 311.5069
164.8250, 311.8649
165.3071, 312.2795
165.7892, 312.7412
166.2713, 312.6847
166.7534, 311.1791
167.2355, 307.9572
167.7177, 305.2863
168.1998, 303.6693
168.6819, 302.6283
169.1640, 301.4880
169.6461, 300.0327
170.1282, 298.7755
170.6104, 298.5040
171.0925, 299.0883
171.5746, 299.7938
172.0567, 300.4750
172.5388, 301.0737
173.0209, 301.4283
173.5031, 301.5329
173.9852, 301.3076
174.4673, 300.6548
174.9494, 299.6138
175.4315, 298.5369
175.9136, 297.6024
176.3958, 296.8114
176.8779, 296.2973
177.3600, 296.5262
177.8421, 296.6568
178.3242, 296.2175
178.8063, 295.1918
179.2885, 293.8403
179.7706, 292.2366
180.2527, 290.1631
180.7348, 288.8104
181.2169, 288.8880
181.6990, 289.2202
182.1812, 289.2633
182.6633, 288.9069
183.1454, 288.3243
183.6275, 287.7657
184.1096, 287.3356
184.5917, 286.6869
185.0738, 285.5185
185.5560, 284.3675
186.0381, 283.6328
186.5202, 283.4059
187.0023, 283.4837
187.4844, 283.5411
187.9665, 283.7419
188.4487, 283.6176
188.9308, 282.9004
189.4129, 282.0067
189.8950, 281.2848
190.3771, 280.8549
190.8592, 280.6659
191.3414, 280.6569
191.8235, 281.0229
192.3056, 281.1976
192.7877, 281.0759
193.2698, 280.7424
193.7519, 280.3060
194.2341, 279.8035
194.7162, 279.2108
195.1983, 278.3468
195.6804, 276.9737
196.1625, 276.0911
196.6446, 276.3687
197.1268, 277.3577
197.6089, 278.0534
198.0910, 278.1139
198.5731, 277.7342
199.0552, 277.2079
199.5373, 276.5031
200.0195, 275.8298
200.5016, 275.2740
200.9837, 274.8338
201.4658, 274.4903
201.9479, 274.1741
202.4300, 274.0450
202.9122, 274.3202
203.3943, 275.0474
203.8764, 275.7516
204.3585, 276.1358
204.8406, 276.2023
205.3227, 275.8790
205.8048, 274.6484
206.2870, 273.3912
206.7691, 272.7275
207.2512, 272.7284
207.7333, 273.0957
208.2154, 273.6875
208.6975, 274.6162
209.1797, 275.0934
209.6618, 274.4640
210.1439, 273.6862
210.6260, 273.2465
211.1081, 273.2359
211.5902, 273.4782
212.0724, 273.7771
212.5545, 274.1541
213.0366, 274.5155
213.5187, 274.9511
214.0008, 275.3031
214.4829, 275.4638
214.9651, 275.4156
215.4472, 275.2287
215.9293, 274.9959
216.4114, 274.7006
216.8935, 274.3878
217.3756, 273.9316
217.8578, 273.5439
218.3399, 273.3580
218.8220, 273.4080
219.3041, 273.6519
219.7862, 274.0396
220.2683, 274.6823
220.7505, 275.2606
221.2326, 275.7498
221.7147, 276.2003
222.1968, 276.7251
222.6789, 277.3257
223.1610, 277.8121
223.6432, 277.8986
224.1253, 277.4147
224.6074, 276.7962
225.0895, 275.7963
225.5716, 274.7968
226.0537, 274.1844
226.5358, 274.0406
227.0180, 274.1139
227.5001, 274.0663
227.9822, 273.8543
228.4643, 273.6465
228.9464, 273.4049
229.4285, 273.1937
229.9107, 273.1390
230.3928, 273.2764
230.8749, 273.4025
231.3570, 273.2344
231.8391, 272.7537
232.3212, 272.2354
232.8034, 271.4791
233.2855, 270.8029
233.7676, 270.7082
234.2497, 271.3488
234.7318, 272.1927
235.2139, 272.7072
235.6961, 272.9299
236.1782, 272.9330
236.6603, 272.3832
237.1424, 271.7285
237.6245, 271.7887
238.1066, 272.8515
238.5888, 273.9953
239.0709, 274.4410
239.5530, 274.3055
240.0351, 273.7431
240.5172, 272.3536
240.9993, 270.6544
241.4815, 269.6841
241.9636, 269.6523
242.4457, 269.9646
242.9278, 270.3258
243.4099, 270.6953
243.8920, 270.9774
244.3742, 271.2269
244.8563, 271.3463
245.3384, 271.0273
245.8205, 270.0477
246.3026, 269.1313
246.7847, 268.7102
247.2668, 268.6113
247.7490, 268.5829
248.2311, 268.5322
248.7132, 268.4701
249.1953, 268.4548
249.6774, 268.5936
250.1595, 268.5468
250.6417, 267.9108
251.1238, 267.0983
251.6059, 266.6952
252.0880, 267.0844
252.5701, 267.8973
253.0522, 268.1996
253.5344, 267.7909
254.0165, 267.2316
254.4986, 266.4639
254.9807, 265.7477
255.4628, 265.4276
255.9449, 265.7005
256.4271, 266.2803
256.9092, 266.4782
257.3913, 266.0606
257.8734, 265.6907
258.3555, 265.3098
258.8376, 265.1185
259.3198, 265.4356
259.8019, 266.3937
260.2840, 267.5791
260.7661, 268.0903
261.2482, 267.5244
261.7303, 267.0150
262.2125, 266.7435
262.6946, 266.5450
263.1767, 266.2455
263.6588, 265.7976
264.1409, 265.3444
264.6230, 265.1511
265.1052, 265.3656
265.5873, 265.5633
266.0694, 265.8146
266.5515, 265.9859
267.0336, 265.9637
267.5157, 265.7299
267.9979, 265.3612
268.4800, 264.9459
268.9621, 264.3785
269.4442, 264.0161
269.9263, 263.8476
270.4084, 263.8482
270.8906, 264.0903
271.3727, 264.5368
271.8548, 265.0082
272.3369, 265.3014
272.8190, 265.4279
273.3011, 265.3045
273.7833, 264.5739
274.2654, 263.9396
274.7475, 263.9982
275.2296, 264.6365
275.7117, 265.1582
276.1938, 264.8018
276.6760, 263.3172
277.1581, 262.5185
277.6402, 262.7663
278.1223, 263.1915
278.6044, 263.4789
279.0865, 263.5941
279.5686, 263.5717
280.0508, 263.4083
280.5329, 263.0950
281.0150, 263.0611
281.4971, 263.5208
281.9792, 263.9787
282.4613, 264.3578
282.9435, 264.5930
283.4256, 264.5254
283.9077, 264.0031
284.3898, 263.1108
284.8719, 262.6581
285.3540, 262.9502
285.8362, 263.2572
286.3183, 263.3258
286.8004, 263.2833
287.2825, 263.4108
287.7646, 263.8776
288.2467, 264.5393
288.7289, 264.8846
289.2110, 264.7615
289.6931, 264.5435
290.1752, 264.0723
290.6573, 263.5951
291.1394, 263.5809
291.6216, 264.2403
292.1037, 265.1369
292.5858, 265.3448
293.0679, 264.4755
293.5500, 263.6690
294.0321, 262.9461
294.5143, 262.3786
294.9964, 262.0821
295.4785, 262.0852
295.9606, 262.2598
296.4427, 262.4368
296.9248, 262.6168
297.4070, 262.7995
297.8891, 263.0369
298.3712, 263.2457
298.8533, 263.3045
299.3354, 263.2085
299.8175, 263.1440
300.2997, 263.3613
300.7818, 263.9415
301.2639, 264.0654
301.7460, 263.0902
302.2281, 262.1679
302.7102, 262.3666
303.1924, 263.5581
303.6745, 264.4806
304.1566, 264.0726
304.6387, 262.4038
305.1208, 261.3114
305.6029, 260.8921
306.0851, 260.8757
306.5672, 261.2883
307.0493, 262.0233
307.5314, 262.8112
308.0135, 263.5446
308.4956, 264.1766
308.9778, 264.4910
309.4599, 264.4821
309.9420, 264.2407
310.4241, 263.6174
310.9062, 262.7944
311.3883, 262.1305
311.8705, 261.7781
312.3526, 261.6472
312.8347, 261.5613
313.3168, 261.5139
313.7989, 261.5139
314.2810, 261.6305
314.7632, 261.7733
315.2453, 261.7457
315.7274, 261.4798
316.2095, 261.2807
316.6916, 261.6497
317.1737, 262.7947
317.6559, 263.5776
318.1380, 263.8430
318.6201, 263.7480
319.1022, 263.2961
319.5843, 262.5215
320.0664, 261.7770
320.5485, 261.3821
321.0306, 261.3785
321.5128, 261.4809
321.9949, 261.9329
322.4770, 262.2852
322.9591, 262.1259
323.4412, 261.5489
323.9233, 261.0665
324.4055, 261.0561
324.8876, 261.4287
325.3697, 261.5294
325.8518, 261.1510
326.3339, 260.7712
326.8160, 260.4768
327.2982, 260.3127
327.7803, 260.4220
328.2624, 260.9204
328.7445, 261.6133
329.2266, 261.9623
329.7087, 261.8045
330.1909, 261.6559
330.6730, 261.6223
331.1551, 261.6456
331.6372, 261.6921
332.1193, 261.7545
332.6014, 261.7197
333.0836, 261.3454
333.5657, 260.3258
334.0478, 259.9632
334.5299, 261.0106
335.0120, 262.2669
335.4941, 262.6898
335.9763, 262.1886
336.4584, 261.3788
336.9405, 260.7590
337.4226, 260.3304
337.9047, 260.3807
338.3868, 261.6132
338.8690, 262.6135
339.3511, 262.3481
339.8332, 261.1729
340.3153, 260.2855
340.7974, 260.4969
341.2795, 261.5869
341.7617, 262.1371
342.2438, 261.7728
342.7259, 261.4010
343.2080, 261.2335
343.6901, 261.1820
344.1722, 261.0741
344.6544, 260.8347
345.1365, 260.5980
345.6186, 260.6509
346.1007, 261.3355
346.5828, 261.8001
347.0649, 262.0019
347.5471, 262.0020
348.0292, 261.7248
348.5113, 261.2123
348.9934, 260.7718
349.4755, 260.7963
349.9576, 261.4275
350.4398, 261.9645
350.9219, 262.4429
351.4040, 262.8121
351.8861, 263.0531
352.3682, 263.1580
352.8503, 263.0964
353.3325, 262.8226
353.8146, 262.3568
354.2967, 262.0254
354.7788, 261.8549
355.2609, 261.7847
355.7430, 261.8570
356.2252, 262.0081
356.7073, 262.1456
357.1894, 262.2248
357.6715, 262.2891
358.1536, 262.4521
358.6357, 262.8008
359.1179, 263.1239
359.5999, 263.4539
360.0821, 263.7357
360.5642, 263.8829
361.0463, 263.9008
361.5284, 263.9165
362.0105, 264.1195
362.4926, 264.6162
362.9748, 264.8872
363.4569, 264.7834
363.9390, 264.6124
364.4211, 264.5757
364.9032, 264.5936
365.3853, 264.3938
365.8675, 263.6963
366.3496, 262.5978
366.8317, 262.0568
367.3138, 262.7050
367.7959, 263.1225
368.2780, 262.8275
368.7602, 262.1986
369.2423, 261.6911
369.7244, 261.5010
370.2065, 261.5344
370.6886, 261.6395
371.1707, 261.8831
371.6529, 262.0227
372.1350, 261.8831
372.6171, 261.7355
373.0992, 261.8919
373.5813, 262.0790
374.0634, 263.1705
374.5456, 263.8278
375.0277, 264.0739
375.5098, 262.6781
375.9919, 263.4026
376.4740, 263.2774
376.9561, 263.1173
377.4383, 262.5721
377.9204, 262.2462
378.4025, 262.6883
378.8846, 263.5459
379.3667, 263.8146
379.8488, 263.3415
380.3310, 262.6647
380.8131, 261.5290
381.2952, 260.5112
381.7773, 260.3795
382.2594, 261.4733
382.7415, 262.7997
383.2237, 263.2632
383.7058, 262.8697
384.1879, 262.3285
384.6700, 261.6176
385.1521, 261.0136
385.6342, 260.7777
386.1164, 260.8918
386.5985, 261.0624
387.0806, 261.1606
387.5627, 261.1957
388.0448, 261.1735
388.5269, 261.0732
389.0091, 260.9903
389.4912, 261.1781
389.9733, 260.2125
390.4554, 261.3028
390.9375, 261.9587
391.4196, 262.2036
391.9018, 260.8065
392.3839, 261.5298
392.8660, 261.4033
393.3481, 261.2419
393.8302, 262.2635
394.3123, 261.1053
394.7945, 262.1082
395.2766, 262.2484
395.7587, 262.7834
396.2408, 262.4634
396.7229, 262.4075
397.2050, 263.1246
397.6872, 263.1271
398.1693, 262.9124
398.6514, 262.4464
399.1335, 262.3467
399.6156, 263.1016
400.0977, 263.8573
400.5798, 263.9037
401.0620, 263.3527
401.5441, 262.8240
402.0262, 262.6993
402.5083, 262.9019
402.9904, 263.0571
403.4725, 263.1545
403.9547, 263.2261
404.4368, 263.2177
404.9189, 263.2098
405.4010, 263.3668
405.8831, 263.7264
406.3652, 264.0648
406.8474, 264.0170
407.3295, 263.3306
407.8116, 263.0027
408.2937, 263.5530
408.7758, 263.9637
409.2579, 263.4768
409.7401, 262.2963
410.2222, 261.1457
410.7043, 260.5100
411.1864, 260.3952
411.6685, 260.8354
412.1506, 262.8693
412.6328, 264.1640
413.1149, 263.9011
413.5970, 262.9541
414.0791, 262.2214
414.5612, 262.0229
415.0433, 262.1857
415.5255, 262.5592
416.0076, 263.3554
416.4897, 263.6276
416.9718, 262.6803
417.4539, 261.7356
417.9360, 261.4258
418.4182, 261.6527
418.9003, 261.9145
419.3824, 261.7917
419.8645, 261.4167
420.3466, 261.4618
420.8287, 262.2466
421.3109, 262.7746
421.7930, 262.3442
422.2751, 261.5812
422.7572, 261.2202
423.2393, 261.5157
423.7214, 261.9820
424.2036, 262.1126
424.6857, 261.9173
425.1678, 261.6473
425.6499, 261.2628
426.1320, 260.9454
426.6141, 260.8417
427.0963, 260.9408
427.5784, 261.1735
428.0605, 261.6588
428.5426, 262.2035
429.0247, 262.5401
429.5068, 262.6608
429.9890, 262.5328
430.4711, 262.0777
430.9532, 261.3530
431.4353, 260.5888
431.9174, 259.5690
432.3995, 258.8307
432.8817, 258.6926
433.3638, 259.0257
433.8459, 259.6640
434.3280, 260.6013
434.8101, 261.5247
435.2922, 261.9833
435.7744, 261.8600
436.2565, 261.6699
436.7386, 261.3236
437.2207, 260.9967
437.7028, 260.8375
438.1849, 260.8208
438.6671, 260.8185
439.1492, 260.7482
439.6313, 260.6176
440.1134, 260.4734
440.5955, 260.3597
441.0776, 260.1787
441.5598, 259.7016
442.0418, 259.2659
442.5240, 259.3894
443.0061, 260.1308
443.4882, 260.8714
443.9703, 260.6934
444.4524, 259.2574
444.9345, 258.5058
445.4167, 259.1418
445.8988, 259.7798
446.3809, 259.9467
446.8630, 259.7480
447.3451, 259.4118
447.8272, 259.0135
448.3094, 258.6887
448.7915, 258.8759
449.2736, 259.8468
449.7557, 260.5444
450.2378, 260.5433
450.7199, 260.2836
451.2021, 259.9918
451.6842, 259.7138
452.1663, 259.5226
452.6484, 259.5638
453.1305, 259.7610
453.6126, 259.7719
454.0948, 259.5529
454.5769, 259.2043
455.0590, 258.5711
455.5411, 257.8826
456.0232, 257.6157
456.5053, 258.1857
456.9875, 258.7807
457.4696, 258.5286
457.9517, 257.6459
458.4338, 257.1830
458.9159, 257.6071
459.3980, 258.3593
459.8802, 258.5924
460.3623, 258.2903
460.8444, 257.9051
461.3265, 257.4186
461.8086, 256.9470
462.2907, 256.4900
462.7729, 256.1039
463.2550, 256.0997
463.7371, 256.7954
464.2192, 257.9856
464.7013, 258.4899
465.1834, 257.8824
465.6656, 257.1857
466.1477, 256.3206
466.6298, 255.5443
467.1119, 255.1901
467.5940, 255.3050
468.0761, 255.6104
468.5583, 255.7968
469.0404, 255.8721
469.5225, 255.7852
470.0046, 255.3111
470.4867, 254.9073
470.9688, 254.7265
471.4510, 254.7074
471.9331, 254.7396
472.4152, 254.7705
472.8973, 254.8267
473.3794, 255.0017
473.8615, 255.3630
474.3437, 255.5499
474.8258, 255.3858
475.3079, 255.1051
475.7900, 254.7964
476.2721, 254.4871
476.7542, 254.2463
477.2364, 254.1336
477.7185, 254.1181
478.2006, 254.2009
478.6827, 254.4365
479.1648, 254.4272
479.6469, 253.7408
480.1291, 252.7833
480.6112, 252.3100
481.0933, 252.5043
481.5754, 252.7604
482.0575, 252.7154
482.5396, 252.5386
483.0217, 252.5804
483.5038, 252.9186
483.9860, 253.3138
484.4681, 253.6055
484.9502, 253.7791
485.4323, 253.5254
485.9144, 252.4175
486.3965, 251.3626
486.8787, 250.7189
487.3608, 250.3983
487.8429, 250.2770
488.3250, 250.3027
488.8071, 250.3306
489.2892, 250.0704
489.7714, 249.2528
490.2535, 248.8137
490.7356, 248.9863
491.2177, 249.2538
491.6998, 249.4028
492.1819, 249.4267
492.6641, 249.3633
493.1462, 249.2126
493.6283, 249.0441
494.1104, 249.0899
494.5925, 249.4507
495.0746, 249.7522
495.5568, 249.9867
496.0389, 250.0723
496.5210, 249.8675
497.0031, 249.3936
497.4852, 248.9283
497.9673, 248.7010
498.4495, 248.6300
498.9316, 248.4974
499.4137, 248.2927
499.8958, 248.0361
500.3779, 247.6878
500.8600, 247.3092
501.3422, 247.0199
501.8243, 246.8214
502.3064, 246.7204
502.7885, 246.8423
503.2706, 247.0331
503.7527, 246.9663
504.2349, 246.5683
504.7170, 246.1317
505.1991, 245.9663
505.6812, 246.0932
506.1633, 246.0299
506.6454, 245.5717
507.1276, 245.1738
507.6097, 245.0368
508.0918, 245.0587
508.5739, 245.0971
509.0560, 245.0953
509.5381, 245.0390
510.0203, 244.8674
510.5024, 244.4629
510.9845, 244.3491
511.4666, 244.9556
511.9487, 245.4273
512.4308, 245.3265
512.9130, 244.8544
513.3951, 244.4517
513.8772, 244.3605
514.3593, 244.3866
514.8414, 244.0835
515.3235, 243.3621
515.8057, 243.0012
516.2878, 243.4164
516.7699, 244.0181
517.2520, 244.3909
517.7341, 244.5238
518.2162, 244.3978
518.6984, 243.5974
519.1805, 242.7640
519.6626, 242.9048
520.1447, 243.9550
520.6268, 244.8540
521.1089, 245.0737
521.5911, 244.8692
522.0732, 244.8000
522.5553, 244.8958
523.0374, 245.0076
523.5195, 245.1991
524.0016, 245.3358
524.4838, 245.1971
524.9659, 244.8481
525.4480, 244.6190
525.9301, 244.7519
526.4122, 245.1965
526.8943, 245.7285
527.3765, 246.8195
527.8586, 247.2777
528.3407, 246.5030
528.8228, 245.4440
529.3049, 244.8132
529.7870, 244.7144
530.2692, 244.8979
530.7513, 245.2577
531.2334, 245.7253
531.7155, 245.8455
532.1976, 245.4504
532.6797, 245.0998
533.1619, 245.0140
533.6440, 245.1030
534.1261, 245.3706
534.6082, 245.8624
535.0903, 246.1728
535.5724, 245.9674
536.0546, 245.4084
536.5367, 244.7742
537.0188, 244.0834
537.5009, 243.4996
537.9830, 243.0802
538.4651, 242.8818
538.9473, 243.1408
539.4294, 244.5116
539.9115, 245.4735
540.3936, 245.3876
540.8757, 244.7644
541.3578, 244.1369
541.8400, 243.6525
542.3221, 243.3274
542.8042, 243.2142
543.2863, 243.3192
543.7684, 243.2365
544.2505, 242.6810
544.7326, 242.2827
545.2147, 242.2560
545.6968, 242.3996
546.1790, 242.4928
546.6611, 242.4799
547.1432, 242.4567
547.6253, 241.9039
548.1074, 242.8959
548.5895, 243.4536
549.0717, 243.6002
549.5538, 242.1048
550.0359, 242.7298
550.5180, 242.5050
551.0001, 242.2454
551.4822, 243.1687
551.9644, 241.9122
552.4465, 242.8168
552.9286, 242.8587
553.4107, 243.2955
553.8928, 242.3058
554.3749, 242.9766
554.8571, 243.2515
555.3392, 243.1354
555.8213, 242.9048
556.3034, 242.3728
556.7855, 241.9693
557.2676, 241.9187
557.7498, 241.9995
558.2319, 241.9183
558.7140, 241.6234
559.1961, 241.3291
559.6782, 241.2963
560.1603, 241.5300
560.6425, 241.6374
561.1246, 241.7559
561.6067, 241.5184
562.0888, 240.4799
562.5709, 239.2365
563.0530, 238.5123
563.5352, 238.4954
564.0173, 238.6154
564.4994, 238.3672
564.9815, 237.8646
565.4636, 237.4828
565.9457, 237.2682
566.4279, 237.1104
566.9100, 236.9349
567.3921, 236.7619
567.8742, 236.6539
568.3563, 236.6415
568.8384, 236.6417
569.3206, 236.7250
569.8027, 236.7557
570.2848, 236.4654
570.7669, 235.8728
571.2490, 235.3689
571.7311, 235.3238
572.2133, 235.6828
572.6954, 235.8488
573.1775, 235.6389
573.6596, 235.4807
574.1417, 235.5150
574.6238, 235.5634
575.1060, 235.4289
575.5881, 235.1147
576.0702, 234.8287
576.5523, 234.7288
577.0344, 234.7962
577.5165, 235.0469
577.9987, 235.5870
578.4808, 235.8300
578.9629, 235.3176
579.4450, 234.5051
579.9271, 234.0444
580.4092, 233.9871
580.8914, 233.9808
581.3735, 233.9483
581.8556, 233.8645
582.3377, 233.6449
582.8198, 233.3224
583.3019, 233.0970
583.7841, 233.1014
584.2662, 233.2353
584.7483, 233.2183
585.2304, 232.8690
585.7125, 232.6656
