##NAMES=Boracite
##RRUFFID=R070317
##IDEAL CHEMISTRY=Mg_3_B_7_O_13_Cl
##LOCALITY=Douglashall, Westereglen, Stassfurt District, Saxony-Anhalt, Germany
##OWNER=RRUFF
##SOURCE=James Shigley
##DESCRIPTION=Colorless single crystal tetrahedron with minor cube modifications
##STATUS=The identification of this mineral has been confirmed by single-crystal X-ray diffraction.
##URL=rruff.info/R070317
175.9807, 15313.17
176.4628, 15313.50
176.9449, 15305.68
177.4271, 15304.35
177.9092, 15316.97
178.3913, 15337.88
178.8734, 15359.92
179.3555, 15380.50
179.8376, 15399.40
180.3197, 15414.74
180.8019, 15419.58
181.2840, 15433.93
181.7661, 15475.17
182.2482, 15524.74
182.7303, 15557.38
183.2124, 15557.52
183.6946, 15538.38
184.1767, 15539.88
184.6588, 15579.32
185.1409, 15609.17
185.6230, 15617.46
186.1051, 15610.75
186.5873, 15592.54
187.0694, 15561.40
187.5515, 15528.28
188.0336, 15523.75
188.5157, 15564.47
188.9978, 15606.98
189.4800, 15639.92
189.9621, 15669.85
190.4442, 15707.72
190.9263, 15759.50
191.4084, 15812.65
191.8905, 15832.58
192.3727, 15788.93
192.8548, 15766.37
193.3369, 15792.99
193.8190, 15837.30
194.3011, 15868.16
194.7832, 15873.03
195.2654, 15864.49
195.7475, 15870.12
196.2296, 15899.53
196.7117, 15925.67
197.1938, 15944.73
197.6759, 15959.82
198.1581, 15972.35
198.6402, 15983.02
199.1223, 15993.86
199.6044, 16009.55
200.0865, 16035.64
200.5686, 16055.22
201.0508, 16062.53
201.5329, 16066.73
202.0150, 16077.26
202.4971, 16096.00
202.9792, 16113.76
203.4613, 16112.05
203.9435, 16071.52
204.4256, 16056.13
204.9077, 16092.68
205.3898, 16134.75
205.8719, 16150.69
206.3540, 16134.50
206.8362, 16101.91
207.3183, 16069.63
207.8004, 16027.35
208.2825, 16014.55
208.7646, 16049.49
209.2467, 16095.88
209.7289, 16136.60
210.2110, 16167.71
210.6931, 16192.53
211.1752, 16215.36
211.6573, 16238.06
212.1395, 16250.97
212.6216, 16242.66
213.1037, 16234.92
213.5858, 16239.17
214.0679, 16254.82
214.5500, 16273.78
215.0322, 16287.66
215.5143, 16294.96
215.9964, 16307.22
216.4785, 16324.10
216.9606, 16346.22
217.4427, 16381.99
217.9249, 16424.78
218.4070, 16457.36
218.8891, 16462.54
219.3712, 16439.20
219.8533, 16429.78
220.3354, 16443.54
220.8176, 16463.21
221.2997, 16492.52
221.7818, 16524.26
222.2639, 16545.45
222.7460, 16545.70
223.2281, 16527.14
223.7103, 16512.93
224.1924, 16508.41
224.6745, 16502.60
225.1566, 16487.20
225.6387, 16470.18
226.1208, 16464.03
226.6030, 16476.64
227.0851, 16503.88
227.5672, 16528.91
228.0493, 16555.98
228.5314, 16574.23
229.0135, 16572.53
229.4957, 16565.03
229.9778, 16567.91
230.4599, 16588.55
230.9420, 16621.67
231.4241, 16657.43
231.9062, 16712.95
232.3884, 16738.58
232.8705, 16698.17
233.3526, 16646.00
233.8347, 16634.73
234.3168, 16680.67
234.7989, 16750.78
235.2811, 16789.11
235.7632, 16787.43
236.2453, 16771.68
236.7274, 16726.02
237.2095, 16681.23
237.6916, 16656.10
238.1738, 16654.88
238.6559, 16671.43
239.1380, 16704.69
239.6201, 16765.35
240.1022, 16802.60
240.5843, 16797.02
241.0665, 16782.12
241.5486, 16773.74
242.0307, 16771.98
242.5128, 16766.96
242.9949, 16743.47
243.4770, 16697.99
243.9592, 16676.96
244.4413, 16704.76
244.9234, 16735.46
245.4055, 16749.97
245.8876, 16753.01
246.3697, 16760.81
246.8519, 16791.84
247.3340, 16840.51
247.8161, 16852.53
248.2982, 16795.92
248.7803, 16743.98
249.2624, 16720.32
249.7446, 16717.91
250.2267, 16725.69
250.7088, 16739.68
251.1909, 16757.85
251.6730, 16775.73
252.1551, 16797.87
252.6373, 16809.87
253.1194, 16796.18
253.6015, 16775.62
254.0836, 16770.04
254.5657, 16789.10
255.0478, 16818.92
255.5300, 16835.85
256.0121, 16834.89
256.4942, 16840.01
256.9763, 16864.23
257.4584, 16893.69
257.9406, 16919.10
258.4227, 16938.49
258.9048, 16955.20
259.3869, 16972.44
259.8690, 16990.27
260.3511, 17008.82
260.8333, 17038.49
261.3154, 17058.78
261.7975, 17049.94
262.2796, 17013.33
262.7617, 16976.64
263.2438, 16960.80
263.7260, 16962.50
264.2081, 16961.95
264.6902, 16953.93
265.1723, 16948.73
265.6544, 16957.71
266.1365, 16976.32
266.6187, 16989.12
267.1008, 16985.66
267.5829, 16972.06
268.0650, 16957.33
268.5471, 16937.32
269.0292, 16930.47
269.5114, 16975.38
269.9935, 17040.37
270.4756, 17067.25
270.9577, 17013.99
271.4398, 16938.66
271.9219, 16904.34
272.4041, 16911.74
272.8862, 16938.15
273.3683, 16986.88
273.8504, 17040.91
274.3325, 17069.60
274.8146, 17067.75
275.2968, 17047.28
275.7789, 16999.90
276.2610, 16935.81
276.7431, 16897.43
277.2252, 16902.36
277.7073, 16937.21
278.1895, 16985.80
278.6716, 17054.78
279.1537, 17105.85
279.6358, 17121.90
280.1179, 17111.63
280.6000, 17081.23
281.0822, 17027.78
281.5643, 16980.43
282.0464, 16977.16
282.5285, 17020.99
283.0106, 17070.20
283.4927, 17140.10
283.9749, 17200.88
284.4570, 17217.38
284.9391, 17189.95
285.4212, 17157.11
285.9033, 17150.14
286.3854, 17168.99
286.8676, 17181.02
287.3497, 17191.09
287.8318, 17190.49
288.3139, 17163.21
288.7960, 17120.61
289.2781, 17094.72
289.7603, 17105.90
290.2424, 17142.83
290.7245, 17157.40
291.2066, 17123.27
291.6887, 17100.92
292.1708, 17114.65
292.6530, 17139.64
293.1351, 17137.13
293.6172, 17094.39
294.0993, 17043.03
294.5814, 17042.39
295.0635, 17145.59
295.5457, 17198.28
296.0278, 17164.01
296.5099, 17109.37
296.9920, 17077.90
297.4741, 17075.70
297.9562, 17087.08
298.4384, 17096.92
298.9205, 17105.31
299.4026, 17111.37
299.8847, 17115.04
300.3668, 17116.51
300.8489, 17108.68
301.3311, 17098.76
301.8131, 17103.14
302.2953, 17135.59
302.7774, 17187.78
303.2595, 17215.85
303.7416, 17199.32
304.2237, 17187.87
304.7058, 17183.76
305.1880, 17192.72
305.6701, 17230.09
306.1522, 17302.94
306.6343, 17377.76
307.1164, 17392.55
307.5985, 17328.32
308.0807, 17274.65
308.5628, 17239.24
309.0449, 17225.51
309.5270, 17249.11
310.0091, 17306.93
310.4912, 17362.38
310.9734, 17383.62
311.4555, 17372.99
311.9376, 17353.97
312.4197, 17320.95
312.9018, 17289.98
313.3839, 17265.68
313.8661, 17250.16
314.3482, 17250.31
314.8303, 17278.87
315.3124, 17320.76
315.7945, 17349.44
316.2766, 17363.41
316.7588, 17372.91
317.2409, 17384.82
317.7230, 17394.70
318.2051, 17395.27
318.6872, 17384.78
319.1693, 17366.42
319.6515, 17335.04
320.1336, 17295.39
320.6157, 17270.67
321.0978, 17273.97
321.5799, 17287.47
322.0620, 17281.13
322.5442, 17252.66
323.0263, 17225.44
323.5084, 17198.70
323.9905, 17179.88
324.4726, 17184.70
324.9547, 17215.62
325.4369, 17247.67
325.9190, 17256.71
326.4011, 17239.92
326.8832, 17224.18
327.3653, 17202.56
327.8474, 17188.07
328.3296, 17193.67
328.8117, 17213.40
329.2938, 17227.54
329.7759, 17222.87
330.2580, 17206.70
330.7401, 17212.29
331.2223, 17278.50
331.7044, 17318.34
332.1865, 17297.37
332.6686, 17257.35
333.1507, 17249.44
333.6328, 17287.13
334.1150, 17336.20
334.5971, 17341.47
335.0792, 17274.16
335.5613, 17241.63
336.0434, 17282.24
336.5255, 17319.58
337.0077, 17304.77
337.4898, 17248.78
337.9719, 17197.86
338.4540, 17191.28
338.9361, 17223.08
339.4182, 17239.56
339.9004, 17233.76
340.3825, 17221.63
340.8646, 17207.66
341.3467, 17191.04
341.8288, 17167.16
342.3109, 17131.72
342.7931, 17100.52
343.2752, 17104.26
343.7573, 17149.90
344.2394, 17180.40
344.7215, 17169.18
345.2036, 17148.02
345.6858, 17137.97
346.1679, 17140.60
346.6500, 17157.91
347.1321, 17209.79
347.6142, 17277.08
348.0963, 17298.51
348.5785, 17254.23
349.0606, 17207.30
349.5427, 17212.12
350.0248, 17254.75
350.5069, 17296.27
350.9890, 17338.90
351.4712, 17371.03
351.9533, 17375.30
352.4354, 17357.37
352.9175, 17347.84
353.3996, 17363.29
353.8817, 17393.47
354.3639, 17410.25
354.8460, 17404.03
355.3281, 17407.15
355.8102, 17434.49
356.2923, 17471.44
356.7744, 17497.25
357.2566, 17508.54
357.7387, 17523.30
358.2208, 17565.80
358.7029, 17647.80
359.1850, 17689.58
359.6671, 17655.76
360.1493, 17623.03
360.6314, 17620.54
361.1135, 17646.29
361.5956, 17697.56
362.0777, 17777.58
362.5598, 17865.97
363.0420, 17884.67
363.5241, 17776.07
364.0062, 17688.23
364.4883, 17660.13
364.9704, 17644.45
365.4525, 17597.32
365.9347, 17511.49
366.4168, 17417.41
366.8989, 17345.04
367.3810, 17293.73
367.8631, 17267.67
368.3452, 17284.61
368.8274, 17306.89
369.3095, 17319.19
369.7916, 17321.73
370.2737, 17314.38
370.7558, 17285.88
371.2379, 17256.63
371.7201, 17272.19
372.2022, 17339.15
372.6843, 17385.57
373.1664, 17363.64
373.6485, 17314.05
374.1306, 17298.52
374.6128, 17323.92
375.0949, 17364.99
375.5770, 17430.87
376.0591, 17499.34
376.5412, 17514.87
377.0233, 17460.63
377.5055, 17396.94
377.9876, 17389.98
378.4697, 17447.46
378.9518, 17477.28
379.4339, 17457.21
379.9160, 17428.21
380.3982, 17412.45
380.8803, 17407.87
381.3624, 17408.19
381.8445, 17411.88
382.3266, 17411.58
382.8087, 17384.01
383.2909, 17287.57
383.7730, 17218.49
384.2551, 17193.64
384.7372, 17186.96
385.2193, 17179.79
385.7014, 17167.84
386.1836, 17154.32
386.6657, 17142.38
387.1478, 17132.12
387.6299, 17122.88
388.1120, 17120.48
388.5941, 17111.85
389.0763, 17088.90
389.5584, 17058.13
390.0405, 17027.47
390.5226, 16997.19
391.0047, 16976.86
391.4868, 16986.83
391.9690, 17030.77
392.4511, 17069.12
392.9332, 17084.30
393.4153, 17096.56
393.8974, 17131.12
394.3795, 17187.76
394.8617, 17229.94
395.3438, 17227.77
395.8259, 17203.88
396.3080, 17199.85
396.7901, 17220.60
397.2722, 17234.69
397.7544, 17213.12
398.2365, 17166.27
398.7186, 17149.10
399.2007, 17185.21
399.6828, 17223.87
400.1649, 17243.75
400.6471, 17253.69
401.1292, 17270.99
401.6113, 17301.48
402.0934, 17332.62
402.5755, 17345.48
403.0576, 17332.79
403.5398, 17322.85
404.0219, 17328.12
404.5040, 17324.22
404.9861, 17285.48
405.4682, 17226.62
405.9503, 17186.74
406.4325, 17193.62
406.9146, 17230.76
407.3967, 17239.14
407.8788, 17207.18
408.3609, 17169.38
408.8430, 17109.09
409.3252, 17060.98
409.8073, 17062.85
410.2894, 17117.10
410.7715, 17175.47
411.2536, 17202.62
411.7357, 17200.02
412.2179, 17164.18
412.7000, 17074.03
413.1821, 17001.19
413.6642, 17022.89
414.1463, 17095.76
414.6284, 17133.24
415.1106, 17096.45
415.5927, 17048.25
416.0748, 17035.66
416.5569, 17049.35
417.0390, 17063.38
417.5211, 17071.07
418.0033, 17067.63
418.4854, 17041.84
418.9675, 16981.20
419.4496, 16942.14
419.9317, 16948.67
420.4138, 16959.48
420.8960, 16942.34
421.3781, 16903.49
421.8602, 16870.63
422.3423, 16862.41
422.8244, 16872.15
423.3065, 16871.10
423.7887, 16854.15
424.2708, 16833.58
424.7529, 16804.11
425.2350, 16776.23
425.7171, 16756.79
426.1992, 16747.50
426.6814, 16748.73
427.1635, 16769.66
427.6456, 16807.04
428.1277, 16818.40
428.6098, 16795.39
429.0919, 16762.05
429.5741, 16711.30
430.0562, 16663.31
430.5383, 16654.66
431.0204, 16709.13
431.5025, 16771.57
431.9846, 16802.17
432.4668, 16803.83
432.9489, 16779.23
433.4310, 16720.92
433.9131, 16664.64
434.3952, 16658.01
434.8773, 16707.37
435.3595, 16741.70
435.8416, 16751.26
436.3237, 16750.19
436.8058, 16743.15
437.2879, 16732.64
437.7701, 16722.05
438.2522, 16712.83
438.7343, 16706.35
439.2164, 16707.51
439.6985, 16731.06
440.1806, 16735.11
440.6628, 16701.60
441.1449, 16665.04
441.6270, 16648.70
442.1091, 16651.07
442.5912, 16656.28
443.0733, 16653.58
443.5555, 16643.99
444.0376, 16630.51
444.5197, 16611.48
445.0018, 16593.19
445.4839, 16574.00
445.9660, 16558.88
446.4482, 16553.34
446.9303, 16558.47
447.4124, 16570.06
447.8945, 16593.02
448.3766, 16619.17
448.8587, 16630.53
449.3409, 16624.31
449.8230, 16610.07
450.3051, 16595.66
450.7872, 16579.77
451.2693, 16553.25
451.7514, 16488.38
452.2336, 16445.76
452.7157, 16461.82
453.1978, 16506.26
453.6799, 16538.35
454.1620, 16545.96
454.6441, 16540.97
455.1263, 16539.10
455.6084, 16542.79
456.0905, 16535.79
456.5726, 16510.07
457.0547, 16481.36
457.5368, 16445.31
458.0190, 16411.53
458.5011, 16396.03
458.9832, 16407.25
459.4653, 16430.87
459.9474, 16449.57
460.4295, 16463.33
460.9117, 16468.29
461.3938, 16460.50
461.8759, 16447.83
462.3580, 16435.61
462.8401, 16424.17
463.3222, 16415.69
463.8044, 16409.66
464.2865, 16407.65
464.7686, 16415.48
465.2507, 16429.64
465.7328, 16434.24
466.2149, 16420.32
466.6971, 16400.73
467.1792, 16401.93
467.6613, 16443.51
468.1434, 16464.16
468.6255, 16454.11
469.1076, 16432.16
469.5898, 16395.52
470.0719, 16356.40
470.5540, 16346.68
471.0361, 16391.79
471.5182, 16465.20
472.0003, 16483.42
472.4825, 16418.80
472.9646, 16374.09
473.4467, 16402.48
473.9288, 16435.17
474.4109, 16419.71
474.8930, 16358.66
475.3752, 16304.41
475.8573, 16296.35
476.3394, 16310.48
476.8215, 16303.15
477.3036, 16273.18
477.7857, 16246.62
478.2679, 16234.67
478.7500, 16235.85
479.2321, 16249.63
479.7142, 16285.29
480.1963, 16308.63
480.6784, 16305.38
481.1606, 16292.29
481.6427, 16283.23
482.1248, 16279.63
482.6069, 16277.87
483.0890, 16275.76
483.5711, 16272.55
484.0533, 16263.49
484.5354, 16243.76
485.0175, 16225.95
485.4996, 16208.40
485.9817, 16195.57
486.4638, 16193.72
486.9460, 16202.08
487.4281, 16210.75
487.9102, 16213.95
488.3923, 16211.44
488.8744, 16199.64
489.3565, 16176.18
489.8387, 16157.01
490.3208, 16149.25
490.8029, 16151.89
491.2850, 16163.92
491.7671, 16193.27
492.2492, 16209.29
492.7314, 16187.17
493.2135, 16154.31
493.6956, 16144.44
494.1777, 16158.79
494.6598, 16174.51
495.1419, 16173.80
495.6241, 16159.80
496.1062, 16153.24
496.5883, 16166.77
497.0704, 16169.79
497.5525, 16154.05
498.0346, 16130.80
498.5168, 16103.24
498.9989, 16075.35
499.4810, 16060.33
499.9631, 16082.33
500.4452, 16125.44
500.9273, 16120.30
501.4095, 16052.10
501.8916, 15998.91
502.3737, 16005.79
502.8558, 16041.16
503.3379, 16052.61
503.8200, 16032.68
504.3022, 16016.62
504.7843, 16017.36
505.2664, 16029.07
505.7485, 16053.13
506.2306, 16085.28
506.7127, 16103.49
507.1949, 16092.15
507.6770, 16056.53
508.1591, 16018.72
508.6412, 15953.80
509.1233, 15925.06
509.6054, 15965.02
510.0876, 16017.93
510.5697, 16044.04
511.0518, 16042.29
511.5339, 16033.53
512.0161, 16029.95
512.4982, 16031.92
512.9803, 16044.06
513.4624, 16069.48
513.9445, 16085.56
514.4266, 16081.96
514.9088, 16066.89
515.3909, 16047.85
515.8730, 16023.49
516.3551, 16011.30
516.8372, 16032.61
517.3193, 16056.53
517.8015, 16046.43
518.2836, 16010.27
518.7657, 15988.29
519.2478, 16003.63
519.7299, 16037.91
520.2120, 16046.50
520.6942, 16011.55
521.1763, 15984.54
521.6584, 15959.18
522.1405, 15946.49
522.6226, 15958.33
523.1047, 15987.76
523.5869, 16020.46
524.0690, 16054.80
524.5511, 16075.94
525.0332, 16042.63
525.5153, 15955.46
525.9974, 15915.30
526.4796, 15969.08
526.9617, 16039.42
527.4438, 16028.53
527.9259, 15948.54
528.4080, 15908.76
528.8901, 15967.78
529.3723, 16028.13
529.8544, 16015.80
530.3365, 15966.27
530.8186, 15958.09
531.3007, 16016.88
531.7828, 16091.32
532.2650, 16107.37
532.7471, 16052.71
533.2292, 16016.81
533.7113, 16013.56
534.1934, 16013.84
534.6755, 16013.71
535.1577, 16009.94
535.6398, 15997.81
536.1219, 15975.40
536.6040, 15949.40
537.0861, 15924.82
537.5682, 15901.67
538.0504, 15880.47
538.5325, 15861.63
539.0146, 15842.29
539.4967, 15817.80
539.9788, 15791.54
540.4609, 15780.41
540.9431, 15800.84
541.4252, 15812.01
541.9073, 15791.41
542.3894, 15767.12
542.8715, 15772.02
543.3536, 15804.36
543.8358, 15831.75
544.3179, 15824.57
544.8000, 15795.44
545.2821, 15805.82
545.7642, 15878.24
546.2463, 15928.48
546.7285, 15927.66
547.2106, 15901.22
547.6927, 15857.38
548.1748, 15800.21
548.6569, 15758.85
549.1390, 15755.17
549.6211, 15767.54
550.1032, 15773.56
550.5853, 15774.67
551.0674, 15782.20
551.5496, 15802.53
552.0317, 15821.90
552.5138, 15817.12
552.9959, 15779.45
553.4780, 15746.53
553.9601, 15720.07
554.4423, 15695.62
554.9244, 15674.36
555.4065, 15653.01
555.8886, 15621.17
556.3707, 15574.13
556.8528, 15537.94
557.3350, 15552.70
557.8171, 15611.42
558.2992, 15659.70
558.7813, 15695.59
559.2634, 15710.90
559.7455, 15690.78
560.2277, 15646.32
560.7098, 15615.71
561.1919, 15609.96
561.6740, 15599.15
562.1561, 15561.71
562.6382, 15522.06
563.1204, 15509.54
563.6025, 15523.62
564.0846, 15543.75
564.5667, 15557.46
565.0488, 15561.11
565.5309, 15534.82
566.0131, 15455.08
566.4952, 15404.92
566.9773, 15426.22
567.4594, 15459.68
567.9415, 15470.27
568.4236, 15459.87
568.9058, 15446.24
569.3879, 15432.06
569.8700, 15422.17
570.3521, 15426.87
570.8342, 15440.61
571.3163, 15442.88
571.7985, 15426.64
572.2806, 15405.24
572.7627, 15395.84
573.2448, 15400.80
573.7269, 15394.76
574.2090, 15351.55
574.6912, 15329.01
575.1733, 15366.13
575.6554, 15418.56
576.1375, 15432.41
576.6196, 15397.88
577.1017, 15354.78
577.5839, 15336.96
578.0660, 15339.46
578.5481, 15349.12
579.0302, 15367.28
579.5123, 15378.08
579.9944, 15370.30
580.4766, 15354.39
580.9587, 15352.08
581.4408, 15367.43
581.9229, 15376.66
582.4050, 15378.63
582.8871, 15371.62
583.3693, 15345.09
583.8514, 15309.86
584.3335, 15287.98
584.8156, 15289.76
585.2977, 15305.83
585.7798, 15327.07
586.2620, 15355.67
586.7441, 15359.82
587.2262, 15320.79
587.7083, 15285.59
588.1904, 15288.18
588.6725, 15310.24
589.1547, 15321.65
589.6368, 15313.86
590.1189, 15307.62
590.6010, 15318.18
591.0831, 15333.06
591.5652, 15335.27
592.0474, 15324.68
592.5295, 15311.95
593.0116, 15304.14
593.4937, 15299.21
593.9758, 15288.14
594.4579, 15257.67
594.9401, 15252.77
595.4222, 15307.91
595.9043, 15361.62
596.3864, 15374.88
596.8685, 15362.34
597.3506, 15366.02
597.8328, 15411.88
598.3149, 15458.12
598.7970, 15459.16
599.2791, 15431.82
599.7612, 15418.92
600.2433, 15428.67
600.7255, 15450.11
601.2076, 15474.96
601.6897, 15503.14
602.1718, 15534.32
602.6539, 15579.51
603.1360, 15612.13
603.6182, 15619.16
604.1003, 15621.84
604.5824, 15641.35
605.0645, 15672.94
605.5466, 15691.98
606.0287, 15682.34
606.5109, 15655.41
606.9930, 15626.02
607.4751, 15594.17
607.9572, 15561.94
608.4393, 15531.17
608.9214, 15493.18
609.4036, 15433.34
609.8857, 15351.52
610.3678, 15301.46
610.8499, 15308.92
611.3320, 15312.44
611.8141, 15291.01
612.2963, 15263.14
612.7784, 15251.49
613.2605, 15255.70
613.7426, 15254.56
614.2247, 15228.64
614.7068, 15188.83
615.1890, 15157.55
615.6711, 15134.28
616.1532, 15137.59
616.6353, 15188.94
617.1174, 15239.35
617.5995, 15218.91
618.0817, 15125.80
618.5638, 15087.71
619.0459, 15158.34
619.5280, 15228.25
620.0101, 15253.46
620.4922, 15255.15
620.9744, 15263.31
621.4565, 15282.38
621.9386, 15293.19
622.4207, 15275.79
622.9028, 15237.53
623.3849, 15209.98
623.8671, 15197.07
624.3492, 15169.48
624.8313, 15104.17
625.3134, 15036.59
625.7955, 15018.42
626.2776, 15046.27
626.7598, 15056.54
627.2419, 15023.72
627.7240, 14989.60
628.2061, 14977.60
628.6882, 14976.77
629.1703, 14969.51
629.6525, 14952.32
630.1346, 14935.33
630.6167, 14928.96
631.0988, 14931.23
631.5809, 14929.46
632.0630, 14920.51
632.5452, 14920.15
633.0273, 14936.31
633.5094, 14960.22
633.9915, 14986.42
634.4736, 15014.33
634.9557, 15029.01
635.4379, 15009.66
635.9200, 14994.91
636.4021, 15018.61
636.8842, 15056.64
637.3663, 15064.66
637.8484, 15035.59
638.3306, 15006.29
638.8127, 15013.42
639.2948, 15052.25
639.7769, 15097.39
640.2590, 15154.54
640.7411, 15197.01
641.2233, 15204.85
641.7054, 15206.45
642.1875, 15231.79
642.6696, 15279.19
643.1517, 15328.97
643.6339, 15377.95
644.1160, 15427.43
644.5981, 15483.92
645.0802, 15539.13
645.5623, 15575.25
646.0444, 15591.41
646.5266, 15610.90
647.0087, 15659.41
647.4908, 15726.69
647.9729, 15758.27
648.4550, 15740.96
648.9371, 15740.23
649.4193, 15776.75
649.9014, 15831.30
650.3835, 15888.86
650.8656, 15948.89
651.3477, 16009.37
651.8298, 16091.79
652.3120, 16150.09
652.7941, 16136.54
653.2762, 16099.02
653.7583, 16107.75
654.2404, 16168.42
654.7225, 16229.58
655.2047, 16246.98
655.6868, 16236.86
656.1689, 16261.01
656.6510, 16330.81
657.1331, 16359.94
657.6152, 16304.85
658.0974, 16241.10
658.5795, 16248.21
659.0616, 16308.37
659.5437, 16342.11
660.0258, 16341.53
660.5079, 16314.66
660.9901, 16248.96
661.4722, 16168.01
661.9543, 16095.93
662.4364, 16034.25
662.9185, 15971.43
663.4006, 15900.43
663.8828, 15821.65
664.3649, 15734.58
664.8470, 15639.05
665.3291, 15539.45
665.8112, 15431.51
666.2933, 15330.04
666.7755, 15243.68
667.2576, 15173.40
667.7397, 15120.43
668.2218, 15115.36
668.7039, 15078.31
669.1860, 14951.28
669.6682, 14821.81
670.1503, 14772.02
670.6324, 14780.13
671.1145, 14766.41
671.5966, 14688.42
672.0787, 14593.59
672.5609, 14552.08
