##NAMES=Borcarite
##RRUFFID=R060591
##IDEAL CHEMISTRY=Ca_4_MgB_4_O_6_(CO_3_)_2_(OH)_6_
##LOCALITY=Fuka mine, Bitchu-cho, Takahashi, Kawakami-gun, Okayama Prefecture, Chugoku Region, Japan
##OWNER=RRUFF
##SOURCE=Michael Scott
##DESCRIPTION=Mass of green indistinct crystals
##STATUS=The identification of this mineral is confirmed by single-crystal X-ray diffraction and chemical analysis.
##URL=rruff.info/R060591
##MEASURED CHEMISTRY=Ca_4.00_(Mg_0.96_Fe_0.04_)_Î£=1_B_4_O_6_(CO_3_)_2_(OH)_6_ ; trace amounts of Mg; B, C, H not measured but assumed by stoichiometry.
151.8681, 94.17746
152.3502, 95.58786
152.8323, 97.00596
153.3145, 98.43311
153.7966, 99.87129
154.2787, 101.3145
154.7608, 102.7746
155.2429, 104.2879
155.7250, 105.9012
156.2072, 107.6231
156.6893, 109.2480
157.1714, 110.6343
157.6535, 112.0767
158.1356, 113.6725
158.6177, 115.4366
159.0999, 117.3784
159.5820, 119.5277
160.0641, 121.9372
160.5462, 124.2772
161.0283, 126.4216
161.5104, 128.5724
161.9926, 130.8361
162.4747, 133.2251
162.9568, 135.8021
163.4389, 138.5934
163.9210, 141.6064
164.4031, 144.9319
164.8853, 148.4746
165.3674, 152.3759
165.8495, 156.8313
166.3316, 161.9684
166.8137, 167.4701
167.2958, 173.5582
167.7780, 179.9795
168.2601, 185.4302
168.7422, 189.9280
169.2243, 193.1207
169.7064, 193.4580
170.1885, 190.3502
170.6707, 184.4530
171.1528, 175.9662
171.6349, 165.2959
172.1170, 153.9596
172.5991, 142.7142
173.0812, 131.5095
173.5634, 121.4715
174.0455, 113.1498
174.5276, 105.6910
175.0097, 98.83270
175.4918, 92.55212
175.9739, 86.98640
176.4561, 82.36486
176.9382, 78.78451
177.4203, 75.77708
177.9024, 73.45162
178.3845, 71.53662
178.8666, 69.99232
179.3488, 68.77473
179.8309, 67.77327
180.3130, 66.84822
180.7951, 65.91541
181.2772, 65.30545
181.7593, 65.18177
182.2415, 65.22874
182.7236, 65.18851
183.2057, 65.00973
183.6878, 64.86032
184.1699, 64.99912
184.6520, 65.57491
185.1342, 66.19389
185.6163, 66.75416
186.0984, 67.39510
186.5805, 68.26197
187.0626, 69.39842
187.5447, 70.76022
188.0269, 72.32848
188.5090, 74.14057
188.9911, 75.96277
189.4732, 77.69980
189.9553, 79.41943
190.4374, 81.27082
190.9196, 83.39260
191.4017, 85.48263
191.8838, 87.11455
192.3659, 88.28782
192.8480, 89.31261
193.3301, 90.23351
193.8123, 91.09437
194.2944, 92.05391
194.7765, 93.11619
195.2586, 94.35234
195.7407, 95.80102
196.2228, 97.46008
196.7050, 99.23800
197.1871, 101.0454
197.6692, 102.8885
198.1513, 104.9115
198.6334, 107.1804
199.1155, 109.6326
199.5977, 112.2000
200.0798, 114.8891
200.5619, 117.7466
201.0440, 120.8481
201.5261, 124.2351
202.0082, 127.7210
202.4904, 131.1698
202.9725, 134.8226
203.4546, 138.7830
203.9367, 143.0836
204.4188, 147.7713
204.9009, 152.8685
205.3831, 158.3373
205.8652, 164.3564
206.3473, 170.9076
206.8294, 177.9417
207.3115, 185.7464
207.7936, 194.1917
208.2758, 202.6462
208.7579, 210.4196
209.2400, 218.5462
209.7221, 223.2735
210.2042, 225.1894
210.6863, 224.0332
211.1685, 219.1478
211.6506, 210.6226
212.1327, 199.6039
212.6148, 187.4665
213.0969, 173.2024
213.5790, 160.2039
214.0612, 147.9283
214.5433, 137.1460
215.0254, 128.4946
215.5075, 122.1505
215.9896, 117.4487
216.4717, 113.5624
216.9539, 110.6055
217.4360, 108.4302
217.9181, 107.1254
218.4002, 106.5484
218.8823, 106.6675
219.3644, 107.4800
219.8466, 108.6977
220.3287, 109.8951
220.8108, 110.9699
221.2929, 112.6467
221.7750, 115.3087
222.2571, 118.5186
222.7393, 121.7232
223.2214, 124.7834
223.7035, 127.9526
224.1856, 131.5730
224.6677, 135.5884
225.1498, 139.7822
225.6320, 144.3489
226.1141, 149.0003
226.5962, 153.2281
227.0783, 156.8919
227.5604, 160.3130
228.0425, 164.1029
228.5247, 168.0743
229.0068, 171.2905
229.4889, 173.0891
229.9710, 173.8800
230.4531, 174.5441
230.9352, 175.1270
231.4174, 175.6455
231.8995, 176.1738
232.3816, 176.6679
232.8637, 176.9780
233.3458, 176.8849
233.8279, 176.5374
234.3101, 176.3717
234.7922, 176.2696
235.2743, 176.6202
235.7564, 177.6250
236.2385, 179.1607
236.7206, 181.0150
237.2028, 183.1036
237.6849, 185.4094
238.1670, 187.8798
238.6491, 190.4043
239.1312, 193.3085
239.6133, 196.8903
240.0955, 200.8672
240.5776, 204.7923
241.0597, 208.3085
241.5418, 211.5762
242.0239, 215.3331
242.5060, 220.0884
242.9882, 224.6678
243.4703, 229.0435
243.9524, 232.9977
244.4345, 236.3586
244.9166, 239.1237
245.3987, 241.1116
245.8809, 241.3959
246.3630, 239.4320
246.8451, 236.1918
247.3272, 232.0643
247.8093, 226.8412
248.2914, 220.1196
248.7736, 211.6152
249.2557, 201.6812
249.7378, 191.8220
250.2199, 181.5399
250.7020, 171.9730
251.1841, 163.3265
251.6663, 155.4748
252.1484, 148.2780
252.6305, 141.6199
253.1126, 135.6715
253.5947, 130.8316
254.0768, 127.8532
254.5590, 125.2859
255.0411, 122.8617
255.5232, 120.8542
256.0053, 119.6591
256.4874, 119.4459
256.9695, 119.8868
257.4517, 120.1904
257.9338, 120.0079
258.4159, 120.1169
258.8980, 120.5749
259.3801, 121.3029
259.8622, 122.2184
260.3444, 123.2927
260.8265, 124.5597
261.3086, 126.0931
261.7907, 128.1994
262.2728, 130.1115
262.7549, 131.3633
263.2371, 132.6464
263.7192, 134.6367
264.2013, 137.5179
264.6834, 141.0173
265.1655, 144.7704
265.6476, 148.8471
266.1298, 153.0393
266.6119, 157.4461
267.0940, 161.9314
267.5761, 166.3080
268.0582, 170.5668
268.5403, 174.8827
269.0225, 179.5543
269.5046, 184.7568
269.9867, 189.3580
270.4688, 193.1701
270.9509, 196.4584
271.4330, 199.4138
271.9152, 202.0622
272.3973, 204.4480
272.8794, 206.7778
273.3615, 209.0038
273.8436, 209.8259
274.3257, 209.2507
274.8079, 207.2529
275.2900, 203.7095
275.7721, 198.6328
276.2542, 192.3622
276.7363, 184.9715
277.2184, 176.4418
277.7006, 167.3574
278.1827, 157.1845
278.6648, 146.9447
279.1469, 137.1774
279.6290, 127.9467
280.1111, 119.4599
280.5933, 111.8630
281.0754, 105.2159
281.5575, 99.19685
282.0396, 93.87348
282.5217, 89.09078
283.0038, 84.77913
283.4860, 80.93244
283.9681, 77.47582
284.4502, 74.39884
284.9323, 71.71590
285.4144, 69.36098
285.8965, 67.37366
286.3787, 65.58803
286.8608, 63.86192
287.3429, 62.25427
287.8250, 60.97721
288.3071, 60.17105
288.7892, 59.64753
289.2714, 59.11514
289.7535, 58.56309
290.2356, 58.08004
290.7177, 57.71664
291.1998, 57.45322
291.6819, 57.24747
292.1641, 57.11646
292.6462, 56.98920
293.1283, 56.78286
293.6104, 56.50726
294.0925, 56.21563
294.5746, 55.93345
295.0568, 55.64952
295.5389, 55.33106
296.0210, 54.95922
296.5031, 54.59900
296.9852, 54.31907
297.4673, 54.09604
297.9495, 53.87013
298.4316, 53.65246
298.9137, 53.41036
299.3958, 53.11089
299.8779, 52.76287
300.3600, 52.30465
300.8422, 51.49904
301.3243, 50.58266
301.8064, 50.00836
302.2885, 50.05643
302.7706, 50.30344
303.2527, 50.24939
303.7349, 49.87292
304.2170, 49.49503
304.6991, 49.25061
305.1812, 49.10312
305.6633, 48.99677
306.1454, 48.91689
306.6276, 48.90113
307.1097, 48.98716
307.5918, 49.17235
308.0739, 49.41914
308.5560, 49.71845
309.0381, 50.07765
309.5203, 50.50828
310.0024, 51.01931
310.4845, 51.52916
310.9666, 51.89328
311.4487, 52.17659
311.9308, 52.72068
312.4130, 53.67521
312.8951, 54.79257
313.3772, 55.83550
313.8593, 56.81831
314.3414, 57.80642
314.8235, 58.80703
315.3057, 59.83905
315.7878, 60.98820
316.2699, 62.30375
316.7520, 63.62283
317.2341, 64.89051
317.7162, 66.07203
318.1984, 67.06626
318.6805, 67.78867
319.1626, 68.32066
319.6447, 68.79794
320.1268, 69.23606
320.6089, 69.54279
321.0911, 69.62990
321.5732, 69.55683
322.0553, 69.38116
322.5374, 69.08775
323.0195, 68.73752
323.5016, 68.40002
323.9838, 68.07381
324.4659, 67.68449
324.9480, 67.04461
325.4301, 66.45424
325.9122, 66.32696
326.3943, 66.76515
326.8765, 67.23102
327.3586, 67.28089
327.8407, 66.99647
328.3228, 66.83642
328.8049, 66.94112
329.2870, 67.15569
329.7692, 67.25166
330.2513, 67.24897
330.7334, 67.44372
331.2155, 68.00252
331.6976, 68.85818
332.1797, 69.90508
332.6619, 71.20089
333.1440, 72.49489
333.6261, 73.61954
334.1082, 74.59084
334.5903, 75.40867
335.0724, 76.04983
335.5546, 76.54114
336.0367, 77.00750
336.5188, 77.48330
337.0009, 77.55952
337.4830, 77.02746
337.9651, 75.88190
338.4473, 74.11272
338.9294, 71.45346
339.4115, 68.58810
339.8936, 66.04021
340.3757, 63.77032
340.8578, 61.55128
341.3400, 59.22995
341.8221, 56.98786
342.3042, 55.06073
342.7863, 53.45340
343.2684, 52.03637
343.7505, 50.77743
344.2327, 49.65937
344.7148, 48.65089
345.1969, 47.75720
345.6790, 46.94004
346.1611, 46.20661
346.6432, 45.54043
347.1254, 44.79880
347.6075, 43.93621
348.0896, 42.98354
348.5717, 41.96517
349.0538, 40.87572
349.5359, 39.80004
350.0181, 38.78389
350.5002, 37.83270
350.9823, 36.94369
351.4644, 36.18052
351.9465, 35.43019
352.4286, 34.57157
352.9108, 33.64167
353.3929, 32.80400
353.8750, 32.15348
354.3571, 31.63718
354.8392, 31.12328
355.3214, 30.62361
355.8035, 30.10308
356.2856, 29.49881
356.7677, 28.87602
357.2498, 28.33199
357.7319, 27.88473
358.2141, 27.57609
358.6962, 27.52486
359.1783, 27.79815
359.6604, 27.89791
360.1425, 27.69345
360.6246, 27.33748
361.1068, 26.92036
361.5889, 26.46424
362.0710, 26.06929
362.5531, 25.83788
363.0352, 25.76634
363.5173, 25.60684
363.9995, 25.19531
364.4816, 24.86455
364.9637, 24.85655
365.4458, 25.06251
365.9279, 25.17474
366.4100, 25.01293
366.8922, 24.69748
367.3743, 24.63235
367.8564, 25.11068
368.3385, 25.40743
368.8206, 25.30521
369.3027, 25.02712
369.7849, 24.81367
370.2670, 24.73531
370.7491, 24.73676
371.2312, 24.74391
371.7133, 24.74880
372.1954, 24.78961
372.6776, 24.88965
373.1597, 25.00273
373.6418, 25.13890
374.1239, 25.27185
374.6060, 25.31519
375.0881, 25.17935
375.5703, 24.87472
376.0524, 24.74568
376.5345, 24.95340
377.0166, 25.14680
377.4987, 25.28297
377.9808, 25.34724
378.4630, 25.27286
378.9451, 25.02688
379.4272, 24.75936
379.9093, 24.84766
380.3914, 25.61357
380.8735, 26.20916
381.3557, 26.60090
381.8378, 26.83501
382.3199, 26.87012
382.8020, 26.74531
383.2841, 26.63247
383.7662, 26.72784
384.2484, 27.05773
384.7305, 27.41489
385.2126, 27.80657
385.6947, 28.22224
386.1768, 28.68592
386.6589, 29.17003
387.1411, 29.62067
387.6232, 30.00047
388.1053, 30.33496
388.5874, 30.67637
389.0695, 30.85445
389.5516, 31.38556
390.0338, 32.60098
390.5159, 34.05421
390.9980, 35.32187
391.4801, 36.29086
391.9622, 37.18563
392.4443, 38.29557
392.9265, 39.63979
393.4086, 40.99800
393.8907, 42.39910
394.3728, 43.74903
394.8549, 44.93417
395.3370, 46.00252
395.8192, 47.12862
396.3013, 48.49946
396.7834, 50.01415
397.2655, 51.28954
397.7476, 52.21293
398.2297, 53.18389
398.7119, 54.39844
399.1940, 55.79143
399.6761, 57.31007
400.1582, 58.97192
400.6403, 60.68803
401.1224, 62.28484
401.6046, 63.79541
402.0867, 65.59953
402.5688, 67.95608
403.0509, 70.50166
403.5330, 72.75317
404.0151, 74.70057
404.4973, 76.76503
404.9794, 79.08389
405.4615, 81.65173
405.9436, 84.54739
406.4257, 87.80066
406.9078, 91.07565
407.3900, 94.11476
407.8721, 96.91587
408.3542, 99.58768
408.8363, 102.4344
409.3184, 104.8769
409.8005, 106.6172
410.2827, 107.6440
410.7648, 107.8816
411.2469, 107.2721
411.7290, 105.9156
412.2111, 103.9530
412.6932, 101.3944
413.1754, 98.36231
413.6575, 94.65765
414.1396, 90.61141
414.6217, 86.41235
415.1038, 82.14827
415.5859, 78.05513
416.0681, 74.34573
416.5502, 71.02782
417.0323, 68.16471
417.5144, 65.76251
417.9965, 63.72166
418.4786, 62.00261
418.9608, 60.61845
419.4429, 59.66037
419.9250, 59.19616
420.4071, 59.02026
420.8892, 58.54743
421.3713, 57.37309
421.8535, 56.52414
422.3356, 56.14600
422.8177, 55.99342
423.2998, 55.94474
423.7819, 55.94545
424.2640, 55.92904
424.7462, 55.81956
425.2283, 55.60864
425.7104, 55.41779
426.1925, 55.08563
426.6746, 54.96471
427.1567, 55.21287
427.6389, 55.72244
428.1210, 56.35691
428.6031, 57.07435
429.0852, 57.79166
429.5673, 58.29460
430.0494, 58.48991
430.5316, 58.81074
431.0137, 59.41407
431.4958, 60.14210
431.9779, 60.90745
432.4600, 61.70341
432.9421, 62.55977
433.4243, 63.60765
433.9064, 64.75782
434.3885, 65.61538
434.8706, 66.11074
435.3527, 66.43822
435.8348, 66.83580
436.3170, 67.13849
436.7991, 67.02210
437.2812, 66.35684
437.7633, 65.31810
438.2454, 64.01215
438.7275, 62.44958
439.2097, 60.73252
439.6918, 58.89007
440.1739, 56.92717
440.6560, 54.78900
441.1381, 52.43920
441.6202, 50.24931
442.1024, 48.45368
442.5845, 46.80378
443.0666, 44.97728
443.5487, 42.95962
444.0308, 41.05873
444.5129, 39.51257
444.9951, 38.30127
445.4772, 37.12711
445.9593, 35.95245
446.4414, 34.85879
446.9235, 33.86991
447.4056, 32.97821
447.8878, 32.15049
448.3699, 31.37744
448.8520, 30.72395
449.3341, 30.31383
449.8162, 30.31615
450.2983, 30.07841
450.7805, 29.51823
451.2626, 28.83525
451.7447, 27.98177
452.2268, 27.08497
452.7089, 26.43652
453.1910, 26.26827
453.6732, 26.43172
454.1553, 26.28804
454.6374, 25.60787
455.1195, 25.00286
455.6016, 24.52801
456.0837, 24.18494
456.5659, 24.00972
457.0480, 23.99408
457.5301, 24.04350
458.0122, 24.09811
458.4943, 24.15582
458.9764, 24.08255
459.4586, 23.77521
459.9407, 23.48445
460.4228, 23.37191
460.9049, 23.35871
461.3870, 23.30270
461.8691, 23.14124
462.3513, 22.93906
462.8334, 22.75341
463.3155, 22.58611
463.7976, 22.47867
464.2797, 22.42241
464.7618, 22.46316
465.2440, 22.71515
465.7261, 23.18615
466.2082, 23.52616
466.6903, 23.53234
467.1724, 23.39190
467.6545, 23.30859
468.1367, 23.30114
468.6188, 23.35210
469.1009, 23.45948
469.5830, 23.61369
470.0651, 23.76875
470.5472, 23.92728
471.0294, 24.08186
471.5115, 24.18691
471.9936, 24.30456
472.4757, 24.57043
472.9578, 25.00110
473.4399, 25.39002
473.9221, 25.46182
474.4042, 25.12605
474.8863, 25.00012
475.3684, 25.18612
475.8505, 25.44495
476.3326, 25.69069
476.8148, 25.94839
477.2969, 26.30089
477.7790, 26.79111
478.2611, 27.31464
478.7432, 27.61520
479.2253, 27.57443
479.7075, 27.64424
480.1896, 27.89033
480.6717, 28.24635
481.1538, 28.74719
481.6359, 29.34705
482.1180, 29.89478
482.6002, 30.24606
483.0823, 30.48307
483.5644, 30.85848
484.0465, 31.40584
484.5286, 31.96520
485.0107, 32.52002
485.4929, 33.01787
485.9750, 33.35749
486.4571, 33.48255
486.9392, 33.67599
487.4213, 34.25780
487.9034, 35.01081
488.3856, 35.41523
488.8677, 35.36619
489.3498, 35.17990
489.8319, 35.15014
490.3140, 35.24146
490.7961, 35.08998
491.2783, 34.56067
491.7604, 33.93317
492.2425, 33.29106
492.7246, 32.64611
493.2067, 32.01470
493.6888, 31.40499
494.1710, 30.79902
494.6531, 30.17880
495.1352, 29.54147
495.6173, 28.89832
496.0994, 28.17637
496.5815, 27.51957
497.0637, 27.03883
497.5458, 26.67766
498.0279, 26.29595
498.5100, 25.80642
498.9921, 25.29008
499.4742, 24.95470
499.9564, 24.86560
500.4385, 24.79614
500.9206, 24.76806
501.4027, 24.70648
501.8848, 24.55260
502.3669, 24.31398
502.8491, 24.04847
503.3312, 23.71009
503.8133, 23.39232
504.2954, 23.42102
504.7775, 23.88486
505.2596, 24.26881
505.7418, 24.23204
506.2239, 24.03429
506.7060, 24.06379
507.1881, 24.38984
507.6702, 24.73120
508.1523, 24.99046
508.6345, 25.16020
509.1166, 25.16456
509.5987, 24.99190
510.0808, 24.89999
510.5629, 25.13404
511.0450, 25.65677
511.5272, 26.02203
512.0093, 26.12587
512.4914, 26.22043
512.9735, 26.37033
513.4556, 26.55719
513.9377, 26.77461
514.4199, 27.01268
514.9020, 27.22188
515.3841, 27.30926
515.8662, 27.22345
516.3483, 27.36813
516.8304, 27.95345
517.3126, 28.55318
517.7947, 28.93250
518.2768, 29.28746
518.7589, 30.00165
519.2410, 31.24985
519.7231, 32.54629
520.2053, 33.10176
520.6874, 32.85115
521.1695, 32.79123
521.6516, 33.08664
522.1337, 33.56407
522.6158, 34.10591
523.0980, 34.71542
523.5801, 35.40629
524.0622, 36.18096
524.5443, 37.03846
525.0264, 37.96294
525.5085, 38.96567
525.9907, 40.09786
526.4728, 41.43390
526.9549, 42.79732
527.4370, 43.88432
527.9191, 44.64167
528.4012, 45.54598
528.8834, 46.64054
529.3655, 47.90037
529.8476, 49.36975
530.3297, 50.99669
530.8118, 52.65036
531.2939, 54.26745
531.7761, 55.83340
532.2582, 57.29539
532.7403, 58.49212
533.2224, 59.88466
533.7045, 61.57764
534.1866, 63.34803
534.6688, 65.07629
535.1509, 66.76820
535.6330, 68.48149
536.1151, 70.24449
536.5972, 72.06751
537.0793, 74.06297
537.5615, 76.31156
538.0436, 78.35167
538.5257, 79.82520
539.0078, 81.18999
539.4899, 82.87937
539.9720, 84.89196
540.4542, 86.85385
540.9363, 88.60136
541.4184, 90.17683
541.9005, 91.62819
542.3826, 92.95951
542.8647, 94.18891
543.3469, 95.33180
543.8290, 96.38185
544.3111, 97.35163
544.7932, 98.40223
545.2753, 99.01994
545.7574, 98.93429
546.2396, 98.52949
546.7217, 98.25465
547.2038, 98.02295
547.6859, 97.32796
548.1680, 95.78898
548.6501, 93.54519
549.1323, 91.20716
549.6144, 88.84975
550.0965, 86.26827
550.5786, 83.23691
551.0607, 80.15116
551.5428, 77.31474
552.0250, 74.73111
552.5071, 72.21756
552.9892, 69.68080
553.4713, 67.09571
553.9534, 64.29449
554.4355, 61.21162
554.9177, 58.24433
555.3998, 55.45097
555.8819, 52.93575
556.3640, 50.81260
556.8461, 49.11643
557.3282, 47.55828
557.8104, 46.11889
558.2925, 44.69349
558.7746, 43.10102
559.2567, 41.35862
559.7388, 39.75912
560.2209, 38.47699
560.7031, 37.44159
561.1852, 36.42286
561.6673, 35.26386
562.1494, 34.34092
562.6315, 33.80615
563.1136, 33.39386
563.5958, 32.95787
564.0779, 32.46402
564.5600, 31.91809
565.0421, 31.32483
565.5242, 30.67862
566.0063, 29.91633
566.4885, 28.93050
566.9706, 28.15443
567.4527, 27.87987
567.9348, 27.71730
568.4169, 27.39116
568.8990, 26.91304
569.3812, 26.47464
569.8633, 26.21738
570.3454, 26.04039
570.8275, 25.81524
571.3096, 25.54080
571.7917, 25.19905
572.2739, 24.74111
572.7560, 24.27247
573.2381, 24.01119
573.7202, 24.03732
574.2023, 23.93744
574.6844, 23.53073
575.1666, 23.10952
575.6487, 22.84735
576.1308, 22.74032
576.6129, 22.71807
577.0950, 22.74117
577.5771, 22.86044
578.0593, 23.28091
578.5414, 24.34631
579.0235, 24.76833
579.5056, 23.79931
579.9877, 22.80594
580.4698, 22.40081
580.9520, 22.45387
581.4341, 22.58357
581.9162, 22.64307
582.3983, 22.65725
582.8804, 22.65361
583.3625, 22.63251
583.8447, 22.59596
584.3268, 22.54020
584.8089, 22.47792
585.2910, 22.39762
585.7731, 22.30885
586.2552, 22.31736
586.7374, 22.47723
587.2195, 22.68966
587.7016, 22.99426
588.1837, 23.29270
588.6658, 23.36209
589.1479, 23.15039
589.6301, 22.91445
590.1122, 22.99058
590.5943, 23.42438
591.0764, 23.73225
591.5585, 23.71373
592.0406, 23.80527
592.5228, 24.22869
593.0049, 24.76048
593.4870, 25.13243
593.9691, 25.27820
594.4512, 25.33253
594.9333, 25.38005
595.4155, 25.43748
595.8976, 25.57630
596.3797, 25.80151
596.8618, 26.10665
597.3439, 26.53463
597.8260, 27.02306
598.3082, 27.42145
598.7903, 27.72044
599.2724, 27.95403
599.7545, 28.00206
600.2366, 28.07120
600.7188, 28.46158
601.2009, 29.13447
601.6830, 29.73827
602.1651, 30.02653
602.6472, 30.09393
603.1293, 30.30321
603.6115, 30.82538
604.0936, 31.17034
604.5757, 31.08946
605.0578, 31.02859
605.5399, 31.31349
606.0220, 31.86802
606.5042, 32.38139
606.9863, 32.64884
607.4684, 32.82779
607.9505, 33.18669
608.4326, 33.72188
608.9147, 34.26057
609.3969, 34.77942
609.8790, 35.24827
610.3611, 35.60360
610.8432, 35.85872
611.3253, 36.15831
611.8074, 36.58755
612.2896, 36.99179
612.7717, 37.20340
613.2538, 37.35913
613.7359, 37.73248
614.2180, 38.39128
614.7001, 39.10780
615.1823, 39.61579
615.6644, 39.90562
616.1465, 40.17513
616.6286, 40.27028
617.1107, 40.56720
617.5928, 41.35519
618.0750, 42.26374
618.5571, 42.87688
619.0392, 43.12431
619.5213, 43.34028
620.0034, 43.72438
620.4855, 44.26904
620.9677, 45.05412
621.4498, 46.09363
621.9319, 46.95848
622.4140, 47.41038
622.8961, 47.58837
623.3782, 47.75877
623.8604, 47.88826
624.3425, 48.11333
624.8246, 48.49062
625.3067, 48.92964
625.7888, 49.38979
626.2709, 49.85969
626.7531, 50.34752
627.2352, 50.85583
627.7173, 51.34964
628.1994, 51.75030
628.6815, 52.03918
629.1636, 52.35009
629.6458, 52.78158
630.1279, 53.10884
630.6100, 53.13084
631.0921, 53.00712
631.5742, 53.04389
632.0563, 53.38050
632.5385, 53.69359
633.0206, 53.66414
633.5027, 53.46799
633.9848, 53.49778
634.4669, 53.80459
634.9490, 54.08624
635.4312, 54.11519
635.9133, 53.94643
636.3954, 53.83922
636.8775, 53.85787
637.3596, 53.85487
637.8417, 53.74141
638.3239, 53.67381
638.8060, 53.76023
639.2881, 53.99570
639.7702, 54.35358
640.2523, 54.86615
640.7344, 55.36658
641.2166, 55.44524
641.6987, 55.07601
642.1808, 54.91191
642.6629, 55.18258
643.1450, 55.52140
643.6271, 55.56588
644.1093, 55.39706
