##NAMES=Borcarite
##RRUFFID=R110094
##IDEAL CHEMISTRY=Ca_4_MgB_4_O_6_(CO_3_)_2_(OH)_6_
##LOCALITY=Inner Mongolia, China
##OWNER=RRUFF
##SOURCE=Rob Lavinsky
##DESCRIPTION=Light bluish-green tabular crystals associated with white cahnite (R110095)
##STATUS=The identification of this mineral has been confirmed by single-crystal X-ray diffraction.
##URL=rruff.info/R110094
135.3290, 9.584031
135.8112, 10.38895
136.2933, 11.13590
136.7754, 11.71449
137.2575, 11.76443
137.7396, 11.18053
138.2217, 10.53701
138.7039, 10.24579
139.1860, 10.38318
139.6681, 10.28354
140.1502, 9.726686
140.6323, 8.900940
141.1144, 8.683175
141.5966, 9.315861
142.0787, 10.09589
142.5608, 10.48769
143.0429, 10.38476
143.5250, 10.19104
144.0071, 9.946669
144.4893, 9.655047
144.9714, 9.316482
145.4535, 8.780424
145.9356, 8.347924
146.4177, 8.302389
146.8998, 8.695220
147.3820, 9.391741
147.8641, 10.42063
148.3462, 11.81427
148.8283, 13.28994
149.3104, 15.05039
149.7925, 16.80432
150.2747, 18.23696
150.7568, 18.70707
151.2389, 19.48047
151.7210, 20.93806
152.2031, 23.35938
152.6852, 25.54141
153.1674, 27.23005
153.6495, 28.73471
154.1316, 30.51372
154.6137, 32.88321
155.0958, 35.28962
155.5779, 37.46909
156.0601, 39.04681
156.5422, 41.22064
157.0243, 44.47833
157.5064, 48.42241
157.9885, 52.28314
158.4706, 56.31999
158.9528, 59.92553
159.4349, 62.74181
159.9170, 64.24780
160.3991, 65.79238
160.8812, 67.50091
161.3633, 69.49380
161.8455, 72.08703
162.3276, 76.00398
162.8097, 80.16330
163.2918, 83.93363
163.7739, 86.79346
164.2560, 89.71192
164.7382, 93.07133
165.2203, 96.82637
165.7024, 100.8033
166.1845, 104.8721
166.6666, 109.1659
167.1487, 113.7697
167.6309, 119.0383
168.1130, 124.3488
168.5951, 129.8713
169.0772, 135.3909
169.5593, 139.4167
170.0414, 141.7430
170.5236, 141.8749
171.0057, 139.1745
171.4878, 131.8927
171.9699, 122.8634
172.4520, 114.0319
172.9341, 105.3895
173.4163, 97.35064
173.8984, 89.76420
174.3805, 82.98156
174.8626, 77.78291
175.3447, 75.21677
175.8268, 73.84899
176.3090, 72.03838
176.7911, 69.79382
177.2732, 67.83237
177.7553, 66.43096
178.2374, 65.48559
178.7195, 65.06546
179.2017, 65.83171
179.6838, 66.91525
180.1659, 66.86095
180.6480, 65.61917
181.1301, 64.04097
181.6122, 62.72896
182.0944, 61.70002
182.5765, 61.04811
183.0586, 60.70812
183.5407, 60.76731
184.0228, 61.64476
184.5049, 63.46553
184.9871, 65.31786
185.4692, 65.86154
185.9513, 65.33853
186.4334, 65.01385
186.9155, 65.39806
187.3976, 66.42958
187.8798, 68.01628
188.3619, 70.21203
188.8440, 72.68457
189.3261, 74.72556
189.8082, 76.41844
190.2903, 78.67888
190.7725, 82.11243
191.2546, 86.60539
191.7367, 91.28969
192.2188, 96.20328
192.7009, 101.1429
193.1830, 105.7687
193.6652, 110.0700
194.1473, 113.9689
194.6294, 117.3900
195.1115, 120.3412
195.5936, 122.7842
196.0757, 124.5953
196.5579, 126.1165
197.0400, 127.9131
197.5221, 129.9748
198.0042, 132.3728
198.4863, 135.2169
198.9684, 138.4975
199.4506, 141.9913
199.9327, 145.6646
200.4148, 149.5116
200.8969, 153.4881
201.3790, 157.6409
201.8611, 161.8817
202.3433, 165.7882
202.8254, 169.1878
203.3075, 174.4194
203.7896, 181.9644
204.2717, 191.0822
204.7538, 199.8327
205.2360, 208.0783
205.7181, 216.4602
206.2002, 225.4505
206.6823, 235.1675
207.1644, 244.8657
207.6465, 255.0030
208.1287, 264.7881
208.6108, 272.6297
209.0929, 279.1843
209.5750, 282.0606
210.0571, 279.8823
210.5392, 272.5975
211.0214, 260.3738
211.5035, 241.7817
211.9856, 218.8027
212.4677, 197.1389
212.9498, 176.0858
213.4319, 157.7893
213.9140, 143.6140
214.3962, 134.2512
214.8783, 126.4616
215.3604, 120.0973
215.8425, 115.0957
216.3246, 111.5617
216.8067, 109.7027
217.2889, 108.8276
217.7710, 108.5117
218.2531, 108.7128
218.7352, 109.6093
219.2173, 111.3006
219.6994, 113.7172
220.1816, 116.4620
220.6637, 119.7093
221.1458, 123.0497
221.6279, 126.0974
222.1100, 128.5291
222.5921, 131.6082
223.0743, 135.6218
223.5564, 140.3634
224.0385, 145.0559
224.5206, 149.4184
225.0027, 154.0090
225.4848, 159.2117
225.9670, 165.2396
226.4491, 171.2924
226.9312, 177.4463
227.4133, 183.5940
227.8954, 189.5575
228.3775, 195.3198
228.8597, 200.7617
229.3418, 205.8122
229.8239, 210.7023
230.3060, 214.6110
230.7881, 217.1653
231.2702, 218.6475
231.7524, 220.3096
232.2345, 222.3125
232.7166, 224.2266
233.1987, 225.7085
233.6808, 226.3697
234.1629, 227.4245
234.6451, 228.9131
235.1272, 230.8482
235.6093, 233.3746
236.0914, 236.8103
236.5735, 240.3972
237.0556, 243.6482
237.5378, 246.1254
238.0199, 249.2204
238.5020, 253.0022
238.9841, 257.4733
239.4662, 262.5306
239.9483, 268.4253
240.4305, 274.5854
240.9126, 280.7948
241.3947, 287.1312
241.8768, 293.3992
242.3589, 299.7900
242.8410, 306.0812
243.3232, 311.7454
243.8053, 317.4452
244.2874, 321.5516
244.7695, 323.2722
245.2516, 322.6384
245.7337, 319.6120
246.2159, 314.2036
246.6980, 306.3553
247.1801, 295.9810
247.6622, 282.4846
248.1443, 267.2089
248.6264, 250.6665
249.1086, 231.7910
249.5907, 213.9311
250.0728, 197.0362
250.5549, 181.2178
251.0370, 166.7507
251.5191, 153.5267
252.0013, 141.7991
252.4834, 131.5958
252.9655, 123.2332
253.4476, 115.8319
253.9297, 109.4162
254.4118, 103.9635
254.8940, 99.34647
255.3761, 95.79611
255.8582, 92.65238
256.3403, 89.60926
256.8224, 86.47783
257.3046, 84.11919
257.7867, 82.74937
258.2688, 82.03025
258.7509, 81.29905
259.2330, 80.40069
259.7151, 79.82095
260.1973, 79.85555
260.6794, 80.71788
261.1615, 81.20174
261.6436, 81.13538
262.1257, 80.83577
262.6078, 80.85217
263.0900, 81.30013
263.5721, 81.78660
264.0542, 82.10413
264.5363, 82.16855
265.0184, 82.72824
265.5005, 83.99043
265.9827, 85.51663
266.4648, 86.58394
266.9469, 86.87200
267.4290, 87.62984
267.9111, 89.44023
268.3932, 92.39227
268.8754, 94.82313
269.3575, 96.73380
269.8396, 98.11892
270.3217, 98.95649
270.8038, 99.26114
271.2859, 98.93497
271.7681, 97.79764
272.2502, 95.88545
272.7323, 94.12778
273.2144, 92.61533
273.6965, 91.13271
274.1786, 89.62422
274.6608, 88.21041
275.1429, 85.97865
275.6250, 82.40156
276.1071, 77.74523
276.5892, 73.95242
277.0714, 71.27225
277.5535, 68.91683
278.0356, 66.03624
278.5177, 62.52837
278.9998, 59.57653
279.4819, 57.54416
279.9641, 56.21778
280.4462, 54.75633
280.9283, 53.11384
281.4104, 51.51436
281.8925, 50.10480
282.3746, 48.88556
282.8568, 47.83053
283.3389, 46.95344
283.8210, 46.22467
284.3031, 45.54160
284.7852, 44.89119
285.2673, 44.38799
285.7495, 44.22019
286.2316, 44.35005
286.7137, 44.25118
287.1958, 43.81244
287.6779, 43.18166
288.1600, 42.64230
288.6422, 42.19488
289.1243, 41.77719
289.6064, 41.24877
290.0885, 40.67927
290.5706, 40.52345
291.0527, 40.89954
291.5349, 41.50727
292.0170, 41.95924
292.4991, 42.24635
292.9812, 42.31653
293.4633, 41.83169
293.9454, 41.07712
294.4276, 41.13768
294.9097, 42.21706
295.3918, 43.45547
295.8739, 43.66653
296.3560, 43.03205
296.8381, 42.41989
297.3203, 42.26113
297.8024, 42.40630
298.2845, 42.57854
298.7666, 42.77760
299.2487, 42.96130
299.7308, 42.99955
300.2130, 42.97655
300.6951, 43.13709
301.1772, 43.79907
301.6593, 44.59064
302.1414, 44.89856
302.6235, 44.73106
303.1057, 44.56038
303.5878, 44.86657
304.0699, 45.43878
304.5520, 45.86496
305.0341, 45.79753
305.5162, 45.72314
305.9984, 46.37946
306.4805, 47.63222
306.9626, 48.60443
307.4447, 48.25462
307.9268, 47.39629
308.4089, 47.11138
308.8911, 47.88119
309.3732, 48.98127
309.8553, 50.02906
310.3374, 50.97108
310.8195, 51.64344
311.3016, 51.52370
311.7838, 51.30300
312.2659, 51.67737
312.7480, 53.02499
313.2301, 54.38868
313.7122, 55.23893
314.1943, 55.70324
314.6765, 56.02937
315.1586, 56.04895
315.6407, 56.16142
316.1228, 56.66002
316.6049, 57.65057
317.0870, 58.72656
317.5692, 59.78205
318.0513, 60.79088
318.5334, 61.70944
319.0155, 62.60626
319.4976, 63.34072
319.9797, 63.86505
320.4619, 64.17991
320.9440, 64.23501
321.4261, 64.06721
321.9082, 63.60996
322.3903, 62.79858
322.8724, 61.08178
323.3546, 59.55040
323.8367, 58.63356
324.3188, 58.30626
324.8009, 57.72914
325.2830, 56.52356
325.7651, 55.18501
326.2473, 54.03718
326.7294, 53.35514
327.2115, 52.58401
327.6936, 51.48112
328.1757, 50.18472
328.6578, 49.33456
329.1400, 49.54311
329.6221, 49.69202
330.1042, 49.25275
330.5863, 47.32261
331.0684, 46.31474
331.5505, 46.71237
332.0327, 47.94537
332.5148, 48.75160
332.9969, 48.88874
333.4790, 48.92020
333.9611, 49.05978
334.4432, 49.38961
334.9254, 49.45249
335.4075, 49.03094
335.8896, 48.52250
336.3717, 48.58168
336.8538, 49.59902
337.3359, 50.21906
337.8180, 49.92565
338.3001, 48.74144
338.7823, 48.04896
339.2644, 48.07914
339.7465, 48.16277
340.2286, 47.57220
340.7107, 46.18541
341.1928, 44.87379
341.6750, 43.79459
342.1571, 42.92900
342.6392, 42.30259
343.1213, 41.93657
343.6034, 41.66897
344.0855, 41.45496
344.5677, 41.28682
345.0498, 40.83590
345.5319, 39.92933
346.0140, 38.94915
346.4961, 38.81604
346.9782, 39.49141
347.4604, 39.98802
347.9425, 39.52805
348.4246, 38.39927
348.9067, 37.67879
349.3888, 37.45832
349.8709, 37.46934
350.3531, 37.58228
350.8352, 37.70564
351.3173, 37.50122
351.7994, 36.34656
352.2815, 34.92970
352.7636, 34.54688
353.2458, 35.19709
353.7279, 35.97084
354.2100, 36.16854
354.6921, 35.95500
355.1742, 35.59994
355.6563, 35.05866
356.1385, 34.54209
356.6206, 34.18956
357.1027, 34.01277
357.5848, 34.07323
358.0669, 34.81924
358.5490, 35.61373
359.0312, 35.77536
359.5133, 34.90721
359.9954, 34.00169
360.4775, 33.66785
360.9596, 33.71273
361.4417, 33.73060
361.9239, 33.67799
362.4060, 33.46098
362.8881, 32.87967
363.3702, 31.76907
363.8523, 31.08533
364.3344, 31.48841
364.8166, 32.35996
365.2987, 32.99978
365.7808, 33.18056
366.2629, 33.16102
366.7450, 32.93760
367.2271, 32.51508
367.7093, 32.13383
368.1914, 31.64055
368.6735, 31.30989
369.1556, 31.32570
369.6377, 32.20882
370.1198, 32.78807
370.6020, 32.86966
371.0841, 32.59433
371.5662, 32.49709
372.0483, 32.91725
372.5304, 33.10083
373.0125, 32.59930
373.4947, 30.87318
373.9768, 30.08541
374.4589, 30.64429
374.9410, 31.80542
375.4231, 32.34315
375.9052, 32.04467
376.3874, 31.73697
376.8695, 31.70079
377.3516, 31.92564
377.8337, 31.94824
378.3158, 31.74003
378.7979, 31.41603
379.2801, 30.98930
379.7622, 30.43696
380.2443, 30.26708
380.7264, 30.74553
381.2085, 31.52784
381.6906, 31.54805
382.1728, 30.78927
382.6549, 30.13017
383.1370, 30.33664
383.6191, 31.17789
384.1012, 31.71310
384.5833, 31.80510
385.0655, 31.73607
385.5476, 31.86695
386.0297, 32.15473
386.5118, 32.43787
386.9939, 32.60190
387.4760, 32.73245
387.9582, 32.98883
388.4403, 33.37783
388.9224, 33.72860
389.4045, 33.77912
389.8866, 33.73345
390.3687, 33.89341
390.8509, 34.53889
391.3330, 35.22277
391.8151, 35.61578
392.2972, 35.77323
392.7793, 35.92812
393.2614, 36.02846
393.7436, 36.27381
394.2257, 36.87221
394.7078, 38.05341
395.1899, 39.10072
395.6720, 39.58278
396.1541, 39.80071
396.6363, 40.23868
397.1184, 41.15317
397.6005, 42.17606
398.0826, 43.21685
398.5647, 44.27821
399.0468, 45.28223
399.5290, 46.22818
400.0111, 47.10902
400.4932, 47.92030
400.9753, 48.62243
401.4574, 49.31098
401.9395, 49.99294
402.4217, 50.66612
402.9038, 51.27747
403.3859, 51.66460
403.8680, 52.22836
404.3501, 53.16783
404.8322, 54.51826
405.3144, 56.10881
405.7965, 57.96449
406.2786, 60.00704
406.7607, 62.24591
407.2428, 64.80717
407.7249, 66.85162
408.2071, 67.85439
408.6892, 68.04326
409.1713, 68.96249
409.6534, 70.73617
410.1355, 72.54094
410.6176, 73.63944
411.0998, 74.10841
411.5819, 74.35088
412.0640, 74.43762
412.5461, 74.34304
413.0282, 74.12936
413.5103, 73.74727
413.9925, 72.91891
414.4746, 71.28268
414.9567, 69.15083
415.4388, 66.95084
415.9209, 64.67315
416.4030, 62.54980
416.8852, 60.98643
417.3673, 59.64885
417.8494, 57.98974
418.3315, 54.99159
418.8136, 52.25587
419.2957, 50.84237
419.7779, 50.64679
420.2600, 50.85940
420.7421, 51.58775
421.2242, 52.30298
421.7063, 52.55739
422.1884, 51.93073
422.6706, 51.50318
423.1527, 51.56646
423.6348, 51.99990
424.1169, 52.57088
424.5990, 53.42618
425.0811, 54.24729
425.5633, 54.91692
426.0454, 55.40571
426.5275, 55.93788
427.0096, 56.42101
427.4917, 57.02531
427.9738, 57.91113
428.4560, 59.21130
428.9381, 60.51791
429.4202, 61.83453
429.9023, 63.09961
430.3844, 64.14324
430.8665, 64.89863
431.3487, 65.60387
431.8308, 66.25398
432.3129, 66.81496
432.7950, 68.10800
433.2771, 70.39925
433.7592, 72.72005
434.2414, 73.67634
434.7235, 73.37740
435.2056, 73.15478
435.6877, 73.57784
436.1698, 74.23831
436.6519, 74.27551
437.1341, 73.70225
437.6162, 72.81788
438.0983, 71.78600
438.5804, 70.60152
439.0625, 69.31031
439.5446, 67.99271
440.0268, 66.32024
440.5089, 63.76530
440.9910, 60.63382
441.4731, 57.59746
441.9552, 54.73204
442.4373, 52.20470
442.9195, 50.17095
443.4016, 48.62364
443.8837, 47.21016
444.3658, 45.84640
444.8479, 44.51727
445.3300, 43.22398
445.8122, 41.88541
446.2943, 40.67086
446.7764, 39.48587
447.2585, 38.43297
447.7406, 37.77842
448.2227, 38.22423
448.7049, 38.38195
449.1870, 37.68010
449.6691, 35.86982
450.1512, 34.77781
450.6333, 34.80246
451.1154, 35.12498
451.5976, 34.93888
452.0797, 34.06092
452.5618, 33.30980
453.0439, 32.86600
453.5260, 32.60395
454.0081, 32.01339
454.4903, 31.01208
454.9724, 30.20910
455.4545, 30.00089
455.9366, 30.31787
456.4187, 30.74415
456.9008, 31.31181
457.3830, 31.72201
457.8651, 31.36602
458.3472, 30.51083
458.8293, 30.05848
459.3114, 30.49530
459.7935, 31.27178
460.2757, 31.81537
460.7578, 32.12271
461.2399, 32.19753
461.7220, 31.77026
462.2041, 31.26057
462.6862, 31.19235
463.1684, 31.80313
463.6505, 32.11732
464.1326, 31.06119
464.6147, 29.58454
465.0968, 28.90425
465.5789, 30.29178
466.0611, 31.61952
466.5432, 32.22408
467.0253, 32.14605
467.5074, 32.05973
467.9895, 31.88500
468.4716, 31.84705
468.9538, 32.09284
469.4359, 32.89859
469.9180, 33.32700
470.4001, 32.97316
470.8822, 32.52523
471.3643, 33.19771
471.8465, 35.56848
472.3286, 37.35603
472.8107, 37.82740
473.2928, 37.21447
473.7749, 36.88673
474.2570, 36.88966
474.7392, 36.94864
475.2213, 36.70194
475.7034, 36.25585
476.1855, 36.45146
476.6676, 37.50750
477.1497, 38.77045
477.6319, 39.29711
478.1140, 39.27714
478.5961, 39.31742
479.0782, 39.75871
479.5603, 40.35072
480.0424, 40.79036
480.5246, 41.10030
481.0067, 41.44814
481.4888, 41.85079
481.9709, 42.38555
482.4530, 43.17442
482.9352, 44.40079
483.4173, 45.47752
483.8994, 46.17387
484.3815, 46.57652
484.8636, 46.81114
485.3457, 46.40059
485.8279, 46.34263
486.3100, 47.30007
486.7921, 49.26715
487.2742, 50.08005
487.7563, 48.82458
488.2384, 47.35201
488.7206, 46.75140
489.2027, 47.50655
489.6848, 47.83230
490.1669, 47.64371
490.6490, 47.08972
491.1311, 46.42157
491.6133, 45.67590
492.0954, 44.55623
492.5775, 42.69001
493.0596, 40.45366
493.5417, 39.38364
494.0238, 39.49716
494.5060, 39.79097
494.9881, 39.52087
495.4702, 38.86196
495.9523, 38.22734
496.4344, 37.66874
496.9165, 37.15702
497.3987, 36.62952
497.8808, 36.12909
498.3629, 35.74738
498.8450, 35.37414
499.3271, 35.25500
499.8092, 35.85887
500.2914, 37.00197
500.7735, 37.63669
501.2556, 36.95550
501.7377, 35.95557
502.2198, 35.14867
502.7019, 34.46349
503.1841, 34.30105
503.6662, 35.01410
504.1483, 36.15411
504.6304, 37.22575
505.1125, 38.44610
505.5946, 39.21653
506.0768, 39.33265
506.5589, 38.91724
507.0410, 38.59759
507.5231, 38.41758
508.0052, 38.20985
508.4873, 37.75449
508.9695, 37.05156
509.4516, 36.98269
509.9337, 37.67607
510.4158, 38.48710
510.8979, 38.58329
511.3800, 38.12274
511.8622, 37.80916
512.3443, 37.84340
512.8264, 38.09018
513.3085, 38.49517
513.7906, 38.99049
514.2728, 39.33219
514.7549, 39.20925
515.2370, 38.98705
515.7191, 39.02540
516.2012, 39.36788
516.6833, 39.62989
517.1655, 39.49223
517.6476, 39.27307
518.1297, 39.24530
518.6118, 39.60749
519.0939, 39.98754
519.5760, 40.29473
520.0582, 40.58336
520.5403, 40.98369
521.0224, 41.46215
521.5045, 42.09367
521.9866, 42.92289
522.4688, 43.95349
522.9509, 45.02408
523.4330, 46.18377
523.9151, 47.28355
524.3972, 48.17493
524.8793, 48.84813
525.3615, 49.54027
525.8436, 50.23204
526.3257, 51.07259
526.8078, 52.41104
527.2899, 54.13868
527.7720, 55.70677
528.2542, 56.68023
528.7363, 57.52876
529.2184, 58.78612
529.7005, 60.45072
530.1826, 62.57481
530.6647, 65.71644
531.1469, 69.00499
531.6290, 71.69289
532.1111, 73.56255
532.5932, 75.31475
533.0753, 77.03069
533.5574, 78.85841
534.0396, 80.92208
534.5217, 83.41139
535.0038, 85.96641
535.4859, 88.73332
535.9680, 91.55561
536.4501, 93.91492
536.9323, 95.40708
537.4144, 97.12124
537.8965, 99.51158
538.3786, 102.5860
538.8607, 105.5353
539.3428, 108.3604
539.8250, 110.9792
540.3071, 113.3931
540.7892, 115.5393
541.2713, 117.0036
541.7534, 117.5783
542.2355, 117.8122
542.7177, 118.6278
543.1998, 119.7782
543.6819, 120.4537
544.1640, 120.3029
544.6461, 119.4935
545.1282, 118.0000
545.6104, 115.9004
546.0925, 113.6462
546.5746, 111.5724
547.0567, 109.3649
547.5388, 106.7802
548.0209, 103.7396
548.5031, 100.4932
548.9852, 97.06133
549.4673, 93.43998
549.9494, 89.59960
550.4315, 85.16589
550.9136, 81.10221
551.3958, 77.53821
551.8779, 74.38599
552.3600, 71.50330
552.8421, 68.95272
553.3242, 66.38959
553.8063, 63.56572
554.2885, 60.56338
554.7706, 58.12632
555.2527, 56.29819
555.7348, 54.57653
556.2169, 52.37510
556.6990, 49.95398
557.1812, 47.92612
557.6633, 46.40209
558.1454, 45.23536
558.6275, 44.43261
559.1096, 43.87078
559.5917, 43.31498
560.0739, 42.79386
560.5560, 42.14969
561.0381, 41.14803
561.5202, 39.91225
562.0023, 38.94258
562.4844, 38.56819
562.9666, 38.31093
563.4487, 38.01691
563.9308, 37.72802
564.4129, 37.14976
564.8950, 35.98573
565.3771, 34.85581
565.8593, 34.32550
566.3414, 34.56820
566.8235, 34.66885
567.3056, 34.53442
567.7877, 34.22738
568.2698, 33.83581
568.7520, 33.35999
569.2341, 32.84935
569.7162, 32.22303
570.1983, 31.63651
570.6804, 31.43371
571.1625, 31.56904
571.6447, 31.71361
572.1268, 31.40801
572.6089, 31.14907
573.0910, 31.59278
573.5731, 32.93999
574.0552, 33.98173
574.5374, 33.93717
575.0195, 33.45055
575.5016, 33.12547
575.9837, 32.93761
576.4658, 33.09345
576.9479, 33.94782
577.4301, 35.07832
577.9122, 35.61334
578.3943, 35.18428
578.8764, 34.90110
579.3585, 35.08211
579.8406, 35.66943
580.3228, 36.30303
580.8049, 37.00092
581.2870, 37.62461
581.7691, 38.00830
582.2512, 38.23148
582.7333, 38.63421
583.2155, 39.24778
583.6975, 39.94477
584.1796, 40.63466
584.6617, 41.33356
585.1439, 42.08409
585.6260, 42.95489
586.1081, 43.77781
586.5902, 44.29784
587.0723, 44.71616
587.5544, 45.40687
588.0366, 46.84646
588.5187, 48.21620
589.0008, 49.21662
589.4829, 49.85919
589.9650, 50.55437
590.4471, 51.38773
590.9293, 52.16193
591.4114, 52.76125
591.8935, 53.16129
592.3756, 53.62427
592.8577, 54.23023
593.3398, 54.68293
593.8220, 54.59840
594.3041, 54.03995
594.7862, 53.49648
595.2683, 53.05697
595.7504, 52.65907
596.2325, 52.33913
596.7147, 51.99708
597.1968, 51.38139
597.6789, 49.96497
598.1610, 48.57835
598.6431, 47.99492
599.1252, 48.02980
599.6074, 47.80101
600.0895, 46.69594
600.5716, 45.50327
601.0537, 44.68299
601.5358, 44.44104
602.0179, 43.72120
602.5001, 42.09489
602.9822, 40.40034
603.4643, 39.26410
603.9464, 38.79046
604.4285, 38.44342
604.9106, 38.21102
605.3928, 38.05308
605.8749, 37.85096
606.3570, 37.62309
606.8391, 37.64681
607.3212, 38.15507
607.8033, 38.76685
608.2855, 38.89712
608.7676, 38.62374
609.2497, 38.23827
609.7318, 37.76494
610.2139, 37.34473
610.6960, 37.06890
611.1782, 36.94415
611.6603, 36.99729
612.1424, 37.28895
612.6245, 37.72443
613.1066, 38.28628
613.5887, 39.18100
614.0709, 39.71515
614.5530, 39.75196
615.0351, 39.55681
615.5172, 39.41128
615.9993, 39.34666
616.4814, 39.14708
616.9636, 38.69264
617.4457, 38.22289
617.9278, 38.34375
618.4099, 38.98267
618.8920, 39.37778
619.3741, 38.91048
619.8563, 38.24106
620.3384, 38.53803
620.8205, 39.60248
621.3026, 40.44045
621.7847, 40.34556
622.2668, 39.90120
622.7490, 39.38432
623.2311, 38.77801
623.7132, 38.64375
624.1953, 39.47441
624.6774, 40.59782
625.1595, 41.56630
625.6417, 42.45685
626.1238, 43.01306
626.6059, 43.12883
627.0880, 43.02314
627.5701, 42.90889
628.0522, 42.75822
628.5344, 42.92896
629.0165, 43.64346
629.4986, 44.49923
629.9807, 44.57195
630.4628, 44.00830
630.9449, 43.60056
631.4271, 43.82975
631.9092, 44.35260
632.3913, 44.90501
632.8734, 45.45807
