##NAMES=Borcarite
##RRUFFID=R060591
##IDEAL CHEMISTRY=Ca_4_MgB_4_O_6_(CO_3_)_2_(OH)_6_
##LOCALITY=Fuka mine, Bitchu-cho, Takahashi, Kawakami-gun, Okayama Prefecture, Chugoku Region, Japan
##OWNER=RRUFF
##SOURCE=Michael Scott
##DESCRIPTION=Mass of green indistinct crystals
##STATUS=The identification of this mineral is confirmed by single-crystal X-ray diffraction and chemical analysis.
##URL=rruff.info/R060591
##MEASURED CHEMISTRY=Ca_4.00_(Mg_0.96_Fe_0.04_)_Î£=1_B_4_O_6_(CO_3_)_2_(OH)_6_ ; trace amounts of Mg; B, C, H not measured but assumed by stoichiometry.
157.5064, 61.68230
157.9885, 65.82487
158.4706, 69.69091
158.9528, 73.41927
159.4349, 77.01402
159.9170, 80.17856
160.3991, 83.73958
160.8812, 88.22917
161.3633, 93.32744
161.8455, 98.19446
162.3276, 102.0245
162.8097, 105.8159
163.2918, 110.2970
163.7739, 115.8441
164.2560, 121.7538
164.7382, 127.6259
165.2203, 133.5750
165.7024, 140.0396
166.1845, 147.6152
166.6666, 155.6605
167.1487, 163.5662
167.6309, 171.9080
168.1130, 179.4120
168.5951, 185.8012
169.0772, 190.9212
169.5593, 193.5777
170.0414, 192.4163
170.5236, 188.5640
171.0057, 183.3669
171.4878, 176.1227
171.9699, 168.5291
172.4520, 161.8727
172.9341, 156.1152
173.4163, 151.2119
173.8984, 147.1095
174.3805, 143.8173
174.8626, 141.4516
175.3447, 140.6322
175.8268, 140.3932
176.3090, 139.4529
176.7911, 137.8095
177.2732, 136.5365
177.7553, 136.1516
178.2374, 136.2337
178.7195, 136.4559
179.2017, 136.7592
179.6838, 137.1212
180.1659, 137.5346
180.6480, 138.0136
181.1301, 138.4485
181.6122, 138.5917
182.0944, 138.5730
182.5765, 138.8137
183.0586, 139.6743
183.5407, 140.8877
184.0228, 141.9089
184.5049, 142.6953
184.9871, 143.4301
185.4692, 144.1384
185.9513, 144.8909
186.4334, 146.0601
186.9155, 148.0007
187.3976, 150.5125
187.8798, 152.9567
188.3619, 155.2748
188.8440, 157.6180
189.3261, 159.9766
189.8082, 162.4004
190.2903, 165.3424
190.7725, 169.0533
191.2546, 173.5257
191.7367, 178.6210
192.2188, 184.5816
192.7009, 190.5740
193.1830, 194.9521
193.6652, 197.7025
194.1473, 200.1808
194.6294, 203.2776
195.1115, 206.8938
195.5936, 209.5796
196.0757, 211.0052
196.5579, 211.9063
197.0400, 213.6362
197.5221, 216.2235
198.0042, 219.2560
198.4863, 222.6964
198.9684, 226.5379
199.4506, 230.1497
199.9327, 233.3489
200.4148, 236.4252
200.8969, 239.9284
201.3790, 243.8994
201.8611, 248.2507
202.3433, 252.8719
202.8254, 257.7296
203.3075, 263.2389
203.7896, 269.3304
204.2717, 276.0965
204.7538, 283.7000
205.2360, 292.1222
205.7181, 301.4120
206.2002, 311.7198
206.6823, 323.1505
207.1644, 334.9745
207.6465, 347.4997
208.1287, 360.1527
208.6108, 372.1479
209.0929, 384.3089
209.5750, 393.6188
210.0571, 398.7433
210.5392, 400.2635
211.0214, 395.0416
211.5035, 381.6190
211.9856, 361.7484
212.4677, 340.2156
212.9498, 315.7249
213.4319, 292.3651
213.9140, 272.2070
214.3962, 255.2989
214.8783, 241.3735
215.3604, 230.8702
215.8425, 223.2834
216.3246, 217.1224
216.8067, 212.4284
217.2889, 208.9454
217.7710, 206.5372
218.2531, 205.3269
218.7352, 204.8053
219.2173, 204.9495
219.6994, 205.7450
220.1816, 207.0854
220.6637, 208.9902
221.1458, 211.4178
221.6279, 214.3759
222.1100, 218.0798
222.5921, 221.7757
223.0743, 225.2919
223.5564, 228.7451
224.0385, 232.8680
224.5206, 237.5897
225.0027, 242.9372
225.4848, 249.0175
225.9670, 256.1079
226.4491, 263.1712
226.9312, 270.2326
227.4133, 277.2199
227.8954, 284.1884
228.3775, 291.1950
228.8597, 297.9113
229.3418, 304.1163
229.8239, 309.9660
230.3060, 314.8944
230.7881, 318.6163
231.2702, 321.3476
231.7524, 323.9406
232.2345, 326.3104
232.7166, 328.6000
233.1987, 330.8337
233.6808, 332.8982
234.1629, 335.1111
234.6451, 337.4233
235.1272, 339.8941
235.6093, 342.8394
236.0914, 346.3109
236.5735, 350.1794
237.0556, 354.3007
237.5378, 358.3110
238.0199, 363.4220
238.5020, 370.0543
238.9841, 377.8775
239.4662, 385.1613
239.9483, 391.0681
240.4305, 397.6125
240.9126, 406.1335
241.3947, 417.9926
241.8768, 428.8565
242.3589, 438.3806
242.8410, 446.7667
243.3232, 455.0015
243.8053, 463.6403
244.2874, 471.3026
244.7695, 477.4242
245.2516, 482.7698
245.7337, 484.9941
246.2159, 484.0172
246.6980, 479.8404
247.1801, 472.5616
247.6622, 461.9344
248.1443, 448.4678
248.6264, 432.1460
249.1086, 411.2770
249.5907, 391.3408
250.0728, 372.3329
250.5549, 354.3380
251.0370, 337.4666
251.5191, 321.1686
252.0013, 306.8399
252.4834, 295.0279
252.9655, 286.3591
253.4476, 278.8559
253.9297, 272.4215
254.4118, 267.2094
254.8940, 263.5057
255.3761, 261.6669
255.8582, 260.6944
256.3403, 260.2141
256.8224, 260.2018
257.3046, 260.7357
257.7867, 261.8129
258.2688, 263.4196
258.7509, 265.6331
259.2330, 268.7282
259.7151, 271.8067
260.1973, 274.4968
260.6794, 276.6097
261.1615, 278.9050
261.6436, 281.2049
262.1257, 283.8116
262.6078, 287.3248
263.0900, 292.0111
263.5721, 296.9009
264.0542, 301.4982
264.5363, 305.7032
265.0184, 310.7873
265.5005, 317.0917
265.9827, 323.9796
266.4648, 330.5912
266.9469, 336.6431
267.4290, 343.1479
267.9111, 350.7702
268.3932, 359.6075
268.8754, 367.3467
269.3575, 373.8509
269.8396, 379.4481
270.3217, 384.4755
270.8038, 388.9796
271.2859, 392.6494
271.7681, 395.3012
272.2502, 396.9405
272.7323, 398.1634
273.2144, 399.1510
273.6965, 399.2999
274.1786, 398.2404
274.6608, 396.1652
275.1429, 391.7724
275.6250, 384.7056
276.1071, 375.0921
276.5892, 363.0428
277.0714, 348.2948
277.5535, 332.4032
278.0356, 316.5448
278.5177, 300.6519
278.9998, 285.4191
279.4819, 270.8265
279.9641, 256.9789
280.4462, 245.0479
280.9283, 235.1434
281.4104, 226.5394
281.8925, 218.5308
282.3746, 211.1109
282.8568, 204.7887
283.3389, 199.7955
283.8210, 195.8382
284.3031, 192.2107
284.7852, 188.9231
285.2673, 185.8102
285.7495, 182.5230
286.2316, 179.1299
286.7137, 176.5800
287.1958, 175.1209
287.6779, 174.3706
288.1600, 173.6161
288.6422, 172.8553
289.1243, 172.1526
289.6064, 171.5189
290.0885, 170.9667
290.5706, 170.6535
291.0527, 170.6488
291.5349, 170.7375
292.0170, 170.5550
292.4991, 170.1212
292.9812, 169.6699
293.4633, 169.2623
293.9454, 168.9320
294.4276, 168.8230
294.9097, 168.9669
295.3918, 169.2314
295.8739, 169.5990
296.3560, 170.0002
296.8381, 170.1174
297.3203, 169.5596
297.8024, 168.6588
298.2845, 168.1685
298.7666, 168.1416
299.2487, 168.1186
299.7308, 167.5072
300.2130, 166.5004
300.6951, 165.6633
301.1772, 165.3028
301.6593, 165.2007
302.1414, 164.9972
302.6235, 164.6991
303.1057, 164.5575
303.5878, 165.0283
304.0699, 165.7826
304.5520, 166.1873
305.0341, 165.8027
305.5162, 165.1995
305.9984, 164.8561
306.4805, 164.7834
306.9626, 165.0332
307.4447, 165.8751
307.9268, 166.9904
308.4089, 167.9680
308.8911, 168.7264
309.3732, 169.2847
309.8553, 169.4308
310.3374, 169.3268
310.8195, 169.5281
311.3016, 170.5038
311.7838, 171.8411
312.2659, 173.1898
312.7480, 174.4599
313.2301, 175.7740
313.7122, 177.2360
314.1943, 178.8106
314.6765, 180.3924
315.1586, 182.0553
315.6407, 183.6229
316.1228, 184.9861
316.6049, 186.0950
317.0870, 187.1223
317.5692, 188.3008
318.0513, 189.4029
318.5334, 190.1004
319.0155, 189.9040
319.4976, 189.6121
319.9797, 189.6891
320.4619, 190.2248
320.9440, 190.3637
321.4261, 189.5368
321.9082, 188.3280
322.3903, 187.2924
322.8724, 186.8772
323.3546, 186.3106
323.8367, 185.3280
324.3188, 183.9405
324.8009, 182.5760
325.2830, 181.4073
325.7651, 180.2349
326.2473, 178.9339
326.7294, 177.0419
327.2115, 175.5489
327.6936, 174.7193
328.1757, 174.4361
328.6578, 174.0572
329.1400, 173.1177
329.6221, 172.4678
330.1042, 172.4837
330.5863, 173.6084
331.0684, 174.6753
331.5505, 175.6198
332.0327, 176.5097
332.5148, 177.4892
332.9969, 178.6079
333.4790, 179.7442
333.9611, 180.9119
334.4432, 182.1837
334.9254, 183.1624
335.4075, 183.7716
335.8896, 184.1319
336.3717, 184.4908
336.8538, 185.1164
337.3359, 185.0546
337.8180, 183.8769
338.3001, 181.6124
338.7823, 179.5993
339.2644, 177.9464
339.7465, 176.3818
340.2286, 174.6666
340.7107, 172.8186
341.1928, 170.7812
341.6750, 168.4513
342.1571, 165.9796
342.6392, 164.1275
343.1213, 162.9454
343.6034, 162.0355
344.0855, 161.0897
344.5677, 160.1249
345.0498, 159.3867
345.5319, 158.9669
346.0140, 158.6941
346.4961, 158.2331
346.9782, 157.5926
347.4604, 156.9366
347.9425, 156.3993
348.4246, 155.9291
348.9067, 155.3772
349.3888, 154.7450
349.8709, 153.9838
350.3531, 152.9019
350.8352, 151.6015
351.3173, 150.4671
351.7994, 149.8105
352.2815, 149.3633
352.7636, 148.5970
353.2458, 147.5104
353.7279, 146.5092
354.2100, 145.9544
354.6921, 145.7143
355.1742, 145.5945
355.6563, 145.7863
356.1385, 145.7990
356.6206, 144.8362
357.1027, 143.1284
357.5848, 141.8474
358.0669, 142.0911
358.5490, 142.8819
359.0312, 143.2886
359.5133, 143.0376
359.9954, 142.5990
360.4775, 142.1683
360.9596, 141.7485
361.4417, 141.3515
361.9239, 141.0350
362.4060, 140.7003
362.8881, 140.1765
363.3702, 139.3311
363.8523, 138.9276
364.3344, 139.6316
364.8166, 140.7630
365.2987, 141.5520
365.7808, 141.4207
366.2629, 141.3078
366.7450, 141.5913
367.2271, 142.2705
367.7093, 142.5656
368.1914, 141.8612
368.6735, 141.0727
369.1556, 140.7962
369.6377, 141.6537
370.1198, 142.2757
370.6020, 142.5285
371.0841, 142.4958
371.5662, 142.4817
372.0483, 142.5170
372.5304, 142.5298
373.0125, 142.4682
373.4947, 142.2509
373.9768, 142.2092
374.4589, 142.4452
374.9410, 142.7739
375.4231, 142.8913
375.9052, 142.7464
376.3874, 142.5383
376.8695, 142.2964
377.3516, 142.0240
377.8337, 141.8617
378.3158, 141.7968
378.7979, 141.8757
379.2801, 142.1763
379.7622, 142.7111
380.2443, 143.3057
380.7264, 144.0080
381.2085, 144.6888
381.6906, 144.8899
382.1728, 144.5986
382.6549, 144.3842
383.1370, 144.7536
383.6191, 145.5460
384.1012, 146.0693
384.5833, 146.1901
385.0655, 146.2566
385.5476, 146.7955
386.0297, 147.6951
386.5118, 148.5270
386.9939, 148.9634
387.4760, 149.2667
387.9582, 149.7687
388.4403, 150.4823
388.9224, 151.4553
389.4045, 153.0385
389.8866, 154.8167
390.3687, 156.1809
390.8509, 156.4481
391.3330, 156.7464
391.8151, 157.9819
392.2972, 159.9734
392.7793, 161.9940
393.2614, 163.5476
393.7436, 165.0713
394.2257, 166.9454
394.7078, 169.3638
395.1899, 171.7822
395.6720, 174.0336
396.1541, 176.1566
396.6363, 178.2138
397.1184, 180.1047
397.6005, 182.0373
398.0826, 184.1134
398.5647, 186.3624
399.0468, 188.5346
399.5290, 190.4761
400.0111, 192.4032
400.4932, 194.4858
400.9753, 196.6182
401.4574, 199.0581
401.9395, 201.8102
402.4217, 204.8771
402.9038, 208.2448
403.3859, 212.0473
403.8680, 215.9560
404.3501, 219.8034
404.8322, 223.4631
405.3144, 227.4176
405.7965, 231.7197
406.2786, 236.1976
406.7607, 240.6134
407.2428, 245.0038
407.7249, 249.1559
408.2071, 253.0269
408.6892, 256.5926
409.1713, 259.7446
409.6534, 262.5842
410.1355, 264.4465
410.6176, 264.5682
411.0998, 263.1167
411.5819, 261.0383
412.0640, 258.5225
412.5461, 255.4371
413.0282, 251.3409
413.5103, 246.3488
413.9925, 241.0750
414.4746, 235.4988
414.9567, 229.9313
415.4388, 224.8429
415.9209, 220.1989
416.4030, 216.2666
416.8852, 213.3593
417.3673, 211.2519
417.8494, 209.5582
418.3315, 207.9410
418.8136, 206.8267
419.2957, 206.6552
419.7779, 207.3206
420.2600, 208.1040
420.7421, 208.6877
421.2242, 209.2645
421.7063, 209.9299
422.1884, 210.5800
422.6706, 211.5721
423.1527, 213.2069
423.6348, 215.2254
424.1169, 217.1422
424.5990, 218.9255
425.0811, 220.5816
425.5633, 222.0107
426.0454, 223.1319
426.5275, 224.6021
427.0096, 226.7198
427.4917, 228.9592
427.9738, 230.8629
428.4560, 232.1441
428.9381, 233.6679
429.4202, 235.5351
429.9023, 237.6818
430.3844, 240.0285
430.8665, 242.6003
431.3487, 245.2630
431.8308, 247.9220
432.3129, 250.5562
432.7950, 253.5496
433.2771, 257.1019
433.7592, 260.4629
434.2414, 262.6997
434.7235, 263.8613
435.2056, 264.5031
435.6877, 264.7964
436.1698, 264.6907
436.6519, 264.2033
437.1341, 263.3059
437.6162, 261.6137
438.0983, 258.9547
438.5804, 255.2776
439.0625, 250.2915
439.5446, 243.6798
440.0268, 236.6762
440.5089, 230.2058
440.9910, 224.1324
441.4731, 218.2824
441.9552, 212.3356
442.4373, 206.7068
442.9195, 201.6151
443.4016, 197.0625
443.8837, 192.8602
444.3658, 188.9469
444.8479, 185.3240
445.3300, 182.0428
445.8122, 179.2860
446.2943, 176.5935
446.7764, 173.6062
447.2585, 170.6001
447.7406, 168.2857
448.2227, 167.0500
448.7049, 166.1826
449.1870, 165.5895
449.6691, 165.3792
450.1512, 164.8321
450.6333, 163.9022
451.1154, 162.7003
451.5976, 161.2168
452.0797, 159.2398
452.5618, 157.7760
453.0439, 157.1136
453.5260, 157.0029
454.0081, 156.6475
454.4903, 156.0232
454.9724, 155.3051
455.4545, 154.4473
455.9366, 153.5202
456.4187, 153.0797
456.9008, 153.2190
457.3830, 153.4358
457.8651, 152.9631
458.3472, 152.0477
458.8293, 151.5434
459.3114, 151.9693
459.7935, 152.6803
460.2757, 152.8508
460.7578, 152.5624
461.2399, 152.2448
461.7220, 152.3523
462.2041, 152.4526
462.6862, 151.9577
463.1684, 150.5603
463.6505, 149.5979
464.1326, 150.1258
464.6147, 151.3921
465.0968, 152.4360
465.5789, 152.9683
466.0611, 153.2234
466.5432, 153.1308
467.0253, 152.7387
467.5074, 152.5254
467.9895, 152.4776
468.4716, 152.6816
468.9538, 153.2178
469.4359, 154.3375
469.9180, 155.2120
470.4001, 155.7250
470.8822, 156.0782
471.3643, 156.5646
471.8465, 157.1878
472.3286, 157.9496
472.8107, 158.9700
473.2928, 160.1312
473.7749, 160.7252
474.2570, 160.6483
474.7392, 160.5240
475.2213, 160.7066
475.7034, 161.2105
476.1855, 162.1891
476.6676, 163.7188
477.1497, 165.5293
477.6319, 167.4608
478.1140, 169.4035
478.5961, 170.9638
479.0782, 171.7815
479.5603, 172.2462
480.0424, 172.6382
480.5246, 173.0016
481.0067, 173.6716
481.4888, 175.1166
481.9709, 176.8141
482.4530, 178.2807
482.9352, 179.3223
483.4173, 180.3770
483.8994, 181.5529
484.3815, 182.8669
484.8636, 184.3325
485.3457, 186.3859
485.8279, 188.1397
486.3100, 189.1658
486.7921, 189.4655
487.2742, 190.2006
487.7563, 192.0478
488.2384, 193.6587
488.7206, 194.2118
489.2027, 193.2622
489.6848, 192.5236
490.1669, 192.2542
490.6490, 191.9475
491.1311, 190.6989
491.6133, 188.4066
492.0954, 185.9365
492.5775, 183.4532
493.0596, 181.0176
493.5417, 178.8779
494.0238, 177.0445
494.5060, 175.2332
494.9881, 173.2622
495.4702, 171.1592
495.9523, 168.8109
496.4344, 166.1019
496.9165, 163.6746
497.3987, 162.4327
497.8808, 161.9017
498.3629, 161.2126
498.8450, 159.5623
499.3271, 158.0082
499.8092, 157.3802
500.2914, 157.5282
500.7735, 157.6505
501.2556, 157.5588
501.7377, 157.2566
502.2198, 156.7107
502.7019, 155.7907
503.1841, 154.9553
503.6662, 154.1385
504.1483, 153.4899
504.6304, 153.2046
505.1125, 153.5210
505.5946, 153.8242
506.0768, 154.0542
506.5589, 154.2007
507.0410, 154.1926
507.5231, 153.9653
508.0052, 153.7599
508.4873, 153.7231
508.9695, 153.8561
509.4516, 153.9084
509.9337, 153.8500
510.4158, 153.8228
510.8979, 154.0710
511.3800, 154.5182
511.8622, 154.7959
512.3443, 154.7298
512.8264, 154.5627
513.3085, 154.6535
513.7906, 154.9337
514.2728, 155.1555
514.7549, 155.1576
515.2370, 155.0577
515.7191, 154.8474
516.2012, 154.5093
516.6833, 154.4940
517.1655, 155.3922
517.6476, 156.5025
518.1297, 157.2181
518.6118, 156.7761
519.0939, 156.7294
519.5760, 157.7702
520.0582, 159.3424
520.5403, 160.1356
521.0224, 159.6302
521.5045, 159.0434
521.9866, 158.5785
522.4688, 158.2359
522.9509, 158.5424
523.4330, 159.7528
523.9151, 161.0178
524.3972, 161.5287
524.8793, 161.2566
525.3615, 161.5352
525.8436, 162.5600
526.3257, 163.9517
526.8078, 165.1753
527.2899, 166.2680
527.7720, 167.3981
528.2542, 168.7514
528.7363, 170.0673
529.2184, 170.8760
529.7005, 171.2711
530.1826, 171.8039
530.6647, 172.8392
531.1469, 174.1422
531.6290, 175.5602
532.1111, 177.0886
532.5932, 178.6212
533.0753, 180.2623
533.5574, 181.8314
534.0396, 183.1135
534.5217, 183.5454
535.0038, 184.3271
535.4859, 185.7095
535.9680, 187.5707
536.4501, 189.6104
536.9323, 192.1221
537.4144, 194.2987
537.8965, 195.6702
538.3786, 196.1994
538.8607, 197.3196
539.3428, 199.1137
539.8250, 201.2074
540.3071, 203.4174
540.7892, 205.6679
541.2713, 207.4033
541.7534, 208.3731
542.2355, 209.2218
542.7177, 211.2670
543.1998, 214.0332
543.6819, 215.9476
544.1640, 215.6522
544.6461, 214.6070
545.1282, 214.1862
545.6104, 214.2775
546.0925, 214.1515
546.5746, 213.1663
547.0567, 212.0242
547.5388, 211.3355
548.0209, 211.5355
548.5031, 210.9854
548.9852, 208.8321
549.4673, 206.0026
549.9494, 203.4838
550.4315, 201.6826
550.9136, 199.5643
551.3958, 196.8090
551.8779, 193.7086
552.3600, 191.2606
552.8421, 189.6443
553.3242, 187.9955
553.8063, 185.8694
554.2885, 183.3595
554.7706, 181.2410
555.2527, 179.5382
555.7348, 177.9760
556.2169, 176.2866
556.6990, 174.5608
557.1812, 172.9668
557.6633, 171.5124
558.1454, 170.2761
558.6275, 169.4595
559.1096, 168.9004
559.5917, 168.2934
560.0739, 167.5787
560.5560, 166.7389
561.0381, 165.6565
561.5202, 164.4130
562.0023, 163.3211
562.4844, 162.5289
562.9666, 161.8415
563.4487, 161.1174
563.9308, 160.2514
564.4129, 159.8850
564.8950, 160.4372
565.3771, 161.0280
565.8593, 160.8405
566.3414, 159.6199
566.8235, 158.6975
567.3056, 158.2089
567.7877, 158.0476
568.2698, 158.1402
568.7520, 158.4645
569.2341, 158.6090
569.7162, 158.2959
570.1983, 157.7930
570.6804, 157.6587
571.1625, 157.8351
571.6447, 157.9043
572.1268, 157.5004
572.6089, 156.9140
573.0910, 156.3711
573.5731, 155.8697
574.0552, 155.6101
574.5374, 155.9931
575.0195, 156.5021
575.5016, 156.6554
575.9837, 155.8089
576.4658, 155.2836
576.9479, 155.3369
577.4301, 155.7441
577.9122, 156.0781
578.3943, 156.3135
578.8764, 156.5281
579.3585, 156.7841
579.8406, 157.0430
580.3228, 156.9400
580.8049, 156.3945
581.2870, 156.0045
581.7691, 156.4070
582.2512, 157.3396
582.7333, 157.6091
583.2155, 157.0842
583.6975, 156.5619
584.1796, 156.9922
584.6617, 157.8876
585.1439, 158.4104
585.6260, 158.1395
586.1081, 157.8008
586.5902, 157.7735
587.0723, 158.0004
587.5544, 158.3665
588.0366, 159.2789
588.5187, 159.8825
589.0008, 159.6454
589.4829, 158.6317
589.9650, 158.2115
590.4471, 158.6336
590.9293, 159.3236
591.4114, 160.0719
591.8935, 160.9204
592.3756, 161.4948
592.8577, 161.7163
593.3398, 161.8762
593.8220, 162.3599
594.3041, 163.1074
594.7862, 163.6732
595.2683, 164.0161
595.7504, 164.0526
596.2325, 163.3803
596.7147, 162.2976
597.1968, 161.5871
597.6789, 161.6055
598.1610, 162.1037
598.6431, 163.3080
599.1252, 164.9739
599.6074, 166.0101
600.0895, 165.2204
600.5716, 164.4060
601.0537, 164.5236
601.5358, 165.8938
602.0179, 166.9995
602.5001, 167.8329
602.9822, 168.3889
603.4643, 168.5958
603.9464, 168.3103
604.4285, 168.2526
604.9106, 168.4919
605.3928, 168.9222
605.8749, 169.4032
606.3570, 169.9378
606.8391, 170.5452
607.3212, 171.2776
607.8033, 172.0235
608.2855, 172.5589
608.7676, 172.9454
609.2497, 173.4339
609.7318, 174.3990
610.2139, 175.3393
610.6960, 175.7444
611.1782, 175.6145
611.6603, 175.6321
612.1424, 175.9874
612.6245, 176.6022
613.1066, 177.4955
613.5887, 179.0206
614.0709, 179.9927
614.5530, 180.0749
615.0351, 179.9220
615.5172, 180.2235
615.9993, 181.0623
616.4814, 182.0303
616.9636, 183.1295
617.4457, 184.2379
617.9278, 185.0968
618.4099, 185.7283
618.8920, 186.3685
619.3741, 187.1445
619.8563, 187.9684
620.3384, 188.5898
620.8205, 189.0834
621.3026, 189.8305
621.7847, 191.3583
622.2668, 193.0063
622.7490, 194.3216
623.2311, 195.2742
623.7132, 195.8430
624.1953, 195.2442
624.6774, 194.7979
625.1595, 195.4871
625.6417, 198.2511
626.1238, 200.3372
626.6059, 201.6114
627.0880, 202.3419
627.5701, 202.6453
628.0522, 202.4111
628.5344, 202.9092
629.0165, 204.6050
629.4986, 206.8767
629.9807, 208.4859
630.4628, 209.5566
630.9449, 210.7159
631.4271, 212.3529
631.9092, 214.1953
632.3913, 215.9577
632.8734, 217.6592
633.3555, 219.3897
633.8376, 221.4431
634.3198, 223.3574
634.8019, 224.7799
635.2840, 225.5456
635.7661, 226.5348
636.2482, 228.0043
636.7303, 229.5966
637.2125, 231.0679
637.6946, 232.3579
638.1767, 233.7073
638.6588, 235.0850
639.1409, 236.5948
639.6230, 238.4453
640.1052, 240.6160
640.5873, 242.6467
641.0694, 244.3464
641.5515, 245.9534
642.0336, 247.9437
642.5157, 250.1267
642.9979, 251.9792
643.4800, 253.0314
643.9621, 253.8130
644.4442, 254.7883
644.9263, 255.8669
645.4084, 256.4659
645.8906, 256.6225
646.3727, 256.0516
646.8548, 254.4785
647.3369, 251.8304
647.8190, 249.0572
648.3011, 246.3566
648.7833, 243.2679
649.2654, 239.3493
649.7475, 234.4625
