##NAMES=Botallackite
##RRUFFID=R080012
##IDEAL CHEMISTRY=Cu^2+^_2_Cl(OH)_3_
##LOCALITY=Cligga Head, Cornwall, England
##OWNER=RRUFF
##SOURCE=William W. Pinch
##DESCRIPTION=Aggregate of green bladed to platy crystals
##STATUS=The identification of this mineral is confirmed by single-crystal X-ray diffraction and chemical analysis.
##URL=rruff.info/R080012
##MEASURED CHEMISTRY=(Cu_2.00_Zn_0.02_)Cl_0.96_(OH)_3_
140.1716, 239.3506
140.6537, 241.6171
141.1358, 243.1429
141.6179, 243.5911
142.1000, 243.6690
142.5821, 244.7429
143.0643, 247.1460
143.5464, 249.8372
144.0285, 252.4505
144.5106, 254.9416
144.9927, 257.4455
145.4748, 260.0146
145.9570, 262.5733
146.4391, 264.7102
146.9212, 265.8486
147.4033, 267.2802
147.8854, 269.7085
148.3675, 274.3636
148.8497, 278.0590
149.3318, 280.4232
149.8139, 281.6507
150.2960, 282.6790
150.7781, 283.7507
151.2602, 284.4387
151.7424, 284.5012
152.2245, 283.7155
152.7066, 282.5749
153.1887, 280.9484
153.6708, 278.8925
154.1529, 276.9494
154.6351, 275.0573
155.1172, 273.3193
155.5993, 271.8045
156.0814, 270.6219
156.5635, 269.5353
157.0456, 268.4401
157.5278, 267.3461
158.0099, 266.5076
158.4920, 265.7417
158.9741, 265.3478
159.4562, 265.5863
159.9383, 266.7511
160.4205, 268.3438
160.9026, 270.4212
161.3847, 273.0272
161.8668, 275.3033
162.3489, 276.5700
162.8310, 277.4647
163.3132, 278.7287
163.7953, 280.6295
164.2774, 282.9438
164.7595, 285.5283
165.2416, 288.3573
165.7237, 291.6102
166.2059, 295.4833
166.6880, 299.8346
167.1701, 304.4507
167.6522, 309.0788
168.1343, 314.0329
168.6164, 319.8110
169.0986, 326.7567
169.5807, 333.2641
170.0628, 338.8290
170.5449, 343.2221
171.0270, 345.9201
171.5091, 347.0373
171.9913, 346.1768
172.4734, 342.8124
172.9555, 336.6535
173.4376, 328.6791
173.9197, 319.0512
174.4018, 308.1480
174.8840, 297.0544
175.3661, 285.8672
175.8482, 275.1180
176.3303, 265.5302
176.8124, 257.1610
177.2945, 250.0150
177.7767, 244.3311
178.2588, 239.9037
178.7409, 236.1409
179.2230, 232.7195
179.7051, 229.6385
180.1872, 226.9291
180.6694, 224.5397
181.1515, 222.5653
181.6336, 221.2960
182.1157, 220.6675
182.5978, 220.2278
183.0799, 219.6943
183.5621, 219.1037
184.0442, 218.5402
184.5263, 217.9532
185.0084, 217.4811
185.4905, 217.4174
185.9726, 217.7508
186.4547, 218.1723
186.9369, 218.4855
187.4190, 218.7006
187.9011, 218.8085
188.3832, 218.7105
188.8653, 218.6010
189.3474, 218.9772
189.8296, 219.8582
190.3117, 220.8383
190.7938, 221.4728
191.2759, 221.8377
191.7580, 222.5719
192.2401, 224.0226
192.7223, 225.8342
193.2044, 226.8902
193.6865, 227.1283
194.1686, 227.1701
194.6507, 227.5050
195.1328, 228.1240
195.6150, 228.9834
196.0971, 230.1720
196.5792, 231.5623
197.0613, 232.5784
197.5434, 233.1336
198.0255, 233.7025
198.5077, 234.7766
198.9898, 236.3781
199.4719, 237.9787
199.9540, 239.4509
200.4361, 240.8143
200.9182, 242.1883
201.4004, 243.5364
201.8825, 244.9891
202.3646, 246.8355
202.8467, 249.1562
203.3288, 251.0429
203.8109, 252.0836
204.2931, 252.4299
204.7752, 253.4322
205.2573, 255.2501
205.7394, 257.3427
206.2215, 259.0768
206.7036, 260.3055
207.1858, 261.8782
207.6679, 264.0893
208.1500, 266.8898
208.6321, 269.5313
209.1142, 271.9792
209.5963, 274.3332
210.0785, 276.6683
210.5606, 278.9248
211.0427, 281.3301
211.5248, 283.9595
212.0069, 286.8113
212.4890, 289.7842
212.9712, 292.9057
213.4533, 296.1242
213.9354, 299.3426
214.4175, 302.5829
214.8996, 305.8345
215.3817, 309.0775
215.8639, 312.2824
216.3460, 315.8564
216.8281, 320.0402
217.3102, 324.2858
217.7923, 327.7998
218.2744, 330.1369
218.7566, 332.9743
219.2387, 336.7146
219.7208, 341.4035
220.2029, 346.2218
220.6850, 351.3343
221.1671, 356.3286
221.6493, 360.5746
222.1314, 363.7059
222.6135, 367.0115
223.0956, 370.6538
223.5777, 374.6747
224.0598, 379.2194
224.5420, 384.6427
225.0241, 390.2415
225.5062, 395.3302
225.9883, 399.6176
226.4704, 403.9283
226.9525, 408.3145
227.4347, 412.8287
227.9168, 417.5532
228.3989, 422.6616
228.8810, 427.7935
229.3631, 432.4647
229.8452, 436.5084
230.3274, 440.5128
230.8095, 444.5443
231.2916, 448.5956
231.7737, 452.9370
232.2558, 457.7671
232.7379, 462.6834
233.2201, 467.2839
233.7022, 471.7375
234.1843, 475.5062
234.6664, 478.2117
235.1485, 479.8107
235.6306, 482.0345
236.1128, 485.3293
236.5949, 488.8197
237.0770, 491.7227
237.5591, 493.9738
238.0412, 495.7471
238.5233, 496.9967
239.0055, 497.7270
239.4876, 498.2861
239.9697, 498.7685
240.4518, 498.9911
240.9339, 498.8517
241.4160, 498.6011
241.8982, 497.5008
242.3803, 495.3446
242.8624, 492.1360
243.3445, 488.5029
243.8266, 484.3540
244.3087, 479.8515
244.7909, 475.2090
245.2730, 470.8442
245.7551, 465.4737
246.2372, 458.7669
246.7193, 450.7898
247.2014, 442.4394
247.6836, 433.7836
248.1657, 424.7480
248.6478, 415.3813
249.1299, 405.5182
249.6120, 395.5393
250.0941, 385.3571
250.5762, 375.0477
251.0584, 365.1808
251.5405, 355.9546
252.0226, 347.0291
252.5047, 338.3226
252.9868, 329.8417
253.4689, 321.4451
253.9511, 313.0640
254.4332, 304.7169
254.9153, 296.6631
255.3974, 288.7318
255.8795, 281.3768
256.3617, 275.0712
256.8438, 270.1571
257.3259, 265.2698
257.8080, 260.1387
258.2901, 254.9878
258.7722, 250.5096
259.2544, 246.7486
259.7365, 243.5603
260.2186, 240.8605
260.7007, 238.8377
261.1828, 236.7837
261.6649, 234.5613
262.1471, 232.3150
262.6292, 230.4195
263.1113, 228.9375
263.5934, 227.6967
264.0755, 226.6199
264.5576, 225.6930
265.0398, 224.9551
265.5219, 224.4514
266.0040, 224.1043
266.4861, 223.7460
266.9682, 223.4157
267.4503, 222.9901
267.9325, 222.3602
268.4146, 221.4150
268.8967, 220.8058
269.3788, 220.6945
269.8609, 220.7621
270.3430, 220.4393
270.8252, 219.7134
271.3073, 218.6467
271.7894, 217.2614
272.2715, 215.5512
272.7536, 213.6127
273.2357, 211.4720
273.7179, 209.0867
274.2000, 206.2996
274.6821, 203.0504
275.1642, 199.7121
275.6463, 196.3930
276.1284, 193.0920
276.6106, 189.8180
277.0927, 186.5842
277.5748, 183.3491
278.0569, 180.1421
278.5390, 177.0227
279.0211, 173.5345
279.5032, 169.2999
279.9854, 164.5099
280.4675, 160.5761
280.9496, 157.5884
281.4317, 155.1583
281.9138, 153.0023
282.3959, 151.1339
282.8781, 149.2010
283.3602, 147.1059
283.8423, 144.8689
284.3244, 142.5555
284.8065, 140.1140
285.2886, 137.8394
285.7708, 136.0570
286.2529, 134.7440
286.7350, 133.4943
287.2171, 132.2248
287.6992, 130.9560
288.1813, 129.7440
288.6635, 128.5785
289.1456, 127.5315
289.6277, 126.7296
290.1098, 126.1269
290.5919, 125.4495
291.0740, 124.6462
291.5562, 123.7458
292.0383, 122.7512
292.5204, 121.6633
293.0025, 120.6913
293.4846, 119.9209
293.9667, 119.3624
294.4489, 119.1193
294.9310, 119.2950
295.4131, 119.5608
295.8952, 119.4574
296.3773, 119.0141
296.8594, 118.4179
297.3416, 117.4679
297.8237, 116.4640
298.3058, 116.2227
298.7879, 116.9012
299.2700, 117.8210
299.7521, 118.2064
300.2343, 118.1707
300.7164, 118.0556
301.1985, 117.8409
301.6806, 117.7073
302.1627, 118.0145
302.6448, 118.7983
303.1270, 119.6735
303.6091, 120.3674
304.0912, 120.8893
304.5733, 121.2919
305.0554, 121.4120
305.5375, 121.5171
306.0197, 121.9578
306.5018, 122.7145
306.9839, 123.4881
307.4660, 123.9655
307.9481, 124.3359
308.4302, 124.8725
308.9124, 125.8021
309.3945, 126.7972
309.8766, 127.6437
310.3587, 128.3472
310.8408, 128.8926
311.3229, 128.8928
311.8051, 128.9007
312.2872, 129.5368
312.7693, 131.3068
313.2514, 133.1212
313.7335, 134.4033
314.2156, 135.2359
314.6978, 135.8822
315.1799, 136.2936
315.6620, 136.6737
316.1441, 137.1810
316.6262, 137.9140
317.1083, 138.5835
317.5905, 139.1135
318.0726, 139.4898
318.5547, 139.6945
319.0368, 139.7598
319.5189, 139.6146
320.0010, 139.1567
320.4832, 138.3054
320.9653, 137.5199
321.4474, 137.1539
321.9295, 136.8494
322.4116, 136.1878
322.8937, 134.7268
323.3759, 133.2391
323.8580, 131.9139
324.3401, 130.7752
324.8222, 129.7623
325.3043, 128.9349
325.7864, 128.1949
326.2686, 127.4664
326.7507, 126.6636
327.2328, 125.9585
327.7149, 125.4797
328.1970, 125.1912
328.6791, 124.6539
329.1613, 123.5259
329.6434, 122.4176
330.1255, 121.6421
330.6076, 121.4927
331.0897, 121.2478
331.5718, 120.8012
332.0540, 120.2536
332.5361, 119.9017
333.0182, 119.9044
333.5003, 119.8899
333.9824, 119.6984
334.4645, 119.2501
334.9467, 118.8724
335.4288, 118.6077
335.9109, 118.3865
336.3930, 118.0804
336.8751, 117.6086
337.3572, 117.2359
337.8394, 117.0443
338.3215, 117.0403
338.8036, 117.1182
339.2857, 117.3129
339.7678, 117.5294
340.2499, 117.6323
340.7321, 117.5795
341.2142, 117.6604
341.6963, 117.9748
342.1784, 118.4683
342.6605, 118.9218
343.1426, 119.3514
343.6248, 119.6441
344.1069, 119.5382
344.5890, 119.0662
345.0711, 119.0712
345.5532, 119.8302
346.0353, 120.9112
346.5175, 121.2983
346.9996, 121.0057
347.4817, 120.7799
347.9638, 121.1421
348.4459, 121.9517
348.9280, 122.7059
349.4102, 123.3605
349.8923, 123.9800
350.3744, 124.6787
350.8565, 125.4156
351.3386, 126.0448
351.8207, 126.3500
352.3029, 126.5467
352.7850, 127.0103
353.2671, 127.7521
353.7492, 128.5960
354.2313, 129.3498
354.7134, 130.1040
355.1956, 131.0408
355.6777, 132.3478
356.1598, 133.7330
356.6419, 134.9021
357.1240, 135.9000
357.6061, 136.9634
358.0883, 138.2820
358.5704, 139.7190
359.0525, 141.1017
359.5346, 142.3065
360.0167, 143.6362
360.4988, 145.2522
360.9810, 147.1124
361.4631, 149.1128
361.9452, 151.3883
362.4273, 153.6547
362.9094, 155.6796
363.3915, 157.3393
363.8737, 159.2227
364.3558, 161.5668
364.8379, 164.2040
365.3200, 166.9288
365.8021, 169.7151
366.2842, 172.5741
366.7664, 175.3949
367.2485, 178.1861
367.7306, 181.3376
368.2127, 184.9146
368.6948, 188.8522
369.1769, 193.1418
369.6591, 198.4456
370.1412, 203.2912
370.6233, 207.2142
371.1054, 210.5853
371.5875, 214.8502
372.0696, 220.4651
372.5518, 226.3605
373.0339, 232.1011
373.5160, 237.5092
373.9981, 243.3244
374.4802, 249.6394
374.9623, 256.3563
375.4445, 263.2681
375.9266, 270.5261
376.4087, 277.7254
376.8908, 284.5641
377.3729, 291.1041
377.8550, 298.5962
378.3372, 307.1919
378.8193, 316.1686
379.3014, 324.6010
379.7835, 332.5228
380.2656, 340.8250
380.7477, 349.8505
381.2299, 359.1711
381.7120, 367.7062
382.1941, 375.3622
382.6762, 383.1939
383.1583, 391.9699
383.6404, 401.5056
384.1226, 410.7170
384.6047, 419.4353
385.0868, 428.0195
385.5689, 437.0686
386.0510, 446.4596
386.5331, 455.8334
387.0153, 465.5348
387.4974, 474.9996
387.9795, 483.2937
388.4616, 490.4156
388.9437, 497.2953
389.4258, 505.0890
389.9080, 513.0198
390.3901, 519.8179
390.8722, 524.6743
391.3543, 528.8040
391.8364, 533.1381
392.3185, 537.4442
392.8007, 541.0108
393.2828, 544.0296
393.7649, 545.8331
394.2470, 545.8445
394.7291, 543.7364
395.2112, 540.4753
395.6934, 536.3811
396.1755, 531.3356
396.6576, 525.1663
397.1397, 517.8040
397.6218, 509.3289
398.1039, 499.5314
398.5861, 488.3176
399.0682, 476.9129
399.5503, 464.8722
400.0324, 452.9875
400.5145, 441.9984
400.9966, 433.4261
401.4788, 423.5171
401.9609, 411.5316
402.4430, 397.9853
402.9251, 384.7667
403.4072, 371.5296
403.8893, 359.1037
404.3714, 348.1261
404.8535, 338.9014
405.3357, 329.4998
405.8178, 319.7785
406.2999, 310.2062
406.7820, 301.5404
407.2641, 293.8573
407.7462, 286.6434
408.2284, 279.7606
408.7105, 273.2829
409.1926, 266.9600
409.6747, 260.7919
410.1568, 254.7869
410.6389, 248.7887
411.1211, 242.9303
411.6032, 237.6890
412.0853, 233.1773
412.5674, 229.2242
413.0495, 225.4705
413.5316, 221.9071
414.0138, 218.5887
414.4959, 215.5990
414.9780, 212.8047
415.4601, 210.0464
415.9422, 207.2868
416.4243, 204.5987
416.9065, 202.1208
417.3886, 199.7157
417.8707, 197.2208
418.3528, 194.1380
418.8349, 191.3387
419.3170, 189.4972
419.7992, 188.4385
420.2813, 187.4331
420.7634, 185.9087
421.2455, 184.4619
421.7276, 183.5636
422.2097, 183.5890
422.6919, 183.4093
423.1740, 182.4839
423.6561, 181.2401
424.1382, 180.3101
424.6203, 180.1044
425.1024, 179.9322
425.5846, 179.5470
426.0667, 178.9200
426.5488, 178.6340
427.0309, 178.9414
427.5130, 179.3648
427.9951, 179.5667
428.4773, 179.4157
428.9594, 179.3112
429.4415, 179.1973
429.9236, 179.1851
430.4057, 179.6624
430.8878, 180.8305
431.3700, 181.8592
431.8521, 182.2405
432.3342, 181.9761
432.8163, 182.3061
433.2984, 183.3273
433.7805, 184.6122
434.2627, 185.6813
434.7448, 186.5616
435.2269, 187.5424
435.7090, 188.8086
436.1911, 190.1193
436.6732, 190.8499
437.1554, 191.0781
437.6375, 191.4165
438.1196, 192.4616
438.6017, 193.8255
439.0838, 194.8644
439.5659, 195.4743
440.0481, 195.9267
440.5302, 196.5588
441.0123, 197.1817
441.4944, 197.4792
441.9765, 197.4283
442.4586, 196.9254
442.9408, 195.7723
443.4229, 194.0371
443.9050, 192.1786
444.3871, 190.5002
444.8692, 188.7108
445.3513, 186.6437
445.8335, 184.3551
446.3156, 181.6266
446.7977, 177.9326
447.2798, 173.8655
447.7619, 170.4918
448.2440, 168.9888
448.7262, 166.9945
449.2083, 163.7741
449.6904, 159.2194
450.1725, 155.3839
450.6546, 152.6287
451.1367, 150.1951
451.6189, 147.4696
452.1010, 144.2213
452.5831, 141.4447
453.0652, 139.2818
453.5473, 137.5325
454.0294, 135.7482
454.5116, 133.9291
454.9937, 132.0090
455.4758, 129.6969
455.9579, 127.1791
456.4400, 125.5273
456.9221, 124.7732
457.4043, 124.4467
457.8864, 124.1663
458.3685, 123.9407
458.8506, 123.8165
459.3327, 123.8919
459.8148, 123.9272
460.2970, 124.0064
460.7791, 123.8943
461.2612, 122.8063
461.7433, 119.0914
462.2254, 114.9688
462.7076, 112.5887
463.1897, 112.2441
463.6718, 112.0759
464.1539, 110.9704
464.6360, 109.6243
465.1181, 108.7497
465.6003, 108.9860
466.0824, 109.2237
466.5645, 109.2261
467.0466, 109.0194
467.5287, 108.7105
468.0108, 108.0900
468.4930, 107.5713
468.9751, 107.3427
469.4572, 107.5293
469.9393, 107.5303
470.4214, 107.2476
470.9035, 106.8659
471.3857, 106.5736
471.8678, 106.3720
472.3499, 106.2564
472.8320, 106.2402
473.3141, 106.3012
473.7962, 106.3718
474.2784, 106.4559
474.7605, 106.5288
475.2426, 106.5221
475.7247, 106.4732
476.2068, 106.6143
476.6889, 106.9676
477.1711, 107.4299
477.6532, 107.8591
478.1353, 108.3031
478.6174, 108.9129
479.0995, 109.8771
479.5816, 110.8716
480.0638, 111.4775
480.5459, 111.7787
481.0280, 112.0798
481.5101, 112.5090
481.9922, 113.0338
482.4743, 113.6144
482.9565, 114.2392
483.4386, 114.9707
483.9207, 115.8375
484.4028, 116.8153
484.8849, 117.8804
485.3670, 119.2629
485.8492, 120.4572
486.3313, 121.1797
486.8134, 121.5719
487.2955, 122.3708
487.7776, 123.9031
488.2597, 125.4294
488.7419, 126.6356
489.2240, 127.4219
489.7061, 128.3350
490.1882, 129.4214
490.6703, 130.5699
491.1524, 131.6513
491.6346, 132.6535
492.1167, 133.7514
492.5988, 135.0276
493.0809, 136.3963
493.5630, 137.6191
494.0451, 138.7070
494.5273, 139.7365
495.0094, 140.7625
495.4915, 141.7696
495.9736, 142.7413
496.4557, 143.6732
496.9378, 144.5553
497.4200, 145.3129
497.9021, 146.0238
498.3842, 146.7887
498.8663, 147.6444
499.3484, 148.5714
499.8305, 149.7602
500.3127, 151.0282
500.7948, 151.9062
501.2769, 151.8247
501.7590, 151.6693
502.2411, 151.9426
502.7232, 152.7863
503.2054, 153.2948
503.6875, 153.2424
504.1696, 152.8699
504.6517, 152.3273
505.1338, 151.4061
505.6159, 150.6927
506.0981, 150.3391
506.5802, 150.1603
507.0623, 149.7852
507.5444, 149.2664
508.0265, 148.3405
508.5086, 146.7759
508.9908, 144.6680
509.4729, 142.8216
509.9550, 141.2711
510.4371, 139.7666
510.9192, 138.1211
511.4013, 136.3510
511.8835, 134.5770
512.3655, 132.8370
512.8477, 131.0029
513.3298, 128.8021
513.8119, 126.3872
514.2940, 124.1200
514.7761, 122.3332
515.2582, 120.6308
515.7404, 118.6058
516.2225, 116.3163
516.7046, 114.2150
517.1867, 112.6444
517.6688, 111.2299
518.1509, 109.7294
518.6331, 108.0654
519.1152, 106.4113
519.5973, 104.7716
520.0794, 103.1696
520.5615, 101.6590
521.0436, 100.2529
521.5258, 98.90193
522.0079, 97.62595
522.4900, 96.40009
522.9721, 95.06181
523.4542, 93.56355
523.9363, 92.16663
524.4185, 91.06595
524.9006, 90.25547
525.3827, 89.30933
525.8648, 88.19274
526.3469, 87.09911
526.8290, 86.30763
527.3112, 85.73616
527.7933, 85.04653
528.2754, 84.11593
528.7575, 83.10387
529.2396, 82.16628
529.7217, 81.28698
530.2039, 80.43611
530.6860, 79.59148
531.1681, 78.76466
531.6502, 77.87349
532.1323, 76.91912
532.6144, 76.20279
533.0966, 76.13551
533.5787, 76.15193
534.0608, 75.83996
534.5429, 74.89232
535.0250, 74.01235
535.5071, 73.28591
535.9893, 72.65350
536.4714, 72.03635
536.9535, 71.35857
537.4356, 70.86070
537.9177, 70.69262
538.3998, 70.76495
538.8820, 70.49971
539.3641, 69.84709
539.8462, 69.11009
540.3283, 68.45105
540.8104, 67.87081
541.2925, 67.35246
541.7747, 66.89688
542.2568, 66.51345
542.7389, 66.24425
543.2210, 66.05428
543.7031, 65.87711
544.1852, 65.75901
544.6674, 65.54303
545.1495, 64.95676
545.6316, 64.15349
546.1137, 63.51577
546.5958, 63.32743
547.0779, 63.25615
547.5601, 63.16397
548.0422, 63.04230
548.5243, 62.84465
549.0064, 62.43909
549.4885, 62.04116
549.9706, 61.79543
550.4528, 61.86605
550.9349, 61.76666
551.4170, 61.38462
551.8991, 60.91811
552.3812, 60.68461
552.8633, 60.75609
553.3455, 60.76410
553.8276, 60.61098
554.3097, 60.33884
554.7918, 60.05232
555.2739, 59.75639
555.7560, 59.51709
556.2382, 59.44075
556.7203, 59.43966
557.2024, 59.31414
557.6845, 59.05382
558.1666, 58.73846
558.6487, 58.36626
559.1309, 58.00508
559.6130, 57.76648
560.0951, 57.76436
560.5772, 57.71336
561.0593, 57.41585
561.5414, 56.98500
562.0236, 56.62554
562.5057, 56.41759
562.9878, 56.24966
563.4699, 56.10332
563.9520, 55.97584
564.4341, 55.83014
564.9163, 55.61338
565.3984, 55.45272
565.8805, 55.44463
566.3626, 55.63967
566.8447, 55.65812
567.3268, 55.46893
567.8090, 55.19191
568.2911, 54.93414
568.7732, 54.69811
569.2553, 54.53051
569.7374, 54.44850
570.2195, 54.41920
570.7017, 54.39854
571.1838, 54.39009
571.6659, 54.40485
572.1480, 54.56931
572.6301, 54.67067
573.1122, 54.45321
573.5944, 53.95576
574.0765, 53.54398
574.5586, 53.40203
575.0407, 53.37905
575.5228, 53.40137
576.0049, 53.49875
576.4871, 53.53229
576.9692, 53.48021
577.4513, 53.36784
577.9334, 53.20388
578.4155, 52.94229
578.8976, 52.74918
579.3798, 52.66389
579.8619, 52.64287
580.3440, 52.56974
580.8261, 52.43699
581.3082, 52.35474
581.7903, 52.39375
582.2725, 52.51139
582.7546, 52.61600
583.2367, 52.70278
583.7188, 52.69649
584.2009, 52.47663
584.6830, 52.15700
585.1652, 51.86109
585.6473, 51.59195
586.1294, 51.42865
586.6115, 51.51110
587.0936, 51.67889
587.5757, 51.76238
588.0579, 51.65103
588.5400, 51.53028
589.0221, 51.40832
589.5042, 51.30090
589.9863, 51.24500
590.4684, 51.27279
590.9506, 51.30211
591.4327, 51.32256
591.9148, 51.33015
592.3969, 51.27105
592.8790, 51.12459
593.3611, 51.00156
593.8433, 51.01590
594.3254, 51.12971
594.8075, 50.91881
595.2896, 51.22464
595.7717, 51.38213
596.2538, 51.39926
596.7360, 50.85556
597.2181, 51.03605
597.7002, 50.92631
598.1823, 50.80468
598.6644, 51.08707
599.1465, 50.62496
599.6287, 50.90094
600.1108, 50.88230
600.5929, 50.99850
601.0750, 50.82270
601.5571, 50.73709
602.0392, 50.94358
602.5214, 50.45917
603.0035, 50.38839
603.4856, 50.50927
603.9677, 50.84740
604.4498, 51.01427
604.9319, 50.99165
605.4141, 50.85643
605.8962, 50.59426
606.3783, 50.24511
606.8604, 50.14643
607.3425, 50.38525
607.8246, 50.68811
608.3068, 50.71819
608.7889, 50.56501
609.2710, 50.41393
609.7531, 50.26218
610.2352, 50.21680
610.7173, 50.47557
611.1995, 50.90625
611.6816, 51.15126
612.1637, 50.92520
612.6458, 50.66062
613.1279, 50.54323
613.6100, 50.58786
614.0922, 50.50819
614.5743, 50.14721
615.0564, 49.86888
615.5385, 49.91981
616.0206, 50.38776
616.5027, 50.66512
616.9849, 50.72245
617.4670, 50.67902
617.9491, 50.62554
618.4312, 50.57618
618.9133, 50.62537
619.3954, 50.82684
619.8776, 51.04142
620.3597, 51.05838
620.8418, 50.96209
621.3239, 50.94000
621.8060, 51.15263
622.2881, 51.38640
622.7703, 51.54189
623.2524, 51.62051
623.7345, 51.63491
624.2166, 51.52888
624.6987, 51.41257
625.1808, 51.29726
625.6630, 51.17069
626.1451, 51.22269
626.6272, 51.55838
627.1093, 51.90165
627.5914, 52.04021
628.0735, 51.95625
628.5557, 51.93771
629.0378, 52.01416
629.5199, 52.09414
630.0020, 52.05703
630.4841, 51.93381
630.9662, 51.81217
631.4484, 51.69500
631.9305, 51.63086
632.4126, 51.68180
632.8947, 51.82042
633.3768, 51.99193
633.8589, 52.33345
634.3411, 52.54537
634.8232, 52.34946
635.3053, 51.84940
635.7874, 51.66841
636.2695, 52.13753
