##NAMES=Botallackite
##RRUFFID=R070066
##IDEAL CHEMISTRY=Cu^2+^_2_Cl(OH)_3_
##LOCALITY=Levante mine, St. Just, Cornwall, England
##OWNER=RRUFF
##SOURCE=Bob Jenkins
##DESCRIPTION=Pale greenish blue bladed crystals
##STATUS=The identification of this mineral is confirmed by single-crystal X-ray diffraction and chemical analysis.
##URL=rruff.info/R070066
##MEASURED CHEMISTRY=Cu_2.01_Cl_0.99_(OH)_3_
138.1841, 500.5751
138.6662, 530.2411
139.1483, 563.2636
139.6305, 600.0453
140.1126, 638.6163
140.5947, 679.8309
141.0768, 722.2079
141.5589, 764.2974
142.0410, 805.3998
142.5232, 847.0516
143.0053, 890.7253
143.4874, 935.1214
143.9695, 986.3774
144.4516, 1052.311
144.9337, 1123.467
145.4159, 1189.763
145.8980, 1246.372
146.3801, 1299.421
146.8622, 1363.605
147.3443, 1446.839
147.8264, 1525.011
148.3086, 1589.720
148.7907, 1647.620
149.2728, 1706.812
149.7549, 1772.076
150.2370, 1837.630
150.7191, 1889.037
151.2013, 1925.505
151.6834, 1945.913
152.1655, 1952.533
152.6476, 1944.746
153.1297, 1920.433
153.6118, 1878.084
154.0940, 1820.955
154.5761, 1759.813
155.0582, 1692.616
155.5403, 1624.022
156.0224, 1551.370
156.5045, 1478.830
156.9867, 1410.360
157.4688, 1348.293
157.9509, 1292.198
158.4330, 1240.150
158.9151, 1185.239
159.3972, 1144.111
159.8794, 1126.275
160.3615, 1120.853
160.8436, 1114.008
161.3257, 1098.345
161.8078, 1076.277
162.2899, 1058.340
162.7721, 1043.573
163.2542, 1034.598
163.7363, 1037.789
164.2184, 1045.755
164.7005, 1047.128
165.1826, 1035.442
165.6648, 1015.027
166.1469, 1005.609
166.6290, 1012.329
167.1111, 1024.105
167.5932, 1044.307
168.0753, 1067.758
168.5575, 1086.313
169.0396, 1095.421
169.5217, 1098.020
170.0038, 1106.199
170.4859, 1122.369
170.9680, 1140.804
171.4502, 1159.697
171.9323, 1180.351
172.4144, 1208.427
172.8965, 1248.644
173.3786, 1292.618
173.8607, 1308.119
174.3429, 1283.584
174.8250, 1249.046
175.3071, 1202.776
175.7892, 1151.171
176.2713, 1105.748
176.7534, 1072.678
177.2356, 1047.339
177.7177, 1015.656
178.1998, 970.0310
178.6819, 929.7573
179.1640, 900.0344
179.6461, 878.8599
180.1283, 863.5981
180.6104, 853.8305
181.0925, 847.6375
181.5746, 840.2557
182.0567, 832.4340
182.5388, 822.6064
183.0210, 793.2201
183.5031, 804.3141
183.9852, 807.7871
184.4673, 804.0488
184.9494, 771.5000
185.4315, 776.1539
185.9137, 765.8975
186.3958, 779.9758
186.8779, 776.4927
187.3600, 772.3981
187.8421, 789.0602
188.3242, 767.4739
188.8064, 783.8069
189.2885, 785.0032
189.7706, 793.1271
190.2527, 786.2499
190.7348, 784.0059
191.2169, 796.7681
191.6991, 801.2213
192.1812, 792.6171
192.6633, 801.1813
193.1454, 797.5934
193.6275, 807.7456
194.1096, 813.2476
194.5918, 808.6624
195.0739, 799.7081
195.5560, 797.2681
196.0381, 805.0048
196.5202, 816.2069
197.0023, 822.9459
197.4845, 825.7459
197.9666, 825.8280
198.4487, 820.3724
198.9308, 813.1552
199.4129, 811.8544
199.8950, 819.2685
200.3772, 827.4871
200.8593, 824.7481
201.3414, 813.0989
201.8235, 806.6625
202.3056, 813.2339
202.7877, 826.2212
203.2699, 836.3152
203.7520, 842.5647
204.2341, 845.6232
204.7162, 845.0237
205.1983, 841.4482
205.6804, 836.8445
206.1626, 829.9049
206.6447, 822.9115
207.1268, 819.0321
207.6089, 818.6940
208.0910, 820.1934
208.5731, 823.4512
209.0553, 827.6818
209.5374, 830.4332
210.0195, 826.9921
210.5016, 824.0092
210.9837, 831.9336
211.4658, 852.3119
211.9480, 870.2615
212.4301, 874.7411
212.9122, 869.3040
213.3943, 862.1771
213.8764, 852.5782
214.3585, 843.2256
214.8407, 835.5836
215.3228, 829.5471
215.8049, 828.9662
216.2870, 840.8129
216.7691, 858.0087
217.2512, 865.7986
217.7334, 856.2224
218.2155, 845.5845
218.6976, 850.7768
219.1797, 870.5007
219.6618, 884.8264
220.1439, 881.2655
220.6261, 869.0131
221.1082, 865.1155
221.5903, 873.2147
222.0724, 882.5921
222.5545, 883.3405
223.0366, 877.4921
223.5188, 879.1827
224.0009, 898.9587
224.4830, 922.8953
224.9651, 928.3727
225.4472, 910.6172
225.9293, 895.9086
226.4115, 902.4495
226.8936, 924.6916
227.3757, 942.8798
227.8578, 950.5056
228.3399, 954.6164
228.8220, 965.5262
229.3041, 983.6112
229.7863, 997.9268
230.2684, 999.1937
230.7505, 993.6122
231.2326, 995.5633
231.7147, 1008.579
232.1968, 1027.324
232.6790, 1048.828
233.1611, 1072.497
233.6432, 1092.443
234.1253, 1100.514
234.6074, 1105.743
235.0895, 1124.826
235.5717, 1162.054
236.0538, 1200.246
236.5359, 1222.356
237.0180, 1231.979
237.5001, 1243.457
237.9822, 1259.322
238.4644, 1278.468
238.9465, 1300.248
239.4286, 1324.656
239.9107, 1349.530
240.3928, 1372.672
240.8749, 1395.033
241.3571, 1419.950
241.8392, 1448.909
242.3213, 1479.478
242.8034, 1513.965
243.2855, 1550.976
243.7676, 1576.973
244.2498, 1579.342
244.7319, 1567.896
245.2140, 1572.208
245.6961, 1602.073
246.1782, 1633.026
246.6603, 1651.889
247.1425, 1661.225
247.6246, 1670.625
248.1067, 1685.682
248.5888, 1700.317
249.0709, 1701.874
249.5530, 1688.929
250.0352, 1670.746
250.5173, 1647.750
250.9994, 1622.207
251.4815, 1599.049
251.9636, 1580.578
252.4457, 1561.791
252.9279, 1533.685
253.4100, 1494.205
253.8921, 1458.466
254.3742, 1434.063
254.8563, 1412.479
255.3384, 1381.699
255.8206, 1339.489
256.3027, 1296.432
256.7848, 1264.487
257.2669, 1245.399
257.7490, 1223.220
258.2311, 1195.945
258.7133, 1166.581
259.1954, 1134.134
259.6775, 1099.947
260.1596, 1072.063
260.6417, 1058.242
261.1238, 1058.048
261.6060, 1051.948
262.0881, 1035.665
262.5702, 1018.433
263.0523, 1003.871
263.5344, 991.8555
264.0165, 981.5866
264.4987, 972.6844
264.9808, 965.0252
265.4629, 957.9537
265.9450, 954.2788
266.4271, 947.8158
266.9092, 933.4158
267.3914, 916.4789
267.8735, 904.9868
268.3556, 902.0916
268.8377, 904.9232
269.3198, 907.7171
269.8019, 913.0984
270.2841, 914.0794
270.7662, 904.9431
271.2483, 894.6456
271.7304, 893.4454
272.2125, 902.5804
272.6946, 912.5240
273.1768, 910.9219
273.6589, 893.3466
274.1410, 877.9171
274.6231, 860.0273
275.1052, 847.7979
275.5873, 849.5264
276.0695, 862.3503
276.5516, 874.7745
277.0337, 876.2920
277.5158, 866.4541
277.9979, 863.0673
278.4800, 878.7877
278.9622, 887.5048
279.4443, 874.9193
279.9264, 851.2287
280.4085, 835.1899
280.8906, 838.3917
281.3727, 854.7932
281.8549, 860.1277
282.3370, 843.9076
282.8191, 830.8241
283.3012, 826.0313
283.7833, 824.8135
284.2654, 822.3636
284.7476, 817.0320
285.2297, 810.5770
285.7118, 806.4204
286.1939, 806.3054
286.6760, 803.7173
287.1581, 794.2861
287.6403, 785.2673
288.1224, 782.2484
288.6045, 785.0724
289.0866, 788.3389
289.5687, 786.0370
290.0508, 777.6281
290.5330, 771.0851
291.0151, 765.8292
291.4972, 763.4255
291.9793, 767.2568
292.4614, 774.4990
292.9435, 778.4446
293.4257, 773.3998
293.9078, 762.4185
294.3899, 756.2457
294.8720, 756.4777
295.3541, 758.1653
295.8362, 760.6412
296.3184, 762.7778
296.8005, 762.2968
297.2826, 757.0137
297.7647, 752.3066
298.2468, 758.8342
298.7289, 778.3956
299.2111, 788.1286
299.6932, 770.5499
300.1753, 747.0158
300.6574, 740.8050
301.1395, 755.2720
301.6216, 770.6033
302.1038, 771.7957
302.5859, 762.3511
303.0680, 755.6478
303.5501, 754.3799
304.0322, 755.9965
304.5143, 759.5898
304.9964, 764.6044
305.4785, 766.8372
305.9607, 762.1850
306.4428, 755.2364
306.9249, 752.0083
307.4070, 753.0121
307.8891, 755.8741
308.3712, 759.4840
308.8534, 763.6904
309.3355, 767.5558
309.8176, 771.9683
310.2997, 775.2047
310.7818, 775.9054
311.2639, 774.5337
311.7461, 772.4375
312.2282, 769.9375
312.7103, 767.5687
313.1924, 767.0109
313.6745, 769.8329
314.1566, 771.0922
314.6388, 766.4385
315.1209, 761.0831
315.6030, 763.3437
316.0851, 774.9545
316.5672, 787.4348
317.0493, 789.6819
317.5315, 777.7911
318.0136, 769.1992
318.4957, 765.6452
318.9778, 763.6331
319.4599, 761.4797
319.9420, 759.0745
320.4242, 756.8276
320.9063, 755.0127
321.3884, 753.6498
321.8705, 753.0732
322.3526, 756.1700
322.8347, 756.7562
323.3169, 752.7019
323.7990, 745.8538
324.2811, 737.9528
324.7632, 729.7347
325.2453, 722.2185
325.7274, 717.6312
326.2096, 717.2108
326.6917, 717.1292
327.1738, 717.2296
327.6559, 717.4421
328.1380, 718.2997
328.6201, 719.5193
329.1023, 719.6750
329.5844, 717.4967
330.0665, 712.9509
330.5486, 706.3158
331.0307, 694.7750
331.5128, 684.6363
331.9950, 678.8188
332.4771, 676.1951
332.9592, 674.7972
333.4413, 674.0801
333.9234, 673.5511
334.4055, 671.4219
334.8877, 666.6813
335.3698, 664.9868
335.8519, 672.4813
336.3340, 682.2311
336.8161, 687.7330
337.2982, 688.2367
337.7804, 683.9197
338.2625, 670.5270
338.7446, 651.1781
339.2267, 640.6224
339.7088, 644.6796
340.1909, 653.1204
340.6731, 654.2731
341.1552, 649.0837
341.6373, 645.3794
342.1194, 645.6954
342.6015, 648.2711
343.0836, 651.8682
343.5658, 656.2913
344.0479, 660.0870
344.5300, 662.7296
345.0121, 663.8000
345.4942, 661.7142
345.9763, 651.8568
346.4585, 644.2457
346.9406, 641.9465
347.4227, 644.4691
347.9048, 653.2365
348.3869, 669.3291
348.8690, 685.3968
349.3512, 687.5861
349.8333, 663.4733
350.3154, 650.0343
350.7975, 655.6902
351.2796, 665.2280
351.7617, 667.0263
352.2439, 661.2565
352.7260, 656.3745
353.2081, 660.7552
353.6902, 674.3253
354.1723, 679.4299
354.6544, 664.3122
355.1366, 652.8339
355.6187, 652.4079
356.1008, 657.5724
356.5829, 660.1909
357.0650, 656.5432
357.5471, 650.7109
358.0293, 650.7202
358.5114, 658.3998
358.9935, 666.0557
359.4756, 675.3220
359.9577, 682.0476
360.4398, 681.9019
360.9220, 675.5549
361.4041, 669.2773
361.8862, 667.4171
362.3683, 669.6248
362.8504, 674.9431
363.3326, 685.2358
363.8147, 694.5005
364.2968, 697.4713
364.7789, 697.2599
365.2610, 699.2692
365.7431, 706.2197
366.2253, 714.0808
366.7074, 719.7090
367.1895, 723.0770
367.6716, 723.4486
368.1537, 719.1989
368.6358, 713.5884
369.1180, 712.0336
369.6001, 714.5470
370.0822, 719.1583
370.5643, 725.4666
371.0464, 733.5203
371.5285, 744.0817
372.0107, 757.0204
372.4928, 770.2020
372.9749, 781.9899
373.4570, 792.3213
373.9391, 801.0071
374.4212, 807.0254
374.9034, 812.7479
375.3855, 817.3266
375.8676, 822.4836
376.3497, 830.8582
376.8318, 843.6335
377.3139, 859.9629
377.7961, 879.1822
378.2782, 906.7444
378.7603, 926.0829
379.2424, 927.6800
379.7245, 929.8956
380.2066, 945.7708
380.6888, 974.1733
381.1709, 1004.091
381.6530, 1025.063
382.1351, 1039.123
382.6172, 1063.753
383.0993, 1106.883
383.5815, 1147.704
384.0636, 1175.165
384.5457, 1198.033
385.0278, 1227.237
385.5099, 1266.871
385.9920, 1309.989
386.4742, 1348.814
386.9563, 1383.668
387.4384, 1420.677
387.9205, 1463.082
388.4026, 1505.762
388.8847, 1541.520
389.3669, 1571.574
389.8490, 1606.172
390.3311, 1651.831
390.8132, 1702.404
391.2953, 1750.527
391.7774, 1796.179
392.2596, 1842.770
392.7417, 1893.494
393.2238, 1946.324
393.7059, 1991.411
394.1880, 2028.912
394.6701, 2059.949
395.1523, 2079.389
395.6344, 2094.789
396.1165, 2119.674
396.5986, 2156.187
397.0807, 2187.842
397.5628, 2193.753
398.0450, 2169.353
398.5271, 2142.033
399.0092, 2107.105
399.4913, 2074.469
399.9734, 2052.671
400.4555, 2035.374
400.9377, 2010.742
401.4197, 1972.392
401.9019, 1923.514
402.3840, 1869.820
402.8661, 1808.398
403.3482, 1750.817
403.8303, 1702.883
404.3124, 1656.670
404.7946, 1604.332
405.2767, 1546.684
405.7588, 1494.483
406.2409, 1458.677
406.7230, 1434.452
407.2051, 1404.166
407.6873, 1365.667
408.1694, 1326.575
408.6515, 1289.327
409.1336, 1255.132
409.6157, 1227.379
410.0978, 1209.871
410.5800, 1193.173
411.0621, 1170.462
411.5442, 1144.105
412.0263, 1119.847
412.5084, 1099.686
412.9905, 1080.740
413.4727, 1058.130
413.9548, 1029.323
414.4369, 1011.363
414.9190, 1016.388
415.4011, 1021.494
415.8832, 1010.647
416.3654, 988.6324
416.8475, 970.0569
417.3296, 963.2368
417.8117, 964.4943
418.2938, 962.3881
418.7759, 955.8499
419.2581, 947.4947
419.7402, 931.4750
420.2223, 918.3321
420.7044, 919.3899
421.1865, 932.9922
421.6686, 944.6011
422.1508, 938.6360
422.6329, 918.7023
423.1150, 911.0122
423.5971, 921.3553
424.0792, 932.0076
424.5613, 932.3540
425.0435, 929.3517
425.5256, 931.9046
426.0077, 943.0834
426.4898, 955.9282
426.9719, 966.9247
427.4540, 975.3538
427.9362, 976.8010
428.4183, 967.9418
428.9004, 960.4674
429.3825, 968.4284
429.8646, 991.8635
430.3467, 1010.706
430.8289, 1017.472
431.3110, 1025.116
431.7931, 1043.645
432.2752, 1069.187
432.7573, 1091.490
433.2394, 1105.751
433.7216, 1115.056
434.2037, 1125.371
434.6858, 1131.467
435.1679, 1149.074
435.6500, 1189.842
436.1321, 1230.825
436.6143, 1255.528
437.0964, 1267.315
437.5785, 1281.335
438.0606, 1308.841
438.5427, 1346.260
439.0248, 1379.347
439.5070, 1405.785
439.9891, 1434.006
440.4712, 1473.235
440.9533, 1511.542
441.4354, 1536.712
441.9175, 1546.941
442.3997, 1556.634
442.8818, 1575.210
443.3639, 1600.530
443.8460, 1629.926
444.3281, 1664.673
444.8102, 1692.754
445.2924, 1704.665
445.7745, 1702.141
446.2566, 1698.113
446.7387, 1699.031
447.2208, 1690.773
447.7029, 1664.898
448.1851, 1627.594
448.6672, 1585.662
449.1493, 1541.605
449.6314, 1499.258
450.1135, 1463.915
450.5956, 1436.927
451.0778, 1408.966
451.5599, 1386.081
452.0420, 1355.927
452.5241, 1308.841
453.0062, 1253.530
453.4883, 1202.044
453.9705, 1159.334
454.4526, 1123.852
454.9347, 1092.769
455.4168, 1065.943
455.8989, 1046.656
456.3810, 1042.930
456.8632, 1038.077
457.3453, 1019.118
457.8274, 989.4451
458.3095, 960.8937
458.7916, 935.7158
459.2737, 915.3539
459.7559, 904.6625
460.2380, 901.8015
460.7201, 892.9471
461.2022, 870.6249
461.6843, 843.9167
462.1664, 830.6156
462.6486, 836.4697
463.1307, 835.2709
463.6128, 819.0914
464.0949, 799.7447
464.5770, 783.6694
465.0591, 772.0020
465.5413, 765.8864
466.0234, 766.6694
466.5055, 771.4326
466.9876, 769.5768
467.4697, 754.2936
467.9518, 745.4883
468.4340, 749.9876
468.9161, 757.1942
469.3982, 759.8239
469.8803, 757.8423
470.3624, 755.9680
470.8445, 759.3647
471.3267, 764.8554
471.8088, 762.3947
472.2909, 750.3608
472.7730, 739.1138
473.2551, 731.4023
473.7372, 728.5195
474.2194, 733.4949
474.7015, 749.7849
475.1836, 760.3441
475.6657, 750.6532
476.1478, 736.0598
476.6299, 738.6600
477.1121, 758.7660
477.5942, 776.9370
478.0763, 778.1589
478.5584, 765.5941
479.0405, 759.5596
479.5226, 762.1844
480.0048, 769.0904
480.4869, 784.2591
480.9690, 800.8618
481.4511, 812.1292
481.9332, 817.7397
482.4153, 822.8870
482.8975, 834.3455
483.3796, 850.1071
483.8617, 853.4544
484.3438, 836.6966
484.8259, 825.1017
485.3080, 834.6401
485.7902, 852.7339
486.2723, 865.7191
486.7544, 870.6231
487.2365, 877.8160
487.7186, 897.0723
488.2007, 921.7928
488.6829, 940.0770
489.1650, 950.4254
489.6471, 956.0359
490.1292, 957.6147
490.6113, 956.4460
491.0934, 962.2346
491.5756, 981.4098
492.0577, 998.2411
492.5398, 1007.560
493.0219, 1014.680
493.5040, 1027.050
493.9861, 1044.515
494.4683, 1058.646
494.9504, 1060.399
495.4325, 1050.820
495.9146, 1043.289
496.3967, 1036.682
496.8788, 1034.359
497.3610, 1041.782
497.8431, 1051.385
498.3252, 1055.406
498.8073, 1052.347
499.2894, 1046.750
499.7715, 1041.965
500.2536, 1036.820
500.7357, 1027.603
501.2179, 1013.713
501.7000, 1001.411
502.1821, 996.1715
502.6642, 995.4723
503.1463, 987.7712
503.6284, 966.7854
504.1106, 948.8759
504.5927, 937.9394
505.0748, 930.9061
505.5569, 926.9249
506.0390, 924.4692
506.5211, 918.5311
507.0033, 904.0063
507.4854, 882.6064
507.9675, 865.9535
508.4496, 855.7834
508.9317, 847.1678
509.4138, 838.7963
509.8960, 831.4489
510.3781, 826.4584
510.8602, 823.8170
511.3423, 820.7298
511.8244, 815.2933
512.3066, 808.2195
512.7887, 801.0170
513.2708, 793.7108
513.7529, 785.0909
514.2350, 773.6188
514.7172, 761.1863
515.1993, 753.2802
515.6814, 752.6677
516.1635, 749.6357
516.6456, 741.6300
517.1277, 731.7363
517.6099, 722.5204
518.0920, 713.7972
518.5741, 703.2581
519.0562, 688.8168
519.5383, 673.2996
520.0204, 666.0621
520.5026, 670.6101
520.9847, 673.9241
521.4668, 675.4141
521.9489, 673.6123
522.4310, 664.1923
522.9131, 649.4883
523.3953, 639.8885
523.8774, 644.2675
524.3595, 653.6647
524.8416, 658.3283
525.3237, 658.2953
525.8058, 652.5438
526.2880, 639.0403
526.7701, 624.3543
527.2522, 618.9651
527.7343, 626.7620
528.2164, 629.5131
528.6985, 620.7008
529.1807, 613.5065
529.6628, 617.6116
530.1449, 627.4180
530.6270, 631.6965
531.1091, 625.7739
531.5912, 615.7132
532.0734, 610.8438
532.5555, 611.6021
533.0376, 613.9497
533.5197, 621.0283
534.0018, 624.7039
534.4839, 614.8452
534.9661, 599.5322
535.4482, 595.4199
535.9303, 611.7042
536.4124, 629.0804
536.8945, 634.4427
537.3766, 631.0481
537.8588, 623.8055
538.3409, 613.8262
538.8230, 604.9845
539.3051, 600.7061
539.7872, 600.8796
540.2693, 602.6832
540.7515, 609.2147
541.2336, 613.4402
541.7157, 613.2574
542.1978, 611.0884
542.6799, 608.6271
543.1620, 606.4596
543.6442, 605.2254
544.1263, 606.0239
544.6084, 608.0891
545.0905, 609.1540
545.5726, 609.6819
546.0547, 606.3219
546.5369, 594.2880
547.0190, 580.5043
547.5011, 575.9407
547.9832, 581.8266
548.4653, 586.3077
548.9474, 584.2353
549.4296, 581.0338
549.9116, 583.7022
550.3937, 589.5466
550.8759, 587.5176
551.3580, 571.6100
551.8401, 552.0223
552.3222, 551.2445
552.8043, 580.0173
553.2864, 597.7053
553.7686, 593.4136
554.2507, 588.1033
554.7328, 591.5565
555.2149, 599.4678
555.6970, 602.7014
556.1791, 597.0470
556.6613, 588.9506
557.1434, 585.1714
557.6255, 584.3548
558.1076, 581.1425
558.5897, 574.1967
559.0718, 567.8303
559.5540, 564.9545
560.0361, 565.6592
560.5182, 570.7905
561.0003, 589.7673
561.4824, 600.3372
561.9645, 590.2098
562.4467, 575.0062
562.9288, 570.7413
563.4109, 578.1120
563.8930, 586.2906
564.3751, 585.6403
564.8572, 579.7978
565.3394, 583.4657
565.8215, 599.9953
566.3036, 611.4010
566.7857, 611.1443
567.2678, 604.6748
567.7499, 596.7023
568.2321, 587.3795
568.7142, 580.3738
569.1963, 578.5115
569.6784, 577.7426
570.1605, 574.4914
570.6426, 569.8584
571.1248, 566.7083
571.6069, 566.0940
572.0890, 567.0798
572.5711, 568.2039
573.0532, 569.0974
573.5353, 572.8596
574.0175, 585.0129
574.4996, 593.1224
574.9817, 592.2322
575.4638, 586.1690
575.9459, 579.0941
576.4280, 571.9111
576.9102, 565.2801
577.3923, 557.2523
577.8744, 550.7501
578.3565, 554.7568
578.8386, 569.5138
579.3207, 579.7761
579.8029, 575.6226
580.2850, 563.6049
580.7671, 560.2304
581.2492, 571.8725
581.7313, 580.8394
582.2134, 588.6559
582.6956, 592.3408
583.1777, 588.4861
583.6598, 579.2636
584.1419, 568.2025
584.6240, 556.4709
585.1061, 547.5313
585.5883, 547.7023
586.0704, 556.5337
586.5525, 566.4494
587.0346, 578.6334
587.5167, 586.0067
587.9988, 579.9525
588.4810, 564.9044
588.9631, 557.7387
589.4452, 564.6669
589.9273, 570.4162
590.4094, 569.7690
590.8915, 566.0674
591.3737, 562.5725
591.8558, 559.6143
592.3379, 555.5759
592.8200, 548.7493
593.3021, 541.3093
593.7842, 540.4984
594.2664, 548.2419
594.7485, 555.5641
595.2306, 562.3329
595.7127, 566.8030
596.1948, 565.7897
596.6769, 561.2661
597.1591, 560.7548
597.6412, 571.0042
598.1233, 580.2380
598.6054, 578.0966
599.0875, 570.0137
599.5696, 566.0768
600.0518, 568.3302
600.5339, 572.7020
601.0160, 575.7039
601.4981, 577.3175
601.9802, 577.4745
602.4623, 577.2399
602.9445, 573.5656
603.4266, 561.8828
603.9087, 549.9897
604.3908, 544.2188
604.8729, 544.1640
605.3550, 544.6866
605.8372, 539.0326
606.3193, 536.2540
606.8014, 554.4226
607.2835, 585.7567
607.7656, 598.7339
608.2477, 582.8901
608.7299, 559.2409
609.2120, 551.5414
609.6941, 560.7674
610.1762, 565.0259
610.6583, 559.2215
611.1404, 554.6860
611.6226, 553.4956
612.1047, 554.3218
612.5868, 556.2844
613.0689, 559.0372
613.5510, 561.8525
614.0331, 564.4205
614.5153, 566.6185
614.9974, 568.8106
615.4795, 570.8078
615.9616, 569.5578
616.4437, 552.6049
616.9258, 565.9925
617.4080, 573.6155
617.8901, 575.7835
618.3722, 556.1587
618.8543, 564.6748
619.3364, 561.9133
619.8185, 558.6894
620.3007, 571.1663
620.7828, 554.7112
621.2649, 566.9391
621.7470, 567.7172
622.2291, 573.7357
622.7112, 568.4068
623.1934, 566.5828
623.6755, 576.1096
624.1576, 579.3514
624.6397, 572.7162
625.1218, 579.0678
625.6039, 562.2163
626.0861, 565.7258
626.5682, 578.0201
627.0503, 571.9555
627.5324, 578.5145
628.0145, 580.2657
628.4966, 560.1677
628.9788, 578.0678
629.4609, 579.5349
629.9430, 564.1290
630.4251, 580.7271
630.9072, 567.6473
631.3893, 565.1607
631.8715, 570.6462
632.3536, 567.8211
632.8357, 578.0985
633.3178, 575.7534
633.7999, 572.2804
634.2820, 566.0159
634.7642, 563.8610
