##NAMES=Botryogen
##RRUFFID=R070362
##IDEAL CHEMISTRY=MgFe^3+^(S^6+^O_4_)_2_(OH)&#183;7H_2_O
##LOCALITY=Queténa Mine, Calama, El Loa Province, Antofagasta Region, Chile
##OWNER=RRUFF
##SOURCE=Michael Scott
##DESCRIPTION=Aggregate of orange pseudo-rhombohedral crystals
##STATUS=The identification of this mineral is confirmed by single-crystal X-ray diffraction and chemical analysis.
##URL=rruff.info/R070362
##MEASURED CHEMISTRY=Mg_1.00_(Fe^3+^_0.90_Al_0.10_)_Σ=1_(S_1.00_O_4_)_2_(OH)·7H_2_O; OH estimated by charge balance; H_2_O by difference
127.2869, 461.7068
127.7690, 495.9895
128.2512, 533.3285
128.7333, 566.3396
129.2154, 589.2199
129.6975, 614.7968
130.1796, 645.9719
130.6617, 680.9945
131.1439, 718.2743
131.6260, 757.6065
132.1081, 797.6503
132.5902, 827.7478
133.0723, 838.8770
133.5544, 848.6066
134.0366, 859.7443
134.5187, 871.7047
135.0008, 883.3055
135.4829, 893.9821
135.9650, 903.5768
136.4471, 907.7889
136.9293, 899.6848
137.4114, 893.7999
137.8935, 896.1664
138.3756, 904.4796
138.8577, 911.8699
139.3398, 912.2612
139.8220, 905.5059
140.3041, 912.9698
140.7862, 941.5983
141.2683, 974.1836
141.7504, 1003.975
142.2325, 1031.110
142.7147, 1058.551
143.1968, 1089.083
143.6789, 1122.605
144.1610, 1152.929
144.6431, 1172.964
145.1252, 1195.949
145.6074, 1231.396
146.0895, 1278.275
146.5716, 1327.922
147.0537, 1375.677
147.5358, 1420.441
148.0179, 1453.889
148.5001, 1464.001
148.9822, 1471.842
149.4643, 1496.474
149.9464, 1538.093
150.4285, 1576.769
150.9106, 1595.772
151.3928, 1595.703
151.8749, 1595.261
152.3570, 1596.297
152.8391, 1596.839
153.3212, 1593.467
153.8033, 1585.751
154.2855, 1580.360
154.7676, 1584.417
155.2497, 1595.818
155.7318, 1605.365
156.2139, 1608.202
156.6960, 1610.199
157.1782, 1618.429
157.6603, 1633.694
158.1424, 1651.751
158.6245, 1668.750
159.1066, 1685.961
159.5887, 1707.132
160.0709, 1732.376
160.5530, 1762.369
161.0351, 1799.041
161.5172, 1843.524
161.9993, 1889.992
162.4814, 1935.138
162.9636, 1979.106
163.4457, 2022.850
163.9278, 2066.662
164.4099, 2110.192
164.8920, 2152.737
165.3741, 2194.663
165.8563, 2234.235
166.3384, 2265.936
166.8205, 2294.905
167.3026, 2330.823
167.7847, 2384.086
168.2668, 2444.879
168.7490, 2491.447
169.2311, 2520.316
169.7132, 2542.619
170.1953, 2561.306
170.6774, 2578.389
171.1595, 2597.236
171.6417, 2620.693
172.1238, 2646.358
172.6059, 2667.056
173.0880, 2678.502
173.5701, 2693.856
174.0522, 2723.397
174.5344, 2759.416
175.0165, 2789.940
175.4986, 2807.044
175.9807, 2816.362
176.4628, 2834.186
176.9449, 2864.789
177.4271, 2896.460
177.9092, 2927.674
178.3913, 2956.345
178.8734, 2978.394
179.3555, 2989.633
179.8376, 2995.304
180.3197, 3012.630
180.8019, 3051.544
181.2840, 3084.415
181.7661, 3101.016
182.2482, 3108.172
182.7303, 3112.644
183.2124, 3116.037
183.6946, 3121.511
184.1767, 3139.062
184.6588, 3174.848
185.1409, 3212.527
185.6230, 3246.308
186.1051, 3279.429
186.5873, 3316.490
187.0694, 3360.249
187.5515, 3407.339
188.0336, 3449.299
188.5157, 3481.399
188.9978, 3515.960
189.4800, 3550.129
189.9621, 3589.474
190.4442, 3642.574
190.9263, 3713.835
191.4084, 3794.816
191.8905, 3864.353
192.3727, 3914.809
192.8548, 3967.420
193.3369, 4030.154
193.8190, 4094.633
194.3011, 4151.746
194.7832, 4197.767
195.2654, 4238.575
195.7475, 4287.480
196.2296, 4353.871
196.7117, 4411.069
197.1938, 4451.901
197.6759, 4485.922
198.1581, 4522.592
198.6402, 4565.028
199.1223, 4606.521
199.6044, 4633.508
200.0865, 4637.486
200.5686, 4643.332
201.0508, 4654.500
201.5329, 4667.315
202.0150, 4679.729
202.4971, 4690.978
202.9792, 4700.110
203.4613, 4705.071
203.9435, 4703.121
204.4256, 4703.107
204.9077, 4708.204
205.3898, 4713.194
205.8719, 4713.249
206.3540, 4708.003
206.8362, 4702.193
207.3183, 4704.370
207.8004, 4723.141
208.2825, 4727.154
208.7646, 4708.665
209.2467, 4683.315
209.7289, 4657.723
210.2110, 4633.935
210.6931, 4612.298
211.1752, 4594.410
211.6573, 4583.235
212.1395, 4564.995
212.6216, 4529.859
213.1037, 4496.603
213.5858, 4475.346
214.0679, 4465.532
214.5500, 4460.107
215.0322, 4453.072
215.5143, 4444.907
215.9964, 4431.776
216.4785, 4409.874
216.9606, 4386.557
217.4427, 4361.775
217.9249, 4337.471
218.4070, 4317.299
218.8891, 4304.494
219.3712, 4299.184
219.8533, 4296.685
220.3354, 4304.602
220.8176, 4307.905
221.2997, 4295.636
221.7818, 4275.580
222.2639, 4263.524
222.7460, 4271.489
223.2281, 4297.506
223.7103, 4319.568
224.1924, 4332.771
224.6745, 4347.236
225.1566, 4360.074
225.6387, 4376.445
226.1208, 4404.469
226.6030, 4449.518
227.0851, 4507.896
227.5672, 4563.916
228.0493, 4613.626
228.5314, 4666.813
229.0135, 4726.472
229.4957, 4789.550
229.9778, 4852.171
230.4599, 4912.513
230.9420, 4972.416
231.4241, 5036.979
231.9062, 5107.229
232.3884, 5180.634
232.8705, 5258.026
233.3526, 5336.972
233.8347, 5416.651
234.3168, 5496.419
234.7989, 5575.899
235.2811, 5654.407
235.7632, 5733.956
236.2453, 5807.901
236.7274, 5883.732
237.2095, 5949.868
237.6916, 5997.250
238.1738, 6024.724
238.6559, 6040.111
239.1380, 6053.347
239.6201, 6066.296
240.1022, 6069.806
240.5843, 6066.227
241.0665, 6050.992
241.5486, 6021.196
242.0307, 5976.756
242.5128, 5919.463
242.9949, 5848.781
243.4770, 5763.536
243.9592, 5677.436
244.4413, 5590.773
244.9234, 5501.917
245.4055, 5407.361
245.8876, 5309.586
246.3697, 5215.864
246.8519, 5133.821
247.3340, 5060.676
247.8161, 4947.699
248.2982, 4899.217
248.7803, 4836.513
249.2624, 4760.354
249.7446, 4630.417
250.2267, 4569.917
250.7088, 4481.597
251.1909, 4392.135
251.6730, 4341.406
252.1551, 4219.305
252.6373, 4167.946
253.1194, 4088.357
253.6015, 4021.695
254.0836, 3927.041
254.5657, 3756.375
255.0478, 3597.216
255.5300, 3476.263
256.0121, 3401.506
256.4942, 3336.244
256.9763, 3271.490
257.4584, 3211.960
257.9406, 3150.768
258.4227, 3085.392
258.9048, 3044.988
259.3869, 3043.013
259.8690, 3037.223
260.3511, 3027.823
260.8333, 3003.997
261.3154, 2998.799
261.7975, 2986.136
262.2796, 2973.167
262.7617, 2970.590
263.2438, 2948.864
263.7260, 2957.176
264.2081, 2965.941
264.6902, 2980.435
265.1723, 2995.511
265.6544, 3004.488
266.1365, 3010.151
266.6187, 3022.118
267.1008, 3052.894
267.5829, 3091.618
268.0650, 3113.948
268.5471, 3115.920
269.0292, 3112.576
269.5114, 3115.636
269.9935, 3120.281
270.4756, 3117.683
270.9577, 3108.136
271.4398, 3088.315
271.9219, 3052.646
272.4041, 3000.762
272.8862, 2941.821
273.3683, 2878.214
273.8504, 2810.869
274.3325, 2741.994
274.8146, 2669.673
275.2968, 2599.257
275.7789, 2534.052
276.2610, 2473.755
276.7431, 2416.540
277.2252, 2361.730
277.7073, 2309.919
278.1895, 2262.131
278.6716, 2218.838
279.1537, 2176.457
279.6358, 2131.159
280.1179, 2086.600
280.6000, 2049.313
281.0822, 2020.724
281.5643, 1998.859
282.0464, 1982.889
282.5285, 1973.391
283.0106, 1963.424
283.4927, 1950.723
283.9749, 1938.197
284.4570, 1928.703
284.9391, 1922.343
285.4212, 1917.154
285.9033, 1912.153
286.3854, 1907.176
286.8676, 1899.141
287.3497, 1882.557
287.8318, 1868.481
288.3139, 1864.135
288.7960, 1866.825
289.2781, 1869.139
289.7603, 1866.946
290.2424, 1861.313
290.7245, 1856.719
291.2066, 1850.097
291.6887, 1848.133
292.1708, 1854.465
292.6530, 1865.088
293.1351, 1875.906
293.6172, 1885.397
294.0993, 1892.917
294.5814, 1897.457
295.0635, 1900.153
295.5457, 1896.852
296.0278, 1878.742
296.5099, 1861.433
296.9920, 1857.609
297.4741, 1867.518
297.9562, 1881.803
298.4384, 1891.334
298.9205, 1895.902
299.4026, 1896.959
299.8847, 1888.762
300.3668, 1882.883
300.8489, 1883.638
301.3311, 1889.875
301.8131, 1895.413
302.2953, 1892.781
302.7774, 1882.736
303.2595, 1894.191
303.7416, 1901.830
304.2237, 1905.859
304.7058, 1895.465
305.1880, 1903.696
305.6701, 1904.463
306.1522, 1904.924
306.6343, 1915.776
307.1164, 1907.479
307.5985, 1928.904
308.0807, 1938.524
308.5628, 1930.491
309.0449, 1920.475
309.5270, 1918.444
310.0091, 1924.950
310.4912, 1932.618
310.9734, 1934.388
311.4555, 1930.958
311.9376, 1929.847
312.4197, 1931.303
312.9018, 1935.788
313.3839, 1944.709
313.8661, 1956.619
314.3482, 1967.554
314.8303, 1972.495
315.3124, 1976.792
315.7945, 1992.660
316.2766, 2022.702
316.7588, 2049.001
317.2409, 2061.665
317.7230, 2063.955
318.2051, 2059.651
318.6872, 2042.634
319.1693, 2030.610
319.6515, 2042.145
320.1336, 2071.811
320.6157, 2094.407
321.0978, 2098.810
321.5799, 2096.460
322.0620, 2106.109
322.5442, 2128.558
323.0263, 2152.811
323.5084, 2176.049
323.9905, 2199.343
324.4726, 2225.541
324.9547, 2255.183
325.4369, 2282.343
325.9190, 2299.966
326.4011, 2306.778
326.8832, 2320.919
327.3653, 2345.071
327.8474, 2373.790
328.3296, 2405.734
328.8117, 2439.972
329.2938, 2474.007
329.7759, 2506.166
330.2580, 2537.722
330.7401, 2573.442
331.2223, 2619.087
331.7044, 2661.993
332.1865, 2698.566
332.6686, 2732.944
333.1507, 2771.293
333.6328, 2814.879
334.1150, 2857.462
334.5971, 2888.502
335.0792, 2899.756
335.5613, 2921.729
336.0434, 2957.475
336.5255, 2999.716
337.0077, 3047.434
337.4898, 3098.618
337.9719, 3150.045
338.4540, 3199.547
338.9361, 3246.875
339.4182, 3289.037
339.9004, 3318.551
340.3825, 3353.835
340.8646, 3407.849
341.3467, 3467.504
341.8288, 3514.581
342.3109, 3540.935
342.7931, 3559.714
343.2752, 3591.604
343.7573, 3638.919
344.2394, 3683.541
344.7215, 3724.376
345.2036, 3758.026
345.6858, 3778.013
346.1679, 3784.751
346.6500, 3795.601
347.1321, 3826.196
347.6142, 3869.158
348.0963, 3905.620
348.5785, 3934.830
349.0606, 3954.227
349.5427, 3958.746
350.0248, 3951.363
350.5069, 3939.493
350.9890, 3920.804
351.4712, 3900.878
351.9533, 3886.328
352.4354, 3875.451
352.9175, 3858.909
353.3996, 3831.488
353.8817, 3796.652
354.3639, 3763.606
354.8460, 3736.593
355.3281, 3702.835
355.8102, 3656.708
356.2923, 3603.645
356.7744, 3549.053
357.2566, 3494.238
357.7387, 3441.737
358.2208, 3395.189
358.7029, 3356.694
359.1850, 3311.474
359.6671, 3248.154
360.1493, 3190.503
360.6314, 3154.063
361.1135, 3131.480
361.5956, 3105.585
362.0777, 3065.737
362.5598, 3016.342
363.0420, 2972.912
363.5241, 2935.301
364.0062, 2904.805
364.4883, 2889.774
364.9704, 2875.972
365.4525, 2848.301
365.9347, 2805.012
366.4168, 2760.822
366.8989, 2731.688
367.3810, 2717.836
367.8631, 2712.589
368.3452, 2722.930
368.8274, 2733.478
369.3095, 2733.675
369.7916, 2727.988
370.2737, 2727.346
370.7558, 2737.986
371.2379, 2755.655
371.7201, 2772.992
372.2022, 2789.598
372.6843, 2810.004
373.1664, 2841.817
373.6485, 2874.708
374.1306, 2890.015
374.6128, 2879.585
375.0949, 2878.945
375.5770, 2916.359
376.0591, 2974.863
376.5412, 3019.472
377.0233, 3042.108
377.5055, 3058.518
377.9876, 3085.843
378.4697, 3125.562
378.9518, 3155.235
379.4339, 3161.450
379.9160, 3169.291
380.3982, 3196.023
380.8803, 3236.990
381.3624, 3278.678
381.8445, 3314.567
382.3266, 3343.438
382.8087, 3361.839
383.2909, 3358.964
383.7730, 3358.966
384.2551, 3369.683
384.7372, 3378.722
385.2193, 3373.730
385.7014, 3354.168
386.1836, 3330.919
386.6657, 3316.241
387.1478, 3311.011
387.6299, 3298.499
388.1120, 3273.934
388.5941, 3246.919
389.0763, 3222.853
389.5584, 3198.027
390.0405, 3164.674
390.5226, 3116.327
391.0047, 3066.411
391.4868, 3041.438
391.9690, 3045.651
392.4511, 3034.739
392.9332, 2990.181
393.4153, 2931.515
393.8974, 2876.241
394.3795, 2824.558
394.8617, 2776.325
395.3438, 2729.564
395.8259, 2686.875
396.3080, 2655.084
396.7901, 2635.525
397.2722, 2615.078
397.7544, 2584.635
398.2365, 2545.440
398.7186, 2505.925
399.2007, 2461.911
399.6828, 2422.611
400.1649, 2395.022
400.6471, 2373.783
401.1292, 2349.127
401.6113, 2317.678
402.0934, 2284.719
402.5755, 2258.044
403.0576, 2240.930
403.5398, 2220.529
404.0219, 2195.876
404.5040, 2169.140
404.9861, 2140.671
405.4682, 2110.960
405.9503, 2080.790
406.4325, 2050.450
406.9146, 2020.443
407.3967, 1993.071
407.8788, 1968.953
408.3609, 1946.378
408.8430, 1924.142
409.3252, 1903.603
409.8073, 1886.822
410.2894, 1873.798
410.7715, 1860.708
411.2536, 1843.699
411.7357, 1823.600
412.2179, 1805.342
412.7000, 1789.903
413.1821, 1774.860
413.6642, 1756.561
414.1463, 1737.606
414.6284, 1724.332
415.1106, 1721.320
415.5927, 1720.014
416.0748, 1713.973
416.5569, 1704.495
417.0390, 1695.786
417.5211, 1689.474
418.0033, 1683.817
418.4854, 1676.456
418.9675, 1667.497
419.4496, 1656.015
419.9317, 1632.925
420.4138, 1614.836
420.8960, 1618.072
421.3781, 1637.187
421.8602, 1652.096
422.3423, 1648.876
422.8244, 1633.569
423.3065, 1632.847
423.7887, 1660.188
424.2708, 1681.401
424.7529, 1688.930
425.2350, 1692.220
425.7171, 1697.141
426.1992, 1705.430
426.6814, 1718.044
427.1635, 1737.376
427.6456, 1762.926
428.1277, 1786.659
428.6098, 1807.404
429.0919, 1828.535
429.5741, 1852.581
430.0562, 1878.031
430.5383, 1901.900
431.0204, 1921.395
431.5025, 1943.734
431.9846, 1973.296
432.4668, 2010.395
432.9489, 2057.311
433.4310, 2115.897
433.9131, 2180.145
434.3952, 2243.275
434.8773, 2304.645
435.3595, 2369.270
435.8416, 2431.532
436.3237, 2502.196
436.8058, 2593.099
437.2879, 2698.039
437.7701, 2801.923
438.2522, 2896.805
438.7343, 2986.973
439.2164, 3082.570
439.6985, 3185.243
440.1806, 3290.439
440.6628, 3391.866
441.1449, 3501.261
441.6270, 3629.720
442.1091, 3774.214
442.5912, 3922.144
443.0733, 4062.135
443.5555, 4198.131
444.0376, 4345.736
444.5197, 4507.250
445.0018, 4674.203
445.4839, 4846.298
445.9660, 5022.522
446.4482, 5205.183
446.9303, 5395.326
447.4124, 5579.807
447.8945, 5749.136
448.3766, 5907.492
448.8587, 6064.174
449.3409, 6221.688
449.8230, 6369.259
450.3051, 6500.928
450.7872, 6615.511
451.2693, 6710.087
451.7514, 6786.134
452.2336, 6842.335
452.7157, 6878.690
453.1978, 6894.512
453.6799, 6888.555
454.1620, 6860.495
454.6441, 6809.885
455.1263, 6731.373
455.6084, 6616.336
456.0905, 6522.888
456.5726, 6488.616
457.0547, 6438.429
457.5368, 6342.575
458.0190, 6217.279
458.5011, 6089.407
458.9832, 5969.874
459.4653, 5852.635
459.9474, 5725.290
460.4295, 5588.043
460.9117, 5459.891
461.3938, 5347.757
461.8759, 5241.426
462.3580, 5133.656
462.8401, 5024.050
463.3222, 4908.196
463.8044, 4777.481
464.2865, 4645.159
464.7686, 4520.988
465.2507, 4405.404
465.7328, 4299.768
466.2149, 4205.585
466.6971, 4118.792
467.1792, 4033.571
467.6613, 3953.022
468.1434, 3866.561
468.6255, 3763.073
469.1076, 3663.250
469.5898, 3583.809
470.0719, 3520.179
470.5540, 3457.619
471.0361, 3386.158
471.5182, 3310.161
472.0003, 3240.687
472.4825, 3179.304
472.9646, 3121.427
473.4467, 3065.746
473.9288, 3014.045
474.4109, 2967.003
474.8930, 2925.060
475.3752, 2889.692
475.8573, 2864.512
476.3394, 2845.394
476.8215, 2826.172
477.3036, 2806.741
477.7857, 2784.712
478.2679, 2756.590
478.7500, 2727.050
479.2321, 2707.351
479.7142, 2698.005
480.1963, 2695.119
480.6784, 2701.439
481.1606, 2711.581
481.6427, 2717.922
482.1248, 2722.035
482.6069, 2734.429
483.0890, 2763.997
483.5711, 2807.393
484.0533, 2846.508
484.5354, 2877.035
485.0175, 2910.485
485.4996, 2951.425
485.9817, 2993.516
486.4638, 3029.649
486.9460, 3060.227
487.4281, 3093.593
487.9102, 3135.608
488.3923, 3185.481
488.8744, 3240.647
489.3565, 3300.739
489.8387, 3368.143
490.3208, 3448.426
490.8029, 3534.494
491.2850, 3610.564
491.7671, 3672.870
492.2492, 3736.603
492.7314, 3808.564
493.2135, 3883.072
493.6956, 3954.737
494.1777, 4022.283
494.6598, 4085.566
495.1419, 4144.126
495.6241, 4198.359
496.1062, 4252.817
496.5883, 4317.887
497.0704, 4367.258
497.5525, 4402.897
498.0346, 4419.914
498.5168, 4409.585
498.9989, 4373.848
499.4810, 4328.105
499.9631, 4282.142
500.4452, 4236.355
500.9273, 4196.793
501.4095, 4168.378
501.8916, 4124.478
502.3737, 4046.878
502.8558, 3949.864
503.3379, 3858.706
503.8200, 3777.197
504.3022, 3688.595
504.7843, 3576.812
505.2664, 3460.522
505.7485, 3366.303
506.2306, 3293.065
506.7127, 3218.805
507.1949, 3127.239
507.6770, 3024.183
508.1591, 2935.984
508.6412, 2867.771
509.1233, 2807.622
509.6054, 2762.515
510.0876, 2718.926
510.5697, 2665.926
511.0518, 2604.369
511.5339, 2543.193
512.0161, 2487.400
512.4982, 2437.579
512.9803, 2396.630
513.4624, 2366.418
513.9445, 2334.937
514.4266, 2294.744
514.9088, 2254.324
515.3909, 2226.154
515.8730, 2211.357
516.3551, 2193.265
516.8372, 2158.529
517.3193, 2124.359
517.8015, 2109.490
518.2836, 2110.672
518.7657, 2111.021
519.2478, 2101.623
519.7299, 2086.027
520.2120, 2072.526
520.6942, 2061.362
521.1763, 2051.888
521.6584, 2045.497
522.1405, 2039.300
522.6226, 2030.595
523.1047, 2020.775
523.5869, 2013.577
524.0690, 2011.027
524.5511, 2011.806
525.0332, 2015.310
525.5153, 2021.502
525.9974, 2023.071
526.4796, 2014.748
526.9617, 2007.057
527.4438, 2014.110
527.9259, 2033.867
528.4080, 2048.832
528.8901, 2056.328
529.3723, 2058.644
529.8544, 2051.148
530.3365, 2040.593
530.8186, 2040.730
531.3007, 2056.079
531.7828, 2078.511
532.2650, 2097.605
532.7471, 2113.633
533.2292, 2124.786
533.7113, 2120.447
534.1934, 2123.751
534.6755, 2148.280
535.1577, 2181.921
535.6398, 2207.761
536.1219, 2220.551
536.6040, 2230.171
537.0861, 2244.944
537.5682, 2263.887
538.0504, 2284.391
538.5325, 2306.322
539.0146, 2327.729
539.4967, 2347.037
539.9788, 2364.523
540.4609, 2381.175
540.9431, 2388.362
541.4252, 2406.683
541.9073, 2448.724
542.3894, 2498.248
542.8715, 2539.302
543.3536, 2571.162
543.8358, 2603.268
544.3179, 2643.190
544.8000, 2689.470
545.2821, 2735.618
545.7642, 2780.687
546.2463, 2828.106
546.7285, 2881.555
547.2106, 2935.375
547.6927, 2983.219
548.1748, 3025.811
548.6569, 3073.994
549.1390, 3132.349
549.6211, 3198.343
550.1032, 3270.515
550.5853, 3348.113
551.0674, 3426.357
551.5496, 3503.752
552.0317, 3583.168
552.5138, 3670.215
552.9959, 3768.918
553.4780, 3862.629
553.9601, 3944.031
554.4423, 4029.424
554.9244, 4128.220
555.4065, 4234.496
555.8886, 4339.417
556.3707, 4440.282
556.8528, 4536.699
557.3350, 4626.833
557.8171, 4711.522
558.2992, 4798.520
558.7813, 4890.280
559.2634, 4979.027
559.7455, 5061.725
560.2277, 5136.864
560.7098, 5201.893
561.1919, 5261.015
561.6740, 5303.055
562.1561, 5322.587
562.6382, 5324.445
563.1204, 5311.126
563.6025, 5284.688
564.0846, 5250.838
564.5667, 5213.949
565.0488, 5171.665
565.5309, 5113.755
566.0131, 5036.884
566.4952, 4952.980
566.9773, 4866.403
567.4594, 4770.434
567.9415, 4660.284
568.4236, 4536.493
568.9058, 4402.668
569.3879, 4252.321
569.8700, 4098.989
570.3521, 3952.448
570.8342, 3813.214
571.3163, 3684.035
571.7985, 3566.128
572.2806, 3454.425
572.7627, 3343.086
573.2448, 3230.790
573.7269, 3128.057
574.2090, 3039.407
574.6912, 2953.035
575.1733, 2861.957
575.6554, 2773.827
576.1375, 2698.525
576.6196, 2637.441
577.1017, 2580.966
577.5839, 2518.876
578.0660, 2454.339
578.5481, 2398.481
579.0302, 2352.074
579.5123, 2309.480
579.9944, 2267.940
580.4766, 2229.133
580.9587, 2196.864
581.4408, 2170.949
581.9229, 2149.792
582.4050, 2136.501
582.8871, 2125.150
583.3693, 2112.068
583.8514, 2097.818
584.3335, 2084.308
584.8156, 2072.511
585.2977, 2061.078
585.7798, 2045.435
586.2620, 2024.292
586.7441, 2015.739
587.2262, 2027.091
587.7083, 2040.405
588.1904, 2045.417
588.6725, 2045.684
589.1547, 2046.803
589.6368, 2050.019
590.1189, 2052.794
590.6010, 2054.457
591.0831, 2054.698
591.5652, 2050.447
592.0474, 2043.249
592.5295, 2041.976
593.0116, 2053.103
593.4937, 2072.633
593.9758, 2087.877
594.4579, 2094.704
594.9401, 2106.907
595.4222, 2131.894
595.9043, 2156.735
596.3864, 2173.347
596.8685, 2184.639
597.3506, 2198.628
597.8328, 2218.990
598.3149, 2241.411
598.7970, 2262.201
599.2791, 2282.063
599.7612, 2301.563
600.2433, 2320.875
600.7255, 2345.466
601.2076, 2381.773
601.6897, 2427.414
602.1718, 2462.804
602.6539, 2474.759
603.1360, 2494.382
603.6182, 2530.652
604.1003, 2570.011
604.5824, 2602.746
605.0645, 2628.894
605.5466, 2653.109
606.0287, 2677.087
606.5109, 2702.146
606.9930, 2732.242
607.4751, 2766.413
607.9572, 2796.741
608.4393, 2821.590
608.9214, 2841.151
609.4036, 2853.894
609.8857, 2859.813
610.3678, 2872.240
610.8499, 2906.574
611.3320, 2927.322
611.8141, 2913.546
612.2963, 2890.280
612.7784, 2885.365
613.2605, 2899.565
613.7426, 2911.425
614.2247, 2903.657
614.7068, 2882.988
615.1890, 2865.688
615.6711, 2851.958
616.1532, 2837.716
616.6353, 2823.626
617.1174, 2805.431
617.5995, 2776.411
618.0817, 2736.217
618.5638, 2699.677
619.0459, 2672.787
619.5280, 2643.430
620.0101, 2608.470
