##NAMES=Botryogen
##RRUFFID=R070581
##IDEAL CHEMISTRY=MgFe^3+^(S^6+^O_4_)_2_(OH)&#183;7H_2_O
##LOCALITY=Redington mine, Knoxville, Napa County, California, USA
##OWNER=RRUFF
##SOURCE=James Shigley
##DESCRIPTION=Red-orange aggregate of pseudo-rhombohedral crystals
##STATUS=The identification of this mineral has been confirmed by X-ray diffraction and chemical analysis
##URL=rruff.info/R070581
##MEASURED CHEMISTRY=(Mg_0.99_Mn_0.01_)_Σ=1_(Fe^3+^_0.97_Al_0.03_)_Σ=1_(S_1.00_O_4_)_2_(OH)·7H_2_O; OH estimated by charge balance; H_2_O by difference
131.3274, 5466.841
131.8095, 5575.410
132.2917, 5714.933
132.7738, 5876.132
133.2559, 6015.502
133.7380, 6123.195
134.2201, 6206.051
134.7022, 6282.109
135.1843, 6352.067
135.6665, 6413.314
136.1486, 6463.564
136.6307, 6502.363
137.1128, 6531.155
137.5949, 6549.356
138.0770, 6557.109
138.5592, 6559.782
139.0413, 6558.693
139.5234, 6550.364
140.0055, 6528.402
140.4876, 6490.801
140.9697, 6446.259
141.4519, 6399.558
141.9340, 6351.524
142.4161, 6294.502
142.8982, 6224.028
143.3803, 6144.488
143.8624, 6070.043
144.3446, 5990.096
144.8267, 5915.500
145.3088, 5835.671
145.7909, 5808.044
146.2730, 5783.279
146.7551, 5756.451
147.2373, 5727.370
147.7194, 5699.429
148.2015, 5673.833
148.6836, 5648.525
149.1657, 5620.160
149.6478, 5573.312
150.1300, 5542.505
150.6121, 5539.873
151.0942, 5580.908
151.5763, 5603.128
152.0584, 5592.246
152.5405, 5565.148
153.0227, 5550.486
153.5048, 5567.280
153.9869, 5581.178
154.4690, 5579.389
154.9511, 5539.883
155.4332, 5515.185
155.9154, 5509.025
156.3975, 5520.287
156.8796, 5544.744
157.3617, 5602.758
157.8438, 5661.192
158.3259, 5698.451
158.8080, 5678.395
159.2902, 5669.792
159.7723, 5692.730
160.2544, 5746.896
160.7365, 5803.648
161.2186, 5863.235
161.7007, 5918.182
162.1829, 5960.778
162.6650, 5973.879
163.1471, 5985.744
163.6292, 6010.772
164.1113, 6053.390
164.5934, 6093.528
165.0756, 6118.673
165.5577, 6135.875
166.0398, 6157.781
166.5219, 6191.249
167.0040, 6230.024
167.4861, 6273.015
167.9683, 6330.413
168.4504, 6372.124
168.9325, 6361.141
169.4146, 6313.573
169.8967, 6286.298
170.3788, 6334.563
170.8610, 6411.116
171.3431, 6465.538
171.8252, 6469.093
172.3073, 6458.509
172.7894, 6462.385
173.2715, 6479.792
173.7537, 6500.314
174.2358, 6515.458
174.7179, 6528.831
175.2000, 6546.568
175.6821, 6569.487
176.1642, 6598.944
176.6464, 6640.917
177.1285, 6696.942
177.6106, 6750.395
178.0927, 6786.331
178.5748, 6807.200
179.0569, 6820.461
179.5390, 6819.269
180.0212, 6815.285
180.5033, 6832.899
180.9854, 6881.159
181.4675, 6933.080
181.9496, 6951.791
182.4317, 6941.265
182.9139, 6924.987
183.3960, 6916.459
183.8781, 6913.407
184.3602, 6909.048
184.8423, 6899.020
185.3244, 6890.405
185.8066, 6898.139
186.2887, 6921.900
186.7708, 6948.719
187.2529, 6965.072
187.7350, 6973.884
188.2171, 6987.172
188.6993, 7007.273
189.1814, 7034.605
189.6635, 7074.239
190.1456, 7128.452
190.6277, 7182.381
191.1098, 7214.618
191.5920, 7227.541
192.0741, 7248.402
192.5562, 7292.433
193.0383, 7355.475
193.5204, 7412.289
194.0025, 7463.446
194.4847, 7508.922
194.9668, 7545.183
195.4489, 7571.671
195.9310, 7602.975
196.4131, 7649.401
196.8952, 7709.713
197.3774, 7764.273
197.8595, 7809.903
198.3416, 7850.939
198.8237, 7896.412
199.3058, 7945.675
199.7879, 7997.715
200.2701, 8051.502
200.7522, 8106.876
201.2343, 8163.100
201.7164, 8220.523
202.1985, 8278.288
202.6806, 8332.558
203.1628, 8381.065
203.6449, 8431.853
204.1270, 8493.870
204.6091, 8570.160
205.0912, 8638.560
205.5733, 8694.201
206.0555, 8738.379
206.5376, 8781.559
207.0197, 8826.475
207.5018, 8865.910
207.9839, 8890.643
208.4660, 8897.171
208.9482, 8904.494
209.4303, 8918.182
209.9124, 8938.559
210.3945, 8957.125
210.8766, 8973.942
211.3587, 8988.814
211.8409, 9001.206
212.3230, 9010.047
212.8051, 9019.067
213.2872, 9028.961
213.7693, 9039.354
214.2514, 9052.172
214.7336, 9067.036
215.2157, 9084.549
215.6978, 9107.226
216.1799, 9139.884
216.6620, 9167.116
217.1441, 9180.024
217.6263, 9172.290
218.1084, 9169.106
218.5905, 9169.179
219.0726, 9174.693
219.5547, 9196.146
220.0368, 9247.238
220.5190, 9290.621
221.0011, 9298.774
221.4832, 9245.246
221.9653, 9226.495
222.4474, 9260.404
222.9295, 9337.094
223.4117, 9400.430
223.8938, 9447.835
224.3759, 9486.606
224.8580, 9520.382
225.3401, 9542.177
225.8222, 9573.822
226.3043, 9614.287
226.7865, 9664.761
227.2686, 9745.227
227.7507, 9873.032
228.2328, 10011.03
228.7149, 10125.45
229.1970, 10201.53
229.6792, 10280.97
230.1613, 10375.15
230.6434, 10484.87
231.1255, 10582.32
231.6076, 10655.63
232.0897, 10724.27
232.5719, 10812.28
233.0540, 10927.42
233.5361, 11046.95
234.0182, 11170.11
234.5003, 11300.58
234.9824, 11412.18
235.4646, 11503.54
235.9467, 11577.28
236.4288, 11634.93
236.9109, 11665.18
237.3930, 11698.67
237.8751, 11751.16
238.3573, 11840.24
238.8394, 11891.76
239.3215, 11898.48
239.8036, 11871.17
240.2857, 11828.03
240.7678, 11760.60
241.2500, 11689.84
241.7321, 11628.94
242.2142, 11604.17
242.6963, 11524.42
243.1784, 11360.12
243.6605, 11146.59
244.1427, 10978.00
244.6248, 10882.36
245.1069, 10791.80
245.5890, 10674.16
246.0711, 10519.07
246.5532, 10358.55
247.0353, 10193.53
247.5175, 10023.20
247.9996, 9847.422
248.4817, 9660.032
248.9638, 9474.315
249.4459, 9299.140
249.9280, 9142.731
250.4102, 8979.476
250.8923, 8802.554
251.3744, 8614.532
251.8565, 8444.110
252.3386, 8297.552
252.8207, 8156.982
253.3029, 8010.265
253.7850, 7854.470
254.2671, 7697.709
254.7492, 7539.443
255.2313, 7380.119
255.7134, 7232.304
256.1956, 7097.709
256.6777, 6974.347
257.1598, 6859.284
257.6419, 6750.166
258.1240, 6654.779
258.6061, 6579.092
259.0883, 6521.802
259.5704, 6445.099
260.0525, 6325.430
260.5346, 6216.203
261.0167, 6180.295
261.4988, 6262.772
261.9810, 6307.144
262.4631, 6268.885
262.9452, 6146.026
263.4273, 6062.674
263.9094, 6032.874
264.3915, 6024.570
264.8737, 6000.721
265.3558, 5949.851
265.8379, 5915.964
266.3200, 5917.057
266.8021, 5955.432
267.2842, 5968.413
267.7664, 5943.292
268.2485, 5909.884
268.7306, 5908.077
269.2127, 5951.795
269.6948, 5985.135
270.1769, 5992.401
270.6591, 5972.628
271.1412, 5942.793
271.6233, 5902.218
272.1054, 5852.586
272.5875, 5791.662
273.0696, 5715.280
273.5518, 5643.727
274.0339, 5584.653
274.5160, 5539.324
274.9981, 5490.842
275.4802, 5440.450
275.9623, 5384.878
276.4445, 5317.135
276.9266, 5232.831
277.4087, 5156.519
277.8908, 5101.942
278.3729, 5070.178
278.8550, 5026.133
279.3372, 4967.213
279.8193, 4900.371
280.3014, 4831.583
280.7835, 4757.657
281.2656, 4702.568
281.7477, 4685.880
282.2298, 4708.662
282.7119, 4708.514
283.1941, 4680.343
283.6762, 4638.646
284.1583, 4603.083
284.6404, 4572.914
285.1225, 4555.071
285.6046, 4559.623
286.0868, 4584.535
286.5689, 4596.987
287.0510, 4594.530
287.5331, 4583.241
288.0152, 4569.880
288.4973, 4554.514
288.9795, 4543.759
289.4616, 4543.312
289.9437, 4551.507
290.4258, 4558.899
290.9079, 4566.122
291.3900, 4569.977
291.8722, 4559.856
292.3543, 4537.063
292.8364, 4522.976
293.3185, 4534.562
293.8006, 4565.119
294.2827, 4589.180
294.7649, 4604.895
295.2470, 4614.650
295.7291, 4620.607
296.2112, 4623.102
296.6933, 4624.675
297.1754, 4628.005
297.6576, 4631.480
298.1397, 4628.061
298.6218, 4614.114
299.1039, 4603.332
299.5860, 4619.163
300.0681, 4656.085
300.5503, 4690.100
301.0324, 4709.077
301.5145, 4715.548
301.9966, 4711.355
302.4787, 4694.502
302.9608, 4675.248
303.4430, 4663.576
303.9251, 4658.805
304.4072, 4658.712
304.8893, 4665.471
305.3714, 4674.970
305.8535, 4681.147
306.3357, 4682.446
306.8178, 4683.682
307.2999, 4691.375
307.7820, 4702.901
308.2641, 4711.333
308.7462, 4707.540
309.2284, 4701.553
309.7105, 4704.937
310.1926, 4720.840
310.6747, 4738.714
311.1568, 4748.261
311.6389, 4753.703
312.1211, 4764.105
312.6032, 4794.253
313.0853, 4824.786
313.5674, 4837.295
314.0495, 4823.993
314.5316, 4814.209
315.0138, 4825.458
315.4959, 4851.918
315.9780, 4883.094
316.4601, 4920.707
316.9422, 4956.790
317.4243, 4985.451
317.9065, 5004.720
318.3886, 5023.089
318.8707, 5040.320
319.3528, 5059.570
319.8349, 5085.934
320.3170, 5132.978
320.7992, 5177.550
321.2813, 5205.188
321.7634, 5206.989
322.2455, 5221.353
322.7276, 5272.289
323.2097, 5339.003
323.6919, 5392.579
324.1740, 5404.465
324.6561, 5421.003
325.1382, 5460.856
325.6203, 5532.102
326.1024, 5598.251
326.5845, 5655.197
327.0667, 5704.178
327.5488, 5746.909
328.0309, 5775.153
328.5130, 5804.718
328.9951, 5837.859
329.4772, 5872.785
329.9594, 5919.025
330.4415, 5988.266
330.9236, 6064.023
331.4057, 6126.583
331.8878, 6155.657
332.3699, 6197.326
332.8521, 6268.793
333.3342, 6377.822
333.8163, 6455.332
334.2984, 6476.969
334.7805, 6486.473
335.2626, 6533.989
335.7448, 6649.667
336.2269, 6745.344
336.7090, 6795.519
337.1911, 6798.963
337.6732, 6829.138
338.1553, 6895.218
338.6375, 6975.854
339.1196, 7053.360
339.6017, 7129.285
340.0838, 7198.919
340.5659, 7262.430
341.0480, 7319.245
341.5302, 7362.426
342.0123, 7386.620
342.4944, 7410.741
342.9765, 7451.629
343.4586, 7509.646
343.9407, 7578.653
344.4229, 7665.297
344.9050, 7758.333
345.3871, 7805.001
345.8692, 7799.609
346.3513, 7787.720
346.8334, 7812.652
347.3156, 7870.014
347.7977, 7913.904
348.2798, 7931.840
348.7619, 7935.598
349.2440, 7954.823
349.7261, 7989.143
350.2083, 8016.136
350.6904, 8012.611
351.1725, 7988.004
351.6546, 7972.000
352.1367, 7974.980
352.6188, 7979.820
353.1010, 7960.223
353.5831, 7919.661
354.0652, 7877.238
354.5473, 7841.752
355.0294, 7812.837
355.5115, 7793.315
355.9937, 7790.478
356.4758, 7779.951
356.9579, 7733.594
357.4400, 7660.256
357.9221, 7585.991
358.4042, 7514.318
358.8864, 7453.868
359.3685, 7417.957
359.8506, 7416.300
360.3327, 7410.675
360.8148, 7366.097
361.2969, 7302.209
361.7791, 7255.112
362.2612, 7261.454
362.7433, 7272.800
363.2254, 7257.340
363.7075, 7204.309
364.1896, 7159.295
364.6718, 7139.925
365.1539, 7136.891
365.6360, 7137.873
366.1181, 7139.035
366.6002, 7144.515
367.0823, 7156.630
367.5645, 7176.308
368.0466, 7197.172
368.5287, 7205.573
369.0108, 7219.965
369.4929, 7258.398
369.9750, 7361.988
370.4571, 7446.955
370.9392, 7491.018
371.4214, 7491.504
371.9035, 7511.066
372.3856, 7558.593
372.8677, 7617.402
373.3498, 7675.459
373.8319, 7734.003
374.3141, 7787.749
374.7962, 7833.479
375.2783, 7872.977
375.7604, 7918.972
376.2425, 7972.415
376.7246, 8030.872
377.2068, 8095.028
377.6889, 8169.670
378.1710, 8230.107
378.6531, 8266.539
379.1352, 8291.503
379.6173, 8347.324
380.0995, 8443.002
380.5816, 8530.319
381.0637, 8573.429
381.5458, 8574.323
382.0279, 8596.182
382.5100, 8649.942
382.9922, 8714.080
383.4743, 8752.603
383.9564, 8766.079
384.4385, 8772.531
384.9206, 8785.565
385.4027, 8798.927
385.8849, 8790.366
386.3670, 8754.930
386.8491, 8716.904
387.3312, 8716.534
387.8133, 8739.105
388.2954, 8740.174
388.7776, 8688.186
389.2597, 8609.369
389.7418, 8532.864
390.2239, 8460.026
390.7060, 8386.198
391.1881, 8307.141
391.6703, 8224.021
392.1524, 8139.307
392.6345, 8049.602
393.1166, 7960.990
393.5987, 7880.317
394.0808, 7806.650
394.5630, 7729.920
395.0451, 7651.140
395.5272, 7563.785
396.0093, 7463.971
396.4914, 7326.353
396.9735, 7202.181
397.4557, 7114.088
397.9378, 7054.009
398.4199, 6986.935
398.9020, 6900.244
399.3841, 6809.086
399.8662, 6721.075
400.3484, 6639.247
400.8305, 6557.195
401.3126, 6471.998
401.7947, 6386.528
402.2768, 6307.652
402.7589, 6242.905
403.2411, 6175.202
403.7232, 6097.089
404.2053, 6003.112
404.6874, 5920.859
405.1695, 5856.231
405.6516, 5797.769
406.1338, 5727.485
406.6159, 5640.128
407.0980, 5556.540
407.5801, 5481.908
408.0622, 5415.729
408.5443, 5362.283
409.0265, 5325.140
409.5086, 5287.597
409.9907, 5225.712
410.4728, 5139.827
410.9549, 5070.755
411.4370, 5032.817
411.9192, 5014.740
412.4013, 4989.083
412.8834, 4956.106
413.3655, 4919.766
413.8476, 4882.300
414.3297, 4844.072
414.8119, 4804.959
415.2939, 4764.497
415.7761, 4723.684
416.2582, 4675.745
416.7403, 4625.153
417.2224, 4589.327
417.7045, 4592.180
418.1866, 4607.306
418.6688, 4606.026
419.1509, 4581.437
419.6330, 4554.068
420.1151, 4530.714
420.5972, 4514.243
421.0793, 4509.098
421.5615, 4534.397
422.0436, 4557.047
422.5257, 4555.558
423.0078, 4526.089
423.4899, 4506.778
423.9720, 4516.530
424.4542, 4537.649
424.9363, 4554.052
425.4184, 4554.340
425.9005, 4560.059
426.3826, 4577.612
426.8647, 4606.074
427.3469, 4630.961
427.8290, 4651.110
428.3111, 4668.885
428.7932, 4683.956
429.2753, 4687.514
429.7574, 4707.664
430.2396, 4750.262
430.7217, 4808.247
431.2038, 4862.816
431.6859, 4912.215
432.1680, 4964.536
432.6501, 5026.803
433.1323, 5100.098
433.6144, 5162.112
434.0965, 5209.769
434.5786, 5253.169
435.0607, 5298.558
435.5428, 5347.127
436.0250, 5419.569
436.5071, 5540.754
436.9892, 5687.376
437.4713, 5790.875
437.9534, 5850.608
438.4355, 5912.810
438.9177, 6022.879
439.3998, 6165.338
439.8819, 6306.786
440.3640, 6441.026
440.8461, 6569.320
441.3282, 6687.043
441.8104, 6797.939
442.2925, 6916.882
442.7746, 7050.946
443.2567, 7197.922
443.7388, 7355.895
444.2209, 7529.036
444.7031, 7703.488
445.1852, 7870.210
445.6673, 8034.649
446.1494, 8206.956
446.6315, 8399.901
447.1136, 8589.468
447.5958, 8763.164
448.0779, 8913.107
448.5600, 9078.543
449.0421, 9288.945
449.5242, 9499.678
450.0063, 9670.308
450.4885, 9768.840
450.9706, 9878.175
451.4527, 10020.26
451.9348, 10186.42
452.4169, 10319.44
452.8990, 10416.77
453.3812, 10489.30
453.8633, 10540.30
454.3454, 10568.53
454.8275, 10589.39
455.3096, 10605.18
455.7917, 10612.34
456.2739, 10604.87
456.7560, 10582.82
457.2381, 10546.03
457.7202, 10494.51
458.2023, 10428.00
458.6844, 10342.45
459.1666, 10234.37
459.6487, 10126.83
460.1308, 10038.60
460.6129, 9966.400
461.0950, 9901.491
461.5771, 9855.372
462.0592, 9803.692
462.5414, 9722.613
463.0235, 9614.413
463.5056, 9491.781
463.9877, 9339.171
464.4698, 9188.590
464.9519, 9068.311
465.4341, 9006.021
465.9162, 8935.919
466.3983, 8831.865
466.8804, 8704.287
467.3625, 8577.148
467.8446, 8443.901
468.3268, 8319.293
468.8089, 8214.425
469.2910, 8140.419
469.7731, 8039.043
470.2552, 7888.442
470.7373, 7725.922
471.2195, 7588.704
471.7016, 7488.276
472.1837, 7387.710
472.6658, 7277.311
473.1479, 7161.451
473.6300, 7067.003
474.1122, 6998.867
474.5943, 6935.995
475.0764, 6861.171
475.5585, 6776.328
476.0406, 6705.183
476.5227, 6653.418
477.0049, 6609.321
477.4870, 6549.465
477.9691, 6477.953
478.4512, 6419.685
478.9333, 6390.548
479.4154, 6381.108
479.8976, 6376.933
480.3797, 6377.683
480.8618, 6383.072
481.3439, 6389.595
481.8260, 6401.360
482.3081, 6424.792
482.7903, 6478.377
483.2724, 6524.784
483.7545, 6531.132
484.2366, 6510.629
484.7187, 6511.604
485.2008, 6568.141
485.6830, 6637.253
486.1651, 6696.253
486.6472, 6735.538
487.1293, 6781.429
487.6114, 6842.158
488.0935, 6908.840
488.5757, 6969.167
489.0578, 7013.705
489.5399, 7066.841
490.0220, 7135.556
490.5041, 7219.840
490.9862, 7307.515
491.4684, 7401.539
491.9505, 7492.370
492.4326, 7572.032
492.9147, 7641.156
493.3968, 7696.754
493.8789, 7732.413
494.3611, 7764.799
494.8432, 7835.271
495.3253, 7939.536
495.8074, 8030.912
496.2895, 8074.657
496.7716, 8091.372
497.2538, 8127.804
497.7359, 8187.706
498.2180, 8233.292
498.7001, 8222.410
499.1822, 8178.348
499.6643, 8135.822
500.1465, 8111.631
500.6286, 8086.983
501.1107, 8060.068
501.5928, 8026.860
502.0749, 7968.731
502.5570, 7867.388
503.0392, 7747.777
503.5213, 7621.272
504.0034, 7481.727
504.4855, 7348.811
504.9676, 7223.345
505.4497, 7105.043
505.9318, 6996.486
506.4139, 6904.956
506.8961, 6810.581
507.3782, 6704.867
507.8603, 6589.304
508.3424, 6482.609
508.8245, 6384.271
509.3066, 6296.005
509.7888, 6221.859
510.2709, 6162.055
510.7530, 6092.792
511.2351, 6003.664
511.7172, 5921.599
512.1993, 5902.240
512.6815, 5935.544
513.1636, 5966.194
513.6457, 5980.530
514.1278, 5968.952
514.6099, 5906.679
515.0920, 5792.950
515.5742, 5674.933
516.0563, 5575.851
516.5384, 5495.075
517.0205, 5432.539
517.5026, 5399.045
517.9847, 5370.227
518.4669, 5333.015
518.9490, 5292.301
519.4311, 5262.900
519.9132, 5254.762
520.3953, 5252.331
520.8774, 5249.631
521.3596, 5245.337
521.8417, 5245.581
522.3238, 5257.944
522.8059, 5268.696
523.2880, 5258.603
523.7701, 5213.463
524.2523, 5193.113
524.7344, 5217.373
525.2165, 5271.303
525.6986, 5297.402
526.1807, 5293.646
526.6628, 5281.756
527.1450, 5269.136
527.6271, 5258.665
528.1092, 5264.404
528.5913, 5289.502
529.0734, 5319.851
529.5555, 5340.249
530.0377, 5354.586
530.5198, 5371.075
531.0019, 5391.764
531.4840, 5417.108
531.9661, 5452.862
532.4482, 5496.402
532.9304, 5531.168
533.4125, 5539.064
533.8946, 5543.402
534.3767, 5558.656
534.8588, 5586.601
535.3409, 5625.978
535.8231, 5685.313
536.3052, 5753.427
536.7873, 5812.844
537.2694, 5858.006
537.7515, 5903.619
538.2336, 5950.663
538.7158, 5999.895
539.1979, 6060.313
539.6800, 6134.725
540.1621, 6214.354
540.6442, 6292.862
541.1263, 6371.071
541.6085, 6452.854
542.0906, 6538.842
542.5727, 6627.957
543.0548, 6717.202
543.5369, 6807.806
544.0190, 6904.128
544.5012, 7011.515
544.9833, 7124.718
545.4654, 7236.096
545.9475, 7345.239
546.4296, 7463.969
546.9117, 7603.495
547.3939, 7751.682
547.8760, 7899.291
548.3581, 8047.811
548.8402, 8188.266
549.3223, 8304.623
549.8044, 8414.892
550.2866, 8550.328
550.7687, 8737.379
551.2508, 8923.411
551.7329, 9095.402
552.2150, 9253.799
552.6971, 9422.215
553.1793, 9602.586
553.6614, 9790.026
554.1435, 9983.804
554.6256, 10186.15
555.1077, 10369.29
555.5898, 10526.56
556.0720, 10674.19
556.5541, 10843.19
557.0362, 11028.55
557.5183, 11200.73
558.0004, 11336.16
558.4825, 11455.33
558.9647, 11582.12
559.4468, 11716.72
559.9289, 11855.52
560.4110, 12014.12
560.8931, 12166.32
561.3752, 12288.97
561.8574, 12371.98
562.3395, 12431.31
562.8216, 12472.90
563.3037, 12493.33
563.7858, 12486.88
564.2679, 12457.13
564.7501, 12394.61
565.2322, 12295.04
565.7143, 12160.79
566.1964, 11998.50
566.6785, 11801.27
567.1606, 11587.92
567.6428, 11370.05
568.1249, 11148.01
568.6070, 10903.90
569.0891, 10631.18
569.5712, 10344.33
570.0533, 10054.31
570.5355, 9765.401
571.0176, 9492.585
571.4997, 9249.884
571.9818, 9020.846
572.4639, 8776.569
572.9460, 8520.955
573.4281, 8271.703
573.9102, 8040.319
574.3923, 7818.728
574.8745, 7602.192
575.3566, 7388.695
575.8387, 7186.110
576.3208, 6992.982
576.8029, 6813.876
577.2850, 6660.333
577.7672, 6553.879
578.2493, 6443.537
578.7314, 6316.987
579.2135, 6181.616
579.6956, 6071.934
580.1777, 5997.696
580.6599, 5926.833
581.1420, 5834.881
581.6241, 5723.454
582.1062, 5647.830
582.5883, 5614.303
583.0704, 5587.406
583.5526, 5518.865
584.0347, 5424.026
584.5168, 5351.439
584.9989, 5322.811
585.4810, 5310.469
585.9631, 5291.420
586.4453, 5266.956
586.9274, 5240.812
587.4095, 5212.678
587.8916, 5185.054
588.3737, 5157.547
588.8558, 5129.130
589.3380, 5109.271
589.8201, 5105.087
590.3022, 5106.540
590.7843, 5106.506
591.2664, 5107.130
591.7485, 5101.360
592.2307, 5084.767
592.7128, 5064.266
593.1949, 5056.058
593.6770, 5062.167
594.1591, 5067.290
594.6412, 5064.109
595.1234, 5055.872
595.6055, 5053.577
596.0876, 5057.290
596.5697, 5066.590
597.0518, 5089.416
597.5339, 5115.154
598.0161, 5124.771
598.4982, 5110.994
598.9803, 5097.227
599.4624, 5098.778
599.9445, 5110.438
600.4266, 5124.702
600.9088, 5140.400
601.3909, 5156.957
601.8730, 5173.811
602.3551, 5191.095
602.8372, 5209.797
603.3193, 5231.108
603.8015, 5251.909
604.2836, 5270.350
604.7657, 5285.270
605.2478, 5304.520
605.7299, 5330.200
606.2120, 5355.166
606.6942, 5371.065
607.1763, 5378.627
607.6584, 5386.201
608.1405, 5396.153
608.6226, 5405.852
609.1047, 5409.827
609.5869, 5410.224
610.0690, 5414.123
610.5511, 5438.595
611.0332, 5458.186
611.5153, 5443.886
611.9974, 5395.441
612.4796, 5363.491
612.9617, 5389.708
613.4438, 5422.642
613.9259, 5426.521
614.4080, 5361.967
614.8901, 5331.272
615.3723, 5357.815
615.8544, 5402.697
616.3365, 5405.156
616.8186, 5353.288
617.3007, 5307.705
617.7828, 5286.132
618.2650, 5279.841
618.7471, 5260.349
619.2292, 5227.768
619.7113, 5195.806
620.1934, 5182.000
620.6755, 5172.003
621.1577, 5136.280
621.6398, 5071.384
622.1219, 5008.852
622.6040, 4974.351
623.0861, 4952.677
623.5682, 4927.632
624.0504, 4894.477
