##NAMES=Botryogen
##RRUFFID=R070362
##IDEAL CHEMISTRY=MgFe^3+^(S^6+^O_4_)_2_(OH)&#183;7H_2_O
##LOCALITY=Queténa Mine, Calama, El Loa Province, Antofagasta Region, Chile
##OWNER=RRUFF
##SOURCE=Michael Scott
##DESCRIPTION=Aggregate of orange pseudo-rhombohedral crystals
##STATUS=The identification of this mineral is confirmed by single-crystal X-ray diffraction and chemical analysis.
##URL=rruff.info/R070362
##MEASURED CHEMISTRY=Mg_1.00_(Fe^3+^_0.90_Al_0.10_)_Σ=1_(S_1.00_O_4_)_2_(OH)·7H_2_O; OH estimated by charge balance; H_2_O by difference
131.8235, 1034.818
132.3056, 1075.651
132.7877, 1115.063
133.2699, 1153.961
133.7520, 1192.434
134.2341, 1232.419
134.7162, 1276.719
135.1983, 1325.549
135.6804, 1367.720
136.1626, 1402.241
136.6447, 1430.806
137.1268, 1455.826
137.6089, 1476.667
138.0910, 1495.520
138.5731, 1515.816
139.0553, 1541.518
139.5374, 1549.961
140.0195, 1533.908
140.5016, 1500.487
140.9837, 1478.774
141.4658, 1474.067
141.9480, 1472.396
142.4301, 1463.514
142.9122, 1441.521
143.3943, 1425.154
143.8764, 1418.833
144.3585, 1422.311
144.8407, 1420.315
145.3228, 1408.656
145.8049, 1394.713
146.2870, 1385.205
146.7691, 1379.718
147.2512, 1379.376
147.7334, 1386.226
148.2155, 1402.961
148.6976, 1414.997
149.1797, 1415.888
149.6618, 1413.958
150.1439, 1420.138
150.6261, 1442.796
151.1082, 1465.985
151.5903, 1485.975
152.0724, 1502.728
152.5545, 1515.986
153.0366, 1520.226
153.5188, 1521.065
154.0009, 1529.509
154.4830, 1556.814
154.9651, 1584.930
155.4472, 1605.662
155.9293, 1610.840
156.4115, 1619.040
156.8936, 1635.054
157.3757, 1657.270
157.8578, 1680.258
158.3399, 1702.342
158.8221, 1724.728
159.3042, 1748.412
159.7863, 1773.691
160.2684, 1800.220
160.7505, 1830.816
161.2326, 1864.548
161.7148, 1891.965
162.1969, 1903.123
162.6790, 1908.444
163.1611, 1917.854
163.6432, 1937.865
164.1253, 1960.312
164.6075, 1980.904
165.0896, 1999.488
165.5717, 2018.640
166.0538, 2040.401
166.5359, 2063.549
167.0180, 2086.370
167.5002, 2105.378
167.9823, 2125.708
168.4644, 2151.382
168.9465, 2182.961
169.4286, 2218.036
169.9107, 2258.426
170.3929, 2301.009
170.8750, 2340.270
171.3571, 2368.876
171.8392, 2394.209
172.3213, 2425.122
172.8034, 2464.015
173.2856, 2503.142
173.7677, 2533.039
174.2498, 2556.467
174.7319, 2582.325
175.2140, 2619.811
175.6961, 2662.284
176.1783, 2699.475
176.6604, 2728.603
177.1425, 2752.804
177.6246, 2775.725
178.1067, 2796.930
178.5888, 2815.102
179.0710, 2827.444
179.5531, 2835.778
180.0352, 2843.708
180.5173, 2851.573
180.9994, 2859.887
181.4815, 2869.856
181.9637, 2881.502
182.4458, 2892.729
182.9279, 2899.507
183.4100, 2903.821
183.8921, 2913.241
184.3742, 2930.411
184.8564, 2953.887
185.3385, 2981.416
185.8206, 3013.580
186.3027, 3045.589
186.7848, 3070.742
187.2669, 3090.282
187.7491, 3114.459
188.2312, 3148.106
188.7133, 3189.056
189.1954, 3229.328
189.6775, 3267.903
190.1596, 3309.329
190.6418, 3362.110
191.1239, 3425.742
191.6060, 3488.472
192.0881, 3549.275
192.5702, 3606.924
193.0524, 3647.011
193.5345, 3664.979
194.0166, 3676.995
194.4987, 3709.726
194.9808, 3764.566
195.4629, 3819.271
195.9451, 3863.291
196.4272, 3897.339
196.9093, 3925.947
197.3914, 3946.658
197.8735, 3966.023
198.3556, 4000.595
198.8378, 4053.655
199.3199, 4100.406
199.8020, 4122.526
200.2841, 4117.546
200.7662, 4122.578
201.2483, 4141.712
201.7305, 4170.197
202.2126, 4197.697
202.6947, 4224.854
203.1768, 4248.623
203.6589, 4268.178
204.1410, 4283.913
204.6232, 4290.525
205.1053, 4284.645
205.5874, 4270.588
206.0695, 4264.264
206.5516, 4269.367
207.0337, 4272.497
207.5159, 4262.300
207.9980, 4235.187
208.4801, 4213.375
208.9622, 4202.131
209.4443, 4198.219
209.9264, 4185.059
210.4086, 4159.922
210.8907, 4130.900
211.3728, 4104.456
211.8549, 4081.244
212.3370, 4057.442
212.8191, 4031.478
213.3013, 4004.134
213.7834, 3980.577
214.2655, 3962.551
214.7476, 3945.419
215.2297, 3925.289
215.7118, 3900.917
216.1940, 3876.111
216.6761, 3850.061
217.1582, 3823.013
217.6403, 3803.348
218.1224, 3791.931
218.6045, 3787.006
219.0867, 3789.309
219.5688, 3805.613
220.0509, 3812.140
220.5330, 3797.779
221.0151, 3761.408
221.4972, 3749.566
221.9794, 3769.220
222.4615, 3805.445
222.9436, 3844.758
223.4257, 3892.533
223.9078, 3932.144
224.3899, 3954.813
224.8721, 3958.206
225.3542, 3979.299
225.8363, 4021.674
226.3184, 4078.455
226.8005, 4144.767
227.2827, 4228.721
227.7648, 4305.580
228.2469, 4366.134
228.7290, 4406.671
229.2111, 4458.669
229.6932, 4527.451
230.1754, 4602.748
230.6575, 4671.132
231.1396, 4725.082
231.6217, 4784.996
232.1038, 4860.372
232.5859, 4957.475
233.0681, 5035.841
233.5502, 5090.332
234.0323, 5129.595
234.5144, 5167.001
234.9965, 5206.091
235.4786, 5236.885
235.9608, 5256.978
236.4429, 5266.507
236.9250, 5263.296
237.4071, 5242.556
237.8892, 5212.021
238.3713, 5184.041
238.8535, 5161.487
239.3356, 5136.943
239.8177, 5111.461
240.2998, 5091.293
240.7819, 5043.324
241.2640, 4951.435
241.7462, 4840.360
242.2283, 4754.377
242.7104, 4712.889
243.1925, 4664.422
243.6746, 4588.716
244.1567, 4473.103
244.6389, 4373.163
245.1210, 4296.644
245.6031, 4231.357
246.0852, 4155.858
246.5673, 4063.992
247.0494, 3972.403
247.5316, 3887.237
248.0137, 3810.684
248.4958, 3733.460
248.9779, 3659.122
249.4600, 3582.450
249.9421, 3493.317
250.4243, 3380.237
250.9064, 3274.227
251.3885, 3188.442
251.8706, 3129.911
252.3527, 3066.860
252.8348, 2996.771
253.3170, 2923.898
253.7991, 2856.707
254.2812, 2797.457
254.7633, 2740.882
255.2454, 2684.163
255.7275, 2625.822
256.2097, 2574.836
256.6918, 2532.862
257.1739, 2497.669
257.6560, 2464.209
258.1381, 2430.288
258.6202, 2402.577
259.1024, 2384.381
259.5845, 2378.250
260.0666, 2371.534
260.5487, 2362.967
261.0308, 2354.800
261.5129, 2350.972
261.9951, 2352.317
262.4772, 2356.122
262.9593, 2361.959
263.4414, 2370.691
263.9235, 2377.562
264.4056, 2382.391
264.8878, 2385.595
265.3699, 2387.827
265.8520, 2388.807
266.3341, 2389.745
266.8162, 2393.280
267.2983, 2401.633
267.7805, 2396.698
268.2626, 2373.966
268.7447, 2342.953
269.2268, 2321.402
269.7089, 2312.933
270.1910, 2301.024
270.6732, 2278.219
271.1553, 2243.467
271.6374, 2209.803
272.1195, 2179.586
272.6016, 2146.909
273.0837, 2100.739
273.5659, 2037.699
274.0480, 1977.452
274.5301, 1927.218
275.0122, 1887.505
275.4943, 1850.739
275.9764, 1817.366
276.4586, 1786.105
276.9407, 1754.200
277.4228, 1721.572
277.9049, 1692.356
278.3870, 1669.651
278.8691, 1653.123
279.3513, 1634.619
279.8334, 1613.350
280.3155, 1592.136
280.7976, 1574.131
281.2798, 1559.467
281.7619, 1548.639
282.2440, 1544.437
282.7261, 1545.354
283.2082, 1538.393
283.6903, 1521.860
284.1725, 1503.679
284.6546, 1493.195
285.1367, 1490.340
285.6188, 1491.216
286.1009, 1496.890
286.5830, 1505.430
287.0652, 1508.226
287.5473, 1504.853
288.0294, 1498.126
288.5115, 1489.498
288.9936, 1479.376
289.4757, 1471.449
289.9579, 1467.384
290.4400, 1466.242
290.9221, 1465.268
291.4042, 1464.400
291.8863, 1464.488
292.3684, 1465.441
292.8506, 1467.786
293.3327, 1474.180
293.8148, 1489.162
294.2969, 1506.617
294.7790, 1514.075
295.2611, 1511.528
295.7433, 1505.549
296.2254, 1499.401
296.7075, 1494.052
297.1896, 1492.689
297.6717, 1498.591
298.1538, 1506.826
298.6360, 1509.329
299.1181, 1506.534
299.6002, 1503.321
300.0823, 1503.510
300.5644, 1505.911
301.0465, 1508.070
301.5287, 1508.308
302.0108, 1509.339
302.4929, 1515.574
302.9750, 1526.132
303.4571, 1535.598
303.9392, 1539.594
304.4214, 1540.584
304.9035, 1542.395
305.3856, 1547.660
305.8677, 1551.089
306.3498, 1543.442
306.8319, 1528.640
307.3141, 1520.432
307.7962, 1533.443
308.2783, 1554.046
308.7604, 1568.820
309.2425, 1573.023
309.7246, 1574.909
310.2068, 1579.438
310.6889, 1585.739
311.1710, 1591.600
311.6531, 1594.332
312.1352, 1597.209
312.6173, 1603.666
313.0995, 1616.442
313.5816, 1626.141
314.0637, 1622.791
314.5458, 1613.660
315.0279, 1612.383
315.5100, 1630.736
315.9922, 1653.380
316.4743, 1672.365
316.9564, 1686.116
317.4385, 1698.920
317.9206, 1713.984
318.4027, 1728.538
318.8849, 1738.711
319.3670, 1736.114
319.8491, 1735.425
320.3312, 1743.034
320.8133, 1760.854
321.2954, 1778.359
321.7776, 1793.784
322.2597, 1807.908
322.7418, 1821.562
323.2239, 1832.434
323.7060, 1845.274
324.1881, 1861.248
324.6703, 1880.492
325.1524, 1901.675
325.6345, 1928.142
326.1166, 1954.461
326.5987, 1976.425
327.0808, 1986.110
327.5630, 2000.752
328.0451, 2024.276
328.5272, 2056.188
329.0093, 2085.847
329.4914, 2110.724
329.9735, 2134.957
330.4557, 2161.407
330.9378, 2193.722
331.4199, 2221.659
331.9020, 2241.808
332.3841, 2256.638
332.8662, 2279.208
333.3484, 2314.625
333.8305, 2349.698
334.3126, 2376.443
334.7947, 2390.331
335.2768, 2409.216
335.7589, 2435.131
336.2411, 2465.850
336.7232, 2496.995
337.2053, 2528.739
337.6874, 2559.756
338.1695, 2589.670
338.6516, 2618.138
339.1338, 2646.358
339.6159, 2674.217
340.0980, 2701.659
340.5801, 2727.932
341.0622, 2753.322
341.5443, 2777.748
342.0265, 2799.587
342.5086, 2819.602
342.9907, 2850.385
343.4728, 2894.806
343.9549, 2937.705
344.4370, 2956.460
344.9192, 2953.365
345.4013, 2950.870
345.8834, 2957.031
346.3655, 2969.329
346.8476, 2982.455
347.3297, 2996.482
347.8119, 3008.126
348.2940, 3013.092
348.7761, 3012.928
349.2582, 3012.502
349.7403, 3014.906
350.2225, 3015.945
350.7046, 3008.458
351.1867, 2993.192
351.6688, 2976.411
352.1509, 2962.679
352.6331, 2950.276
353.1152, 2936.696
353.5973, 2921.445
354.0794, 2904.771
354.5615, 2884.338
355.0436, 2862.114
355.5258, 2844.087
356.0079, 2846.843
356.4900, 2847.861
356.9721, 2822.253
357.4542, 2756.445
357.9363, 2697.106
358.4185, 2676.535
358.9006, 2679.498
359.3827, 2679.638
359.8648, 2658.568
360.3469, 2638.463
360.8290, 2634.438
361.3112, 2650.923
361.7933, 2659.893
362.2754, 2647.344
362.7575, 2624.682
363.2396, 2604.211
363.7217, 2582.333
364.2039, 2569.544
364.6860, 2570.846
365.1681, 2586.417
365.6502, 2603.873
366.1323, 2626.001
366.6144, 2647.150
367.0966, 2663.411
367.5787, 2666.307
368.0608, 2674.427
368.5429, 2691.321
369.0250, 2715.189
369.5071, 2736.221
369.9893, 2751.620
370.4714, 2767.337
370.9535, 2785.926
371.4356, 2806.341
371.9177, 2831.652
372.3998, 2862.573
372.8820, 2898.223
373.3641, 2936.902
373.8462, 2979.872
374.3283, 3022.364
374.8104, 3062.318
375.2925, 3100.079
375.7747, 3134.636
376.2568, 3165.230
376.7389, 3194.705
377.2210, 3226.346
377.7031, 3260.211
378.1852, 3295.302
378.6674, 3331.716
379.1495, 3369.136
379.6316, 3410.923
380.1137, 3457.929
380.5958, 3498.403
381.0779, 3518.598
381.5601, 3521.567
382.0422, 3520.441
382.5243, 3516.283
383.0064, 3512.002
383.4885, 3514.413
383.9706, 3522.441
384.4528, 3528.014
384.9349, 3526.908
385.4170, 3519.467
385.8991, 3505.311
386.3812, 3482.875
386.8633, 3458.211
387.3455, 3438.543
387.8276, 3421.108
388.3097, 3399.179
388.7918, 3368.195
389.2739, 3332.306
389.7560, 3294.955
390.2382, 3256.555
390.7203, 3214.857
391.2024, 3165.344
391.6845, 3113.178
392.1666, 3063.661
392.6487, 3019.995
393.1309, 2978.318
393.6130, 2937.926
394.0951, 2898.581
394.5772, 2860.009
395.0593, 2817.855
395.5414, 2779.094
396.0236, 2748.563
396.5057, 2749.924
396.9878, 2732.075
397.4699, 2676.597
397.9520, 2596.681
398.4341, 2534.513
398.9163, 2504.416
399.3984, 2477.303
399.8805, 2442.336
400.3626, 2395.287
400.8447, 2352.961
401.3268, 2316.247
401.8090, 2283.653
402.2911, 2253.105
402.7732, 2226.486
403.2553, 2197.459
403.7374, 2162.139
404.2195, 2121.348
404.7017, 2092.236
405.1838, 2078.594
405.6659, 2066.101
406.1480, 2038.255
406.6301, 1994.571
407.1122, 1961.181
407.5944, 1946.015
408.0765, 1940.404
408.5586, 1922.607
409.0407, 1892.807
409.5228, 1863.808
410.0049, 1846.847
410.4871, 1837.542
410.9692, 1822.055
411.4513, 1797.470
411.9334, 1772.681
412.4155, 1757.170
412.8976, 1749.333
413.3798, 1744.954
413.8619, 1750.273
414.3440, 1753.205
414.8261, 1736.606
415.3082, 1700.224
415.7903, 1666.717
416.2725, 1652.544
416.7546, 1648.588
417.2367, 1644.279
417.7188, 1634.228
418.2009, 1625.645
418.6830, 1622.832
419.1652, 1624.504
419.6473, 1626.057
420.1294, 1625.079
420.6115, 1624.215
421.0937, 1625.146
421.5758, 1629.459
422.0579, 1632.568
422.5400, 1631.580
423.0221, 1629.511
423.5042, 1631.266
423.9864, 1635.668
424.4685, 1645.407
424.9506, 1663.458
425.4327, 1690.635
425.9148, 1712.880
426.3969, 1730.795
426.8791, 1743.108
427.3612, 1745.852
427.8433, 1732.419
428.3254, 1730.755
428.8075, 1747.646
429.2896, 1777.889
429.7718, 1803.120
430.2539, 1822.291
430.7360, 1842.227
431.2181, 1866.582
431.7002, 1895.205
432.1823, 1926.176
432.6645, 1959.661
433.1466, 1994.761
433.6287, 2026.696
434.1108, 2057.369
434.5929, 2097.240
435.0750, 2158.073
435.5572, 2227.229
436.0393, 2279.934
436.5214, 2316.973
437.0035, 2355.164
437.4856, 2405.196
437.9677, 2464.852
438.4499, 2531.667
438.9320, 2608.344
439.4141, 2686.360
439.8962, 2759.522
440.3783, 2828.948
440.8604, 2899.689
441.3426, 2966.039
441.8247, 3039.337
442.3068, 3129.523
442.7889, 3242.492
443.2710, 3348.939
443.7531, 3433.429
444.2353, 3510.148
444.7174, 3596.268
445.1995, 3705.165
445.6816, 3810.295
446.1637, 3906.140
446.6458, 3992.848
447.1280, 4081.976
447.6101, 4182.708
448.0922, 4276.051
448.5743, 4349.495
449.0564, 4396.335
449.5385, 4442.738
450.0207, 4489.286
450.5028, 4535.639
450.9849, 4585.722
451.4670, 4643.811
451.9491, 4681.450
452.4312, 4682.956
452.9134, 4652.442
453.3955, 4620.218
453.8776, 4585.832
454.3597, 4553.674
454.8418, 4534.787
455.3239, 4523.774
455.8061, 4497.756
456.2882, 4446.663
456.7703, 4385.398
457.2524, 4332.604
457.7345, 4287.545
458.2166, 4246.031
458.6988, 4214.521
459.1809, 4181.178
459.6630, 4131.251
460.1451, 4060.757
460.6272, 3988.502
461.1093, 3927.384
461.5915, 3871.393
462.0736, 3814.293
462.5557, 3746.804
463.0378, 3684.813
463.5199, 3642.183
464.0020, 3615.099
464.4842, 3573.201
464.9663, 3498.007
465.4484, 3415.775
465.9305, 3339.353
466.4126, 3265.616
466.8947, 3202.796
467.3769, 3155.803
467.8590, 3117.763
468.3411, 3077.110
468.8232, 3033.277
469.3053, 2987.920
469.7874, 2939.006
470.2696, 2887.224
470.7517, 2846.591
471.2338, 2819.441
471.7159, 2796.525
472.1980, 2768.794
472.6801, 2736.428
473.1623, 2712.232
473.6444, 2699.413
474.1265, 2692.349
474.6086, 2682.239
475.0907, 2669.405
475.5728, 2655.923
476.0550, 2636.977
476.5371, 2620.109
477.0192, 2620.032
477.5013, 2637.351
477.9834, 2658.718
478.4655, 2673.786
478.9477, 2686.808
479.4298, 2702.880
479.9119, 2721.270
480.3940, 2746.162
480.8761, 2782.583
481.3582, 2827.513
481.8404, 2871.900
482.3225, 2907.810
482.8046, 2946.600
483.2867, 2994.384
483.7688, 3053.881
484.2509, 3114.666
484.7331, 3174.076
485.2152, 3235.134
485.6973, 3302.223
486.1794, 3377.899
486.6615, 3455.411
487.1436, 3533.666
487.6258, 3613.382
488.1079, 3700.442
488.5900, 3798.799
489.0721, 3892.137
489.5542, 3967.672
490.0363, 4025.521
490.5185, 4092.954
491.0006, 4171.833
491.4827, 4254.520
491.9648, 4331.918
492.4470, 4404.161
492.9291, 4470.374
493.4112, 4527.705
493.8933, 4579.560
494.3754, 4630.803
494.8575, 4681.000
495.3397, 4724.349
495.8218, 4763.598
496.3039, 4791.492
496.7860, 4800.139
497.2681, 4788.166
497.7502, 4759.083
498.2324, 4706.011
498.7145, 4639.420
499.1966, 4572.506
499.6787, 4517.403
500.1608, 4454.849
500.6429, 4378.485
501.1251, 4288.621
501.6072, 4192.686
502.0893, 4084.456
502.5714, 3975.011
503.0535, 3868.729
503.5356, 3764.724
504.0178, 3667.438
504.4999, 3581.269
504.9820, 3498.615
505.4641, 3404.490
505.9462, 3296.173
506.4283, 3192.067
506.9105, 3097.869
507.3926, 3012.573
507.8747, 2932.558
508.3568, 2857.545
508.8389, 2788.032
509.3210, 2723.449
509.8032, 2663.542
510.2853, 2606.580
510.7674, 2552.093
511.2495, 2501.646
511.7316, 2460.545
512.2137, 2424.315
512.6959, 2384.552
513.1780, 2328.746
513.6601, 2275.257
514.1422, 2237.019
514.6243, 2212.628
515.1064, 2191.583
515.5886, 2172.653
516.0707, 2153.706
516.5528, 2132.756
517.0349, 2104.433
517.5170, 2084.431
517.9991, 2079.529
518.4813, 2081.831
518.9634, 2082.176
519.4455, 2082.834
519.9276, 2077.266
520.4097, 2061.469
520.8918, 2037.843
521.3740, 2019.920
521.8561, 2007.700
522.3382, 2001.191
522.8203, 2002.545
523.3024, 2011.187
523.7845, 2017.535
524.2667, 2021.062
524.7488, 2022.384
525.2309, 2021.873
525.7130, 2019.781
526.1951, 2016.572
526.6772, 2007.933
527.1594, 2002.496
527.6415, 2015.441
528.1236, 2042.372
528.6057, 2064.291
529.0878, 2063.152
529.5699, 2057.382
530.0521, 2061.031
530.5342, 2077.558
531.0163, 2096.100
531.4984, 2119.687
531.9805, 2140.924
532.4626, 2152.091
532.9448, 2136.802
533.4269, 2129.736
533.9090, 2135.130
534.3911, 2151.590
534.8732, 2173.991
535.3553, 2204.908
535.8375, 2237.635
536.3196, 2270.388
536.8017, 2303.928
537.2838, 2328.708
537.7659, 2342.721
538.2480, 2355.367
538.7302, 2374.198
539.2123, 2399.829
539.6944, 2437.211
540.1765, 2492.202
540.6586, 2550.621
541.1407, 2590.472
541.6229, 2616.819
542.1050, 2648.464
542.5871, 2698.861
543.0692, 2756.923
543.5513, 2810.807
544.0334, 2859.560
544.5156, 2915.430
544.9977, 2993.980
545.4798, 3076.356
545.9619, 3145.745
546.4440, 3177.917
546.9261, 3228.488
547.4083, 3316.753
547.8904, 3426.352
548.3725, 3526.039
548.8546, 3609.722
549.3367, 3694.364
549.8188, 3782.649
550.3010, 3874.902
550.7831, 3976.507
551.2652, 4089.896
551.7473, 4204.977
552.2294, 4312.137
552.7115, 4412.840
553.1937, 4517.734
553.6758, 4628.202
554.1579, 4740.621
554.6400, 4850.728
555.1221, 4959.621
555.6042, 5068.415
556.0864, 5180.481
556.5685, 5291.421
557.0506, 5401.997
557.5327, 5508.829
558.0148, 5597.328
558.4969, 5651.817
558.9791, 5692.435
559.4612, 5729.733
559.9433, 5764.520
560.4254, 5797.167
560.9075, 5842.016
561.3896, 5876.184
561.8718, 5881.018
562.3539, 5849.205
562.8360, 5800.122
563.3181, 5735.600
563.8002, 5655.041
564.2823, 5551.228
564.7645, 5419.903
565.2466, 5288.714
565.7287, 5174.540
566.2108, 5070.629
566.6929, 4943.847
567.1750, 4794.681
567.6572, 4634.577
568.1393, 4469.157
568.6214, 4302.714
569.1035, 4150.547
569.5856, 4015.461
570.0677, 3886.992
570.5499, 3753.028
571.0320, 3619.061
571.5141, 3492.869
571.9962, 3378.274
572.4783, 3270.996
572.9604, 3171.381
573.4426, 3079.258
573.9247, 2991.141
574.4068, 2903.909
574.8889, 2824.064
575.3710, 2755.378
575.8531, 2700.510
576.3353, 2647.247
576.8174, 2596.319
577.2995, 2546.671
577.7816, 2495.906
578.2637, 2443.777
578.7458, 2395.451
579.2280, 2351.148
579.7101, 2311.929
580.1922, 2282.795
580.6743, 2261.875
581.1564, 2238.591
581.6385, 2202.576
582.1207, 2164.297
582.6028, 2138.067
583.0849, 2123.248
583.5670, 2112.965
584.0491, 2102.394
584.5313, 2095.303
585.0134, 2097.113
585.4955, 2114.111
585.9776, 2121.911
586.4597, 2103.199
586.9418, 2076.718
587.4240, 2064.306
587.9061, 2078.853
588.3882, 2087.732
588.8703, 2083.736
589.3524, 2072.861
589.8345, 2074.049
590.3167, 2090.413
590.7988, 2106.995
591.2809, 2117.088
591.7630, 2121.893
592.2451, 2126.107
592.7272, 2129.639
593.2094, 2134.811
593.6915, 2141.518
594.1736, 2151.652
594.6557, 2171.971
595.1378, 2206.641
595.6199, 2236.543
596.1021, 2240.394
596.5842, 2232.124
597.0663, 2231.606
597.5485, 2251.103
598.0306, 2273.458
598.5127, 2297.551
598.9948, 2321.147
599.4769, 2334.889
599.9590, 2325.685
600.4412, 2322.269
600.9233, 2337.148
601.4054, 2372.362
601.8875, 2392.354
602.3696, 2391.052
602.8517, 2389.103
603.3339, 2407.623
603.8160, 2444.607
604.2981, 2471.490
604.7802, 2484.010
605.2623, 2488.911
605.7444, 2491.107
606.2266, 2492.277
606.7087, 2497.126
607.1908, 2514.474
607.6729, 2528.890
608.1550, 2526.735
608.6371, 2511.317
609.1193, 2493.319
609.6014, 2470.448
610.0835, 2451.713
610.5656, 2445.153
611.0477, 2454.039
611.5298, 2451.798
612.0120, 2429.600
612.4941, 2404.155
612.9762, 2388.009
613.4583, 2386.451
613.9404, 2374.054
614.4225, 2346.494
614.9047, 2313.812
615.3868, 2290.693
615.8689, 2276.223
616.3510, 2260.953
616.8331, 2242.136
617.3152, 2221.133
617.7974, 2201.928
618.2795, 2182.889
618.7616, 2156.815
619.2437, 2113.733
619.7258, 2066.780
620.2079, 2024.378
620.6901, 1987.251
621.1722, 1953.508
621.6543, 1926.876
622.1364, 1900.223
622.6185, 1869.139
623.1006, 1831.691
623.5828, 1792.698
624.0649, 1749.213
624.5470, 1706.890
