##NAMES=Botryogen
##RRUFFID=R070581
##IDEAL CHEMISTRY=MgFe^3+^(S^6+^O_4_)_2_(OH)&#183;7H_2_O
##LOCALITY=Redington mine, Knoxville, Napa County, California, USA
##OWNER=RRUFF
##SOURCE=James Shigley
##DESCRIPTION=Red-orange aggregate of pseudo-rhombohedral crystals
##STATUS=The identification of this mineral has been confirmed by X-ray diffraction and chemical analysis
##URL=rruff.info/R070581
##MEASURED CHEMISTRY=(Mg_0.99_Mn_0.01_)_Σ=1_(Fe^3+^_0.97_Al_0.03_)_Σ=1_(S_1.00_O_4_)_2_(OH)·7H_2_O; OH estimated by charge balance; H_2_O by difference
99.62263, 8427.478
100.1047, 8573.971
100.5869, 8715.659
101.0690, 8815.289
101.5511, 8721.152
102.0332, 8647.995
102.5153, 8590.580
102.9974, 8548.296
103.4796, 8523.022
103.9617, 8512.162
104.4438, 8509.312
104.9259, 8514.366
105.4080, 8523.784
105.8901, 8532.248
106.3723, 8543.954
106.8544, 8548.988
107.3365, 8527.737
107.8186, 8468.275
108.3007, 8426.536
108.7829, 8444.518
109.2650, 8491.905
109.7471, 8530.287
110.2292, 8532.687
110.7113, 8508.997
111.1934, 8512.881
111.6756, 8562.919
112.1577, 8621.455
112.6398, 8675.512
113.1219, 8725.686
113.6040, 8776.893
114.0861, 8834.714
114.5683, 8902.743
115.0504, 8963.420
115.5325, 9010.703
116.0146, 9056.243
116.4967, 9099.932
116.9788, 9144.354
117.4610, 9198.676
117.9431, 9279.686
118.4252, 9424.896
118.9073, 9547.392
119.3894, 9628.159
119.8715, 9691.768
120.3537, 9770.380
120.8358, 9880.750
121.3179, 10008.54
121.8000, 10097.02
122.2821, 10131.68
122.7642, 10153.45
123.2464, 10184.60
123.7285, 10217.25
124.2106, 10220.97
124.6927, 10170.71
125.1748, 10071.20
125.6569, 9972.448
126.1391, 9872.466
126.6212, 9774.569
127.1033, 9686.563
127.5854, 9610.877
128.0675, 9529.566
128.5496, 9422.052
129.0318, 9297.597
129.5139, 9174.950
129.9960, 9057.906
130.4781, 8947.745
130.9602, 8849.295
131.4423, 8776.218
131.9245, 8697.734
132.4066, 8592.441
132.8887, 8464.488
133.3708, 8334.216
133.8529, 8215.159
134.3350, 8106.761
134.8172, 8014.288
135.2993, 7959.217
135.7814, 7905.673
136.2635, 7835.604
136.7456, 7745.968
137.2277, 7646.340
137.7099, 7553.473
138.1920, 7478.917
138.6741, 7387.794
139.1562, 7258.032
139.6383, 7123.435
140.1205, 7013.195
140.6026, 6940.457
141.0847, 6895.420
141.5668, 6846.821
142.0489, 6788.646
142.5310, 6733.580
143.0132, 6680.343
143.4953, 6631.522
143.9774, 6591.052
144.4595, 6561.233
144.9416, 6542.019
145.4237, 6530.395
145.9059, 6540.151
146.3880, 6543.139
146.8701, 6515.761
147.3522, 6464.132
147.8343, 6424.163
148.3164, 6430.770
148.7986, 6484.739
149.2807, 6512.543
149.7628, 6496.938
150.2449, 6463.293
150.7270, 6435.188
151.2091, 6415.478
151.6913, 6398.237
152.1734, 6372.842
152.6555, 6342.066
153.1376, 6323.613
153.6197, 6331.964
154.1018, 6356.868
154.5840, 6372.824
155.0661, 6370.872
155.5482, 6367.003
156.0303, 6372.635
156.5124, 6387.512
156.9945, 6411.759
157.4767, 6455.057
157.9588, 6516.506
158.4409, 6556.667
158.9230, 6544.933
159.4051, 6525.906
159.8872, 6525.793
160.3694, 6548.288
160.8515, 6583.217
161.3336, 6620.313
161.8157, 6660.359
162.2978, 6699.990
162.7799, 6738.784
163.2621, 6777.144
163.7442, 6816.954
164.2263, 6858.952
164.7084, 6899.043
165.1905, 6926.637
165.6726, 6922.036
166.1548, 6936.354
166.6369, 6996.675
167.1190, 7069.853
167.6011, 7116.362
168.0832, 7114.539
168.5653, 7078.021
169.0475, 7074.229
169.5296, 7150.544
170.0117, 7211.365
170.4938, 7231.205
170.9759, 7225.548
171.4580, 7222.753
171.9402, 7242.475
172.4223, 7284.070
172.9044, 7315.799
173.3865, 7322.861
173.8686, 7336.293
174.3507, 7376.388
174.8329, 7437.147
175.3150, 7492.880
175.7971, 7521.017
176.2792, 7518.115
176.7613, 7527.993
177.2434, 7568.629
177.7256, 7608.464
178.2077, 7617.653
178.6898, 7594.418
179.1719, 7572.451
179.6540, 7589.702
180.1361, 7648.116
180.6183, 7695.954
181.1004, 7717.331
181.5825, 7729.202
182.0646, 7754.450
182.5467, 7799.240
183.0289, 7846.879
183.5110, 7873.644
183.9931, 7882.536
184.4752, 7897.001
184.9573, 7928.181
185.4394, 7970.771
185.9216, 8013.497
186.4037, 8056.254
186.8858, 8094.910
187.3679, 8118.552
187.8500, 8127.803
188.3321, 8152.400
188.8143, 8225.645
189.2964, 8339.468
189.7785, 8427.926
190.2606, 8460.492
190.7427, 8476.628
191.2248, 8507.064
191.7070, 8554.042
192.1891, 8607.179
192.6712, 8657.747
193.1533, 8705.464
193.6354, 8753.036
194.1175, 8807.594
194.5997, 8858.394
195.0818, 8899.305
195.5639, 8928.964
196.0460, 8948.528
196.5281, 8953.970
197.0102, 8933.976
197.4924, 8934.850
197.9745, 8972.495
198.4566, 9027.470
198.9387, 9091.057
199.4208, 9160.841
199.9029, 9229.059
200.3851, 9279.992
200.8672, 9302.278
201.3493, 9326.993
201.8314, 9360.550
202.3135, 9397.354
202.7956, 9431.877
203.2778, 9461.511
203.7599, 9488.445
204.2420, 9519.588
204.7241, 9561.630
205.2062, 9599.087
205.6883, 9631.925
206.1705, 9658.823
206.6526, 9679.604
207.1347, 9694.339
207.6168, 9701.541
208.0989, 9693.618
208.5810, 9645.870
209.0632, 9608.997
209.5453, 9600.939
210.0274, 9607.261
210.5095, 9602.928
210.9916, 9571.275
211.4737, 9517.180
211.9559, 9486.910
212.4380, 9507.077
212.9201, 9520.041
213.4022, 9506.145
213.8843, 9472.803
214.3664, 9439.022
214.8486, 9418.261
215.3307, 9409.254
215.8128, 9384.038
216.2949, 9322.982
216.7770, 9268.507
217.2591, 9235.675
217.7413, 9223.933
218.2234, 9228.105
218.7055, 9246.604
219.1876, 9279.401
219.6697, 9311.154
220.1518, 9344.489
220.6340, 9374.674
221.1161, 9395.289
221.5982, 9408.196
222.0803, 9424.705
222.5624, 9452.393
223.0446, 9492.750
223.5267, 9542.502
224.0088, 9609.852
224.4909, 9680.372
224.9730, 9738.372
225.4551, 9784.116
225.9373, 9840.363
226.4194, 9930.804
226.9015, 10052.60
227.3836, 10158.39
227.8657, 10229.97
228.3478, 10293.94
228.8300, 10370.46
229.3121, 10460.78
229.7942, 10570.52
230.2763, 10721.24
230.7584, 10900.69
231.2405, 11046.74
231.7227, 11132.29
232.2048, 11188.54
232.6869, 11251.47
233.1690, 11324.80
233.6511, 11395.42
234.1332, 11443.42
234.6154, 11478.06
235.0975, 11528.10
235.5796, 11634.85
236.0617, 11749.71
236.5438, 11791.26
237.0259, 11741.52
237.5081, 11669.26
237.9902, 11628.96
238.4723, 11607.86
238.9544, 11576.16
239.4365, 11526.20
239.9186, 11458.61
240.4008, 11370.69
240.8829, 11256.23
241.3650, 11136.36
241.8471, 11025.26
242.3292, 10919.80
242.8113, 10812.77
243.2935, 10704.53
243.7756, 10592.03
244.2577, 10467.19
244.7398, 10328.23
245.2219, 10179.66
245.7040, 10020.71
246.1862, 9854.667
246.6683, 9689.869
247.1504, 9533.594
247.6325, 9381.541
248.1146, 9217.563
248.5967, 9031.492
249.0789, 8854.929
249.5610, 8714.688
250.0431, 8597.076
250.5252, 8471.907
251.0073, 8317.453
251.4894, 8143.659
251.9716, 7985.640
252.4537, 7848.547
252.9358, 7719.579
253.4179, 7590.744
253.9000, 7463.769
254.3821, 7342.290
254.8643, 7227.962
255.3464, 7121.223
255.8285, 7021.951
256.3106, 6927.329
256.7927, 6847.172
257.2748, 6790.220
257.7570, 6747.763
258.2391, 6702.829
258.7212, 6641.333
259.2033, 6570.230
259.6854, 6517.580
260.1675, 6491.920
260.6497, 6472.619
261.1318, 6451.547
261.6139, 6429.806
262.0960, 6408.986
262.5781, 6388.564
263.0602, 6370.052
263.5424, 6360.866
264.0245, 6365.264
264.5066, 6373.173
264.9887, 6391.954
265.4708, 6409.744
265.9529, 6405.488
266.4351, 6359.724
266.9172, 6287.165
267.3993, 6246.016
267.8814, 6262.057
268.3635, 6269.290
268.8456, 6246.877
269.3278, 6203.172
269.8099, 6148.156
270.2920, 6083.726
270.7741, 6014.677
271.2562, 5959.756
271.7383, 5931.633
272.2205, 5896.793
272.7026, 5844.027
273.1847, 5780.158
273.6668, 5712.880
274.1489, 5644.885
274.6310, 5578.229
275.1132, 5518.992
275.5953, 5467.702
276.0774, 5424.491
276.5595, 5395.965
277.0416, 5372.035
277.5237, 5339.065
278.0059, 5289.070
278.4880, 5232.156
278.9701, 5193.421
279.4522, 5183.492
279.9343, 5172.766
280.4164, 5136.979
280.8986, 5072.389
281.3807, 5115.381
281.8628, 5140.583
282.3449, 5148.950
282.8270, 5090.060
283.3091, 5118.019
283.7913, 5111.173
284.2734, 5102.900
284.7555, 5143.082
285.2376, 5124.363
285.7198, 5102.979
286.2019, 5073.191
286.6840, 5062.551
287.1661, 5080.217
287.6482, 5093.333
288.1303, 5093.607
288.6125, 5088.813
289.0946, 5083.819
289.5767, 5080.048
290.0588, 5077.607
290.5409, 5076.764
291.0230, 5077.836
291.5052, 5079.614
291.9873, 5080.819
292.4694, 5083.413
292.9515, 5091.231
293.4336, 5104.407
293.9157, 5115.363
294.3979, 5111.654
294.8800, 5088.229
295.3621, 5074.255
295.8442, 5082.923
296.3263, 5095.308
296.8084, 5101.018
297.2906, 5099.145
297.7727, 5096.431
298.2548, 5101.163
298.7369, 5114.741
299.2190, 5123.532
299.7011, 5119.564
300.1833, 5116.080
300.6654, 5122.266
301.1475, 5136.545
301.6296, 5148.246
302.1117, 5146.258
302.5938, 5130.285
303.0760, 5117.009
303.5581, 5105.045
304.0402, 5098.371
304.5223, 5103.281
305.0044, 5115.953
305.4865, 5124.330
305.9687, 5113.013
306.4508, 5085.750
306.9329, 5080.602
307.4150, 5115.140
307.8971, 5149.336
308.3792, 5163.383
308.8614, 5163.176
309.3435, 5161.853
309.8256, 5168.074
310.3077, 5178.979
310.7898, 5183.335
311.2719, 5176.658
311.7541, 5171.572
312.2362, 5168.561
312.7183, 5171.402
313.2004, 5188.132
313.6825, 5229.238
314.1646, 5280.582
314.6468, 5312.250
315.1289, 5319.470
315.6110, 5319.694
316.0931, 5311.797
316.5752, 5304.305
317.0573, 5308.368
317.5395, 5330.132
318.0216, 5360.092
318.5037, 5385.218
318.9858, 5404.638
319.4679, 5424.208
319.9500, 5443.103
320.4322, 5465.048
320.9143, 5496.235
321.3964, 5540.452
321.8785, 5584.143
322.3606, 5610.165
322.8427, 5618.352
323.3249, 5632.321
323.8070, 5661.165
324.2891, 5697.753
324.7712, 5733.361
325.2533, 5766.986
325.7354, 5804.413
326.2176, 5854.206
326.6997, 5913.409
327.1818, 5962.860
327.6639, 5992.656
328.1460, 6019.040
328.6281, 6061.081
329.1103, 6118.411
329.5924, 6174.152
330.0745, 6219.140
330.5566, 6256.719
331.0387, 6293.615
331.5208, 6328.251
332.0030, 6368.454
332.4851, 6428.548
332.9672, 6504.222
333.4493, 6571.691
333.9314, 6622.313
334.4135, 6661.161
334.8957, 6688.531
335.3778, 6701.928
335.8599, 6726.203
336.3420, 6791.197
336.8241, 6887.721
337.3062, 6964.718
337.7884, 7006.583
338.2705, 7034.116
338.7526, 7059.941
339.2347, 7085.188
339.7168, 7116.963
340.1989, 7161.109
340.6811, 7215.481
341.1632, 7268.085
341.6453, 7332.548
342.1274, 7381.975
342.6095, 7391.189
343.0916, 7372.453
343.5738, 7362.889
344.0559, 7381.350
344.5380, 7418.846
345.0201, 7448.505
345.5022, 7474.025
345.9843, 7488.764
346.4665, 7483.247
346.9486, 7467.681
347.4307, 7460.971
347.9128, 7470.611
348.3949, 7481.938
348.8770, 7468.135
349.3592, 7415.232
349.8413, 7365.080
350.3234, 7325.476
350.8055, 7286.583
351.2876, 7236.131
351.7697, 7173.138
352.2519, 7109.875
352.7340, 7062.691
353.2161, 7039.633
353.6982, 7001.383
354.1803, 6947.300
354.6624, 6880.988
355.1446, 6796.044
355.6267, 6698.492
356.1088, 6606.000
356.5909, 6532.818
357.0730, 6479.106
357.5551, 6437.429
358.0373, 6426.124
358.5194, 6406.678
359.0015, 6364.962
359.4836, 6307.430
359.9657, 6245.232
360.4478, 6183.201
360.9300, 6123.926
361.4121, 6077.032
361.8942, 6049.258
362.3763, 6026.360
362.8584, 6013.134
363.3405, 6000.310
363.8227, 5974.701
364.3048, 5931.690
364.7869, 5885.097
365.2690, 5861.639
365.7511, 5872.390
366.2333, 5877.987
366.7154, 5868.157
367.1975, 5856.703
367.6796, 5852.310
368.1617, 5856.121
368.6439, 5863.753
369.1260, 5870.462
369.6081, 5875.933
370.0902, 5885.046
370.5723, 5905.215
371.0544, 5921.547
371.5366, 5920.812
372.0187, 5908.801
372.5008, 5904.033
372.9829, 5917.658
373.4650, 5948.013
373.9471, 5992.523
374.4293, 6062.484
374.9114, 6122.336
375.3935, 6140.370
375.8756, 6139.115
376.3577, 6154.806
376.8398, 6207.211
377.3220, 6273.438
377.8041, 6327.957
378.2862, 6371.069
378.7683, 6396.403
379.2504, 6389.596
379.7325, 6368.729
380.2147, 6361.219
380.6968, 6371.648
381.1789, 6387.590
381.6610, 6400.868
382.1431, 6413.021
382.6252, 6432.581
383.1074, 6467.916
383.5895, 6500.450
384.0716, 6500.152
384.5537, 6466.554
385.0358, 6428.380
385.5179, 6385.887
386.0001, 6346.455
386.4822, 6324.823
386.9643, 6323.283
387.4464, 6318.353
387.9285, 6286.949
388.4106, 6225.605
388.8928, 6166.872
389.3749, 6103.185
389.8570, 6048.277
390.3391, 6018.401
390.8212, 6006.395
391.3033, 5986.767
391.7855, 5942.128
392.2676, 5877.613
392.7497, 5826.920
393.2318, 5811.027
393.7139, 5782.786
394.1960, 5721.868
394.6782, 5647.472
395.1603, 5586.516
395.6424, 5548.814
396.1245, 5523.167
396.6066, 5488.653
397.0887, 5446.319
397.5709, 5392.094
398.0530, 5308.753
398.5351, 5227.960
399.0172, 5172.643
399.4993, 5143.646
399.9814, 5125.626
400.4636, 5105.723
400.9457, 5084.629
401.4278, 5053.501
401.9099, 4999.090
402.3920, 4947.959
402.8741, 4911.730
403.3563, 4885.100
403.8384, 4855.838
404.3205, 4815.656
404.8026, 4769.646
405.2847, 4731.601
405.7668, 4702.309
406.2490, 4679.128
406.7311, 4671.406
407.2132, 4664.402
407.6953, 4641.341
408.1774, 4595.768
408.6595, 4545.394
409.1417, 4507.192
409.6238, 4480.712
410.1059, 4456.722
410.5880, 4432.287
411.0701, 4410.767
411.5522, 4399.664
412.0344, 4398.689
412.5165, 4387.605
412.9986, 4342.115
413.4807, 4285.856
413.9628, 4265.226
414.4449, 4288.912
414.9271, 4313.824
415.4092, 4302.332
415.8913, 4258.203
416.3734, 4225.155
416.8555, 4206.263
417.3376, 4197.936
417.8198, 4201.873
418.3019, 4215.241
418.7840, 4230.008
419.2661, 4242.362
419.7482, 4252.956
420.2303, 4263.760
420.7125, 4280.452
421.1946, 4289.563
421.6767, 4280.824
422.1588, 4268.018
422.6409, 4265.341
423.1230, 4276.286
423.6052, 4295.878
424.0873, 4318.541
424.5694, 4345.360
425.0515, 4371.219
425.5336, 4399.478
426.0157, 4423.883
426.4979, 4435.199
426.9800, 4439.886
427.4621, 4453.669
427.9442, 4488.155
428.4263, 4540.129
428.9084, 4594.199
429.3906, 4651.441
429.8727, 4709.657
430.3548, 4764.099
430.8369, 4821.174
431.3190, 4889.312
431.8011, 4971.952
432.2833, 5058.325
432.7654, 5130.477
433.2475, 5187.195
433.7296, 5258.000
434.2117, 5354.326
434.6938, 5460.787
435.1760, 5561.990
435.6581, 5659.051
436.1402, 5765.793
436.6223, 5887.818
437.1044, 6024.275
437.5865, 6178.008
438.0687, 6350.915
438.5508, 6527.924
439.0329, 6700.410
439.5150, 6867.827
439.9971, 7029.604
440.4792, 7173.218
440.9614, 7322.838
441.4435, 7492.039
441.9256, 7678.700
442.4077, 7877.140
442.8898, 8088.399
443.3719, 8306.458
443.8541, 8520.127
444.3362, 8723.863
444.8183, 8936.348
445.3004, 9169.311
445.7825, 9406.066
446.2646, 9638.620
446.7468, 9863.167
447.2289, 10072.44
447.7110, 10258.20
448.1931, 10420.34
448.6753, 10578.09
449.1574, 10773.80
449.6395, 10918.19
450.1216, 10959.76
450.6037, 10943.63
451.0858, 10937.45
451.5680, 10974.14
452.0501, 11024.99
452.5322, 11033.61
453.0143, 10993.49
453.4964, 10932.62
453.9785, 10840.87
454.4607, 10739.89
454.9428, 10646.21
455.4249, 10559.80
455.9070, 10459.26
456.3891, 10329.71
456.8712, 10174.44
457.3534, 9997.459
457.8355, 9789.329
458.3176, 9588.137
458.7997, 9429.536
459.2818, 9296.733
459.7639, 9152.433
460.2461, 8982.735
460.7282, 8807.396
461.2103, 8639.893
461.6924, 8478.693
462.1745, 8314.865
462.6566, 8142.454
463.1388, 7970.815
463.6209, 7822.128
464.1030, 7706.925
464.5851, 7582.023
465.0672, 7427.226
465.5493, 7271.230
466.0315, 7140.135
466.5136, 7035.924
466.9957, 6943.646
467.4778, 6851.213
467.9599, 6758.982
468.4420, 6666.709
468.9242, 6568.800
469.4063, 6477.536
469.8884, 6396.841
470.3705, 6324.197
470.8526, 6258.754
471.3347, 6200.072
471.8169, 6141.182
472.2990, 6064.029
472.7811, 5957.137
473.2632, 5881.388
473.7453, 5873.402
474.2274, 5874.639
474.7096, 5851.474
475.1917, 5806.063
475.6738, 5760.294
476.1559, 5723.840
476.6380, 5696.786
477.1201, 5681.339
477.6023, 5679.188
478.0844, 5679.307
478.5665, 5674.304
479.0486, 5668.125
479.5307, 5670.413
480.0128, 5690.991
480.4950, 5703.666
480.9771, 5680.640
481.4592, 5642.614
481.9413, 5632.590
482.4234, 5663.408
482.9055, 5711.989
483.3877, 5750.747
483.8698, 5777.283
484.3519, 5802.354
484.8340, 5810.214
485.3161, 5831.270
485.7982, 5893.280
486.2804, 5982.053
486.7625, 6062.408
487.2446, 6113.139
487.7267, 6142.232
488.2088, 6175.587
488.6909, 6210.891
489.1731, 6255.077
489.6552, 6317.229
490.1373, 6381.431
490.6194, 6431.442
491.1015, 6467.135
491.5836, 6505.726
492.0658, 6569.479
492.5479, 6653.309
493.0300, 6717.976
493.5121, 6758.535
493.9942, 6787.490
494.4763, 6807.087
494.9585, 6821.133
495.4406, 6837.302
495.9227, 6866.526
496.4048, 6884.779
496.8869, 6865.701
497.3690, 6817.997
497.8512, 6774.712
498.3333, 6747.531
498.8154, 6723.350
499.2975, 6681.925
499.7796, 6618.387
500.2617, 6558.093
500.7439, 6512.196
501.2260, 6461.963
501.7081, 6389.948
502.1902, 6300.723
502.6723, 6213.975
503.1544, 6143.383
503.6366, 6083.436
504.1187, 6011.822
504.6008, 5919.179
505.0829, 5828.672
505.5650, 5739.987
506.0471, 5656.039
506.5293, 5580.170
507.0114, 5512.635
507.4935, 5450.501
507.9756, 5388.186
508.4577, 5327.014
508.9398, 5283.785
509.4220, 5269.524
509.9041, 5253.240
510.3862, 5207.094
510.8683, 5149.042
511.3504, 5111.983
511.8326, 5117.556
512.3147, 5122.916
512.7968, 5083.745
513.2789, 5014.335
513.7610, 4962.146
514.2432, 4941.213
514.7253, 4941.654
515.2074, 4956.035
515.6895, 4991.800
516.1716, 5003.738
516.6537, 4972.645
517.1359, 4933.405
517.6180, 4901.886
518.1001, 4880.188
518.5822, 4870.806
519.0643, 4876.143
519.5464, 4889.531
520.0286, 4888.724
520.5107, 4856.798
520.9928, 4842.976
521.4749, 4863.037
521.9570, 4891.475
522.4391, 4912.742
522.9213, 4924.886
523.4034, 4932.858
523.8855, 4938.745
524.3676, 4943.453
524.8497, 4951.553
525.3318, 4964.991
525.8140, 4974.935
526.2961, 4969.104
526.7782, 4960.187
527.2603, 4970.158
527.7424, 5008.123
528.2245, 5047.078
528.7067, 5070.968
529.1888, 5086.762
529.6709, 5106.986
530.1530, 5134.231
530.6351, 5162.313
531.1172, 5183.087
531.5994, 5194.910
532.0815, 5225.859
532.5636, 5298.602
533.0457, 5361.938
533.5278, 5392.375
534.0099, 5405.097
534.4921, 5421.856
534.9742, 5451.114
535.4563, 5487.857
535.9384, 5524.229
536.4205, 5558.809
536.9026, 5599.201
537.3848, 5646.034
537.8669, 5699.081
538.3490, 5758.970
538.8311, 5824.855
539.3132, 5895.225
539.7953, 5972.944
540.2775, 6051.472
540.7596, 6119.867
541.2417, 6179.347
541.7238, 6243.074
542.2059, 6312.758
542.6880, 6393.036
543.1702, 6496.546
543.6523, 6628.949
544.1344, 6747.979
544.6165, 6833.412
545.0986, 6915.097
545.5807, 7009.376
546.0629, 7119.490
546.5450, 7249.963
547.0271, 7404.914
547.5092, 7576.036
547.9913, 7737.880
548.4734, 7878.409
548.9556, 8029.011
549.4377, 8200.758
549.9198, 8374.700
550.4019, 8534.230
550.8840, 8680.901
551.3661, 8834.813
551.8483, 9012.810
552.3304, 9208.546
552.8125, 9405.833
553.2946, 9608.544
553.7767, 9797.474
554.2589, 9951.600
554.7410, 10092.41
555.2231, 10259.88
555.7052, 10468.63
556.1873, 10662.27
556.6694, 10819.88
557.1516, 10950.62
557.6337, 11061.11
558.1158, 11154.16
558.5979, 11239.25
559.0800, 11325.96
559.5621, 11411.62
560.0443, 11470.02
560.5264, 11507.25
561.0085, 11506.96
561.4906, 11454.17
561.9727, 11370.15
562.4548, 11269.95
562.9370, 11158.86
563.4191, 11041.40
563.9012, 10931.28
564.3833, 10824.19
564.8654, 10669.33
565.3475, 10454.15
565.8297, 10219.62
566.3118, 9981.906
566.7939, 9737.665
567.2760, 9476.182
567.7581, 9184.726
568.2402, 8907.517
568.7224, 8678.512
569.2045, 8477.417
569.6866, 8261.856
570.1687, 8025.319
570.6508, 7793.153
571.1329, 7589.255
571.6151, 7414.309
572.0972, 7241.001
572.5793, 7064.777
573.0614, 6896.339
573.5435, 6739.128
574.0256, 6589.680
574.5078, 6440.419
574.9899, 6290.580
575.4720, 6152.160
575.9541, 6044.296
576.4362, 5965.493
576.9183, 5876.619
577.4005, 5767.858
577.8826, 5666.737
578.3647, 5593.945
578.8468, 5537.062
579.3289, 5477.646
579.8110, 5410.370
580.2932, 5345.048
580.7753, 5287.125
581.2574, 5235.171
581.7395, 5186.090
582.2216, 5139.404
582.7037, 5097.507
583.1859, 5063.087
583.6680, 5036.320
584.1501, 5008.604
584.6322, 4978.757
585.1143, 4949.564
585.5964, 4916.204
586.0786, 4886.392
586.5607, 4870.301
587.0428, 4869.793
587.5249, 4874.687
588.0070, 4875.240
588.4891, 4871.548
588.9713, 4863.822
589.4534, 4848.678
589.9355, 4836.894
590.4176, 4834.109
590.8997, 4838.756
591.3818, 4849.851
591.8640, 4870.478
592.3461, 4890.159
