##NAMES=Bottinoite
##RRUFFID=R060263
##IDEAL CHEMISTRY=Ni^2+^Sb^5+^_2_(OH)_12_&#183;6H_2_O
##LOCALITY=Ramsbeck mine, Dornberg, Sauerland, Germany
##OWNER=RRUFF
##SOURCE=Michael Scott
##DESCRIPTION=Spherical aggregate of pale greenish-blue tabular crystals
##STATUS=The identification of this mineral is confirmed by single-crystal X-ray diffraction and chemical analysis.
##URL=rruff.info/R060263
##MEASURED CHEMISTRY=Ni^2+^_1.00_(Sb^5+^_1.99_As_0.01_)_Σ=2_(OH)_12_·1.2H_2_O ; = gray phase. (dehydrated bottinoite due to the electronic beam)
91.53320, 234.4082
92.01532, 231.3522
92.49744, 229.6359
92.97955, 233.4277
93.46167, 238.7431
93.94379, 241.3432
94.42590, 242.4620
94.90802, 242.7121
95.39014, 242.1475
95.87225, 240.7198
96.35437, 238.8993
96.83649, 236.7342
97.31860, 234.6077
97.80072, 232.8581
98.28284, 231.2682
98.76495, 229.7400
99.24707, 229.1609
99.72919, 230.4966
100.2113, 231.8257
100.6934, 233.2491
101.1755, 234.3155
101.6577, 234.2520
102.1398, 232.2934
102.6219, 228.1376
103.1040, 223.6667
103.5861, 218.5320
104.0682, 213.3898
104.5504, 208.2751
105.0325, 203.3176
105.5146, 198.9566
105.9967, 195.8870
106.4788, 194.4973
106.9609, 193.4839
107.4431, 192.8481
107.9252, 192.5094
108.4073, 192.3034
108.8894, 192.1020
109.3715, 192.1956
109.8536, 193.0517
110.3358, 194.6318
110.8179, 196.7212
111.3000, 199.4736
111.7821, 202.8092
112.2642, 205.9499
112.7463, 208.6175
113.2285, 210.9104
113.7106, 213.1467
114.1927, 215.5906
114.6748, 217.3534
115.1569, 216.8140
115.6390, 212.8406
116.1212, 209.4281
116.6033, 208.2417
117.0854, 207.9249
117.5675, 207.0817
118.0496, 204.9332
118.5317, 201.8644
119.0139, 199.7569
119.4960, 199.6109
119.9781, 199.4680
120.4602, 198.9202
120.9423, 198.1180
121.4244, 197.4212
121.9066, 197.1511
122.3887, 197.3781
122.8708, 196.9627
123.3529, 195.3190
123.8350, 193.7061
124.3171, 193.0420
124.7993, 193.1996
125.2814, 193.0825
125.7635, 191.5181
126.2456, 188.1154
126.7277, 184.8281
127.2098, 181.9422
127.6920, 179.0695
128.1741, 175.7759
128.6562, 171.9771
129.1383, 167.8337
129.6204, 163.3677
130.1025, 158.6071
130.5847, 154.0144
131.0668, 149.7504
131.5489, 145.7938
132.0310, 142.0472
132.5131, 138.2848
132.9952, 134.9870
133.4774, 132.4417
133.9595, 130.6541
134.4416, 129.4068
134.9237, 128.7698
135.4058, 128.9026
135.8879, 128.5140
136.3701, 126.6721
136.8522, 124.6726
137.3343, 123.1671
137.8164, 122.3253
138.2985, 122.0440
138.7806, 122.1923
139.2628, 123.0519
139.7449, 123.8596
140.2270, 124.6632
140.7091, 125.3387
141.1912, 125.6912
141.6733, 125.6330
142.1555, 125.3482
142.6376, 125.4731
143.1197, 126.7528
143.6018, 127.6293
144.0839, 127.9230
144.5660, 127.7053
145.0482, 127.0784
145.5303, 126.0758
146.0124, 124.7312
146.4945, 123.2772
146.9766, 121.0341
147.4587, 119.3516
147.9409, 119.5083
148.4230, 121.0364
148.9051, 121.7649
149.3872, 119.9051
149.8693, 115.8208
150.3514, 112.5370
150.8336, 110.5066
151.3157, 109.0442
151.7978, 107.5307
152.2799, 105.9132
152.7620, 104.4789
153.2441, 103.9713
153.7263, 103.7881
154.2084, 102.7773
154.6905, 99.64429
155.1726, 95.56090
155.6547, 93.24883
156.1368, 93.51112
156.6190, 94.20848
157.1011, 94.25846
157.5832, 93.83316
158.0653, 93.24487
158.5474, 92.61624
159.0295, 91.96073
159.5117, 91.46726
159.9938, 91.30788
160.4759, 91.14957
160.9580, 90.89981
161.4401, 90.55448
161.9222, 90.13992
162.4044, 89.70354
162.8865, 89.27903
163.3686, 88.59595
163.8507, 87.05311
164.3328, 85.77148
164.8149, 85.32164
165.2971, 85.68217
165.7792, 86.46357
166.2613, 87.27576
166.7434, 88.30576
167.2255, 88.71334
167.7076, 88.23663
168.1898, 87.42240
168.6719, 86.53920
169.1540, 85.67295
169.6361, 84.91580
170.1182, 84.38110
170.6003, 84.04768
171.0825, 84.08466
171.5646, 84.90418
172.0467, 85.94511
172.5288, 86.55473
173.0109, 86.53178
173.4930, 86.15421
173.9752, 85.79214
174.4573, 85.42005
174.9394, 85.15803
175.4215, 85.11398
175.9036, 85.20350
176.3857, 85.20214
176.8679, 84.95724
177.3500, 84.74891
177.8321, 85.06264
178.3142, 85.97002
178.7963, 86.64562
179.2784, 86.22460
179.7606, 84.90235
180.2427, 84.39042
180.7248, 85.99137
181.2069, 87.82922
181.6890, 87.99825
182.1711, 86.29808
182.6533, 84.49605
183.1354, 84.52331
183.6175, 86.66462
184.0996, 88.37782
184.5817, 88.60579
185.0638, 88.51172
185.5460, 88.75585
186.0281, 89.47778
186.5102, 90.34938
186.9923, 90.75324
187.4744, 90.17000
187.9565, 90.56342
188.4387, 93.12703
188.9208, 96.04717
189.4029, 97.98959
189.8850, 98.56560
190.3671, 98.35654
190.8492, 98.42646
191.3314, 98.69547
191.8135, 99.45955
192.2956, 101.1018
192.7777, 102.9941
193.2598, 104.6111
193.7419, 105.7399
194.2241, 106.5016
194.7062, 107.1859
195.1883, 107.5240
195.6704, 108.1133
196.1525, 109.1418
196.6346, 110.3695
197.1168, 111.5694
197.5989, 112.6512
198.0810, 113.5718
198.5631, 114.1788
199.0452, 114.1999
199.5273, 114.2915
200.0095, 114.5582
200.4916, 114.9602
200.9737, 115.4351
201.4558, 115.9584
201.9379, 116.5392
202.4200, 117.2526
202.9022, 118.3031
203.3843, 119.1224
203.8664, 119.3113
204.3485, 119.0857
204.8306, 119.0495
205.3127, 119.4981
205.7949, 120.2582
206.2770, 120.9048
206.7591, 121.3752
207.2412, 121.8814
207.7233, 122.6946
208.2054, 123.7311
208.6876, 124.4038
209.1697, 124.1987
209.6518, 123.7109
210.1339, 123.8149
210.6160, 124.6420
211.0981, 125.7729
211.5803, 127.0200
212.0624, 128.3828
212.5445, 129.4835
213.0266, 130.0260
213.5087, 130.3148
213.9908, 130.5185
214.4730, 130.5988
214.9551, 130.9265
215.4372, 132.1803
215.9193, 134.6161
216.4014, 136.4124
216.8836, 136.4338
217.3657, 135.9533
217.8478, 135.7247
218.3299, 135.9276
218.8120, 136.4009
219.2941, 136.9305
219.7763, 137.4894
220.2584, 138.1990
220.7405, 139.1966
221.2226, 140.2729
221.7047, 141.3703
222.1868, 142.4576
222.6690, 143.3817
223.1511, 143.8148
223.6332, 143.3887
224.1153, 143.3243
224.5974, 143.8327
225.0795, 144.6168
225.5617, 145.5444
226.0438, 146.5547
226.5259, 147.5576
227.0080, 148.3610
227.4901, 148.6720
227.9722, 149.3376
228.4544, 150.5626
228.9365, 151.9872
229.4186, 153.1919
229.9007, 154.1046
230.3828, 155.1431
230.8649, 157.1138
231.3471, 161.4843
231.8292, 164.3728
232.3113, 165.1425
232.7934, 164.9490
233.2755, 164.5105
233.7576, 164.0913
234.2398, 163.8492
234.7219, 164.0847
235.2040, 165.4027
235.6861, 166.0891
236.1682, 165.9921
236.6503, 165.3681
237.1325, 164.3685
237.6146, 163.0515
238.0967, 161.5199
238.5788, 159.9381
239.0609, 158.4227
239.5430, 156.5344
240.0252, 153.9121
240.5073, 151.0878
240.9894, 148.6301
241.4715, 146.6621
241.9536, 144.9021
242.4357, 142.9172
242.9179, 140.5860
243.4000, 138.6333
243.8821, 137.4161
244.3642, 136.4845
244.8463, 135.3469
245.3284, 133.8951
245.8106, 132.3361
246.2927, 130.7407
246.7748, 129.0675
247.2569, 128.1687
247.7390, 129.0186
248.2211, 130.3438
248.7033, 130.4375
249.1854, 128.9292
249.6675, 127.1177
250.1496, 126.3678
250.6317, 126.5150
251.1138, 126.5738
251.5960, 126.2365
252.0781, 125.7472
252.5602, 125.4725
253.0423, 125.4937
253.5244, 125.4653
254.0065, 125.3425
254.4887, 124.9836
254.9708, 123.7909
255.4529, 120.5536
255.9350, 116.8244
256.4171, 115.0320
256.8992, 115.5973
257.3813, 116.4840
257.8635, 116.3344
258.3456, 115.5071
258.8277, 114.4759
259.3098, 113.0742
259.7919, 111.7219
260.2740, 111.1881
260.7562, 111.6848
261.2383, 112.0810
261.7204, 111.4764
262.2025, 110.4429
262.6846, 109.6680
263.1667, 109.4279
263.6489, 109.4309
264.1310, 109.2229
264.6131, 108.7213
265.0952, 108.3686
265.5773, 108.4270
266.0594, 108.7150
266.5416, 109.0751
267.0237, 109.4447
267.5058, 109.9332
267.9879, 110.7630
268.4700, 112.0253
268.9521, 113.2010
269.4343, 113.7381
269.9164, 114.3208
270.3985, 115.6074
270.8806, 117.8044
271.3627, 120.2321
271.8448, 121.9249
272.3270, 122.6764
272.8091, 123.8096
273.2912, 125.6785
273.7733, 128.0267
274.2554, 130.8657
274.7375, 134.1908
275.2197, 137.6647
275.7018, 140.8587
276.1839, 143.6564
276.6660, 146.8463
277.1481, 150.6233
277.6302, 154.7844
278.1124, 159.4612
278.5945, 164.5635
279.0766, 169.5239
279.5587, 173.6455
280.0408, 176.8103
280.5229, 180.3040
281.0051, 184.3799
281.4872, 188.6362
281.9693, 193.0296
282.4514, 197.4781
282.9335, 201.8191
283.4156, 205.7084
283.8978, 209.1193
284.3799, 213.3555
284.8620, 218.9780
285.3441, 224.9476
285.8262, 231.1123
286.3083, 237.3423
286.7905, 243.4307
287.2726, 249.1295
287.7547, 254.5186
288.2368, 260.3171
288.7189, 267.3730
289.2010, 273.8041
289.6832, 278.5005
290.1653, 282.3563
290.6474, 286.7736
291.1295, 292.5734
291.6116, 299.4323
292.0938, 306.0199
292.5759, 312.1572
293.0580, 318.2220
293.5401, 324.3441
294.0222, 330.4294
294.5043, 336.3106
294.9865, 341.9142
295.4686, 347.3419
295.9507, 352.7901
296.4328, 357.9992
296.9149, 363.7351
297.3970, 370.9332
297.8792, 378.1422
298.3613, 383.8746
298.8434, 387.7563
299.3255, 390.8065
299.8076, 394.8610
300.2897, 400.9181
300.7719, 405.6664
301.2540, 408.8525
301.7361, 411.0010
302.2182, 412.2637
302.7003, 412.7533
303.1824, 412.7744
303.6646, 412.7640
304.1467, 412.9482
304.6288, 412.2270
305.1109, 409.7356
305.5930, 407.1447
306.0751, 405.3085
306.5573, 404.1398
307.0394, 402.9775
307.5215, 401.1331
308.0036, 398.5015
308.4857, 396.5948
308.9678, 395.9145
309.4500, 395.4993
309.9321, 395.2191
310.4142, 394.9946
310.8963, 394.7143
311.3784, 394.2704
311.8605, 393.7188
312.3427, 393.5029
312.8248, 393.7673
313.3069, 394.2448
313.7890, 394.7139
314.2711, 395.4109
314.7532, 396.7578
315.2354, 398.9845
315.7175, 401.7327
316.1996, 403.9052
316.6817, 404.9389
317.1638, 406.3004
317.6459, 408.3441
318.1281, 410.6459
318.6102, 412.6754
319.0923, 414.3058
319.5744, 416.0432
320.0565, 418.8236
320.5386, 423.2422
321.0208, 427.3365
321.5029, 430.5936
321.9850, 433.8675
322.4671, 437.7711
322.9492, 442.3372
323.4313, 447.0904
323.9135, 451.5066
324.3956, 455.4273
324.8777, 459.8014
325.3598, 464.6558
325.8419, 469.9469
326.3240, 475.6353
326.8062, 481.7798
327.2883, 488.6129
327.7704, 496.5065
328.2525, 505.3581
328.7346, 513.5769
329.2167, 520.7451
329.6989, 527.7480
330.1810, 534.5914
330.6631, 541.4703
331.1452, 548.8137
331.6273, 557.0010
332.1094, 565.3406
332.5916, 571.5421
333.0737, 574.2864
333.5558, 577.0375
334.0379, 581.2545
334.5200, 585.3431
335.0021, 587.7764
335.4843, 588.0771
335.9664, 586.8415
336.4485, 584.9727
336.9306, 582.4849
337.4127, 579.2623
337.8948, 575.1514
338.3770, 570.4404
338.8591, 565.4903
339.3412, 560.1924
339.8233, 553.9632
340.3055, 545.9126
340.7876, 535.8832
341.2697, 525.9070
341.7518, 515.3892
342.2339, 505.6329
342.7160, 497.7826
343.1982, 491.1187
343.6803, 483.8462
344.1624, 474.4829
344.6445, 463.5797
345.1266, 453.9302
345.6087, 446.0765
346.0909, 438.6928
346.5730, 431.2891
347.0551, 424.0150
347.5372, 417.0737
348.0193, 410.4458
348.5014, 404.2751
348.9836, 398.8885
349.4657, 394.6177
349.9478, 390.0980
350.4299, 384.5958
350.9120, 378.9291
351.3941, 373.7016
351.8763, 369.0327
352.3584, 364.6193
352.8405, 360.0194
353.3226, 355.1874
353.8047, 351.2370
354.2868, 349.1317
354.7690, 347.1171
355.2511, 343.9876
355.7332, 339.9224
356.2153, 335.8691
356.6974, 332.3879
357.1795, 329.4009
357.6617, 326.6409
358.1438, 324.2145
358.6259, 321.8259
359.1080, 319.3415
359.5901, 316.7914
360.0722, 314.2264
360.5544, 311.7973
361.0365, 309.2128
361.5186, 305.9218
362.0007, 301.8559
362.4828, 297.7128
362.9649, 293.5523
363.4471, 289.5852
363.9292, 286.1209
364.4113, 283.3011
364.8934, 280.4590
365.3755, 276.9933
365.8576, 273.0172
366.3398, 269.1560
366.8219, 265.5334
367.3040, 262.0732
367.7861, 258.9077
368.2682, 255.9840
368.7503, 252.4841
369.2325, 247.7446
369.7146, 242.2985
370.1967, 236.9962
370.6788, 231.8817
371.1609, 227.0166
371.6430, 222.6069
372.1252, 218.5085
372.6073, 214.3336
373.0894, 210.1264
373.5715, 205.7643
374.0536, 200.9923
374.5357, 195.9265
375.0179, 191.1812
375.5000, 187.2464
375.9821, 183.7103
376.4642, 179.4659
376.9463, 174.0749
377.4284, 169.1102
377.9106, 165.2420
378.3927, 162.1747
378.8748, 159.4723
379.3569, 157.0417
379.8390, 154.7961
380.3211, 152.6859
380.8033, 150.7841
381.2854, 148.5542
381.7675, 145.5053
382.2496, 142.4532
382.7317, 140.1790
383.2138, 138.6331
383.6960, 137.0135
384.1781, 134.5899
384.6602, 131.4878
385.1423, 129.4321
385.6244, 129.6492
386.1065, 129.3383
386.5887, 126.8991
387.0708, 123.4398
387.5529, 120.9116
388.0350, 120.1881
388.5171, 120.5814
388.9992, 120.5988
389.4814, 120.3141
389.9635, 119.4504
390.4456, 117.2529
390.9277, 114.9835
391.4098, 113.8772
391.8919, 113.9709
392.3741, 114.1721
392.8562, 113.2636
393.3383, 110.9988
393.8204, 109.5049
394.3025, 109.4377
394.7846, 109.4022
395.2668, 108.8490
395.7489, 107.9871
396.2310, 107.2887
396.7131, 107.0429
397.1952, 107.0997
397.6773, 106.9274
398.1595, 106.3499
398.6416, 105.8243
399.1237, 105.5433
399.6058, 105.2528
400.0879, 104.5588
400.5700, 103.4392
401.0522, 102.4875
401.5343, 102.7257
402.0164, 104.5394
402.4985, 105.1989
402.9806, 103.1129
403.4627, 101.2524
403.9449, 101.1541
404.4270, 102.3460
404.9091, 103.4584
405.3912, 103.6287
405.8733, 103.1140
406.3554, 102.6680
406.8376, 102.2352
407.3197, 102.0070
407.8018, 102.3902
408.2839, 102.8621
408.7660, 102.8324
409.2481, 102.1072
409.7303, 101.1746
410.2124, 100.4707
410.6945, 99.99014
411.1766, 99.62339
411.6587, 99.36772
412.1408, 99.20039
412.6230, 99.17240
413.1051, 99.25062
413.5872, 99.16483
414.0693, 98.62343
414.5514, 97.91433
415.0335, 97.53857
415.5157, 97.55007
415.9978, 97.59937
416.4799, 97.45444
416.9620, 97.17699
417.4441, 96.98756
417.9262, 97.09178
418.4084, 97.02053
418.8905, 96.31396
419.3726, 95.21928
419.8547, 94.39308
420.3368, 94.08013
420.8189, 94.05481
421.3011, 94.03262
421.7832, 94.10360
422.2653, 93.80528
422.7474, 92.61604
423.2295, 91.35605
423.7116, 90.76414
424.1938, 90.85767
424.6759, 91.20485
425.1580, 91.53340
425.6401, 91.82436
426.1222, 91.71594
426.6043, 91.10159
427.0865, 90.28053
427.5686, 88.92329
428.0507, 87.52540
428.5328, 86.85506
429.0149, 87.19184
429.4970, 88.02117
429.9792, 88.44334
430.4613, 88.26643
430.9434, 88.08254
431.4255, 88.14040
431.9076, 87.98225
432.3897, 87.04495
432.8719, 85.59389
433.3540, 84.49065
433.8361, 84.45885
434.3182, 85.35574
434.8003, 86.19563
435.2824, 87.21629
435.7646, 87.76981
436.2467, 87.16853
436.7288, 86.32956
437.2109, 86.44021
437.6930, 87.88612
438.1751, 89.46416
438.6573, 89.47728
439.1394, 87.78713
439.6215, 86.41939
440.1036, 85.47382
440.5857, 85.14322
441.0678, 86.00642
441.5500, 87.65714
442.0321, 88.60208
442.5142, 87.51936
442.9963, 85.48298
443.4784, 84.50346
443.9605, 84.69756
444.4427, 85.04778
444.9248, 85.10273
445.4069, 84.98147
445.8890, 84.88775
446.3711, 84.81404
446.8532, 84.81189
447.3354, 84.86197
447.8175, 85.00975
448.2996, 85.47790
448.7817, 86.38435
449.2638, 87.15874
449.7459, 87.04996
450.2281, 85.98862
450.7102, 85.38462
451.1923, 85.48955
451.6744, 85.88670
452.1565, 86.54864
452.6386, 87.31138
453.1208, 87.70312
453.6029, 87.43831
454.0850, 86.78584
454.5671, 86.49136
455.0492, 86.82985
455.5313, 87.17718
456.0135, 87.53246
456.4956, 87.88966
456.9777, 88.32422
457.4598, 88.79531
457.9419, 89.10503
458.4240, 89.04762
458.9062, 88.61823
459.3883, 88.16973
459.8704, 87.35175
460.3525, 86.93426
460.8346, 87.32731
461.3167, 88.12376
461.7989, 88.85487
462.2810, 89.34729
462.7631, 89.62720
463.2452, 89.59077
463.7273, 89.09490
464.2094, 89.14431
464.6916, 90.23037
465.1737, 91.57465
465.6558, 92.98974
466.1379, 94.31924
466.6200, 95.12552
467.1021, 94.79421
467.5843, 93.95079
468.0664, 93.92608
468.5485, 94.82903
469.0306, 95.75799
469.5127, 96.24600
469.9948, 96.56817
470.4770, 97.17390
470.9591, 98.16285
471.4412, 99.11700
471.9233, 99.72387
472.4054, 100.1818
472.8875, 100.8409
473.3697, 101.7657
473.8518, 102.8937
474.3339, 104.3493
474.8160, 106.0819
475.2981, 106.9185
475.7802, 105.7403
476.2624, 104.8628
476.7445, 105.4872
477.2266, 107.1234
477.7087, 108.9165
478.1908, 110.5475
478.6729, 111.8877
479.1551, 112.6296
479.6372, 112.1663
480.1193, 112.5673
480.6014, 114.2431
481.0835, 116.2915
481.5656, 118.5234
482.0478, 120.7045
482.5299, 122.3328
483.0120, 122.9520
483.4941, 123.0116
483.9762, 124.3017
484.4583, 127.6329
484.9405, 130.5446
485.4226, 132.1507
485.9047, 133.4723
486.3868, 135.3623
486.8689, 137.8948
487.3510, 140.3752
487.8332, 142.0314
488.3153, 143.0788
488.7974, 144.6416
489.2795, 146.8405
489.7616, 149.3529
490.2437, 152.2988
490.7259, 155.3637
491.2080, 158.0588
491.6901, 160.1202
492.1722, 162.1081
492.6543, 164.4863
493.1364, 167.1062
493.6186, 169.5310
494.1007, 171.6639
494.5828, 173.5941
495.0649, 175.2971
495.5470, 176.7242
496.0291, 178.7607
496.5113, 182.3831
496.9934, 185.7523
497.4755, 187.5339
497.9576, 188.2021
498.4397, 189.0095
498.9218, 190.5555
499.4040, 192.5167
499.8861, 194.1815
500.3682, 195.6327
500.8503, 196.5644
501.3324, 196.5941
501.8145, 196.4970
502.2967, 196.8033
502.7788, 197.4298
503.2609, 197.9582
503.7430, 198.0960
504.2251, 197.9162
504.7072, 197.7384
505.1894, 197.7197
505.6715, 197.3298
506.1536, 195.7507
506.6357, 194.2034
507.1178, 193.9705
507.5999, 195.1180
508.0821, 196.0122
508.5642, 195.3821
509.0463, 193.5748
509.5284, 191.3616
510.0105, 188.5732
510.4926, 186.3546
510.9748, 185.6699
511.4569, 186.0313
511.9390, 186.1956
512.4211, 185.8627
512.9032, 185.7684
513.3853, 186.7267
513.8674, 188.0421
514.3495, 188.1992
514.8317, 186.8673
515.3138, 185.6666
515.7959, 186.4408
516.2780, 189.4124
516.7601, 190.9324
517.2422, 190.2751
517.7244, 189.2377
518.2065, 187.9326
518.6886, 186.7887
519.1707, 186.5367
519.6528, 187.3880
520.1349, 188.5685
520.6171, 188.8665
521.0992, 188.0541
521.5813, 187.2900
522.0634, 186.0866
522.5455, 185.4548
523.0276, 186.2868
523.5098, 187.8824
523.9919, 188.8808
524.4740, 188.5678
524.9561, 187.7508
525.4382, 187.7208
525.9203, 188.4986
526.4025, 188.8325
526.8846, 188.3044
527.3667, 187.4037
527.8488, 186.3229
528.3309, 185.1633
528.8130, 184.6836
529.2952, 185.8262
529.7773, 187.1908
530.2594, 187.2697
530.7415, 186.3362
531.2236, 185.8057
531.7057, 186.3772
532.1879, 187.4661
532.6700, 187.9440
533.1521, 187.4916
533.6342, 187.1227
534.1163, 186.7395
534.5984, 186.5434
535.0806, 186.7355
535.5627, 187.2367
536.0448, 187.8178
536.5269, 188.3383
537.0090, 188.8262
537.4911, 189.4126
537.9733, 190.3793
538.4554, 190.8153
538.9375, 189.7059
539.4196, 188.8049
539.9017, 189.3067
540.3839, 191.0906
540.8660, 193.2161
541.3481, 195.3540
541.8302, 197.2784
542.3123, 198.2767
542.7944, 198.2127
543.2766, 198.4168
543.7587, 199.4333
544.2408, 200.9842
544.7229, 202.7362
545.2050, 204.7508
545.6871, 206.4492
546.1693, 207.1116
546.6514, 207.6745
547.1335, 209.2124
547.6156, 211.7110
548.0977, 214.5626
548.5798, 217.4203
549.0620, 220.3298
549.5441, 223.4203
550.0262, 226.8561
550.5083, 230.2563
550.9904, 233.8401
551.4725, 237.2217
551.9547, 239.8249
552.4368, 241.8753
552.9189, 244.2598
553.4010, 247.6237
553.8831, 251.8259
554.3652, 256.4308
554.8474, 261.9214
555.3295, 266.5408
555.8116, 268.6363
556.2937, 270.5334
556.7758, 274.0466
557.2579, 279.1909
557.7401, 284.4797
558.2222, 288.8314
558.7043, 292.8358
559.1864, 297.6883
559.6685, 303.3954
560.1506, 309.1487
560.6328, 314.4718
561.1149, 319.6234
561.5970, 325.3747
562.0791, 331.9943
562.5612, 338.1446
563.0433, 342.7842
563.5255, 347.4264
564.0076, 353.6019
564.4897, 361.1000
564.9718, 368.7027
565.4539, 375.6441
565.9360, 382.0981
566.4182, 388.5246
566.9003, 394.6791
567.3824, 401.3893
567.8645, 408.8361
568.3466, 416.7013
568.8287, 424.8086
569.3109, 433.1744
569.7930, 441.7137
570.2751, 450.4563
570.7572, 459.3497
571.2393, 468.3026
571.7214, 477.3080
572.2036, 486.0699
572.6857, 494.2443
573.1678, 502.2871
573.6499, 510.7559
574.1320, 519.6004
574.6141, 528.7128
575.0963, 538.3566
575.5784, 547.9815
576.0605, 557.1477
576.5426, 565.8648
577.0247, 574.2765
577.5068, 582.3928
577.9890, 590.3668
578.4711, 598.4697
578.9532, 606.6592
579.4353, 615.1083
579.9174, 624.2229
580.3995, 633.1748
580.8817, 641.0565
581.3638, 648.5383
581.8459, 656.9344
582.3280, 666.9257
582.8101, 677.7094
583.2922, 687.8148
583.7744, 697.0795
584.2565, 707.8391
584.7386, 721.2137
