##NAMES=Boulangerite
##RRUFFID=R050436
##IDEAL CHEMISTRY=Pb^2+^_5_Sb^3+^_4_S^2-^_11_
##LOCALITY=Noche Buena mine, Noche Buena, Municipio de Mazapil, Zacatecas, Mexico
##OWNER=RRUFF
##SOURCE=University of Arizona Mineral Museum
##DESCRIPTION=Mass of lead-gray acicular crystals
##STATUS=The identification of this mineral is confirmed by single-crystal X-ray diffraction and chemical analysis.
##URL=rruff.info/R050436
##MEASURED CHEMISTRY=Pb_5.00_Sb_4.00_S_11.00_
218.427, 7509.562
218.909, 7510.633
219.391, 7512.050
219.874, 7513.722
220.356, 7513.312
220.838, 7508.569
221.320, 7503.956
221.802, 7505.356
222.284, 7515.491
222.766, 7526.443
223.248, 7538.255
223.731, 7552.514
224.213, 7554.786
224.695, 7536.672
225.177, 7514.573
225.659, 7511.652
226.141, 7539.505
226.623, 7564.903
227.105, 7578.214
227.587, 7577.423
228.070, 7576.016
228.552, 7573.141
229.034, 7570.038
229.516, 7567.525
229.998, 7560.865
230.480, 7546.672
230.962, 7556.943
231.444, 7561.276
231.926, 7559.989
232.409, 7536.252
232.891, 7541.505
233.373, 7535.140
233.855, 7528.299
234.337, 7537.632
234.819, 7517.160
235.301, 7526.236
235.783, 7523.518
236.266, 7518.065
236.748, 7528.697
237.230, 7525.955
237.712, 7498.070
238.194, 7475.654
238.676, 7472.072
239.158, 7497.068
239.640, 7509.183
240.122, 7500.715
240.605, 7483.126
241.087, 7478.564
241.569, 7489.924
242.051, 7510.186
242.533, 7540.863
243.015, 7593.535
243.497, 7620.556
243.980, 7606.521
244.462, 7572.881
244.944, 7568.137
245.426, 7612.464
245.908, 7653.699
246.390, 7668.851
246.872, 7642.411
247.354, 7630.363
247.836, 7636.324
248.318, 7654.647
248.801, 7673.199
249.283, 7690.315
249.765, 7710.065
250.247, 7737.365
250.729, 7784.299
251.211, 7805.459
251.693, 7791.555
252.176, 7756.740
252.658, 7731.960
253.140, 7721.334
253.622, 7714.650
254.104, 7705.857
254.586, 7687.797
255.068, 7690.294
255.550, 7723.259
256.032, 7772.226
256.514, 7803.222
256.997, 7809.298
257.479, 7810.325
257.961, 7812.906
258.443, 7813.847
258.925, 7825.933
259.407, 7851.824
259.889, 7886.876
260.371, 7923.622
260.854, 7967.425
261.336, 8001.363
261.818, 8013.713
262.300, 7992.338
262.782, 7990.575
263.264, 8012.966
263.746, 8051.728
264.228, 8091.144
264.711, 8133.108
265.193, 8171.672
265.675, 8205.476
266.157, 8235.124
266.639, 8255.260
267.121, 8262.637
267.603, 8263.067
268.085, 8267.033
268.567, 8273.729
269.050, 8286.667
269.532, 8310.879
270.014, 8350.577
270.496, 8377.645
270.978, 8388.860
271.460, 8390.816
271.942, 8396.003
272.424, 8405.844
272.906, 8414.173
273.389, 8418.047
273.871, 8416.976
274.353, 8415.769
274.835, 8413.981
275.317, 8412.782
275.799, 8411.904
276.281, 8409.514
276.763, 8416.814
277.246, 8446.265
277.728, 8499.335
278.210, 8525.701
278.692, 8517.645
279.174, 8495.724
279.656, 8493.271
280.138, 8511.958
280.620, 8532.597
281.103, 8547.125
281.585, 8555.703
282.067, 8564.773
282.549, 8574.214
283.031, 8584.174
283.513, 8593.703
283.995, 8602.734
284.477, 8615.612
284.959, 8638.426
285.441, 8668.614
285.924, 8686.715
286.406, 8691.984
286.888, 8688.456
287.370, 8676.292
287.852, 8656.512
288.334, 8643.758
288.816, 8642.068
289.298, 8611.147
289.781, 8673.014
290.263, 8712.355
290.745, 8730.385
291.227, 8663.265
291.709, 8706.097
292.191, 8704.867
292.673, 8701.829
293.155, 8760.136
293.638, 8705.401
294.120, 8762.735
294.602, 8775.334
295.084, 8777.565
295.566, 8789.123
296.048, 8808.097
296.530, 8823.327
297.012, 8835.640
297.494, 8849.127
297.977, 8864.095
298.459, 8870.669
298.941, 8837.355
299.423, 8788.212
299.905, 8786.313
300.387, 8733.459
300.869, 8812.449
301.351, 8859.436
301.833, 8876.137
302.316, 8771.850
302.798, 8821.674
303.280, 8812.503
303.762, 8795.353
304.244, 8751.018
304.726, 8702.871
305.208, 8681.426
305.690, 8681.667
306.173, 8676.046
306.655, 8644.668
307.137, 8596.699
307.619, 8544.690
308.101, 8491.635
308.583, 8435.063
309.065, 8375.027
309.547, 8310.720
310.030, 8240.820
310.512, 8157.518
310.994, 8071.508
311.476, 7994.559
311.958, 7928.772
312.440, 7871.851
312.922, 7827.504
313.404, 7791.261
313.886, 7751.258
314.369, 7699.061
314.851, 7643.088
315.333, 7589.592
315.815, 7541.244
316.297, 7492.274
316.779, 7441.634
317.261, 7388.931
317.743, 7332.603
318.225, 7260.750
318.708, 7194.588
319.190, 7143.688
319.672, 7109.960
320.154, 7090.790
320.636, 7036.321
321.118, 7063.186
321.600, 7070.306
322.082, 7058.746
322.565, 6972.547
323.047, 6982.725
323.529, 6954.281
324.011, 6924.254
324.493, 6947.999
324.975, 6872.657
325.457, 6895.549
325.939, 6879.225
326.422, 6880.851
326.904, 6843.614
327.386, 6818.381
327.868, 6832.023
328.350, 6824.139
328.832, 6782.426
329.314, 6785.192
329.796, 6708.493
330.278, 6701.526
330.760, 6724.646
331.243, 6684.889
331.725, 6688.364
332.207, 6675.375
332.689, 6587.557
333.171, 6629.875
333.653, 6615.914
334.135, 6544.165
334.617, 6582.021
335.100, 6518.239
335.582, 6507.465
336.064, 6500.555
336.546, 6500.804
337.028, 6502.219
337.510, 6507.266
337.992, 6502.623
338.474, 6484.185
338.957, 6458.218
339.439, 6437.666
339.921, 6422.703
340.403, 6413.168
340.885, 6411.208
341.367, 6417.273
341.849, 6419.185
342.331, 6415.954
342.813, 6410.220
343.296, 6407.126
343.778, 6406.992
344.260, 6403.168
344.742, 6391.358
345.224, 6373.206
345.706, 6359.470
346.188, 6351.430
346.670, 6341.471
347.152, 6315.763
347.635, 6277.574
348.117, 6249.001
348.599, 6242.571
349.081, 6247.823
349.563, 6243.155
350.045, 6228.500
350.527, 6209.222
351.009, 6185.815
351.491, 6161.091
351.974, 6143.331
352.456, 6139.469
352.938, 6136.870
353.420, 6118.227
353.902, 6085.959
354.384, 6052.534
354.866, 6024.938
355.349, 6001.825
355.831, 5981.997
356.313, 5965.494
356.795, 5951.702
357.277, 5946.044
357.759, 5943.625
358.241, 5931.877
358.723, 5896.576
359.205, 5854.784
359.688, 5818.884
360.170, 5791.814
360.652, 5767.146
361.134, 5743.470
361.616, 5720.024
362.098, 5695.663
362.580, 5664.385
363.062, 5636.774
363.544, 5620.443
364.027, 5617.959
364.509, 5608.288
364.991, 5579.647
365.473, 5544.231
365.955, 5514.123
366.437, 5486.908
366.919, 5469.315
367.401, 5469.458
367.884, 5486.849
368.366, 5491.252
368.848, 5473.987
369.330, 5448.959
369.812, 5423.405
370.294, 5388.838
370.776, 5366.885
371.258, 5366.739
371.741, 5380.625
372.223, 5378.998
372.705, 5352.430
373.187, 5324.090
373.669, 5305.044
374.151, 5299.839
374.633, 5289.146
375.115, 5270.187
375.597, 5247.700
376.079, 5231.624
376.562, 5223.292
377.044, 5214.844
377.526, 5201.904
378.008, 5184.572
378.490, 5176.855
378.972, 5182.050
379.454, 5187.123
379.936, 5172.057
380.419, 5137.958
380.901, 5113.153
381.383, 5110.629
381.865, 5121.462
382.347, 5119.108
382.829, 5103.419
383.311, 5086.167
383.793, 5077.050
384.276, 5074.206
384.758, 5072.039
385.240, 5070.749
385.722, 5067.319
386.204, 5053.902
386.686, 5033.118
387.168, 5016.900
387.650, 5012.415
388.132, 4973.789
388.615, 5017.090
389.097, 5040.504
389.579, 5045.101
390.061, 4974.513
390.543, 5001.009
391.025, 4988.599
391.507, 4974.592
391.989, 5014.752
392.471, 4955.101
392.954, 4994.401
393.436, 4994.203
393.918, 5012.082
394.400, 4990.813
394.882, 4981.637
395.364, 5011.620
395.846, 5019.920
396.328, 4994.146
396.810, 5013.174
397.293, 4952.154
397.775, 4961.377
398.257, 5000.908
398.739, 4963.642
399.221, 4969.000
399.703, 4980.411
400.185, 5004.600
400.668, 5033.455
401.150, 5048.942
401.632, 5040.557
402.114, 5033.370
402.596, 5037.368
403.078, 5056.619
403.560, 5063.417
404.042, 5048.812
404.524, 5032.719
405.007, 5034.269
405.489, 5003.333
405.971, 5060.401
406.453, 5096.107
406.935, 5111.599
407.417, 5046.331
407.899, 5085.349
408.381, 5082.573
408.863, 5078.083
409.346, 5131.777
409.828, 5117.042
410.310, 5143.292
410.792, 5183.775
411.274, 5219.063
411.756, 5248.152
412.238, 5264.521
412.720, 5247.932
413.203, 5220.023
413.685, 5224.066
414.167, 5265.692
414.649, 5319.169
415.131, 5365.996
415.613, 5407.733
416.095, 5446.088
416.577, 5477.710
417.060, 5509.956
417.542, 5550.017
418.024, 5596.904
418.506, 5644.481
418.988, 5693.840
419.470, 5739.860
419.952, 5775.898
420.434, 5790.138
420.916, 5810.401
421.398, 5848.003
421.881, 5898.481
422.363, 5951.402
422.845, 6005.943
423.327, 6061.040
423.809, 6116.810
424.291, 6174.320
424.773, 6227.764
425.255, 6275.329
425.738, 6319.259
426.220, 6362.001
426.702, 6397.672
427.184, 6440.870
427.666, 6497.247
428.148, 6565.230
428.630, 6630.655
429.112, 6693.747
429.595, 6753.445
430.077, 6807.342
430.559, 6854.259
431.041, 6901.671
431.523, 6951.223
432.005, 7001.076
432.487, 7052.133
432.969, 7104.996
433.451, 7146.788
433.934, 7167.948
434.416, 7171.959
434.898, 7173.243
435.380, 7171.987
435.862, 7168.825
436.344, 7159.825
436.826, 7149.046
437.308, 7149.284
437.790, 7178.732
438.273, 7209.148
438.755, 7198.341
439.237, 7152.637
439.719, 7112.271
440.201, 7118.684
440.683, 7134.733
441.165, 7117.897
441.647, 7042.475
442.129, 6977.849
442.612, 6974.851
443.094, 7005.809
443.576, 7022.447
444.058, 7002.064
444.540, 6970.131
445.022, 6933.886
445.504, 6893.063
445.987, 6854.619
446.469, 6816.765
446.951, 6783.088
447.433, 6757.159
447.915, 6761.482
448.397, 6742.171
448.879, 6681.925
449.361, 6593.667
449.843, 6532.047
450.326, 6508.726
450.808, 6490.449
451.290, 6460.529
451.772, 6414.653
452.254, 6382.321
452.736, 6368.944
453.218, 6358.910
453.700, 6326.961
454.182, 6272.395
454.665, 6222.932
455.147, 6187.630
455.629, 6163.583
456.111, 6148.886
456.593, 6143.460
457.075, 6129.901
457.557, 6084.465
458.039, 6021.488
458.522, 5971.000
459.004, 5933.349
459.486, 5921.517
459.968, 5984.386
460.450, 6084.986
460.932, 6134.113
461.414, 6044.820
461.896, 5919.653
462.379, 5834.450
462.861, 5793.448
463.343, 5755.857
463.825, 5693.912
464.307, 5631.434
464.789, 5589.515
465.271, 5589.658
465.753, 5591.337
466.235, 5587.776
466.717, 5579.865
467.200, 5570.562
467.682, 5559.099
468.164, 5547.303
468.646, 5535.153
469.128, 5521.170
469.610, 5512.261
470.092, 5511.325
470.574, 5512.386
471.057, 5508.698
471.539, 5499.750
472.021, 5487.006
472.503, 5468.781
472.985, 5447.278
473.467, 5432.395
473.949, 5424.968
474.431, 5416.745
474.914, 5400.281
475.396, 5377.632
475.878, 5358.950
476.360, 5345.180
476.842, 5335.045
477.324, 5328.462
477.806, 5324.609
478.288, 5320.971
478.770, 5321.712
479.253, 5319.127
479.735, 5299.483
480.217, 5265.592
480.699, 5239.823
481.181, 5240.094
481.663, 5251.624
482.145, 5256.658
482.627, 5227.227
483.109, 5194.369
483.592, 5239.062
484.074, 5264.929
484.556, 5272.984
485.038, 5209.873
485.520, 5238.658
486.002, 5230.615
486.484, 5240.805
486.966, 5239.500
487.448, 5254.738
487.931, 5271.851
488.413, 5280.891
488.895, 5282.167
489.377, 5273.167
489.859, 5247.742
490.341, 5217.499
490.823, 5213.926
491.306, 5241.551
491.788, 5262.581
492.270, 5254.778
492.752, 5225.468
493.234, 5209.939
493.716, 5208.863
494.198, 5215.550
494.680, 5231.319
495.162, 5249.742
495.645, 5253.595
496.127, 5232.448
496.609, 5206.856
497.091, 5194.342
497.573, 5193.488
498.055, 5200.159
498.537, 5219.119
499.019, 5239.854
499.501, 5256.070
499.984, 5267.237
500.466, 5273.859
500.948, 5270.563
501.430, 5265.683
501.912, 5266.364
502.394, 5280.535
502.876, 5292.141
503.358, 5268.663
503.841, 5240.059
504.323, 5212.932
504.805, 5250.604
505.287, 5272.545
505.769, 5279.604
506.251, 5227.198
506.733, 5251.577
507.215, 5245.185
507.698, 5237.530
508.180, 5272.717
508.662, 5228.960
509.144, 5259.265
509.626, 5287.199
510.108, 5329.919
510.590, 5338.863
511.072, 5317.178
511.554, 5288.723
512.036, 5261.776
512.519, 5238.578
513.001, 5226.169
513.483, 5225.532
513.965, 5219.929
514.447, 5187.270
514.929, 5146.721
515.411, 5121.055
515.893, 5139.066
516.375, 5145.621
516.858, 5110.516
517.340, 5046.616
517.822, 4989.982
518.304, 4946.864
518.786, 4913.480
519.268, 4892.218
519.750, 4886.282
520.232, 4872.091
520.715, 4844.877
521.197, 4814.083
521.679, 4788.507
522.161, 4770.875
522.643, 4748.873
523.125, 4719.759
523.607, 4686.842
524.089, 4660.353
524.571, 4641.216
525.054, 4616.231
525.536, 4569.318
526.018, 4510.958
526.500, 4483.576
526.982, 4487.934
527.464, 4495.184
527.946, 4473.105
528.429, 4438.337
528.911, 4419.866
529.393, 4430.429
529.875, 4447.388
530.357, 4464.398
530.839, 4475.139
531.321, 4466.533
531.803, 4418.740
532.286, 4363.847
532.768, 4312.126
533.250, 4263.519
533.732, 4228.149
534.214, 4214.587
534.696, 4209.465
535.178, 4204.948
535.660, 4201.938
536.142, 4197.904
536.625, 4192.029
537.107, 4185.798
537.589, 4182.471
538.071, 4183.318
538.553, 4181.428
539.035, 4173.241
539.517, 4160.844
539.999, 4146.398
540.481, 4128.952
540.964, 4089.362
541.446, 4153.160
541.928, 4191.861
542.410, 4206.814
542.892, 4126.889
543.374, 4169.479
543.856, 4162.972
544.338, 4154.450
544.820, 4214.284
545.303, 4148.158
545.785, 4206.908
546.267, 4206.680
546.749, 4226.548
547.231, 4239.541
547.713, 4221.896
548.195, 4208.449
548.677, 4220.219
549.159, 4273.696
549.642, 4301.623
550.124, 4289.596
550.606, 4264.746
551.088, 4254.653
551.570, 4265.598
552.052, 4269.948
552.534, 4259.859
553.016, 4243.683
553.499, 4244.123
553.981, 4212.043
554.463, 4287.995
554.945, 4337.722
555.427, 4362.639
555.909, 4288.413
556.391, 4342.205
556.873, 4344.693
557.356, 4345.078
557.838, 4416.885
558.320, 4357.084
558.802, 4427.759
559.284, 4446.350
559.766, 4488.779
560.248, 4479.588
560.730, 4486.339
561.213, 4544.733
561.695, 4574.529
562.177, 4559.396
562.659, 4603.340
563.141, 4541.732
563.623, 4572.746
564.105, 4643.729
564.587, 4631.189
565.069, 4676.078
565.552, 4699.095
566.034, 4622.719
566.516, 4677.668
566.998, 4696.288
567.480, 4699.049
567.962, 4711.299
568.444, 4743.493
568.926, 4783.516
569.408, 4807.758
569.891, 4818.743
570.373, 4829.020
570.855, 4846.182
571.337, 4866.182
571.819, 4882.794
572.301, 4895.418
572.783, 4915.876
573.265, 4944.660
573.747, 4935.160
574.230, 5011.829
574.712, 5067.577
575.194, 5103.537
575.676, 5060.430
576.158, 5119.419
576.640, 5137.492
577.122, 5153.887
577.604, 5227.248
578.086, 5195.634
578.569, 5262.515
579.051, 5291.896
579.533, 5340.148
580.015, 5387.850
580.497, 5420.252
580.979, 5440.473
581.461, 5456.051
581.943, 5462.563
582.426, 5498.497
582.908, 5416.677
583.390, 5630.510
583.872, 5772.581
584.354, 5846.752
584.836, 5649.591
585.318, 5802.782
585.800, 5815.570
586.282, 5822.595
586.765, 6025.095
587.247, 5997.723
587.729, 6028.964
588.211, 6101.157
588.693, 6168.683
589.175, 6223.643
589.657, 6279.251
590.140, 6341.082
590.622, 6407.191
591.104, 6491.842
591.586, 6607.637
592.068, 6721.281
592.550, 6773.485
593.032, 6765.773
593.514, 6782.779
593.996, 6853.464
594.479, 6951.912
594.961, 7040.512
595.443, 7118.833
595.925, 7184.786
596.407, 7217.687
596.889, 7250.213
597.371, 7307.380
597.853, 7390.920
598.335, 7509.354
598.818, 7728.043
599.300, 7944.552
599.782, 8082.471
600.264, 8087.739
600.746, 8086.567
601.228, 8072.300
601.710, 8064.525
602.192, 8085.623
602.674, 8127.588
603.157, 8225.909
603.639, 8415.140
604.121, 8652.302
604.603, 8780.052
605.085, 8791.904
605.567, 8784.395
606.049, 8801.329
606.531, 8839.831
607.013, 8895.908
607.496, 8969.519
607.978, 9048.343
608.460, 9124.287
608.942, 9198.319
609.424, 9272.176
609.906, 9347.535
610.388, 9418.630
610.870, 9480.037
611.353, 9535.985
611.835, 9591.066
612.317, 9639.427
612.799, 9696.174
613.281, 9765.579
613.763, 9845.303
614.245, 9925.485
614.727, 10014.060
615.209, 10083.580
615.692, 10115.760
616.174, 10114.120
616.656, 10120.690
617.138, 10135.440
617.620, 10160.540
618.102, 10207.360
618.584, 10265.620
619.067, 10307.200
619.549, 10325.130
620.031, 10338.150
620.513, 10366.470
620.995, 10399.190
621.477, 10420.300
621.959, 10412.590
622.441, 10404.270
622.923, 10404.420
623.406, 10411.220
623.888, 10418.950
624.370, 10430.210
624.852, 10438.220
625.334, 10438.940
625.816, 10432.580
626.298, 10438.030
626.780, 10463.730
627.263, 10477.210
627.745, 10448.260
628.227, 10381.580
628.709, 10320.480
629.191, 10267.410
629.673, 10225.780
630.155, 10207.190
630.637, 10202.190
631.119, 10192.230
631.602, 10174.420
632.084, 10146.200
632.566, 10096.700
633.048, 10036.650
633.530, 9987.068
634.012, 9964.732
634.494, 9943.703
634.976, 9911.983
635.458, 9871.385
635.941, 9844.593
636.423, 9839.393
636.905, 9836.184
637.387, 9826.604
637.869, 9810.471
638.351, 9786.230
638.833, 9751.309
639.315, 9719.532
639.797, 9711.247
640.280, 9718.560
640.762, 9710.482
641.244, 9678.063
641.726, 9642.071
642.208, 9624.524
642.690, 9617.522
643.172, 9607.157
643.654, 9598.087
644.137, 9574.809
644.619, 9521.302
645.101, 9447.118
645.583, 9383.703
646.065, 9364.491
646.547, 9325.865
647.029, 9246.195
647.511, 9124.729
647.994, 9005.752
648.476, 8887.631
648.958, 8779.786
649.440, 8701.224
649.922, 8645.523
650.404, 8557.571
650.886, 8432.526
651.368, 8291.734
651.851, 8155.276
652.333, 8021.726
652.815, 7881.633
653.297, 7725.402
653.779, 7580.473
654.261, 7473.320
654.743, 7387.029
655.225, 7295.112
655.707, 7168.373
656.190, 7060.598
656.672, 6995.815
657.154, 6961.413
657.636, 6902.733
658.118, 6809.309
658.600, 6713.913
659.082, 6629.418
659.564, 6553.994
660.046, 6479.109
660.529, 6404.099
661.011, 6332.614
661.493, 6270.038
661.975, 6212.643
662.457, 6153.124
662.939, 6090.854
663.421, 6025.544
663.903, 5946.966
664.385, 5870.462
664.868, 5814.479
665.350, 5800.857
665.832, 5782.968
666.314, 5742.665
666.796, 5693.295
667.278, 5659.073
667.760, 5655.296
668.242, 5637.568
668.724, 5593.546
669.207, 5531.132
669.689, 5474.999
670.171, 5424.648
670.653, 5384.355
671.135, 5364.290
671.617, 5353.500
672.099, 5321.402
672.581, 5270.078
673.064, 5222.957
673.546, 5201.667
674.028, 5189.467
674.510, 5171.309
674.992, 5144.169
675.474, 5118.646
675.956, 5105.596
676.438, 5090.807
676.920, 5062.420
677.403, 5011.661
677.885, 4963.896
678.367, 4920.609
678.849, 4879.717
679.331, 4835.217
679.813, 4786.047
680.295, 4754.892
680.778, 4751.506
681.260, 4760.103
681.742, 4751.016
682.224, 4729.300
682.706, 4714.148
683.188, 4729.277
683.670, 4742.995
684.152, 4727.058
684.634, 4686.038
685.117, 4645.798
685.599, 4606.033
686.081, 4576.614
686.563, 4567.944
687.045, 4582.823
687.527, 4580.798
688.009, 4557.417
688.491, 4525.036
688.973, 4487.546
689.456, 4444.444
689.938, 4417.883
690.420, 4410.276
690.902, 4410.819
691.384, 4414.358
691.866, 4416.488
692.348, 4406.060
692.830, 4376.408
693.312, 4344.878
693.795, 4325.431
694.277, 4311.570
694.759, 4293.941
695.241, 4264.469
695.723, 4237.259
696.205, 4211.480
696.687, 4190.004
697.169, 4181.579
697.652, 4192.446
698.134, 4201.352
698.616, 4206.348
699.098, 4203.199
699.580, 4165.958
700.062, 4096.099
700.544, 4036.388
701.026, 4016.418
701.508, 4021.031
701.991, 4037.348
702.473, 4062.948
702.955, 4073.039
703.437, 4036.957
703.919, 3992.097
704.401, 3964.026
704.883, 3958.674
705.365, 3960.898
705.847, 3979.762
706.330, 3995.613
706.812, 3991.868
707.294, 3964.168
707.776, 3936.337
708.258, 3909.636
708.740, 3883.964
709.222, 3855.724
709.705, 3827.447
710.187, 3813.378
710.669, 3822.961
711.151, 3834.236
711.633, 3826.641
712.115, 3805.084
712.597, 3778.632
713.079, 3737.262
713.561, 3705.661
714.044, 3698.838
714.526, 3709.849
715.008, 3710.678
715.490, 3696.010
715.972, 3680.150
716.454, 3666.960
716.936, 3655.965
717.418, 3645.956
717.901, 3637.012
718.383, 3624.849
718.865, 3597.687
719.347, 3568.399
719.829, 3568.724
720.311, 3597.242
720.793, 3616.261
721.275, 3588.692
721.757, 3550.566
722.240, 3530.479
722.722, 3537.770
723.204, 3539.831
723.686, 3532.928
724.168, 3518.496
724.650, 3493.760
725.132, 3451.021
725.614, 3430.656
726.096, 3440.511
726.579, 3456.545
727.061, 3446.457
727.543, 3415.960
728.025, 3388.021
728.507, 3366.738
728.989, 3352.459
729.471, 3352.586
729.953, 3358.502
730.435, 3356.483
730.918, 3331.442
731.400, 3309.564
731.882, 3300.404
732.364, 3299.808
732.846, 3297.464
733.328, 3294.136
733.810, 3287.638
734.292, 3277.869
734.775, 3264.296
735.257, 3240.220
735.739, 3205.940
736.221, 3182.499
736.703, 3189.198
737.185, 3208.905
737.667, 3220.280
738.149, 3222.563
738.631, 3211.619
739.114, 3163.272
739.596, 3119.387
740.078, 3111.650
