##NAMES=Bournonite
##RRUFFID=R050111
##IDEAL CHEMISTRY=Cu^1+^Pb^2+^Sb^3+^S^2-^_3_
##LOCALITY=Yao Gang Xian mine, Chenzhou, Hunan Province, China
##OWNER=RRUFF
##SOURCE=He Xin Jian
##DESCRIPTION=Steel-gray short prismatic crystal
##STATUS=The identification of this mineral has been confirmed by X-ray diffraction and chemical analysis
##URL=rruff.info/R050111
##MEASURED CHEMISTRY=PbCuSbS_3_
108.024, 132.724
108.506, 145.392
108.988, 156.281
109.470, 169.109
109.952, 186.029
110.434, 206.908
110.916, 223.095
111.399, 231.938
111.881, 237.218
112.363, 241.694
112.845, 244.090
113.327, 247.256
113.809, 253.049
114.291, 262.442
114.773, 268.758
115.256, 267.346
115.738, 262.464
116.220, 259.777
116.702, 261.827
117.184, 266.021
117.666, 270.992
118.148, 276.233
118.630, 282.953
119.112, 292.561
119.595, 304.208
120.077, 315.624
120.559, 327.625
121.041, 337.963
121.523, 344.280
122.005, 343.312
122.487, 341.167
122.969, 343.299
123.451, 349.193
123.934, 355.144
124.416, 361.006
124.898, 364.914
125.380, 363.534
125.862, 350.501
126.344, 333.685
126.826, 325.057
127.308, 325.104
127.790, 327.553
128.273, 325.193
128.755, 319.536
129.237, 316.298
129.719, 319.542
130.201, 327.361
130.683, 334.227
131.165, 339.890
131.648, 344.645
132.130, 348.444
132.612, 351.333
133.094, 354.825
133.576, 360.770
134.058, 368.890
134.540, 374.327
135.022, 375.681
135.504, 374.867
135.986, 377.772
136.469, 385.179
136.951, 392.591
137.433, 396.075
137.915, 394.977
138.397, 394.583
138.879, 396.235
139.361, 399.577
139.843, 401.499
140.326, 402.226
140.808, 401.224
141.290, 396.912
141.772, 386.801
142.254, 380.076
142.736, 380.025
143.218, 387.871
143.700, 393.327
144.182, 396.780
144.665, 397.579
145.147, 393.904
145.629, 379.846
146.111, 369.479
146.593, 367.949
147.075, 380.538
147.557, 390.008
148.039, 396.714
148.521, 400.260
149.004, 399.518
149.486, 387.468
149.968, 377.124
150.450, 373.583
150.932, 386.389
151.414, 394.492
151.896, 395.145
152.378, 390.062
152.861, 387.158
153.343, 386.582
153.825, 388.481
154.307, 392.909
154.789, 405.922
155.271, 415.242
155.753, 415.781
156.235, 408.170
156.717, 405.583
157.200, 416.726
157.682, 431.129
158.164, 439.980
158.646, 431.872
159.128, 426.254
159.610, 432.224
160.092, 451.540
160.574, 466.891
161.057, 469.093
161.539, 464.797
162.021, 462.304
162.503, 464.209
162.985, 468.831
163.467, 476.404
163.949, 487.925
164.431, 497.670
164.913, 500.700
165.396, 500.123
165.878, 501.635
166.360, 511.259
166.842, 521.989
167.324, 527.952
167.806, 526.489
168.288, 524.534
168.770, 526.241
169.253, 531.036
169.735, 537.318
170.217, 546.146
170.699, 555.195
171.181, 561.801
171.663, 564.518
172.145, 565.930
172.627, 568.405
173.109, 571.664
173.592, 574.403
174.074, 573.521
174.556, 571.937
175.038, 574.693
175.520, 587.689
176.002, 601.792
176.484, 603.847
176.966, 594.622
177.449, 584.960
177.931, 584.994
178.413, 591.295
178.895, 596.118
179.377, 596.696
179.859, 594.145
180.341, 589.358
180.823, 582.161
181.305, 575.432
181.788, 572.735
182.270, 573.085
182.752, 572.829
183.234, 568.699
183.716, 562.919
184.198, 561.614
184.680, 565.269
185.162, 570.892
185.645, 576.539
186.127, 581.773
186.609, 583.957
187.091, 579.782
187.573, 570.992
188.055, 564.516
188.537, 560.515
189.019, 559.037
189.501, 561.100
189.984, 566.607
190.466, 571.898
190.948, 575.245
191.430, 576.745
191.912, 576.578
192.394, 574.342
192.876, 571.187
193.358, 570.474
193.840, 572.532
194.323, 571.920
194.805, 562.417
195.287, 544.487
195.769, 533.248
196.251, 531.773
196.733, 536.466
197.215, 538.213
197.697, 536.872
198.180, 533.670
198.662, 529.167
199.144, 523.274
199.626, 517.052
200.108, 510.740
200.590, 504.145
201.072, 496.524
201.554, 487.611
202.036, 478.457
202.519, 469.424
203.001, 460.249
203.483, 453.256
203.965, 449.639
204.447, 448.625
204.929, 445.647
205.411, 440.573
205.893, 433.799
206.376, 424.358
206.858, 410.744
207.340, 401.780
207.822, 401.113
208.304, 407.869
208.786, 408.989
209.268, 402.389
209.750, 393.907
210.232, 389.978
210.714, 392.048
211.197, 393.865
211.679, 393.867
212.161, 392.031
212.643, 390.807
213.125, 390.897
213.607, 390.686
214.089, 387.871
214.572, 381.230
215.054, 375.139
215.536, 370.254
216.018, 366.300
216.500, 366.792
216.982, 374.429
217.464, 383.664
217.946, 386.279
218.428, 378.752
218.911, 372.578
219.393, 371.795
219.875, 377.613
220.357, 381.366
220.839, 382.475
221.321, 381.973
221.803, 381.289
222.285, 380.105
222.767, 379.417
223.250, 379.695
223.732, 381.261
224.214, 382.471
224.696, 383.230
225.178, 383.721
225.660, 384.266
226.142, 384.851
226.624, 385.545
227.107, 386.957
227.589, 390.642
228.071, 389.694
228.553, 381.908
229.035, 370.443
229.517, 361.652
229.999, 355.653
230.481, 351.862
230.963, 350.263
231.445, 351.522
231.928, 353.237
232.410, 356.040
232.892, 359.080
233.374, 360.254
233.856, 358.801
234.338, 356.704
234.820, 354.739
235.303, 353.164
235.785, 351.036
236.267, 347.709
236.749, 344.002
237.231, 342.472
237.713, 345.765
238.195, 347.377
238.677, 343.772
239.159, 330.332
239.641, 322.213
240.124, 321.346
240.606, 325.359
241.088, 327.880
241.570, 328.226
242.052, 328.034
242.534, 328.247
243.016, 330.187
243.498, 329.415
243.981, 324.279
244.463, 316.659
244.945, 312.415
245.427, 314.165
245.909, 315.549
246.391, 313.651
246.873, 313.650
247.355, 313.188
247.837, 312.290
248.320, 309.653
248.802, 309.232
249.284, 309.013
249.766, 308.039
250.248, 307.961
250.730, 309.777
251.212, 310.207
251.694, 309.174
252.176, 308.793
252.659, 310.541
253.141, 311.772
253.623, 312.514
254.105, 311.301
254.587, 312.613
255.069, 313.146
255.551, 313.297
256.033, 307.179
256.516, 304.564
256.998, 307.335
257.480, 310.453
257.962, 311.112
258.444, 307.689
258.926, 306.231
259.408, 306.768
259.890, 309.416
260.372, 315.140
260.855, 326.313
261.337, 336.229
261.819, 341.391
262.301, 340.750
262.783, 338.320
263.265, 332.601
263.747, 325.897
264.229, 324.973
264.711, 332.424
265.194, 340.064
265.676, 343.302
266.158, 340.641
266.640, 339.435
267.122, 340.051
267.604, 342.166
268.086, 345.383
268.569, 350.532
269.051, 354.740
269.533, 355.453
270.015, 351.025
270.497, 352.087
270.979, 360.899
271.461, 373.640
271.943, 381.800
272.425, 384.836
272.908, 385.171
273.390, 382.155
273.872, 374.581
274.354, 373.798
274.836, 381.779
275.318, 394.710
275.800, 405.616
276.282, 414.490
276.764, 421.322
277.247, 424.402
277.729, 423.025
278.211, 428.205
278.693, 441.914
279.175, 459.431
279.657, 471.321
280.139, 476.531
280.621, 484.171
281.103, 500.140
281.586, 524.297
282.068, 544.619
282.550, 560.363
283.032, 573.557
283.514, 586.578
283.996, 599.342
284.478, 613.580
284.960, 631.605
285.443, 652.872
285.925, 670.611
286.407, 685.020
286.889, 695.162
287.371, 696.729
287.853, 690.180
288.335, 686.859
288.817, 695.439
289.299, 712.371
289.782, 719.155
290.264, 714.600
290.746, 705.145
291.228, 699.186
291.710, 695.825
292.192, 688.407
292.674, 672.552
293.156, 650.866
293.638, 630.673
294.121, 612.168
294.603, 594.457
295.085, 575.864
295.567, 556.943
296.049, 539.771
296.531, 524.708
297.013, 512.185
297.496, 505.088
297.978, 503.685
298.460, 501.069
298.942, 488.954
299.424, 470.599
299.906, 454.272
300.388, 443.331
300.870, 435.651
301.352, 427.664
301.835, 419.548
302.317, 414.640
302.799, 418.380
303.281, 426.759
303.763, 432.324
304.245, 429.668
304.727, 426.389
305.209, 432.877
305.691, 447.775
306.174, 460.613
306.656, 458.439
307.138, 451.976
307.620, 456.232
308.102, 481.107
308.584, 509.388
309.066, 526.271
309.548, 534.318
310.030, 542.773
310.513, 558.870
310.995, 577.163
311.477, 591.276
311.959, 595.703
312.441, 603.695
312.923, 626.477
313.405, 659.714
313.887, 690.968
314.370, 710.673
314.852, 729.401
315.334, 755.654
315.816, 794.156
316.298, 831.596
316.780, 861.454
317.262, 886.491
317.744, 912.537
318.226, 942.451
318.709, 973.045
319.191, 1003.582
319.673, 1035.300
320.155, 1062.366
320.637, 1082.419
321.119, 1097.000
321.601, 1108.339
322.083, 1120.156
322.565, 1125.760
323.048, 1122.732
323.530, 1110.469
324.012, 1091.696
324.494, 1064.340
324.976, 1031.568
325.458, 996.759
325.940, 958.974
326.422, 920.467
326.905, 880.583
327.387, 838.885
327.869, 800.039
328.351, 765.075
328.833, 732.512
329.315, 700.809
329.797, 669.299
330.279, 639.481
330.762, 611.044
331.244, 583.968
331.726, 560.067
332.208, 541.289
332.690, 523.513
333.172, 503.263
333.654, 476.062
334.136, 456.115
334.618, 447.405
335.100, 446.879
335.583, 441.013
336.065, 427.834
336.547, 412.773
337.029, 398.204
337.511, 383.583
337.993, 371.635
338.475, 363.756
338.957, 357.667
339.440, 347.293
339.922, 331.253
340.404, 315.843
340.886, 304.023
341.368, 296.057
341.850, 289.298
342.332, 284.524
342.814, 279.582
343.297, 270.166
343.779, 255.952
344.261, 243.434
344.743, 235.998
345.225, 232.784
345.707, 227.994
346.189, 221.218
346.671, 214.678
347.153, 210.723
347.635, 209.142
348.118, 208.590
348.600, 209.349
349.082, 210.493
349.564, 209.965
350.046, 207.742
350.528, 204.658
351.010, 200.661
351.492, 196.346
351.975, 193.013
352.457, 191.140
352.939, 190.304
353.421, 190.914
353.903, 192.545
354.385, 192.886
354.867, 189.363
355.349, 184.062
355.832, 179.496
356.314, 176.152
356.796, 173.694
357.278, 172.329
357.760, 171.734
358.242, 171.091
358.724, 169.441
359.206, 167.937
359.688, 167.611
360.171, 168.895
360.653, 170.081
361.135, 170.736
361.617, 170.710
362.099, 169.777
362.581, 166.745
363.063, 163.767
363.545, 161.998
364.027, 161.662
364.510, 160.739
364.992, 156.628
365.474, 152.658
365.956, 151.896
366.438, 160.639
366.920, 166.484
367.402, 166.468
367.884, 160.818
368.366, 154.556
368.849, 146.000
369.331, 138.215
369.813, 132.978
370.295, 131.575
370.777, 130.809
371.259, 130.661
371.741, 131.073
372.224, 131.956
372.706, 133.847
373.188, 135.426
373.670, 135.986
374.152, 135.100
374.634, 134.669
375.116, 134.885
375.598, 135.371
376.080, 135.550
376.562, 135.454
377.045, 134.886
377.527, 133.388
378.009, 131.024
378.491, 130.356
378.973, 131.694
379.455, 133.740
379.937, 135.610
380.419, 137.288
380.902, 136.700
381.384, 131.244
381.866, 124.274
382.348, 127.273
382.830, 140.298
383.312, 152.381
383.794, 153.046
384.276, 145.519
384.759, 138.809
385.241, 134.255
385.723, 131.854
386.205, 133.099
386.687, 137.050
387.169, 140.052
387.651, 139.387
388.133, 136.726
388.615, 133.903
389.098, 131.064
389.580, 128.440
390.062, 125.291
390.544, 122.602
391.026, 122.114
391.508, 127.631
391.990, 133.160
392.472, 134.507
392.954, 131.506
393.437, 128.753
393.919, 127.789
394.401, 128.232
394.883, 129.725
395.365, 135.165
395.847, 138.500
396.329, 136.619
396.811, 130.753
397.293, 126.784
397.776, 128.432
398.258, 130.147
398.740, 129.036
399.222, 121.095
399.704, 116.696
400.186, 117.348
400.668, 121.253
401.151, 125.222
401.633, 130.444
402.115, 134.039
402.597, 134.927
403.079, 132.776
403.561, 130.282
404.043, 126.609
404.525, 123.674
405.007, 124.280
405.490, 129.846
405.972, 133.159
406.454, 131.882
406.936, 127.367
407.418, 125.874
407.900, 127.837
408.382, 130.562
408.864, 132.703
409.346, 134.152
409.828, 133.422
410.311, 129.810
410.793, 125.084
411.275, 122.065
411.757, 120.539
412.239, 119.065
412.721, 116.179
413.203, 112.954
413.685, 111.665
414.168, 112.499
414.650, 114.147
415.132, 116.539
415.614, 118.791
416.096, 119.244
416.578, 115.432
417.060, 111.062
417.542, 109.569
418.025, 110.495
418.507, 110.829
418.989, 107.274
419.471, 103.446
419.953, 102.473
420.435, 107.028
420.917, 111.044
421.399, 112.316
421.881, 111.583
422.364, 110.413
422.846, 108.954
423.328, 107.308
423.810, 105.294
424.292, 102.505
424.774, 100.873
425.256, 101.102
425.738, 102.188
426.220, 103.165
426.703, 104.120
427.185, 104.838
427.667, 105.229
428.149, 105.328
428.631, 105.486
429.113, 105.977
429.595, 106.018
430.077, 104.625
430.560, 101.279
431.042, 100.134
431.524, 102.194
432.006, 105.575
432.488, 106.142
432.970, 103.722
433.452, 102.426
433.934, 105.225
434.417, 110.845
434.899, 114.003
435.381, 114.640
435.863, 113.442
436.345, 109.116
436.827, 103.347
437.309, 101.169
437.791, 106.661
438.273, 113.220
438.755, 111.258
439.238, 102.795
439.720, 96.806
440.202, 102.259
440.684, 110.923
441.166, 114.135
441.648, 108.693
442.130, 104.280
442.612, 108.073
443.095, 115.652
443.577, 120.246
444.059, 117.820
444.541, 113.892
445.023, 109.483
445.505, 104.600
445.987, 102.143
446.469, 104.700
446.952, 108.459
447.434, 110.901
447.916, 110.936
448.398, 111.165
448.880, 112.250
449.362, 113.528
449.844, 112.957
450.326, 109.564
450.808, 106.143
451.290, 103.437
451.773, 101.309
452.255, 101.981
452.737, 106.720
453.219, 111.668
453.701, 111.063
454.183, 104.651
454.665, 101.217
455.147, 104.016
455.630, 110.414
456.112, 114.254
456.594, 115.524
457.076, 114.771
457.558, 110.059
458.040, 103.887
458.522, 102.333
459.004, 107.035
459.487, 112.763
459.969, 115.153
460.451, 114.780
460.933, 112.879
461.415, 107.546
461.897, 102.803
462.379, 102.310
462.861, 105.888
463.343, 108.700
463.826, 106.987
464.308, 104.480
464.790, 104.197
465.272, 109.607
465.754, 113.297
466.236, 112.789
466.718, 109.580
467.200, 107.246
467.682, 105.161
468.165, 104.933
468.647, 108.138
469.129, 116.158
469.611, 118.968
470.093, 113.480
470.575, 106.477
471.057, 105.063
471.539, 111.398
472.022, 114.907
472.504, 112.898
472.986, 107.624
473.468, 106.400
473.950, 109.646
474.432, 112.372
474.914, 110.997
475.396, 106.504
475.878, 103.149
476.361, 101.165
476.843, 100.022
477.325, 98.873
477.807, 98.102
478.289, 98.810
478.771, 103.459
479.253, 107.880
479.735, 107.000
480.217, 101.765
480.700, 96.789
481.182, 94.436
481.664, 93.601
482.146, 93.855
482.628, 95.905
483.110, 96.659
483.592, 93.101
484.074, 88.143
484.556, 85.820
485.039, 90.311
485.521, 93.989
486.003, 94.270
486.485, 91.375
486.967, 90.713
487.449, 94.493
487.931, 98.025
488.414, 97.948
488.896, 91.732
489.378, 90.187
489.860, 95.860
490.342, 103.772
490.824, 104.305
491.306, 96.470
491.788, 89.820
492.270, 88.160
492.753, 90.276
493.235, 91.525
493.717, 91.861
494.199, 92.123
494.681, 93.030
495.163, 94.375
495.645, 96.119
496.127, 98.912
496.609, 100.234
497.092, 95.469
497.574, 87.338
498.056, 81.625
498.538, 83.529
499.020, 86.812
499.502, 87.810
499.984, 86.384
500.466, 83.912
500.948, 79.479
501.431, 75.077
501.913, 72.193
502.395, 72.208
502.877, 72.184
503.359, 71.829
503.841, 71.320
504.323, 70.945
504.805, 70.319
505.288, 70.466
505.770, 71.931
506.252, 74.751
506.734, 76.967
507.216, 78.697
507.698, 79.522
508.180, 78.100
508.662, 74.485
509.145, 74.233
509.627, 79.299
510.109, 85.542
510.591, 85.588
511.073, 80.305
511.555, 74.428
512.037, 68.673
512.519, 64.442
513.001, 65.153
513.484, 70.547
513.966, 75.000
514.448, 72.969
514.930, 68.839
515.412, 67.175
515.894, 69.925
516.376, 73.624
516.858, 78.112
517.341, 82.444
517.823, 84.823
518.305, 83.087
518.787, 81.099
519.269, 79.929
519.751, 79.616
520.233, 79.459
520.715, 79.264
521.197, 79.448
521.680, 80.233
522.162, 81.532
522.644, 84.012
523.126, 88.374
523.608, 75.670
524.090, 89.922
524.572, 97.630
525.054, 99.147
525.536, 75.928
526.019, 84.651
526.501, 80.572
526.983, 75.969
527.465, 89.187
527.947, 69.566
528.429, 82.501
528.911, 82.440
529.393, 88.328
529.875, 81.335
530.358, 78.321
530.840, 88.190
531.322, 76.596
531.804, 76.581
532.286, 76.776
532.768, 75.798
533.250, 73.786
533.732, 72.605
534.214, 72.942
534.697, 73.826
535.179, 74.645
535.661, 74.538
536.143, 76.966
536.625, 84.168
537.107, 91.633
537.589, 92.461
538.071, 85.161
538.554, 78.837
539.036, 75.439
539.518, 74.581
540.000, 76.095
540.482, 79.960
540.964, 82.787
541.446, 81.771
541.928, 78.273
542.411, 74.636
542.893, 70.863
543.375, 68.997
543.857, 73.490
544.339, 80.295
544.821, 83.497
545.303, 77.598
545.785, 72.400
546.268, 74.997
546.750, 82.254
547.232, 85.774
547.714, 79.270
548.196, 72.313
548.678, 68.636
549.160, 69.047
549.642, 68.529
550.124, 66.431
550.606, 64.066
551.089, 62.217
551.571, 60.576
552.053, 60.749
552.535, 63.487
553.017, 67.296
553.499, 69.905
553.981, 71.325
554.463, 70.120
554.945, 63.142
555.428, 54.134
555.910, 53.297
556.392, 60.097
556.874, 67.935
557.356, 73.492
557.838, 76.677
558.320, 76.818
558.802, 73.080
559.284, 69.253
559.767, 67.218
560.249, 66.457
560.731, 66.269
561.213, 66.823
561.695, 67.547
562.177, 68.380
562.659, 69.292
563.141, 70.142
563.624, 70.812
564.106, 71.564
564.588, 72.699
565.070, 74.389
565.552, 74.690
566.034, 72.988
566.516, 71.265
566.998, 71.979
567.481, 74.995
567.963, 76.886
568.445, 76.983
568.927, 75.924
569.409, 73.746
569.891, 71.024
570.373, 69.828
570.855, 72.987
571.338, 77.033
571.820, 78.019
572.302, 76.251
572.784, 74.798
573.266, 75.935
573.748, 77.463
574.230, 77.683
574.712, 75.490
575.194, 74.057
575.677, 75.078
576.159, 76.590
576.641, 76.113
577.123, 71.101
577.605, 68.937
578.087, 72.163
578.569, 78.643
579.051, 79.994
579.533, 75.205
580.016, 70.474
580.498, 69.073
580.980, 70.440
581.462, 71.964
581.944, 73.688
582.426, 74.672
582.908, 73.584
583.390, 71.246
583.872, 69.087
584.355, 67.468
584.837, 65.914
585.319, 63.721
585.801, 61.411
586.283, 59.860
586.765, 59.601
587.247, 59.916
587.729, 61.085
588.211, 62.914
588.694, 63.473
589.176, 60.570
589.658, 58.836
590.140, 61.027
590.622, 68.636
591.104, 71.342
591.586, 67.554
592.068, 62.239
592.551, 60.795
593.033, 63.048
593.515, 64.952
593.997, 65.983
594.479, 65.949
594.961, 63.373
595.443, 59.267
595.925, 56.934
596.407, 59.865
596.890, 63.901
597.372, 65.312
597.854, 64.348
598.336, 62.975
598.818, 61.706
599.300, 60.578
599.782, 59.545
600.265, 58.418
600.747, 57.947
601.229, 58.778
601.711, 59.864
602.193, 60.067
602.675, 58.560
603.157, 58.528
603.639, 60.978
604.121, 64.475
604.604, 65.664
605.086, 64.469
605.568, 63.274
606.050, 63.097
606.532, 63.598
607.014, 64.089
607.496, 64.561
607.978, 64.943
608.460, 65.513
608.943, 65.789
609.425, 64.741
609.907, 61.759
610.389, 60.255
610.871, 63.812
611.353, 68.646
611.835, 71.007
612.317, 67.679
612.799, 65.115
613.282, 63.661
613.764, 63.312
614.246, 64.366
614.728, 67.771
615.210, 70.090
615.692, 70.275
616.174, 68.526
616.656, 64.719
617.138, 58.605
617.621, 54.904
618.103, 59.399
618.585, 68.279
619.067, 72.874
619.549, 72.348
620.031, 69.995
620.513, 67.328
620.995, 64.739
621.477, 62.682
621.960, 61.337
622.442, 60.442
622.924, 60.231
623.406, 60.349
623.888, 60.136
624.370, 58.765
624.852, 58.032
625.334, 58.540
625.817, 60.039
626.299, 60.844
626.781, 60.774
627.263, 60.630
627.745, 61.356
628.227, 62.659
628.709, 61.153
629.191, 56.553
629.674, 52.573
630.156, 54.052
630.638, 58.246
631.120, 60.098
631.602, 57.810
632.084, 55.653
632.566, 58.144
633.048, 62.149
633.531, 63.192
634.013, 54.870
634.495, 49.023
634.977, 50.645
635.459, 57.385
635.941, 60.262
636.423, 57.158
636.905, 53.830
637.387, 52.214
637.870, 52.217
638.352, 52.124
638.834, 51.866
639.316, 51.919
639.798, 43.861
640.280, 54.651
640.762, 60.865
641.244, 62.750
641.726, 47.339
642.209, 54.262
642.691, 52.235
643.173, 49.841
643.655, 59.908
644.137, 47.012
644.619, 56.881
645.101, 57.663
645.583, 62.604
646.065, 58.539
646.548, 57.256
647.030, 57.359
647.512, 57.844
647.994, 56.324
648.476, 51.975
648.958, 48.180
649.440, 46.961
649.922, 47.959
650.404, 48.038
650.887, 47.111
651.369, 47.165
651.851, 50.962
652.333, 56.560
652.815, 60.734
653.297, 62.716
653.779, 64.084
654.261, 67.326
654.744, 69.880
655.226, 68.733
655.708, 56.463
656.190, 48.443
656.672, 49.776
657.154, 56.448
657.636, 60.460
658.118, 61.178
658.601, 57.809
659.083, 61.650
659.565, 63.742
660.047, 64.177
660.529, 57.995
661.011, 60.357
661.493, 59.295
661.975, 58.093
662.458, 61.658
662.940, 56.439
663.422, 59.928
663.904, 59.941
664.386, 61.546
664.868, 59.704
665.350, 58.927
665.832, 58.680
666.314, 58.097
666.797, 58.613
667.279, 57.904
667.761, 54.696
668.243, 52.920
668.725, 53.639
669.207, 55.411
669.689, 55.025
670.171, 52.410
670.653, 49.691
671.135, 46.891
671.618, 45.041
672.100, 48.000
672.582, 54.499
673.064, 58.401
673.546, 53.559
674.028, 46.472
674.510, 41.516
