##NAMES=Bournonite
##RRUFFID=R050111
##IDEAL CHEMISTRY=Cu^1+^Pb^2+^Sb^3+^S^2-^_3_
##LOCALITY=Yao Gang Xian mine, Chenzhou, Hunan Province, China
##OWNER=RRUFF
##SOURCE=He Xin Jian
##DESCRIPTION=Steel-gray short prismatic crystal
##STATUS=The identification of this mineral has been confirmed by X-ray diffraction and chemical analysis
##URL=rruff.info/R050111
##MEASURED CHEMISTRY=PbCuSbS_3_
212.166, 20138.789
212.648, 20139.641
213.130, 20123.070
213.612, 20118.730
214.094, 20138.869
214.577, 20172.840
215.059, 20210.020
215.541, 20246.660
216.023, 20277.199
216.505, 20277.850
216.987, 20213.789
217.469, 20170.160
217.951, 20170.750
218.434, 20196.029
218.916, 20225.189
219.398, 20249.230
219.880, 20268.350
220.362, 20283.500
220.844, 20300.160
221.326, 20302.570
221.808, 20275.471
222.290, 20241.020
222.773, 20222.430
223.255, 20228.850
223.737, 20249.109
224.219, 20259.641
224.701, 20254.100
225.183, 20251.699
225.665, 20266.301
226.147, 20278.400
226.629, 20264.730
227.112, 20218.670
227.594, 20167.211
228.076, 20157.080
228.558, 20207.189
229.040, 20245.199
229.522, 20251.480
230.004, 20249.779
230.486, 20255.600
230.969, 20272.109
231.451, 20291.391
231.933, 20304.840
232.415, 20312.619
232.897, 20313.391
233.379, 20289.750
233.861, 20271.859
234.343, 20284.359
234.825, 20325.910
235.307, 20365.400
235.790, 20365.840
236.272, 20321.961
236.754, 20293.020
237.236, 20293.881
237.718, 20301.539
238.200, 20306.500
238.682, 20308.289
239.165, 20309.500
239.647, 20315.051
240.129, 20324.449
240.611, 20322.779
241.093, 20303.150
241.575, 20279.359
242.057, 20253.881
242.539, 20229.551
243.021, 20213.471
243.503, 20213.260
243.986, 20225.830
244.468, 20236.250
244.950, 20243.020
245.432, 20250.779
245.914, 20264.230
246.396, 20280.250
246.878, 20293.090
247.361, 20300.359
247.843, 20302.711
248.325, 20298.279
248.807, 20280.689
249.289, 20273.631
249.771, 20305.150
250.253, 20349.580
250.735, 20373.449
251.217, 20363.211
251.699, 20329.971
252.182, 20282.939
252.664, 20218.881
253.146, 20160.680
253.628, 20114.230
254.110, 20081.680
254.592, 20072.051
255.074, 20099.850
255.556, 20121.480
256.039, 20081.561
256.521, 19982.439
257.003, 19905.449
257.485, 19883.779
257.967, 19896.211
258.449, 19911.949
258.931, 19931.260
259.413, 19950.801
259.896, 19976.240
260.378, 20002.510
260.860, 20003.670
261.342, 19959.150
261.824, 19908.330
262.306, 19909.520
262.788, 19966.301
263.270, 20009.609
263.752, 20003.949
264.235, 19968.580
264.717, 19937.520
265.199, 19915.770
265.681, 19903.801
266.163, 19909.080
266.645, 19930.779
267.127, 19939.910
267.609, 19913.770
268.091, 19881.490
268.574, 19884.740
269.056, 19927.449
269.538, 19961.080
270.020, 19939.539
270.502, 19860.920
270.984, 19801.660
271.466, 19728.260
271.948, 19701.660
272.431, 19701.936
272.913, 19761.928
273.395, 19807.424
273.877, 19839.199
274.359, 19816.178
274.841, 19863.918
275.323, 19883.301
275.805, 19901.523
276.288, 19943.609
276.770, 20023.381
277.252, 20093.369
277.734, 20113.180
278.216, 20100.939
278.698, 20112.619
279.180, 20171.869
279.662, 20224.670
280.144, 20265.760
280.626, 20298.230
281.109, 20323.400
281.591, 20342.039
282.073, 20359.080
282.555, 20383.320
283.037, 20423.760
283.519, 20453.939
284.001, 20466.350
284.483, 20474.801
284.966, 20484.410
285.448, 20498.369
285.930, 20525.131
286.412, 20581.660
286.894, 20686.529
287.376, 20726.350
287.858, 20651.881
288.340, 20564.320
288.823, 20501.480
289.305, 20460.631
289.787, 20420.320
290.269, 20360.650
290.751, 20286.359
291.233, 20248.939
291.715, 20277.779
292.197, 20311.160
292.679, 20353.189
293.162, 20385.250
293.644, 20376.449
294.126, 20305.080
294.608, 20202.920
295.090, 20148.760
295.572, 20159.449
296.054, 20178.600
296.536, 20196.189
297.018, 20213.039
297.501, 20227.580
297.983, 20238.961
298.465, 20254.480
298.947, 20282.199
299.429, 20322.250
299.911, 20371.250
300.393, 20433.270
300.875, 20499.760
301.358, 20560.461
301.840, 20615.740
302.322, 20681.289
302.804, 20784.020
303.286, 20908.311
303.768, 20991.400
304.250, 21013.449
304.732, 21021.400
305.215, 21044.100
305.697, 21081.740
306.179, 21140.039
306.661, 21230.150
307.143, 21337.881
307.625, 21450.891
308.107, 21569.141
308.589, 21676.881
309.071, 21756.619
309.553, 21818.539
310.036, 21896.900
310.518, 22012.061
311.000, 22123.891
311.482, 22208.000
311.964, 22269.680
312.446, 22320.471
312.928, 22359.510
313.410, 22400.131
313.893, 22480.660
314.375, 22630.811
314.857, 22754.760
315.339, 22807.350
315.821, 22833.689
316.303, 22895.930
316.785, 23008.570
317.267, 23131.461
317.750, 23215.160
318.232, 23253.250
318.714, 23262.670
319.196, 23239.061
319.678, 23193.340
320.160, 23121.689
320.642, 23031.260
321.124, 22944.199
321.606, 22884.180
322.089, 22849.131
322.571, 22756.680
323.053, 22519.529
323.535, 22316.551
324.017, 22208.910
324.499, 22155.160
324.981, 22090.760
325.463, 21983.650
325.945, 21854.061
326.428, 21758.590
326.910, 21719.500
327.392, 21668.891
327.874, 21586.859
328.356, 21497.029
328.838, 21423.410
329.320, 21369.080
329.802, 21309.631
330.284, 21207.510
330.767, 21059.080
331.249, 20943.250
331.731, 20883.900
332.213, 20842.840
332.695, 20805.250
333.177, 20767.580
333.659, 20718.359
334.142, 20644.711
334.624, 20556.211
335.106, 20470.850
335.588, 20383.311
336.070, 20320.670
336.552, 20330.920
337.034, 20372.420
337.516, 20367.461
337.998, 20275.211
338.480, 20168.730
338.963, 20101.779
339.445, 20070.859
339.927, 20058.920
340.409, 20066.070
340.891, 20080.240
341.373, 20077.141
341.855, 20054.100
342.337, 20027.029
342.819, 19984.279
343.302, 19946.100
343.784, 19946.779
344.266, 19992.240
344.748, 20045.381
345.230, 20064.221
345.712, 20039.051
346.194, 20032.930
346.677, 20057.400
347.159, 20088.070
347.641, 20116.080
348.123, 20139.600
348.605, 20156.461
349.087, 20164.150
349.569, 20165.859
350.051, 20179.150
350.533, 20223.029
351.016, 20254.910
351.498, 20264.340
351.980, 20262.721
352.462, 20261.381
352.944, 20264.020
353.426, 20267.090
353.908, 20267.420
354.390, 20267.900
354.872, 20254.539
355.355, 20198.740
355.837, 20151.480
356.319, 20146.840
356.801, 20176.461
357.283, 20201.801
357.765, 20194.330
358.247, 20160.770
358.729, 20127.920
359.211, 20099.490
359.694, 20063.180
360.176, 19987.760
360.658, 19906.119
361.140, 19872.551
361.622, 19926.971
362.104, 19990.721
362.586, 19982.990
363.069, 19913.689
363.551, 19851.990
364.033, 19821.131
364.515, 19809.920
364.997, 19802.869
365.479, 19801.000
365.961, 19796.961
366.443, 19787.080
366.925, 19774.689
367.408, 19765.119
367.890, 19758.730
368.372, 19747.801
368.854, 19719.920
369.336, 19672.689
369.818, 19668.359
370.300, 19738.301
370.782, 19811.520
371.264, 19866.859
371.747, 19904.211
372.229, 19925.510
372.711, 19931.180
373.193, 19926.240
373.675, 19923.471
374.157, 19921.939
374.639, 19924.529
375.121, 19937.580
375.603, 19949.881
376.086, 19956.230
376.568, 19954.400
377.050, 19941.000
377.532, 19908.730
378.014, 19857.391
378.496, 19811.100
378.978, 19765.770
379.460, 19732.070
379.943, 19719.650
380.425, 19720.109
380.907, 19718.949
381.389, 19712.961
381.871, 19699.260
382.353, 19662.410
382.835, 19600.789
383.317, 19572.461
383.799, 19621.391
384.282, 19695.990
384.764, 19713.529
385.246, 19661.350
385.728, 19615.980
386.210, 19612.320
386.692, 19634.051
387.174, 19663.260
387.656, 19697.250
388.138, 19717.760
388.621, 19700.971
389.103, 19643.680
389.585, 19621.590
390.067, 19651.230
390.549, 19696.131
391.031, 19752.760
391.513, 19811.170
391.996, 19853.359
392.478, 19869.811
392.960, 19868.971
393.442, 19871.160
393.924, 19874.420
394.406, 19884.449
394.888, 19910.160
395.370, 19935.230
395.852, 19942.930
396.335, 19935.359
396.817, 19933.000
397.299, 19963.699
397.781, 20023.141
398.263, 20040.881
398.745, 19992.961
399.227, 19941.289
399.709, 19902.859
400.191, 19880.020
400.674, 19879.570
401.156, 19910.270
401.638, 19949.289
402.120, 19979.670
402.602, 19999.980
403.084, 19990.590
403.566, 19932.010
404.048, 19860.939
404.530, 19828.670
405.013, 19835.490
405.495, 19844.949
405.977, 19852.270
406.459, 19855.350
406.941, 19852.039
407.423, 19842.461
407.905, 19825.711
408.387, 19797.500
408.870, 19762.109
409.352, 19755.320
409.834, 19818.850
410.316, 19857.840
410.798, 19827.971
411.280, 19775.631
411.762, 19755.381
412.244, 19782.750
412.727, 19833.760
413.209, 19876.369
413.691, 19907.939
414.173, 19941.170
414.655, 19983.420
415.137, 20019.449
415.619, 20044.160
416.101, 20057.820
416.583, 20061.881
417.065, 20054.160
417.548, 20040.410
418.030, 20028.490
418.512, 20016.420
418.994, 20020.289
419.476, 20060.410
419.958, 20108.811
420.440, 20128.461
420.922, 20114.330
421.405, 20100.680
421.887, 20100.510
422.369, 20112.160
422.851, 20138.840
423.333, 20180.770
423.815, 20217.449
424.297, 20230.760
424.779, 20221.480
425.262, 20214.801
425.744, 20220.680
426.226, 20217.779
426.708, 20187.359
427.190, 20147.221
427.672, 20124.160
428.154, 20127.840
428.636, 20146.680
429.118, 20159.680
429.601, 20154.650
430.083, 20179.301
430.565, 20282.160
431.047, 20368.881
431.529, 20388.369
432.011, 20356.631
432.493, 20320.260
432.975, 20302.221
433.457, 20301.311
433.940, 20321.471
434.422, 20369.141
434.904, 20403.279
435.386, 20400.150
435.868, 20382.650
436.350, 20378.061
436.832, 20389.189
437.314, 20400.920
437.797, 20401.100
438.279, 20399.240
438.761, 20416.670
439.243, 20455.770
439.725, 20485.590
440.207, 20479.359
440.689, 20440.000
441.171, 20412.141
441.654, 20382.500
442.136, 20377.461
442.618, 20427.750
443.100, 20497.699
443.582, 20539.881
444.064, 20540.270
444.546, 20520.340
445.028, 20507.910
445.510, 20502.830
445.992, 20505.199
446.475, 20541.189
446.957, 20557.600
447.439, 20521.980
447.921, 20453.730
448.403, 20391.680
448.885, 20353.131
449.367, 20329.939
449.849, 20311.760
450.332, 20298.930
450.814, 20284.850
451.296, 20261.330
451.778, 20228.746
452.260, 20246.893
452.742, 20252.723
453.224, 20246.902
453.706, 20194.527
454.189, 20202.268
454.671, 20185.916
455.153, 20168.576
455.635, 20184.775
456.117, 20139.172
456.599, 20154.842
457.081, 20141.570
457.563, 20124.680
458.045, 20154.268
458.528, 20172.572
459.010, 20180.203
459.492, 20160.670
459.974, 20156.410
460.456, 20141.270
460.938, 20139.711
461.420, 20150.119
461.902, 20153.641
462.384, 20139.381
462.867, 20138.270
463.349, 20179.930
463.831, 20233.279
464.313, 20259.820
464.795, 20247.760
465.277, 20225.340
465.759, 20209.070
466.241, 20199.910
466.724, 20206.199
467.206, 20233.471
467.688, 20252.369
468.170, 20228.131
468.652, 20161.619
469.134, 20131.480
469.616, 20180.721
470.098, 20219.369
470.581, 20199.080
471.063, 20146.359
471.545, 20104.180
472.027, 20088.270
472.509, 20087.930
472.991, 20087.930
473.473, 20088.080
473.955, 20088.510
474.437, 20092.650
474.919, 20093.260
475.402, 20092.250
475.884, 20085.029
476.366, 20059.881
476.848, 20003.641
477.330, 19943.721
477.812, 19925.801
478.294, 19948.670
478.776, 19956.830
479.259, 19936.285
479.741, 19963.619
480.223, 19979.330
480.705, 19984.045
481.187, 19944.820
481.669, 19962.334
482.151, 19957.107
482.633, 19963.141
483.116, 19973.029
483.598, 20000.080
484.080, 20018.939
484.562, 20034.561
485.044, 20059.881
485.526, 20112.461
486.008, 20141.381
486.490, 20139.279
486.972, 20122.439
487.455, 20090.539
487.937, 20051.170
488.419, 20020.789
488.901, 20008.330
489.383, 20013.350
489.865, 20041.680
490.347, 20098.400
490.829, 20143.320
491.311, 20165.189
491.794, 20166.350
492.276, 20143.449
492.758, 20092.980
493.240, 20063.240
493.722, 20093.881
494.204, 20137.270
494.686, 20140.641
495.168, 20106.350
495.651, 20066.990
496.133, 20041.381
496.615, 20025.119
497.097, 20004.240
497.579, 19968.250
498.061, 19943.770
498.543, 19938.180
499.025, 19938.430
499.508, 19934.641
499.990, 19927.539
500.472, 19925.420
500.954, 19937.529
501.436, 19956.760
501.918, 19957.080
502.400, 19931.061
502.882, 19921.289
503.364, 19960.510
503.846, 20009.980
504.329, 20021.779
504.811, 19991.900
505.293, 19954.939
505.775, 19912.221
506.257, 19876.150
506.739, 19859.240
507.221, 19862.381
507.703, 19887.400
508.186, 19940.160
508.668, 20006.461
509.150, 20036.850
509.632, 20003.730
510.114, 19974.230
510.596, 19945.100
511.078, 19924.119
511.560, 19921.631
512.042, 19933.650
512.525, 19942.711
513.007, 19931.070
513.489, 19911.740
513.971, 19924.500
514.453, 19975.381
514.935, 20021.490
515.417, 20055.779
515.899, 20070.260
516.382, 20047.131
516.864, 19981.311
517.346, 19936.840
517.828, 19952.721
518.310, 19985.131
518.792, 19986.520
519.274, 19963.449
519.756, 19960.109
520.239, 20004.670
520.721, 20069.801
521.203, 20077.039
521.685, 19969.730
522.167, 19910.570
522.649, 19940.439
523.131, 19980.680
523.613, 19981.760
524.096, 19952.580
524.578, 19931.680
525.060, 19942.939
525.542, 19972.471
526.024, 20001.900
526.506, 20031.369
526.988, 20043.410
527.470, 20033.109
527.952, 20003.221
528.435, 19943.740
528.917, 19853.340
529.399, 19796.100
529.881, 19813.600
530.363, 19837.170
530.845, 19810.480
531.327, 19755.949
531.809, 19733.900
532.291, 19770.619
532.774, 19828.180
533.256, 19835.189
533.738, 19771.109
534.220, 19728.391
534.702, 19713.670
535.184, 19715.510
535.666, 19732.391
536.148, 19761.490
536.630, 19800.539
537.113, 19854.650
537.595, 19903.750
538.077, 19927.990
538.559, 19930.211
539.041, 19918.520
539.523, 19892.660
540.005, 19862.369
540.487, 19829.199
540.969, 19793.381
541.452, 19805.270
541.934, 19932.721
542.416, 20022.090
542.898, 19996.330
543.380, 19924.311
543.862, 19894.660
544.344, 19926.311
544.826, 19969.119
545.309, 19972.359
545.791, 19938.020
546.273, 19883.910
546.755, 19789.891
547.237, 19724.510
547.719, 19739.789
548.201, 19793.029
548.683, 19832.930
549.166, 19855.461
549.648, 19862.359
550.130, 19843.150
550.612, 19814.740
551.094, 19798.250
551.576, 19794.529
552.058, 19792.891
552.540, 19786.141
553.023, 19776.730
553.505, 19772.820
553.987, 19767.420
554.469, 19780.711
554.951, 19834.850
555.433, 19887.580
555.915, 19914.551
556.397, 19916.240
556.879, 19902.289
557.362, 19866.830
557.844, 19831.949
558.326, 19838.260
558.808, 19882.529
559.290, 19922.529
559.772, 19948.260
560.254, 19959.801
560.736, 19951.141
561.218, 19916.971
561.701, 19906.930
562.183, 19947.131
562.665, 19984.230
563.147, 20000.301
563.629, 19995.580
564.111, 19963.711
564.593, 19904.910
565.075, 19847.340
565.557, 19822.480
566.040, 19786.322
566.522, 19816.516
567.004, 19830.604
567.486, 19829.449
567.968, 19767.406
568.450, 19783.990
568.932, 19769.064
569.414, 19752.846
569.896, 19780.496
570.379, 19756.551
570.861, 19724.010
571.343, 19736.699
571.825, 19781.250
572.307, 19819.109
572.789, 19823.070
573.271, 19805.000
573.753, 19807.539
574.236, 19848.109
574.718, 19874.939
575.200, 19883.721
575.682, 19878.619
576.164, 19841.900
576.646, 19790.801
577.128, 19779.990
577.610, 19862.439
578.093, 19961.711
578.575, 19968.730
579.057, 19907.420
579.539, 19894.590
580.021, 19865.822
580.503, 19908.732
580.985, 19934.244
581.467, 19943.291
581.950, 19886.561
582.432, 19914.768
582.914, 19908.938
583.396, 19901.709
583.878, 19941.871
584.360, 19894.707
584.842, 19934.117
585.324, 19932.641
585.806, 19947.061
586.289, 19945.170
586.771, 19947.320
587.253, 19952.760
587.735, 19969.920
588.217, 20017.590
588.699, 20066.109
589.181, 20053.660
589.663, 19963.939
590.145, 19898.770
590.628, 19878.811
591.110, 19884.260
591.592, 19923.230
592.074, 19974.580
592.556, 19990.039
593.038, 19946.920
593.520, 19885.160
594.002, 19875.529
594.484, 19925.020
594.967, 19946.609
595.449, 19924.020
595.931, 19892.510
596.413, 19859.119
596.895, 19833.840
597.377, 19839.539
597.859, 19893.811
598.341, 19945.840
598.823, 19975.250
599.306, 19988.279
599.788, 19988.789
600.270, 19979.529
600.752, 19966.641
601.234, 19953.160
601.716, 19942.561
602.198, 19946.080
602.680, 19964.939
603.162, 19995.891
603.645, 20071.920
604.127, 20129.359
604.609, 20115.119
605.091, 20050.051
605.573, 20003.039
606.055, 20006.561
606.537, 20024.760
607.019, 20027.570
607.502, 20023.250
607.984, 20033.740
608.466, 20063.350
608.948, 20093.039
609.430, 20105.510
609.912, 20101.199
610.394, 20089.510
610.876, 20064.869
611.359, 20040.580
611.841, 20008.270
612.323, 19984.230
612.805, 19989.051
613.287, 20018.561
613.769, 20040.520
614.251, 20026.230
614.733, 20002.590
615.216, 20008.279
615.698, 20037.100
616.180, 20064.660
616.662, 20084.920
617.144, 20087.949
617.626, 20055.211
618.108, 19979.820
618.590, 19941.910
619.072, 19975.000
619.555, 20005.490
620.037, 20020.801
620.519, 20024.230
621.001, 20014.949
621.483, 19995.029
621.965, 19980.369
622.447, 19983.930
622.929, 20000.250
623.411, 20024.949
623.894, 20056.250
624.376, 20072.500
624.858, 20062.580
625.340, 20040.250
625.822, 20023.990
626.304, 20010.340
626.786, 20018.779
627.268, 20083.590
627.750, 20129.320
628.233, 20119.311
628.715, 20079.689
629.197, 20038.439
629.679, 20004.391
630.161, 19988.939
630.643, 20016.900
631.125, 20068.561
631.607, 20086.119
632.089, 20067.529
632.572, 20067.961
633.054, 20120.980
633.536, 20191.730
634.018, 20213.900
634.500, 20160.740
634.982, 20137.580
635.464, 20171.080
635.946, 20204.570
636.429, 20210.631
636.911, 20201.590
637.393, 20197.109
637.875, 20203.350
638.357, 20214.881
638.839, 20222.570
639.321, 20231.471
639.803, 20264.311
640.286, 20323.480
640.768, 20366.830
641.250, 20369.061
641.732, 20348.740
642.214, 20342.410
642.696, 20352.830
643.178, 20371.850
643.660, 20427.740
644.143, 20462.551
644.625, 20434.711
645.107, 20372.609
645.589, 20318.211
646.071, 20285.330
646.553, 20275.641
647.035, 20309.961
647.517, 20367.051
647.999, 20379.150
648.482, 20341.109
648.964, 20300.689
649.446, 20281.980
649.928, 20275.859
650.410, 20261.811
650.892, 20226.381
651.374, 20217.369
651.856, 20271.189
652.338, 20311.311
652.821, 20289.740
653.303, 20235.789
653.785, 20198.561
654.267, 20193.770
654.749, 20194.961
655.231, 20171.000
655.713, 20136.311
656.195, 20130.760
656.677, 20155.449
657.160, 20177.051
657.642, 20178.539
658.124, 20168.170
658.606, 20161.359
659.088, 20155.010
659.570, 20161.211
660.052, 20201.900
660.534, 20230.039
661.016, 20223.119
661.499, 20194.420
661.981, 20167.539
662.463, 20149.109
662.945, 20112.420
663.427, 20006.100
663.909, 19880.949
664.391, 19833.131
664.873, 19859.779
665.356, 19903.150
665.838, 19938.500
666.320, 19969.369
666.802, 20003.260
667.284, 20045.381
667.766, 20068.551
668.248, 20068.359
668.730, 20053.119
669.213, 20008.051
669.695, 19958.100
670.177, 19933.010
670.659, 19938.471
671.141, 19954.820
671.623, 19970.330
672.105, 19990.820
672.587, 20039.779
673.070, 20102.410
673.552, 20119.100
674.034, 20066.131
674.516, 19985.779
674.998, 19932.570
675.480, 19906.461
675.962, 19908.520
676.444, 19962.760
676.926, 20004.340
677.409, 20001.051
677.891, 19982.461
678.373, 19974.119
678.855, 19978.000
679.337, 19988.561
679.819, 20013.830
680.301, 20035.900
680.783, 20041.980
681.265, 20034.109
681.748, 20013.740
682.230, 19982.660
682.712, 19949.449
683.194, 19918.369
683.676, 19893.289
684.158, 19906.930
684.640, 19973.070
685.122, 20026.080
685.604, 20050.689
686.087, 20051.850
686.569, 20026.471
687.051, 19977.590
687.533, 19938.051
688.015, 19904.721
688.497, 19889.820
688.979, 19921.529
689.461, 19961.350
689.943, 19946.850
690.426, 19884.189
690.908, 19853.039
691.390, 19925.061
691.872, 20047.910
692.354, 20103.619
692.836, 20094.141
693.318, 20086.990
693.800, 20097.150
694.283, 20109.359
694.765, 20109.910
695.247, 20100.320
695.729, 20094.391
696.211, 20095.980
696.693, 20095.141
697.175, 20080.631
697.657, 20071.789
698.140, 20091.471
698.622, 20128.641
699.104, 20151.930
699.586, 20147.221
700.068, 20124.500
700.550, 20085.939
701.032, 20038.721
701.514, 19995.680
701.997, 19959.711
702.479, 19950.631
702.961, 19985.820
703.443, 20044.180
703.925, 20072.090
704.407, 20065.061
704.889, 20039.039
705.371, 19967.590
705.853, 19907.760
706.336, 19885.820
706.818, 19889.061
707.300, 19900.949
707.782, 19921.020
708.264, 19936.301
708.746, 19939.100
709.228, 19935.430
