##NAMES=Bournonite
##RRUFFID=R050111
##IDEAL CHEMISTRY=Cu^1+^Pb^2+^Sb^3+^S^2-^_3_
##LOCALITY=Yao Gang Xian mine, Chenzhou, Hunan Province, China
##OWNER=RRUFF
##SOURCE=He Xin Jian
##DESCRIPTION=Steel-gray short prismatic crystal
##STATUS=The identification of this mineral has been confirmed by X-ray diffraction and chemical analysis
##URL=rruff.info/R050111
##MEASURED CHEMISTRY=PbCuSbS_3_
108.511, 76.228
108.993, 88.490
109.475, 94.963
109.957, 97.085
110.439, 100.920
110.921, 110.396
111.404, 125.462
111.886, 144.700
112.368, 167.770
112.850, 195.739
113.332, 231.866
113.814, 275.137
114.296, 318.561
114.778, 357.508
115.260, 394.962
115.743, 414.811
116.225, 407.153
116.707, 388.147
117.189, 365.378
117.671, 340.537
118.153, 311.430
118.635, 270.821
119.117, 201.846
119.600, 160.070
120.082, 162.218
120.564, 179.822
121.046, 189.921
121.528, 185.031
122.010, 175.777
122.492, 184.387
122.974, 212.770
123.456, 260.130
123.939, 337.694
124.421, 427.626
124.903, 509.957
125.385, 574.743
125.867, 632.342
126.349, 715.155
126.831, 876.384
127.313, 1004.175
127.796, 1068.322
128.278, 1096.720
128.760, 1129.827
129.242, 1189.681
129.724, 1269.649
130.206, 1331.157
130.688, 1386.874
131.170, 1414.107
131.652, 1402.280
132.135, 1357.547
132.617, 1290.458
133.099, 1205.202
133.581, 1103.224
134.063, 1003.694
134.545, 899.963
135.027, 804.096
135.509, 719.460
135.992, 646.755
136.474, 587.929
136.956, 545.868
137.438, 520.988
137.920, 501.444
138.402, 484.455
138.884, 474.409
139.366, 475.178
139.848, 486.297
140.331, 503.239
140.813, 523.576
141.295, 547.487
141.777, 572.270
142.259, 592.710
142.741, 617.262
143.223, 657.633
143.705, 714.621
144.188, 768.408
144.670, 797.159
145.152, 806.787
145.634, 831.351
146.116, 887.274
146.598, 954.632
147.080, 1014.946
147.562, 1068.445
148.044, 1107.614
148.527, 1121.993
149.009, 1116.172
149.491, 1099.008
149.973, 1067.706
150.455, 1027.779
150.937, 985.237
151.419, 937.154
151.901, 896.393
152.383, 878.751
152.866, 877.424
153.348, 874.710
153.830, 858.183
154.312, 836.116
154.794, 828.054
155.276, 839.674
155.758, 856.913
156.240, 869.894
156.723, 879.609
157.205, 889.025
157.687, 896.599
158.169, 904.523
158.651, 920.810
159.133, 948.705
159.615, 981.435
160.097, 1016.114
160.579, 1051.926
161.062, 1085.418
161.544, 1114.807
162.026, 1140.132
162.508, 1162.312
162.990, 1181.165
163.472, 1196.560
163.954, 1206.422
164.436, 1212.441
164.919, 1220.947
165.401, 1235.713
165.883, 1256.596
166.365, 1282.433
166.847, 1316.393
167.329, 1351.958
167.811, 1383.052
168.293, 1411.501
168.775, 1444.622
169.258, 1497.859
169.740, 1570.143
170.222, 1610.739
170.704, 1590.488
171.186, 1564.122
171.668, 1559.945
172.150, 1574.499
172.632, 1588.827
173.115, 1586.235
173.597, 1566.085
174.079, 1547.108
174.561, 1527.746
175.043, 1511.431
175.525, 1499.469
176.007, 1491.846
176.489, 1488.187
176.971, 1491.418
177.454, 1502.866
177.936, 1504.103
178.418, 1482.451
178.900, 1460.968
179.382, 1446.745
179.864, 1440.557
180.346, 1441.465
180.828, 1451.477
181.311, 1472.073
181.793, 1485.869
182.275, 1488.416
182.757, 1487.005
183.239, 1478.713
183.721, 1467.091
184.203, 1462.273
184.685, 1477.717
185.167, 1516.946
185.650, 1541.318
186.132, 1525.939
186.614, 1516.028
187.096, 1533.276
187.578, 1572.624
188.060, 1612.681
188.542, 1632.997
189.024, 1630.691
189.507, 1636.701
189.989, 1660.171
190.471, 1684.471
190.953, 1708.780
191.435, 1729.871
191.917, 1740.350
192.399, 1727.326
192.881, 1686.711
193.363, 1677.772
193.846, 1733.159
194.328, 1793.004
194.810, 1839.316
195.292, 1873.511
195.774, 1906.253
196.256, 1949.887
196.738, 2006.301
197.220, 2036.453
197.702, 2011.059
198.185, 1984.518
198.667, 1975.244
199.149, 1978.521
199.631, 1980.052
200.113, 1969.394
200.595, 1946.464
201.077, 1914.235
201.559, 1861.312
202.042, 1808.668
202.524, 1763.744
203.006, 1723.521
203.488, 1681.208
203.970, 1631.662
204.452, 1575.071
204.934, 1517.732
205.416, 1454.192
205.898, 1395.924
206.381, 1346.671
206.863, 1304.698
207.345, 1267.475
207.827, 1233.996
208.309, 1203.663
208.791, 1170.227
209.273, 1120.467
209.755, 1082.976
210.238, 1070.982
210.720, 1074.790
211.202, 1079.843
211.684, 1077.832
212.166, 1069.264
212.648, 1055.700
213.130, 1022.167
213.612, 1003.363
214.094, 1014.219
214.577, 1041.501
215.059, 1069.724
215.541, 1091.482
216.023, 1105.221
216.505, 1103.151
216.987, 1063.795
217.469, 1039.855
217.951, 1049.355
218.434, 1075.246
218.916, 1097.373
219.398, 1105.985
219.880, 1107.129
220.362, 1118.056
220.844, 1149.241
221.326, 1172.411
221.808, 1178.837
222.290, 1177.999
222.773, 1179.062
223.255, 1185.644
223.737, 1194.997
224.219, 1201.441
224.701, 1203.998
225.183, 1205.528
225.665, 1208.278
226.147, 1209.384
226.629, 1204.642
227.112, 1192.922
227.594, 1180.360
228.076, 1179.330
228.558, 1198.581
229.040, 1204.220
229.522, 1177.498
230.004, 1146.091
230.486, 1130.901
230.969, 1135.515
231.451, 1144.129
231.933, 1135.772
232.415, 1105.927
232.897, 1078.306
233.379, 1049.836
233.861, 1028.641
234.343, 1024.881
234.825, 1037.137
235.307, 1048.525
235.790, 1039.143
236.272, 1006.238
236.754, 980.642
237.236, 971.752
237.718, 964.165
238.200, 947.688
238.682, 924.340
239.165, 904.885
239.647, 902.051
240.129, 914.935
240.611, 918.501
241.093, 905.717
241.575, 890.710
242.057, 880.879
242.539, 874.794
243.021, 868.066
243.503, 856.956
243.986, 842.699
244.468, 831.385
244.950, 824.922
245.432, 818.310
245.914, 808.578
246.396, 797.036
246.878, 785.826
247.361, 774.774
247.843, 765.276
248.325, 762.800
248.807, 772.261
249.289, 775.549
249.771, 755.440
250.253, 726.091
250.735, 706.382
251.217, 706.796
251.699, 714.522
252.182, 709.300
252.664, 688.224
253.146, 672.902
253.628, 681.841
254.110, 698.198
254.592, 700.980
255.074, 682.400
255.556, 659.184
256.039, 646.060
256.521, 642.860
257.003, 644.800
257.485, 654.398
257.967, 665.099
258.449, 667.036
258.931, 657.189
259.413, 649.707
259.896, 657.673
260.378, 676.606
260.860, 686.978
261.342, 679.608
261.824, 668.135
262.306, 673.495
262.788, 697.247
263.270, 712.744
263.752, 701.654
264.235, 676.804
264.717, 663.161
265.199, 666.580
265.681, 676.649
266.163, 681.902
266.645, 682.611
267.127, 686.633
267.609, 701.341
268.091, 717.001
268.574, 720.359
269.056, 710.147
269.538, 700.394
270.020, 704.747
270.502, 723.335
270.984, 732.429
271.466, 723.696
271.948, 712.131
272.431, 706.099
272.913, 705.895
273.395, 710.137
273.877, 718.298
274.359, 730.200
274.841, 744.301
275.323, 760.756
275.805, 778.819
276.288, 797.919
276.770, 818.489
277.252, 841.868
277.734, 869.243
278.216, 898.594
278.698, 923.818
279.180, 933.635
279.662, 953.511
280.144, 992.372
280.626, 1039.841
281.109, 1082.008
281.591, 1114.733
282.073, 1148.035
282.555, 1199.071
283.037, 1280.952
283.519, 1357.266
284.001, 1417.450
284.483, 1479.895
284.966, 1558.071
285.448, 1652.950
285.930, 1759.133
286.412, 1871.798
286.894, 1995.751
287.376, 2103.569
287.858, 2183.147
288.340, 2259.431
288.823, 2345.406
289.305, 2436.538
289.787, 2519.511
290.269, 2584.605
290.751, 2632.414
291.233, 2670.383
291.715, 2702.211
292.197, 2717.457
292.679, 2722.675
293.162, 2708.626
293.644, 2659.772
294.126, 2565.608
294.608, 2440.544
295.090, 2318.670
295.572, 2200.107
296.054, 2083.723
296.536, 1960.873
297.018, 1843.910
297.501, 1745.831
297.983, 1670.021
298.465, 1606.275
298.947, 1540.921
299.429, 1472.418
299.911, 1419.433
300.393, 1387.393
300.875, 1372.189
301.358, 1297.540
301.840, 1314.698
302.322, 1331.854
302.804, 1349.008
303.286, 1366.164
303.768, 1383.319
304.250, 1400.475
304.732, 1417.633
305.215, 1434.788
305.697, 1451.943
306.179, 1469.099
306.661, 1487.022
307.143, 1558.002
307.625, 1625.830
308.107, 1688.363
308.589, 1750.246
309.071, 1808.626
309.553, 1869.990
310.036, 1950.333
310.518, 2054.999
311.000, 2174.021
311.482, 2300.649
311.964, 2436.743
312.446, 2586.124
312.928, 2747.835
313.410, 2927.181
313.893, 3139.955
314.375, 3390.073
314.857, 3658.795
315.339, 3944.669
315.821, 4245.627
316.303, 4558.587
316.785, 4881.624
317.267, 5219.516
317.750, 5581.398
318.232, 5975.104
318.714, 6368.581
319.196, 6756.151
319.678, 7145.476
320.160, 7544.975
320.642, 7951.244
321.124, 8365.246
321.606, 8792.676
322.089, 9233.181
322.571, 9587.316
323.053, 9866.853
323.535, 10043.660
324.017, 10106.260
324.499, 10060.020
324.981, 9910.778
325.463, 9661.636
325.945, 9316.409
326.428, 8882.479
326.910, 8322.557
327.392, 7746.309
327.874, 7136.789
328.356, 6538.228
328.838, 5988.816
329.320, 5495.068
329.802, 5045.389
330.284, 4625.938
330.767, 4236.057
331.249, 3892.240
331.731, 3609.825
332.213, 3363.667
332.695, 3137.642
333.177, 2932.383
333.659, 2745.853
334.142, 2582.645
334.624, 2438.029
335.106, 2302.237
335.588, 2174.593
336.070, 2058.903
336.552, 1961.370
337.034, 1877.268
337.516, 1799.657
337.998, 1732.114
338.480, 1664.950
338.963, 1588.411
339.445, 1504.394
339.927, 1421.799
340.409, 1342.871
340.891, 1268.785
341.373, 1202.640
341.855, 1145.704
342.337, 1090.362
342.819, 1031.572
343.302, 974.328
343.784, 926.301
344.266, 888.524
344.748, 855.930
345.230, 822.506
345.712, 787.527
346.194, 757.995
346.677, 737.050
347.159, 718.149
347.641, 698.795
348.123, 678.549
348.605, 656.405
349.087, 631.156
349.569, 604.399
350.051, 585.532
350.533, 585.360
351.016, 579.857
351.498, 563.917
351.980, 542.738
352.462, 520.069
352.944, 497.495
353.426, 477.771
353.908, 466.590
354.390, 467.050
354.872, 463.558
355.355, 453.172
355.837, 439.856
356.319, 421.675
356.801, 401.079
357.283, 386.203
357.765, 385.669
358.247, 395.683
358.729, 402.327
359.211, 406.832
359.694, 404.827
360.176, 385.442
360.658, 360.113
361.140, 346.152
361.622, 352.548
362.104, 363.833
362.586, 366.305
363.069, 360.865
363.551, 353.267
364.033, 344.315
364.515, 335.733
364.997, 330.869
365.479, 330.298
365.961, 329.197
366.443, 326.081
366.925, 321.791
367.408, 318.406
367.890, 315.962
368.372, 292.975
368.854, 318.493
369.336, 332.238
369.818, 334.841
370.300, 292.932
370.782, 308.501
371.264, 301.035
371.747, 292.625
372.229, 316.284
372.711, 280.849
373.193, 303.999
373.675, 303.763
374.157, 314.230
374.639, 301.520
375.121, 295.970
375.603, 313.603
376.086, 318.399
376.568, 303.022
377.050, 314.169
377.532, 277.924
378.014, 287.119
378.496, 280.447
378.978, 262.992
379.460, 253.264
379.943, 266.484
380.425, 291.481
380.907, 307.420
381.389, 304.879
381.871, 291.059
382.353, 272.393
382.835, 248.464
383.317, 231.660
383.799, 228.013
384.282, 233.012
384.764, 240.736
385.246, 252.972
385.728, 259.548
386.210, 250.821
386.692, 235.670
387.174, 229.463
387.656, 234.910
388.138, 240.676
388.621, 235.301
389.103, 217.858
389.585, 206.738
390.067, 202.326
390.549, 203.263
391.031, 212.380
391.513, 226.045
391.996, 238.675
392.478, 247.738
392.960, 251.640
393.442, 245.141
393.924, 215.878
394.406, 197.805
394.888, 199.256
395.370, 205.865
395.852, 207.409
396.335, 203.304
396.817, 199.759
397.299, 203.946
397.781, 215.033
398.263, 219.227
398.745, 212.148
399.227, 205.212
399.709, 203.087
400.191, 204.212
400.674, 206.632
401.156, 210.270
401.638, 213.792
402.120, 216.362
402.602, 217.842
403.084, 216.596
403.566, 211.682
404.048, 204.475
404.530, 195.603
405.013, 184.675
405.495, 177.220
405.977, 177.233
406.459, 179.860
406.941, 179.988
407.423, 177.481
407.905, 175.155
408.387, 175.008
408.870, 176.820
409.352, 178.800
409.834, 183.319
410.316, 185.133
410.798, 178.443
411.280, 170.619
411.762, 173.022
412.244, 188.003
412.727, 203.921
413.209, 202.199
413.691, 175.720
414.173, 161.063
414.655, 169.816
415.137, 180.165
415.619, 185.993
416.101, 187.048
416.583, 183.845
417.065, 174.852
417.548, 163.930
418.030, 159.878
418.512, 164.058
418.994, 165.103
419.476, 155.570
419.958, 143.498
420.440, 139.336
420.922, 144.396
421.405, 150.100
421.887, 151.287
422.369, 151.006
422.851, 155.744
423.333, 166.306
423.815, 174.388
424.297, 171.817
424.779, 159.261
425.262, 153.490
425.744, 159.856
426.226, 166.030
426.708, 170.133
427.190, 170.816
427.672, 164.686
428.154, 150.782
428.636, 134.855
429.118, 125.629
429.601, 123.465
430.083, 127.242
430.565, 145.209
431.047, 161.313
431.529, 169.172
432.011, 169.303
432.493, 164.035
432.975, 152.372
433.457, 138.814
433.940, 134.104
434.422, 139.773
434.904, 146.629
435.386, 154.725
435.868, 159.993
436.350, 156.395
436.832, 142.236
437.314, 130.040
437.797, 126.052
438.279, 127.714
438.761, 131.877
439.243, 138.140
439.725, 145.401
440.207, 153.940
440.689, 163.193
441.171, 165.029
441.654, 151.218
442.136, 140.900
442.618, 139.707
443.100, 144.967
443.582, 155.835
444.064, 171.175
444.546, 184.096
445.028, 183.152
445.510, 163.771
445.992, 151.232
446.475, 149.484
446.957, 151.215
447.439, 157.855
447.921, 165.654
448.403, 167.281
448.885, 157.764
449.367, 143.676
449.849, 133.923
450.332, 128.585
450.814, 127.458
451.296, 132.614
451.778, 139.611
452.260, 143.867
452.742, 145.502
453.224, 144.042
453.706, 132.420
454.189, 122.229
454.671, 128.837
455.153, 150.088
455.635, 169.570
456.117, 178.056
456.599, 176.086
457.081, 165.724
457.563, 129.041
458.045, 106.929
458.528, 108.559
459.010, 120.782
459.492, 136.299
459.974, 151.967
460.456, 163.576
460.938, 166.471
461.420, 161.307
461.902, 154.858
462.384, 143.902
462.867, 137.690
463.349, 142.641
463.831, 152.842
464.313, 162.542
464.795, 171.276
465.277, 175.863
465.759, 171.161
466.241, 160.276
466.724, 152.047
467.206, 148.090
467.688, 146.533
468.170, 146.004
468.652, 146.564
469.134, 147.597
469.616, 149.808
470.098, 151.712
470.581, 153.347
471.063, 154.097
471.545, 153.208
472.027, 150.390
472.509, 145.409
472.991, 136.742
473.473, 121.147
473.955, 113.431
474.437, 120.065
474.919, 128.738
475.402, 136.523
475.884, 142.917
476.366, 147.740
476.848, 151.318
477.330, 152.491
477.812, 148.193
478.294, 138.585
478.776, 130.286
479.259, 123.242
479.741, 120.788
480.223, 131.013
480.705, 153.291
481.187, 168.067
481.669, 168.808
482.151, 162.836
482.633, 150.383
483.116, 135.487
483.598, 130.429
484.080, 142.510
484.562, 162.680
485.044, 168.610
485.526, 148.084
486.008, 135.720
486.490, 138.521
486.972, 142.673
487.455, 139.784
487.937, 130.902
488.419, 121.104
488.901, 111.641
489.383, 105.582
489.865, 113.527
490.347, 138.563
490.829, 156.823
491.311, 160.026
491.794, 152.912
492.276, 138.479
492.758, 115.363
493.240, 102.488
493.722, 111.693
494.204, 130.408
494.686, 150.794
495.168, 169.816
495.651, 176.563
496.133, 163.251
496.615, 136.353
497.097, 117.177
497.579, 107.237
498.061, 103.503
498.543, 111.265
499.025, 120.626
499.508, 123.574
499.990, 121.002
500.472, 119.731
500.954, 124.592
501.436, 134.374
501.918, 147.286
502.400, 165.238
502.882, 177.406
503.364, 178.816
503.846, 173.044
504.329, 163.800
504.811, 150.529
505.293, 139.313
505.775, 131.689
506.257, 127.654
506.739, 128.676
507.221, 133.943
507.703, 138.990
508.186, 140.999
508.668, 141.002
509.150, 142.631
509.632, 151.380
510.114, 153.249
510.596, 142.160
511.078, 128.991
511.560, 119.281
512.042, 114.360
512.525, 115.143
513.007, 124.200
513.489, 137.922
513.971, 147.314
514.453, 152.417
514.935, 152.881
515.417, 148.495
515.899, 139.124
516.382, 121.821
516.864, 95.096
517.346, 78.029
517.828, 83.755
518.310, 96.730
518.792, 100.671
519.274, 97.505
519.756, 100.394
520.239, 117.403
520.721, 142.120
521.203, 157.140
521.685, 159.190
522.167, 157.123
522.649, 147.008
523.131, 137.065
523.613, 132.672
524.096, 132.716
524.578, 132.222
525.060, 126.560
525.542, 121.172
526.024, 128.625
526.506, 148.962
526.988, 164.210
527.470, 170.611
527.952, 167.769
528.435, 148.318
528.917, 111.496
529.399, 91.516
529.881, 109.124
530.363, 130.263
530.845, 130.765
531.327, 117.494
531.809, 108.453
532.291, 111.400
532.774, 120.152
533.256, 124.228
533.738, 123.064
534.220, 119.059
534.702, 107.235
535.184, 97.861
535.666, 96.453
536.148, 100.404
536.630, 104.882
537.113, 109.085
537.595, 111.138
538.077, 106.100
538.559, 96.866
539.041, 95.831
539.523, 106.835
540.005, 118.868
540.487, 120.872
540.969, 112.617
541.452, 108.573
541.934, 111.087
542.416, 114.575
542.898, 117.002
543.380, 119.735
543.862, 125.895
544.344, 135.559
544.826, 143.697
545.309, 145.029
545.791, 139.821
546.273, 129.815
546.755, 109.812
547.237, 97.426
547.719, 109.321
548.201, 129.612
548.683, 137.018
549.166, 127.198
549.648, 115.420
550.130, 106.327
550.612, 100.226
551.094, 99.496
551.576, 103.136
552.058, 103.991
552.540, 96.557
553.023, 84.628
553.505, 82.331
553.987, 98.536
554.469, 108.876
554.951, 107.613
555.433, 104.597
555.915, 109.745
556.397, 119.401
556.879, 118.551
557.362, 90.801
557.844, 57.549
558.326, 55.992
558.808, 83.578
559.290, 107.294
559.772, 118.059
560.254, 120.298
560.736, 117.001
561.218, 106.624
561.701, 104.062
562.183, 119.802
562.665, 132.436
563.147, 130.041
563.629, 119.056
564.111, 108.604
564.593, 101.987
565.075, 99.321
565.557, 103.358
566.040, 114.325
566.522, 115.326
567.004, 99.742
567.486, 87.153
567.968, 92.722
568.450, 105.574
568.932, 110.283
569.414, 103.389
569.896, 94.260
570.379, 81.224
570.861, 71.543
571.343, 80.204
571.825, 104.524
572.307, 121.046
572.789, 112.577
573.271, 88.266
573.753, 80.939
574.236, 104.164
574.718, 117.418
575.200, 111.689
575.682, 100.635
576.164, 87.965
576.646, 76.351
577.128, 71.966
577.610, 81.915
578.093, 95.013
578.575, 96.856
579.057, 89.825
579.539, 85.335
580.021, 86.783
580.503, 89.346
580.985, 86.660
581.467, 77.630
581.950, 78.427
582.432, 104.915
582.914, 120.756
583.396, 107.293
583.878, 82.899
584.360, 66.095
584.842, 61.807
585.324, 68.081
585.806, 89.323
586.289, 120.019
586.771, 139.274
587.253, 147.054
587.735, 141.776
588.217, 114.320
588.699, 80.575
589.181, 70.369
589.663, 87.840
590.145, 104.981
590.628, 122.410
591.110, 133.649
591.592, 129.563
592.074, 116.244
592.556, 108.456
593.038, 113.041
593.520, 121.234
594.002, 117.283
594.484, 99.520
594.967, 88.288
595.449, 87.307
595.931, 88.502
596.413, 89.300
596.895, 88.568
597.377, 82.463
597.859, 64.131
598.341, 54.890
598.823, 74.015
599.306, 102.376
599.788, 115.021
600.270, 111.085
600.752, 105.196
601.234, 107.508
601.716, 115.017
602.198, 117.079
602.680, 109.905
603.162, 107.159
603.645, 117.617
604.127, 126.437
604.609, 122.883
605.091, 110.330
605.573, 100.332
606.055, 98.273
606.537, 98.292
607.019, 93.609
607.502, 87.726
607.984, 90.872
608.466, 104.960
608.948, 118.016
609.430, 117.861
609.912, 105.754
610.394, 101.498
610.876, 114.135
611.359, 120.849
611.841, 117.915
612.323, 108.541
612.805, 89.136
613.287, 63.300
613.769, 49.150
614.251, 63.980
614.733, 90.726
615.216, 111.834
615.698, 126.214
616.180, 125.485
616.662, 105.417
617.144, 81.626
617.626, 73.780
618.108, 83.753
618.590, 90.843
619.072, 93.989
619.555, 95.483
620.037, 94.524
620.519, 92.863
621.001, 94.036
621.483, 97.865
621.965, 97.231
622.447, 80.854
622.929, 58.761
623.411, 50.870
623.894, 56.681
624.376, 66.794
624.858, 78.897
625.340, 89.714
625.822, 93.763
626.304, 88.579
626.786, 86.946
627.268, 95.262
627.750, 99.482
628.233, 89.649
628.715, 75.136
629.197, 68.929
629.679, 74.167
630.161, 81.773
630.643, 84.481
631.125, 83.324
631.607, 79.295
632.089, 72.437
632.572, 69.723
633.054, 75.250
633.536, 85.160
634.018, 92.946
634.500, 99.229
634.982, 101.040
635.464, 92.515
635.946, 85.967
636.429, 91.557
636.911, 100.839
637.393, 98.471
637.875, 79.746
638.357, 61.447
638.839, 60.761
639.321, 73.456
639.803, 90.792
640.286, 112.831
640.768, 123.600
641.250, 111.948
641.732, 88.928
642.214, 76.859
642.696, 81.600
643.178, 83.232
643.660, 79.996
644.143, 75.595
644.625, 71.272
645.107, 67.091
645.589, 61.375
646.071, 53.435
646.553, 50.311
647.035, 65.121
647.517, 89.555
647.999, 97.859
648.482, 88.059
648.964, 75.090
649.446, 65.153
649.928, 58.830
650.410, 57.890
650.892, 65.645
651.374, 70.768
651.856, 71.046
652.338, 71.215
652.821, 74.618
653.303, 78.917
653.785, 80.021
654.267, 76.597
654.749, 71.762
655.231, 69.662
655.713, 68.008
656.195, 56.775
656.677, 36.172
657.160, 28.986
657.642, 49.290
658.124, 83.361
658.606, 104.538
659.088, 110.373
659.570, 109.733
