##NAMES=Bournonite
##RRUFFID=R050111
##IDEAL CHEMISTRY=Cu^1+^Pb^2+^Sb^3+^S^2-^_3_
##LOCALITY=Yao Gang Xian mine, Chenzhou, Hunan Province, China
##OWNER=RRUFF
##SOURCE=He Xin Jian
##DESCRIPTION=Steel-gray short prismatic crystal
##STATUS=The identification of this mineral has been confirmed by X-ray diffraction and chemical analysis
##URL=rruff.info/R050111
##MEASURED CHEMISTRY=PbCuSbS_3_
175.038, 5753.906
175.520, 5751.738
176.002, 5750.537
176.484, 5756.979
176.966, 5770.750
177.449, 5788.942
177.931, 5815.426
178.413, 5844.692
178.895, 5864.551
179.377, 5861.701
179.859, 5850.531
180.341, 5855.740
180.823, 5877.840
181.305, 5906.730
181.788, 5937.690
182.270, 5968.562
182.752, 5992.769
183.234, 5999.774
183.716, 5998.241
184.198, 6004.249
184.680, 6016.971
185.162, 6028.062
185.645, 6037.611
186.127, 6041.000
186.609, 6052.344
187.091, 6060.500
187.573, 6068.526
188.055, 6079.234
188.537, 6094.250
189.019, 6126.562
189.501, 6142.856
189.984, 6143.103
190.466, 6121.399
190.948, 6062.058
191.430, 5971.024
191.912, 5896.853
192.394, 5842.835
192.876, 5807.578
193.358, 5798.885
193.840, 5819.061
194.323, 5829.111
194.805, 5795.422
195.287, 5719.877
195.769, 5658.830
196.251, 5617.022
196.733, 5593.708
197.215, 5590.558
197.697, 5609.964
198.180, 5635.029
198.662, 5657.085
199.144, 5676.800
199.626, 5685.117
200.108, 5677.502
200.590, 5658.648
201.072, 5645.259
201.554, 5636.679
202.036, 5635.228
202.519, 5646.650
203.001, 5673.654
203.483, 5691.538
203.965, 5691.653
204.447, 5678.164
204.929, 5683.003
205.411, 5715.347
205.893, 5742.709
206.376, 5728.661
206.858, 5661.808
207.340, 5606.406
207.822, 5579.151
208.304, 5577.728
208.786, 5570.198
209.268, 5557.836
209.750, 5537.768
210.232, 5503.249
210.714, 5448.269
211.197, 5401.958
211.679, 5373.758
212.161, 5364.175
212.643, 5349.969
213.125, 5329.585
213.607, 5307.233
214.089, 5287.522
214.572, 5270.998
215.054, 5255.352
215.536, 5238.667
216.018, 5219.842
216.500, 5210.174
216.982, 5212.750
217.464, 5220.939
217.946, 5226.339
218.428, 5228.558
218.911, 5228.252
219.393, 5226.583
219.875, 5224.754
220.357, 5212.363
220.839, 5182.006
221.321, 5147.174
221.803, 5128.724
222.285, 5135.064
222.767, 5141.772
223.250, 5140.282
223.732, 5127.719
224.214, 5119.913
224.696, 5118.190
225.178, 5120.541
225.660, 5123.932
226.142, 5129.984
226.624, 5134.216
227.107, 5134.860
227.589, 5131.110
228.071, 5126.012
228.553, 5119.076
229.035, 5110.719
229.517, 5101.745
229.999, 5090.866
230.481, 5080.919
230.963, 5072.658
231.445, 5065.244
231.928, 5061.626
232.410, 5062.500
232.892, 5066.953
233.374, 5073.596
233.856, 5086.166
234.338, 5095.268
234.820, 5095.737
235.303, 5080.312
235.785, 5074.463
236.267, 5082.183
236.749, 5098.484
237.231, 5111.120
237.713, 5120.668
238.195, 5125.669
238.677, 5123.066
239.159, 5101.008
239.641, 5098.526
240.124, 5121.514
240.606, 5162.954
241.088, 5204.142
241.570, 5241.689
242.052, 5283.262
242.534, 5333.234
243.016, 5397.891
243.498, 5457.146
243.981, 5509.901
244.463, 5557.113
244.945, 5601.979
245.427, 5646.061
245.909, 5685.102
246.391, 5714.730
246.873, 5721.761
247.355, 5749.163
247.837, 5805.953
248.320, 5881.965
248.802, 5948.723
249.284, 6008.699
249.766, 6054.710
250.248, 6084.326
250.730, 6098.916
251.212, 6095.715
251.694, 6080.783
252.176, 6047.509
252.659, 5970.239
253.141, 5826.483
253.623, 5674.238
254.105, 5539.455
254.587, 5428.123
255.069, 5321.785
255.551, 5214.628
256.033, 5113.695
256.516, 5039.426
256.998, 5003.096
257.480, 4974.076
257.962, 4935.209
258.444, 4875.879
258.926, 4835.903
259.408, 4822.398
259.890, 4826.551
260.372, 4822.829
260.855, 4807.581
261.337, 4790.755
261.819, 4776.882
262.301, 4765.782
262.783, 4757.499
263.265, 4751.887
263.747, 4748.999
264.229, 4750.925
264.711, 4762.740
265.194, 4768.254
265.676, 4755.240
266.158, 4715.668
266.640, 4691.772
267.122, 4690.144
267.604, 4701.898
268.086, 4705.992
268.569, 4702.171
269.051, 4691.723
269.533, 4671.887
270.015, 4638.460
270.497, 4618.537
270.979, 4616.742
271.461, 4625.569
271.943, 4628.879
272.425, 4626.002
272.908, 4620.222
273.390, 4611.142
273.872, 4597.512
274.354, 4592.464
274.836, 4599.862
275.318, 4611.782
275.800, 4609.284
276.282, 4588.013
276.764, 4572.171
277.247, 4578.558
277.729, 4610.042
278.211, 4623.736
278.693, 4615.227
279.175, 4594.496
279.657, 4575.221
280.139, 4556.123
280.621, 4547.916
281.103, 4562.115
281.586, 4598.270
282.068, 4619.706
282.550, 4624.251
283.032, 4617.792
283.514, 4606.179
283.996, 4588.985
284.478, 4575.684
284.960, 4574.075
285.443, 4582.586
285.925, 4580.317
286.407, 4564.449
286.889, 4547.146
287.371, 4547.947
287.853, 4566.093
288.335, 4582.159
288.817, 4590.231
289.299, 4589.995
289.782, 4575.248
290.264, 4543.209
290.746, 4511.348
291.228, 4505.510
291.710, 4522.047
292.192, 4534.468
292.674, 4529.636
293.156, 4513.030
293.638, 4499.253
294.121, 4488.368
294.603, 4480.727
295.085, 4478.879
295.567, 4481.323
296.049, 4481.588
296.531, 4472.170
297.013, 4461.145
297.496, 4468.721
297.978, 4495.266
298.460, 4522.177
298.942, 4532.740
299.424, 4530.326
299.906, 4522.514
300.388, 4506.817
300.870, 4490.443
301.352, 4482.236
301.835, 4482.170
302.317, 4491.589
302.799, 4522.554
303.281, 4562.157
303.763, 4586.919
304.245, 4579.523
304.727, 4563.996
305.209, 4569.553
305.691, 4593.127
306.174, 4612.562
306.656, 4605.592
307.138, 4588.048
307.620, 4581.872
308.102, 4599.893
308.584, 4620.926
309.066, 4628.594
309.548, 4624.835
310.030, 4616.706
310.513, 4609.411
310.995, 4599.294
311.477, 4581.519
311.959, 4549.831
312.441, 4520.531
312.923, 4509.236
313.405, 4509.146
313.887, 4502.014
314.370, 4464.586
314.852, 4426.267
315.334, 4410.247
315.816, 4429.147
316.298, 4447.949
316.780, 4450.799
317.262, 4443.147
317.744, 4435.792
318.226, 4435.332
318.709, 4434.294
319.191, 4428.507
319.673, 4416.244
320.155, 4403.743
320.637, 4390.968
321.119, 4379.420
321.601, 4371.179
322.083, 4369.430
322.565, 4368.615
323.048, 4365.239
323.530, 4357.155
324.012, 4356.263
324.494, 4376.421
324.976, 4399.941
325.458, 4407.949
325.940, 4383.882
326.422, 4358.662
326.905, 4337.053
327.387, 4318.962
327.869, 4306.371
328.351, 4303.171
328.833, 4303.291
329.315, 4302.006
329.797, 4299.026
330.279, 4295.016
330.762, 4288.904
331.244, 4281.000
331.726, 4276.993
332.208, 4280.401
332.690, 4284.201
333.172, 4284.321
333.654, 4282.655
334.136, 4272.923
334.618, 4249.804
335.100, 4218.229
335.583, 4198.469
336.065, 4193.605
336.547, 4195.130
337.029, 4200.750
337.511, 4214.467
337.993, 4215.310
338.475, 4195.533
338.957, 4167.383
339.440, 4162.602
339.922, 4187.960
340.404, 4211.546
340.886, 4214.987
341.368, 4196.522
341.850, 4188.978
342.332, 4196.561
342.814, 4208.111
343.297, 4203.816
343.779, 4182.983
344.261, 4164.608
344.743, 4158.907
345.225, 4163.351
345.707, 4160.256
346.189, 4148.190
346.671, 4136.150
347.153, 4134.265
347.635, 4141.497
348.118, 4151.415
348.600, 4162.947
349.082, 4175.159
349.564, 4187.555
350.046, 4200.147
350.528, 4208.485
351.010, 4207.069
351.492, 4198.574
351.975, 4188.402
352.457, 4175.111
352.939, 4164.343
353.421, 4164.983
353.903, 4175.441
354.385, 4187.040
354.867, 4198.100
355.349, 4205.690
355.832, 4205.297
356.314, 4193.896
356.796, 4179.792
357.278, 4168.607
357.760, 4159.813
358.242, 4152.060
358.724, 4144.733
359.206, 4138.097
359.688, 4130.493
360.171, 4119.506
360.653, 4116.795
361.135, 4138.134
361.617, 4169.204
362.099, 4188.435
362.581, 4179.239
363.063, 4165.222
363.545, 4155.688
364.027, 4151.594
364.510, 4147.614
364.992, 4136.062
365.474, 4126.905
365.956, 4129.351
366.438, 4163.360
366.920, 4189.577
367.402, 4197.713
367.884, 4188.750
368.366, 4182.436
368.849, 4179.712
369.331, 4179.978
369.813, 4183.065
370.295, 4191.291
370.777, 4199.187
371.259, 4210.364
371.741, 4221.013
372.224, 4217.382
372.706, 4186.948
373.188, 4160.236
373.670, 4153.366
374.152, 4175.854
374.634, 4184.084
375.116, 4171.590
375.598, 4150.745
376.080, 4145.559
376.562, 4162.472
377.045, 4170.690
377.527, 4154.704
378.009, 4115.583
378.491, 4091.739
378.973, 4085.350
379.455, 4087.660
379.937, 4091.459
380.419, 4096.766
380.902, 4098.239
381.384, 4091.705
381.866, 4082.104
382.348, 4084.813
382.830, 4099.940
383.312, 4116.378
383.794, 4125.833
384.276, 4129.398
384.759, 4130.363
385.241, 4129.410
385.723, 4125.572
386.205, 4112.039
386.687, 4092.523
387.169, 4081.971
387.651, 4097.130
388.133, 4122.950
388.615, 4142.083
389.098, 4152.377
389.580, 4155.855
390.062, 4149.421
390.544, 4137.772
391.026, 4128.914
391.508, 4127.241
391.990, 4128.794
392.472, 4132.059
392.954, 4137.044
393.437, 4142.009
393.919, 4148.354
394.401, 4153.481
394.883, 4155.224
395.365, 4147.332
395.847, 4142.086
396.329, 4146.028
396.811, 4156.520
397.293, 4160.927
397.776, 4146.497
398.258, 4133.397
398.740, 4131.778
399.222, 4153.339
399.704, 4167.928
400.186, 4177.989
400.668, 4175.223
401.151, 4184.382
401.633, 4190.647
402.115, 4194.172
402.597, 4186.754
403.079, 4193.467
403.561, 4194.517
404.043, 4195.335
404.525, 4204.037
405.007, 4198.211
405.490, 4206.788
405.972, 4208.562
406.454, 4206.851
406.936, 4197.068
407.418, 4188.412
407.900, 4180.060
408.382, 4177.002
408.864, 4186.917
409.346, 4208.049
409.828, 4221.282
410.311, 4223.120
410.793, 4218.386
411.275, 4212.163
411.757, 4205.051
412.239, 4201.372
412.721, 4205.014
413.203, 4213.265
413.685, 4220.705
414.168, 4226.911
414.650, 4233.919
415.132, 4243.703
415.614, 4255.472
416.096, 4267.692
416.578, 4285.000
417.060, 4298.411
417.542, 4298.965
418.025, 4287.990
418.507, 4274.521
418.989, 4249.819
419.471, 4232.037
419.953, 4238.477
420.435, 4292.546
420.917, 4336.983
421.399, 4343.229
421.881, 4326.235
422.364, 4317.783
422.846, 4334.058
423.328, 4352.204
423.810, 4362.828
424.292, 4362.330
424.774, 4367.275
425.256, 4379.901
425.738, 4397.643
426.220, 4418.226
426.703, 4447.128
427.185, 4469.922
427.667, 4480.634
428.149, 4481.602
428.631, 4493.461
429.113, 4521.513
429.595, 4550.881
430.077, 4569.980
430.560, 4576.034
431.042, 4590.303
431.524, 4615.920
432.006, 4647.732
432.488, 4676.912
432.970, 4703.441
433.452, 4727.794
433.934, 4751.129
434.417, 4772.640
434.899, 4789.736
435.381, 4802.278
435.863, 4812.380
436.345, 4820.468
436.827, 4827.715
437.309, 4837.417
437.791, 4851.355
438.273, 4867.021
438.755, 4884.161
439.238, 4901.423
439.720, 4912.864
440.202, 4909.855
440.684, 4901.854
441.166, 4897.054
441.648, 4896.258
442.130, 4900.442
442.612, 4914.761
443.095, 4933.456
443.577, 4947.605
444.059, 4960.037
444.541, 4962.355
445.023, 4945.329
445.505, 4908.057
445.987, 4881.697
446.469, 4884.572
446.952, 4891.512
447.434, 4885.586
447.916, 4849.929
448.398, 4825.166
448.880, 4819.407
449.362, 4824.886
449.844, 4820.655
450.326, 4806.174
450.808, 4783.054
451.290, 4749.407
451.773, 4703.829
452.255, 4662.728
452.737, 4625.631
453.219, 4593.672
453.701, 4569.125
454.183, 4552.311
454.665, 4535.004
455.147, 4513.125
455.630, 4490.722
456.112, 4481.113
456.594, 4483.889
457.076, 4483.485
457.558, 4463.574
458.040, 4433.084
458.522, 4411.074
459.004, 4400.283
459.487, 4396.246
459.969, 4401.865
460.451, 4410.733
460.933, 4409.570
461.415, 4376.192
461.897, 4343.000
462.379, 4336.992
462.861, 4357.262
463.343, 4373.712
463.826, 4372.131
464.308, 4361.384
464.790, 4347.726
465.272, 4325.611
465.754, 4310.375
466.236, 4312.409
466.718, 4323.304
467.200, 4322.756
467.682, 4291.775
468.165, 4267.189
468.647, 4260.903
469.129, 4276.776
469.611, 4288.555
470.093, 4293.637
470.575, 4297.606
471.057, 4307.688
471.539, 4327.779
472.022, 4337.284
472.504, 4328.397
472.986, 4309.585
473.468, 4311.843
473.950, 4337.976
474.432, 4353.889
474.914, 4326.002
475.396, 4268.137
475.878, 4246.680
476.361, 4269.074
476.843, 4299.807
477.325, 4293.523
477.807, 4264.659
478.289, 4248.980
478.771, 4270.607
479.253, 4300.911
479.735, 4310.225
480.217, 4302.066
480.700, 4293.498
481.182, 4293.922
481.664, 4297.963
482.146, 4302.785
482.628, 4310.132
483.110, 4310.752
483.592, 4291.630
484.074, 4266.245
484.556, 4253.314
485.039, 4271.660
485.521, 4286.774
486.003, 4285.877
486.485, 4270.074
486.967, 4268.905
487.449, 4297.736
487.931, 4323.983
488.414, 4325.598
488.896, 4288.890
489.378, 4271.664
489.860, 4284.287
490.342, 4307.391
490.824, 4303.180
491.306, 4267.812
491.788, 4239.287
492.270, 4233.062
492.753, 4244.011
493.235, 4252.077
493.717, 4256.959
494.199, 4263.710
494.681, 4284.011
495.163, 4308.596
495.645, 4314.786
496.127, 4293.859
496.609, 4265.553
497.092, 4246.020
497.574, 4234.280
498.056, 4228.353
498.538, 4234.733
499.020, 4240.987
499.502, 4237.650
499.984, 4224.594
500.466, 4213.403
500.948, 4205.110
501.431, 4202.379
501.913, 4207.673
502.395, 4236.160
502.877, 4252.711
503.359, 4248.578
503.841, 4231.867
504.323, 4217.312
504.805, 4201.843
505.288, 4193.540
505.770, 4196.646
506.252, 4211.320
506.734, 4220.864
507.216, 4224.166
507.698, 4224.929
508.180, 4224.207
508.662, 4222.104
509.145, 4229.019
509.627, 4250.359
510.109, 4273.204
510.591, 4272.489
511.073, 4252.090
511.555, 4232.963
512.037, 4228.208
512.519, 4229.755
513.001, 4225.234
513.484, 4214.869
513.966, 4206.423
514.448, 4204.823
514.930, 4207.967
515.412, 4214.099
515.894, 4224.556
516.376, 4234.522
516.858, 4242.419
517.341, 4248.303
517.823, 4252.249
518.305, 4255.057
518.787, 4255.053
519.269, 4248.334
519.751, 4234.100
520.233, 4232.053
520.715, 4253.350
521.197, 4274.015
521.680, 4275.927
522.162, 4251.201
522.644, 4236.139
523.126, 4235.745
523.608, 4242.508
524.090, 4241.753
524.572, 4232.974
525.054, 4227.701
525.536, 4231.089
526.019, 4240.693
526.501, 4252.031
526.983, 4264.796
527.465, 4273.645
527.947, 4273.430
528.429, 4266.802
528.911, 4257.342
529.393, 4245.194
529.875, 4232.218
530.358, 4215.856
530.840, 4200.337
531.322, 4192.096
531.804, 4201.734
532.286, 4211.364
532.768, 4210.225
533.250, 4200.028
533.732, 4199.868
534.214, 4178.400
534.697, 4214.662
535.179, 4236.910
535.661, 4245.897
536.143, 4201.910
536.625, 4226.330
537.107, 4223.334
537.589, 4219.216
538.071, 4253.262
538.554, 4216.980
539.036, 4250.422
539.518, 4250.934
540.000, 4244.217
540.482, 4236.487
540.964, 4235.047
541.446, 4252.990
541.928, 4279.142
542.411, 4284.708
542.893, 4266.136
543.375, 4248.009
543.857, 4255.526
544.339, 4275.937
544.821, 4291.257
545.303, 4294.985
545.785, 4293.734
546.268, 4287.273
546.750, 4278.133
547.232, 4273.084
547.714, 4250.016
548.196, 4253.434
548.678, 4247.013
549.160, 4260.578
549.642, 4269.292
550.124, 4273.415
550.606, 4259.198
551.089, 4268.664
551.571, 4268.638
552.053, 4268.223
552.535, 4281.021
553.017, 4269.472
553.499, 4282.061
553.981, 4283.250
554.463, 4290.568
554.945, 4291.904
555.428, 4289.133
555.910, 4285.022
556.392, 4279.941
556.874, 4278.321
557.356, 4288.868
557.838, 4302.518
558.320, 4307.423
558.802, 4300.339
559.284, 4290.152
559.767, 4272.497
560.249, 4257.813
560.731, 4259.213
561.213, 4301.096
561.695, 4336.996
562.177, 4356.424
562.659, 4360.137
563.141, 4354.236
563.624, 4326.777
564.106, 4305.111
564.588, 4303.112
565.070, 4324.915
565.552, 4329.132
566.034, 4308.633
566.516, 4286.339
566.998, 4289.275
567.481, 4316.146
567.963, 4331.989
568.445, 4327.209
568.927, 4316.991
569.409, 4330.294
569.891, 4359.996
570.373, 4380.013
570.855, 4367.928
571.338, 4345.815
571.820, 4332.407
572.302, 4328.055
572.784, 4334.316
573.266, 4364.164
573.748, 4396.660
574.230, 4416.616
574.712, 4416.094
575.194, 4416.330
575.677, 4423.305
576.159, 4431.657
576.641, 4435.241
577.123, 4432.465
577.605, 4427.845
578.087, 4421.156
578.569, 4413.400
579.051, 4408.004
579.533, 4404.961
580.016, 4404.595
580.498, 4407.944
580.980, 4414.356
581.462, 4422.524
581.944, 4432.819
582.426, 4437.247
582.908, 4420.256
583.390, 4393.976
583.872, 4380.653
584.355, 4388.231
584.837, 4400.388
585.319, 4407.637
585.801, 4411.230
586.283, 4413.425
586.765, 4402.801
587.247, 4403.186
587.729, 4434.092
588.211, 4490.510
588.694, 4520.582
589.176, 4504.329
589.658, 4482.225
590.140, 4470.287
590.622, 4470.000
591.104, 4472.848
591.586, 4480.696
592.068, 4487.688
592.551, 4484.975
593.033, 4473.250
593.515, 4469.027
593.997, 4476.578
594.479, 4490.101
594.961, 4503.048
595.443, 4514.960
595.925, 4524.101
596.407, 4528.221
596.890, 4530.272
597.372, 4533.026
597.854, 4536.259
598.336, 4538.013
598.818, 4532.184
599.300, 4528.457
599.782, 4533.876
600.265, 4553.301
600.747, 4569.370
601.229, 4577.749
601.711, 4584.193
602.193, 4594.653
602.675, 4612.482
603.157, 4624.940
603.639, 4629.520
604.121, 4629.077
604.604, 4628.092
605.086, 4626.380
605.568, 4630.426
606.050, 4649.952
606.532, 4674.252
607.014, 4673.623
607.496, 4650.702
607.978, 4630.941
608.460, 4638.219
608.943, 4654.874
609.425, 4661.683
609.907, 4654.708
610.389, 4646.228
610.871, 4636.917
611.353, 4631.170
611.835, 4633.330
612.317, 4659.152
612.799, 4673.841
613.282, 4670.527
613.764, 4655.988
614.246, 4643.080
614.728, 4628.830
615.210, 4625.362
615.692, 4642.393
616.174, 4673.375
616.656, 4675.525
617.138, 4646.892
617.621, 4625.549
618.103, 4649.860
618.585, 4698.772
619.067, 4722.823
619.549, 4716.810
620.031, 4705.668
620.513, 4707.916
620.995, 4716.679
621.477, 4723.260
621.960, 4720.998
622.442, 4723.053
622.924, 4735.727
623.406, 4755.217
623.888, 4775.011
624.370, 4801.107
624.852, 4818.725
625.334, 4823.329
625.817, 4816.649
626.299, 4807.461
626.781, 4792.053
627.263, 4786.327
627.745, 4804.285
628.227, 4842.481
628.709, 4870.193
629.191, 4886.956
629.674, 4898.901
630.156, 4906.484
630.638, 4914.267
631.120, 4931.291
631.602, 4961.916
632.084, 4993.827
632.566, 5021.778
633.048, 5044.977
633.531, 5062.396
634.013, 5061.935
634.495, 5068.251
634.977, 5094.542
635.459, 5133.607
635.941, 5156.420
636.423, 5147.334
636.905, 5148.983
637.387, 5178.782
637.870, 5234.753
638.352, 5287.870
638.834, 5338.678
639.316, 5385.485
639.798, 5426.823
640.280, 5463.680
640.762, 5497.415
641.244, 5527.997
641.726, 5559.972
642.209, 5604.295
642.691, 5650.792
643.173, 5683.380
643.655, 5686.100
644.137, 5692.801
644.619, 5723.736
645.101, 5767.454
645.583, 5801.899
646.065, 5817.628
646.548, 5831.374
647.030, 5848.971
647.512, 5867.529
647.994, 5869.924
648.476, 5854.707
648.958, 5826.890
649.440, 5783.810
649.922, 5728.348
650.404, 5676.412
650.887, 5627.225
651.369, 5587.313
651.851, 5576.694
652.333, 5574.532
652.815, 5542.384
653.297, 5467.226
653.779, 5393.844
654.261, 5356.273
654.744, 5334.650
655.226, 5305.657
655.708, 5242.578
656.190, 5196.814
656.672, 5190.371
657.154, 5203.917
657.636, 5196.968
658.118, 5159.590
658.601, 5126.517
659.083, 5112.099
659.565, 5108.812
660.047, 5075.982
660.529, 5012.341
661.011, 4958.936
661.493, 4955.509
661.975, 4976.284
662.458, 4969.551
662.940, 4933.860
663.422, 4896.507
663.904, 4873.138
664.386, 4859.035
664.868, 4850.949
665.350, 4850.492
665.832, 4849.921
666.314, 4849.833
666.797, 4847.349
667.279, 4839.160
667.761, 4821.158
668.243, 4804.541
668.725, 4788.515
669.207, 4775.532
669.689, 4774.063
670.171, 4784.492
670.653, 4787.392
671.135, 4769.530
671.618, 4745.059
672.100, 4748.981
672.582, 4774.942
673.064, 4791.926
673.546, 4778.010
674.028, 4750.601
674.510, 4717.081
674.992, 4678.583
675.474, 4655.298
675.957, 4666.584
676.439, 4686.120
676.921, 4699.334
677.403, 4706.816
677.885, 4704.438
678.367, 4686.650
678.849, 4666.945
679.331, 4660.858
679.814, 4668.954
680.296, 4670.956
680.778, 4662.164
681.260, 4651.350
681.742, 4652.072
682.224, 4660.795
682.706, 4668.112
683.188, 4670.856
683.670, 4670.573
684.153, 4663.812
684.635, 4654.801
685.117, 4654.217
685.599, 4681.376
686.081, 4701.718
686.563, 4696.027
687.045, 4668.724
687.528, 4661.705
688.010, 4686.178
688.492, 4709.869
688.974, 4717.290
689.456, 4709.030
689.938, 4696.082
690.420, 4677.309
690.902, 4666.316
691.384, 4683.980
691.867, 4715.721
692.349, 4733.451
692.831, 4732.246
693.313, 4725.332
693.795, 4717.790
694.277, 4711.067
694.759, 4706.720
695.241, 4704.987
695.723, 4705.675
696.206, 4709.374
696.688, 4715.221
697.170, 4723.299
697.652, 4737.062
698.134, 4742.872
698.616, 4736.075
699.098, 4722.088
699.580, 4711.837
