##NAMES=Boussingaultite
##RRUFFID=R070597
##IDEAL CHEMISTRY=(N^3-^H_4_)_2_Mg(S^6+^O_4_)_2_&#183;6H_2_O
##LOCALITY=The Geysers, near Cloverdale, Sonoma County, California, USA
##OWNER=RRUFF
##SOURCE=James Shigley
##DESCRIPTION=Unconsolidated aggregate of transparent to translucent colorless to white grains
##STATUS=The identification of this mineral has been confirmed by single-crystal X-ray diffraction.
##URL=rruff.info/R070597
137.5867, 21084.75
138.0688, 21171.69
138.5510, 21281.01
139.0331, 21392.07
139.5152, 21504.88
139.9973, 21619.51
140.4794, 21733.28
140.9615, 21848.57
141.4437, 21968.40
141.9258, 22095.88
142.4079, 22230.82
142.8900, 22373.77
143.3721, 22512.43
143.8542, 22666.88
144.3364, 22858.28
144.8185, 23084.24
145.3006, 23313.71
145.7827, 23509.24
146.2648, 23652.95
146.7469, 23837.32
147.2291, 24100.13
147.7112, 24390.95
148.1933, 24654.63
148.6754, 24877.68
149.1575, 25076.75
149.6396, 25272.36
150.1218, 25461.90
150.6039, 25657.88
151.0860, 25891.02
151.5681, 26138.34
152.0502, 26334.05
152.5324, 26447.62
153.0145, 26501.96
153.4966, 26542.33
153.9787, 26569.46
154.4608, 26580.75
154.9429, 26579.03
155.4251, 26565.06
155.9072, 26520.35
156.3893, 26417.23
156.8714, 26286.95
157.3535, 26151.96
157.8356, 26015.28
158.3178, 25881.76
158.7999, 25761.45
159.2820, 25660.56
159.7641, 25556.70
160.2462, 25436.89
160.7283, 25311.62
161.2105, 25192.98
161.6926, 25086.66
162.1747, 24990.84
162.6568, 24901.12
163.1389, 24832.31
163.6210, 24751.34
164.1032, 24628.68
164.5853, 24489.32
165.0674, 24376.54
165.5495, 24328.19
166.0316, 24347.06
166.5137, 24343.74
166.9959, 24292.30
167.4780, 24242.69
167.9601, 24210.47
168.4422, 24195.61
168.9243, 24190.40
169.4064, 24187.40
169.8886, 24185.73
170.3707, 24190.69
170.8528, 24197.79
171.3349, 24213.01
171.8170, 24237.88
172.2991, 24273.42
172.7813, 24322.99
173.2634, 24393.50
173.7455, 24504.52
174.2276, 24594.47
174.7097, 24646.72
175.1918, 24685.42
175.6740, 24733.56
176.1561, 24798.16
176.6382, 24872.18
177.1203, 24945.09
177.6024, 25023.56
178.0845, 25086.04
178.5667, 25120.98
179.0488, 25137.88
179.5309, 25150.31
180.0130, 25159.58
180.4951, 25173.94
180.9772, 25212.48
181.4594, 25284.59
181.9415, 25356.22
182.4236, 25423.35
182.9057, 25481.34
183.3878, 25505.49
183.8699, 25473.61
184.3521, 25405.66
184.8342, 25348.64
185.3163, 25312.09
185.7984, 25273.66
186.2805, 25218.96
186.7626, 25148.29
187.2448, 25057.18
187.7269, 24925.22
188.2090, 24777.78
188.6911, 24650.08
189.1732, 24564.03
189.6553, 24485.58
190.1375, 24366.23
190.6196, 24196.66
191.1017, 24015.18
191.5838, 23830.86
192.0659, 23647.91
192.5480, 23467.22
193.0302, 23283.89
193.5123, 23107.91
193.9944, 22967.93
194.4765, 22880.56
194.9586, 22802.93
195.4408, 22724.51
195.9229, 22642.32
196.4050, 22550.41
196.8871, 22440.60
197.3692, 22317.44
197.8513, 22210.33
198.3335, 22134.56
198.8156, 22059.03
199.2977, 21972.81
199.7798, 21878.91
200.2619, 21782.83
200.7440, 21687.43
201.2262, 21592.12
201.7083, 21511.63
202.1904, 21478.41
202.6725, 21432.03
203.1546, 21348.18
203.6367, 21232.42
204.1189, 21105.38
204.6010, 20982.15
205.0831, 20857.26
205.5652, 20766.79
206.0473, 20737.25
206.5294, 20715.07
207.0116, 20690.62
207.4937, 20654.98
207.9758, 20590.00
208.4579, 20466.67
208.9400, 20242.36
209.4221, 20097.65
209.9043, 20079.66
210.3864, 20089.72
210.8685, 20072.92
211.3506, 20019.06
211.8327, 19943.79
212.3148, 19862.98
212.7970, 19751.49
213.2791, 19703.61
213.7612, 19763.56
214.2433, 19854.82
214.7254, 19923.96
215.2075, 19956.45
215.6897, 19960.13
216.1718, 19941.98
216.6539, 19863.33
217.1360, 19842.39
217.6181, 19913.58
218.1002, 20029.32
218.5824, 20169.16
219.0645, 20328.99
219.5466, 20448.11
220.0287, 20406.78
220.5108, 20139.26
220.9929, 19868.86
221.4751, 19603.94
221.9572, 19357.43
222.4393, 19148.21
222.9214, 18982.44
223.4035, 18851.96
223.8856, 18744.15
224.3678, 18653.58
224.8499, 18589.32
225.3320, 18575.03
225.8141, 18586.23
226.2962, 18578.21
226.7783, 18535.65
227.2605, 18466.59
227.7426, 18376.56
228.2247, 18246.33
228.7068, 18149.49
229.1889, 18141.48
229.6710, 18190.70
230.1532, 18214.17
230.6353, 18176.55
231.1174, 18105.71
231.5995, 18052.91
232.0816, 18019.67
232.5637, 17995.96
233.0459, 17977.95
233.5280, 17965.76
234.0101, 17958.74
234.4922, 17953.08
234.9743, 17957.60
235.4564, 17989.15
235.9386, 18061.28
236.4207, 18121.08
236.9028, 18124.64
237.3849, 18080.03
237.8670, 18042.31
238.3491, 18034.04
238.8313, 18041.11
239.3134, 18040.22
239.7955, 18027.11
240.2776, 18016.90
240.7597, 18029.68
241.2418, 18063.08
241.7240, 18075.62
242.2061, 18028.83
242.6882, 17970.45
243.1703, 17962.53
243.6524, 18023.10
244.1345, 18090.67
244.6167, 18111.48
245.0988, 18085.20
245.5809, 18047.11
246.0630, 17999.19
246.5451, 17950.70
247.0272, 17913.78
247.5094, 17893.80
247.9915, 17870.95
248.4736, 17821.63
248.9557, 17743.63
249.4378, 17669.38
249.9199, 17599.79
250.4021, 17544.51
250.8842, 17517.46
251.3663, 17524.90
251.8484, 17540.79
252.3305, 17541.97
252.8126, 17528.89
253.2948, 17497.12
253.7769, 17420.88
254.2590, 17338.86
254.7411, 17281.91
255.2232, 17257.44
255.7053, 17247.74
256.1875, 17237.97
256.6696, 17230.26
257.1517, 17208.44
257.6338, 17158.14
258.1159, 17096.41
258.5981, 17031.77
259.0802, 16965.43
259.5623, 16902.08
260.0444, 16842.32
260.5265, 16782.00
261.0086, 16748.13
261.4908, 16784.26
261.9729, 16829.07
262.4550, 16841.20
262.9371, 16811.22
263.4192, 16762.94
263.9013, 16718.61
264.3835, 16676.35
264.8656, 16649.49
265.3477, 16657.84
265.8298, 16672.94
266.3119, 16676.53
266.7940, 16664.91
267.2762, 16649.63
267.7583, 16647.56
268.2404, 16663.46
268.7225, 16667.65
269.2046, 16650.91
269.6867, 16622.48
270.1689, 16579.26
270.6510, 16522.07
271.1331, 16471.16
271.6152, 16458.25
272.0973, 16494.12
272.5794, 16506.79
273.0616, 16455.62
273.5437, 16396.94
274.0258, 16362.97
274.5079, 16357.43
274.9900, 16359.38
275.4721, 16341.05
275.9543, 16296.00
276.4364, 16271.79
276.9185, 16302.81
277.4006, 16336.57
277.8827, 16345.80
278.3648, 16328.44
278.8470, 16300.97
279.3291, 16274.12
279.8112, 16245.42
280.2933, 16236.94
280.7754, 16281.09
281.2575, 16322.76
281.7397, 16329.72
282.2218, 16303.77
282.7039, 16273.36
283.1860, 16265.95
283.6681, 16283.31
284.1502, 16299.55
284.6324, 16321.37
285.1145, 16333.88
285.5966, 16318.76
286.0787, 16283.05
286.5608, 16257.03
287.0429, 16277.06
287.5251, 16344.12
288.0072, 16383.46
288.4893, 16363.65
288.9714, 16344.42
289.4535, 16351.60
289.9356, 16382.72
290.4178, 16425.43
290.8999, 16481.76
291.3820, 16549.37
291.8641, 16578.99
292.3462, 16537.18
292.8283, 16495.41
293.3105, 16481.88
293.7926, 16493.11
294.2747, 16517.97
294.7568, 16553.28
295.2389, 16597.09
295.7210, 16636.91
296.2032, 16668.79
296.6853, 16702.71
297.1674, 16753.53
297.6495, 16808.79
298.1316, 16842.30
298.6137, 16825.83
299.0959, 16780.40
299.5780, 16789.88
300.0601, 16900.27
300.5422, 16982.47
301.0243, 16967.48
301.5064, 16899.04
301.9886, 16838.08
302.4707, 16811.58
302.9528, 16811.33
303.4349, 16820.39
303.9170, 16840.60
304.3991, 16866.05
304.8813, 16903.35
305.3634, 16941.32
305.8455, 16963.41
306.3276, 16957.45
306.8097, 16944.65
307.2918, 16966.13
307.7740, 17035.21
308.2561, 17090.94
308.7382, 17098.56
309.2203, 17087.06
309.7024, 17081.45
310.1845, 17089.66
310.6667, 17100.53
311.1488, 17096.41
311.6309, 17073.97
312.1130, 17062.76
312.5951, 17089.14
313.0772, 17120.75
313.5594, 17125.12
314.0415, 17093.64
314.5236, 17060.18
315.0057, 17062.42
315.4878, 17099.71
315.9699, 17126.13
316.4521, 17132.56
316.9342, 17119.77
317.4163, 17081.72
317.8984, 17016.36
318.3805, 16960.96
318.8626, 16950.76
319.3448, 16977.57
319.8269, 16993.07
320.3090, 16985.89
320.7911, 16967.47
321.2732, 16948.67
321.7553, 16929.42
322.2375, 16909.14
322.7196, 16887.20
323.2017, 16863.84
323.6838, 16837.86
324.1659, 16805.17
324.6480, 16778.53
325.1302, 16777.02
325.6123, 16793.98
326.0944, 16800.41
326.5765, 16777.46
327.0586, 16740.68
327.5407, 16714.46
328.0229, 16701.75
328.5050, 16693.64
328.9871, 16683.45
329.4692, 16672.27
329.9513, 16664.29
330.4334, 16674.23
330.9156, 16679.16
331.3977, 16643.51
331.8798, 16566.46
332.3619, 16503.91
332.8440, 16493.91
333.3261, 16528.25
333.8083, 16562.33
334.2904, 16613.71
334.7725, 16647.77
335.2546, 16626.27
335.7367, 16561.20
336.2188, 16513.22
336.7010, 16517.93
337.1831, 16556.39
337.6652, 16570.51
338.1473, 16550.33
338.6294, 16524.21
339.1115, 16491.69
339.5937, 16461.54
340.0758, 16458.13
340.5579, 16495.81
341.0400, 16550.88
341.5221, 16569.66
342.0042, 16530.22
342.4864, 16510.00
342.9685, 16540.50
343.4506, 16591.47
343.9327, 16626.22
344.4148, 16634.95
344.8969, 16627.66
345.3791, 16617.44
345.8612, 16604.01
346.3433, 16587.01
346.8254, 16547.51
347.3075, 16516.79
347.7896, 16529.37
348.2718, 16584.52
348.7539, 16644.28
349.2360, 16670.38
349.7181, 16656.04
350.2002, 16648.35
350.6823, 16644.96
351.1645, 16649.12
351.6466, 16665.98
352.1287, 16692.51
352.6108, 16720.90
353.0929, 16746.41
353.5750, 16768.83
354.0572, 16783.19
354.5393, 16783.35
355.0214, 16782.66
355.5035, 16778.33
355.9856, 16776.27
356.4677, 16786.72
356.9499, 16815.69
357.4320, 16856.55
357.9141, 16887.21
358.3962, 16896.05
358.8783, 16911.20
359.3604, 16955.50
359.8426, 16996.84
360.3247, 16997.05
360.8068, 16945.64
361.2889, 16875.92
361.7710, 16845.45
362.2531, 16871.68
362.7353, 16890.32
363.2174, 16902.05
363.6995, 16901.41
364.1816, 16872.37
364.6637, 16819.68
365.1458, 16776.47
365.6280, 16787.07
366.1101, 16857.66
366.5922, 16897.22
367.0743, 16883.14
367.5564, 16857.24
368.0385, 16837.71
368.5207, 16822.74
369.0028, 16804.85
369.4849, 16780.37
369.9670, 16749.16
370.4491, 16709.33
370.9312, 16655.64
371.4134, 16604.03
371.8955, 16566.01
372.3776, 16534.37
372.8597, 16497.09
373.3418, 16442.52
373.8239, 16389.79
374.3061, 16370.35
374.7882, 16387.87
375.2703, 16404.20
375.7524, 16402.74
376.2345, 16391.91
376.7166, 16382.97
377.1988, 16377.46
377.6809, 16372.03
378.1630, 16367.08
378.6451, 16360.98
379.1272, 16342.97
379.6093, 16300.60
380.0915, 16260.37
380.5736, 16265.72
381.0557, 16319.67
381.5378, 16364.52
382.0199, 16383.83
382.5020, 16382.55
382.9842, 16361.13
383.4663, 16318.58
383.9484, 16275.83
384.4305, 16252.70
384.9126, 16251.07
385.3947, 16256.17
385.8769, 16271.15
386.3590, 16289.95
386.8411, 16324.07
387.3232, 16363.69
387.8053, 16364.37
388.2874, 16286.21
388.7696, 16145.09
389.2517, 16073.17
389.7338, 16122.08
390.2159, 16168.02
390.6980, 16178.46
391.1801, 16166.44
391.6623, 16150.98
392.1444, 16140.05
392.6265, 16133.75
393.1086, 16132.73
393.5907, 16143.74
394.0728, 16149.95
394.5550, 16143.98
395.0371, 16138.36
395.5192, 16148.01
396.0013, 16172.43
396.4834, 16193.31
396.9655, 16186.57
397.4477, 16144.83
397.9298, 16115.08
398.4119, 16102.63
398.8940, 16097.64
399.3761, 16103.66
399.8582, 16114.86
400.3404, 16117.76
400.8225, 16098.77
401.3046, 16066.18
401.7867, 16062.46
402.2688, 16113.89
402.7509, 16145.74
403.2331, 16120.86
403.7152, 16069.93
404.1973, 16026.28
404.6794, 15999.34
405.1615, 15987.97
405.6436, 15985.64
406.1258, 15990.52
406.6079, 16034.10
407.0900, 16179.76
407.5721, 16321.16
408.0542, 16346.25
408.5363, 16245.29
409.0185, 16132.56
409.5006, 16062.69
409.9827, 16032.19
410.4648, 16042.89
410.9469, 16106.57
411.4290, 16173.56
411.9112, 16193.99
412.3933, 16174.40
412.8754, 16148.02
413.3575, 16111.99
413.8396, 16077.49
414.3217, 16054.73
414.8039, 16043.40
415.2860, 16037.46
415.7681, 16032.75
416.2502, 16030.90
416.7323, 16039.77
417.2144, 16060.34
417.6966, 16088.36
418.1787, 16130.55
418.6608, 16177.45
419.1429, 16214.36
419.6250, 16236.37
420.1071, 16248.53
420.5893, 16258.72
421.0714, 16259.48
421.5535, 16274.46
422.0356, 16316.49
422.5177, 16361.28
422.9998, 16397.73
423.4820, 16422.31
423.9641, 16430.96
424.4462, 16414.95
424.9283, 16373.98
425.4104, 16363.96
425.8925, 16408.25
426.3747, 16460.22
426.8568, 16503.38
427.3389, 16548.06
427.8210, 16613.65
428.3031, 16712.65
428.7852, 16824.87
429.2674, 16901.94
429.7495, 16927.14
430.2316, 16976.87
430.7137, 17098.16
431.1958, 17234.64
431.6779, 17353.18
432.1601, 17448.36
432.6422, 17521.20
433.1243, 17562.10
433.6064, 17578.13
434.0885, 17602.56
434.5706, 17640.17
435.0528, 17684.57
435.5349, 17723.79
436.0170, 17763.23
436.4991, 17826.85
436.9812, 17928.40
437.4633, 18051.81
437.9455, 18186.69
438.4276, 18332.05
438.9097, 18475.77
439.3918, 18608.27
439.8739, 18736.67
440.3560, 18887.35
440.8382, 19069.88
441.3203, 19257.75
441.8024, 19434.51
442.2845, 19615.26
442.7666, 19823.34
443.2487, 20063.45
443.7309, 20320.78
444.2130, 20570.34
444.6951, 20800.76
445.1772, 21061.51
445.6593, 21367.40
446.1414, 21685.65
446.6236, 22009.79
447.1057, 22331.28
447.5878, 22631.38
448.0699, 22891.41
448.5520, 23124.43
449.0341, 23402.29
449.5163, 23777.19
449.9984, 24114.72
450.4805, 24404.01
450.9626, 24640.07
451.4447, 24806.51
451.9268, 24898.43
452.4090, 24954.49
452.8911, 25017.82
453.3732, 25088.89
453.8553, 25156.18
454.3374, 25228.27
454.8195, 25282.30
455.3017, 25296.53
455.7838, 25277.95
456.2659, 25259.77
456.7480, 25279.85
457.2301, 25300.16
457.7122, 25265.38
458.1944, 25173.65
458.6765, 25028.75
459.1586, 24815.73
459.6407, 24552.26
460.1229, 24303.28
460.6050, 24096.16
461.0871, 23864.13
461.5692, 23573.63
462.0513, 23240.27
462.5334, 22882.22
463.0156, 22503.97
463.4977, 22124.84
463.9798, 21773.18
464.4619, 21462.18
464.9440, 21138.43
465.4261, 20780.65
465.9083, 20430.16
466.3904, 20097.29
466.8725, 19788.54
467.3546, 19524.70
467.8367, 19325.46
468.3188, 19173.18
468.8010, 18979.80
469.2831, 18703.29
469.7652, 18449.82
470.2473, 18215.04
470.7294, 18021.81
471.2115, 17909.70
471.6937, 17885.08
472.1758, 17875.57
472.6579, 17802.59
473.1400, 17666.67
473.6221, 17514.31
474.1042, 17335.34
474.5864, 17162.54
475.0685, 17018.44
475.5506, 16897.43
476.0327, 16781.89
476.5148, 16674.28
476.9969, 16563.89
477.4791, 16421.64
477.9612, 16252.00
478.4433, 16125.65
478.9254, 16087.57
479.4075, 16103.98
479.8896, 16093.85
480.3718, 16047.03
480.8539, 16002.53
481.3360, 15980.39
481.8181, 15961.06
482.3002, 15916.54
482.7823, 15844.20
483.2645, 15769.96
483.7466, 15720.86
484.2287, 15699.32
484.7108, 15675.58
485.1929, 15656.15
485.6750, 15627.46
486.1572, 15574.43
486.6393, 15512.00
487.1214, 15461.53
487.6035, 15432.65
488.0856, 15420.85
488.5677, 15422.67
489.0499, 15446.98
489.5320, 15453.85
490.0141, 15413.89
490.4962, 15373.20
490.9783, 15359.23
491.4604, 15370.59
491.9426, 15387.01
492.4247, 15406.54
492.9068, 15420.22
493.3889, 15398.17
493.8710, 15331.91
494.3531, 15275.76
494.8353, 15257.94
495.3174, 15273.33
495.7995, 15308.30
496.2816, 15389.00
496.7637, 15442.61
497.2458, 15407.34
497.7280, 15328.30
498.2101, 15290.80
498.6922, 15317.24
499.1743, 15358.21
499.6564, 15351.29
500.1385, 15278.62
500.6207, 15250.88
501.1028, 15312.04
501.5849, 15367.76
502.0670, 15368.91
502.5491, 15333.38
503.0313, 15303.14
503.5134, 15301.12
503.9955, 15312.22
504.4776, 15295.84
504.9597, 15233.19
505.4418, 15190.27
505.9240, 15193.46
506.4061, 15205.13
506.8882, 15203.67
507.3703, 15187.90
507.8524, 15167.71
508.3345, 15150.85
508.8167, 15134.84
509.2988, 15109.43
509.7809, 15071.03
510.2630, 15039.18
510.7451, 15025.53
511.2272, 15026.34
511.7094, 15033.54
512.1915, 15053.98
512.6736, 15067.27
513.1557, 15051.60
513.6378, 15024.98
514.1199, 15024.23
514.6021, 15058.26
515.0842, 15096.44
515.5663, 15103.51
516.0484, 15073.19
516.5305, 15052.12
517.0126, 15045.44
517.4948, 15040.86
517.9769, 15036.31
518.4590, 15029.95
518.9411, 15017.04
519.4232, 14995.10
519.9053, 14972.75
520.3875, 14968.54
520.8696, 14987.83
521.3517, 15007.03
521.8338, 15032.25
522.3159, 15048.98
522.7980, 15041.24
523.2802, 15014.99
523.7623, 14996.79
524.2444, 15003.53
524.7265, 15026.79
525.2086, 15062.88
525.6907, 15114.00
526.1729, 15126.77
526.6550, 15052.94
527.1371, 14941.64
527.6192, 14900.22
528.1013, 14951.29
528.5834, 15004.44
529.0656, 15046.32
529.5477, 15070.09
530.0298, 15055.96
530.5119, 15007.33
530.9940, 14964.80
531.4761, 14967.20
531.9583, 15011.45
532.4404, 15021.70
532.9225, 14948.93
533.4046, 14898.11
533.8867, 14903.33
534.3688, 14930.41
534.8510, 14938.79
535.3331, 14917.84
535.8152, 14895.04
536.2973, 14910.52
536.7794, 14963.96
537.2615, 14992.36
537.7437, 14987.65
538.2258, 14964.25
538.7079, 14914.78
539.1900, 14855.10
539.6721, 14821.66
540.1542, 14840.54
540.6364, 14866.51
541.1185, 14852.24
541.6006, 14812.97
542.0827, 14804.89
542.5648, 14850.51
543.0469, 14907.71
543.5291, 14916.06
544.0112, 14854.90
544.4933, 14822.96
544.9754, 14841.23
545.4575, 14868.05
545.9396, 14884.61
546.4218, 14891.87
546.9039, 14897.67
547.3860, 14906.46
547.8681, 14912.82
548.3502, 14903.74
548.8323, 14875.44
549.3145, 14842.57
549.7966, 14787.36
550.2787, 14744.05
550.7608, 14736.65
551.2429, 14760.53
551.7250, 14789.74
552.2072, 14812.80
552.6893, 14831.39
553.1714, 14851.48
553.6535, 14873.17
554.1356, 14880.27
554.6177, 14860.77
555.0999, 14827.59
555.5820, 14805.28
556.0641, 14792.34
556.5462, 14790.76
557.0283, 14817.11
557.5104, 14843.66
557.9926, 14839.28
558.4747, 14808.56
558.9568, 14782.95
559.4389, 14786.45
559.9210, 14811.68
560.4031, 14822.42
560.8853, 14815.15
561.3674, 14798.14
561.8495, 14755.10
562.3316, 14716.20
562.8137, 14705.76
563.2958, 14725.61
563.7780, 14760.49
564.2601, 14818.53
564.7422, 14881.69
565.2243, 14885.26
565.7064, 14818.25
566.1885, 14747.94
566.6707, 14703.44
567.1528, 14682.71
567.6349, 14679.83
568.1170, 14706.90
568.5991, 14723.41
569.0812, 14702.94
569.5634, 14671.51
570.0455, 14664.30
570.5276, 14682.91
571.0097, 14698.76
571.4918, 14685.96
571.9739, 14648.59
572.4561, 14632.35
572.9382, 14656.61
573.4203, 14676.56
573.9024, 14685.91
574.3845, 14688.20
574.8666, 14687.07
575.3488, 14683.11
575.8309, 14674.02
576.3130, 14654.37
576.7951, 14627.28
577.2772, 14603.87
577.7593, 14581.79
578.2415, 14574.92
578.7236, 14602.71
579.2057, 14647.79
579.6878, 14666.52
580.1699, 14640.91
580.6520, 14624.41
581.1342, 14647.82
581.6163, 14686.58
582.0984, 14714.26
582.5805, 14725.13
583.0626, 14716.13
583.5447, 14680.73
584.0269, 14622.35
584.5090, 14587.14
584.9911, 14578.70
585.4732, 14591.17
585.9553, 14638.33
586.4374, 14695.70
586.9196, 14745.79
587.4017, 14783.54
587.8838, 14804.58
588.3659, 14786.95
588.8480, 14748.50
589.3301, 14761.92
589.8123, 14841.09
590.2944, 14911.60
590.7765, 14927.25
591.2586, 14907.62
591.7407, 14904.03
592.2228, 14919.13
592.7050, 14943.64
593.1871, 14988.17
593.6692, 15032.86
594.1513, 15045.03
594.6334, 15028.88
595.1155, 15027.83
595.5977, 15079.18
596.0798, 15173.29
596.5619, 15244.21
597.0440, 15266.20
597.5261, 15309.60
598.0082, 15398.85
598.4904, 15502.26
598.9725, 15591.89
599.4546, 15666.56
599.9367, 15750.23
600.4188, 15866.32
600.9009, 16000.45
601.3831, 16118.16
601.8652, 16217.55
602.3473, 16331.07
602.8294, 16479.96
603.3115, 16648.02
603.7936, 16797.87
604.2758, 16912.27
604.7579, 17053.96
605.2400, 17245.37
605.7221, 17455.30
606.2042, 17670.46
606.6863, 17881.80
607.1685, 18069.39
607.6506, 18216.04
608.1327, 18345.61
608.6148, 18536.60
609.0969, 18820.98
609.5790, 19065.28
610.0612, 19214.31
610.5433, 19345.79
611.0254, 19524.43
611.5075, 19737.03
611.9896, 19908.76
612.4717, 20006.98
612.9539, 20050.44
613.4360, 20047.67
613.9181, 20005.36
614.4002, 19954.26
614.8823, 19906.75
615.3644, 19849.01
615.8466, 19759.86
616.3287, 19634.43
616.8108, 19493.29
617.2929, 19299.33
617.7750, 19130.67
618.2571, 19024.33
618.7393, 18965.60
619.2214, 18926.46
619.7035, 18895.60
620.1856, 18881.11
620.6677, 18902.15
621.1498, 18957.80
621.6320, 18994.59
622.1141, 18990.12
622.5962, 19001.85
623.0783, 19082.99
623.5604, 19212.76
624.0425, 19337.87
624.5247, 19477.52
625.0068, 19576.85
625.4889, 19610.21
625.9710, 19588.62
626.4531, 19526.30
626.9352, 19427.02
627.4174, 19289.12
627.8995, 19110.56
628.3816, 18891.08
628.8637, 18650.80
629.3458, 18390.48
629.8279, 18106.99
630.3101, 17776.72
630.7922, 17439.05
631.2743, 17126.03
631.7564, 16842.88
632.2385, 16585.70
632.7206, 16356.97
633.2028, 16150.88
