##NAMES=Boussingaultite
##RRUFFID=R061027
##IDEAL CHEMISTRY=(N^3-^H_4_)_2_Mg(S^6+^O_4_)_2_&#183;6H_2_O
##LOCALITY=Kladno, Bohmen, Czech Republic
##OWNER=RRUFF
##SOURCE=Michael Scott
##DESCRIPTION=White granular aggregates
##STATUS=The identification of this mineral has been made only by X-ray diffraction.
##URL=rruff.info/R061027
189.9883, 24986.18
190.4704, 24994.86
190.9525, 25027.43
191.4346, 25063.91
191.9168, 25093.85
192.3989, 25122.20
192.8810, 25167.81
193.3631, 25255.53
193.8452, 25318.05
194.3273, 25319.07
194.8095, 25296.04
195.2916, 25294.82
195.7737, 25339.66
196.2558, 25412.90
196.7379, 25464.89
197.2200, 25477.97
197.7022, 25499.39
198.1843, 25549.96
198.6664, 25609.14
199.1485, 25652.50
199.6306, 25667.68
200.1127, 25668.25
200.5949, 25690.72
201.0770, 25758.04
201.5591, 25803.79
202.0412, 25804.71
202.5233, 25786.60
203.0054, 25773.36
203.4876, 25774.22
203.9697, 25785.43
204.4518, 25799.49
204.9339, 25815.91
205.4160, 25836.07
205.8981, 25871.82
206.3803, 25904.52
206.8624, 25919.43
207.3445, 25911.39
207.8266, 25881.66
208.3087, 25823.83
208.7908, 25706.30
209.2730, 25634.43
209.7551, 25643.63
210.2372, 25684.54
210.7193, 25727.40
211.2014, 25762.20
211.6835, 25785.64
212.1657, 25786.27
212.6478, 25746.53
213.1299, 25733.30
213.6120, 25781.81
214.0941, 25838.94
214.5762, 25862.46
215.0584, 25845.98
215.5405, 25824.72
216.0226, 25851.15
216.5047, 25944.91
216.9868, 26019.64
217.4689, 26066.16
217.9511, 26094.53
218.4332, 26095.89
218.9153, 26075.47
219.3974, 26064.96
219.8795, 26111.96
220.3616, 26235.80
220.8438, 26322.40
221.3259, 26331.74
221.8080, 26329.18
222.2901, 26345.64
222.7722, 26380.96
223.2543, 26414.86
223.7365, 26425.21
224.2186, 26408.84
224.7007, 26396.00
225.1828, 26391.98
225.6649, 26386.38
226.1470, 26362.85
226.6292, 26330.48
227.1113, 26318.85
227.5934, 26368.86
228.0755, 26478.26
228.5576, 26532.68
229.0397, 26483.30
229.5219, 26427.98
230.0040, 26400.43
230.4861, 26397.56
230.9682, 26408.63
231.4503, 26434.18
231.9324, 26469.06
232.4146, 26475.21
232.8967, 26417.29
233.3788, 26381.85
233.8609, 26412.39
234.3430, 26483.75
234.8251, 26553.71
235.3073, 26601.30
235.7894, 26630.79
236.2715, 26655.82
236.7536, 26680.84
237.2357, 26691.87
237.7178, 26669.95
238.2000, 26637.23
238.6821, 26622.38
239.1642, 26640.08
239.6463, 26676.99
240.1284, 26710.02
240.6105, 26740.62
241.0927, 26763.07
241.5748, 26778.45
242.0569, 26784.31
242.5390, 26772.61
243.0211, 26736.47
243.5032, 26699.53
243.9854, 26702.32
244.4675, 26754.97
244.9496, 26786.10
245.4317, 26752.35
245.9138, 26700.02
246.3959, 26662.04
246.8781, 26643.53
247.3602, 26641.17
247.8423, 26658.05
248.3244, 26694.06
248.8065, 26723.06
249.2886, 26731.31
249.7708, 26736.95
250.2529, 26755.93
250.7350, 26788.72
251.2171, 26824.54
251.6992, 26859.05
252.1813, 26890.80
252.6635, 26911.03
253.1456, 26907.79
253.6277, 26907.41
254.1098, 26938.33
254.5919, 26995.80
255.0740, 27046.44
255.5562, 27076.94
256.0383, 27088.98
256.5204, 27082.51
257.0025, 27051.56
257.4846, 27018.33
257.9667, 27000.68
258.4489, 26995.58
258.9310, 26996.79
259.4131, 27003.72
259.8952, 27015.74
260.3773, 27029.86
260.8594, 27045.28
261.3416, 27072.58
261.8237, 27139.28
262.3058, 27223.35
262.7879, 27260.15
263.2700, 27198.46
263.7521, 27119.77
264.2343, 27090.93
264.7164, 27108.14
265.1985, 27135.04
265.6806, 27160.82
266.1627, 27178.06
266.6448, 27167.76
267.1270, 27101.35
267.6091, 27047.29
268.0912, 27052.30
268.5733, 27098.56
269.0554, 27135.23
269.5375, 27141.85
270.0197, 27128.83
270.5018, 27117.78
270.9839, 27106.97
271.4660, 27100.98
271.9481, 27103.69
272.4302, 27111.01
272.9124, 27119.20
273.3945, 27127.66
273.8766, 27130.22
274.3587, 27114.26
274.8408, 27065.19
275.3229, 27041.53
275.8051, 27054.56
276.2872, 27088.96
276.7693, 27138.87
277.2514, 27200.56
277.7335, 27259.06
278.2156, 27297.90
278.6978, 27312.83
279.1799, 27331.45
279.6620, 27369.56
280.1441, 27396.79
280.6262, 27381.80
281.1083, 27338.00
281.5905, 27309.99
282.0726, 27332.43
282.5547, 27402.01
283.0368, 27462.58
283.5189, 27534.43
284.0010, 27575.59
284.4832, 27554.98
284.9653, 27501.26
285.4474, 27456.67
285.9295, 27442.80
286.4116, 27453.68
286.8937, 27471.62
287.3759, 27522.85
287.8580, 27542.91
288.3401, 27512.10
288.8222, 27458.48
289.3043, 27404.05
289.7864, 27356.83
290.2685, 27316.72
290.7506, 27280.05
291.2328, 27235.77
291.7149, 27226.37
292.1970, 27294.26
292.6791, 27363.14
293.1612, 27382.08
293.6433, 27352.73
294.1255, 27318.13
294.6076, 27325.47
295.0897, 27378.12
295.5718, 27406.08
296.0539, 27383.27
296.5360, 27361.94
297.0182, 27367.24
297.5003, 27390.82
297.9824, 27410.35
298.4645, 27403.23
298.9466, 27384.76
299.4287, 27410.88
299.9109, 27503.84
300.3930, 27592.42
300.8751, 27646.76
301.3572, 27678.40
301.8393, 27700.09
302.3214, 27715.20
302.8036, 27722.54
303.2857, 27712.54
303.7678, 27683.02
304.2499, 27674.40
304.7320, 27716.05
305.2141, 27776.27
305.6963, 27817.51
306.1784, 27835.88
306.6605, 27846.97
307.1426, 27865.59
307.6247, 27885.87
308.1068, 27886.81
308.5890, 27861.15
309.0711, 27820.45
309.5532, 27765.62
310.0353, 27696.97
310.5174, 27659.49
310.9995, 27696.64
311.4817, 27756.13
311.9638, 27768.94
312.4459, 27727.79
312.9280, 27680.66
313.4101, 27670.34
313.8922, 27694.86
314.3744, 27690.44
314.8565, 27612.65
315.3386, 27547.97
315.8207, 27568.20
316.3028, 27645.84
316.7849, 27691.08
317.2671, 27649.96
317.7492, 27548.85
318.2313, 27490.78
318.7134, 27499.18
319.1955, 27517.55
319.6776, 27548.47
320.1598, 27580.92
320.6419, 27596.65
321.1240, 27590.67
321.6061, 27582.26
322.0882, 27604.39
322.5703, 27680.85
323.0525, 27732.54
323.5346, 27733.77
324.0167, 27733.54
324.4988, 27773.92
324.9809, 27846.74
325.4630, 27903.44
325.9452, 27891.88
326.4273, 27810.11
326.9094, 27780.68
327.3915, 27859.96
327.8736, 27933.32
328.3557, 27972.20
328.8379, 27984.79
329.3200, 27985.49
329.8021, 27980.00
330.2842, 27971.54
330.7663, 27968.97
331.2484, 27977.57
331.7306, 27978.83
332.2127, 27961.94
332.6948, 27939.68
333.1769, 27927.29
333.6590, 27928.62
334.1411, 27919.69
334.6233, 27862.46
335.1054, 27762.10
335.5875, 27699.67
336.0696, 27707.80
336.5517, 27732.91
337.0338, 27728.25
337.5160, 27698.06
337.9981, 27668.61
338.4802, 27650.33
338.9623, 27639.89
339.4444, 27629.30
339.9265, 27616.83
340.4087, 27616.87
340.8908, 27650.86
341.3729, 27705.66
341.8550, 27729.80
342.3371, 27684.83
342.8192, 27642.09
343.3014, 27654.03
343.7835, 27702.38
344.2656, 27731.67
344.7477, 27714.65
345.2298, 27674.85
345.7119, 27665.71
346.1941, 27698.63
346.6762, 27737.68
347.1583, 27792.62
347.6404, 27844.49
348.1225, 27870.94
348.6046, 27869.90
349.0868, 27860.01
349.5689, 27861.96
350.0510, 27879.16
350.5331, 27888.56
351.0152, 27869.12
351.4973, 27864.13
351.9795, 27903.62
352.4616, 27970.38
352.9437, 28033.14
353.4258, 28076.21
353.9079, 28092.53
354.3900, 28047.14
354.8722, 27878.56
355.3543, 27755.08
355.8364, 27718.72
356.3185, 27725.69
356.8006, 27746.02
357.2827, 27770.71
357.7649, 27787.31
358.2470, 27777.93
358.7291, 27741.46
359.2112, 27707.12
359.6933, 27681.46
360.1754, 27654.82
360.6576, 27608.92
361.1397, 27553.18
361.6218, 27524.85
362.1039, 27575.30
362.5860, 27654.79
363.0681, 27657.33
363.5503, 27568.45
364.0324, 27498.71
364.5145, 27525.31
364.9966, 27613.05
365.4787, 27675.12
365.9608, 27707.83
366.4430, 27712.16
366.9251, 27665.00
367.4072, 27589.61
367.8893, 27543.00
368.3714, 27544.63
368.8535, 27576.85
369.3357, 27615.96
369.8178, 27666.37
370.2999, 27708.74
370.7820, 27746.64
371.2641, 27772.66
371.7462, 27770.88
372.2283, 27747.48
372.7104, 27733.18
373.1926, 27754.56
373.6747, 27809.31
374.1568, 27848.32
374.6389, 27873.02
375.1210, 27879.40
375.6031, 27843.88
376.0853, 27797.62
376.5674, 27782.66
377.0495, 27815.29
377.5316, 27869.64
378.0137, 27906.31
378.4958, 27928.13
378.9780, 27921.92
379.4601, 27853.67
379.9422, 27782.21
380.4243, 27743.87
380.9064, 27733.82
381.3885, 27716.86
381.8707, 27655.27
382.3528, 27567.07
382.8349, 27520.08
383.3170, 27528.93
383.7991, 27535.97
384.2813, 27494.16
384.7634, 27433.64
385.2455, 27402.48
385.7276, 27420.75
386.2097, 27449.53
386.6918, 27467.67
387.1740, 27473.67
387.6561, 27459.42
388.1382, 27418.81
388.6203, 27365.52
389.1024, 27307.81
389.5845, 27231.88
390.0667, 27219.01
390.5488, 27339.62
391.0309, 27483.05
391.5130, 27553.21
391.9951, 27552.42
392.4772, 27542.37
392.9594, 27567.63
393.4415, 27624.74
393.9236, 27679.19
394.4057, 27751.62
394.8878, 27796.31
395.3699, 27788.46
395.8521, 27756.77
396.3342, 27731.81
396.8163, 27723.57
397.2984, 27723.72
397.7805, 27720.42
398.2626, 27712.11
398.7448, 27706.53
399.2269, 27687.61
399.7090, 27687.97
400.1911, 27749.62
400.6732, 27845.82
401.1553, 27903.38
401.6375, 27872.03
402.1196, 27782.39
402.6017, 27687.05
403.0838, 27582.99
403.5659, 27497.89
404.0480, 27453.39
404.5302, 27431.43
405.0123, 27401.78
405.4944, 27358.06
405.9765, 27325.76
406.4586, 27321.63
406.9407, 27337.49
407.4229, 27360.34
407.9050, 27388.19
408.3871, 27418.67
408.8692, 27454.43
409.3513, 27497.44
409.8334, 27505.04
410.3156, 27438.93
410.7977, 27377.54
411.2798, 27363.42
411.7619, 27380.81
412.2440, 27389.62
412.7261, 27369.26
413.2083, 27341.68
413.6904, 27364.76
414.1725, 27483.97
414.6546, 27566.48
415.1367, 27585.89
415.6188, 27588.35
416.1010, 27602.21
416.5831, 27628.47
417.0652, 27652.41
417.5473, 27664.12
418.0294, 27663.62
418.5115, 27648.55
418.9937, 27613.00
419.4758, 27576.79
419.9579, 27542.13
420.4400, 27515.11
420.9221, 27505.32
421.4042, 27517.81
421.8864, 27539.36
422.3685, 27568.93
422.8506, 27600.29
423.3327, 27611.39
423.8148, 27595.54
424.2969, 27563.64
424.7791, 27521.12
425.2612, 27466.41
425.7433, 27431.54
426.2254, 27439.70
426.7075, 27449.46
427.1896, 27420.44
427.6718, 27370.13
428.1539, 27355.16
428.6360, 27409.75
429.1181, 27500.04
429.6002, 27530.48
430.0823, 27447.53
430.5645, 27388.53
431.0466, 27352.78
431.5287, 27343.45
432.0108, 27379.74
432.4929, 27451.14
432.9750, 27512.58
433.4572, 27522.60
433.9393, 27488.52
434.4214, 27457.28
434.9035, 27421.50
435.3856, 27404.40
435.8677, 27428.46
436.3499, 27471.07
436.8320, 27504.90
437.3141, 27520.68
437.7962, 27541.09
438.2783, 27594.88
438.7604, 27668.52
439.2426, 27715.69
439.7247, 27722.21
440.2068, 27720.25
440.6889, 27742.02
441.1710, 27788.74
441.6531, 27832.62
442.1353, 27865.51
442.6174, 27901.69
443.0995, 27953.40
443.5816, 28013.73
444.0637, 28066.47
444.5458, 28104.14
445.0280, 28133.96
445.5101, 28170.19
445.9922, 28206.69
446.4743, 28262.74
446.9564, 28376.57
447.4385, 28474.96
447.9207, 28500.81
448.4028, 28470.86
448.8849, 28447.01
449.3670, 28473.36
449.8491, 28534.63
450.3312, 28585.08
450.8134, 28622.16
451.2955, 28661.51
451.7776, 28747.86
452.2597, 28813.61
452.7418, 28768.10
453.2239, 28588.65
453.7060, 28417.36
454.1881, 28341.06
454.6703, 28316.21
455.1524, 28265.07
455.6345, 28177.98
456.1166, 28106.51
456.5987, 28096.62
457.0808, 28140.56
457.5630, 28152.08
458.0451, 28114.79
458.5272, 28069.29
459.0093, 28017.86
459.4914, 27966.86
459.9735, 27919.05
460.4557, 27876.91
460.9378, 27848.79
461.4199, 27852.30
461.9020, 27895.51
462.3841, 27906.61
462.8662, 27878.29
463.3484, 27823.69
463.8305, 27726.96
464.3126, 27614.20
464.7947, 27523.47
465.2768, 27470.01
465.7589, 27443.53
466.2411, 27443.86
466.7232, 27467.08
467.2053, 27469.01
467.6874, 27428.93
468.1695, 27384.59
468.6516, 27392.99
469.1338, 27448.69
469.6159, 27461.07
470.0980, 27374.71
470.5801, 27277.26
471.0622, 27233.97
471.5443, 27230.14
472.0265, 27216.78
472.5086, 27169.99
472.9907, 27107.66
473.4728, 27070.71
473.9549, 27085.28
474.4370, 27074.01
474.9192, 27010.52
475.4013, 26948.66
475.8834, 26924.03
476.3655, 26928.79
476.8476, 26932.47
477.3297, 26915.70
477.8119, 26886.46
478.2940, 26863.79
478.7761, 26849.63
479.2582, 26833.04
479.7403, 26810.37
480.2224, 26784.24
480.7046, 26754.98
481.1867, 26722.30
481.6688, 26698.20
482.1509, 26681.58
482.6330, 26679.53
483.1151, 26711.60
483.5973, 26772.80
484.0794, 26822.94
484.5615, 26836.98
485.0436, 26822.20
485.5257, 26804.84
486.0078, 26756.56
486.4900, 26743.46
486.9721, 26803.89
487.4542, 26873.81
487.9363, 26899.63
488.4184, 26880.94
488.9005, 26852.99
489.3827, 26843.59
489.8648, 26849.02
490.3469, 26850.36
490.8290, 26842.99
491.3111, 26843.23
491.7932, 26867.18
492.2754, 26896.25
492.7575, 26918.56
493.2396, 26934.94
493.7217, 26923.28
494.2038, 26836.80
494.6859, 26727.65
495.1681, 26692.84
495.6502, 26738.86
496.1323, 26786.86
496.6144, 26782.78
497.0965, 26737.29
497.5786, 26706.90
498.0608, 26707.99
498.5429, 26701.57
499.0250, 26679.40
499.5071, 26650.09
499.9892, 26616.85
500.4713, 26583.09
500.9535, 26558.36
501.4356, 26554.38
501.9177, 26567.50
502.3998, 26566.45
502.8819, 26540.48
503.3640, 26523.77
503.8462, 26552.99
504.3283, 26584.78
504.8104, 26561.92
505.2925, 26468.76
505.7746, 26400.71
506.2567, 26443.80
506.7389, 26539.26
507.2210, 26583.21
507.7031, 26565.81
508.1852, 26529.47
508.6673, 26499.04
509.1494, 26474.85
509.6316, 26459.42
510.1137, 26450.08
510.5958, 26452.31
511.0779, 26480.22
511.5600, 26511.00
512.0421, 26523.80
512.5242, 26516.88
513.0063, 26502.01
513.4885, 26489.60
513.9706, 26477.77
514.4527, 26452.89
514.9348, 26404.98
515.4169, 26369.71
515.8990, 26371.54
516.3812, 26385.75
516.8633, 26387.80
517.3454, 26374.35
517.8275, 26361.82
518.3096, 26355.68
518.7917, 26356.56
519.2739, 26366.14
519.7560, 26384.18
520.2381, 26410.76
520.7202, 26451.16
521.2023, 26493.52
521.6844, 26497.13
522.1666, 26402.70
522.6487, 26347.58
523.1308, 26362.94
523.6129, 26395.06
524.0950, 26404.36
524.5771, 26391.89
525.0593, 26384.65
525.5414, 26410.53
526.0235, 26446.53
526.5056, 26416.20
526.9877, 26302.92
527.4698, 26213.26
527.9520, 26187.27
528.4341, 26193.66
528.9162, 26199.97
529.3983, 26206.55
529.8804, 26204.75
530.3625, 26177.41
530.8447, 26151.79
531.3268, 26155.57
531.8089, 26184.29
532.2910, 26220.42
532.7731, 26257.08
533.2552, 26288.29
533.7374, 26299.44
534.2195, 26272.59
534.7016, 26264.81
535.1837, 26295.89
535.6658, 26324.59
536.1479, 26331.02
536.6301, 26318.97
537.1122, 26297.94
537.5943, 26267.45
538.0764, 26241.40
538.5585, 26246.01
539.0406, 26277.89
539.5228, 26297.20
540.0049, 26291.00
540.4870, 26279.97
540.9691, 26290.88
541.4512, 26322.21
541.9333, 26327.09
542.4155, 26289.08
542.8976, 26240.19
543.3797, 26184.10
543.8618, 26130.43
544.3439, 26092.05
544.8260, 26072.98
545.3082, 26070.21
545.7903, 26086.94
546.2724, 26126.12
546.7545, 26130.03
547.2366, 26068.20
547.7188, 26017.79
548.2009, 26023.97
548.6830, 26050.34
549.1651, 26046.29
549.6472, 25995.70
550.1293, 25951.18
550.6115, 25947.85
551.0936, 25973.90
551.5757, 26017.73
552.0578, 26076.00
552.5399, 26119.30
553.0220, 26125.26
553.5042, 26101.68
553.9863, 26083.59
554.4684, 26082.92
554.9505, 26071.98
555.4326, 26043.93
555.9147, 26010.09
556.3969, 25972.52
556.8790, 25936.30
557.3611, 25914.08
557.8432, 25916.72
558.3253, 25936.01
558.8074, 25955.13
559.2896, 25974.16
559.7717, 25990.21
560.2538, 25998.69
560.7359, 26008.34
561.2180, 26035.70
561.7001, 26080.06
562.1823, 26107.61
562.6644, 26112.42
563.1465, 26099.24
563.6286, 26055.74
564.1107, 25998.91
564.5928, 25965.67
565.0750, 25968.59
565.5571, 25980.02
566.0392, 25957.48
566.5213, 25894.51
567.0034, 25847.23
567.4855, 25828.11
567.9677, 25807.81
568.4498, 25757.51
568.9319, 25705.57
569.4140, 25699.57
569.8961, 25761.01
570.3782, 25816.00
570.8604, 25810.29
571.3425, 25767.74
571.8246, 25727.20
572.3067, 25693.62
572.7888, 25663.39
573.2709, 25635.31
573.7531, 25607.29
574.2352, 25569.19
574.7173, 25483.27
575.1994, 25445.68
575.6815, 25500.43
576.1636, 25568.36
576.6458, 25599.23
577.1279, 25594.56
577.6100, 25578.01
578.0921, 25553.77
578.5742, 25538.79
579.0563, 25578.03
579.5385, 25666.09
580.0206, 25709.11
580.5027, 25669.39
580.9848, 25611.18
581.4669, 25607.23
581.9490, 25662.27
582.4312, 25692.14
582.9133, 25671.68
583.3954, 25654.17
583.8775, 25677.55
584.3596, 25708.12
584.8417, 25689.48
585.3239, 25613.78
585.8060, 25538.93
586.2881, 25534.00
586.7702, 25588.15
587.2523, 25599.00
587.7344, 25551.57
588.2166, 25506.60
588.6987, 25486.87
589.1808, 25484.17
589.6629, 25489.34
590.1450, 25504.33
590.6271, 25512.69
591.1093, 25513.78
591.5914, 25502.80
592.0735, 25465.33
592.5556, 25411.51
593.0377, 25369.22
593.5198, 25351.28
594.0020, 25352.57
594.4841, 25367.64
594.9662, 25402.22
595.4483, 25425.91
595.9304, 25436.54
596.4125, 25437.54
596.8947, 25422.45
597.3768, 25401.69
597.8589, 25392.99
598.3410, 25402.30
598.8231, 25418.42
599.3052, 25432.59
599.7874, 25449.63
600.2695, 25486.15
600.7516, 25540.37
601.2337, 25576.06
601.7158, 25564.36
602.1979, 25522.06
602.6801, 25514.08
603.1622, 25570.77
603.6443, 25606.70
604.1264, 25602.48
604.6085, 25591.12
605.0906, 25589.37
605.5728, 25596.69
606.0549, 25605.23
606.5370, 25605.71
607.0191, 25615.92
607.5012, 25670.89
607.9833, 25753.61
608.4655, 25797.50
608.9476, 25785.46
609.4297, 25770.22
609.9118, 25806.65
610.3939, 25889.04
610.8760, 25920.49
611.3582, 25855.87
611.8403, 25797.34
612.3224, 25750.27
612.8045, 25718.94
613.2866, 25716.76
613.7687, 25737.19
614.2509, 25748.30
614.7330, 25720.79
615.2151, 25678.78
615.6972, 25665.40
616.1793, 25678.91
616.6614, 25700.20
617.1436, 25728.78
617.6257, 25747.03
618.1078, 25727.97
618.5899, 25665.70
619.0720, 25637.73
619.5541, 25665.46
620.0363, 25698.94
620.5184, 25737.04
621.0005, 25765.68
621.4826, 25763.67
621.9647, 25730.85
622.4468, 25696.57
622.9290, 25690.19
623.4111, 25699.73
623.8932, 25686.94
624.3753, 25650.31
624.8574, 25626.03
625.3395, 25635.12
625.8217, 25649.35
626.3038, 25623.55
626.7859, 25545.09
627.2680, 25498.73
627.7501, 25527.43
628.2322, 25543.39
628.7144, 25498.66
629.1965, 25422.91
629.6786, 25355.34
630.1607, 25308.16
630.6428, 25274.74
631.1249, 25254.70
631.6071, 25243.80
632.0892, 25223.08
632.5713, 25191.93
633.0534, 25152.22
633.5355, 25094.78
634.0176, 25040.12
634.4998, 25030.44
634.9819, 25081.20
635.4640, 25097.66
635.9461, 25041.60
636.4282, 24981.71
636.9103, 24950.89
637.3925, 24940.76
637.8746, 24937.39
638.3567, 24935.44
638.8388, 24930.84
639.3209, 24918.15
639.8030, 24898.46
640.2852, 24878.86
640.7673, 24859.99
641.2494, 24837.61
641.7315, 24807.77
642.2136, 24775.42
642.6957, 24747.71
643.1779, 24721.38
643.6600, 24712.73
644.1421, 24755.52
644.6242, 24784.21
645.1063, 24755.87
645.5884, 24691.22
646.0706, 24619.23
646.5527, 24551.45
647.0348, 24504.42
647.5169, 24513.22
647.9990, 24563.21
648.4811, 24567.09
648.9633, 24514.79
649.4454, 24471.99
649.9275, 24472.79
650.4096, 24496.95
650.8917, 24509.42
651.3738, 24511.89
651.8560, 24496.16
652.3381, 24430.11
652.8202, 24377.42
653.3023, 24383.06
653.7844, 24419.94
654.2665, 24442.26
654.7487, 24435.07
655.2308, 24420.48
655.7129, 24427.44
656.1950, 24446.49
656.6771, 24435.53
657.1592, 24389.95
657.6414, 24356.90
658.1235, 24362.48
658.6056, 24385.95
659.0876, 24393.96
659.5698, 24389.86
660.0519, 24355.48
660.5340, 24240.85
661.0161, 24151.20
661.4982, 24155.93
661.9803, 24203.42
662.4625, 24219.06
662.9446, 24182.61
663.4267, 24130.46
663.9088, 24086.19
664.3909, 24052.51
664.8730, 24040.14
665.3552, 24048.71
665.8373, 24055.94
666.3194, 24053.09
666.8015, 24043.18
667.2836, 24031.56
667.7657, 24020.87
668.2479, 23996.21
668.7300, 23931.83
669.2121, 23885.04
669.6942, 23883.47
670.1763, 23902.56
670.6584, 23918.86
671.1406, 23926.05
671.6227, 23917.37
672.1048, 23870.42
672.5869, 23814.09
673.0690, 23798.58
673.5511, 23817.77
674.0333, 23833.23
674.5154, 23830.56
674.9975, 23828.03
675.4796, 23853.29
675.9617, 23910.67
676.4438, 23935.12
676.9260, 23906.41
677.4081, 23871.99
677.8902, 23830.10
678.3723, 23795.88
678.8544, 23791.23
679.3365, 23813.75
679.8187, 23824.80
680.3008, 23793.38
680.7829, 23753.19
681.2650, 23736.23
681.7471, 23735.35
682.2292, 23735.37
682.7114, 23731.58
683.1935, 23720.45
683.6756, 23697.35
684.1577, 23663.82
684.6398, 23630.05
685.1219, 23588.17
685.6041, 23566.48
686.0862, 23586.84
686.5683, 23615.73
687.0504, 23633.59
687.5325, 23638.29
688.0146, 23619.03
688.4968, 23536.96
