##NAMES=Brackebuschite
##RRUFFID=R100087
##IDEAL CHEMISTRY=Pb^2+^_2_Mn^3+^(V^5+^O_4_)_2_(OH)
##LOCALITY=C & B mine, Hayden, Gila County, Arizona, USA
##OWNER=RRUFF
##SOURCE=Mark Ascher
##DESCRIPTION=Isolated blocky reddish-brown crystals associated with yellow vanadinite
##STATUS=The identification of this mineral has been confirmed only by single crystal X-ray diffraction.
##URL=rruff.info/R100087
91.53320, 2692.648
92.01532, 2677.056
92.49744, 2664.779
92.97955, 2699.175
93.46167, 2739.137
93.94379, 2746.340
94.42590, 2733.582
94.90802, 2712.676
95.39014, 2690.515
95.87225, 2668.508
96.35437, 2641.403
96.83649, 2607.664
97.31860, 2571.087
97.80072, 2534.823
98.28284, 2497.506
98.76495, 2457.265
99.24707, 2417.377
99.72919, 2376.758
100.2113, 2338.456
100.6934, 2303.209
101.1755, 2270.161
101.6577, 2238.278
102.1398, 2206.093
102.6219, 2173.092
103.1040, 2142.417
103.5861, 2114.740
104.0682, 2087.611
104.5504, 2059.247
105.0325, 2029.538
105.5146, 1999.614
105.9967, 1971.140
106.4788, 1944.677
106.9609, 1917.569
107.4431, 1888.544
107.9252, 1858.812
108.4073, 1829.946
108.8894, 1802.206
109.3715, 1775.895
109.8536, 1751.867
110.3358, 1730.077
110.8179, 1708.984
111.3000, 1686.972
111.7821, 1664.337
112.2642, 1644.166
112.7463, 1628.525
113.2285, 1615.642
113.7106, 1603.794
114.1927, 1592.838
114.6748, 1582.661
115.1569, 1573.095
115.6390, 1563.725
116.1212, 1555.949
116.6033, 1550.754
117.0854, 1546.801
117.5675, 1542.548
118.0496, 1536.991
118.5317, 1530.859
119.0139, 1527.773
119.4960, 1530.546
119.9781, 1533.719
120.4602, 1536.730
120.9423, 1539.418
121.4244, 1541.525
121.9066, 1542.675
122.3887, 1542.647
122.8708, 1545.027
123.3529, 1550.147
123.8350, 1556.693
124.3171, 1565.008
124.7993, 1574.667
125.2814, 1583.694
125.7635, 1589.657
126.2456, 1591.494
126.7277, 1596.534
127.2098, 1606.577
127.6920, 1619.093
128.1741, 1631.859
128.6562, 1644.501
129.1383, 1656.777
129.6204, 1668.070
130.1025, 1678.507
130.5847, 1689.138
131.0668, 1699.949
131.5489, 1711.190
132.0310, 1723.864
132.5131, 1739.286
132.9952, 1755.246
133.4774, 1769.748
133.9595, 1782.774
134.4416, 1795.541
134.9237, 1809.431
135.4058, 1824.844
135.8879, 1839.116
136.3701, 1851.274
136.8522, 1862.418
137.3343, 1873.018
137.8164, 1883.275
138.2985, 1893.012
138.7806, 1902.098
139.2628, 1910.748
139.7449, 1918.190
140.2270, 1924.066
140.7091, 1929.098
141.1912, 1933.987
141.6733, 1939.018
142.1555, 1943.955
142.6376, 1947.907
143.1197, 1949.545
143.6018, 1951.570
144.0839, 1954.230
144.5660, 1957.445
145.0482, 1961.050
145.5303, 1964.935
146.0124, 1969.124
146.4945, 1973.958
146.9766, 1979.453
147.4587, 1985.361
147.9409, 1991.891
148.4230, 1998.876
148.9051, 2005.592
149.3872, 2011.530
149.8693, 2016.734
150.3514, 2022.022
150.8336, 2027.213
151.3157, 2032.614
151.7978, 2038.901
152.2799, 2046.331
152.7620, 2053.179
153.2441, 2058.093
153.7263, 2061.541
154.2084, 2064.041
154.6905, 2065.901
155.1726, 2066.881
155.6547, 2066.359
156.1368, 2063.996
156.6190, 2060.584
157.1011, 2056.906
157.5832, 2052.697
158.0653, 2047.315
158.5474, 2039.984
159.0295, 2030.869
159.5117, 2022.190
159.9938, 2014.187
160.4759, 2006.360
160.9580, 1998.650
161.4401, 1990.989
161.9222, 1983.313
162.4044, 1975.593
162.8865, 1967.794
163.3686, 1959.852
163.8507, 1950.865
164.3328, 1942.438
164.8149, 1936.050
165.2971, 1931.286
165.7792, 1926.338
166.2613, 1918.934
166.7434, 1908.016
167.2255, 1897.597
167.7076, 1888.774
168.1898, 1879.627
168.6719, 1868.702
169.1540, 1855.715
169.6361, 1841.762
170.1182, 1828.491
170.6003, 1817.023
171.0825, 1803.084
171.5646, 1786.262
172.0467, 1767.003
172.5288, 1745.467
173.0109, 1721.564
173.4930, 1696.250
173.9752, 1670.630
174.4573, 1644.692
174.9394, 1618.675
175.4215, 1592.227
175.9036, 1565.618
176.3857, 1539.630
176.8679, 1514.095
177.3500, 1489.488
177.8321, 1466.458
178.3142, 1444.961
178.7963, 1423.974
179.2784, 1402.260
179.7606, 1379.985
180.2427, 1360.001
180.7248, 1343.524
181.2069, 1329.511
181.6890, 1317.010
182.1711, 1305.914
182.6533, 1296.189
183.1354, 1287.957
183.6175, 1281.322
184.0996, 1275.388
184.5817, 1269.594
185.0638, 1264.734
185.5460, 1261.301
186.0281, 1259.411
186.5102, 1259.074
186.9923, 1260.692
187.4744, 1265.310
187.9565, 1269.103
188.4387, 1269.361
188.9208, 1270.043
189.4029, 1274.152
189.8850, 1282.582
190.3671, 1293.807
190.8492, 1305.241
191.3314, 1317.115
191.8135, 1328.651
192.2956, 1339.039
192.7777, 1349.429
193.2598, 1360.937
193.7419, 1373.955
194.2241, 1387.961
194.7062, 1401.667
195.1883, 1413.431
195.6704, 1427.008
196.1525, 1443.355
196.6346, 1461.229
197.1168, 1479.228
197.5989, 1496.749
198.0810, 1514.056
198.5631, 1531.937
199.0452, 1550.636
199.5273, 1569.550
200.0095, 1588.430
200.4916, 1607.454
200.9737, 1627.054
201.4558, 1647.570
201.9379, 1668.727
202.4200, 1690.410
202.9022, 1713.610
203.3843, 1735.468
203.8664, 1754.250
204.3485, 1770.839
204.8306, 1787.432
205.3127, 1804.804
205.7949, 1822.967
206.2770, 1841.972
206.7591, 1863.075
207.2412, 1882.553
207.7233, 1897.662
208.2054, 1908.984
208.6876, 1919.707
209.1697, 1931.094
209.6518, 1942.469
210.1339, 1953.201
210.6160, 1963.613
211.0981, 1972.217
211.5803, 1978.086
212.0624, 1981.224
212.5445, 1981.203
213.0266, 1976.539
213.5087, 1969.155
213.9908, 1961.272
214.4730, 1953.556
214.9551, 1943.625
215.4372, 1928.211
215.9193, 1906.407
216.4014, 1884.439
216.8836, 1866.184
217.3657, 1847.055
217.8478, 1823.169
218.3299, 1793.656
218.8120, 1761.405
219.2941, 1730.647
219.7763, 1702.227
220.2584, 1672.507
220.7405, 1639.540
221.2226, 1605.745
221.7047, 1572.472
222.1868, 1540.123
222.6690, 1508.612
223.1511, 1477.853
223.6332, 1447.648
224.1153, 1418.396
224.5974, 1390.682
225.0795, 1363.507
225.5617, 1335.580
226.0438, 1306.739
226.5259, 1278.667
227.0080, 1254.503
227.4901, 1236.999
227.9722, 1218.833
228.4544, 1198.639
228.9365, 1178.475
229.4186, 1159.833
229.9007, 1143.240
230.3828, 1128.593
230.8649, 1116.022
231.3471, 1107.262
231.8292, 1097.823
232.3113, 1086.942
232.7934, 1075.903
233.2755, 1065.652
233.7576, 1056.510
234.2398, 1048.098
234.7219, 1039.896
235.2040, 1031.323
235.6861, 1024.168
236.1682, 1018.609
236.6503, 1014.307
237.1325, 1011.218
237.6146, 1009.294
238.0967, 1008.076
238.5788, 1006.975
239.0609, 1006.286
239.5430, 1004.941
240.0252, 1002.044
240.5073, 998.9011
240.9894, 996.8693
241.4715, 996.2618
241.9536, 996.4151
242.4357, 996.4659
242.9179, 996.3102
243.4000, 996.5727
243.8821, 997.7991
244.3642, 999.2516
244.8463, 1000.058
245.3284, 1000.029
245.8106, 999.7244
246.2927, 999.7797
246.7748, 1000.207
247.2569, 1000.645
247.7390, 1000.947
248.2211, 1001.275
248.7033, 1002.072
249.1854, 1003.517
249.6675, 1004.548
250.1496, 1003.659
250.6317, 1001.159
251.1138, 999.1377
251.5960, 998.0673
252.0781, 997.6808
252.5602, 997.7205
253.0423, 998.2070
253.5244, 998.8768
254.0065, 999.7173
254.4887, 1000.599
254.9708, 1001.084
255.4529, 1000.234
255.9350, 999.2615
256.4171, 1000.019
256.8992, 1002.807
257.3813, 1006.181
257.8635, 1009.319
258.3456, 1012.332
258.8277, 1015.423
259.3098, 1018.316
259.7919, 1021.480
260.2740, 1025.806
260.7562, 1031.574
261.2383, 1037.260
261.7204, 1041.821
262.2025, 1045.823
262.6846, 1050.079
263.1667, 1055.274
263.6489, 1060.257
264.1310, 1063.022
264.6131, 1062.959
265.0952, 1063.326
265.5773, 1066.411
266.0594, 1070.339
266.5416, 1073.381
267.0237, 1074.997
267.5058, 1075.825
267.9879, 1076.540
268.4700, 1077.035
268.9521, 1077.969
269.4343, 1080.177
269.9164, 1082.624
270.3985, 1084.232
270.8806, 1084.638
271.3627, 1085.244
271.8448, 1087.824
272.3270, 1092.628
272.8091, 1098.158
273.2912, 1103.776
273.7733, 1110.247
274.2554, 1118.203
274.7375, 1127.785
275.2197, 1138.457
275.7018, 1149.379
276.1839, 1160.174
276.6660, 1173.357
277.1481, 1191.744
277.6302, 1210.904
278.1124, 1228.035
278.5945, 1243.280
279.0766, 1259.046
279.5587, 1277.777
280.0408, 1299.746
280.5229, 1322.602
281.0051, 1346.682
281.4872, 1371.309
281.9693, 1396.096
282.4514, 1421.099
282.9335, 1446.801
283.4156, 1473.384
283.8978, 1500.844
284.3799, 1529.534
284.8620, 1560.638
285.3441, 1591.866
285.8262, 1621.552
286.3083, 1650.684
286.7905, 1681.494
287.2726, 1715.544
287.7547, 1752.622
288.2368, 1790.186
288.7189, 1828.902
289.2010, 1867.371
289.6832, 1905.002
290.1653, 1941.995
290.6474, 1979.124
291.1295, 2016.787
291.6116, 2054.487
292.0938, 2089.853
292.5759, 2121.275
293.0580, 2152.311
293.5401, 2184.344
294.0222, 2216.211
294.5043, 2246.849
294.9865, 2275.883
295.4686, 2302.575
295.9507, 2324.886
296.4328, 2340.793
296.9149, 2355.512
297.3970, 2370.675
297.8792, 2384.606
298.3613, 2395.624
298.8434, 2403.304
299.3255, 2408.650
299.8076, 2413.242
300.2897, 2417.108
300.7719, 2420.030
301.2540, 2420.435
301.7361, 2421.164
302.2182, 2423.978
302.7003, 2429.173
303.1824, 2435.965
303.6646, 2443.075
304.1467, 2449.465
304.6288, 2460.106
305.1109, 2476.642
305.5930, 2495.743
306.0751, 2515.638
306.5573, 2536.583
307.0394, 2560.165
307.5215, 2588.124
308.0036, 2620.942
308.4857, 2653.483
308.9678, 2682.425
309.4500, 2714.517
309.9321, 2752.817
310.4142, 2795.991
310.8963, 2840.856
311.3784, 2885.365
311.8605, 2929.991
312.3427, 2977.449
312.8248, 3029.091
313.3069, 3082.971
313.7890, 3139.144
314.2711, 3197.223
314.7532, 3257.026
315.2354, 3318.076
315.7175, 3381.211
316.1996, 3448.193
316.6817, 3522.399
317.1638, 3595.879
317.6459, 3666.032
318.1281, 3736.103
318.6102, 3808.742
319.0923, 3884.789
319.5744, 3962.904
320.0565, 4040.749
320.5386, 4117.178
321.0208, 4195.880
321.5029, 4280.796
321.9850, 4364.596
322.4671, 4443.430
322.9492, 4516.804
323.4313, 4585.813
323.9135, 4652.748
324.3956, 4718.155
324.8777, 4777.977
325.3598, 4833.575
325.8419, 4882.426
326.3240, 4924.224
326.8062, 4958.536
327.2883, 4985.183
327.7704, 5004.138
328.2525, 5015.374
328.7346, 5019.181
329.2167, 5012.462
329.6989, 5000.919
330.1810, 4986.342
330.6631, 4967.937
331.1452, 4944.076
331.6273, 4913.602
332.1094, 4878.077
332.5916, 4842.494
333.0737, 4808.907
333.5558, 4771.429
334.0379, 4726.907
334.5200, 4679.726
335.0021, 4634.114
335.4843, 4591.312
335.9664, 4550.458
336.4485, 4511.483
336.9306, 4476.618
337.4127, 4436.447
337.8948, 4386.782
338.3770, 4334.187
338.8591, 4282.647
339.3412, 4232.141
339.8233, 4180.318
340.3055, 4125.108
340.7876, 4066.939
341.2697, 4003.172
341.7518, 3931.531
342.2339, 3856.271
342.7160, 3777.922
343.1982, 3697.141
343.6803, 3614.722
344.1624, 3531.085
344.6445, 3446.274
345.1266, 3360.117
345.6087, 3270.603
346.0909, 3183.218
346.5730, 3099.390
347.0551, 3018.343
347.5372, 2939.616
348.0193, 2862.082
348.5014, 2787.029
348.9836, 2715.403
349.4657, 2647.146
349.9478, 2583.691
350.4299, 2525.586
350.9120, 2472.217
351.3941, 2423.873
351.8763, 2380.640
352.3584, 2341.818
352.8405, 2307.881
353.3226, 2278.800
353.8047, 2250.651
354.2868, 2221.811
354.7690, 2195.224
355.2511, 2172.242
355.7332, 2152.781
356.2153, 2136.617
356.6974, 2124.856
357.1795, 2116.462
357.6617, 2107.112
358.1438, 2095.800
358.6259, 2085.711
359.1080, 2078.791
359.5901, 2074.180
360.0722, 2070.804
360.5544, 2069.000
361.0365, 2067.438
361.5186, 2064.007
362.0007, 2058.502
362.4828, 2052.854
362.9649, 2048.221
363.4471, 2043.567
363.9292, 2037.905
364.4113, 2031.225
364.8934, 2023.028
365.3755, 2012.722
365.8576, 2000.474
366.3398, 1987.306
366.8219, 1973.630
367.3040, 1958.617
367.7861, 1941.079
368.2682, 1921.262
368.7503, 1901.187
369.2325, 1882.017
369.7146, 1862.890
370.1967, 1841.880
370.6788, 1818.392
371.1609, 1795.360
371.6430, 1775.310
372.1252, 1757.622
372.6073, 1740.625
373.0894, 1724.509
373.5715, 1708.755
374.0536, 1692.411
374.5357, 1675.881
375.0179, 1661.274
375.5000, 1650.093
375.9821, 1641.326
376.4642, 1632.369
376.9463, 1623.094
377.4284, 1614.034
377.9106, 1605.641
378.3927, 1597.575
378.8748, 1589.486
379.3569, 1581.374
379.8390, 1572.583
380.3211, 1562.353
380.8033, 1550.737
381.2854, 1536.901
381.7675, 1520.350
382.2496, 1501.960
382.7317, 1481.825
383.2138, 1460.195
383.6960, 1438.273
384.1781, 1416.958
384.6602, 1396.180
385.1423, 1373.628
385.6244, 1349.365
386.1065, 1323.609
386.5887, 1295.928
387.0708, 1267.006
387.5529, 1237.689
388.0350, 1208.292
388.5171, 1178.961
388.9992, 1149.898
389.4814, 1121.389
389.9635, 1092.833
390.4456, 1063.252
390.9277, 1034.258
391.4098, 1007.027
391.8919, 981.8391
392.3741, 958.1604
392.8562, 935.6877
393.3383, 914.5363
393.8204, 893.0513
394.3025, 869.6736
394.7846, 847.5651
395.2668, 828.0722
395.7489, 810.5498
396.2310, 793.6951
396.7131, 776.7136
397.1952, 759.8823
397.6773, 744.0864
398.1595, 729.5566
398.6416, 715.7117
399.1237, 702.6436
399.6058, 690.0111
400.0879, 677.3475
400.5700, 664.6052
401.0522, 652.4037
401.5343, 641.3204
402.0164, 631.4420
402.4985, 622.5073
402.9806, 615.0959
403.4627, 608.1485
403.9449, 601.2289
404.4270, 594.4042
404.9091, 587.9224
405.3912, 581.9456
405.8733, 576.4063
406.3554, 571.1987
406.8376, 566.3755
407.3197, 561.6525
407.8018, 556.4393
408.2839, 551.4834
408.7660, 547.7399
409.2481, 545.5020
409.7303, 543.9150
410.2124, 542.3383
410.6945, 540.7491
411.1766, 538.6385
411.6587, 535.4293
412.1408, 532.2750
412.6230, 530.1999
413.1051, 529.1183
413.5872, 528.4999
414.0693, 528.2262
414.5514, 528.2403
415.0335, 528.6851
415.5157, 529.6498
415.9978, 530.0959
416.4799, 528.9406
416.9620, 526.8037
417.4441, 525.6615
417.9262, 526.1740
418.4084, 526.9038
418.8905, 526.9692
419.3726, 526.6192
419.8547, 526.4930
420.3368, 526.8135
420.8189, 527.4388
421.3011, 528.3288
421.7832, 529.8025
422.2653, 530.1957
422.7474, 528.4212
423.2295, 526.1096
423.7116, 524.6010
424.1938, 523.9932
424.6759, 523.7388
425.1580, 523.4504
425.6401, 523.1272
426.1222, 522.7448
426.6043, 522.7186
427.0865, 522.1625
427.5686, 520.4286
428.0507, 518.1577
428.5328, 516.2159
429.0149, 514.9323
429.4970, 514.0691
429.9792, 513.2078
430.4613, 512.2872
430.9434, 511.4965
431.4255, 511.2379
431.9076, 510.7409
432.3897, 509.6183
432.8719, 507.8606
433.3540, 505.5334
433.8361, 502.5148
434.3182, 499.0212
434.8003, 496.6222
435.2824, 495.8967
435.7646, 495.4715
436.2467, 495.2248
436.7288, 494.9614
437.2109, 494.4220
437.6930, 493.5216
438.1751, 492.5634
438.6573, 492.0061
439.1394, 491.8963
439.6215, 491.4627
440.1036, 489.9794
440.5857, 488.8690
441.0678, 489.2207
441.5500, 490.7414
442.0321, 492.2800
442.5142, 493.2787
442.9963, 493.9226
443.4784, 494.4982
443.9605, 494.9846
444.4427, 495.5572
444.9248, 496.2433
445.4069, 497.1148
445.8890, 498.2416
446.3711, 499.6297
446.8532, 501.2780
447.3354, 503.3761
447.8175, 505.7096
448.2996, 507.8242
448.7817, 509.6164
449.2638, 511.1893
449.7459, 512.6771
450.2281, 514.0747
450.7102, 515.0500
451.1923, 515.4257
451.6744, 515.5202
452.1565, 515.6417
452.6386, 515.6606
453.1208, 515.1562
453.6029, 513.8877
454.0850, 512.0252
454.5671, 510.0449
455.0492, 508.5901
455.5313, 506.0551
456.0135, 502.1347
456.4956, 497.3272
456.9777, 491.4431
457.4598, 484.8222
457.9419, 478.8164
458.4240, 475.0622
458.9062, 473.6381
459.3883, 469.2782
459.8704, 459.0544
460.3525, 448.9891
460.8346, 440.1021
461.3167, 432.2133
461.7989, 425.2099
462.2810, 419.0323
462.7631, 413.0908
463.2452, 406.3128
463.7273, 398.4699
464.2094, 391.1414
464.6916, 384.7949
465.1737, 378.7807
465.6558, 372.8503
466.1379, 366.9591
466.6200, 360.9259
467.1021, 354.2664
467.5843, 347.5678
468.0664, 342.1971
468.5485, 338.2858
469.0306, 334.6314
469.5127, 330.9571
469.9948, 327.0566
470.4770, 322.5556
470.9591, 317.1639
471.4412, 312.2328
471.9233, 308.7029
472.4054, 306.0219
472.8875, 303.0995
473.3697, 299.7072
473.8518, 296.6924
474.3339, 295.0750
474.8160, 294.8237
475.2981, 293.4466
475.7802, 289.9266
476.2624, 286.3901
476.7445, 283.6693
477.2266, 281.6107
477.7087, 280.0145
478.1908, 278.7960
478.6729, 277.6322
479.1551, 275.9098
479.6372, 273.1819
480.1193, 270.9286
480.6014, 269.1853
481.0835, 267.8021
481.5656, 266.8600
482.0478, 266.2208
482.5299, 265.6082
483.0120, 264.8628
483.4941, 263.9695
483.9762, 262.8871
484.4583, 261.5742
484.9405, 260.1518
485.4226, 258.4684
485.9047, 256.8096
486.3868, 255.4024
486.8689, 254.2749
487.3510, 253.3389
487.8332, 252.6759
488.3153, 252.1854
488.7974, 251.3142
489.2795, 249.9413
489.7616, 248.4372
490.2437, 246.9124
490.7259, 245.4248
491.2080, 244.0747
491.6901, 242.9728
492.1722, 241.8463
492.6543, 240.5996
493.1364, 239.1812
493.6186, 237.3184
494.1007, 234.8133
494.5828, 232.3377
495.0649, 230.7210
495.5470, 230.0638
496.0291, 229.2300
496.5113, 228.2152
496.9934, 226.9809
497.4755, 225.5962
497.9576, 223.9731
498.4397, 221.7375
498.9218, 218.6780
499.4040, 215.3587
499.8861, 213.1223
500.3682, 212.8483
500.8503, 212.0896
501.3324, 210.6389
501.8145, 208.9382
502.2967, 207.1468
502.7788, 205.3348
503.2609, 203.5937
503.7430, 202.0125
504.2251, 200.5056
504.7072, 198.7007
505.1894, 196.3437
505.6715, 194.2576
506.1536, 192.7841
506.6357, 191.5659
507.1178, 190.4038
507.5999, 189.2579
508.0821, 188.0598
508.5642, 186.7169
509.0463, 185.2871
509.5284, 183.8792
510.0105, 182.4575
510.4926, 181.2818
510.9748, 180.7859
511.4569, 180.5845
511.9390, 179.7408
512.4211, 177.8514
512.9032, 175.9768
513.3853, 174.7625
513.8674, 173.8779
514.3495, 172.7241
514.8317, 171.1574
515.3138, 169.5512
515.7959, 168.2888
516.2780, 167.3924
516.7601, 166.4598
517.2422, 165.1765
517.7244, 164.2073
518.2065, 164.2830
518.6886, 164.6440
519.1707, 164.0425
519.6528, 162.0821
520.1349, 159.6680
520.6171, 158.2479
521.0992, 158.1393
521.5813, 157.7325
522.0634, 156.6766
522.5455, 155.6629
523.0276, 154.9867
523.5098, 154.5257
523.9919, 154.0421
524.4740, 153.4335
524.9561, 152.7426
525.4382, 151.9344
525.9203, 151.0066
526.4025, 150.3833
526.8846, 150.3473
527.3667, 150.4057
527.8488, 150.1190
528.3309, 149.5161
528.8130, 148.7208
529.2952, 147.4944
529.7773, 146.3010
530.2594, 145.6866
530.7415, 145.5271
531.2236, 145.1954
531.7057, 144.3812
532.1879, 143.3460
532.6700, 142.5891
533.1521, 142.2058
533.6342, 141.9052
534.1163, 141.8054
534.5984, 141.6850
535.0806, 141.4609
535.5627, 141.0923
536.0448, 140.4550
536.5269, 139.4360
537.0090, 138.2601
537.4911, 137.6535
537.9733, 137.8681
538.4554, 138.0958
538.9375, 138.4837
539.4196, 138.6586
539.9017, 138.3389
540.3839, 137.5665
540.8660, 136.5876
541.3481, 135.3172
541.8302, 134.0807
542.3123, 133.7995
542.7944, 134.6113
543.2766, 135.1609
543.7587, 134.7926
544.2408, 133.9868
544.7229, 133.3952
545.2050, 133.0067
545.6871, 132.8820
546.1693, 133.2163
546.6514, 133.7199
547.1335, 134.2628
547.6156, 134.7426
548.0977, 134.6682
548.5798, 133.6392
549.0620, 131.9980
549.5441, 130.9097
550.0262, 130.7479
550.5083, 130.6797
550.9904, 130.9155
551.4725, 131.0809
551.9547, 130.8411
552.4368, 130.2420
552.9189, 129.5341
553.4010, 128.8401
553.8831, 128.2594
554.3652, 128.3484
554.8474, 129.6078
555.3295, 130.2703
555.8116, 129.1942
556.2937, 127.8323
556.7758, 127.2525
557.2579, 127.4943
557.7401, 127.8334
558.2222, 127.8143
558.7043, 127.6342
559.1864, 127.7213
559.6685, 128.0873
560.1506, 128.2063
560.6328, 127.7267
561.1149, 126.9352
561.5970, 126.4499
562.0791, 126.3137
562.5612, 126.2667
563.0433, 126.3819
563.5255, 126.4769
564.0076, 126.4001
564.4897, 126.1540
564.9718, 125.7739
565.4539, 125.2521
565.9360, 124.7115
566.4182, 124.6045
566.9003, 125.3061
567.3824, 125.7352
567.8645, 125.6682
568.3466, 125.4698
568.8287, 125.3782
569.3109, 125.3699
569.7930, 125.2725
570.2751, 124.9430
570.7572, 124.4940
571.2393, 124.1522
571.7214, 123.9208
572.2036, 123.7534
572.6857, 123.5827
573.1678, 123.5363
573.6499, 123.9533
574.1320, 124.8184
574.6141, 125.1318
575.0963, 124.0548
575.5784, 122.7645
576.0605, 122.2610
576.5426, 122.4368
577.0247, 122.8547
577.5068, 123.3522
577.9890, 123.7590
578.4711, 123.7066
578.9532, 122.8093
579.4353, 122.4511
579.9174, 122.9605
580.3995, 123.6086
580.8817, 124.1729
581.3638, 124.5920
581.8459, 124.8106
582.3280, 124.7970
582.8101, 124.6167
583.2922, 124.3333
583.7744, 123.9347
584.2565, 123.5873
584.7386, 123.1730
585.2207, 123.0175
585.7029, 123.5555
586.1850, 124.5141
586.6671, 125.1968
587.1492, 125.4050
587.6313, 125.3379
588.1135, 124.9014
