##NAMES=Brackebuschite
##RRUFFID=R100087
##IDEAL CHEMISTRY=Pb^2+^_2_Mn^3+^(V^5+^O_4_)_2_(OH)
##LOCALITY=C & B mine, Hayden, Gila County, Arizona, USA
##OWNER=RRUFF
##SOURCE=Mark Ascher
##DESCRIPTION=Isolated blocky reddish-brown crystals associated with yellow vanadinite
##STATUS=The identification of this mineral has been confirmed only by single crystal X-ray diffraction.
##URL=rruff.info/R100087
116.0444, 24.40185
116.5265, 25.07831
117.0086, 25.34305
117.4907, 25.37520
117.9728, 25.14683
118.4550, 24.65115
118.9371, 24.23649
119.4192, 24.12979
119.9013, 24.17683
120.3834, 24.18290
120.8655, 23.91745
121.3477, 23.67808
121.8298, 23.71354
122.3119, 24.08160
122.7940, 24.50650
123.2761, 24.86569
123.7582, 25.14171
124.2404, 25.29576
124.7225, 25.03469
125.2046, 24.73448
125.6867, 24.91938
126.1688, 25.78712
126.6509, 26.85130
127.1331, 27.57381
127.6152, 28.01464
128.0973, 28.47192
128.5794, 28.97017
129.0615, 29.63114
129.5436, 30.80438
130.0258, 32.76231
130.5079, 35.05305
130.9900, 36.68830
131.4721, 37.65487
131.9542, 38.97860
132.4363, 41.69261
132.9185, 45.64552
133.4006, 49.77099
133.8827, 53.67686
134.3648, 57.52937
134.8469, 62.10146
135.3290, 67.35433
135.8112, 73.52750
136.2933, 80.86476
136.7754, 89.41753
137.2575, 98.76881
137.7396, 108.8323
138.2217, 119.4421
138.7039, 131.0914
139.1860, 143.9713
139.6681, 157.6252
140.1502, 171.7926
140.6323, 186.5133
141.1144, 201.1452
141.5966, 215.3355
142.0787, 228.7548
142.5608, 242.9755
143.0429, 258.3408
143.5250, 274.2779
144.0071, 289.3235
144.4893, 302.8448
144.9714, 316.2921
145.4535, 329.9977
145.9356, 343.5457
146.4177, 358.5150
146.8998, 375.4189
147.3820, 393.8517
147.8641, 412.8535
148.3462, 431.5770
148.8283, 451.4227
149.3104, 473.4302
149.7925, 499.3725
150.2747, 525.0222
150.7568, 549.3337
151.2389, 572.4856
151.7210, 596.7365
152.2031, 623.3531
152.6852, 650.0443
153.1674, 675.6840
153.6495, 699.5168
154.1316, 722.7960
154.6137, 746.4527
155.0958, 770.5424
155.5779, 791.6233
156.0601, 808.0596
156.5422, 821.9241
157.0243, 834.7820
157.5064, 846.6766
157.9885, 857.8215
158.4706, 867.8627
158.9528, 876.5928
159.4349, 886.0522
159.9170, 897.6171
160.3991, 909.9361
160.8812, 921.4472
161.3633, 929.5682
161.8455, 938.4947
162.3276, 950.5438
162.8097, 966.3679
163.2918, 982.3050
163.7739, 996.5085
164.2560, 1008.740
164.7382, 1014.040
165.2203, 1019.132
165.7024, 1024.317
166.1845, 1028.023
166.6666, 1029.382
167.1487, 1031.595
167.6309, 1037.307
168.1130, 1045.193
168.5951, 1052.355
169.0772, 1058.118
169.5593, 1062.318
170.0414, 1064.766
170.5236, 1065.325
171.0057, 1064.477
171.4878, 1063.053
171.9699, 1060.647
172.4520, 1056.048
172.9341, 1047.484
173.4163, 1036.755
173.8984, 1026.001
174.3805, 1015.828
174.8626, 1005.418
175.3447, 993.1068
175.8268, 979.3309
176.3090, 966.1266
176.7911, 955.5862
177.2732, 946.4754
177.7553, 936.7472
178.2374, 925.0725
178.7195, 913.3981
179.2017, 904.3859
179.6838, 897.7687
180.1659, 891.9728
180.6480, 885.3630
181.1301, 878.5924
181.6122, 873.0896
182.0944, 869.6132
182.5765, 867.3600
183.0586, 864.6441
183.5407, 861.5211
184.0228, 859.2054
184.5049, 858.7967
184.9871, 860.1176
185.4692, 862.6049
185.9513, 866.3865
186.4334, 871.0892
186.9155, 875.8947
187.3976, 880.7481
187.8798, 886.0817
188.3619, 892.2939
188.8440, 899.4012
189.3261, 907.1045
189.8082, 915.1730
190.2903, 923.8049
190.7725, 933.8882
191.2546, 945.6417
191.7367, 958.3746
192.2188, 971.5471
192.7009, 985.2686
193.1830, 999.4552
193.6652, 1013.745
194.1473, 1028.444
194.6294, 1044.739
195.1115, 1062.732
195.5936, 1081.949
196.0757, 1102.010
196.5579, 1122.935
197.0400, 1144.078
197.5221, 1164.853
198.0042, 1185.280
198.4863, 1207.475
198.9684, 1231.628
199.4506, 1256.961
199.9327, 1281.974
200.4148, 1306.720
200.8969, 1331.655
201.3790, 1357.055
201.8611, 1382.788
202.3433, 1409.562
202.8254, 1437.421
203.3075, 1466.326
203.7896, 1495.988
204.2717, 1526.696
204.7538, 1557.318
205.2360, 1587.797
205.7181, 1618.345
206.2002, 1646.184
206.6823, 1670.189
207.1644, 1692.811
207.6465, 1719.158
208.1287, 1750.039
208.6108, 1780.898
209.0929, 1810.243
209.5750, 1838.556
210.0571, 1863.315
210.5392, 1884.225
211.0214, 1902.187
211.5035, 1919.150
211.9856, 1935.311
212.4677, 1949.643
212.9498, 1961.915
213.4319, 1972.301
213.9140, 1979.619
214.3962, 1983.928
214.8783, 1985.126
215.3604, 1983.129
215.8425, 1978.224
216.3246, 1969.398
216.8067, 1955.947
217.2889, 1937.624
217.7710, 1915.769
218.2531, 1889.677
218.7352, 1860.436
219.2173, 1829.987
219.6994, 1798.169
220.1816, 1765.156
220.6637, 1730.391
221.1458, 1693.324
221.6279, 1655.828
222.1100, 1617.597
222.5921, 1579.006
223.0743, 1539.741
223.5564, 1499.886
224.0385, 1459.712
224.5206, 1419.984
225.0027, 1379.529
225.4848, 1341.309
225.9670, 1305.876
226.4491, 1272.901
226.9312, 1240.953
227.4133, 1210.423
227.8954, 1180.566
228.3775, 1151.507
228.8597, 1122.012
229.3418, 1095.142
229.8239, 1071.548
230.3060, 1050.296
230.7881, 1029.689
231.2702, 1009.801
231.7524, 989.9418
232.2345, 969.7535
232.7166, 947.5809
233.1987, 928.2140
233.6808, 912.4081
234.1629, 899.2895
234.6451, 886.3270
235.1272, 873.5983
235.6093, 861.1005
236.0914, 848.7145
236.5735, 835.8610
237.0556, 824.5867
237.5378, 815.4775
238.0199, 807.8063
238.5020, 799.7048
238.9841, 790.6014
239.4662, 781.8011
239.9483, 773.8275
240.4305, 767.0012
240.9126, 760.3680
241.3947, 753.5978
241.8768, 747.1013
242.3589, 741.9905
242.8410, 738.8829
243.3232, 736.1823
243.8053, 733.2862
244.2874, 730.1517
244.7695, 726.8519
245.2516, 723.2134
245.7337, 719.4547
246.2159, 716.0716
246.6980, 713.1680
247.1801, 710.4827
247.6622, 707.8802
248.1443, 705.2767
248.6264, 703.0092
249.1086, 701.1420
249.5907, 699.5731
250.0728, 698.0420
250.5549, 696.3046
251.0370, 695.0172
251.5191, 694.5645
252.0013, 695.3598
252.4834, 695.5729
252.9655, 695.0230
253.4476, 693.9820
253.9297, 692.8416
254.4118, 691.2443
254.8940, 690.2153
255.3761, 690.2184
255.8582, 691.5287
256.3403, 692.7534
256.8224, 693.7341
257.3046, 694.7579
257.7867, 696.3632
258.2688, 698.9246
258.7509, 701.3259
259.2330, 703.0851
259.7151, 704.0399
260.1973, 705.4794
260.6794, 707.5275
261.1615, 709.9305
261.6436, 712.2108
262.1257, 714.1851
262.6078, 716.5598
263.0900, 719.8268
263.5721, 724.2419
264.0542, 727.0950
264.5363, 727.7594
265.0184, 727.6242
265.5005, 728.8076
265.9827, 732.1770
266.4648, 734.2237
266.9469, 733.4738
267.4290, 729.8425
267.9111, 727.6596
268.3932, 727.6315
268.8754, 727.9726
269.3575, 726.5589
269.8396, 722.9459
270.3217, 719.1355
270.8038, 715.4700
271.2859, 711.9469
271.7681, 709.0361
272.2502, 706.7313
272.7323, 705.0590
273.2144, 704.1122
273.6965, 703.9073
274.1786, 704.2862
274.6608, 705.2145
275.1429, 706.7001
275.6250, 708.6251
276.1071, 710.7260
276.5892, 714.0035
277.0714, 719.6526
277.5535, 727.9500
278.0356, 736.2029
278.5177, 743.6337
278.9998, 750.7195
279.4819, 759.4882
279.9641, 770.2186
280.4462, 781.8586
280.9283, 793.6902
281.4104, 805.6075
281.8925, 818.0600
282.3746, 831.1096
282.8568, 844.7413
283.3389, 858.7203
283.8210, 872.9515
284.3031, 888.2396
284.7852, 905.7921
285.2673, 925.2985
285.7495, 943.7989
286.2316, 960.4006
286.7137, 976.5305
287.1958, 995.3542
287.6779, 1016.919
288.1600, 1039.284
288.6422, 1061.307
289.1243, 1083.251
289.6064, 1105.376
290.0885, 1127.960
290.5706, 1150.809
291.0527, 1173.670
291.5349, 1196.546
292.0170, 1219.510
292.4991, 1243.211
292.9812, 1267.143
293.4633, 1288.526
293.9454, 1307.268
294.4276, 1323.973
294.9097, 1338.863
295.3918, 1352.126
295.8739, 1364.407
296.3560, 1376.084
296.8381, 1386.947
297.3203, 1396.633
297.8024, 1405.227
298.2845, 1411.448
298.7666, 1413.606
299.2487, 1412.163
299.7308, 1408.612
300.2130, 1402.902
300.6951, 1395.683
301.1772, 1387.932
301.6593, 1379.695
302.1414, 1370.793
302.6235, 1360.280
303.1057, 1349.087
303.5878, 1339.393
304.0699, 1332.736
304.5520, 1327.166
305.0341, 1320.044
305.5162, 1311.636
305.9984, 1303.890
306.4805, 1298.186
306.9626, 1294.066
307.4447, 1291.009
307.9268, 1288.816
308.4089, 1287.610
308.8911, 1287.624
309.3732, 1288.742
309.8553, 1290.528
310.3374, 1292.266
310.8195, 1294.744
311.3016, 1298.747
311.7838, 1304.533
312.2659, 1311.637
312.7480, 1320.227
313.2301, 1329.891
313.7122, 1339.752
314.1943, 1349.009
314.6765, 1358.698
315.1586, 1369.472
315.6407, 1381.286
316.1228, 1394.583
316.6049, 1409.714
317.0870, 1426.431
317.5692, 1444.072
318.0513, 1463.957
318.5334, 1483.591
319.0155, 1501.086
319.4976, 1515.958
319.9797, 1532.212
320.4619, 1552.037
320.9440, 1573.687
321.4261, 1594.943
321.9082, 1616.475
322.3903, 1636.560
322.8724, 1654.464
323.3546, 1670.150
323.8367, 1684.963
324.3188, 1699.918
324.8009, 1713.782
325.2830, 1725.459
325.7651, 1734.667
326.2473, 1742.089
326.7294, 1748.366
327.2115, 1753.288
327.6936, 1754.995
328.1757, 1753.430
328.6578, 1748.593
329.1400, 1740.434
329.6221, 1727.968
330.1042, 1713.653
330.5863, 1697.355
331.0684, 1679.102
331.5505, 1659.336
332.0327, 1637.262
332.5148, 1614.373
332.9969, 1591.058
333.4790, 1567.956
333.9611, 1543.780
334.4432, 1517.755
334.9254, 1490.983
335.4075, 1465.714
335.8896, 1442.062
336.3717, 1419.273
336.8538, 1397.368
337.3359, 1376.173
337.8180, 1355.831
338.3001, 1336.521
338.7823, 1317.862
339.2644, 1299.600
339.7465, 1281.427
340.2286, 1264.596
340.7107, 1249.925
341.1928, 1236.888
341.6750, 1223.156
342.1571, 1208.233
342.6392, 1193.707
343.1213, 1180.880
343.6034, 1169.872
344.0855, 1158.764
344.5677, 1147.132
345.0498, 1135.442
345.5319, 1125.148
346.0140, 1116.269
346.4961, 1108.222
346.9782, 1101.276
347.4604, 1095.012
347.9425, 1087.110
348.4246, 1076.597
348.9067, 1066.504
349.3888, 1061.363
349.8709, 1060.658
350.3531, 1061.480
350.8352, 1063.191
351.3173, 1065.261
351.7994, 1066.293
352.2815, 1066.112
352.7636, 1066.469
353.2458, 1068.892
353.7279, 1073.107
354.2100, 1078.536
354.6921, 1085.213
355.1742, 1092.773
355.6563, 1101.057
356.1385, 1110.000
356.6206, 1119.336
357.1027, 1128.477
357.5848, 1138.021
358.0669, 1148.870
358.5490, 1161.709
359.0312, 1175.142
359.5133, 1188.909
359.9954, 1202.718
360.4775, 1215.875
360.9596, 1228.844
361.4417, 1240.492
361.9239, 1249.886
362.4060, 1256.175
362.8881, 1262.262
363.3702, 1270.723
363.8523, 1279.382
364.3344, 1284.907
364.8166, 1285.679
365.2987, 1283.770
365.7808, 1280.194
366.2629, 1275.203
366.7450, 1266.982
367.2271, 1254.539
367.7093, 1239.129
368.1914, 1221.862
368.6735, 1202.748
369.1556, 1181.729
369.6377, 1158.773
370.1198, 1133.889
370.6020, 1108.388
371.0841, 1080.347
371.5662, 1053.365
372.0483, 1029.853
372.5304, 1012.221
373.0125, 993.0013
373.4947, 970.9824
373.9768, 947.8530
374.4589, 927.2930
374.9410, 909.7186
375.4231, 893.8010
375.9052, 879.1993
376.3874, 866.0530
376.8695, 852.6180
377.3516, 838.4381
377.8337, 824.5141
378.3158, 811.7039
378.7979, 800.0280
379.2801, 788.9980
379.7622, 778.3434
380.2443, 768.2031
380.7264, 758.9788
381.2085, 750.8434
381.6906, 742.6810
382.1728, 733.6055
382.6549, 723.6215
383.1370, 713.2157
383.6191, 702.1237
384.1012, 691.0742
384.5833, 681.4051
385.0655, 672.9064
385.5476, 664.1199
386.0297, 653.6981
386.5118, 642.4163
386.9939, 631.4357
387.4760, 620.9334
387.9582, 610.6124
388.4403, 599.6815
388.9224, 588.6186
389.4045, 578.4907
389.8866, 570.5555
390.3687, 563.0482
390.8509, 554.3953
391.3330, 544.7341
391.8151, 535.2510
392.2972, 526.6227
392.7793, 518.6199
393.2614, 511.0015
393.7436, 503.8652
394.2257, 497.0210
394.7078, 490.6860
395.1899, 484.6678
395.6720, 478.4590
396.1541, 471.5014
396.6363, 464.6410
397.1184, 458.2622
397.6005, 452.4413
398.0826, 446.9999
398.5647, 442.1124
399.0468, 437.5239
399.5290, 432.9249
400.0111, 428.0992
400.4932, 423.4752
400.9753, 419.1197
401.4574, 415.0149
401.9395, 411.1468
402.4217, 407.4261
402.9038, 403.9930
403.3859, 400.9632
403.8680, 398.4551
404.3501, 396.0487
404.8322, 393.7221
405.3144, 391.4842
405.7965, 389.5049
406.2786, 387.9046
406.7607, 386.1235
407.2428, 383.7437
407.7249, 380.7204
408.2071, 378.3248
408.6892, 376.6301
409.1713, 375.2965
409.6534, 373.9086
410.1355, 372.4821
410.6176, 371.2233
411.0998, 370.2709
411.5819, 369.4654
412.0640, 368.3295
412.5461, 366.8896
413.0282, 365.5640
413.5103, 364.6194
413.9925, 364.0415
414.4746, 363.9028
414.9567, 364.3716
415.4388, 364.8125
415.9209, 364.4984
416.4030, 363.6353
416.8852, 362.7246
417.3673, 361.7436
417.8494, 361.0122
418.3315, 361.0980
418.8136, 362.0455
419.2957, 362.4730
419.7779, 361.0994
420.2600, 359.0311
420.7421, 357.4002
421.2242, 356.8778
421.7063, 356.4688
422.1884, 355.8466
422.6706, 355.0743
423.1527, 354.3612
423.6348, 353.7292
424.1169, 353.2023
424.5990, 352.7554
425.0811, 352.2631
425.5633, 352.1679
426.0454, 353.0109
426.5275, 354.0369
427.0096, 354.2520
427.4917, 352.9843
427.9738, 351.9289
428.4560, 351.5220
428.9381, 351.7212
429.4202, 351.6130
429.9023, 351.0373
430.3844, 350.4462
430.8665, 350.1625
431.3487, 350.2093
431.8308, 350.4556
432.3129, 350.9898
432.7950, 351.5792
433.2771, 351.5833
433.7592, 350.9665
434.2414, 350.5974
434.7235, 351.0169
435.2056, 352.0268
435.6877, 352.9281
436.1698, 353.7321
436.6519, 354.2398
437.1341, 353.6905
437.6162, 352.6572
438.0983, 352.7389
438.5804, 354.8900
439.0625, 357.5894
439.5446, 359.1747
440.0268, 359.8322
440.5089, 360.2348
440.9910, 360.2983
441.4731, 360.5652
441.9552, 361.7265
442.4373, 364.0501
442.9195, 366.1332
443.4016, 366.8341
443.8837, 367.0312
444.3658, 367.7919
444.8479, 370.1529
445.3300, 372.4005
445.8122, 373.5780
446.2943, 373.8917
446.7764, 375.3132
447.2585, 379.4054
447.7406, 383.6898
448.2227, 386.9078
448.7049, 388.3087
449.1870, 390.0239
449.6691, 392.3016
450.1512, 394.7633
450.6333, 396.7378
451.1154, 398.0160
451.5976, 399.3128
452.0797, 400.9662
452.5618, 402.9049
453.0439, 403.7751
453.5260, 403.2482
454.0081, 402.6257
454.4903, 402.9903
454.9724, 404.3252
455.4545, 405.9039
455.9366, 407.9470
456.4187, 409.5325
456.9008, 408.5980
457.3830, 405.4214
457.8651, 402.3001
458.3472, 400.2501
458.8293, 398.9648
459.3114, 398.1942
459.7935, 397.9245
460.2757, 397.1052
460.7578, 394.5302
461.2399, 390.9977
461.7220, 387.6331
462.2041, 384.8047
462.6862, 382.0105
463.1684, 378.7254
463.6505, 375.1969
464.1326, 372.0780
464.6147, 369.8217
465.0968, 367.8605
465.5789, 366.0340
466.0611, 364.3544
466.5432, 362.5241
467.0253, 360.5457
467.5074, 358.3683
467.9895, 355.9526
468.4716, 352.4601
468.9538, 349.7709
469.4359, 348.4109
469.9180, 347.9439
470.4001, 346.9406
470.8822, 345.1110
471.3643, 343.2777
471.8465, 341.7201
472.3286, 340.4330
472.8107, 339.5805
473.2928, 339.2870
473.7749, 339.1615
474.2570, 338.9042
474.7392, 338.5155
475.2213, 337.6116
475.7034, 335.9351
476.1855, 333.9090
476.6676, 332.2870
477.1497, 331.0663
477.6319, 330.2821
478.1140, 330.2841
478.5961, 330.6163
479.0782, 330.4760
479.5603, 329.7826
480.0424, 328.9678
480.5246, 328.2548
481.0067, 327.6722
481.4888, 327.2571
481.9709, 327.0092
482.4530, 326.9360
482.9352, 327.2711
483.4173, 327.8255
483.8994, 328.0034
484.3815, 327.2230
484.8636, 326.3297
485.3457, 325.7004
485.8279, 325.3756
486.3100, 325.2591
486.7921, 325.5136
487.2742, 325.8818
487.7563, 326.1784
488.2384, 326.6846
488.7206, 326.5948
489.2027, 325.5506
489.6848, 323.8927
490.1669, 322.8812
490.6490, 322.6854
491.1311, 322.6567
491.6133, 322.5936
492.0954, 322.4941
492.5775, 322.0059
493.0596, 321.0859
493.5417, 319.9752
494.0238, 318.7249
494.5060, 317.4435
494.9881, 316.7423
495.4702, 317.0180
495.9523, 317.5644
496.4344, 317.5020
496.9165, 316.8715
497.3987, 315.8311
497.8808, 314.0223
498.3629, 312.0991
498.8450, 310.6980
499.3271, 309.8648
499.8092, 309.2492
500.2914, 308.7673
500.7735, 308.3521
501.2556, 307.9359
501.7377, 307.9725
502.2198, 307.4386
502.7019, 305.7372
503.1841, 303.2776
503.6662, 301.1729
504.1483, 299.8558
504.6304, 298.4975
505.1125, 296.7898
505.5946, 294.6710
506.0768, 293.0392
506.5589, 292.1184
507.0410, 291.3782
507.5231, 290.3773
508.0052, 289.0743
508.4873, 287.8310
508.9695, 286.7215
509.4516, 285.6750
509.9337, 284.6454
510.4158, 283.6199
510.8979, 282.3564
511.3800, 280.5055
511.8622, 278.4058
512.3443, 276.9020
512.8264, 275.9731
513.3085, 275.0212
513.7906, 273.4820
514.2728, 271.6928
514.7549, 270.1194
515.2370, 268.9223
515.7191, 267.7283
516.2012, 265.9170
516.6833, 264.0467
517.1655, 262.9428
517.6476, 264.3272
518.1297, 265.0815
518.6118, 263.5576
519.0939, 260.0045
519.5760, 257.4506
520.0582, 257.4299
520.5403, 257.4870
521.0224, 256.4807
521.5045, 253.7267
521.9866, 251.9485
522.4688, 251.5621
522.9509, 251.6887
523.4330, 251.2037
523.9151, 249.9753
524.3972, 248.8327
524.8793, 247.9109
525.3615, 247.2309
525.8436, 247.0042
526.3257, 247.2197
526.8078, 247.2376
527.2899, 246.5389
527.7720, 245.3962
528.2542, 244.4220
528.7363, 243.6500
529.2184, 242.9539
529.7005, 242.1730
530.1826, 241.4318
530.6647, 240.9109
531.1469, 240.7321
531.6290, 240.6738
532.1111, 240.7898
532.5932, 240.9285
533.0753, 240.7818
533.5574, 240.0725
534.0396, 239.2408
534.5217, 238.4179
535.0038, 237.6183
535.4859, 236.7493
535.9680, 235.5156
536.4501, 234.5026
536.9323, 234.1410
537.4144, 234.8627
537.8965, 234.9353
538.3786, 234.0435
538.8607, 232.8835
539.3428, 232.6917
539.8250, 233.5688
540.3071, 234.0094
540.7892, 233.4570
541.2713, 232.3000
541.7534, 231.3613
542.2355, 230.6511
542.7177, 230.2686
543.1998, 230.5742
543.6819, 231.1362
544.1640, 231.3470
544.6461, 231.1669
545.1282, 230.5898
545.6104, 228.9923
546.0925, 227.2482
546.5746, 226.3638
547.0567, 227.1300
547.5388, 228.0667
548.0209, 229.0164
548.5031, 229.7659
548.9852, 229.8721
549.4673, 228.4042
549.9494, 227.1958
550.4315, 226.7966
550.9136, 227.2025
551.3958, 227.4241
551.8779, 227.4284
552.3600, 227.3055
552.8421, 227.0784
553.3242, 226.7296
553.8063, 226.4035
554.2885, 226.0500
554.7706, 225.8753
555.2527, 226.4028
555.7348, 227.4746
556.2169, 228.0589
556.6990, 227.6301
557.1812, 226.8372
557.6633, 226.5860
558.1454, 226.7693
558.6275, 226.9854
559.1096, 227.1255
559.5917, 227.1209
560.0739, 226.8455
560.5560, 226.2869
561.0381, 225.7856
561.5202, 225.4235
562.0023, 225.2122
562.4844, 225.1634
562.9666, 225.3119
563.4487, 225.5836
563.9308, 226.1590
564.4129, 226.7700
564.8950, 226.9292
565.3771, 226.2489
565.8593, 226.0092
566.3414, 226.6587
566.8235, 227.9435
567.3056, 228.8142
567.7877, 229.2674
568.2698, 229.2729
568.7520, 228.4824
569.2341, 227.1926
569.7162, 226.6076
570.1983, 226.8024
570.6804, 227.1577
571.1625, 227.0951
571.6447, 226.8106
572.1268, 226.6369
572.6089, 226.7289
573.0910, 226.7864
573.5731, 226.5039
574.0552, 226.0751
574.5374, 225.8317
575.0195, 226.1742
575.5016, 226.4305
575.9837, 226.2717
576.4658, 225.7461
576.9479, 225.4914
577.4301, 225.6911
577.9122, 225.9693
578.3943, 226.2254
578.8764, 226.5152
579.3585, 226.3275
579.8406, 225.3849
580.3228, 224.5803
580.8049, 225.1004
581.2870, 226.8472
581.7691, 228.1044
582.2512, 228.4969
582.7333, 228.4549
583.2155, 228.4893
583.6975, 228.6025
584.1796, 228.8119
584.6617, 229.3805
585.1439, 229.8560
585.6260, 229.6209
586.1081, 228.8388
586.5902, 228.3442
587.0723, 228.7502
587.5544, 229.3803
588.0366, 229.8335
588.5187, 229.9903
589.0008, 230.3109
589.4829, 231.2619
589.9650, 232.1217
590.4471, 232.2901
590.9293, 231.3109
591.4114, 230.7264
591.8935, 230.7526
592.3756, 231.0876
592.8577, 231.1636
593.3398, 230.9608
593.8220, 230.8388
594.3041, 230.9111
594.7862, 231.1395
595.2683, 231.4776
595.7504, 231.9099
596.2325, 232.3450
596.7147, 233.0257
597.1968, 233.5163
597.6789, 233.0554
598.1610, 231.5718
598.6431, 230.4515
599.1252, 230.6700
599.6074, 231.4747
600.0895, 232.2616
600.5716, 232.9006
601.0537, 233.5611
601.5358, 234.4723
602.0179, 235.3325
602.5001, 235.6961
602.9822, 235.1928
603.4643, 234.9566
603.9464, 235.3388
604.4285, 236.0488
604.9106, 235.9501
605.3928, 234.9118
605.8749, 234.2403
606.3570, 234.9366
606.8391, 236.4703
607.3212, 236.9321
607.8033, 236.3658
608.2855, 235.8916
608.7676, 236.1426
609.2497, 237.0956
609.7318, 239.1692
610.2139, 242.9005
610.6960, 245.4078
611.1782, 243.9792
611.6603, 241.0140
612.1424, 239.0432
612.6245, 239.5641
