##NAMES=Brackebuschite
##RRUFFID=R050547
##IDEAL CHEMISTRY=Pb^2+^_2_Mn^3+^(V^5+^O_4_)_2_(OH)
##LOCALITY=Cordoba, Argentina
##OWNER=RRUFF
##SOURCE=University of Arizona Mineral Museum
##DESCRIPTION=Brown lathlike crystals
##STATUS=The identification of this mineral is confirmed by single-crystal X-ray diffraction and chemical analysis.
##URL=rruff.info/R050547
##MEASURED CHEMISTRY=Pb_1.91_(Mn^3+^_0.81_Fe^3+^_0.07_Zn_0.07_)_Σ=0.95_(V_1.98_As_0.02_)_Σ=2.00_O_8.00_(OH)_1.00_ ; OH estimated 
90.92609, 0.0000000E+00
91.40820, 42.65770
91.89032, 44.24387
92.37244, 43.25084
92.85455, 40.14176
93.33667, 37.68368
93.81879, 38.61355
94.30090, 41.87940
94.78302, 44.30864
95.26514, 45.03886
95.74725, 44.65984
96.22937, 44.30567
96.71149, 43.97259
97.19360, 43.74206
97.67572, 43.77002
98.15784, 44.05051
98.63995, 44.23214
99.12207, 44.19801
99.60419, 43.97082
100.0863, 43.76037
100.5684, 43.59151
101.0505, 43.38821
101.5327, 42.94590
102.0148, 42.09884
102.4969, 41.58720
102.9790, 41.72572
103.4611, 42.64560
103.9432, 43.50607
104.4253, 44.35363
104.9075, 45.11156
105.3896, 45.48492
105.8717, 44.67064
106.3538, 44.57144
106.8359, 46.07995
107.3180, 50.93403
107.8002, 54.29609
108.2823, 54.63047
108.7644, 53.17609
109.2465, 54.53394
109.7286, 62.46124
110.2107, 70.48462
110.6929, 75.94933
111.1750, 74.89974
111.6571, 75.54160
112.1392, 78.89272
112.6213, 84.72340
113.1034, 91.22192
113.5856, 97.51708
114.0677, 104.7886
114.5498, 113.8047
115.0319, 125.7175
115.5140, 138.5202
115.9961, 151.0026
116.4783, 163.1902
116.9604, 177.5217
117.4425, 195.2725
117.9246, 215.7307
118.4067, 237.9086
118.8888, 262.2997
119.3710, 287.8956
119.8531, 314.1543
120.3352, 340.9093
120.8173, 368.5782
121.2994, 398.0476
121.7815, 428.3500
122.2637, 457.9285
122.7458, 486.2193
123.2279, 513.0397
123.7100, 537.9696
124.1921, 560.8473
124.6742, 582.3267
125.1564, 601.4426
125.6385, 619.2317
126.1206, 639.0670
126.6027, 662.6864
127.0848, 689.5566
127.5669, 718.4242
128.0491, 748.7675
128.5312, 781.7507
129.0133, 819.1365
129.4954, 860.5346
129.9775, 905.4578
130.4596, 955.1378
130.9418, 1008.162
131.4239, 1060.993
131.9060, 1113.138
132.3881, 1164.732
132.8702, 1214.644
133.3523, 1262.963
133.8345, 1311.505
134.3166, 1362.021
134.7987, 1414.940
135.2808, 1467.599
135.7629, 1520.508
136.2450, 1573.516
136.7272, 1624.200
137.2093, 1672.526
137.6914, 1719.548
138.1735, 1766.443
138.6556, 1813.009
139.1377, 1859.073
139.6199, 1905.263
140.1020, 1951.180
140.5841, 1995.216
141.0662, 2035.443
141.5483, 2075.678
142.0304, 2120.825
142.5126, 2171.608
142.9947, 2223.919
143.4768, 2268.625
143.9589, 2300.005
144.4410, 2334.240
144.9231, 2371.855
145.4053, 2412.041
145.8874, 2454.738
146.3695, 2501.781
146.8516, 2548.528
147.3337, 2592.533
147.8158, 2633.366
148.2980, 2674.789
148.7801, 2717.598
149.2622, 2761.103
149.7443, 2802.777
150.2264, 2843.921
150.7085, 2882.941
151.1907, 2919.006
151.6728, 2954.254
152.1549, 2984.533
152.6370, 3009.321
153.1191, 3029.303
153.6012, 3045.391
154.0834, 3058.905
154.5655, 3067.617
155.0476, 3070.708
155.5297, 3067.605
156.0118, 3059.422
156.4939, 3043.776
156.9761, 3022.539
157.4582, 3002.454
157.9403, 2986.665
158.4224, 2971.363
158.9045, 2954.296
159.3866, 2935.495
159.8688, 2914.706
160.3509, 2890.656
160.8330, 2864.185
161.3151, 2839.158
161.7972, 2819.378
162.2793, 2800.344
162.7615, 2778.608
163.2436, 2750.933
163.7257, 2722.577
164.2078, 2695.571
164.6899, 2669.691
165.1720, 2643.496
165.6541, 2616.178
166.1363, 2588.190
166.6184, 2559.982
167.1005, 2532.750
167.5826, 2504.501
168.0647, 2473.251
168.5468, 2439.168
169.0290, 2404.604
169.5111, 2371.185
169.9932, 2338.112
170.4753, 2304.183
170.9574, 2268.072
171.4395, 2231.928
171.9217, 2197.053
172.4038, 2163.466
172.8859, 2131.153
173.3680, 2100.838
173.8501, 2071.869
174.3322, 2042.499
174.8144, 2010.565
175.2965, 1978.297
175.7786, 1949.359
176.2607, 1923.558
176.7428, 1899.319
177.2249, 1875.315
177.7071, 1851.870
178.1892, 1829.195
178.6713, 1807.656
179.1534, 1786.857
179.6355, 1765.681
180.1176, 1743.716
180.5998, 1722.880
181.0819, 1705.354
181.5640, 1690.626
182.0461, 1676.223
182.5282, 1660.922
183.0103, 1645.230
183.4925, 1630.247
183.9746, 1616.017
184.4567, 1602.866
184.9388, 1592.070
185.4209, 1583.115
185.9030, 1573.505
186.3852, 1560.861
186.8673, 1546.439
187.3494, 1534.383
187.8315, 1525.222
188.3136, 1517.427
188.7957, 1508.673
189.2779, 1499.120
189.7600, 1489.716
190.2421, 1480.511
190.7242, 1471.775
191.2063, 1465.068
191.6884, 1460.796
192.1706, 1457.775
192.6527, 1454.146
193.1348, 1449.897
193.6169, 1445.507
194.0990, 1441.025
194.5811, 1436.473
195.0633, 1432.198
195.5454, 1428.208
196.0275, 1424.465
196.5096, 1421.119
196.9917, 1418.178
197.4738, 1415.353
197.9560, 1412.516
198.4381, 1409.691
198.9202, 1406.828
199.4023, 1403.746
199.8844, 1400.978
200.3665, 1399.996
200.8487, 1401.161
201.3308, 1402.074
201.8129, 1401.619
202.2950, 1399.778
202.7771, 1396.774
203.2592, 1392.053
203.7414, 1386.742
204.2235, 1383.203
204.7056, 1381.628
205.1877, 1381.109
205.6698, 1381.448
206.1519, 1382.812
206.6341, 1383.879
207.1162, 1384.738
207.5983, 1385.117
208.0804, 1384.154
208.5625, 1381.424
209.0446, 1378.671
209.5268, 1376.819
210.0089, 1376.099
210.4910, 1375.320
210.9731, 1374.746
211.4552, 1373.915
211.9373, 1371.590
212.4195, 1367.373
212.9016, 1362.770
213.3837, 1358.245
213.8658, 1353.420
214.3479, 1350.217
214.8300, 1349.251
215.3121, 1349.567
215.7943, 1348.897
216.2764, 1347.138
216.7585, 1344.576
217.2406, 1340.891
217.7227, 1335.142
218.2048, 1331.570
218.6870, 1331.362
219.1691, 1332.734
219.6512, 1331.240
220.1333, 1325.325
220.6154, 1319.366
221.0975, 1315.230
221.5797, 1313.662
222.0618, 1311.920
222.5439, 1310.139
223.0260, 1308.156
223.5081, 1305.422
223.9902, 1301.476
224.4724, 1297.686
224.9545, 1294.822
225.4366, 1293.396
225.9187, 1291.320
226.4008, 1288.137
226.8829, 1284.524
227.3651, 1281.917
227.8472, 1280.639
228.3293, 1279.777
228.8114, 1278.996
229.2935, 1278.278
229.7757, 1277.666
230.2578, 1277.207
230.7399, 1276.804
231.2220, 1276.195
231.7041, 1274.960
232.1862, 1274.150
232.6684, 1274.234
233.1505, 1275.573
233.6326, 1276.553
234.1147, 1276.873
234.5968, 1276.986
235.0789, 1277.723
235.5611, 1279.294
236.0432, 1281.167
236.5253, 1283.471
237.0074, 1286.751
237.4895, 1288.217
237.9716, 1286.677
238.4538, 1284.066
238.9359, 1283.599
239.4180, 1286.425
239.9001, 1289.534
240.3822, 1291.965
240.8643, 1293.427
241.3465, 1295.531
241.8286, 1298.711
242.3107, 1302.220
242.7928, 1304.924
243.2749, 1306.233
243.7570, 1307.731
244.2392, 1309.888
244.7213, 1312.831
245.2034, 1315.722
245.6855, 1318.631
246.1676, 1321.463
246.6497, 1323.931
247.1319, 1325.189
247.6140, 1327.705
248.0961, 1332.513
248.5782, 1340.015
249.0603, 1346.356
249.5424, 1351.245
250.0246, 1355.341
250.5067, 1359.299
250.9888, 1362.708
251.4709, 1366.827
251.9530, 1372.137
252.4351, 1378.752
252.9173, 1384.834
253.3994, 1390.192
253.8815, 1395.285
254.3636, 1400.595
254.8457, 1406.217
255.3278, 1411.617
255.8100, 1416.572
256.2921, 1421.109
256.7742, 1425.980
257.2563, 1431.402
257.7384, 1436.850
258.2205, 1441.734
258.7026, 1445.754
259.1848, 1450.128
259.6669, 1455.195
260.1490, 1460.879
260.6311, 1466.091
261.1132, 1470.947
261.5953, 1475.200
262.0775, 1478.328
262.5596, 1479.616
263.0417, 1482.103
263.5238, 1486.704
264.0059, 1492.769
264.4880, 1497.221
264.9702, 1499.341
265.4523, 1501.127
265.9344, 1503.900
266.4165, 1508.019
266.8986, 1511.786
267.3807, 1514.894
267.8629, 1517.644
268.3450, 1521.111
268.8271, 1525.562
269.3092, 1530.208
269.7913, 1534.664
270.2734, 1538.801
270.7556, 1543.148
271.2377, 1547.095
271.7198, 1551.908
272.2019, 1561.149
272.6840, 1575.988
273.1661, 1591.367
273.6483, 1604.647
274.1304, 1615.385
274.6125, 1627.236
275.0946, 1640.084
275.5767, 1654.117
276.0588, 1669.828
276.5410, 1687.273
277.0231, 1705.642
277.5052, 1724.186
277.9873, 1742.929
278.4694, 1762.666
278.9515, 1783.501
279.4337, 1804.966
279.9158, 1826.298
280.3979, 1847.305
280.8800, 1869.197
281.3621, 1892.313
281.8442, 1916.573
282.3264, 1940.263
282.8085, 1963.315
283.2906, 1986.145
283.7727, 2008.713
284.2548, 2031.027
284.7369, 2055.105
285.2191, 2082.076
285.7012, 2111.138
286.1833, 2140.182
286.6654, 2169.239
287.1475, 2198.256
287.6296, 2226.507
288.1118, 2254.222
288.5939, 2282.844
289.0760, 2313.593
289.5581, 2344.716
290.0402, 2372.464
290.5223, 2396.866
291.0045, 2419.531
291.4866, 2441.754
291.9687, 2463.483
292.4508, 2484.698
292.9329, 2505.954
293.4150, 2525.934
293.8972, 2542.625
294.3793, 2556.248
294.8614, 2569.216
295.3435, 2582.755
295.8256, 2596.818
296.3077, 2611.129
296.7899, 2625.511
297.2720, 2640.269
297.7541, 2656.106
298.2362, 2672.624
298.7183, 2688.359
299.2004, 2700.585
299.6826, 2711.773
300.1647, 2726.995
300.6468, 2746.745
301.1289, 2768.971
301.6110, 2792.267
302.0931, 2816.435
302.5753, 2841.724
303.0574, 2867.652
303.5395, 2894.817
304.0216, 2922.996
304.5037, 2952.397
304.9858, 2984.537
305.4680, 3021.229
305.9501, 3061.564
306.4322, 3103.791
306.9143, 3147.152
307.3964, 3192.599
307.8785, 3241.749
308.3607, 3294.382
308.8428, 3349.943
309.3249, 3408.500
309.8070, 3469.651
310.2891, 3532.633
310.7712, 3597.726
311.2534, 3664.979
311.7355, 3734.520
312.2176, 3806.703
312.6997, 3880.789
313.1818, 3954.524
313.6639, 4029.957
314.1461, 4109.821
314.6282, 4195.691
315.1103, 4282.387
315.5924, 4367.143
316.0745, 4450.481
316.5566, 4534.981
317.0388, 4620.083
317.5209, 4706.858
318.0030, 4798.041
318.4851, 4895.801
318.9672, 4990.192
319.4493, 5077.033
319.9315, 5158.454
320.4136, 5238.438
320.8957, 5317.813
321.3778, 5395.310
321.8599, 5471.642
322.3420, 5547.021
322.8242, 5618.619
323.3063, 5687.021
323.7884, 5750.819
324.2705, 5808.793
324.7526, 5860.676
325.2347, 5907.202
325.7169, 5947.705
326.1990, 5982.590
326.6811, 6011.470
327.1632, 6034.737
327.6453, 6051.710
328.1274, 6061.971
328.6096, 6063.112
329.0917, 6060.548
329.5738, 6054.459
330.0559, 6044.823
330.5380, 6031.580
331.0201, 6018.040
331.5023, 5997.297
331.9844, 5965.381
332.4665, 5917.064
332.9486, 5871.255
333.4307, 5831.092
333.9128, 5791.974
334.3950, 5747.027
334.8771, 5694.670
335.3592, 5638.702
335.8413, 5580.954
336.3234, 5521.396
336.8055, 5457.351
337.2877, 5388.754
337.7698, 5316.646
338.2519, 5240.651
338.7340, 5160.649
339.2161, 5079.834
339.6982, 5000.159
340.1803, 4920.428
340.6624, 4838.168
341.1446, 4752.313
341.6267, 4664.405
342.1088, 4572.226
342.5909, 4476.366
343.0730, 4381.976
343.5551, 4290.886
344.0373, 4201.394
344.5194, 4112.212
345.0015, 4022.555
345.4836, 3933.302
345.9657, 3843.393
346.4478, 3753.664
346.9300, 3669.567
347.4121, 3591.291
347.8942, 3516.535
348.3763, 3439.847
348.8584, 3362.359
349.3405, 3288.628
349.8227, 3222.472
350.3048, 3161.167
350.7869, 3098.172
351.2690, 3033.658
351.7511, 2971.431
352.2332, 2915.169
352.7154, 2864.452
353.1975, 2818.537
353.6796, 2778.319
354.1617, 2741.564
354.6438, 2705.664
355.1259, 2670.844
355.6081, 2638.640
356.0902, 2609.944
356.5723, 2584.034
357.0544, 2559.905
357.5365, 2537.656
358.0186, 2516.932
358.5008, 2498.405
358.9829, 2481.265
359.4650, 2463.798
359.9471, 2443.755
360.4292, 2424.212
360.9113, 2407.144
361.3935, 2393.094
361.8756, 2380.354
362.3577, 2370.137
362.8398, 2360.296
363.3219, 2348.381
363.8040, 2331.409
364.2862, 2314.611
364.7683, 2299.085
365.2504, 2284.900
365.7325, 2273.150
366.2146, 2266.458
366.6967, 2260.612
367.1789, 2252.994
367.6610, 2241.950
368.1431, 2230.755
368.6252, 2219.024
369.1073, 2207.134
369.5894, 2196.483
370.0716, 2188.088
370.5537, 2179.777
371.0358, 2170.493
371.5179, 2159.341
372.0000, 2149.914
372.4821, 2142.923
372.9643, 2137.223
373.4464, 2131.670
373.9285, 2127.490
374.4106, 2120.820
374.8927, 2110.202
375.3748, 2095.705
375.8570, 2081.206
376.3391, 2066.184
376.8212, 2051.935
377.3033, 2039.983
377.7854, 2030.941
378.2675, 2019.974
378.7497, 2005.978
379.2318, 1990.034
379.7139, 1974.681
380.1960, 1960.208
380.6781, 1944.648
381.1602, 1926.682
381.6424, 1906.647
382.1245, 1886.497
382.6066, 1866.068
383.0887, 1845.985
383.5708, 1826.865
384.0529, 1808.687
384.5351, 1790.398
385.0172, 1772.063
385.4993, 1753.422
385.9814, 1733.331
386.4635, 1711.971
386.9456, 1689.594
387.4278, 1665.573
387.9099, 1641.163
388.3920, 1618.079
388.8741, 1597.033
389.3562, 1577.226
389.8383, 1558.187
390.3205, 1539.573
390.8026, 1520.977
391.2847, 1501.772
391.7668, 1482.792
392.2489, 1464.641
392.7310, 1447.686
393.2132, 1430.480
393.6953, 1411.693
394.1774, 1392.684
394.6595, 1374.953
395.1416, 1359.769
395.6237, 1345.380
396.1059, 1331.514
396.5880, 1318.107
397.0701, 1304.311
397.5522, 1288.657
398.0343, 1273.593
398.5164, 1260.619
398.9986, 1251.613
399.4807, 1242.464
399.9628, 1233.782
400.4449, 1224.833
400.9270, 1213.632
401.4091, 1197.413
401.8913, 1182.700
402.3734, 1171.719
402.8555, 1164.978
403.3376, 1159.244
403.8197, 1155.020
404.3018, 1151.198
404.7840, 1146.610
405.2661, 1141.115
405.7482, 1135.153
406.2303, 1128.423
406.7124, 1121.333
407.1945, 1115.255
407.6767, 1110.139
408.1588, 1106.197
408.6409, 1104.276
409.1230, 1104.167
409.6051, 1102.380
410.0872, 1098.234
410.5694, 1093.497
411.0515, 1090.620
411.5336, 1089.495
412.0157, 1089.579
412.4978, 1092.013
412.9799, 1095.115
413.4621, 1095.167
413.9442, 1092.234
414.4263, 1088.619
414.9084, 1085.109
415.3905, 1082.404
415.8727, 1081.830
416.3548, 1084.860
416.8369, 1088.249
417.3190, 1088.549
417.8011, 1086.939
418.2832, 1086.560
418.7654, 1089.794
419.2475, 1094.225
419.7296, 1098.006
420.2117, 1100.737
420.6938, 1104.278
421.1759, 1110.995
421.6581, 1118.209
422.1402, 1123.160
422.6223, 1122.035
423.1044, 1121.830
423.5865, 1124.436
424.0686, 1129.580
424.5508, 1135.099
425.0329, 1141.782
425.5150, 1147.974
425.9971, 1152.678
426.4792, 1153.876
426.9613, 1157.939
427.4435, 1166.827
427.9256, 1177.491
428.4077, 1184.793
428.8898, 1187.063
429.3719, 1189.864
429.8540, 1194.624
430.3362, 1201.240
430.8183, 1209.106
431.3004, 1218.746
431.7825, 1228.005
432.2646, 1234.155
432.7467, 1237.148
433.2289, 1243.106
433.7110, 1253.358
434.1931, 1265.820
434.6752, 1277.326
435.1573, 1287.817
435.6394, 1296.710
436.1216, 1302.061
436.6036, 1305.900
437.0858, 1312.978
437.5679, 1323.461
438.0500, 1334.815
438.5321, 1345.411
439.0142, 1355.253
439.4963, 1364.306
439.9785, 1372.316
440.4606, 1379.928
440.9427, 1387.641
441.4248, 1395.360
441.9069, 1402.680
442.3890, 1409.144
442.8712, 1415.368
443.3533, 1422.217
443.8354, 1430.301
444.3175, 1436.400
444.7996, 1437.513
445.2817, 1436.836
445.7639, 1437.718
446.2460, 1442.622
446.7281, 1447.041
447.2102, 1450.445
447.6923, 1452.747
448.1744, 1453.464
448.6566, 1452.351
449.1387, 1449.832
449.6208, 1446.122
450.1029, 1441.290
450.5850, 1434.827
451.0671, 1426.317
451.5493, 1416.693
452.0314, 1407.347
452.5135, 1398.576
452.9956, 1389.239
453.4777, 1379.344
453.9598, 1368.730
454.4420, 1355.958
454.9241, 1340.958
455.4062, 1325.532
455.8883, 1311.364
456.3704, 1298.094
456.8525, 1284.147
457.3347, 1269.514
457.8168, 1254.612
458.2989, 1240.207
458.7810, 1226.130
459.2631, 1212.343
459.7452, 1198.773
460.2274, 1185.286
460.7095, 1171.843
461.1916, 1158.309
461.6737, 1145.035
462.1558, 1131.921
462.6379, 1119.146
463.1201, 1106.874
463.6022, 1095.042
464.0843, 1083.593
464.5664, 1072.349
465.0485, 1061.469
465.5306, 1051.214
466.0128, 1041.921
466.4949, 1032.968
466.9770, 1024.251
467.4591, 1015.768
467.9412, 1007.632
468.4233, 999.7158
468.9055, 992.1852
469.3876, 985.1256
469.8697, 978.9930
470.3518, 972.3268
470.8339, 964.6528
471.3160, 956.7065
471.7982, 949.8121
472.2803, 944.1174
472.7624, 938.9098
473.2445, 934.1857
473.7266, 929.7972
474.2087, 924.9503
474.6909, 919.6194
475.1730, 914.1263
475.6551, 908.5823
476.1372, 903.0955
476.6193, 898.1124
477.1014, 893.7236
477.5836, 889.8959
478.0657, 887.1027
478.5478, 884.9147
479.0299, 882.1710
479.5120, 877.9913
479.9941, 873.1877
480.4763, 868.3619
480.9584, 863.5482
481.4405, 859.0917
481.9226, 855.4769
482.4047, 852.1387
482.8868, 848.5724
483.3690, 844.4978
483.8511, 840.6651
484.3332, 837.8633
484.8153, 835.3411
485.2974, 831.8093
485.7795, 825.7625
486.2617, 820.1465
486.7438, 815.5259
487.2259, 811.8846
487.7080, 809.0463
488.1901, 807.8571
488.6722, 806.3492
489.1544, 802.9924
489.6365, 796.9703
490.1186, 792.6085
490.6007, 790.6316
491.0828, 789.4754
491.5649, 786.4163
492.0471, 781.3836
492.5292, 776.6124
493.0113, 773.0645
493.4934, 770.2092
493.9755, 766.3534
494.4576, 761.5743
494.9398, 757.0023
495.4219, 753.7034
495.9040, 751.1397
496.3861, 748.5433
496.8682, 745.8110
497.3503, 742.8504
497.8325, 739.3538
498.3146, 735.6129
498.7967, 732.0060
499.2788, 728.9103
499.7609, 725.8327
500.2430, 722.4655
500.7252, 718.9149
501.2073, 715.5330
501.6894, 712.8366
502.1715, 710.0701
502.6536, 706.9044
503.1357, 703.4106
503.6179, 699.2389
504.1000, 693.1534
504.5821, 687.2068
505.0642, 683.6282
505.5463, 683.8015
506.0284, 683.2802
506.5106, 681.3938
506.9927, 678.3790
507.4748, 674.7375
507.9569, 670.2070
508.4390, 666.2664
508.9211, 663.9952
509.4033, 663.1396
509.8854, 661.5638
510.3675, 659.2079
510.8496, 656.6184
511.3317, 654.3113
511.8138, 652.1913
512.2960, 649.9988
512.7781, 647.5046
513.2602, 645.2019
513.7423, 643.4374
514.2244, 642.2552
514.7065, 641.7579
515.1887, 644.2537
515.6708, 645.6724
516.1529, 641.9705
516.6350, 633.2654
517.1171, 626.7067
517.5992, 627.1188
518.0814, 629.0292
518.5635, 628.8307
519.0456, 624.3816
519.5277, 620.6113
520.0098, 617.7639
520.4919, 615.7237
520.9741, 614.4571
521.4562, 614.5429
521.9383, 614.2461
522.4204, 613.0766
522.9025, 611.1805
523.3846, 609.4378
523.8668, 607.8266
524.3489, 606.4857
524.8310, 605.8688
525.3131, 605.7802
525.7952, 604.3532
526.2773, 601.3260
526.7595, 597.9913
527.2416, 596.1281
527.7237, 595.1620
528.2058, 593.4954
528.6879, 590.1852
529.1700, 586.7106
529.6522, 584.5944
530.1343, 583.5354
530.6164, 582.5814
531.0985, 581.2523
531.5806, 579.9135
532.0627, 578.7412
532.5449, 577.7480
533.0270, 577.0678
533.5091, 577.1730
533.9912, 577.3358
534.4733, 577.0357
534.9554, 575.7504
535.4376, 574.6611
535.9197, 573.9258
536.4018, 573.3029
536.8839, 572.4059
537.3660, 571.1840
537.8481, 569.7535
538.3303, 567.9805
538.8124, 566.0117
539.2945, 564.6136
539.7766, 563.8116
540.2587, 563.3692
540.7408, 563.5255
541.2230, 563.9646
541.7051, 563.2512
542.1872, 561.1547
542.6693, 559.0471
543.1514, 558.6025
543.6335, 559.0674
544.1157, 558.9634
544.5978, 557.2661
545.0799, 555.6884
545.5620, 555.7908
546.0441, 556.9609
546.5262, 557.6832
547.0084, 556.9552
547.4905, 556.0513
547.9726, 555.6879
548.4547, 555.9899
548.9368, 555.4922
549.4189, 552.8843
549.9011, 550.3964
550.3832, 549.3555
550.8653, 550.4661
551.3474, 551.3884
551.8295, 552.0901
552.3116, 552.5782
552.7938, 552.8416
553.2759, 552.8698
553.7580, 552.7275
554.2401, 552.3259
554.7222, 551.8549
555.2043, 552.0466
555.6865, 552.8093
556.1686, 553.1119
556.6507, 551.7410
557.1328, 549.7516
557.6149, 548.7891
558.0970, 548.9541
558.5792, 549.3772
559.0613, 549.5417
559.5434, 549.6168
560.0255, 549.8051
560.5076, 550.3713
560.9897, 550.6637
561.4719, 550.6168
561.9540, 550.1318
562.4361, 549.0507
562.9182, 545.7828
563.4003, 543.7175
563.8824, 543.8995
564.3646, 545.9593
564.8467, 547.2755
565.3288, 547.5548
565.8109, 547.6750
566.2930, 548.1182
566.7751, 548.8962
567.2573, 549.4606
567.7394, 549.8046
568.2215, 549.9641
568.7036, 549.8204
569.1857, 549.4974
569.6678, 549.4189
570.1500, 549.6097
570.6321, 550.2363
571.1142, 552.2557
571.5963, 554.8578
572.0784, 556.2111
572.5605, 553.9553
573.0427, 551.5812
573.5248, 551.6539
574.0069, 553.7675
574.4890, 555.0020
574.9711, 553.4377
575.4532, 551.5919
575.9354, 550.7064
576.4175, 551.0630
576.8996, 551.6360
577.3817, 552.5331
577.8638, 553.5340
578.3459, 554.4747
578.8281, 555.3494
579.3102, 556.1112
579.7923, 556.7371
580.2744, 557.2596
580.7565, 557.5807
581.2386, 557.7281
581.7208, 558.2935
582.2029, 559.8676
582.6850, 561.7448
583.1671, 562.7108
583.6492, 562.8395
584.1313, 562.5673
584.6134, 561.6935
585.0955, 560.8436
