##NAMES=Braggite
##RRUFFID=R070567
##IDEAL CHEMISTRY=PtS
##LOCALITY=Minneapolis Adit, J M Reef, Stillwater Complex, Beartooth Mountains, Stillwater County, Montana, USA
##OWNER=RRUFF
##SOURCE=James Shigley
##DESCRIPTION=Tin-white metallic massive
##STATUS=The identification of this mineral has been confirmed by single-crystal X-ray diffraction.
##URL=rruff.info/R070567
114.3398, 2236.678
114.8220, 2384.971
115.3041, 2574.142
115.7862, 2794.170
116.2683, 3061.377
116.7504, 3417.377
117.2326, 3838.010
117.7147, 4242.938
118.1968, 4627.751
118.6789, 4936.341
119.1610, 5091.149
119.6431, 5073.404
120.1253, 4925.911
120.6074, 4626.420
121.0895, 4175.000
121.5716, 3746.663
122.0537, 3428.177
122.5358, 3203.701
123.0180, 3045.676
123.5001, 2959.328
123.9822, 2932.296
124.4643, 2949.993
124.9464, 3010.633
125.4285, 3123.715
125.9107, 3295.034
126.3928, 3521.445
126.8749, 3811.013
127.3570, 4166.986
127.8391, 4587.194
128.3212, 5088.701
128.8033, 5703.747
129.2855, 6329.617
129.7676, 6970.839
130.2497, 7584.468
130.7318, 8080.515
131.2139, 8398.148
131.6960, 8553.136
132.1782, 8607.116
132.6603, 8503.657
133.1424, 8366.626
133.6245, 8304.536
134.1066, 8276.287
134.5887, 8163.235
135.0709, 7839.093
135.5530, 7312.272
136.0351, 6830.489
136.5172, 6406.829
136.9993, 6023.432
137.4814, 5670.308
137.9636, 5347.548
138.4457, 5064.629
138.9278, 4826.914
139.4099, 4634.219
139.8920, 4488.596
140.3741, 4430.418
140.8563, 4393.137
141.3384, 4342.602
141.8205, 4279.407
142.3026, 4233.916
142.7847, 4249.054
143.2668, 4347.676
143.7490, 4427.313
144.2311, 4464.393
144.7132, 4496.029
145.1953, 4544.460
145.6774, 4612.967
146.1595, 4686.981
146.6417, 4743.794
147.1238, 4769.772
147.6059, 4810.339
148.0880, 4916.590
148.5701, 5005.892
149.0523, 5017.143
149.5344, 4934.981
150.0165, 4790.363
150.4986, 4631.246
150.9807, 4431.849
151.4628, 4265.577
151.9450, 4157.623
152.4271, 4067.428
152.9092, 3938.904
153.3913, 3754.891
153.8734, 3551.205
154.3555, 3386.659
154.8377, 3271.688
155.3198, 3182.124
155.8019, 3119.946
156.2840, 3076.744
156.7661, 3046.291
157.2482, 3025.883
157.7304, 3013.550
158.2125, 3004.762
158.6946, 3020.091
159.1767, 3012.520
159.6588, 2971.982
160.1409, 2911.071
160.6231, 2839.904
161.1052, 2762.734
161.5873, 2683.861
162.0694, 2617.583
162.5515, 2586.549
163.0336, 2541.805
163.5158, 2470.051
163.9979, 2383.463
164.4800, 2298.388
164.9621, 2223.846
165.4442, 2156.271
165.9263, 2079.071
166.4085, 1972.786
166.8906, 1878.473
167.3727, 1807.860
167.8548, 1752.651
168.3369, 1698.876
168.8190, 1637.994
169.3012, 1573.335
169.7833, 1528.145
170.2654, 1524.316
170.7475, 1513.635
171.2296, 1481.675
171.7117, 1435.601
172.1939, 1388.365
172.6760, 1347.116
173.1581, 1311.534
173.6402, 1280.416
174.1223, 1254.117
174.6044, 1230.805
175.0866, 1209.954
175.5687, 1191.797
176.0508, 1177.640
176.5329, 1168.680
177.0150, 1164.251
177.4971, 1156.988
177.9793, 1146.552
178.4614, 1134.384
178.9435, 1118.628
179.4256, 1101.281
179.9077, 1086.666
180.3898, 1077.341
180.8720, 1073.159
181.3541, 1072.793
181.8362, 1082.892
182.3183, 1089.103
182.8004, 1087.372
183.2825, 1077.823
183.7647, 1060.595
184.2468, 1034.452
184.7289, 1000.445
185.2110, 973.2174
185.6931, 951.5302
186.1752, 935.7428
186.6574, 928.4475
187.1395, 927.4393
187.6216, 927.7076
188.1037, 926.5508
188.5858, 923.7747
189.0679, 916.0469
189.5501, 903.4128
190.0322, 887.1611
190.5143, 863.9402
190.9964, 836.8986
191.4785, 813.3146
191.9606, 797.7414
192.4428, 790.1296
192.9249, 789.9875
193.4070, 806.1248
193.8891, 819.2531
194.3712, 821.6793
194.8533, 814.7803
195.3355, 802.6174
195.8176, 786.9344
196.2997, 768.2668
196.7818, 754.3853
197.2639, 745.9864
197.7460, 740.4545
198.2282, 738.5811
198.7103, 738.9998
199.1924, 738.5000
199.6745, 734.8505
200.1566, 728.3862
200.6387, 723.5254
201.1209, 725.5159
201.6030, 723.4065
202.0851, 707.9232
202.5672, 684.7896
203.0493, 668.8073
203.5314, 670.3918
204.0136, 686.7038
204.4957, 691.8405
204.9778, 680.9819
205.4599, 666.7704
205.9420, 649.9976
206.4241, 632.8405
206.9063, 619.7802
207.3884, 613.9321
207.8705, 614.0057
208.3526, 610.4545
208.8347, 600.3250
209.3168, 590.4994
209.7990, 583.9083
210.2811, 578.8579
210.7632, 571.1057
211.2453, 557.6483
211.7274, 540.6121
212.2095, 531.5277
212.6917, 536.8130
213.1738, 541.9042
213.6559, 545.4608
214.1380, 546.5439
214.6201, 543.1585
215.1022, 533.9052
215.5844, 520.5687
216.0665, 510.8758
216.5486, 507.0003
217.0307, 504.0683
217.5128, 501.9187
217.9949, 500.1460
218.4771, 498.3860
218.9592, 496.4877
219.4413, 494.2955
219.9234, 491.2950
220.4055, 484.9571
220.8876, 480.8043
221.3698, 480.7938
221.8519, 482.7112
222.3340, 484.3296
222.8161, 484.7108
223.2982, 483.5924
223.7803, 480.3012
224.2625, 474.7279
224.7446, 466.6929
225.2267, 451.9013
225.7088, 436.6149
226.1909, 427.4333
226.6730, 426.8344
227.1552, 431.5656
227.6373, 435.0698
228.1194, 437.2062
228.6015, 438.1356
229.0836, 438.1249
229.5658, 436.9127
230.0479, 432.9968
230.5300, 426.3176
231.0121, 420.0356
231.4942, 420.3384
231.9763, 434.9606
232.4585, 441.5413
232.9406, 434.9674
233.4227, 424.8222
233.9048, 417.6141
234.3869, 414.7744
234.8690, 413.9409
235.3512, 411.9617
235.8333, 408.5859
236.3154, 404.5865
236.7975, 397.9190
237.2796, 392.2067
237.7617, 390.9195
238.2439, 393.6920
238.7260, 396.1589
239.2081, 392.2408
239.6902, 379.0273
240.1723, 371.1837
240.6544, 375.0216
241.1366, 378.8674
241.6187, 376.1888
242.1008, 367.8829
242.5829, 360.0848
243.0650, 359.0805
243.5471, 365.5322
244.0293, 370.9055
244.5114, 377.7664
244.9935, 380.8116
245.4756, 374.5257
245.9577, 362.0458
246.4398, 352.2087
246.9220, 353.3689
247.4041, 364.2683
247.8862, 369.0699
248.3683, 361.6750
248.8504, 355.7289
249.3325, 359.2457
249.8147, 368.0834
250.2968, 373.4651
250.7789, 368.0830
251.2610, 355.7713
251.7431, 351.1667
252.2252, 358.6339
252.7074, 365.8605
253.1895, 368.1407
253.6716, 366.7089
254.1537, 363.1708
254.6358, 357.7975
255.1179, 351.0758
255.6001, 342.6644
256.0822, 330.6354
256.5643, 323.1448
257.0464, 329.4743
257.5285, 340.7480
258.0107, 346.6158
258.4928, 342.8663
258.9749, 335.1811
259.4570, 328.6957
259.9391, 323.1346
260.4212, 322.7859
260.9034, 335.9619
261.3855, 351.8389
261.8676, 355.3440
262.3497, 340.7527
262.8318, 323.6501
263.3139, 316.4609
263.7961, 318.0278
264.2782, 319.1746
264.7603, 315.3487
265.2424, 311.2957
265.7245, 314.7399
266.2066, 327.6884
266.6888, 339.7045
267.1709, 346.5292
267.6530, 348.5928
268.1351, 346.3386
268.6172, 339.0850
269.0993, 329.4237
269.5815, 319.7742
270.0636, 309.3783
270.5457, 303.3167
271.0278, 304.6437
271.5099, 310.4055
271.9920, 317.6955
272.4742, 326.1809
272.9563, 333.6412
273.4384, 337.7260
273.9205, 338.1270
274.4026, 335.8525
274.8847, 329.7092
275.3669, 321.7003
275.8490, 312.6469
276.3311, 302.9330
276.8132, 293.8829
277.2953, 286.2673
277.7774, 280.1326
278.2596, 277.4765
278.7417, 283.4986
279.2238, 287.7336
279.7059, 281.6314
280.1880, 268.6772
280.6701, 260.2362
281.1523, 264.6615
281.6344, 280.4246
282.1165, 290.4822
282.5986, 292.8191
283.0807, 292.0749
283.5628, 286.1589
284.0450, 278.4235
284.5271, 274.3557
285.0092, 276.9542
285.4913, 283.3745
285.9734, 284.1885
286.4555, 270.7468
286.9377, 264.0312
287.4198, 272.6695
287.9019, 285.0240
288.3840, 289.4605
288.8661, 282.3231
289.3482, 269.5077
289.8304, 260.1049
290.3125, 253.6881
290.7946, 252.1083
291.2767, 258.9558
291.7588, 267.7233
292.2409, 275.1192
292.7231, 280.4400
293.2052, 284.2124
293.6873, 286.6378
294.1694, 287.6024
294.6515, 288.6093
295.1336, 289.5654
295.6158, 290.7604
296.0979, 293.4609
296.5800, 296.8361
297.0621, 298.0515
297.5442, 291.2710
298.0263, 280.0444
298.5085, 281.0742
298.9906, 301.7619
299.4727, 319.9759
299.9548, 318.1568
300.4369, 305.2386
300.9190, 297.9843
301.4012, 304.7165
301.8833, 318.2960
302.3654, 330.1334
302.8475, 340.3507
303.3296, 347.1743
303.8117, 347.2288
304.2939, 343.9997
304.7760, 344.6366
305.2581, 351.3000
305.7402, 359.4266
306.2223, 367.6962
306.7044, 375.3195
307.1866, 378.8594
307.6687, 376.1212
308.1508, 369.7445
308.6329, 364.5618
309.1150, 359.4449
309.5971, 357.7278
310.0793, 363.0839
310.5614, 371.4338
311.0435, 376.9948
311.5256, 378.3043
312.0077, 377.7958
312.4898, 378.4725
312.9720, 380.7307
313.4541, 383.2247
313.9362, 383.1125
314.4183, 385.3467
314.9004, 396.5636
315.3825, 415.0213
315.8647, 430.9875
316.3468, 435.6618
316.8289, 428.5131
317.3110, 421.4009
317.7931, 412.7290
318.2752, 405.7333
318.7574, 402.7544
319.2395, 402.0488
319.7216, 400.5871
320.2037, 396.6099
320.6858, 390.6294
321.1679, 384.4449
321.6501, 376.8073
322.1322, 371.1067
322.6143, 367.4111
323.0964, 365.8629
323.5785, 366.5513
324.0606, 369.5125
324.5428, 374.7420
325.0249, 382.8380
325.5070, 394.4964
325.9891, 405.6341
326.4712, 420.0044
326.9533, 429.9358
327.4355, 428.4884
327.9176, 416.0754
328.3997, 402.0916
328.8818, 392.3514
329.3639, 386.5962
329.8460, 384.2640
330.3282, 387.2951
330.8103, 389.8338
331.2924, 386.4552
331.7745, 378.8646
332.2566, 371.9197
332.7387, 364.1625
333.2209, 359.4552
333.7030, 364.1091
334.1851, 378.1264
334.6672, 393.6343
335.1493, 407.1490
335.6314, 418.1196
336.1136, 425.7846
336.5957, 429.2666
337.0778, 430.6359
337.5599, 428.7230
338.0420, 425.4734
338.5241, 425.4789
339.0063, 430.8321
339.4884, 438.9632
339.9705, 444.9359
340.4526, 450.2595
340.9347, 450.4103
341.4168, 441.5739
341.8990, 429.7125
342.3811, 419.1595
342.8632, 410.9599
343.3453, 404.7614
343.8274, 400.0052
344.3095, 396.3932
344.7917, 396.1092
345.2738, 403.1794
345.7559, 409.4066
346.2380, 410.7222
346.7201, 408.7798
347.2022, 407.8538
347.6844, 411.1245
348.1665, 417.0474
348.6486, 418.7403
349.1307, 412.7244
349.6128, 408.8928
350.0949, 412.4471
350.5771, 418.0878
351.0592, 420.6799
351.5413, 418.7216
352.0234, 413.2156
352.5055, 403.5379
352.9876, 389.5446
353.4698, 379.3363
353.9519, 377.5865
354.4340, 377.3915
354.9161, 371.1263
355.3982, 358.8056
355.8803, 348.3892
356.3625, 346.5111
356.8446, 348.2612
357.3267, 343.4870
357.8088, 330.1953
358.2909, 316.9924
358.7730, 311.3695
359.2552, 312.8788
359.7373, 312.6356
360.2194, 306.1399
360.7015, 301.5884
361.1836, 306.7102
361.6657, 318.2863
362.1479, 326.3014
362.6300, 325.2646
363.1121, 317.8790
363.5942, 312.8381
364.0763, 310.0301
364.5584, 309.8162
365.0406, 315.8168
365.5227, 322.5290
366.0048, 323.2344
366.4869, 316.9314
366.9690, 309.5025
367.4511, 308.9014
367.9333, 317.3658
368.4154, 323.6866
368.8975, 329.1345
369.3796, 331.1745
369.8617, 325.9836
370.3438, 316.2034
370.8260, 308.3258
371.3081, 306.6486
371.7902, 309.9249
372.2723, 314.5889
372.7544, 321.9944
373.2365, 327.3430
373.7187, 328.4320
374.2008, 326.4918
374.6829, 321.5885
375.1650, 312.2565
375.6471, 304.6219
376.1292, 306.9993
376.6114, 317.0157
377.0935, 320.7492
377.5756, 312.5132
378.0577, 300.3387
378.5398, 294.1644
379.0219, 293.5813
379.5041, 296.5068
379.9862, 307.1653
380.4683, 318.2447
380.9504, 321.4419
381.4325, 316.6327
381.9146, 310.2354
382.3968, 306.4862
382.8789, 305.4426
383.3610, 309.1272
383.8431, 325.9189
384.3252, 337.1918
384.8073, 333.7247
385.2895, 322.7854
385.7716, 314.3466
386.2537, 312.5203
386.7358, 315.6663
387.2179, 321.6872
387.7000, 334.4257
388.1822, 340.6894
388.6643, 334.1908
389.1464, 325.9902
389.6285, 322.6919
390.1106, 324.2314
390.5927, 309.1572
391.0749, 328.5775
391.5570, 338.9015
392.0391, 340.6177
392.5212, 307.9450
393.0033, 319.6785
393.4854, 313.6159
393.9676, 306.8235
394.4497, 324.8068
394.9318, 297.1359
395.4139, 314.7264
395.8960, 314.2494
396.3781, 322.0414
396.8603, 311.9272
397.3424, 307.3439
397.8245, 320.6722
398.3066, 309.3839
398.7887, 319.7948
399.2708, 324.0667
399.7530, 316.2843
400.2351, 303.9814
400.7172, 292.7212
401.1993, 283.5916
401.6814, 276.8580
402.1635, 272.7167
402.6457, 271.1700
403.1278, 272.4027
403.6099, 281.5416
404.0920, 287.6356
404.5741, 289.0346
405.0562, 285.8711
405.5384, 276.7042
406.0205, 260.8682
406.5026, 244.3164
406.9847, 237.6773
407.4668, 243.1679
407.9489, 247.8531
408.4311, 248.1759
408.9132, 248.9489
409.3953, 255.9569
409.8774, 267.5348
410.3595, 273.3787
410.8416, 261.8767
411.3238, 242.1625
411.8059, 233.3181
412.2880, 236.9517
412.7701, 242.6519
413.2522, 244.9612
413.7343, 244.5378
414.2165, 244.2715
414.6986, 245.1762
415.1807, 244.8761
415.6628, 241.1301
416.1449, 235.7870
416.6270, 232.3151
417.1092, 231.7836
417.5913, 232.0597
418.0734, 230.6101
418.5555, 228.4535
419.0376, 220.6538
419.5197, 197.8418
420.0019, 178.8972
420.4840, 174.7361
420.9661, 182.3432
421.4482, 193.5020
421.9303, 204.0432
422.4124, 212.6195
422.8946, 213.5425
423.3767, 202.1845
423.8588, 194.0320
424.3409, 196.8517
424.8230, 202.1096
425.3051, 202.2487
425.7873, 195.9525
426.2694, 189.5687
426.7515, 188.9424
427.2336, 192.1808
427.7157, 192.5046
428.1978, 188.0611
428.6800, 184.6326
429.1621, 188.5993
429.6442, 198.4679
430.1263, 203.7024
430.6084, 201.6738
431.0905, 196.7348
431.5727, 189.7557
432.0548, 181.8108
432.5369, 174.2373
433.0190, 167.3917
433.5011, 163.4452
433.9832, 167.6335
434.4654, 190.2318
434.9475, 201.1025
435.4296, 191.2325
435.9117, 178.5804
436.3938, 174.4951
436.8759, 178.2595
437.3581, 182.5900
437.8402, 182.1785
438.3223, 177.9142
438.8044, 172.9061
439.2865, 165.2328
439.7686, 161.3994
440.2508, 167.6750
440.7329, 177.2263
441.2150, 183.0974
441.6971, 183.5871
442.1792, 182.8195
442.6613, 183.9809
443.1435, 186.1292
443.6256, 185.9964
444.1077, 182.4270
444.5898, 179.8721
445.0719, 183.2524
445.5540, 193.0034
446.0362, 199.9120
446.5183, 206.1846
447.0004, 207.5068
447.4825, 197.4605
447.9646, 181.5852
448.4467, 169.8610
448.9289, 166.7635
449.4110, 170.3579
449.8931, 177.9460
450.3752, 194.5324
450.8573, 203.4848
451.3394, 197.1519
451.8216, 189.6349
452.3037, 189.7185
452.7858, 195.9227
453.2679, 200.1820
453.7500, 195.1463
454.2321, 185.4780
454.7143, 183.3623
455.1964, 190.0441
455.6785, 197.5120
456.1606, 203.8740
456.6428, 207.9716
457.1249, 207.7034
457.6070, 200.9969
458.0891, 196.0962
458.5712, 198.8108
459.0533, 204.3533
459.5355, 205.5331
460.0176, 201.4272
460.4997, 196.7921
460.9818, 196.3667
461.4639, 200.2268
461.9460, 199.2910
462.4282, 185.3549
462.9103, 176.3831
463.3924, 179.9980
463.8745, 189.5825
464.3566, 196.9150
464.8387, 199.1866
465.3209, 199.4069
465.8030, 202.1280
466.2851, 207.7091
466.7672, 210.8923
467.2493, 211.2264
467.7314, 208.9344
468.2136, 202.1710
468.6957, 192.9495
469.1778, 187.0689
469.6599, 187.6884
470.1420, 191.3236
470.6241, 197.0383
471.1063, 203.5761
471.5884, 204.2984
472.0705, 195.6212
472.5526, 183.1888
473.0347, 176.6017
473.5168, 178.7502
473.9990, 180.4148
474.4811, 180.3947
474.9632, 180.8539
475.4453, 184.1418
475.9274, 189.2568
476.4095, 192.9232
476.8917, 192.7479
477.3738, 190.1893
477.8559, 190.6208
478.3380, 196.5676
478.8201, 199.1837
479.3022, 193.6845
479.7844, 185.9696
480.2665, 178.9368
480.7486, 173.1123
481.2307, 170.6471
481.7128, 175.5811
482.1949, 183.8663
482.6771, 188.2711
483.1592, 188.3519
483.6413, 185.5646
484.1234, 179.2950
484.6055, 171.3081
485.0876, 169.1370
485.5698, 176.7862
486.0519, 183.7559
486.5340, 189.9498
487.0161, 193.5249
487.4982, 190.9570
487.9803, 182.6685
488.4625, 174.0329
488.9446, 170.4374
489.4267, 171.7262
489.9088, 172.9954
490.3909, 174.1105
490.8730, 175.4241
491.3552, 177.5442
491.8373, 179.6738
492.3194, 180.4123
492.8015, 179.0661
493.2836, 178.6015
493.7657, 183.4278
494.2479, 191.0937
494.7300, 194.1144
495.2121, 191.0194
495.6942, 185.1030
496.1763, 178.4681
496.6584, 171.2037
497.1406, 164.6476
497.6227, 154.7790
498.1048, 150.1201
498.5869, 155.2821
499.0690, 166.7716
499.5511, 182.8720
500.0333, 202.0758
500.5154, 216.5707
500.9975, 213.5672
501.4796, 189.7201
501.9617, 173.8126
502.4438, 167.6485
502.9260, 167.6019
503.4081, 176.2224
503.8902, 188.3861
504.3723, 194.9671
504.8544, 191.5525
505.3365, 185.3440
505.8187, 183.2363
506.3008, 183.8168
506.7829, 181.6462
507.2650, 174.9948
507.7471, 167.5492
508.2292, 162.6184
508.7114, 160.1722
509.1935, 162.2339
509.6756, 175.5433
510.1577, 185.8339
510.6398, 186.4109
511.1219, 180.4798
511.6041, 172.1288
512.0862, 163.0534
512.5683, 155.5583
513.0504, 153.1676
513.5325, 156.1671
514.0146, 162.3072
514.4968, 176.0864
514.9789, 186.7767
515.4610, 185.9236
515.9431, 177.7731
516.4252, 172.0228
516.9073, 172.3076
517.3895, 174.6154
517.8716, 176.9582
518.3537, 178.7879
518.8358, 178.3808
519.3179, 175.1402
519.8000, 170.5117
520.2822, 165.9444
520.7643, 161.0898
521.2464, 158.4545
521.7285, 158.3820
522.2106, 159.7899
522.6927, 163.5242
523.1749, 168.1153
523.6570, 171.4735
524.1391, 172.8303
524.6212, 172.9926
525.1033, 173.7414
525.5854, 174.9877
526.0676, 171.8304
526.5497, 161.0893
527.0318, 150.8450
527.5139, 148.4754
527.9960, 151.7054
528.4781, 154.2203
528.9603, 154.1427
529.4424, 154.1986
529.9245, 155.7899
530.4066, 158.4947
530.8887, 162.3957
531.3708, 167.3375
531.8530, 170.6620
532.3351, 168.3243
532.8172, 159.0634
533.2993, 156.2188
533.7814, 167.6643
534.2635, 176.3942
534.7457, 176.6401
535.2278, 172.0871
535.7099, 167.2655
536.1920, 163.3555
536.6741, 160.4128
537.1563, 159.1860
537.6384, 159.0187
538.1205, 156.3230
538.6026, 149.7137
539.0847, 147.5482
539.5668, 158.9956
540.0490, 181.2393
540.5311, 191.7681
541.0132, 182.7194
541.4953, 173.2880
541.9774, 164.8367
542.4595, 159.9118
542.9417, 164.2581
543.4238, 176.9582
543.9059, 187.3124
544.3880, 183.5075
544.8701, 167.7519
545.3522, 159.1213
545.8344, 160.2555
546.3165, 162.1095
546.7986, 160.8680
547.2807, 158.6921
547.7628, 158.8334
548.2449, 162.4302
548.7271, 162.9868
549.2092, 153.8380
549.6913, 142.1049
550.1734, 136.5116
550.6555, 137.3876
551.1376, 141.5468
551.6198, 147.5097
552.1019, 154.2227
552.5840, 157.8860
553.0661, 155.8674
553.5482, 155.3041
554.0303, 155.9526
554.5125, 158.5560
554.9946, 166.4018
555.4767, 177.3083
555.9588, 183.2229
556.4409, 176.9666
556.9230, 165.2088
557.4052, 158.2539
557.8873, 155.8383
558.3694, 154.3804
558.8515, 152.3585
559.3336, 151.5608
559.8157, 155.5394
560.2979, 166.9287
560.7800, 171.6378
561.2621, 161.4589
561.7442, 152.6346
562.2263, 155.1446
562.7084, 164.4834
563.1906, 172.0786
563.6727, 174.3113
564.1548, 173.6524
564.6369, 173.6767
565.1190, 174.4384
565.6011, 173.9563
566.0833, 171.9156
566.5654, 168.8774
567.0475, 162.7898
567.5296, 156.1110
568.0117, 155.1969
568.4938, 166.0466
568.9760, 175.1903
569.4581, 174.5120
569.9402, 169.0826
570.4223, 166.6484
570.9044, 168.2033
571.3865, 168.1600
571.8687, 160.5017
572.3508, 146.4643
572.8329, 139.7261
573.3150, 143.2615
573.7971, 148.8946
574.2792, 157.9254
574.7614, 166.0483
575.2435, 168.8305
575.7256, 166.0019
576.2077, 162.4996
576.6898, 160.8104
577.1719, 160.1207
577.6541, 159.3813
578.1362, 158.5951
578.6183, 158.3948
579.1004, 159.3291
579.5825, 160.1687
580.0646, 158.1494
580.5468, 150.4715
581.0289, 146.3208
581.5110, 147.7551
581.9931, 150.1680
582.4752, 152.0116
582.9573, 153.0849
583.4395, 153.0256
583.9216, 151.2348
584.4037, 149.9026
584.8858, 152.6969
585.3679, 158.5654
585.8500, 162.1985
586.3322, 162.4333
586.8143, 161.3058
587.2964, 160.0692
587.7785, 158.8310
588.2606, 158.9566
588.7427, 165.6843
589.2249, 167.0208
589.7070, 150.8226
590.1891, 133.9059
590.6712, 137.7963
591.1533, 162.0460
591.6354, 183.0186
592.1176, 178.3927
592.5997, 156.4058
593.0818, 144.5781
593.5639, 144.0441
594.0460, 146.0696
594.5281, 149.1106
595.0103, 151.6783
595.4924, 150.5985
595.9745, 145.1874
596.4566, 142.7100
596.9387, 147.5730
597.4208, 152.5401
597.9030, 153.2523
598.3851, 150.5499
598.8672, 145.8589
599.3493, 139.8109
599.8314, 134.6142
600.3135, 133.9984
600.7957, 138.1847
601.2778, 142.1870
601.7599, 145.2202
602.2420, 149.1521
602.7241, 156.4666
603.2062, 165.0684
603.6884, 171.4429
604.1705, 176.5482
604.6526, 176.5737
605.1347, 164.7620
605.6168, 150.2890
606.0989, 143.1993
606.5811, 144.0409
607.0632, 148.8172
607.5453, 155.6680
608.0274, 162.1925
608.5095, 159.4421
608.9916, 143.1486
609.4738, 131.6302
609.9559, 128.2221
610.4380, 130.2180
610.9201, 138.3917
611.4022, 150.7716
611.8843, 158.7996
