##NAMES=Braggite
##RRUFFID=R070567
##IDEAL CHEMISTRY=PtS
##LOCALITY=Minneapolis Adit, J M Reef, Stillwater Complex, Beartooth Mountains, Stillwater County, Montana, USA
##OWNER=RRUFF
##SOURCE=James Shigley
##DESCRIPTION=Tin-white metallic massive
##STATUS=The identification of this mineral has been confirmed by single-crystal X-ray diffraction.
##URL=rruff.info/R070567
127.3680, 663.6068
127.8501, 706.7242
128.3322, 748.9929
128.8143, 762.0705
129.2965, 761.0049
129.7786, 777.4741
130.2607, 835.5301
130.7428, 913.8585
131.2249, 974.4638
131.7070, 1016.535
132.1892, 1045.967
132.6713, 1072.083
133.1534, 1093.127
133.6355, 1099.251
134.1176, 1076.253
134.5997, 1030.313
135.0819, 993.7786
135.5640, 972.3893
136.0461, 959.6027
136.5282, 938.3636
137.0103, 906.5509
137.4924, 880.0884
137.9746, 873.1808
138.4567, 886.3557
138.9388, 906.2592
139.4209, 932.1776
139.9030, 963.4178
140.3851, 990.4362
140.8673, 1015.033
141.3494, 1032.022
141.8315, 1032.377
142.3136, 1012.654
142.7957, 987.2377
143.2778, 958.9442
143.7600, 923.7797
144.2421, 901.5929
144.7242, 896.0081
145.2063, 903.4672
145.6884, 909.3521
146.1705, 908.7320
146.6527, 907.4119
147.1348, 902.5059
147.6169, 886.2728
148.0990, 880.8915
148.5811, 895.2675
149.0633, 932.3109
149.5454, 948.4507
150.0275, 931.2587
150.5096, 901.2479
150.9917, 882.3962
151.4738, 882.4162
151.9560, 884.9785
152.4381, 886.6081
152.9202, 890.2209
153.4023, 887.7309
153.8844, 874.9885
154.3665, 855.9966
154.8487, 841.1829
155.3308, 824.9926
155.8129, 817.0334
156.2950, 821.7568
156.7771, 869.7643
157.2592, 898.0384
157.7414, 889.7803
158.2235, 846.5726
158.7056, 808.5031
159.1877, 781.9404
159.6698, 763.5858
160.1519, 750.3812
160.6341, 741.1779
161.1162, 737.1805
161.5983, 741.3805
162.0804, 757.5533
162.5625, 768.2786
163.0446, 760.8391
163.5268, 744.7763
164.0089, 738.0989
164.4910, 762.6584
164.9731, 788.6717
165.4552, 796.8548
165.9373, 767.6115
166.4195, 740.7851
166.9016, 737.6486
167.3837, 753.9732
167.8658, 768.2961
168.3479, 768.9266
168.8300, 762.6115
169.3122, 756.2714
169.7943, 751.4799
170.2764, 748.1580
170.7585, 746.2474
171.2406, 745.7175
171.7227, 746.7139
172.2049, 754.7277
172.6870, 764.2242
173.1691, 765.0294
173.6512, 737.0049
174.1333, 705.1558
174.6154, 697.6545
175.0976, 726.3761
175.5797, 757.4354
176.0618, 756.8373
176.5439, 731.5468
177.0260, 707.8459
177.5081, 707.4647
177.9903, 718.3945
178.4724, 721.0804
178.9545, 703.6559
179.4366, 682.3718
179.9187, 679.6603
180.4008, 694.7620
180.8830, 712.2472
181.3651, 720.1500
181.8472, 720.1629
182.3293, 716.5190
182.8114, 708.7743
183.2935, 698.8863
183.7757, 689.6822
184.2578, 680.9444
184.7399, 674.6120
185.2220, 674.9567
185.7041, 680.8040
186.1862, 685.7909
186.6684, 683.1926
187.1505, 676.7584
187.6326, 679.0250
188.1147, 694.6591
188.5968, 713.7813
189.0790, 718.5294
189.5611, 709.1835
190.0432, 695.9661
190.5253, 686.2358
191.0074, 679.3232
191.4895, 671.0509
191.9717, 658.3503
192.4538, 644.5550
192.9359, 640.3193
193.4180, 646.7957
193.9001, 655.6791
194.3822, 656.6514
194.8644, 650.1273
195.3465, 647.5974
195.8286, 657.1829
196.3107, 676.3279
196.7928, 682.9413
197.2749, 674.3752
197.7571, 659.9250
198.2392, 655.3915
198.7213, 661.7428
199.2034, 666.1169
199.6855, 659.6264
200.1676, 642.1317
200.6498, 630.9110
201.1319, 627.9623
201.6140, 630.9214
202.0961, 634.4885
202.5782, 638.7449
203.0603, 643.1898
203.5425, 648.0944
204.0246, 653.6703
204.5067, 657.3096
204.9888, 658.5748
205.4709, 657.5679
205.9530, 654.2518
206.4352, 647.7003
206.9173, 641.0511
207.3994, 637.5246
207.8815, 637.6500
208.3636, 638.3431
208.8457, 639.2596
209.3279, 640.4271
209.8100, 639.8802
210.2921, 637.5197
210.7742, 633.6104
211.2563, 627.1492
211.7384, 615.9807
212.2206, 609.2391
212.7027, 613.8099
213.1848, 634.9039
213.6669, 640.5309
214.1490, 623.7906
214.6311, 595.9022
215.1133, 585.0801
215.5954, 597.5143
216.0775, 612.5851
216.5596, 618.7264
217.0417, 612.6479
217.5238, 608.7146
218.0060, 608.9828
218.4881, 612.3239
218.9702, 612.1755
219.4523, 605.9435
219.9344, 600.4161
220.4165, 602.0574
220.8987, 615.2484
221.3808, 623.8138
221.8629, 623.1119
222.3450, 613.3468
222.8271, 609.9062
223.3092, 615.7352
223.7914, 624.5011
224.2735, 629.5413
224.7556, 630.7720
225.2377, 628.5303
225.7198, 621.8501
226.2020, 609.6650
226.6841, 600.1469
227.1662, 593.8677
227.6483, 590.0068
228.1304, 587.3047
228.6125, 585.0751
229.0947, 585.1637
229.5768, 588.7141
230.0589, 597.4222
230.5410, 604.9434
231.0231, 611.7375
231.5052, 617.1175
231.9874, 619.5072
232.4695, 618.4683
232.9516, 615.0138
233.4337, 608.9576
233.9158, 597.3147
234.3979, 589.6970
234.8801, 587.6275
235.3622, 590.2162
235.8443, 592.5326
236.3264, 594.5610
236.8085, 596.3680
237.2906, 597.5325
237.7728, 595.7895
238.2549, 598.1575
238.7370, 608.0524
239.2191, 624.9546
239.7012, 634.1247
240.1833, 632.0817
240.6655, 625.7733
241.1476, 621.8845
241.6297, 622.2527
242.1118, 621.6896
242.5939, 618.6321
243.0760, 612.5322
243.5582, 608.7262
244.0403, 608.7532
244.5224, 609.8571
245.0045, 608.2123
245.4866, 601.8167
245.9688, 596.1180
246.4509, 592.6630
246.9330, 591.6913
247.4151, 592.5913
247.8972, 598.1339
248.3793, 604.0754
248.8615, 601.1931
249.3436, 581.2938
249.8257, 565.5497
250.3078, 563.9070
250.7899, 586.4117
251.2720, 598.1133
251.7542, 593.5410
252.2363, 579.3272
252.7184, 574.7598
253.2005, 585.7917
253.6826, 597.5731
254.1647, 602.2650
254.6469, 596.7876
255.1290, 591.0736
255.6111, 585.1127
256.0932, 579.3146
256.5753, 576.0960
257.0574, 576.5851
257.5396, 578.0595
258.0217, 578.4708
258.5038, 576.5125
258.9859, 576.7598
259.4680, 580.7810
259.9501, 588.0043
260.4323, 592.0070
260.9144, 590.7346
261.3965, 589.0245
261.8786, 591.5461
262.3607, 600.5763
262.8428, 608.2795
263.3250, 613.8541
263.8071, 617.2726
264.2892, 615.0380
264.7713, 603.7153
265.2534, 591.1895
265.7355, 587.1942
266.2177, 595.7038
266.6998, 601.9653
267.1819, 600.8050
267.6640, 591.4338
268.1461, 588.8203
268.6282, 596.6797
269.1104, 606.7031
269.5925, 606.3539
270.0746, 591.3900
270.5567, 578.5985
271.0388, 574.4619
271.5209, 580.2324
272.0031, 584.2145
272.4852, 586.0735
272.9673, 586.5717
273.4494, 586.5079
273.9315, 585.3497
274.4136, 585.5060
274.8958, 589.5697
275.3779, 599.0634
275.8600, 601.2288
276.3421, 593.3062
276.8242, 581.0703
277.3063, 576.8877
277.7885, 582.5294
278.2706, 588.8391
278.7527, 591.2206
279.2348, 589.3183
279.7169, 586.4943
280.1990, 582.3090
280.6812, 577.9249
281.1633, 575.5856
281.6454, 575.0620
282.1275, 577.6016
282.6096, 588.1225
283.0917, 607.2494
283.5739, 611.9011
284.0560, 594.5231
284.5381, 566.0116
285.0202, 556.2997
285.5023, 567.6866
285.9844, 580.8964
286.4666, 580.0562
286.9487, 565.8996
287.4308, 557.2190
287.9129, 557.5479
288.3950, 564.6266
288.8771, 576.2628
289.3593, 593.4352
289.8414, 604.5342
290.3235, 593.9944
290.8056, 565.1549
291.2877, 546.2972
291.7699, 545.2856
292.2520, 556.1749
292.7341, 566.7413
293.2162, 577.1317
293.6983, 584.2769
294.1805, 583.4276
294.6626, 576.1574
295.1447, 570.0245
295.6268, 566.4259
296.1089, 565.5278
296.5910, 568.3031
297.0732, 574.8059
297.5553, 582.3941
298.0374, 589.4067
298.5195, 595.6611
299.0016, 600.4431
299.4837, 603.4965
299.9659, 604.9089
300.4480, 605.1601
300.9301, 604.2589
301.4122, 601.1154
301.8943, 590.0825
302.3764, 575.6696
302.8586, 569.2103
303.3407, 580.2740
303.8228, 599.0186
304.3049, 611.7717
304.7870, 618.6174
305.2691, 623.6845
305.7513, 630.4529
306.2334, 638.0228
306.7155, 644.7867
307.1976, 649.9194
307.6797, 653.9749
308.1618, 656.6401
308.6440, 657.8900
309.1261, 660.3097
309.6082, 666.9611
310.0903, 675.9922
310.5724, 684.2092
311.0545, 691.5510
311.5367, 696.8210
312.0188, 696.6054
312.5009, 690.4307
312.9830, 688.1732
313.4651, 699.4666
313.9472, 718.0942
314.4294, 734.8420
314.9115, 741.0383
315.3936, 747.7751
315.8757, 763.6596
316.3578, 790.0277
316.8399, 815.6846
317.3221, 836.6964
317.8042, 853.2764
318.2863, 865.9214
318.7684, 873.6677
319.2505, 878.2739
319.7326, 878.3506
320.2148, 872.5905
320.6969, 872.0316
321.1790, 884.9844
321.6611, 904.0486
322.1432, 919.8934
322.6253, 920.8630
323.1075, 925.8919
323.5896, 943.0734
324.0717, 974.4584
324.5538, 1008.714
325.0359, 1037.470
325.5180, 1069.582
326.0002, 1115.810
326.4823, 1187.757
326.9644, 1264.900
327.4465, 1344.810
327.9286, 1431.310
328.4107, 1504.582
328.8929, 1575.058
329.3750, 1628.179
329.8571, 1647.183
330.3392, 1610.707
330.8213, 1560.696
331.3034, 1504.021
331.7856, 1439.464
332.2677, 1371.729
332.7498, 1298.289
333.2319, 1223.019
333.7140, 1150.131
334.1961, 1071.676
334.6783, 1006.273
335.1604, 959.1916
335.6425, 931.2267
336.1246, 916.0211
336.6067, 920.6122
337.0888, 931.9047
337.5710, 932.8754
338.0531, 918.6696
338.5352, 904.3644
339.0173, 893.0152
339.4994, 884.4812
339.9815, 880.9208
340.4637, 883.3602
340.9458, 889.2332
341.4279, 897.3338
341.9100, 909.7247
342.3921, 915.4147
342.8742, 908.7726
343.3564, 890.7316
343.8385, 878.0045
344.3206, 871.1978
344.8027, 868.7145
345.2848, 869.8343
345.7669, 874.6990
346.2491, 879.7930
346.7312, 883.5458
347.2133, 886.5854
347.6954, 892.5569
348.1775, 901.9739
348.6596, 911.9612
349.1418, 919.9632
349.6239, 926.0475
350.1060, 931.0313
350.5881, 935.3726
351.0702, 938.7471
351.5523, 938.2189
352.0345, 933.3635
352.5166, 932.3618
352.9987, 949.4077
353.4808, 977.1618
353.9629, 995.1066
354.4450, 991.6337
354.9272, 977.3509
355.4093, 963.7706
355.8914, 951.0417
356.3735, 942.7534
356.8556, 945.0241
357.3377, 952.8031
357.8199, 958.3552
358.3020, 959.1396
358.7841, 956.5791
359.2662, 952.2521
359.7483, 945.9728
360.2304, 935.9919
360.7126, 917.2472
361.1947, 895.8984
361.6768, 878.0320
362.1589, 866.1705
362.6410, 857.8454
363.1231, 853.8282
363.6053, 853.3020
364.0874, 850.8955
364.5695, 842.0246
365.0516, 831.6731
365.5337, 823.5641
366.0158, 820.6020
366.4980, 817.6963
366.9801, 813.1724
367.4622, 807.4369
367.9443, 802.6419
368.4264, 801.8814
368.9085, 800.3799
369.3907, 795.5737
369.8728, 781.6161
370.3549, 770.9551
370.8370, 762.9648
371.3191, 758.5417
371.8012, 761.7283
372.2834, 783.7734
372.7655, 802.9524
373.2476, 809.3304
373.7297, 794.8584
374.2119, 781.9109
374.6940, 769.8904
375.1761, 759.6461
375.6582, 753.5603
376.1403, 753.8206
376.6224, 754.5193
377.1046, 753.6517
377.5867, 751.8556
378.0688, 744.7542
378.5509, 728.4877
379.0330, 710.4610
379.5151, 707.7150
379.9973, 724.0349
380.4794, 738.9281
380.9615, 742.9096
381.4436, 735.8503
381.9257, 728.2369
382.4078, 719.5335
382.8900, 690.5328
383.3721, 714.6647
383.8542, 727.0782
384.3363, 728.4029
384.8184, 685.4274
385.3005, 699.6565
385.7827, 690.9600
386.2648, 681.3241
386.7469, 703.6047
387.2290, 667.0724
387.7111, 688.8468
388.1932, 687.3461
388.6754, 696.4973
389.1575, 682.5825
389.6396, 675.7923
390.1217, 692.0759
390.6038, 695.5834
391.0859, 679.0131
391.5681, 688.8414
392.0502, 651.5035
392.5323, 669.5817
393.0144, 677.8867
393.4965, 682.9799
393.9786, 685.0267
394.4608, 685.0871
394.9429, 678.4576
395.4250, 672.5527
395.9071, 674.2103
396.3892, 697.0969
396.8713, 715.2616
397.3535, 716.9275
397.8356, 705.1386
398.3177, 694.9969
398.7998, 692.0345
399.2819, 690.7401
399.7640, 687.8574
400.2462, 677.5847
400.7283, 672.7323
401.2104, 678.3713
401.6925, 690.9190
402.1746, 698.6719
402.6567, 700.2523
403.1389, 698.3337
403.6210, 693.9645
404.1031, 687.5483
404.5852, 677.2924
405.0673, 659.5533
405.5494, 639.7042
406.0316, 628.7924
406.5137, 628.9957
406.9958, 632.9910
407.4779, 639.4623
407.9600, 649.1071
408.4421, 654.5642
408.9243, 655.2477
409.4064, 652.9352
409.8885, 649.4771
410.3706, 644.7463
410.8527, 640.6753
411.3348, 640.1922
411.8170, 641.1639
412.2991, 629.9193
412.7812, 604.7157
413.2633, 581.4917
413.7454, 579.8632
414.2275, 595.0416
414.7097, 608.9988
415.1918, 617.8614
415.6739, 621.1890
416.1560, 616.0820
416.6381, 603.2781
417.1202, 590.1592
417.6024, 582.1096
418.0845, 577.2100
418.5666, 572.6231
419.0487, 567.5886
419.5308, 562.7097
420.0129, 558.5171
420.4951, 554.8817
420.9772, 551.2899
421.4593, 546.3840
421.9414, 542.1301
422.4235, 539.9890
422.9056, 540.3901
423.3878, 542.4410
423.8699, 549.3690
424.3520, 557.5040
424.8341, 559.7315
425.3162, 546.9826
425.7983, 534.7454
426.2805, 528.7208
426.7626, 531.1577
427.2447, 534.2776
427.7268, 539.4058
428.2089, 544.3885
428.6910, 546.6533
429.1732, 544.4013
429.6553, 542.2003
430.1374, 541.7124
430.6195, 543.1031
431.1016, 540.2546
431.5837, 530.7042
432.0659, 520.6398
432.5480, 515.3408
433.0301, 514.9021
433.5122, 519.2999
433.9943, 530.5697
434.4764, 545.8217
434.9586, 555.5529
435.4407, 559.5750
435.9228, 558.9056
436.4049, 551.0304
436.8870, 537.8811
437.3691, 530.5647
437.8513, 531.6538
438.3334, 536.9725
438.8155, 541.1962
439.2976, 544.4691
439.7797, 547.2613
440.2618, 551.0192
440.7440, 554.0760
441.2261, 553.2956
441.7082, 547.6974
442.1903, 542.1003
442.6724, 539.1651
443.1545, 539.0043
443.6367, 541.8293
444.1188, 552.5170
444.6009, 562.3387
445.0830, 565.6965
445.5651, 562.2048
446.0472, 557.7004
446.5294, 552.8437
447.0115, 548.6095
447.4936, 545.9069
447.9757, 543.9384
448.4578, 544.5504
448.9399, 549.9944
449.4221, 559.5179
449.9042, 565.6761
450.3863, 567.9797
450.8684, 567.3136
451.3505, 563.7770
451.8326, 555.2312
452.3148, 547.7720
452.7969, 539.6957
453.2790, 533.5709
453.7611, 537.3695
454.2432, 555.4680
454.7253, 570.8058
455.2075, 574.9208
455.6896, 567.3849
456.1717, 560.6757
456.6538, 554.4142
457.1360, 549.7809
457.6181, 548.4825
458.1002, 550.3904
458.5823, 554.2429
459.0644, 560.2575
459.5465, 567.6489
460.0287, 576.2338
460.5108, 585.7919
460.9929, 592.3617
461.4750, 591.0843
461.9571, 584.7987
462.4392, 577.7060
462.9214, 568.1487
463.4035, 562.0204
463.8856, 567.8009
464.3677, 581.8979
464.8498, 592.3726
465.3319, 592.9084
465.8141, 588.2210
466.2962, 580.3884
466.7783, 567.2089
467.2604, 557.5916
467.7425, 558.4935
468.2246, 563.6491
468.7068, 563.6667
469.1889, 546.9117
469.6710, 535.0524
470.1531, 534.9896
470.6352, 548.1953
471.1173, 560.4986
471.5995, 574.4523
472.0816, 585.1671
472.5637, 587.7029
473.0458, 578.1852
473.5279, 570.7545
474.0100, 568.0135
474.4922, 568.7044
474.9743, 567.3948
475.4564, 563.3729
475.9385, 560.5963
476.4206, 561.1879
476.9027, 565.1398
477.3849, 574.3096
477.8670, 591.1918
478.3491, 606.8052
478.8312, 605.5547
479.3133, 590.3737
479.7954, 575.5618
480.2776, 567.6227
480.7597, 564.1371
481.2418, 563.5073
481.7239, 565.7861
482.2060, 565.5644
482.6881, 554.5659
483.1703, 540.0676
483.6524, 531.2949
484.1345, 536.0070
484.6166, 542.2297
485.0987, 544.1486
485.5808, 542.8251
486.0630, 543.3296
486.5451, 548.2249
487.0272, 554.5615
487.5093, 561.1204
487.9914, 570.1771
488.4735, 575.0552
488.9557, 573.6840
489.4378, 568.7054
489.9199, 564.4956
490.4020, 561.5388
490.8841, 558.5853
491.3662, 555.1074
491.8484, 551.1315
492.3305, 547.4383
492.8126, 543.0580
493.2947, 541.1887
493.7768, 546.2759
494.2589, 558.5013
494.7411, 569.6689
495.2232, 579.1385
495.7053, 585.6631
496.1874, 586.6530
496.6695, 582.2862
497.1516, 574.6360
497.6338, 559.5776
498.1159, 543.5187
498.5980, 539.6078
499.0801, 552.2137
499.5622, 565.0576
500.0443, 561.8832
500.5265, 550.1169
501.0086, 542.7510
501.4907, 551.1676
501.9728, 560.5140
502.4549, 561.3266
502.9370, 553.3871
503.4192, 548.3289
503.9013, 552.6359
504.3834, 559.2005
504.8655, 563.0443
505.3476, 559.0745
505.8297, 557.9439
506.3119, 562.3716
506.7940, 569.8757
507.2761, 573.3448
507.7582, 571.5509
508.2403, 567.8190
508.7224, 562.4877
509.2046, 554.9461
509.6867, 551.7582
510.1688, 553.7795
510.6509, 558.2433
511.1330, 563.1738
511.6151, 568.3984
512.0973, 569.6653
512.5794, 564.3039
513.0615, 555.3511
513.5436, 549.3870
514.0258, 546.1654
514.5079, 542.2609
514.9900, 531.3881
515.4721, 519.5151
515.9542, 516.1713
516.4363, 525.1854
516.9185, 535.9404
517.4006, 542.8527
517.8827, 546.1322
518.3648, 546.1644
518.8469, 538.9241
519.3290, 532.2178
519.8112, 530.0670
520.2933, 532.9787
520.7754, 535.0944
521.2575, 535.8452
521.7396, 535.2283
522.2217, 533.0924
522.7039, 526.6279
523.1860, 523.5029
523.6681, 526.3665
524.1502, 532.3084
524.6323, 531.8643
525.1144, 522.4539
525.5966, 514.3701
526.0787, 513.0911
526.5608, 518.4800
527.0429, 522.2463
527.5250, 524.2534
528.0071, 524.9860
528.4893, 523.4589
528.9714, 520.6741
529.4535, 521.2383
529.9356, 529.5972
530.4177, 538.8297
530.8998, 538.4472
531.3820, 530.1206
531.8641, 521.7828
532.3462, 517.2211
532.8283, 515.4440
533.3104, 516.1993
533.7925, 520.3587
534.2747, 523.9985
534.7568, 523.6807
535.2389, 522.4506
535.7210, 524.4620
536.2031, 534.9642
536.6852, 544.0206
537.1674, 549.7502
537.6495, 552.1783
538.1316, 552.1223
538.6137, 548.4348
539.0958, 543.6948
539.5779, 539.6752
540.0601, 536.8939
540.5422, 531.7314
541.0243, 522.3611
541.5064, 512.9985
541.9885, 512.8725
542.4706, 521.8950
542.9528, 528.7170
543.4349, 526.8911
543.9170, 520.1255
544.3991, 518.2690
544.8812, 521.1871
545.3633, 522.1514
545.8455, 512.0220
546.3276, 497.8703
546.8097, 489.6313
547.2918, 491.5156
547.7739, 496.2926
548.2560, 500.7170
548.7382, 504.9720
549.2203, 509.4400
549.7024, 513.4004
550.1845, 518.3943
550.6666, 525.9951
551.1487, 537.2924
551.6309, 544.6948
552.1130, 547.0372
552.5951, 546.2651
553.0772, 543.5417
553.5593, 537.9897
554.0414, 532.8372
554.5236, 528.6212
555.0057, 524.8701
555.4878, 519.5888
555.9699, 512.4617
556.4520, 507.3274
556.9341, 506.6377
557.4163, 509.5740
557.8984, 513.7216
558.3805, 519.2162
558.8626, 524.1285
559.3447, 526.5746
559.8268, 527.2987
560.3090, 527.6125
560.7911, 528.2121
561.2732, 528.0959
561.7553, 526.3287
562.2374, 523.2650
562.7195, 519.9514
563.2017, 515.0192
563.6838, 511.4186
564.1659, 510.9965
564.6480, 514.8558
565.1301, 517.8235
565.6122, 520.0818
566.0944, 521.0327
566.5765, 519.6712
567.0586, 513.9595
567.5407, 511.2317
568.0228, 514.1105
568.5049, 519.6799
568.9871, 517.6328
569.4692, 506.7565
569.9513, 498.2881
570.4334, 501.3907
570.9155, 512.2449
571.3976, 516.1213
571.8798, 512.2272
572.3619, 505.9788
572.8440, 500.7242
573.3261, 497.0056
573.8082, 496.0156
574.2903, 499.3373
574.7725, 503.8116
575.2546, 509.7076
575.7367, 515.4317
576.2188, 516.6223
576.7009, 506.5567
577.1830, 496.1032
577.6652, 490.0529
578.1473, 489.8197
578.6294, 490.1350
579.1115, 492.5592
579.5936, 494.1120
580.0757, 491.3535
580.5579, 481.1846
581.0400, 476.0971
581.5221, 478.9388
582.0042, 486.5775
582.4863, 491.3461
582.9684, 493.2119
583.4506, 493.8176
583.9327, 492.3230
584.4148, 490.3206
584.8969, 493.3176
585.3790, 501.5495
585.8611, 509.2395
586.3433, 513.0305
586.8254, 513.0528
587.3075, 508.8529
587.7896, 496.5286
588.2717, 486.4318
588.7538, 485.0549
589.2360, 489.6222
589.7181, 494.1989
590.2002, 498.0497
590.6823, 500.9034
591.1644, 502.5533
591.6465, 503.0092
592.1287, 502.7973
592.6108, 502.5122
593.0929, 500.8170
593.5750, 495.3988
594.0571, 484.9671
594.5392, 480.8603
595.0214, 486.2149
595.5035, 494.1178
595.9856, 491.2249
596.4677, 478.9456
596.9498, 468.7635
597.4319, 465.4612
597.9141, 467.3218
598.3962, 474.0660
598.8783, 484.9633
599.3604, 493.7673
599.8425, 493.5531
600.3246, 491.1214
600.8068, 493.2999
601.2889, 504.4403
601.7710, 511.8283
602.2531, 508.6841
602.7352, 500.6559
603.2173, 495.5529
603.6995, 495.0854
604.1816, 495.8833
604.6637, 497.6391
605.1458, 500.2899
605.6279, 504.3424
606.1100, 511.3918
606.5922, 514.8290
607.0743, 508.5393
607.5564, 493.6896
608.0385, 483.6395
608.5206, 479.0943
609.0027, 477.7314
609.4849, 478.5547
609.9670, 480.6525
610.4491, 481.9708
610.9312, 481.9939
611.4133, 480.9411
611.8954, 476.5657
612.3776, 471.0244
612.8597, 470.1031
613.3418, 482.0662
613.8239, 494.0162
614.3060, 499.5390
614.7881, 497.0801
615.2703, 495.8073
615.7524, 496.2157
616.2345, 497.7786
616.7166, 500.8296
617.1987, 506.9129
617.6808, 508.4857
618.1630, 503.4121
618.6451, 495.8047
619.1272, 493.8052
619.6093, 497.1596
620.0914, 499.4788
620.5735, 496.7646
621.0557, 492.3293
621.5378, 494.2156
622.0199, 501.2766
622.5020, 504.1014
622.9841, 491.1064
623.4662, 474.1285
623.9484, 464.0787
624.4305, 463.6173
624.9126, 465.8195
