##NAMES=Braitschite-(Ce)
##RRUFFID=R060008
##IDEAL CHEMISTRY=Ca_6.15_Na_0.85_Ce_2_[B_6_O_7_(OH)_3_(O,OH)_3_]_4_&#183;H_2_O
##LOCALITY=Texas Gulf Sulfur Potash mine, Cisco, Utah, USA
##OWNER=RRUFF
##SOURCE=University of Arizona Mineral Museum
##DESCRIPTION=Pink blebs embedded in anhydrite
##STATUS=The identification of this mineral has been confirmed by X-ray diffraction.
##URL=rruff.info/R060008
102.2890, 804.3240
102.7711, 828.9473
103.2532, 845.3383
103.7353, 872.1888
104.2175, 909.2975
104.6996, 957.1823
105.1817, 1020.246
105.6638, 1112.631
106.1459, 1200.324
106.6280, 1268.512
107.1102, 1298.341
107.5923, 1337.982
108.0744, 1384.203
108.5565, 1439.068
109.0386, 1513.695
109.5207, 1615.568
110.0029, 1733.781
110.4850, 1861.243
110.9671, 2005.512
111.4492, 2152.989
111.9313, 2308.251
112.4134, 2477.733
112.8956, 2624.654
113.3777, 2728.481
113.8598, 2809.737
114.3419, 2897.082
114.8240, 3001.735
115.3061, 3110.311
115.7883, 3214.581
116.2704, 3311.032
116.7525, 3411.148
117.2346, 3513.937
117.7167, 3622.324
118.1988, 3745.481
118.6810, 3899.907
119.1631, 4067.703
119.6452, 4231.124
120.1273, 4386.093
120.6094, 4535.518
121.0915, 4681.294
121.5737, 4823.439
122.0558, 4960.674
122.5379, 5099.974
123.0200, 5233.559
123.5021, 5347.390
123.9842, 5425.510
124.4664, 5483.866
124.9485, 5537.741
125.4306, 5585.622
125.9127, 5638.886
126.3948, 5720.980
126.8769, 5824.956
127.3591, 5917.755
127.8412, 5966.743
128.3233, 5987.050
128.8054, 6012.815
129.2875, 6048.710
129.7696, 6089.422
130.2518, 6130.219
130.7339, 6178.167
131.2160, 6226.879
131.6981, 6250.292
132.1802, 6251.278
132.6623, 6254.221
133.1445, 6264.445
133.6266, 6282.401
134.1087, 6311.002
134.5908, 6348.966
135.0729, 6399.183
135.5550, 6473.038
136.0372, 6573.410
136.5193, 6669.958
137.0014, 6749.686
137.4835, 6811.768
137.9656, 6859.449
138.4477, 6891.305
138.9299, 6909.653
139.4120, 6922.098
139.8941, 6926.669
140.3762, 6930.051
140.8583, 6938.055
141.3404, 6952.487
141.8226, 6966.427
142.3047, 6980.545
142.7868, 6995.184
143.2689, 6998.143
143.7510, 6976.497
144.2331, 6954.504
144.7152, 6966.746
145.1974, 7041.989
145.6795, 7106.957
146.1616, 7140.115
146.6437, 7130.412
147.1258, 7115.849
147.6079, 7087.069
148.0901, 7053.504
148.5722, 7042.198
149.0543, 7074.245
149.5364, 7109.404
150.0185, 7129.972
150.5006, 7121.309
150.9828, 7115.251
151.4649, 7111.330
151.9470, 7109.785
152.4291, 7114.364
152.9112, 7134.873
153.3933, 7156.042
153.8755, 7167.268
154.3576, 7163.753
154.8397, 7153.586
155.3218, 7134.474
155.8039, 7103.546
156.2860, 7081.378
156.7682, 7087.522
157.2503, 7100.361
157.7324, 7092.869
158.2145, 7038.465
158.6966, 6978.486
159.1787, 6929.211
159.6609, 6893.632
160.1430, 6866.765
160.6251, 6857.360
161.1072, 6856.778
161.5893, 6844.623
162.0714, 6809.831
162.5536, 6763.477
163.0357, 6712.451
163.5178, 6650.190
163.9999, 6592.815
164.4820, 6546.833
164.9641, 6511.838
165.4463, 6487.222
165.9284, 6480.586
166.4105, 6429.320
166.8926, 6482.782
167.3747, 6508.186
167.8568, 6507.059
168.3390, 6398.836
168.8211, 6429.747
169.3032, 6405.416
169.7853, 6379.172
170.2674, 6430.716
170.7495, 6339.964
171.2317, 6391.015
171.7138, 6385.976
172.1959, 6407.144
172.6780, 6372.727
173.1601, 6355.958
173.6422, 6395.530
174.1244, 6404.477
174.6065, 6365.088
175.0886, 6390.105
175.5707, 6301.076
176.0528, 6312.814
176.5349, 6368.238
177.0171, 6333.500
177.4992, 6361.379
177.9813, 6365.918
178.4634, 6263.085
178.9455, 6347.990
179.4276, 6352.231
179.9098, 6273.638
180.3919, 6353.226
180.8740, 6286.838
181.3561, 6273.054
181.8382, 6298.948
182.3203, 6284.230
182.8025, 6334.489
183.2846, 6322.873
183.7667, 6306.063
184.2488, 6313.890
184.7309, 6253.314
185.2130, 6320.689
185.6951, 6301.281
186.1773, 6325.562
186.6594, 6360.030
187.1415, 6319.680
187.6236, 6359.294
188.1057, 6275.841
188.5878, 6296.038
189.0700, 6305.482
189.5521, 6381.310
190.0342, 6372.326
190.5163, 6383.815
190.9984, 6379.761
191.4805, 6373.881
191.9627, 6373.227
192.4448, 6377.864
192.9269, 6392.540
193.4090, 6423.407
193.8911, 6461.543
194.3732, 6479.690
194.8554, 6476.409
195.3375, 6462.621
195.8196, 6444.801
196.3017, 6422.888
196.7838, 6406.436
197.2659, 6398.288
197.7481, 6398.006
198.2302, 6401.813
198.7123, 6409.688
199.1944, 6422.329
199.6765, 6444.812
200.1586, 6479.953
200.6408, 6505.362
201.1229, 6507.908
201.6050, 6487.029
202.0871, 6481.980
202.5692, 6497.316
203.0513, 6521.187
203.5335, 6532.459
204.0156, 6527.748
204.4977, 6523.930
204.9798, 6532.572
205.4619, 6557.417
205.9440, 6563.019
206.4262, 6539.319
206.9083, 6502.040
207.3904, 6495.046
207.8725, 6528.497
208.3546, 6563.911
208.8367, 6574.869
209.3189, 6552.164
209.8010, 6545.428
210.2831, 6565.590
210.7652, 6604.209
211.2473, 6621.095
211.7294, 6607.059
212.2116, 6589.761
212.6937, 6591.146
213.1758, 6616.747
213.6579, 6644.452
214.1400, 6674.711
214.6221, 6706.715
215.1043, 6721.771
215.5864, 6712.040
216.0685, 6697.444
216.5506, 6697.653
217.0327, 6715.983
217.5148, 6741.349
217.9970, 6775.320
218.4791, 6818.846
218.9612, 6846.615
219.4433, 6848.960
219.9254, 6844.599
220.4075, 6859.857
220.8897, 6904.997
221.3718, 6947.917
221.8539, 6979.868
222.3360, 7001.883
222.8181, 7007.246
223.3002, 6986.365
223.7824, 6954.632
224.2645, 6941.417
224.7466, 6956.305
225.2287, 6973.178
225.7108, 6983.962
226.1929, 6991.683
226.6750, 6983.913
227.1572, 6951.718
227.6393, 6906.971
228.1214, 6880.932
228.6035, 6883.906
229.0856, 6890.661
229.5677, 6888.570
230.0499, 6872.107
230.5320, 6859.559
231.0141, 6852.804
231.4962, 6850.539
231.9783, 6848.258
232.4604, 6849.466
232.9426, 6846.035
233.4247, 6830.678
233.9068, 6791.364
234.3889, 6766.283
234.8710, 6765.949
235.3531, 6786.302
235.8353, 6788.021
236.3174, 6756.116
236.7995, 6722.773
237.2816, 6714.229
237.7637, 6747.709
238.2458, 6773.073
238.7280, 6782.939
239.2101, 6777.501
239.6922, 6765.700
240.1743, 6740.048
240.6564, 6715.394
241.1385, 6705.979
241.6207, 6718.103
242.1028, 6734.601
242.5849, 6757.139
243.0670, 6787.836
243.5491, 6795.392
244.0313, 6766.471
244.5134, 6725.558
244.9955, 6700.542
245.4776, 6695.342
245.9597, 6699.767
246.4418, 6715.792
246.9240, 6748.464
247.4061, 6762.159
247.8882, 6746.234
248.3703, 6719.010
248.8524, 6708.282
249.3345, 6725.644
249.8167, 6739.442
250.2988, 6738.888
250.7809, 6719.075
251.2630, 6703.933
251.7451, 6693.814
252.2272, 6688.131
252.7094, 6685.778
253.1915, 6685.630
253.6736, 6690.648
254.1557, 6703.263
254.6378, 6727.699
255.1199, 6746.620
255.6021, 6758.698
256.0842, 6765.778
256.5663, 6771.775
257.0484, 6777.509
257.5305, 6780.837
258.0126, 6780.287
258.4948, 6773.851
258.9769, 6770.426
259.4590, 6774.594
259.9411, 6780.420
260.4232, 6768.549
260.9053, 6727.204
261.3875, 6689.894
261.8696, 6674.829
262.3517, 6689.236
262.8338, 6704.479
263.3159, 6721.004
263.7980, 6736.943
264.2802, 6742.187
264.7623, 6727.382
265.2444, 6720.393
265.7265, 6743.942
266.2086, 6811.288
266.6907, 6857.655
267.1729, 6872.634
267.6550, 6862.988
268.1371, 6851.755
268.6192, 6834.336
269.1013, 6825.492
269.5834, 6841.098
270.0656, 6889.459
270.5477, 6921.603
271.0298, 6927.015
271.5119, 6912.356
271.9940, 6907.562
272.4761, 6917.160
272.9583, 6925.493
273.4404, 6916.025
273.9225, 6882.805
274.4046, 6867.379
274.8867, 6881.786
275.3688, 6917.903
275.8510, 6936.324
276.3331, 6931.318
276.8152, 6925.725
277.2973, 6942.942
277.7794, 6986.434
278.2615, 7019.954
278.7437, 7036.883
279.2258, 7038.625
279.7079, 7026.348
280.1900, 6995.522
280.6721, 6968.266
281.1542, 6969.055
281.6364, 6999.356
282.1185, 7024.644
282.6006, 7037.304
283.0827, 7039.532
283.5648, 7038.648
284.0469, 7034.107
284.5291, 7029.542
285.0112, 7025.386
285.4933, 7021.911
285.9754, 7029.652
286.4575, 7055.095
286.9396, 7092.514
287.4217, 7124.537
287.9038, 7151.558
288.3860, 7169.146
288.8681, 7165.017
289.3502, 7142.336
289.8323, 7131.647
290.3144, 7149.026
290.7965, 7181.911
291.2787, 7191.145
291.7608, 7174.651
292.2429, 7157.500
292.7250, 7173.007
293.2071, 7212.889
293.6892, 7234.924
294.1714, 7217.256
294.6535, 7176.837
295.1356, 7149.131
295.6177, 7134.527
296.0998, 7126.112
296.5819, 7115.413
297.0641, 7105.075
297.5462, 7103.914
298.0283, 7118.081
298.5104, 7141.493
298.9925, 7169.053
299.4746, 7200.946
299.9568, 7223.845
300.4389, 7213.123
300.9210, 7184.038
301.4031, 7172.351
301.8852, 7205.405
302.3673, 7253.928
302.8495, 7281.626
303.3316, 7288.340
303.8137, 7284.772
304.2958, 7274.310
304.7779, 7259.833
305.2600, 7246.771
305.7422, 7237.843
306.2243, 7230.695
306.7064, 7224.649
307.1885, 7219.461
307.6706, 7210.943
308.1527, 7191.486
308.6349, 7167.958
309.1170, 7150.231
309.5991, 7152.185
310.0812, 7153.820
310.5633, 7134.793
311.0454, 7096.572
311.5276, 7065.920
312.0097, 7069.796
312.4918, 7086.285
312.9739, 7090.948
313.4560, 7055.189
313.9381, 7021.820
314.4203, 7025.643
314.9024, 7062.683
315.3845, 7081.489
315.8666, 7037.194
316.3487, 6971.965
316.8308, 6925.631
317.3130, 6930.145
317.7951, 6936.870
318.2772, 6920.955
318.7593, 6885.183
319.2414, 6863.614
319.7235, 6889.332
320.2057, 6922.687
320.6878, 6932.281
321.1699, 6875.514
321.6520, 6830.397
322.1341, 6825.396
322.6162, 6856.163
323.0984, 6877.046
323.5805, 6874.553
324.0626, 6862.325
324.5447, 6849.576
325.0268, 6838.076
325.5089, 6825.555
325.9911, 6803.846
326.4732, 6775.834
326.9553, 6769.706
327.4374, 6809.722
327.9195, 6856.787
328.4016, 6888.613
328.8838, 6894.137
329.3659, 6897.505
329.8480, 6894.868
330.3301, 6888.815
330.8122, 6897.090
331.2943, 6936.728
331.7765, 6973.699
332.2586, 6986.982
332.7407, 6954.095
333.2228, 6939.185
333.7049, 6955.373
334.1870, 6992.850
334.6692, 7010.986
335.1513, 7005.671
335.6334, 6988.332
336.1155, 6960.919
336.5976, 6913.501
337.0797, 6887.371
337.5619, 6887.228
338.0440, 6908.847
338.5261, 6947.973
339.0082, 7016.324
339.4903, 7066.716
339.9724, 7060.091
340.4546, 6986.058
340.9367, 6948.492
341.4188, 6961.965
341.9009, 7002.890
342.3830, 7019.283
342.8651, 7008.148
343.3473, 7001.280
343.8294, 7026.544
344.3115, 7079.786
344.7936, 7096.842
345.2757, 7066.678
345.7578, 7019.591
346.2400, 7000.203
346.7221, 7007.973
347.2042, 7027.495
347.6863, 7060.008
348.1684, 7098.978
348.6505, 7121.563
349.1327, 7124.807
349.6148, 7120.701
350.0969, 7123.509
350.5790, 7131.203
351.0611, 7136.534
351.5432, 7133.500
352.0254, 7126.445
352.5075, 7121.024
352.9896, 7117.134
353.4717, 7117.585
353.9538, 7127.479
354.4359, 7143.612
354.9181, 7159.413
355.4002, 7179.354
355.8823, 7193.581
356.3644, 7190.637
356.8465, 7170.433
357.3286, 7146.168
357.8108, 7115.014
358.2929, 7088.104
358.7750, 7079.150
359.2571, 7116.659
359.7392, 7154.010
360.2213, 7161.441
360.7035, 7140.734
361.1856, 7122.073
361.6677, 7127.079
362.1498, 7135.880
362.6319, 7131.291
363.1140, 7088.157
363.5962, 7051.732
364.0783, 7038.237
364.5604, 7044.827
365.0425, 7051.177
365.5246, 7058.341
366.0067, 7060.142
366.4889, 7052.873
366.9710, 7012.709
367.4531, 6990.767
367.9352, 7001.176
368.4173, 7036.420
368.8994, 7063.421
369.3815, 7088.002
369.8636, 7098.624
370.3458, 7088.712
370.8279, 7038.351
371.3100, 7001.211
371.7921, 6978.109
372.2742, 6967.734
372.7563, 6968.693
373.2385, 6989.002
373.7206, 7007.216
374.2027, 7012.167
374.6848, 6997.547
375.1669, 6996.482
375.6490, 7013.633
376.1312, 7039.445
376.6133, 7058.069
377.0954, 7067.735
377.5775, 7077.602
378.0596, 7090.872
378.5417, 7107.342
379.0239, 7128.158
379.5060, 7154.958
379.9881, 7180.855
380.4702, 7196.400
380.9523, 7201.964
381.4344, 7203.814
381.9166, 7200.152
382.3987, 7195.012
382.8808, 7203.007
383.3629, 7224.685
383.8450, 7248.370
384.3271, 7258.771
384.8093, 7261.271
385.2914, 7273.437
385.7735, 7307.375
386.2556, 7346.549
386.7377, 7362.152
387.2198, 7357.537
387.7020, 7359.031
388.1841, 7394.055
388.6662, 7443.870
389.1483, 7484.193
389.6304, 7508.375
390.1125, 7522.797
390.5947, 7523.647
391.0768, 7517.220
391.5589, 7522.879
392.0410, 7562.219
392.5231, 7610.068
393.0052, 7647.764
393.4874, 7667.711
393.9695, 7687.859
394.4516, 7721.342
394.9337, 7759.219
395.4158, 7785.164
395.8979, 7780.571
396.3801, 7774.803
396.8622, 7779.701
397.3443, 7798.597
397.8264, 7819.048
398.3085, 7846.149
398.7906, 7871.368
399.2728, 7884.128
399.7549, 7875.153
400.2370, 7863.977
400.7191, 7855.230
401.2012, 7849.613
401.6833, 7836.384
402.1655, 7807.993
402.6476, 7779.948
403.1297, 7766.236
403.6118, 7771.767
404.0939, 7781.377
404.5760, 7798.854
405.0582, 7819.224
405.5403, 7808.724
406.0224, 7756.438
406.5045, 7705.203
406.9866, 7692.125
407.4688, 7720.302
407.9509, 7726.931
408.4330, 7700.701
408.9151, 7656.183
409.3972, 7621.927
409.8793, 7598.070
410.3615, 7578.694
410.8436, 7561.826
411.3257, 7546.711
411.8078, 7529.367
412.2899, 7508.031
412.7720, 7491.072
413.2542, 7494.564
413.7363, 7511.883
414.2184, 7523.271
414.7005, 7514.260
415.1826, 7497.062
415.6647, 7488.189
416.1469, 7488.306
416.6290, 7482.799
417.1111, 7453.305
417.5932, 7413.739
418.0753, 7383.273
418.5574, 7378.472
419.0396, 7374.535
419.5217, 7356.721
420.0038, 7327.176
420.4859, 7299.533
420.9680, 7273.824
421.4501, 7255.274
421.9323, 7248.155
422.4144, 7256.327
422.8965, 7271.546
423.3786, 7301.211
423.8607, 7338.225
424.3428, 7362.159
424.8250, 7367.492
425.3071, 7363.554
425.7892, 7351.516
426.2713, 7323.620
426.7534, 7308.806
427.2355, 7313.963
427.7177, 7327.778
428.1998, 7332.786
428.6819, 7323.167
429.1640, 7317.054
429.6461, 7319.931
430.1282, 7331.371
430.6104, 7341.310
431.0925, 7348.250
431.5746, 7356.549
432.0567, 7373.042
432.5388, 7398.006
433.0209, 7416.380
433.5031, 7424.878
433.9852, 7424.957
434.4673, 7418.271
434.9494, 7405.126
435.4315, 7391.712
435.9136, 7384.293
436.3958, 7380.362
436.8779, 7373.977
437.3600, 7365.401
437.8421, 7351.909
438.3242, 7327.733
438.8063, 7295.827
439.2885, 7264.309
439.7706, 7226.819
440.2527, 7197.859
440.7348, 7197.384
441.2169, 7229.979
441.6990, 7257.167
442.1812, 7248.115
442.6633, 7224.501
443.1454, 7212.067
443.6275, 7232.988
444.1096, 7252.443
444.5917, 7256.825
445.0739, 7246.856
445.5560, 7237.073
446.0381, 7231.033
446.5202, 7225.587
447.0023, 7218.928
447.4844, 7210.305
447.9666, 7201.381
448.4487, 7191.768
448.9308, 7181.992
449.4129, 7174.096
449.8950, 7172.732
450.3771, 7165.985
450.8593, 7144.662
451.3413, 7102.698
451.8235, 7085.375
452.3056, 7100.247
452.7877, 7127.866
453.2698, 7143.417
453.7519, 7146.169
454.2340, 7143.637
454.7162, 7135.717
455.1983, 7124.681
455.6804, 7116.483
456.1625, 7110.805
456.6446, 7112.907
457.1267, 7128.807
457.6089, 7155.906
458.0910, 7190.458
458.5731, 7237.383
459.0552, 7280.325
459.5373, 7304.668
460.0194, 7309.514
460.5016, 7291.732
460.9837, 7217.483
461.4658, 7138.467
461.9479, 7108.610
462.4300, 7143.525
462.9121, 7174.023
463.3943, 7151.157
463.8764, 7107.013
464.3585, 7083.371
464.8406, 7110.192
465.3227, 7142.187
465.8048, 7170.389
466.2870, 7194.194
466.7691, 7201.428
467.2512, 7170.861
467.7333, 7136.995
468.2154, 7120.974
468.6975, 7133.813
469.1797, 7147.126
469.6618, 7163.642
470.1439, 7178.723
470.6260, 7177.004
471.1081, 7149.272
471.5902, 7126.851
472.0724, 7126.290
472.5545, 7149.442
473.0366, 7160.103
473.5187, 7154.777
474.0008, 7146.465
474.4829, 7154.263
474.9651, 7176.486
475.4472, 7191.990
475.9293, 7191.330
476.4114, 7182.268
476.8935, 7182.864
477.3756, 7192.185
477.8578, 7197.179
478.3399, 7182.301
478.8220, 7158.941
479.3041, 7145.119
479.7862, 7147.903
480.2683, 7151.784
480.7505, 7136.221
481.2326, 7113.245
481.7147, 7107.984
482.1968, 7150.566
482.6789, 7196.948
483.1610, 7223.399
483.6432, 7225.969
484.1253, 7226.680
484.6074, 7222.275
485.0895, 7222.336
485.5716, 7235.142
486.0537, 7290.234
486.5359, 7323.003
487.0180, 7321.203
487.5001, 7291.579
487.9822, 7264.331
488.4643, 7237.805
488.9464, 7216.932
489.4286, 7204.048
489.9107, 7199.743
490.3928, 7202.125
490.8749, 7212.748
491.3570, 7227.717
491.8391, 7242.962
492.3213, 7258.473
492.8034, 7271.133
493.2855, 7279.732
493.7676, 7284.873
494.2497, 7286.727
494.7318, 7285.459
495.2140, 7285.023
495.6961, 7291.301
496.1782, 7300.091
496.6603, 7303.272
497.1424, 7297.074
497.6245, 7289.509
498.1067, 7286.467
498.5888, 7286.643
499.0709, 7287.099
499.5530, 7275.914
500.0351, 7272.725
500.5172, 7294.339
500.9994, 7346.308
501.4815, 7385.181
501.9636, 7397.959
502.4457, 7394.859
502.9278, 7385.093
503.4099, 7357.148
503.8921, 7338.034
504.3742, 7333.446
504.8563, 7340.047
505.3384, 7343.294
505.8205, 7341.554
506.3026, 7340.481
506.7848, 7342.862
507.2669, 7349.190
507.7490, 7358.909
508.2311, 7374.311
508.7132, 7388.417
509.1953, 7389.240
509.6775, 7378.102
510.1596, 7370.158
510.6417, 7370.623
511.1238, 7376.878
511.6059, 7387.429
512.0880, 7401.229
512.5701, 7373.735
513.0522, 7413.755
513.5344, 7434.909
514.0165, 7438.220
514.4986, 7369.849
514.9807, 7394.341
515.4628, 7381.803
515.9449, 7367.872
516.4271, 7405.811
516.9092, 7348.542
517.3913, 7385.924
517.8734, 7385.708
518.3555, 7402.891
518.8376, 7382.813
519.3198, 7374.416
519.8019, 7403.555
520.2840, 7412.115
520.7661, 7388.259
521.2482, 7407.330
521.7303, 7350.071
522.2125, 7360.039
522.6946, 7399.087
523.1767, 7377.770
523.6588, 7398.181
524.1409, 7402.882
524.6230, 7335.715
525.1052, 7393.893
525.5873, 7398.052
526.0694, 7346.742
526.5515, 7401.024
527.0336, 7357.643
527.5157, 7349.299
527.9979, 7367.358
528.4800, 7358.163
528.9621, 7392.275
529.4442, 7384.924
529.9263, 7373.989
530.4084, 7379.403
530.8906, 7338.992
531.3727, 7383.972
531.8548, 7370.844
532.3369, 7386.797
532.8190, 7409.444
533.3011, 7381.978
533.7833, 7407.837
534.2654, 7351.337
534.7475, 7363.992
535.2296, 7369.345
535.7117, 7418.946
536.1938, 7363.376
536.6760, 7374.640
537.1581, 7402.565
537.6402, 7399.065
538.1223, 7390.912
538.6044, 7375.970
539.0865, 7351.220
539.5687, 7328.427
540.0508, 7320.555
540.5329, 7326.840
541.0150, 7343.689
541.4971, 7374.518
541.9792, 7409.961
542.4614, 7438.661
542.9435, 7459.830
543.4256, 7469.599
543.9077, 7455.886
544.3898, 7435.267
544.8719, 7425.966
545.3541, 7431.905
545.8362, 7433.095
546.3183, 7412.999
546.8004, 7385.800
547.2825, 7366.796
547.7646, 7349.387
548.2468, 7351.948
548.7289, 7388.539
549.2110, 7450.744
549.6931, 7503.840
550.1752, 7554.001
550.6573, 7586.361
551.1395, 7590.284
551.6216, 7558.804
552.1037, 7541.221
552.5858, 7540.871
553.0679, 7546.973
553.5500, 7549.912
554.0322, 7549.527
554.5143, 7538.754
554.9964, 7509.383
555.4785, 7477.058
555.9606, 7470.226
556.4427, 7486.603
556.9249, 7514.283
557.4070, 7562.312
557.8891, 7609.399
558.3712, 7625.366
558.8533, 7603.732
559.3354, 7586.979
559.8176, 7600.512
560.2997, 7629.781
560.7818, 7659.970
561.2639, 7697.572
561.7460, 7723.503
562.2281, 7718.147
562.7103, 7694.964
563.1924, 7705.894
563.6745, 7784.749
564.1566, 7852.966
564.6387, 7878.701
565.1208, 7856.866
565.6030, 7845.758
566.0851, 7848.433
566.5672, 7855.432
567.0493, 7854.015
567.5314, 7845.199
568.0135, 7852.368
568.4957, 7887.073
568.9778, 7927.034
569.4599, 7929.908
569.9420, 7903.441
570.4241, 7880.256
570.9063, 7881.408
571.3884, 7892.010
571.8705, 7898.854
572.3526, 7901.165
572.8347, 7898.616
573.3168, 7885.054
573.7990, 7869.684
574.2811, 7860.612
574.7632, 7864.590
575.2453, 7867.426
575.7274, 7869.647
576.2095, 7868.850
576.6917, 7860.270
577.1738, 7842.347
577.6559, 7818.680
578.1380, 7786.297
578.6201, 7746.546
579.1022, 7724.402
579.5844, 7723.421
580.0665, 7726.629
580.5486, 7719.900
581.0307, 7704.971
581.5128, 7697.519
581.9949, 7702.596
582.4771, 7703.553
582.9592, 7670.435
583.4413, 7616.674
583.9234, 7575.485
584.4055, 7575.048
584.8876, 7581.406
585.3698, 7562.188
585.8519, 7523.993
586.3340, 7502.439
586.8161, 7530.789
587.2982, 7566.625
587.7803, 7584.834
588.2625, 7572.851
588.7446, 7569.535
589.2267, 7581.210
589.7088, 7599.070
590.1909, 7614.616
590.6730, 7628.917
591.1552, 7637.023
591.6373, 7636.131
592.1194, 7629.624
592.6015, 7628.442
593.0836, 7632.946
593.5657, 7635.654
594.0479, 7628.723
594.5300, 7617.115
595.0121, 7613.763
595.4942, 7618.871
595.9763, 7631.187
596.4584, 7660.659
596.9406, 7692.712
597.4227, 7707.647
597.9048, 7692.475
598.3869, 7673.302
598.8690, 7652.789
