##NAMES=Brannerite
##RRUFFID=R080091
##IDEAL CHEMISTRY=U^4+^Ti^4+^_2_O_6_
##LOCALITY=Crocker's Well, South Australia, Australia
##OWNER=RRUFF
##SOURCE=Michael Scott
##DESCRIPTION=Light brown fragment from metamict sample R060613, after heating at T = 1000 C for 18 hours
##STATUS=The identification of this mineral has been confirmed by X-ray diffraction.
##URL=rruff.info/R080091
92.52344, 902.4850
93.00555, 892.9872
93.48767, 894.5477
93.96979, 928.4218
94.45190, 963.0015
94.93402, 994.4722
95.41614, 1010.266
95.89825, 1015.437
96.38037, 1018.389
96.86249, 1019.158
97.34460, 1018.313
97.82672, 1017.137
98.30884, 1015.342
98.79095, 1013.183
99.27307, 1009.243
99.75519, 1002.660
100.2373, 995.9362
100.7194, 989.9775
101.2015, 985.1512
101.6837, 981.5653
102.1658, 978.3986
102.6479, 974.8434
103.1300, 970.7336
103.6121, 967.0958
104.0942, 965.0682
104.5764, 963.8652
105.0585, 962.4700
105.5406, 960.0951
106.0227, 957.1434
106.5048, 954.9560
106.9869, 953.7112
107.4691, 952.4295
107.9512, 950.4125
108.4333, 947.9131
108.9154, 945.6171
109.3975, 944.1649
109.8796, 943.6783
110.3618, 943.0056
110.8439, 941.7171
111.3260, 940.5323
111.8081, 939.7227
112.2902, 939.3405
112.7723, 939.3093
113.2544, 939.5739
113.7366, 940.5276
114.2187, 941.0236
114.7008, 940.7217
115.1829, 940.1617
115.6650, 939.8820
116.1471, 940.0760
116.6293, 940.4581
117.1114, 940.3680
117.5935, 939.9099
118.0756, 938.9081
118.5577, 936.9162
119.0398, 934.2986
119.5220, 931.8811
120.0041, 929.9919
120.4862, 928.6166
120.9683, 927.5984
121.4504, 927.0909
121.9325, 926.6536
122.4147, 925.8691
122.8968, 924.6934
123.3789, 923.6390
123.8610, 923.1036
124.3431, 922.7726
124.8252, 922.3965
125.3074, 921.9471
125.7895, 921.3454
126.2716, 920.3127
126.7537, 918.3372
127.2358, 916.8888
127.7179, 916.5944
128.2001, 916.9601
128.6822, 917.2966
129.1643, 917.1129
129.6464, 916.4987
130.1285, 916.6036
130.6107, 918.1729
131.0928, 919.8193
131.5749, 921.0069
132.0570, 921.9785
132.5391, 923.3658
133.0212, 925.7619
133.5034, 929.3734
133.9855, 932.7658
134.4676, 935.0838
134.9497, 937.8975
135.4318, 942.2883
135.9139, 948.2637
136.3960, 954.8840
136.8782, 961.0452
137.3603, 966.5887
137.8424, 972.6880
138.3245, 979.0407
138.8066, 986.1071
139.2887, 994.5507
139.7709, 1004.617
140.2530, 1015.521
140.7351, 1026.331
141.2172, 1036.975
141.6993, 1048.011
142.1814, 1059.374
142.6636, 1071.163
143.1457, 1083.981
143.6278, 1098.437
144.1099, 1113.377
144.5920, 1127.591
145.0741, 1141.054
145.5563, 1155.155
146.0384, 1171.275
146.5205, 1189.575
147.0026, 1208.255
147.4847, 1226.907
147.9668, 1245.995
148.4490, 1265.852
148.9311, 1286.467
149.4132, 1307.800
149.8953, 1329.582
150.3774, 1351.405
150.8595, 1375.000
151.3417, 1400.856
151.8238, 1427.824
152.3059, 1455.041
152.7880, 1481.992
153.2701, 1509.076
153.7522, 1536.898
154.2344, 1565.416
154.7165, 1594.689
155.1986, 1625.085
155.6807, 1656.187
156.1628, 1687.506
156.6449, 1718.686
157.1271, 1749.898
157.6092, 1781.847
158.0913, 1815.092
158.5734, 1848.507
159.0555, 1881.852
159.5376, 1915.081
160.0198, 1948.121
160.5019, 1980.975
160.9840, 2013.549
161.4661, 2045.291
161.9482, 2075.528
162.4303, 2105.716
162.9125, 2137.298
163.3946, 2170.170
163.8767, 2201.747
164.3588, 2229.765
164.8409, 2255.406
165.3230, 2281.046
165.8052, 2307.470
166.2873, 2333.553
166.7694, 2357.729
167.2515, 2380.331
167.7336, 2400.050
168.2157, 2416.340
168.6979, 2429.669
169.1800, 2440.260
169.6621, 2448.091
170.1442, 2453.318
170.6263, 2456.637
171.1084, 2459.171
171.5906, 2457.384
172.0727, 2450.534
172.5548, 2439.410
173.0369, 2425.031
173.5190, 2407.917
174.0011, 2388.100
174.4833, 2365.918
174.9654, 2341.327
175.4475, 2313.756
175.9296, 2282.048
176.4117, 2247.315
176.8938, 2211.152
177.3760, 2174.757
177.8581, 2138.148
178.3402, 2100.469
178.8223, 2060.431
179.3044, 2020.799
179.7865, 1982.785
180.2687, 1946.178
180.7508, 1910.147
181.2329, 1874.096
181.7150, 1837.828
182.1971, 1803.438
182.6792, 1770.873
183.1614, 1739.944
183.6435, 1710.475
184.1256, 1682.544
184.6077, 1656.360
185.0898, 1632.305
185.5719, 1610.664
186.0541, 1589.676
186.5362, 1568.935
187.0183, 1549.079
187.5004, 1530.803
187.9825, 1514.140
188.4646, 1498.833
188.9468, 1484.891
189.4289, 1472.200
189.9110, 1460.235
190.3931, 1449.054
190.8752, 1438.511
191.3573, 1428.243
191.8395, 1418.138
192.3216, 1408.595
192.8037, 1400.195
193.2858, 1392.616
193.7679, 1385.142
194.2500, 1377.268
194.7322, 1369.263
195.2143, 1361.882
195.6964, 1355.362
196.1785, 1349.241
196.6606, 1343.365
197.1427, 1337.615
197.6249, 1331.789
198.1070, 1325.753
198.5891, 1319.514
199.0712, 1313.131
199.5533, 1306.144
200.0354, 1299.528
200.5176, 1293.855
200.9997, 1288.870
201.4818, 1284.004
201.9639, 1278.813
202.4460, 1273.283
202.9281, 1267.991
203.4103, 1262.612
203.8924, 1257.851
204.3745, 1254.159
204.8566, 1251.322
205.3387, 1248.843
205.8208, 1246.232
206.3030, 1243.370
206.7851, 1241.479
207.2672, 1241.025
207.7493, 1240.982
208.2314, 1241.014
208.7135, 1241.115
209.1957, 1241.402
209.6778, 1241.941
210.1599, 1242.678
210.6420, 1244.236
211.1241, 1246.628
211.6062, 1249.615
212.0884, 1253.357
212.5705, 1257.679
213.0526, 1261.961
213.5347, 1265.529
214.0168, 1268.236
214.4989, 1272.198
214.9811, 1278.197
215.4632, 1284.728
215.9453, 1290.899
216.4274, 1296.651
216.9095, 1302.254
217.3916, 1307.838
217.8737, 1313.475
218.3559, 1319.516
218.8380, 1326.184
219.3201, 1333.188
219.8022, 1340.379
220.2843, 1347.750
220.7664, 1355.162
221.2486, 1362.555
221.7307, 1369.942
222.2128, 1377.084
222.6949, 1384.000
223.1770, 1390.642
223.6591, 1396.677
224.1413, 1401.969
224.6234, 1407.578
225.1055, 1414.767
225.5876, 1422.760
226.0697, 1430.147
226.5518, 1436.445
227.0340, 1441.956
227.5161, 1447.048
227.9982, 1451.690
228.4803, 1455.992
228.9624, 1459.872
229.4445, 1463.462
229.9267, 1466.960
230.4088, 1470.472
230.8909, 1473.868
231.3730, 1476.940
231.8551, 1479.814
232.3372, 1481.997
232.8194, 1482.855
233.3015, 1483.137
233.7836, 1483.796
234.2657, 1485.405
234.7478, 1487.335
235.2299, 1488.077
235.7121, 1487.076
236.1942, 1485.963
236.6763, 1485.148
237.1584, 1484.524
237.6405, 1484.146
238.1227, 1484.129
238.6048, 1484.014
239.0869, 1482.598
239.5690, 1479.361
240.0511, 1475.592
240.5332, 1471.284
241.0154, 1466.784
241.4975, 1462.380
241.9796, 1458.188
242.4617, 1454.316
242.9438, 1451.176
243.4259, 1449.609
243.9081, 1447.420
244.3902, 1444.093
244.8723, 1440.245
245.3544, 1436.307
245.8365, 1432.448
246.3186, 1428.860
246.8008, 1425.999
247.2829, 1424.925
247.7650, 1423.032
248.2471, 1419.626
248.7292, 1415.702
249.2113, 1412.256
249.6935, 1409.605
250.1756, 1407.223
250.6577, 1404.013
251.1398, 1398.309
251.6219, 1394.294
252.1040, 1393.290
252.5862, 1393.205
253.0683, 1392.247
253.5504, 1389.890
254.0325, 1386.704
254.5146, 1383.561
254.9967, 1380.203
255.4789, 1377.516
255.9610, 1376.051
256.4431, 1374.958
256.9252, 1373.288
257.4073, 1370.875
257.8894, 1368.595
258.3716, 1367.690
258.8537, 1368.939
259.3358, 1369.658
259.8179, 1369.386
260.3000, 1368.868
260.7821, 1368.722
261.2643, 1369.060
261.7464, 1369.658
262.2285, 1370.295
262.7106, 1370.975
263.1927, 1371.689
263.6748, 1372.405
264.1570, 1373.162
264.6391, 1374.018
265.1212, 1374.967
265.6033, 1375.906
266.0854, 1376.748
266.5675, 1377.471
267.0497, 1378.061
267.5318, 1378.102
268.0139, 1378.289
268.4960, 1379.258
268.9781, 1381.018
269.4602, 1383.068
269.9424, 1385.219
270.4245, 1387.360
270.9066, 1388.960
271.3887, 1389.913
271.8708, 1390.406
272.3529, 1390.280
272.8351, 1389.621
273.3172, 1389.275
273.7993, 1389.607
274.2814, 1390.777
274.7635, 1392.876
275.2456, 1396.723
275.7278, 1400.588
276.2099, 1402.994
276.6920, 1404.133
277.1741, 1405.628
277.6562, 1408.406
278.1383, 1411.920
278.6205, 1414.843
279.1026, 1416.864
279.5847, 1419.022
280.0668, 1421.933
280.5489, 1425.566
281.0310, 1429.693
281.5132, 1434.257
281.9953, 1439.307
282.4774, 1444.929
282.9595, 1451.259
283.4416, 1457.340
283.9237, 1462.361
284.4059, 1466.571
284.8880, 1471.070
285.3701, 1476.102
285.8522, 1481.518
286.3343, 1487.051
286.8164, 1492.700
287.2986, 1498.756
287.7807, 1505.616
288.2628, 1513.051
288.7449, 1520.214
289.2270, 1526.901
289.7091, 1533.508
290.1913, 1540.379
290.6734, 1547.460
291.1555, 1554.790
291.6376, 1562.487
292.1197, 1570.380
292.6018, 1578.214
293.0840, 1585.961
293.5661, 1593.571
294.0482, 1601.025
294.5303, 1608.308
295.0124, 1615.464
295.4945, 1622.264
295.9767, 1629.012
296.4588, 1636.318
296.9409, 1644.343
297.4230, 1652.410
297.9051, 1660.620
298.3872, 1668.611
298.8694, 1675.800
299.3515, 1681.736
299.8336, 1687.317
300.3157, 1693.918
300.7978, 1701.798
301.2799, 1709.356
301.7621, 1715.780
302.2442, 1721.710
302.7263, 1727.779
303.2084, 1734.164
303.6905, 1740.328
304.1726, 1745.660
304.6548, 1750.113
305.1369, 1754.561
305.6190, 1759.437
306.1011, 1764.207
306.5832, 1768.464
307.0653, 1772.186
307.5475, 1775.586
308.0296, 1778.809
308.5117, 1781.851
308.9938, 1784.730
309.4759, 1787.635
309.9580, 1790.095
310.4402, 1791.817
310.9223, 1792.877
311.4044, 1793.577
311.8865, 1794.234
312.3686, 1794.709
312.8507, 1794.303
313.3329, 1792.520
313.8150, 1790.652
314.2971, 1789.698
314.7792, 1789.119
315.2613, 1787.879
315.7434, 1785.291
316.2256, 1781.877
316.7077, 1778.923
317.1898, 1776.811
317.6719, 1773.969
318.1540, 1769.067
318.6361, 1763.327
319.1183, 1758.045
319.6004, 1753.649
320.0825, 1749.639
320.5646, 1745.646
321.0467, 1741.855
321.5288, 1736.884
322.0110, 1729.148
322.4931, 1720.705
322.9752, 1713.217
323.4573, 1706.984
323.9394, 1701.001
324.4215, 1694.250
324.9037, 1686.792
325.3858, 1679.648
325.8679, 1673.287
326.3500, 1667.024
326.8321, 1660.371
327.3142, 1653.353
327.7964, 1646.278
328.2785, 1639.293
328.7606, 1632.416
329.2427, 1625.615
329.7248, 1618.795
330.2069, 1612.272
330.6891, 1606.520
331.1712, 1601.173
331.6533, 1595.373
332.1354, 1588.293
332.6175, 1580.742
333.0996, 1574.426
333.5818, 1569.551
334.0639, 1565.151
334.5460, 1561.145
335.0281, 1557.212
335.5102, 1552.880
335.9923, 1547.753
336.4745, 1542.756
336.9566, 1539.228
337.4387, 1537.299
337.9208, 1534.813
338.4029, 1530.314
338.8850, 1525.500
339.3671, 1522.231
339.8492, 1520.736
340.3314, 1519.363
340.8135, 1516.681
341.2956, 1512.921
341.7777, 1509.715
342.2598, 1507.589
342.7419, 1505.752
343.2241, 1503.349
343.7062, 1500.526
344.1883, 1498.112
344.6704, 1496.513
345.1525, 1495.590
345.6346, 1495.168
346.1168, 1495.390
346.5989, 1495.619
347.0810, 1495.258
347.5631, 1494.594
348.0452, 1494.152
348.5273, 1494.406
349.0095, 1494.636
349.4916, 1493.803
349.9737, 1491.883
350.4558, 1490.235
350.9379, 1489.554
351.4200, 1489.517
351.9022, 1489.546
352.3843, 1489.622
352.8664, 1489.757
353.3485, 1490.063
353.8306, 1490.464
354.3127, 1490.535
354.7949, 1489.877
355.2770, 1489.332
355.7591, 1490.150
356.2412, 1492.284
356.7233, 1494.314
357.2054, 1495.971
357.6876, 1497.135
358.1697, 1497.331
358.6518, 1496.347
359.1339, 1495.471
359.6160, 1495.899
360.0981, 1497.455
360.5803, 1499.134
361.0624, 1500.907
361.5445, 1502.695
362.0266, 1504.277
362.5087, 1505.723
362.9908, 1507.557
363.4730, 1510.193
363.9551, 1513.364
364.4372, 1516.270
364.9193, 1518.920
365.4014, 1521.309
365.8835, 1522.921
366.3657, 1524.302
366.8478, 1526.697
367.3299, 1530.608
367.8120, 1535.237
368.2941, 1539.320
368.7762, 1542.618
369.2584, 1546.426
369.7405, 1551.235
370.2226, 1556.428
370.7047, 1561.257
371.1868, 1565.700
371.6689, 1570.421
372.1511, 1576.037
372.6332, 1582.625
373.1153, 1589.609
373.5974, 1597.798
374.0795, 1605.626
374.5616, 1611.799
375.0438, 1616.986
375.5259, 1623.021
376.0080, 1630.904
376.4901, 1640.225
376.9722, 1649.532
377.4543, 1658.814
377.9365, 1668.058
378.4186, 1676.762
378.9007, 1685.650
379.3828, 1695.508
379.8649, 1706.538
380.3470, 1718.319
380.8292, 1730.276
381.3113, 1742.516
381.7934, 1754.768
382.2755, 1766.705
382.7576, 1778.944
383.2397, 1791.766
383.7219, 1805.214
384.2040, 1819.100
384.6861, 1833.262
385.1682, 1847.712
385.6503, 1862.145
386.1324, 1876.963
386.6146, 1891.269
387.0967, 1904.171
387.5788, 1916.611
388.0609, 1929.893
388.5430, 1944.526
389.0251, 1959.971
389.5073, 1975.308
389.9894, 1990.760
390.4715, 2005.624
390.9536, 2019.854
391.4357, 2033.559
391.9178, 2046.685
392.4000, 2059.306
392.8821, 2071.851
393.3642, 2084.986
393.8463, 2098.787
394.3284, 2110.977
394.8105, 2120.496
395.2927, 2129.613
395.7748, 2139.412
396.2569, 2149.287
396.7390, 2158.293
397.2211, 2165.950
397.7032, 2172.491
398.1854, 2178.475
398.6675, 2184.185
399.1496, 2188.552
399.6317, 2191.082
400.1138, 2192.303
400.5959, 2192.409
401.0781, 2191.453
401.5602, 2189.613
402.0423, 2187.055
402.5244, 2183.780
403.0065, 2179.662
403.4886, 2174.742
403.9708, 2168.817
404.4529, 2161.711
404.9350, 2153.619
405.4171, 2144.965
405.8992, 2136.237
406.3813, 2126.931
406.8635, 2116.057
407.3456, 2103.495
407.8277, 2090.293
408.3098, 2076.934
408.7919, 2063.032
409.2740, 2047.997
409.7562, 2031.348
410.2383, 2014.626
410.7204, 1998.800
411.2025, 1983.553
411.6846, 1967.765
412.1667, 1951.028
412.6489, 1933.836
413.1310, 1916.649
413.6131, 1899.385
414.0952, 1882.395
414.5773, 1865.285
415.0594, 1848.764
415.5416, 1834.002
416.0237, 1820.834
416.5058, 1807.611
416.9879, 1793.246
417.4700, 1777.938
417.9521, 1762.756
418.4343, 1746.862
418.9164, 1732.044
419.3985, 1719.053
419.8806, 1707.324
420.3627, 1696.328
420.8448, 1685.842
421.3270, 1675.482
421.8091, 1664.618
422.2912, 1652.947
422.7733, 1641.780
423.2554, 1631.482
423.7375, 1621.358
424.2197, 1610.888
424.7018, 1600.268
425.1839, 1590.198
425.6660, 1581.216
426.1481, 1573.222
426.6302, 1565.244
427.1124, 1557.314
427.5945, 1549.446
428.0766, 1541.135
428.5587, 1533.171
429.0408, 1526.359
429.5229, 1520.934
430.0051, 1516.302
430.4872, 1511.756
430.9693, 1507.437
431.4514, 1502.739
431.9335, 1497.076
432.4156, 1491.510
432.8978, 1486.291
433.3799, 1481.506
433.8620, 1477.267
434.3441, 1473.925
434.8262, 1470.988
435.3083, 1466.831
435.7905, 1460.824
436.2726, 1455.375
436.7547, 1451.820
437.2368, 1448.931
437.7189, 1445.626
438.2010, 1441.673
438.6832, 1437.762
439.1653, 1434.575
439.6474, 1431.980
440.1295, 1429.202
440.6116, 1426.031
441.0938, 1422.846
441.5759, 1419.923
442.0580, 1417.240
442.5401, 1414.786
443.0222, 1413.035
443.5043, 1411.193
443.9865, 1408.314
444.4686, 1404.501
444.9507, 1400.578
445.4328, 1396.830
445.9149, 1393.308
446.3970, 1390.195
446.8792, 1387.648
447.3613, 1385.000
447.8434, 1382.081
448.3255, 1378.960
448.8076, 1375.639
449.2897, 1372.126
449.7719, 1368.659
450.2540, 1365.478
450.7361, 1362.591
451.2182, 1359.635
451.7003, 1356.521
452.1824, 1353.454
452.6646, 1350.621
453.1467, 1347.849
453.6288, 1344.919
454.1109, 1341.724
454.5930, 1338.249
455.0751, 1334.353
455.5573, 1329.422
456.0394, 1325.300
456.5215, 1321.973
457.0036, 1319.307
457.4857, 1317.790
457.9678, 1316.953
458.4500, 1315.403
458.9321, 1311.841
459.4142, 1306.751
459.8963, 1303.031
460.3784, 1301.432
460.8605, 1299.921
461.3427, 1298.286
461.8248, 1296.279
462.3069, 1293.439
462.7890, 1289.655
463.2711, 1285.815
463.7532, 1282.810
464.2354, 1280.596
464.7175, 1278.816
465.1996, 1277.654
465.6817, 1276.581
466.1638, 1275.252
466.6459, 1273.719
467.1281, 1272.084
467.6102, 1270.178
468.0923, 1268.367
468.5744, 1267.212
469.0565, 1266.627
469.5386, 1265.823
470.0208, 1264.378
470.5029, 1262.691
470.9850, 1261.454
471.4671, 1260.644
471.9492, 1260.129
472.4313, 1260.067
472.9135, 1260.166
473.3956, 1260.120
473.8777, 1259.906
474.3598, 1259.645
474.8419, 1259.397
475.3240, 1259.190
475.8062, 1259.272
476.2883, 1259.645
476.7704, 1260.281
477.2525, 1261.029
477.7346, 1262.113
478.2167, 1263.951
478.6989, 1266.599
479.1810, 1269.468
479.6631, 1271.818
480.1452, 1273.497
480.6273, 1275.346
481.1094, 1277.250
481.5916, 1279.425
482.0737, 1282.035
482.5558, 1284.945
483.0379, 1287.883
483.5200, 1290.709
484.0021, 1293.630
484.4843, 1297.208
484.9664, 1301.705
485.4485, 1305.691
485.9306, 1308.520
486.4127, 1311.050
486.8948, 1313.770
487.3770, 1316.702
487.8591, 1319.734
488.3412, 1322.726
488.8233, 1325.791
489.3054, 1329.365
489.7875, 1333.543
490.2697, 1337.084
490.7518, 1338.788
491.2339, 1339.755
491.7160, 1342.367
492.1981, 1347.312
492.6802, 1351.849
493.1624, 1354.375
493.6445, 1355.917
494.1266, 1357.996
494.6087, 1360.876
495.0908, 1363.968
495.5729, 1366.764
496.0551, 1369.265
496.5372, 1372.011
497.0193, 1375.580
497.5014, 1378.685
497.9835, 1380.529
498.4656, 1381.824
498.9478, 1383.620
499.4299, 1386.247
499.9120, 1389.193
500.3941, 1391.663
500.8762, 1393.469
501.3583, 1395.607
501.8405, 1398.351
502.3226, 1401.137
502.8047, 1403.881
503.2868, 1406.502
503.7689, 1408.871
504.2510, 1410.952
504.7331, 1412.709
505.2152, 1414.020
505.6974, 1414.829
506.1795, 1415.566
506.6616, 1416.216
507.1437, 1416.920
507.6258, 1417.828
508.1079, 1418.908
508.5901, 1419.937
509.0722, 1420.727
509.5543, 1421.449
510.0364, 1422.504
510.5185, 1423.882
511.0006, 1424.912
511.4828, 1425.313
511.9649, 1425.123
512.4470, 1424.326
512.9291, 1422.707
513.4113, 1421.301
513.8934, 1420.326
514.3755, 1419.716
514.8576, 1419.671
515.3397, 1420.057
515.8218, 1420.153
516.3040, 1419.421
516.7861, 1417.922
517.2682, 1416.124
517.7503, 1414.063
518.2324, 1411.634
518.7145, 1408.365
519.1967, 1404.977
519.6788, 1402.130
520.1609, 1399.932
520.6430, 1398.102
521.1251, 1396.523
521.6072, 1395.158
522.0894, 1392.973
522.5715, 1389.465
523.0536, 1385.909
523.5357, 1382.818
524.0178, 1379.887
524.4999, 1376.728
524.9821, 1373.216
525.4642, 1369.696
525.9463, 1366.287
526.4284, 1363.095
526.9105, 1360.697
527.3926, 1359.515
527.8748, 1358.164
528.3569, 1355.305
528.8390, 1351.364
529.3211, 1347.783
529.8032, 1345.148
530.2853, 1342.412
530.7675, 1338.624
531.2496, 1334.409
531.7317, 1331.149
532.2138, 1329.242
532.6959, 1327.717
533.1780, 1325.303
533.6602, 1321.699
534.1423, 1319.074
534.6244, 1318.076
535.1065, 1317.158
535.5886, 1315.883
536.0707, 1314.266
536.5529, 1312.341
537.0350, 1310.141
537.5171, 1307.821
537.9992, 1305.637
538.4813, 1303.593
538.9634, 1301.692
539.4456, 1299.764
539.9277, 1298.214
540.4098, 1297.334
540.8919, 1296.951
541.3740, 1296.792
541.8561, 1296.925
542.3383, 1296.870
542.8204, 1295.842
543.3025, 1293.957
543.7846, 1292.319
544.2667, 1291.223
544.7488, 1290.406
545.2310, 1289.687
545.7131, 1289.043
546.1952, 1288.217
546.6773, 1287.009
547.1594, 1285.760
547.6415, 1284.583
548.1237, 1283.546
548.6058, 1282.849
549.0879, 1282.592
549.5700, 1282.433
550.0521, 1281.698
550.5342, 1279.762
551.0164, 1279.241
551.4985, 1281.481
551.9806, 1283.545
552.4627, 1284.209
552.9448, 1283.739
553.4269, 1282.758
553.9091, 1281.534
554.3912, 1280.184
554.8733, 1278.888
555.3554, 1277.627
555.8375, 1276.454
556.3196, 1275.145
556.8018, 1274.209
557.2839, 1274.085
557.7660, 1274.551
558.2481, 1275.006
558.7302, 1275.299
559.2123, 1275.417
559.6945, 1275.307
560.1766, 1275.002
560.6587, 1274.625
561.1408, 1274.185
561.6229, 1273.793
562.1050, 1273.538
562.5872, 1273.413
563.0693, 1273.689
563.5514, 1274.777
564.0335, 1275.859
564.5156, 1276.225
564.9977, 1276.347
565.4799, 1277.137
565.9620, 1278.951
566.4441, 1281.357
566.9262, 1283.782
567.4083, 1286.374
567.8904, 1288.348
568.3726, 1288.843
568.8547, 1289.590
569.3368, 1291.289
569.8189, 1293.607
570.3010, 1296.005
570.7831, 1298.333
571.2653, 1300.525
571.7474, 1302.402
572.2295, 1304.022
572.7116, 1305.899
573.1937, 1308.070
573.6758, 1310.596
574.1580, 1313.559
574.6401, 1316.937
575.1222, 1320.660
575.6043, 1325.305
576.0864, 1329.635
576.5685, 1332.441
577.0507, 1334.672
577.5328, 1338.040
578.0149, 1342.931
578.4970, 1348.310
578.9791, 1353.104
579.4612, 1357.295
579.9434, 1361.351
580.4255, 1364.511
580.9076, 1368.459
581.3897, 1374.050
581.8718, 1380.344
582.3539, 1386.322
582.8361, 1391.776
583.3182, 1397.073
583.8003, 1402.452
584.2824, 1407.977
584.7645, 1414.012
585.2466, 1420.550
585.7288, 1427.708
586.2108, 1436.078
586.6929, 1444.877
587.1750, 1452.751
587.6572, 1459.360
588.1393, 1466.104
588.6214, 1473.646
589.1035, 1481.673
589.5856, 1489.784
