##NAMES=Brandtite
##RRUFFID=R070170
##IDEAL CHEMISTRY=Ca_2_Mn^2+^(As^5+^O_4_)_2_&#183;2H_2_O
##LOCALITY=Harstigen Mine, Pajsberg, Filipstad, Varmland, Sweden
##OWNER=RRUFF
##SOURCE=Michael Scott
##DESCRIPTION=Aggregate of colorless prismatic to platy crystals
##STATUS=The identification of this mineral is confirmed by single-crystal X-ray diffraction and chemical analysis.
##URL=rruff.info/R070170
##MEASURED CHEMISTRY=(Ca_1.99_Pb_0.01_)_Σ=2_(Mn^2+^_0.99_Mg_0.01_)_Σ=1_(As_1.00_O_4_)_2_·2.01H_2_O; H_2_O estimated by difference
116.9707, 168.9332
117.4528, 175.9893
117.9349, 184.7591
118.4170, 193.9998
118.8992, 201.4227
119.3813, 206.8268
119.8634, 213.6295
120.3455, 221.8683
120.8276, 232.2968
121.3097, 247.1440
121.7919, 268.2103
122.2740, 291.8825
122.7561, 313.0172
123.2382, 331.4907
123.7203, 351.2013
124.2024, 374.6897
124.6846, 401.4859
125.1667, 429.0862
125.6488, 457.8277
126.1309, 486.2869
126.6130, 512.5287
127.0951, 536.1917
127.5773, 560.6973
128.0594, 587.2119
128.5415, 615.7900
129.0236, 650.3521
129.5057, 697.0887
129.9878, 746.6030
130.4700, 792.4329
130.9521, 833.6506
131.4342, 871.6059
131.9163, 907.9658
132.3984, 943.2992
132.8805, 973.7114
133.3627, 999.5075
133.8448, 1019.148
134.3269, 1029.251
134.8090, 1029.090
135.2911, 1024.867
135.7732, 1024.424
136.2554, 1027.236
136.7375, 1035.803
137.2196, 1050.858
137.7017, 1070.865
138.1838, 1093.751
138.6659, 1118.970
139.1481, 1150.256
139.6302, 1194.663
140.1123, 1258.551
140.5944, 1325.418
141.0765, 1389.300
141.5586, 1456.918
142.0408, 1532.393
142.5229, 1617.247
143.0050, 1712.329
143.4871, 1821.233
143.9692, 1964.218
144.4513, 2089.767
144.9335, 2193.161
145.4156, 2280.030
145.8977, 2355.824
146.3798, 2422.834
146.8619, 2478.431
147.3440, 2515.516
147.8261, 2531.551
148.3083, 2528.546
148.7904, 2498.402
149.2725, 2452.552
149.7546, 2402.195
150.2367, 2352.195
150.7188, 2301.954
151.2010, 2249.594
151.6831, 2186.125
152.1652, 2131.448
152.6473, 2092.307
153.1294, 2061.755
153.6115, 2029.875
154.0937, 1991.892
154.5758, 1952.010
155.0579, 1923.483
155.5400, 1907.206
156.0221, 1900.145
156.5042, 1904.940
156.9864, 1918.341
157.4685, 1935.503
157.9506, 1954.324
158.4327, 1975.276
158.9148, 2000.315
159.3969, 2024.306
159.8791, 2057.975
160.3612, 2109.679
160.8433, 2172.497
161.3254, 2231.841
161.8075, 2279.586
162.2896, 2322.939
162.7718, 2383.801
163.2539, 2467.927
163.7360, 2554.812
164.2181, 2635.668
164.7002, 2714.246
165.1823, 2799.127
165.6645, 2894.301
166.1466, 2997.573
166.6287, 3102.082
167.1108, 3206.765
167.5929, 3314.806
168.0750, 3430.246
168.5572, 3550.797
169.0393, 3668.264
169.5214, 3774.553
170.0035, 3882.442
170.4856, 4016.371
170.9677, 4182.833
171.4499, 4355.027
171.9320, 4517.639
172.4141, 4673.964
172.8962, 4836.707
173.3783, 5011.794
173.8604, 5193.448
174.3426, 5373.054
174.8247, 5549.644
175.3068, 5727.297
175.7889, 5902.951
176.2710, 6079.249
176.7531, 6274.526
177.2353, 6503.438
177.7174, 6743.310
178.1995, 6963.321
178.6816, 7160.954
179.1637, 7349.573
179.6458, 7546.240
180.1280, 7744.984
180.6101, 7914.821
181.0922, 8045.342
181.5743, 8142.666
182.0564, 8221.975
182.5385, 8283.401
183.0207, 8325.947
183.5028, 8341.639
183.9849, 8334.378
184.4670, 8330.252
184.9491, 8344.468
185.4312, 8352.146
185.9134, 8330.988
186.3955, 8280.691
186.8776, 8217.617
187.3597, 8157.260
187.8418, 8096.333
188.3239, 8011.663
188.8061, 7902.412
189.2882, 7759.646
189.7703, 7574.791
190.2524, 7350.854
190.7345, 7118.776
191.2166, 6898.850
191.6988, 6688.799
192.1809, 6479.195
192.6630, 6264.339
193.1451, 6054.337
193.6272, 5848.407
194.1093, 5648.661
194.5915, 5471.338
195.0736, 5329.969
195.5557, 5221.406
196.0378, 5127.695
196.5199, 5049.315
197.0020, 4984.822
197.4842, 4930.517
197.9663, 4886.757
198.4484, 4855.282
198.9305, 4837.293
199.4126, 4832.485
199.8947, 4840.700
200.3769, 4871.231
200.8590, 4902.005
201.3411, 4926.249
201.8232, 4941.921
202.3053, 4943.657
202.7874, 4924.331
203.2696, 4887.840
203.7517, 4852.230
204.2338, 4825.539
204.7159, 4785.391
205.1980, 4722.378
205.6801, 4640.267
206.1623, 4544.737
206.6444, 4435.238
207.1265, 4315.422
207.6086, 4197.510
208.0907, 4086.248
208.5728, 3967.327
209.0549, 3824.910
209.5371, 3673.876
210.0192, 3535.519
210.5013, 3420.277
210.9834, 3322.908
211.4655, 3230.864
211.9476, 3142.585
212.4298, 3064.891
212.9119, 3000.471
213.3940, 2946.762
213.8761, 2902.267
214.3582, 2865.955
214.8403, 2839.319
215.3225, 2828.104
215.8046, 2837.992
216.2867, 2846.594
216.7688, 2845.860
217.2509, 2840.830
217.7330, 2835.285
218.2152, 2830.135
218.6973, 2825.930
219.1794, 2824.435
219.6615, 2827.073
220.1436, 2826.579
220.6257, 2821.958
221.1079, 2812.761
221.5900, 2796.234
222.0721, 2771.555
222.5542, 2745.736
223.0363, 2725.872
223.5184, 2711.760
224.0006, 2704.600
224.4827, 2706.462
224.9648, 2714.783
225.4469, 2730.065
225.9290, 2751.865
226.4111, 2775.501
226.8933, 2795.461
227.3754, 2811.543
227.8575, 2831.196
228.3396, 2855.349
228.8217, 2883.965
229.3038, 2920.342
229.7860, 2962.769
230.2681, 3001.942
230.7502, 3027.723
231.2323, 3041.667
231.7144, 3062.563
232.1965, 3100.966
232.6787, 3134.402
233.1608, 3148.385
233.6429, 3147.051
234.1250, 3143.680
234.6071, 3148.169
235.0892, 3157.640
235.5714, 3159.409
236.0535, 3152.197
236.5356, 3138.823
237.0177, 3118.941
237.4998, 3094.897
237.9819, 3071.068
238.4641, 3051.314
238.9462, 3032.275
239.4283, 3005.826
239.9104, 2970.258
240.3925, 2932.029
240.8746, 2894.310
241.3568, 2856.069
241.8389, 2815.254
242.3210, 2770.296
242.8031, 2724.228
243.2852, 2681.249
243.7673, 2641.881
244.2495, 2602.931
244.7316, 2561.513
245.2137, 2520.617
245.6958, 2483.703
246.1779, 2452.364
246.6600, 2422.164
247.1422, 2388.566
247.6243, 2351.493
248.1064, 2313.122
248.5885, 2266.693
249.0706, 2225.545
249.5527, 2204.666
250.0349, 2206.640
250.5170, 2210.888
250.9991, 2202.801
251.4812, 2184.324
251.9633, 2165.748
252.4454, 2147.031
252.9276, 2131.814
253.4097, 2123.128
253.8918, 2120.570
254.3739, 2121.806
254.8560, 2128.414
255.3382, 2137.803
255.8203, 2143.517
256.3024, 2143.961
256.7845, 2142.971
257.2666, 2144.219
257.7487, 2146.907
258.2308, 2148.328
258.7130, 2144.689
259.1951, 2140.696
259.6772, 2144.168
260.1593, 2156.308
260.6414, 2167.620
261.1235, 2168.688
261.6057, 2164.148
262.0878, 2167.344
262.5699, 2184.041
263.0520, 2205.485
263.5341, 2226.362
264.0162, 2246.427
264.4984, 2264.173
264.9805, 2278.550
265.4626, 2289.917
265.9447, 2299.022
266.4268, 2300.473
266.9089, 2308.620
267.3911, 2334.063
267.8732, 2372.010
268.3553, 2410.922
268.8374, 2448.298
269.3195, 2481.431
269.8016, 2501.511
270.2838, 2502.791
270.7659, 2514.309
271.2480, 2550.440
271.7301, 2598.781
272.2122, 2642.826
272.6943, 2678.933
273.1765, 2711.262
273.6586, 2744.140
274.1407, 2777.391
274.6228, 2813.800
275.1049, 2853.500
275.5870, 2896.769
276.0692, 2947.333
276.5513, 3003.985
277.0334, 3056.882
277.5155, 3097.347
277.9976, 3124.806
278.4797, 3153.845
278.9619, 3188.707
279.4440, 3220.829
279.9261, 3249.661
280.4082, 3272.939
280.8903, 3284.426
281.3724, 3279.699
281.8546, 3261.682
282.3367, 3244.800
282.8188, 3228.800
283.3009, 3214.253
283.7830, 3195.166
284.2651, 3179.676
284.7473, 3178.733
285.2294, 3196.527
285.7115, 3227.841
286.1936, 3263.007
286.6757, 3307.426
287.1578, 3346.639
287.6400, 3367.920
288.1221, 3392.674
288.6042, 3438.348
289.0863, 3506.938
289.5684, 3586.913
290.0505, 3664.223
290.5327, 3735.094
291.0148, 3821.261
291.4969, 3937.495
291.9790, 4054.470
292.4611, 4161.096
292.9432, 4257.989
293.4254, 4351.056
293.9075, 4443.677
294.3896, 4536.605
294.8717, 4632.296
295.3538, 4745.346
295.8359, 4841.877
296.3181, 4914.496
296.8002, 4966.948
297.2823, 5003.569
297.7644, 5026.825
298.2465, 5034.231
298.7286, 5021.097
299.2108, 4987.358
299.6929, 4931.920
300.1750, 4844.091
300.6571, 4742.504
301.1392, 4638.841
301.6213, 4534.773
302.1035, 4429.333
302.5856, 4319.880
303.0677, 4206.208
303.5498, 4094.477
304.0319, 3979.739
304.5140, 3874.958
304.9962, 3787.814
305.4783, 3717.278
305.9604, 3657.978
306.4425, 3608.654
306.9246, 3568.380
307.4067, 3535.273
307.8889, 3510.874
308.3710, 3490.189
308.8531, 3467.623
309.3352, 3447.050
309.8173, 3436.063
310.2994, 3438.046
310.7816, 3448.848
311.2637, 3464.655
311.7458, 3485.420
312.2279, 3510.888
312.7100, 3539.621
313.1921, 3574.813
313.6743, 3619.863
314.1564, 3674.757
314.6385, 3738.729
315.1206, 3810.771
315.6027, 3891.879
316.0848, 3985.694
316.5670, 4094.173
317.0491, 4211.350
317.5312, 4325.765
318.0133, 4435.562
318.4954, 4568.823
318.9775, 4739.529
319.4597, 4927.862
319.9418, 5114.829
320.4239, 5299.104
320.9060, 5495.539
321.3881, 5713.558
321.8702, 5952.715
322.3524, 6207.390
322.8345, 6476.125
323.3166, 6757.252
323.7987, 7051.403
324.2808, 7357.373
324.7629, 7673.152
325.2451, 7997.572
325.7272, 8332.564
326.2093, 8685.919
326.6914, 9061.355
327.1735, 9451.299
327.6556, 9847.884
328.1378, 10262.15
328.6199, 10707.25
329.1020, 11184.40
329.5841, 11682.75
330.0662, 12194.53
330.5483, 12722.61
331.0305, 13252.21
331.5126, 13783.25
331.9947, 14321.48
332.4768, 14900.50
332.9589, 15488.83
333.4410, 16032.28
333.9232, 16495.27
334.4053, 16883.27
334.8874, 17218.31
335.3695, 17524.67
335.8516, 17720.32
336.3337, 17794.82
336.8159, 17760.02
337.2980, 17614.94
337.7801, 17357.50
338.2622, 17019.40
338.7443, 16632.22
339.2264, 16194.11
339.7086, 15709.01
340.1907, 15142.25
340.6728, 14567.52
341.1549, 14039.42
341.6370, 13552.89
342.1191, 13089.21
342.6013, 12622.01
343.0834, 12170.75
343.5655, 11781.70
344.0476, 11459.81
344.5297, 11181.92
345.0118, 10939.02
345.4940, 10730.48
345.9761, 10553.93
346.4582, 10424.31
346.9403, 10308.95
347.4224, 10168.94
347.9045, 10020.76
348.3867, 9932.859
348.8688, 9947.417
349.3509, 10008.30
349.8330, 10001.62
350.3151, 9909.661
350.7972, 9817.761
351.2794, 9750.876
351.7615, 9685.718
352.2436, 9599.806
352.7257, 9489.217
353.2078, 9358.415
353.6899, 9211.350
354.1721, 9048.905
354.6542, 8865.066
355.1363, 8653.129
355.6184, 8431.224
356.1005, 8203.826
356.5826, 7971.891
357.0648, 7739.583
357.5469, 7508.533
358.0290, 7274.329
358.5111, 7024.085
358.9932, 6730.624
359.4753, 6467.172
359.9575, 6248.520
360.4396, 6050.989
360.9217, 5859.663
361.4038, 5671.558
361.8859, 5491.167
362.3680, 5322.488
362.8502, 5165.796
363.3322, 5020.934
363.8144, 4891.692
364.2965, 4771.242
364.7786, 4652.496
365.2607, 4540.483
365.7428, 4445.503
366.2249, 4378.191
366.7071, 4323.707
367.1892, 4257.513
367.6713, 4177.630
368.1534, 4102.251
368.6355, 4038.010
369.1176, 3981.132
369.5998, 3927.816
370.0819, 3879.314
370.5640, 3826.304
371.0461, 3759.418
371.5282, 3684.891
372.0103, 3615.747
372.4925, 3554.108
372.9746, 3498.250
373.4567, 3448.565
373.9388, 3404.776
374.4209, 3356.132
374.9030, 3291.865
375.3852, 3232.006
375.8673, 3190.031
376.3494, 3162.626
376.8315, 3140.835
377.3136, 3121.144
377.7957, 3101.128
378.2779, 3074.075
378.7600, 3032.198
379.2421, 2993.431
379.7242, 2955.769
380.2063, 2922.863
380.6884, 2898.838
381.1706, 2883.508
381.6527, 2873.622
382.1348, 2866.662
382.6169, 2862.952
383.0990, 2856.064
383.5811, 2837.786
384.0633, 2825.444
384.5454, 2828.623
385.0275, 2839.234
385.5096, 2844.104
385.9917, 2836.507
386.4738, 2825.572
386.9560, 2826.015
387.4381, 2838.151
387.9202, 2860.672
388.4023, 2905.412
388.8844, 2950.685
389.3665, 2979.436
389.8487, 2992.077
390.3308, 3002.430
390.8129, 3013.485
391.2950, 3028.912
391.7771, 3058.904
392.2592, 3105.821
392.7414, 3156.255
393.2235, 3201.775
393.7056, 3244.147
394.1877, 3288.598
394.6698, 3335.147
395.1519, 3384.663
395.6341, 3435.711
396.1162, 3490.313
396.5983, 3554.194
397.0804, 3629.532
397.5625, 3710.107
398.0446, 3787.253
398.5268, 3861.263
399.0089, 3929.446
399.4910, 3989.002
399.9731, 4045.042
400.4552, 4100.913
400.9373, 4155.592
401.4195, 4206.597
401.9016, 4252.555
402.3837, 4292.843
402.8658, 4326.116
403.3479, 4352.172
403.8300, 4370.113
404.3122, 4374.526
404.7943, 4375.237
405.2764, 4377.834
405.7585, 4384.461
406.2406, 4398.686
406.7227, 4424.858
407.2049, 4462.740
407.6870, 4505.854
408.1691, 4552.839
408.6512, 4607.897
409.1333, 4677.828
409.6154, 4755.869
410.0976, 4829.633
410.5797, 4889.949
411.0618, 4952.312
411.5439, 5033.487
412.0260, 5131.755
412.5081, 5235.030
412.9903, 5341.018
413.4724, 5447.986
413.9545, 5553.599
414.4366, 5659.130
414.9187, 5758.744
415.4008, 5850.571
415.8830, 5937.571
416.3651, 6025.953
416.8472, 6114.067
417.3293, 6191.594
417.8114, 6252.405
418.2935, 6296.391
418.7757, 6321.327
419.2578, 6309.795
419.7399, 6300.311
420.2220, 6309.087
420.7041, 6314.266
421.1862, 6291.758
421.6684, 6238.333
422.1505, 6172.849
422.6326, 6121.622
423.1147, 6088.122
423.5968, 6015.083
424.0789, 5879.850
424.5611, 5730.691
425.0432, 5580.562
425.5253, 5431.359
426.0074, 5286.763
426.4895, 5149.643
426.9716, 5012.576
427.4538, 4859.938
427.9359, 4692.563
428.4180, 4544.521
428.9001, 4428.422
429.3822, 4327.915
429.8643, 4222.557
430.3465, 4113.230
430.8286, 4015.522
431.3107, 3931.965
431.7928, 3862.500
432.2749, 3806.381
432.7570, 3763.847
433.2392, 3738.454
433.7213, 3734.221
434.2034, 3744.857
434.6855, 3750.512
435.1676, 3739.636
435.6497, 3740.231
436.1319, 3759.934
436.6140, 3787.578
437.0961, 3812.057
437.5782, 3833.399
438.0603, 3861.482
438.5424, 3906.208
439.0246, 3966.553
439.5067, 4023.828
439.9888, 4070.790
440.4709, 4125.418
440.9530, 4194.008
441.4352, 4270.924
441.9173, 4349.735
442.3994, 4428.313
442.8815, 4512.713
443.3636, 4611.591
443.8457, 4722.988
444.3279, 4832.198
444.8100, 4935.819
445.2921, 5041.882
445.7742, 5166.019
446.2563, 5299.490
446.7384, 5415.361
447.2206, 5508.180
447.7027, 5581.651
448.1848, 5647.658
448.6669, 5696.182
449.1490, 5696.004
449.6311, 5633.661
450.1133, 5534.545
450.5954, 5437.996
451.0775, 5355.622
451.5596, 5238.747
452.0417, 5063.307
452.5238, 4878.125
453.0060, 4704.615
453.4881, 4543.463
453.9702, 4390.058
454.4523, 4242.347
454.9344, 4099.058
455.4165, 3955.316
455.8987, 3801.463
456.3808, 3674.020
456.8629, 3592.911
457.3450, 3530.817
457.8271, 3473.188
458.3092, 3420.022
458.7914, 3380.036
459.2735, 3361.994
459.7556, 3359.254
460.2377, 3358.904
460.7198, 3360.641
461.2019, 3369.457
461.6841, 3392.115
462.1662, 3420.188
462.6483, 3432.664
463.1304, 3416.862
463.6125, 3421.448
464.0946, 3475.401
464.5768, 3547.561
465.0589, 3604.773
465.5410, 3643.913
466.0231, 3680.990
466.5052, 3729.560
466.9873, 3787.480
467.4695, 3833.872
467.9516, 3861.373
468.4337, 3886.252
468.9158, 3910.685
469.3979, 3933.181
469.8800, 3956.644
470.3622, 3979.583
470.8443, 3989.168
471.3264, 3965.333
471.8085, 3912.342
472.2906, 3875.484
472.7727, 3864.167
473.2549, 3848.701
473.7370, 3806.253
474.2191, 3752.463
474.7012, 3709.638
475.1833, 3687.207
475.6654, 3660.395
476.1476, 3609.929
476.6297, 3544.791
477.1118, 3481.473
477.5939, 3422.996
478.0760, 3370.841
478.5581, 3327.896
479.0403, 3294.344
479.5224, 3253.022
480.0045, 3203.226
480.4866, 3148.185
480.9687, 3083.182
481.4508, 3015.482
481.9330, 2953.287
482.4151, 2899.024
482.8972, 2852.567
483.3793, 2817.130
483.8614, 2795.444
484.3435, 2755.834
484.8257, 2683.596
485.3078, 2613.329
485.7899, 2557.868
486.2720, 2513.158
486.7541, 2473.584
487.2362, 2437.778
487.7183, 2405.840
488.2004, 2380.611
488.6826, 2359.683
489.1647, 2332.267
489.6468, 2294.627
490.1289, 2257.923
490.6110, 2234.576
491.0931, 2224.255
491.5753, 2204.737
492.0574, 2167.199
492.5395, 2130.240
493.0216, 2100.548
493.5037, 2076.556
493.9858, 2056.454
494.4680, 2039.568
494.9501, 2024.822
495.4322, 2010.555
495.9143, 1996.232
496.3964, 1986.881
496.8785, 1992.552
497.3607, 1991.344
497.8428, 1970.401
498.3249, 1940.376
498.8070, 1916.113
499.2891, 1902.573
499.7712, 1895.559
500.2534, 1893.297
500.7355, 1894.521
501.2176, 1892.363
501.6997, 1884.797
502.1818, 1876.870
502.6639, 1873.683
503.1461, 1874.273
503.6282, 1870.927
504.1103, 1860.772
504.5924, 1849.642
505.0745, 1837.077
505.5566, 1826.044
506.0388, 1823.142
506.5209, 1829.233
507.0030, 1835.531
507.4851, 1831.048
507.9672, 1814.676
508.4493, 1803.089
508.9315, 1800.458
509.4136, 1797.555
509.8957, 1790.935
510.3778, 1783.182
510.8599, 1777.608
511.3420, 1775.150
511.8242, 1773.665
512.3063, 1771.531
512.7884, 1768.766
513.2705, 1764.773
513.7526, 1758.860
514.2347, 1755.242
514.7169, 1759.874
515.1990, 1768.878
515.6811, 1766.574
516.1632, 1739.376
516.6453, 1720.831
517.1274, 1727.818
517.6096, 1745.481
518.0917, 1758.537
518.5738, 1763.663
519.0559, 1762.564
519.5380, 1755.614
520.0201, 1743.769
520.5023, 1737.559
520.9844, 1740.282
521.4665, 1743.394
521.9486, 1746.179
522.4307, 1747.887
522.9128, 1747.831
523.3950, 1745.935
523.8771, 1742.687
524.3592, 1737.746
524.8413, 1731.854
525.3234, 1727.464
525.8055, 1724.789
526.2877, 1718.277
526.7698, 1701.964
527.2519, 1682.810
527.7340, 1679.945
528.2161, 1701.957
528.6982, 1714.790
529.1804, 1702.474
529.6625, 1688.218
530.1446, 1694.425
530.6267, 1715.940
531.1088, 1730.190
531.5909, 1722.370
532.0731, 1702.691
532.5552, 1699.844
533.0373, 1722.018
533.5194, 1735.537
534.0015, 1730.246
534.4836, 1719.778
534.9658, 1709.589
535.4479, 1700.779
535.9300, 1695.655
536.4121, 1697.743
536.8942, 1701.351
537.3763, 1699.313
537.8585, 1693.277
538.3406, 1690.933
538.8227, 1695.403
539.3048, 1700.263
539.7869, 1696.585
540.2690, 1681.879
540.7512, 1674.100
541.2333, 1679.365
541.7154, 1683.957
542.1975, 1679.212
542.6796, 1672.130
543.1617, 1673.547
543.6439, 1686.655
544.1260, 1703.892
544.6081, 1718.154
545.0902, 1729.281
545.5723, 1732.232
546.0544, 1723.137
546.5366, 1714.090
547.0187, 1712.332
547.5008, 1714.551
547.9829, 1715.444
548.4650, 1713.693
548.9471, 1713.040
549.4293, 1716.666
549.9114, 1721.601
550.3935, 1724.119
550.8756, 1723.897
551.3577, 1722.450
551.8398, 1720.848
552.3220, 1718.828
552.8041, 1715.321
553.2862, 1710.689
553.7683, 1703.759
554.2504, 1687.281
554.7325, 1674.800
555.2147, 1678.157
555.6968, 1694.115
556.1789, 1709.110
556.6610, 1716.236
557.1431, 1717.572
557.6252, 1714.159
558.1074, 1706.570
558.5895, 1702.775
559.0716, 1706.380
559.5537, 1711.328
560.0358, 1710.940
560.5179, 1704.672
561.0001, 1696.448
561.4822, 1679.285
561.9643, 1667.829
562.4464, 1672.063
562.9285, 1684.446
563.4106, 1694.573
563.8928, 1699.181
564.3749, 1700.841
564.8570, 1701.348
565.3391, 1700.841
565.8212, 1706.106
566.3033, 1722.213
566.7855, 1733.525
567.2676, 1729.282
567.7497, 1718.426
568.2318, 1711.252
568.7139, 1709.599
569.1960, 1705.863
569.6782, 1689.809
570.1603, 1674.013
570.6424, 1676.102
571.1245, 1694.071
571.6066, 1712.319
572.0887, 1722.620
572.5709, 1726.148
573.0530, 1725.633
573.5351, 1721.688
574.0172, 1712.152
574.4993, 1685.286
574.9814, 1664.641
575.4636, 1665.094
575.9457, 1679.372
576.4278, 1692.379
576.9099, 1698.168
577.3920, 1700.315
577.8741, 1701.652
578.3563, 1702.515
578.8384, 1704.865
579.3205, 1709.444
579.8026, 1712.505
580.2847, 1710.279
580.7668, 1703.709
581.2490, 1700.478
581.7311, 1702.853
582.2132, 1705.026
582.6953, 1705.224
583.1774, 1705.425
583.6595, 1707.646
584.1417, 1711.748
584.6238, 1716.061
585.1059, 1719.370
585.5880, 1722.059
586.0701, 1725.527
586.5522, 1730.092
587.0344, 1732.847
587.5165, 1732.883
587.9986, 1731.124
588.4807, 1726.904
588.9628, 1720.892
589.4449, 1718.660
589.9271, 1723.943
590.4092, 1730.211
590.8913, 1733.960
591.3734, 1736.405
591.8555, 1739.697
592.3376, 1744.338
592.8198, 1749.336
593.3019, 1754.000
593.7840, 1758.187
594.2661, 1758.975
594.7482, 1752.983
595.2303, 1750.401
595.7125, 1759.493
596.1946, 1769.991
596.6767, 1771.839
597.1588, 1764.650
597.6409, 1758.677
598.1230, 1761.354
598.6052, 1765.195
599.0873, 1760.247
599.5694, 1749.399
600.0515, 1743.820
600.5336, 1747.962
601.0157, 1756.186
601.4979, 1760.700
601.9800, 1761.264
602.4621, 1759.302
602.9442, 1746.676
603.4263, 1741.411
603.9084, 1756.427
604.3906, 1777.116
604.8727, 1785.315
605.3548, 1777.295
605.8369, 1765.685
606.3190, 1755.558
606.8011, 1749.337
607.2833, 1754.721
607.7654, 1770.777
608.2475, 1782.031
608.7296, 1780.433
609.2117, 1772.106
609.6938, 1768.450
610.1760, 1770.524
