##NAMES=Brannerite
##RRUFFID=R080091
##IDEAL CHEMISTRY=U^4+^Ti^4+^_2_O_6_
##LOCALITY=Crocker's Well, South Australia, Australia
##OWNER=RRUFF
##SOURCE=Michael Scott
##DESCRIPTION=Light brown fragment from metamict sample R060613, after heating at T = 1000 C for 18 hours
##STATUS=The identification of this mineral has been confirmed by X-ray diffraction.
##URL=rruff.info/R080091
92.35352, 27.37710
92.83563, 26.79489
93.31775, 26.54759
93.79987, 26.65117
94.28198, 27.09204
94.76410, 27.86606
95.24622, 29.04023
95.72833, 30.47303
96.21045, 31.79579
96.69257, 32.99898
97.17468, 34.33646
97.65680, 35.96971
98.13892, 37.90463
98.62103, 40.21416
99.10315, 42.93771
99.58527, 46.04456
100.0674, 49.14088
100.5495, 52.10526
101.0316, 55.26868
101.5137, 58.93297
101.9958, 63.10259
102.4780, 67.83348
102.9601, 73.06588
103.4422, 78.74722
103.9243, 85.27869
104.4064, 92.87366
104.8885, 101.2150
105.3707, 109.9664
105.8528, 119.2327
106.3349, 128.6557
106.8170, 137.9863
107.2991, 146.8407
107.7813, 156.3577
108.2634, 167.1042
108.7455, 178.6452
109.2276, 189.1288
109.7097, 197.8873
110.1918, 206.1616
110.6740, 214.4782
111.1561, 222.0063
111.6382, 230.5249
112.1203, 240.2022
112.6024, 251.0583
113.0845, 262.6825
113.5667, 275.0476
114.0488, 288.0874
114.5309, 301.9062
115.0130, 317.0428
115.4951, 332.3403
115.9772, 347.4668
116.4594, 362.5550
116.9415, 377.8744
117.4236, 393.9547
117.9057, 410.1990
118.3878, 425.9005
118.8699, 441.1331
119.3521, 455.6869
119.8342, 469.5025
120.3163, 482.5303
120.7984, 495.2932
121.2805, 508.2307
121.7626, 521.1113
122.2448, 533.5392
122.7269, 545.9276
123.2090, 557.4842
123.6911, 567.2751
124.1732, 575.0187
124.6553, 581.7626
125.1375, 588.3232
125.6196, 594.6462
126.1017, 600.5598
126.5838, 605.6212
127.0659, 610.2584
127.5480, 615.2012
128.0302, 620.5167
128.5123, 626.3193
128.9944, 632.8456
129.4765, 640.0640
129.9586, 647.6771
130.4407, 655.3039
130.9229, 663.0963
131.4050, 671.8162
131.8871, 681.6379
132.3692, 692.2108
132.8513, 702.4567
133.3334, 711.2041
133.8156, 717.0366
134.2977, 721.2676
134.7798, 726.3738
135.2619, 732.1711
135.7440, 738.7143
136.2261, 745.8619
136.7083, 753.6035
137.1904, 762.0627
137.6725, 770.8578
138.1546, 779.5974
138.6367, 788.2022
139.1188, 797.4514
139.6010, 807.7135
140.0831, 818.9482
140.5652, 830.3432
141.0473, 841.6965
141.5294, 853.6342
142.0115, 866.7774
142.4937, 881.3135
142.9758, 896.7794
143.4579, 913.1486
143.9400, 930.2413
144.4221, 948.5768
144.9042, 968.2495
145.3864, 989.0717
145.8685, 1010.158
146.3506, 1030.664
146.8327, 1052.741
147.3148, 1077.504
147.7969, 1105.923
148.2791, 1134.420
148.7612, 1162.148
149.2433, 1189.899
149.7254, 1220.072
150.2075, 1253.438
150.6896, 1288.357
151.1718, 1323.954
151.6539, 1359.933
152.1360, 1397.095
152.6181, 1435.539
153.1002, 1475.198
153.5823, 1515.685
154.0645, 1556.701
154.5466, 1599.158
155.0287, 1643.392
155.5108, 1691.565
155.9929, 1739.781
156.4750, 1786.720
156.9572, 1832.907
157.4393, 1879.498
157.9214, 1926.441
158.4035, 1974.491
158.8856, 2024.240
159.3677, 2078.138
159.8499, 2131.647
160.3320, 2182.627
160.8141, 2231.451
161.2962, 2280.673
161.7783, 2331.333
162.2604, 2382.312
162.7426, 2432.687
163.2247, 2482.728
163.7068, 2531.687
164.1889, 2579.723
164.6710, 2626.383
165.1531, 2671.167
165.6353, 2714.022
166.1174, 2754.731
166.5995, 2793.055
167.0816, 2829.824
167.5637, 2863.495
168.0458, 2893.072
168.5280, 2918.280
169.0101, 2940.321
169.4922, 2961.087
169.9743, 2978.718
170.4564, 2990.448
170.9385, 2994.438
171.4207, 2992.514
171.9028, 2986.257
172.3849, 2975.770
172.8670, 2960.476
173.3491, 2940.117
173.8312, 2914.602
174.3134, 2883.583
174.7955, 2845.723
175.2776, 2803.163
175.7597, 2758.316
176.2418, 2710.869
176.7239, 2661.828
177.2061, 2610.519
177.6882, 2557.078
178.1703, 2502.920
178.6524, 2447.842
179.1345, 2391.990
179.6166, 2336.396
180.0988, 2280.570
180.5809, 2224.940
181.0630, 2169.342
181.5451, 2113.650
182.0272, 2059.779
182.5093, 2007.490
182.9915, 1957.120
183.4736, 1910.787
183.9557, 1868.537
184.4378, 1828.993
184.9199, 1788.986
185.4020, 1749.480
185.8842, 1712.086
186.3663, 1679.039
186.8484, 1649.207
187.3305, 1619.662
187.8126, 1589.688
188.2947, 1560.420
188.7769, 1533.550
189.2590, 1509.024
189.7411, 1485.805
190.2232, 1462.873
190.7053, 1440.500
191.1874, 1419.962
191.6696, 1401.378
192.1517, 1384.200
192.6338, 1367.510
193.1159, 1351.326
193.5980, 1335.196
194.0801, 1318.973
194.5623, 1302.703
195.0444, 1285.830
195.5265, 1268.151
196.0086, 1250.231
196.4907, 1233.355
196.9728, 1217.609
197.4550, 1202.106
197.9371, 1186.379
198.4192, 1170.425
198.9013, 1154.282
199.3834, 1137.893
199.8655, 1121.445
200.3477, 1105.030
200.8298, 1088.623
201.3119, 1072.525
201.7940, 1056.819
202.2761, 1041.541
202.7582, 1026.261
203.2404, 1010.801
203.7225, 995.4319
204.2046, 980.9904
204.6867, 967.6608
205.1688, 954.5904
205.6509, 941.2269
206.1331, 927.3129
206.6152, 914.4023
207.0973, 902.7947
207.5794, 892.1834
208.0615, 881.5871
208.5436, 870.8575
209.0258, 860.4814
209.5079, 850.8616
209.9900, 842.1181
210.4721, 833.6926
210.9542, 825.4758
211.4363, 817.5593
211.9185, 810.3047
212.4006, 803.8192
212.8827, 797.6896
213.3648, 791.7780
213.8469, 785.9510
214.3290, 780.5533
214.8112, 775.5871
215.2933, 771.0818
215.7754, 767.0404
216.2575, 763.6181
216.7396, 760.3405
217.2217, 756.9216
217.7038, 753.2491
218.1860, 749.8263
218.6681, 746.8304
219.1502, 744.1088
219.6323, 741.0690
220.1144, 737.4696
220.5965, 734.0248
221.0787, 731.1221
221.5608, 728.7155
222.0429, 727.0583
222.5250, 726.4443
223.0071, 726.5790
223.4892, 726.3468
223.9714, 725.4563
224.4535, 724.6744
224.9356, 724.4406
225.4177, 724.9825
225.8998, 725.5339
226.3819, 725.9905
226.8641, 726.4401
227.3462, 727.1376
227.8283, 727.9833
228.3104, 729.2125
228.7925, 730.9695
229.2746, 733.5019
229.7568, 736.0517
230.2389, 738.6347
230.7210, 741.2252
231.2031, 743.6237
231.6852, 745.5700
232.1673, 747.6935
232.6495, 750.3028
233.1316, 753.5769
233.6137, 756.8922
234.0958, 759.9319
234.5779, 763.0313
235.0600, 767.1685
235.5422, 772.9910
236.0243, 778.9921
236.5064, 784.4507
236.9885, 788.8240
237.4706, 793.8619
237.9527, 799.6137
238.4349, 805.9596
238.9170, 812.6072
239.3991, 819.8298
239.8812, 826.9406
240.3633, 833.5499
240.8454, 839.1251
241.3276, 845.5312
241.8097, 852.9593
242.2918, 861.0629
242.7739, 869.0641
243.2560, 877.0650
243.7381, 884.8057
244.2203, 892.0792
244.7024, 898.4979
245.1845, 905.5603
245.6666, 913.4217
246.1487, 921.8406
246.6308, 930.6031
247.1130, 940.0999
247.5951, 949.3300
248.0772, 957.7413
248.5593, 965.0358
249.0414, 972.8020
249.5235, 981.3824
250.0057, 990.1967
250.4878, 998.4051
250.9699, 1005.682
251.4520, 1012.956
251.9341, 1020.532
252.4162, 1028.624
252.8984, 1036.115
253.3805, 1042.825
253.8626, 1049.121
254.3447, 1055.435
254.8268, 1062.236
255.3089, 1068.298
255.7911, 1073.080
256.2732, 1076.453
256.7553, 1079.909
257.2374, 1083.665
257.7195, 1087.306
258.2017, 1090.273
258.6838, 1092.325
259.1659, 1094.348
259.6480, 1096.781
260.1301, 1099.660
260.6122, 1101.428
261.0944, 1101.819
261.5765, 1101.434
262.0586, 1100.898
262.5407, 1100.260
263.0228, 1099.364
263.5049, 1098.193
263.9871, 1096.741
264.4692, 1095.069
264.9513, 1093.170
265.4334, 1091.053
265.9155, 1088.666
266.3976, 1086.018
266.8798, 1083.233
267.3619, 1080.473
267.8440, 1077.631
268.3261, 1073.962
268.8082, 1069.230
269.2903, 1064.180
269.7725, 1059.587
270.2546, 1055.781
270.7367, 1051.122
271.2188, 1045.172
271.7009, 1038.281
272.1830, 1031.752
272.6652, 1025.660
273.1473, 1019.849
273.6294, 1014.278
274.1115, 1009.050
274.5936, 1003.409
275.0757, 997.1873
275.5579, 990.5091
276.0400, 983.8352
276.5221, 977.1046
277.0042, 970.5934
277.4863, 964.4767
277.9684, 958.7657
278.4506, 953.3132
278.9327, 948.2337
279.4148, 943.2586
279.8969, 937.7687
280.3790, 931.7111
280.8611, 925.5665
281.3433, 919.3904
281.8254, 913.1706
282.3075, 907.7852
282.7896, 903.3566
283.2717, 899.4895
283.7538, 895.6354
284.2360, 891.7992
284.7181, 887.9508
285.2002, 883.9504
285.6823, 879.8575
286.1644, 876.1777
286.6465, 872.9375
287.1287, 870.1179
287.6108, 867.7585
288.0929, 865.8444
288.5750, 864.2245
289.0571, 862.9540
289.5392, 861.9255
290.0214, 860.7590
290.5035, 859.4548
290.9856, 858.0605
291.4677, 856.4016
291.9498, 854.5883
292.4319, 853.3543
292.9141, 853.0408
293.3962, 853.3764
293.8783, 853.8411
294.3604, 854.4414
294.8425, 854.9969
295.3246, 855.3846
295.8068, 855.6203
296.2889, 855.6614
296.7710, 855.2667
297.2531, 854.9653
297.7352, 855.7661
298.2173, 857.5748
298.6995, 859.6393
299.1816, 861.4365
299.6637, 863.0799
300.1458, 864.7375
300.6279, 866.3980
301.1100, 868.1771
301.5922, 870.1635
302.0743, 872.3527
302.5564, 874.7519
303.0385, 877.4734
303.5206, 880.3610
304.0027, 883.3732
304.4849, 886.5781
304.9670, 889.4395
305.4491, 891.1799
305.9312, 892.1320
306.4133, 893.0959
306.8954, 894.1450
307.3776, 895.5976
307.8597, 898.0065
308.3418, 901.5272
308.8239, 904.9623
309.3060, 907.4053
309.7881, 909.2291
310.2703, 910.9374
310.7524, 912.4685
311.2345, 914.1965
311.7166, 916.4316
312.1987, 919.1656
312.6808, 922.0355
313.1630, 924.9418
313.6451, 927.8531
314.1272, 930.7609
314.6093, 933.7740
315.0914, 936.6148
315.5735, 938.9058
316.0557, 940.7708
316.5378, 942.8994
317.0199, 945.6174
317.5020, 948.6771
317.9841, 952.0108
318.4662, 956.0395
318.9484, 959.5822
319.4305, 961.9622
319.9126, 963.5342
320.3947, 965.2263
320.8768, 967.7355
321.3589, 970.1149
321.8411, 971.7701
322.3232, 972.1082
322.8053, 972.9576
323.2874, 974.9548
323.7695, 977.6169
324.2516, 980.1797
324.7338, 982.4377
325.2159, 984.6539
325.6980, 987.0304
326.1801, 989.7578
326.6622, 991.8323
327.1443, 992.4695
327.6265, 992.7521
328.1086, 993.7807
328.5907, 996.7115
329.0728, 999.1085
329.5549, 1000.475
330.0370, 1000.808
330.5192, 1001.174
331.0013, 1001.455
331.4834, 1001.877
331.9655, 1002.563
332.4476, 1003.245
332.9297, 1004.726
333.4119, 1007.657
333.8940, 1011.493
334.3761, 1013.690
334.8582, 1013.449
335.3403, 1012.746
335.8224, 1012.547
336.3046, 1013.006
336.7867, 1013.458
337.2688, 1013.828
337.7509, 1014.219
338.2330, 1014.925
338.7151, 1016.086
339.1973, 1017.119
339.6794, 1017.753
340.1615, 1017.965
340.6436, 1018.372
341.1257, 1019.061
341.6078, 1019.797
342.0899, 1020.245
342.5721, 1020.387
343.0542, 1020.599
343.5363, 1020.985
344.0184, 1021.544
344.5005, 1022.342
344.9826, 1023.421
345.4648, 1024.435
345.9469, 1024.979
346.4290, 1025.115
346.9111, 1025.293
347.3932, 1025.585
347.8753, 1025.948
348.3575, 1026.491
348.8396, 1027.147
349.3217, 1027.347
349.8038, 1026.166
350.2859, 1024.239
350.7680, 1023.258
351.2502, 1023.573
351.7323, 1024.206
352.2144, 1024.166
352.6965, 1023.544
353.1786, 1022.608
353.6607, 1021.486
354.1429, 1020.153
354.6250, 1018.509
355.1071, 1016.557
355.5892, 1014.591
356.0713, 1012.848
356.5534, 1011.258
357.0356, 1009.720
357.5177, 1008.751
357.9998, 1007.361
358.4819, 1004.387
358.9640, 1000.138
359.4461, 996.4069
359.9283, 994.4133
360.4104, 993.1776
360.8925, 991.9130
361.3746, 990.5016
361.8567, 988.9083
362.3388, 987.1516
362.8210, 985.1952
363.3031, 982.9288
363.7852, 980.0422
364.2673, 977.0486
364.7494, 974.2397
365.2315, 971.7698
365.7137, 969.0086
366.1958, 965.4203
366.6779, 961.6518
367.1600, 958.4307
367.6421, 956.6299
368.1242, 954.5705
368.6064, 951.7949
369.0885, 948.2479
369.5706, 944.9025
370.0527, 941.9023
370.5348, 938.9865
371.0169, 935.9666
371.4991, 933.0187
371.9812, 929.7184
372.4633, 925.7921
372.9454, 921.4954
373.4275, 917.8655
373.9096, 915.2757
374.3918, 912.6429
374.8739, 909.5043
375.3560, 905.7029
375.8381, 901.9194
376.3202, 898.1120
376.8023, 894.4241
377.2845, 891.1053
377.7666, 888.2122
378.2487, 885.4834
378.7308, 882.9045
379.2129, 880.4338
379.6950, 878.1724
380.1772, 876.1719
380.6593, 873.9879
381.1414, 870.9562
381.6235, 867.2145
382.1056, 863.7903
382.5877, 860.9274
383.0699, 858.4913
383.5520, 856.4756
384.0341, 854.8011
384.5162, 852.8342
384.9983, 849.9622
385.4804, 846.5157
385.9626, 843.1853
386.4447, 840.0560
386.9268, 836.9428
387.4089, 833.4930
387.8910, 829.8906
388.3731, 826.6340
388.8553, 824.2159
389.3374, 822.0563
389.8195, 819.6302
390.3016, 816.9726
390.7837, 814.2722
391.2658, 811.7267
391.7480, 809.2039
392.2301, 806.5604
392.7122, 803.6908
393.1943, 800.8094
393.6764, 798.0587
394.1585, 795.4003
394.6407, 792.7662
395.1228, 789.9446
395.6049, 787.2883
396.0870, 785.0450
396.5691, 783.4787
397.0512, 781.6132
397.5334, 778.7332
398.0155, 775.6130
398.4976, 773.2570
398.9797, 772.4169
399.4618, 771.6125
399.9439, 770.6891
400.4261, 769.6376
400.9082, 768.0704
401.3903, 765.4230
401.8724, 762.7733
402.3545, 760.8630
402.8366, 760.2359
403.3188, 759.1826
403.8009, 757.5145
404.2830, 755.4063
404.7651, 753.2272
405.2472, 750.9033
405.7293, 748.7919
406.2115, 747.0887
406.6936, 745.8226
407.1757, 744.5591
407.6578, 743.3008
408.1399, 742.0441
408.6220, 740.8741
409.1042, 739.7835
409.5863, 738.2471
410.0684, 735.7856
410.5505, 733.0607
411.0326, 731.7419
411.5147, 731.7860
411.9969, 731.9736
412.4790, 731.5481
412.9611, 730.6071
413.4432, 729.2596
413.9253, 727.3768
414.4074, 725.6182
414.8896, 724.8693
415.3717, 724.7981
415.8538, 724.6278
416.3359, 723.9805
416.8180, 723.0733
417.3001, 721.9854
417.7823, 720.7189
418.2644, 719.6465
418.7465, 719.0737
419.2286, 718.7196
419.7107, 718.3437
420.1928, 718.1359
420.6750, 717.5270
421.1571, 717.0679
421.6392, 717.0708
422.1213, 716.7338
422.6034, 716.0754
423.0855, 714.1325
423.5677, 713.8481
424.0498, 712.8991
424.5319, 711.9229
425.0140, 711.8719
425.4961, 710.1158
425.9782, 710.0502
426.4604, 709.3097
426.9425, 705.3611
427.4246, 704.7130
427.9067, 704.8106
428.3888, 704.5267
428.8709, 703.5993
429.3531, 702.7574
429.8352, 702.5156
430.3173, 703.0848
430.7994, 703.0824
431.2815, 702.2592
431.7636, 701.1749
432.2458, 700.8997
432.7279, 701.4918
433.2100, 701.7439
433.6921, 700.9633
434.1742, 699.5405
434.6563, 699.1514
435.1385, 699.8253
435.6206, 700.4028
436.1027, 699.5932
436.5848, 697.9040
437.0669, 696.8115
437.5490, 696.8000
438.0312, 696.9584
438.5133, 696.0942
438.9954, 694.5378
439.4775, 693.1924
439.9596, 692.8771
440.4417, 692.7733
440.9239, 692.0184
441.4060, 690.5685
441.8881, 689.2970
442.3702, 688.8269
442.8523, 688.7364
443.3344, 688.6249
443.8166, 688.7015
444.2987, 688.3617
444.7808, 686.8953
445.2629, 684.7904
445.7450, 683.4807
446.2271, 684.1164
446.7093, 684.8635
447.1914, 685.1003
447.6735, 684.8060
448.1556, 683.9000
448.6377, 681.7322
449.1198, 679.3953
449.6020, 678.0809
450.0841, 678.5049
450.5662, 678.5147
451.0483, 677.7563
451.5304, 676.3404
452.0125, 674.7015
452.4947, 672.7133
452.9768, 670.8509
453.4589, 669.4050
453.9410, 668.3720
454.4231, 667.4036
454.9052, 666.5514
455.3874, 665.4990
455.8695, 663.5760
456.3516, 660.9193
456.8337, 658.6550
457.3158, 657.3273
457.7979, 656.4211
458.2801, 654.9470
458.7622, 652.9896
459.2443, 651.0703
459.7264, 649.5232
460.2085, 648.2646
460.6906, 647.3147
461.1728, 646.7859
461.6549, 646.0966
462.1370, 644.6815
462.6191, 642.8905
463.1012, 641.2637
463.5833, 640.0284
464.0655, 638.9697
464.5476, 637.8333
465.0297, 636.6935
465.5118, 636.1719
465.9939, 637.0764
466.4760, 638.1774
466.9582, 638.7970
467.4403, 638.6453
467.9224, 638.4193
468.4045, 638.0046
468.8866, 637.5779
469.3687, 637.4051
469.8509, 637.6360
470.3330, 637.8575
470.8151, 637.9323
471.2972, 637.9001
471.7793, 638.1461
472.2614, 638.7234
472.7436, 639.4594
473.2257, 640.2245
473.7078, 641.0223
474.1899, 641.9785
474.6720, 643.1016
475.1541, 644.3973
475.6363, 646.0800
476.1184, 648.0430
476.6005, 649.5964
477.0826, 650.1642
477.5647, 650.3298
478.0468, 651.0527
478.5290, 652.3014
479.0111, 653.7894
479.4932, 655.3858
479.9753, 657.0792
480.4574, 658.8718
480.9395, 660.7893
481.4217, 662.7422
481.9038, 664.7114
482.3859, 666.6417
482.8680, 668.4257
483.3501, 670.8660
483.8322, 672.3307
484.3144, 671.7839
484.7965, 669.3613
485.2786, 667.2138
485.7607, 665.4146
486.2428, 664.1744
486.7249, 663.7087
487.2071, 664.8575
487.6892, 664.9574
488.1713, 663.6046
488.6534, 661.4966
489.1355, 659.6556
489.6176, 658.2774
490.0998, 656.5850
490.5819, 654.2946
491.0640, 651.5365
491.5461, 648.9648
492.0282, 646.5765
492.5103, 644.3660
492.9925, 642.5932
493.4746, 641.0704
493.9567, 638.8820
494.4388, 635.8499
494.9209, 632.5656
495.4030, 629.5573
495.8852, 626.7898
496.3673, 624.1110
496.8494, 621.5714
497.3315, 619.0001
497.8136, 616.1115
498.2957, 612.9830
498.7779, 610.0813
499.2600, 607.6614
499.7421, 605.5042
500.2242, 603.5165
500.7063, 601.7264
501.1884, 599.8425
501.6706, 597.5859
502.1527, 595.3040
502.6348, 593.3871
503.1169, 592.1491
503.5990, 590.9922
504.0811, 589.9850
504.5633, 589.0439
505.0454, 587.7486
505.5275, 585.7491
506.0096, 584.0449
506.4917, 583.1537
506.9738, 583.1603
507.4560, 582.7634
507.9381, 581.8251
508.4202, 580.8459
508.9023, 580.2509
509.3844, 580.0430
509.8665, 580.3455
510.3487, 581.2839
510.8308, 582.5561
511.3129, 583.7115
511.7950, 584.7711
512.2772, 585.8224
512.7593, 586.8698
513.2414, 587.9576
513.7235, 589.1348
514.2056, 590.4042
514.6877, 591.8036
515.1699, 593.4297
515.6520, 595.1530
516.1341, 596.8297
516.6162, 598.3041
517.0983, 599.9660
517.5804, 602.1586
518.0626, 604.5799
518.5447, 606.7382
519.0268, 608.3284
519.5089, 609.8815
519.9910, 611.3979
520.4731, 612.9036
520.9553, 614.8104
521.4374, 617.3480
521.9195, 619.9182
522.4016, 622.1619
522.8837, 623.9756
523.3658, 625.9932
523.8480, 628.3402
524.3301, 630.6662
524.8122, 632.3778
525.2943, 633.5167
525.7764, 634.7604
526.2585, 636.2707
526.7407, 638.0234
527.2228, 640.1689
527.7049, 642.6328
528.1870, 644.9023
528.6691, 646.5745
529.1512, 647.9566
529.6334, 649.3801
530.1155, 650.8757
530.5976, 652.3891
531.0797, 653.8574
531.5618, 655.3481
532.0439, 656.9379
532.5261, 659.0715
533.0082, 660.7014
533.4903, 661.2841
533.9724, 661.2162
534.4545, 661.3701
534.9366, 662.2726
535.4188, 662.8878
535.9009, 662.9657
536.3830, 662.5196
536.8651, 661.8446
537.3472, 660.8228
537.8293, 659.8348
538.3115, 659.2722
538.7936, 659.2109
539.2757, 658.6239
539.7578, 657.4045
540.2399, 655.8493
540.7220, 654.2224
541.2042, 652.5660
541.6863, 651.0140
542.1684, 649.6116
542.6505, 648.2984
543.1326, 647.0219
543.6147, 645.7642
544.0969, 644.4327
544.5790, 642.9489
545.0611, 641.4057
545.5432, 639.8964
546.0253, 638.4363
546.5074, 636.9117
546.9896, 634.6808
547.4717, 632.7173
547.9538, 631.8412
548.4359, 633.6600
548.9180, 634.5612
549.4001, 633.6508
549.8823, 631.8640
550.3644, 630.8174
550.8465, 631.0170
551.3286, 631.0008
551.8107, 630.4099
552.2928, 629.2933
552.7750, 627.9009
553.2571, 626.1143
553.7392, 624.6020
554.2213, 623.8856
554.7034, 623.8572
555.1855, 623.9352
555.6677, 624.1157
556.1498, 624.1995
556.6319, 623.9095
557.1140, 623.3716
557.5961, 622.8361
558.0782, 622.3348
558.5604, 621.9151
559.0425, 621.7255
559.5246, 621.6467
560.0067, 621.4163
560.4888, 620.9778
560.9709, 620.3184
561.4531, 619.3681
561.9352, 618.1263
562.4173, 616.9148
562.8994, 615.5006
563.3815, 614.3658
563.8636, 613.8597
564.3458, 614.5379
564.8279, 614.3068
565.3100, 612.8412
565.7921, 610.8820
566.2742, 609.3793
566.7563, 608.3670
567.2385, 607.4715
567.7206, 606.7302
568.2027, 605.9268
568.6848, 604.3339
569.1669, 602.0861
569.6490, 600.3610
570.1312, 600.2531
570.6133, 600.8141
571.0954, 600.6679
571.5775, 599.8147
572.0596, 598.8126
572.5417, 597.8175
573.0239, 596.9384
573.5060, 596.2983
573.9881, 595.9601
574.4702, 595.7296
574.9523, 595.6436
575.4344, 595.6005
575.9166, 595.4698
576.3987, 595.0166
576.8808, 594.7860
577.3629, 594.9336
577.8450, 595.3337
578.3271, 595.5660
578.8093, 595.5781
579.2914, 595.5508
579.7735, 595.4742
580.2556, 595.3859
580.7377, 595.5820
581.2198, 596.0478
581.7020, 596.8829
582.1841, 598.4816
582.6662, 600.4703
583.1483, 601.9652
583.6304, 602.7839
584.1125, 603.3311
584.5947, 603.8430
585.0768, 604.3494
585.5589, 604.8884
586.0410, 605.2851
586.5231, 605.9539
587.0052, 607.1513
587.4873, 608.7780
587.9694, 610.5230
588.4515, 612.8688
588.9337, 614.7928
589.4158, 615.7893
