##NAMES=Brannockite
##RRUFFID=R070410
##IDEAL CHEMISTRY=KSn_2_(Li_3_Si_12_)O_30_
##LOCALITY=Foote Lithium County mine (Foote mine), Kings Mountain District, Cleveland County, North Carolina, USA
##OWNER=RRUFF
##SOURCE=Michael Scott
##DESCRIPTION=Colorless hexagonal plates associated with quartz
##STATUS=The identification of this mineral has been confirmed by single-crystal X-ray diffraction.
##URL=rruff.info/R070410
139.8220, 468.6197
140.3041, 478.8622
140.7862, 502.3582
141.2683, 527.9219
141.7504, 550.1732
142.2325, 569.8665
142.7147, 591.0958
143.1968, 617.5195
143.6789, 649.1841
144.1610, 678.6061
144.6431, 701.1975
145.1252, 725.5112
145.6074, 756.7410
146.0895, 794.6547
146.5716, 834.8052
147.0537, 871.2348
147.5358, 905.2864
148.0179, 958.2687
148.5001, 1030.520
148.9822, 1120.641
149.4643, 1232.106
149.9464, 1364.891
150.4285, 1508.904
150.9106, 1675.972
151.3928, 1854.255
151.8749, 1957.599
152.3570, 1967.095
152.8391, 1907.683
153.3212, 1781.852
153.8033, 1587.881
154.2855, 1385.346
154.7676, 1213.801
155.2497, 1071.487
155.7318, 952.7103
156.2139, 860.1964
156.6960, 789.2541
157.1782, 737.7601
157.6603, 707.1488
158.1424, 686.0890
158.6245, 668.1717
159.1066, 653.5442
159.5887, 643.6866
160.0709, 642.7719
160.5530, 645.4778
161.0351, 642.7343
161.5172, 632.2441
161.9993, 624.2756
162.4814, 629.4796
162.9636, 642.3833
163.4457, 653.6007
163.9278, 658.6459
164.4099, 660.3402
164.8920, 663.6620
165.3741, 668.9713
165.8563, 674.9068
166.3384, 682.7325
166.8205, 690.4773
167.3026, 694.1566
167.7847, 688.4681
168.2668, 678.8693
168.7490, 677.9891
169.2311, 688.9926
169.7132, 701.7806
170.1953, 712.8878
170.6774, 721.9106
171.1595, 727.7763
171.6417, 729.1272
172.1238, 727.3643
172.6059, 725.5792
173.0880, 722.9181
173.5701, 722.1169
174.0522, 724.8892
174.5344, 729.9302
175.0165, 735.7317
175.4986, 742.6408
175.9807, 749.2153
176.4628, 750.6485
176.9449, 742.8373
177.4271, 737.5143
177.9092, 740.6257
178.3913, 748.1989
178.8734, 754.8904
179.3555, 757.9604
179.8376, 758.6692
180.3197, 760.7833
180.8019, 764.8652
181.2840, 769.4701
181.7661, 775.4047
182.2482, 781.1573
182.7303, 783.7907
183.2124, 780.5250
183.6946, 775.4235
184.1767, 781.0324
184.6588, 803.9719
185.1409, 826.4572
185.6230, 845.7392
186.1051, 861.2679
186.5873, 872.4341
187.0694, 878.8241
187.5515, 880.9984
188.0336, 880.3998
188.5157, 876.5842
188.9978, 870.3439
189.4800, 860.6837
189.9621, 849.6907
190.4442, 839.4958
190.9263, 831.1693
191.4084, 823.8012
191.8905, 814.4458
192.3727, 798.2838
192.8548, 789.2450
193.3369, 793.4186
193.8190, 802.7299
194.3011, 809.4518
194.7832, 810.5016
195.2654, 808.4113
195.7475, 808.2494
196.2296, 809.2567
196.7117, 814.0963
197.1938, 826.4146
197.6759, 840.2228
198.1581, 849.5122
198.6402, 852.4070
199.1223, 852.8538
199.6044, 859.4990
200.0865, 880.7361
200.5686, 890.7274
201.0508, 882.7805
201.5329, 867.8044
202.0150, 852.8290
202.4971, 840.1253
202.9792, 829.4822
203.4613, 821.4066
203.9435, 819.5669
204.4256, 811.7283
204.9077, 790.2975
205.3898, 768.4636
205.8719, 755.6406
206.3540, 753.4301
206.8362, 756.3647
207.3183, 756.9208
207.8004, 753.1790
208.2825, 752.0344
208.7646, 757.0007
209.2467, 761.5932
209.7289, 761.7158
210.2110, 757.1165
210.6931, 750.4615
211.1752, 744.0481
211.6573, 736.5822
212.1395, 734.5309
212.6216, 744.2866
213.1037, 753.6324
213.5858, 756.8140
214.0679, 753.7242
214.5500, 747.4128
215.0322, 740.7135
215.5143, 733.7795
215.9964, 725.4763
216.4785, 706.9236
216.9606, 695.1581
217.4427, 701.7498
217.9249, 721.8771
218.4070, 741.3360
218.8891, 747.9228
219.3712, 741.2410
219.8533, 736.0325
220.3354, 732.2861
220.8176, 730.1651
221.2997, 731.0247
221.7818, 733.5769
222.2639, 735.3339
222.7460, 734.3782
223.2281, 731.0464
223.7103, 729.0330
224.1924, 728.4175
224.6745, 729.2561
225.1566, 733.1893
225.6387, 738.2622
226.1208, 741.8199
226.6030, 742.3637
227.0851, 740.1454
227.5672, 735.9977
228.0493, 726.8787
228.5314, 719.9716
229.0135, 716.3682
229.4957, 715.5096
229.9778, 717.0073
230.4599, 720.7368
230.9420, 726.0698
231.4241, 731.7933
231.9062, 739.5523
232.3884, 744.5900
232.8705, 745.6284
233.3526, 744.5196
233.8347, 741.1456
234.3168, 735.7764
234.7989, 732.3727
235.2811, 739.8876
235.7632, 767.7300
236.2453, 783.7957
236.7274, 775.4060
237.2095, 762.9374
237.6916, 760.8187
238.1738, 771.3413
238.6559, 785.6169
239.1380, 791.8490
239.6201, 786.7291
240.1022, 785.9073
240.5843, 794.1318
241.0665, 803.3129
241.5486, 809.1901
242.0307, 811.9688
242.5128, 814.9290
242.9949, 822.0127
243.4770, 833.8420
243.9592, 842.4076
244.4413, 845.8582
244.9234, 847.5298
245.4055, 847.5083
245.8876, 846.5971
246.3697, 846.4816
246.8519, 848.8206
247.3340, 853.2010
247.8161, 855.5622
248.2982, 853.4055
248.7803, 852.6113
249.2624, 857.2980
249.7446, 864.2432
250.2267, 867.4994
250.7088, 862.2702
251.1909, 853.0827
251.6730, 853.6424
252.1551, 868.3139
252.6373, 884.2153
253.1194, 901.3130
253.6015, 915.7209
254.0836, 922.4169
254.5657, 918.9384
255.0478, 909.6467
255.5300, 901.2025
256.0121, 894.1022
256.4942, 886.0266
256.9763, 872.7815
257.4584, 860.3837
257.9406, 853.4224
258.4227, 852.9445
258.9048, 856.2405
259.3869, 860.5225
259.8690, 865.7357
260.3511, 873.5853
260.8333, 884.9860
261.3154, 899.0127
261.7975, 915.0564
262.2796, 933.0389
262.7617, 952.7177
263.2438, 973.7572
263.7260, 996.3571
264.2081, 1021.464
264.6902, 1049.609
265.1723, 1079.802
265.6544, 1111.117
266.1365, 1143.676
266.6187, 1177.649
267.1008, 1214.471
267.5829, 1252.541
268.0650, 1287.960
268.5471, 1319.650
269.0292, 1351.752
269.5114, 1385.545
269.9935, 1421.645
270.4756, 1462.430
270.9577, 1510.720
271.4398, 1562.117
271.9219, 1609.119
272.4041, 1651.470
272.8862, 1702.136
273.3683, 1768.561
273.8504, 1847.859
274.3325, 1931.576
274.8146, 2018.013
275.2968, 2111.692
275.7789, 2219.742
276.2610, 2338.670
276.7431, 2456.313
277.2252, 2570.913
277.7073, 2678.669
278.1895, 2777.378
278.6716, 2871.509
279.1537, 2942.302
279.6358, 2989.611
280.1179, 3007.353
280.6000, 2983.583
281.0822, 2914.765
281.5643, 2810.121
282.0464, 2672.189
282.5285, 2499.574
283.0106, 2320.930
283.4927, 2122.302
283.9749, 1929.900
284.4570, 1765.450
284.9391, 1630.758
285.4212, 1517.286
285.9033, 1419.692
286.3854, 1339.236
286.8676, 1273.253
287.3497, 1225.540
287.8318, 1186.974
288.3139, 1155.170
288.7960, 1129.002
289.2781, 1107.382
289.7603, 1090.259
290.2424, 1076.258
290.7245, 1059.897
291.2066, 1035.501
291.6887, 1015.842
292.1708, 1006.008
292.6530, 1000.832
293.1351, 994.5949
293.6172, 985.2212
294.0993, 972.8766
294.5814, 957.5953
295.0635, 935.6816
295.5457, 917.9142
296.0278, 907.7258
296.5099, 898.9831
296.9920, 887.3597
297.4741, 872.4406
297.9562, 856.4061
298.4384, 840.5756
298.9205, 823.8229
299.4026, 815.4089
299.8847, 824.7948
300.3668, 832.8129
300.8489, 833.3715
301.3311, 827.3508
301.8131, 816.9594
302.2953, 802.4808
302.7774, 786.0566
303.2595, 779.3356
303.7416, 790.9599
304.2237, 799.8540
304.7058, 800.2048
305.1880, 796.5457
305.6701, 793.6046
306.1522, 793.1248
306.6343, 793.9604
307.1164, 794.3354
307.5985, 794.1714
308.0807, 793.8306
308.5628, 791.7701
309.0449, 790.7128
309.5270, 793.5832
310.0091, 800.1708
310.4912, 805.9252
310.9734, 805.7465
311.4555, 800.3429
311.9376, 797.7601
312.4197, 800.1714
312.9018, 803.1828
313.3839, 803.1133
313.8661, 801.3329
314.3482, 801.5001
314.8303, 806.5480
315.3124, 813.9852
315.7945, 819.4120
316.2766, 822.5640
316.7588, 825.2052
317.2409, 827.9325
317.7230, 830.8244
318.2051, 833.6257
318.6872, 834.8298
319.1693, 838.5179
319.6515, 849.5254
320.1336, 866.1956
320.6157, 881.3569
321.0978, 892.5175
321.5799, 901.0873
322.0620, 909.0131
322.5442, 916.0706
323.0263, 923.6756
323.5084, 933.5236
323.9905, 943.6254
324.4726, 949.8691
324.9547, 951.6387
325.4369, 955.4443
325.9190, 968.4495
326.4011, 991.8202
326.8832, 1011.122
327.3653, 1023.842
327.8474, 1035.073
328.3296, 1045.723
328.8117, 1057.073
329.2938, 1072.417
329.7759, 1094.177
330.2580, 1120.729
330.7401, 1144.014
331.2223, 1163.083
331.7044, 1180.145
332.1865, 1191.364
332.6686, 1202.583
333.1507, 1220.531
333.6328, 1247.048
334.1150, 1278.453
334.5971, 1310.176
335.0792, 1343.966
335.5613, 1372.696
336.0434, 1395.363
336.5255, 1414.506
337.0077, 1431.304
337.4898, 1445.612
337.9719, 1457.081
338.4540, 1466.500
338.9361, 1472.932
339.4182, 1467.613
339.9004, 1446.736
340.3825, 1418.714
340.8646, 1383.019
341.3467, 1343.586
341.8288, 1305.445
342.3109, 1270.471
342.7931, 1236.765
343.2752, 1199.886
343.7573, 1158.398
344.2394, 1123.764
344.7215, 1101.519
345.2036, 1085.237
345.6858, 1070.115
346.1679, 1055.837
346.6500, 1042.898
347.1321, 1033.896
347.6142, 1026.462
348.0963, 1012.064
348.5785, 986.9430
349.0606, 963.8975
349.5427, 954.1542
350.0248, 954.7329
350.5069, 957.8701
350.9890, 966.3642
351.4712, 973.6697
351.9533, 973.9803
352.4354, 968.1242
352.9175, 959.7433
353.3996, 949.0831
353.8817, 938.6388
354.3639, 936.1855
354.8460, 946.3232
355.3281, 953.0032
355.8102, 948.9377
356.2923, 941.2309
356.7744, 937.9992
357.2566, 941.0042
357.7387, 947.9703
358.2208, 957.0888
358.7029, 969.6324
359.1850, 976.8389
359.6671, 973.6134
360.1493, 970.9123
360.6314, 974.6061
361.1135, 982.6439
361.5956, 989.9794
362.0777, 993.6639
362.5598, 994.4848
363.0420, 994.6854
363.5241, 988.2596
364.0062, 991.6240
364.4883, 1013.358
364.9704, 1040.290
365.4525, 1062.177
365.9347, 1076.529
366.4168, 1086.622
366.8989, 1095.437
367.3810, 1103.007
367.8631, 1109.762
368.3452, 1114.979
368.8274, 1120.282
369.3095, 1123.766
369.7916, 1127.902
370.2737, 1138.588
370.7558, 1160.199
371.2379, 1188.600
371.7201, 1217.165
372.2022, 1245.781
372.6843, 1275.035
373.1664, 1303.979
373.6485, 1334.493
374.1306, 1369.348
374.6128, 1409.548
375.0949, 1450.681
375.5770, 1495.163
376.0591, 1537.905
376.5412, 1570.253
377.0233, 1591.059
377.5055, 1596.517
377.9876, 1580.900
378.4697, 1541.695
378.9518, 1496.817
379.4339, 1446.953
379.9160, 1391.107
380.3982, 1324.477
380.8803, 1251.188
381.3624, 1182.297
381.8445, 1123.603
382.3266, 1073.900
382.8087, 1028.623
383.2909, 987.6401
383.7730, 952.5003
384.2551, 924.3642
384.7372, 901.2848
385.2193, 881.4861
385.7014, 864.8069
386.1836, 852.4551
386.6657, 847.1155
387.1478, 849.4568
387.6299, 846.0449
388.1120, 828.4640
388.5941, 814.8701
389.0763, 814.6795
389.5584, 821.3736
390.0405, 824.1818
390.5226, 817.7253
391.0047, 807.8117
391.4868, 804.1742
391.9690, 807.6109
392.4511, 809.7387
392.9332, 807.0297
393.4153, 803.3953
393.8974, 802.4756
394.3795, 804.3085
394.8617, 807.0799
395.3438, 812.6752
395.8259, 817.7076
396.3080, 814.6141
396.7901, 802.2480
397.2722, 790.9083
397.7544, 788.6423
398.2365, 793.5703
398.7186, 794.6157
399.2007, 784.4818
399.6828, 778.6596
400.1649, 789.0169
400.6471, 806.2726
401.1292, 813.3831
401.6113, 804.7070
402.0934, 790.6485
402.5755, 786.9317
403.0576, 798.7553
403.5398, 805.2878
404.0219, 803.8078
404.5040, 800.4152
404.9861, 797.0220
405.4682, 794.3481
405.9503, 793.3217
406.4325, 794.7258
406.9146, 797.7508
407.3967, 799.6282
407.8788, 800.4940
408.3609, 799.8356
408.8430, 794.3692
409.3252, 789.5400
409.8073, 791.4102
410.2894, 800.3276
410.7715, 808.2076
411.2536, 805.6342
411.7357, 795.2707
412.2179, 791.5518
412.7000, 797.4521
413.1821, 805.0964
413.6642, 809.3928
414.1463, 811.5390
414.6284, 813.6329
415.1106, 816.6201
415.5927, 818.9953
416.0748, 818.7258
416.5569, 816.8317
417.0390, 816.1719
417.5211, 817.4826
418.0033, 821.3954
418.4854, 830.1321
418.9675, 847.3429
419.4496, 856.0861
419.9317, 846.0975
420.4138, 835.3531
420.8960, 836.0125
421.3781, 846.9200
421.8602, 861.9478
422.3423, 878.0648
422.8244, 893.3419
423.3065, 898.9478
423.7887, 885.4319
424.2708, 876.8698
424.7529, 876.9887
425.2350, 881.7061
425.7171, 889.1332
426.1992, 898.2847
426.6814, 906.7784
427.1635, 913.1568
427.6456, 917.3008
428.1277, 915.7870
428.6098, 903.2280
429.0919, 895.4761
429.5741, 906.0424
430.0562, 925.0504
430.5383, 937.4147
431.0204, 937.0634
431.5025, 934.8985
431.9846, 939.0233
432.4668, 948.6757
432.9489, 961.4644
433.4310, 977.1053
433.9131, 994.6951
434.3952, 1014.001
434.8773, 1035.287
435.3595, 1053.932
435.8416, 1064.225
436.3237, 1076.658
436.8058, 1100.011
437.2879, 1130.882
437.7701, 1158.626
438.2522, 1177.139
438.7343, 1193.538
439.2164, 1226.362
439.6985, 1286.807
440.1806, 1344.128
440.6628, 1384.855
441.1449, 1433.432
441.6270, 1509.479
442.1091, 1609.443
442.5912, 1714.206
443.0733, 1806.523
443.5555, 1893.061
444.0376, 2000.844
444.5197, 2134.937
445.0018, 2276.321
445.4839, 2420.766
445.9660, 2568.990
446.4482, 2722.868
446.9303, 2882.374
447.4124, 3044.555
447.8945, 3208.752
448.3766, 3374.272
448.8587, 3535.254
449.3409, 3690.689
449.8230, 3853.218
450.3051, 4028.697
450.7872, 4220.806
451.2693, 4448.382
451.7514, 4725.503
452.2336, 5018.239
452.7157, 5311.308
453.1978, 5614.238
453.6799, 5941.953
454.1620, 6297.821
454.6441, 6667.833
455.1263, 7038.727
455.6084, 7416.636
456.0905, 7758.052
456.5726, 8114.207
457.0547, 8372.850
457.5368, 8504.531
458.0190, 8512.626
458.5011, 8405.438
458.9832, 8185.002
459.4653, 7855.262
459.9474, 7393.183
460.4295, 6798.666
460.9117, 6191.813
461.3938, 5566.861
461.8759, 4975.796
462.3580, 4456.800
462.8401, 4005.072
463.3222, 3603.256
463.8044, 3245.774
464.2865, 2934.515
464.7686, 2679.562
465.2507, 2475.237
465.7328, 2301.203
466.2149, 2149.840
466.6971, 2020.540
467.1792, 1915.256
467.6613, 1844.091
468.1434, 1777.562
468.6255, 1713.290
469.1076, 1655.457
469.5898, 1608.641
470.0719, 1571.021
470.5540, 1537.711
471.0361, 1505.282
471.5182, 1475.369
472.0003, 1452.766
472.4825, 1440.018
472.9646, 1428.053
473.4467, 1407.670
473.9288, 1393.110
474.4109, 1396.415
474.8930, 1416.783
475.3752, 1440.716
475.8573, 1464.559
476.3394, 1485.423
476.8215, 1494.862
477.3036, 1492.571
477.7857, 1496.076
478.2679, 1515.209
478.7500, 1544.760
479.2321, 1573.891
479.7142, 1606.550
480.1963, 1629.243
480.6784, 1644.867
481.1606, 1645.760
481.6427, 1619.475
482.1248, 1569.148
482.6069, 1512.956
483.0890, 1464.178
483.5711, 1420.869
484.0533, 1370.377
484.5354, 1303.689
485.0175, 1244.696
485.4996, 1196.383
485.9817, 1156.257
486.4638, 1123.739
486.9460, 1098.077
487.4281, 1077.039
487.9102, 1060.182
488.3923, 1046.517
488.8744, 1032.948
489.3565, 1019.276
489.8387, 1006.788
490.3208, 996.0485
490.8029, 987.1165
491.2850, 980.3430
491.7671, 977.2740
492.2492, 971.8756
492.7314, 958.3107
493.2135, 943.5367
493.6956, 936.5679
494.1777, 937.5342
494.6598, 939.4166
495.1419, 936.8713
495.6241, 930.6687
496.1062, 925.7357
496.5883, 923.1461
497.0704, 920.4079
497.5525, 917.2176
498.0346, 913.8133
498.5168, 909.9278
498.9989, 905.8204
499.4810, 902.7847
499.9631, 902.4751
500.4452, 904.0662
500.9273, 904.3516
501.4095, 903.0493
501.8916, 901.5153
502.3737, 899.1637
502.8558, 897.6960
503.3379, 901.0817
503.8200, 911.8901
504.3022, 916.8274
504.7843, 903.6120
505.2664, 886.0800
505.7485, 881.4022
506.2306, 889.7544
506.7127, 901.1624
507.1949, 909.9550
507.6770, 915.1527
508.1591, 912.1736
508.6412, 891.2934
509.1233, 876.3594
509.6054, 872.3372
510.0876, 871.5455
510.5697, 868.5477
511.0518, 863.1899
511.5339, 858.6133
512.0161, 858.2256
512.4982, 859.5110
512.9803, 854.2264
513.4624, 840.8878
513.9445, 830.0936
514.4266, 825.2301
514.9088, 825.1526
515.3909, 830.1075
515.8730, 840.9801
516.3551, 845.8036
516.8372, 836.8663
517.3193, 823.3597
517.8015, 812.9000
518.2836, 805.6319
518.7657, 799.2745
519.2478, 792.6646
519.7299, 786.2094
520.2120, 780.7244
520.6942, 774.9313
521.1763, 772.7152
521.6584, 778.7775
522.1405, 783.6042
522.6226, 779.8763
523.1047, 770.6696
523.5869, 764.6187
524.0690, 766.8520
524.5511, 773.0867
525.0332, 777.1870
525.5153, 779.1503
525.9974, 778.4259
526.4796, 774.2068
526.9617, 768.3229
527.4438, 760.4445
527.9259, 751.2041
528.4080, 748.9664
528.8901, 764.1515
529.3723, 777.5186
529.8544, 774.8105
530.3365, 762.6176
530.8186, 753.5257
531.3007, 751.8798
531.7828, 755.1257
532.2650, 760.2670
532.7471, 767.8845
533.2292, 773.9729
533.7113, 780.9469
534.1934, 783.3199
534.6755, 776.5245
535.1577, 765.3557
535.6398, 756.1150
536.1219, 750.6170
536.6040, 746.7092
537.0861, 741.7214
537.5682, 736.6893
538.0504, 736.3845
538.5325, 742.2162
539.0146, 746.0161
539.4967, 740.7133
539.9788, 728.6527
540.4609, 721.7009
540.9431, 720.9576
541.4252, 723.0586
541.9073, 730.0668
542.3894, 737.8438
542.8715, 741.6808
543.3536, 741.7722
543.8358, 742.6133
544.3179, 748.4786
544.8000, 757.3149
545.2821, 759.2116
545.7642, 750.7736
546.2463, 744.6933
546.7285, 744.9920
547.2106, 748.3488
547.6927, 753.7636
548.1748, 760.6805
548.6569, 765.0278
549.1390, 765.0372
549.6211, 761.5435
550.1032, 753.0139
550.5853, 741.1383
551.0674, 733.4216
551.5496, 733.1382
552.0317, 736.5713
552.5138, 737.6775
552.9959, 735.3607
553.4780, 734.4370
553.9601, 734.6035
554.4423, 736.2574
554.9244, 742.1441
555.4065, 748.8248
555.8886, 749.8239
556.3707, 742.5765
556.8528, 734.8307
557.3350, 737.9028
557.8171, 750.0419
558.2992, 756.1943
558.7813, 753.3477
559.2634, 749.7855
559.7455, 751.8091
560.2277, 757.1396
560.7098, 758.3824
561.1919, 753.3360
561.6740, 747.9778
562.1561, 743.9935
562.6382, 740.7286
563.1204, 736.8263
563.6025, 732.6461
564.0846, 730.6461
564.5667, 733.0106
565.0488, 738.2243
565.5309, 740.1496
566.0131, 737.4219
566.4952, 734.8489
566.9773, 732.2656
567.4594, 730.9196
567.9415, 733.6719
568.4236, 739.0108
568.9058, 740.1870
569.3879, 730.4219
569.8700, 718.7900
570.3521, 714.2462
570.8342, 715.5430
571.3163, 719.5531
571.7985, 725.6893
572.2806, 730.4637
572.7627, 728.9900
573.2448, 720.1580
573.7269, 715.5859
574.2090, 717.4542
574.6912, 720.6946
575.1733, 724.7121
575.6554, 729.1018
576.1375, 735.0477
576.6196, 742.2128
577.1017, 745.5406
577.5839, 736.7475
578.0660, 720.4917
578.5481, 713.4282
579.0302, 716.7283
579.5123, 720.9838
579.9944, 722.1226
580.4766, 721.5687
580.9587, 721.9157
581.4408, 723.1434
581.9229, 725.0452
582.4050, 729.8466
582.8871, 733.2657
583.3693, 731.6859
583.8514, 726.5469
584.3335, 720.9807
584.8156, 716.4315
585.2977, 712.8232
585.7798, 709.7148
586.2620, 706.9537
586.7441, 706.9805
587.2262, 711.9451
587.7083, 716.3546
588.1904, 716.0148
588.6725, 713.3534
589.1547, 712.0792
589.6368, 712.4119
590.1189, 714.8666
590.6010, 722.5446
591.0831, 730.9466
591.5652, 733.1961
592.0474, 729.6810
592.5295, 726.4764
593.0116, 727.6260
593.4937, 731.8732
593.9758, 735.3942
594.4579, 737.8160
594.9401, 740.3578
595.4222, 742.2247
595.9043, 745.0594
596.3864, 748.9500
596.8685, 754.5021
597.3506, 763.3533
597.8328, 777.3074
598.3149, 792.3222
598.7970, 806.1342
599.2791, 818.0850
599.7612, 825.1251
600.2433, 826.6735
600.7255, 829.1616
601.2076, 838.2146
601.6897, 853.0620
602.1718, 867.4106
602.6539, 880.5810
603.1360, 894.1772
603.6182, 906.1958
604.1003, 920.3255
604.5824, 940.6779
605.0645, 966.1103
605.5466, 991.2835
606.0287, 1013.854
606.5109, 1033.738
606.9930, 1048.154
607.4751, 1058.522
607.9572, 1077.306
608.4393, 1109.515
608.9214, 1143.728
609.4036, 1168.388
609.8857, 1183.460
610.3678, 1199.620
610.8499, 1228.932
611.3320, 1244.021
611.8141, 1235.220
612.2963, 1211.272
612.7784, 1176.057
613.2605, 1133.438
613.7426, 1093.814
614.2247, 1066.831
614.7068, 1046.918
615.1890, 1019.333
615.6711, 983.6234
616.1532, 950.4378
616.6353, 923.2304
617.1174, 899.1718
617.5995, 875.1110
618.0817, 850.9903
618.5638, 829.6352
619.0459, 811.7095
619.5280, 795.9556
620.0101, 782.1693
620.4922, 770.1556
620.9744, 759.5960
621.4565, 750.4741
621.9386, 743.0867
622.4207, 737.5475
622.9028, 734.0139
623.3849, 735.2687
623.8671, 743.4490
624.3492, 742.9783
624.8313, 723.6143
625.3134, 699.9125
625.7955, 690.0052
626.2776, 692.9761
626.7598, 696.4901
627.2419, 698.6810
627.7240, 701.2532
628.2061, 707.9484
628.6882, 714.3779
629.1703, 711.5767
629.6525, 698.9559
630.1346, 688.0320
630.6167, 692.2083
631.0988, 707.4515
631.5809, 708.6123
632.0630, 690.0144
632.5452, 680.1586
633.0273, 694.1956
633.5094, 714.3271
633.9915, 720.2441
634.4736, 712.7252
634.9557, 705.3688
635.4379, 700.3157
635.9200, 696.6552
