##NAMES=Brassite
##RRUFFID=R060042
##IDEAL CHEMISTRY=Mg(As^5+^O_3_OH)&#183;4H_2_O
##LOCALITY=Bohemia Region, Svornost mine, Jachymov, Czech Republic
##OWNER=RRUFF
##SOURCE=University of Arizona Mineral Museum
##DESCRIPTION=White powder associated with pharmacolite, R050537
##STATUS=The identification of this mineral has been confirmed by X-ray diffraction and chemical analysis
##URL=rruff.info/R060042
##MEASURED CHEMISTRY=Mg_1.00_(As_1.00_O_3_OH)Â·4H_2_O
162.6575, 7154.345
163.1396, 7143.771
163.6217, 7136.022
164.1039, 7135.401
164.5860, 7141.793
165.0681, 7148.389
165.5502, 7152.030
166.0323, 7154.151
166.5145, 7156.436
166.9966, 7158.884
167.4787, 7162.060
167.9608, 7167.481
168.4429, 7175.417
168.9250, 7180.951
169.4071, 7177.841
169.8893, 7170.840
170.3714, 7167.374
170.8535, 7172.837
171.3356, 7181.813
171.8177, 7189.422
172.2998, 7194.928
172.7820, 7202.072
173.2641, 7214.306
173.7462, 7230.319
174.2283, 7247.345
174.7104, 7267.427
175.1925, 7286.474
175.6747, 7297.613
176.1568, 7298.343
176.6389, 7299.369
177.1210, 7313.703
177.6031, 7337.556
178.0852, 7359.151
178.5674, 7369.649
179.0495, 7374.422
179.5316, 7382.854
180.0137, 7397.443
180.4958, 7412.453
180.9779, 7421.345
181.4601, 7424.849
181.9422, 7426.155
182.4243, 7426.784
182.9064, 7426.775
183.3885, 7425.588
183.8706, 7422.184
184.3528, 7419.407
184.8349, 7423.278
185.3170, 7432.943
185.7991, 7441.014
186.2812, 7438.168
186.7633, 7428.421
187.2455, 7427.483
187.7276, 7440.905
188.2097, 7459.843
188.6918, 7467.689
189.1739, 7464.369
189.6560, 7457.839
190.1382, 7452.849
190.6203, 7449.480
191.1024, 7447.890
191.5845, 7448.394
192.0666, 7450.738
192.5487, 7454.025
193.0309, 7458.327
193.5130, 7464.667
193.9951, 7474.723
194.4772, 7488.444
194.9593, 7502.676
195.4414, 7517.688
195.9236, 7532.573
196.4057, 7543.212
196.8878, 7549.056
197.3699, 7553.470
197.8520, 7559.249
198.3341, 7566.417
198.8163, 7573.082
199.2984, 7578.198
199.7805, 7582.436
200.2626, 7590.520
200.7447, 7603.760
201.2268, 7615.527
201.7090, 7618.077
202.1911, 7610.374
202.6732, 7603.489
203.1553, 7599.853
203.6374, 7599.202
204.1195, 7599.779
204.6017, 7601.604
205.0838, 7604.819
205.5659, 7610.989
206.0480, 7621.431
206.5301, 7627.048
207.0122, 7623.229
207.4944, 7611.444
207.9765, 7608.945
208.4586, 7618.193
208.9407, 7631.599
209.4228, 7642.096
209.9049, 7649.819
210.3871, 7653.793
210.8692, 7652.388
211.3513, 7645.966
211.8334, 7642.700
212.3155, 7642.723
212.7976, 7645.751
213.2798, 7652.740
213.7619, 7666.183
214.2440, 7675.853
214.7261, 7677.347
215.2082, 7670.535
215.6903, 7672.387
216.1725, 7686.808
216.6546, 7704.402
217.1367, 7713.798
217.6188, 7710.943
218.1009, 7710.314
218.5830, 7715.693
219.0651, 7727.423
219.5473, 7739.106
220.0294, 7751.395
220.5115, 7762.889
220.9936, 7771.380
221.4757, 7775.085
221.9578, 7779.833
222.4400, 7787.417
222.9221, 7798.193
223.4042, 7807.308
223.8863, 7814.169
224.3684, 7820.168
224.8505, 7827.254
225.3327, 7836.458
225.8148, 7844.643
226.2969, 7850.900
226.7790, 7855.240
227.2611, 7859.688
227.7432, 7864.112
228.2254, 7869.192
228.7075, 7875.656
229.1896, 7883.771
229.6717, 7893.163
230.1538, 7904.368
230.6359, 7917.657
231.1181, 7929.434
231.6002, 7938.840
232.0823, 7947.491
232.5644, 7957.312
233.0465, 7969.554
233.5286, 7980.371
234.0108, 7987.530
234.4929, 7990.224
234.9750, 7998.662
235.4571, 8014.895
235.9392, 8034.552
236.4213, 8053.380
236.9035, 8071.303
237.3856, 8088.458
237.8677, 8105.687
238.3498, 8123.577
238.8319, 8135.768
239.3140, 8138.569
239.7962, 8139.251
240.2783, 8145.349
240.7604, 8158.704
241.2425, 8174.283
241.7246, 8192.612
242.2067, 8214.309
242.6889, 8229.369
243.1710, 8234.031
243.6531, 8235.556
244.1352, 8241.505
244.6173, 8255.243
245.0994, 8266.506
245.5816, 8271.331
246.0637, 8269.431
246.5458, 8275.864
247.0279, 8297.021
247.5100, 8320.009
247.9921, 8332.010
248.4743, 8327.524
248.9564, 8323.569
249.4385, 8323.881
249.9206, 8328.348
250.4027, 8328.873
250.8848, 8322.544
251.3670, 8315.689
251.8491, 8313.727
252.3312, 8317.391
252.8133, 8324.482
253.2954, 8335.690
253.7775, 8350.668
254.2597, 8363.908
254.7418, 8373.564
255.2239, 8383.726
255.7060, 8398.389
256.1881, 8421.151
256.6702, 8439.650
257.1523, 8450.845
257.6345, 8455.755
258.1166, 8463.709
258.5987, 8476.134
259.0808, 8489.329
259.5629, 8499.852
260.0450, 8504.685
260.5272, 8515.204
261.0093, 8535.593
261.4914, 8563.143
261.9735, 8582.124
262.4556, 8590.317
262.9377, 8593.668
263.4199, 8594.175
263.9020, 8588.356
264.3841, 8591.865
264.8662, 8609.908
265.3483, 8637.670
265.8304, 8656.611
266.3126, 8663.327
266.7947, 8668.462
267.2768, 8678.350
267.7589, 8694.371
268.2410, 8710.886
268.7231, 8728.126
269.2053, 8745.717
269.6874, 8762.378
270.1695, 8777.770
270.6516, 8793.611
271.1337, 8811.440
271.6158, 8832.365
272.0980, 8850.219
272.5801, 8864.830
273.0622, 8875.929
273.5443, 8880.736
274.0264, 8876.450
274.5085, 8875.105
274.9907, 8884.399
275.4728, 8905.947
275.9549, 8922.986
276.4370, 8934.705
276.9191, 8942.428
277.4012, 8947.414
277.8834, 8948.942
278.3655, 8952.476
278.8476, 8962.528
279.3297, 8979.788
279.8118, 8989.665
280.2939, 8990.067
280.7761, 8987.970
281.2582, 8993.965
281.7403, 9008.717
282.2224, 9025.416
282.7045, 9040.936
283.1866, 9055.664
283.6688, 9075.697
284.1509, 9102.602
284.6330, 9129.584
285.1151, 9147.776
285.5972, 9157.062
286.0793, 9165.243
286.5615, 9173.469
287.0436, 9182.422
287.5257, 9196.647
288.0078, 9216.854
288.4899, 9238.428
288.9720, 9255.592
289.4542, 9269.047
289.9363, 9286.409
290.4184, 9312.194
290.9005, 9342.487
291.3826, 9367.440
291.8647, 9387.105
292.3469, 9402.467
292.8290, 9414.330
293.3111, 9422.694
293.7932, 9427.395
294.2753, 9426.340
294.7574, 9423.631
295.2396, 9429.272
295.7217, 9442.765
296.2038, 9454.836
296.6859, 9457.526
297.1680, 9453.163
297.6501, 9447.768
298.1323, 9441.990
298.6144, 9436.636
299.0965, 9432.764
299.5786, 9430.327
300.0607, 9428.870
300.5428, 9427.849
301.0250, 9427.592
301.5071, 9429.627
301.9892, 9435.385
302.4713, 9439.545
302.9534, 9435.075
303.4355, 9423.652
303.9177, 9410.808
304.3998, 9396.729
304.8819, 9384.182
305.3640, 9378.615
305.8461, 9381.488
306.3282, 9384.702
306.8104, 9382.526
307.2925, 9375.482
307.7746, 9364.634
308.2567, 9348.777
308.7388, 9330.701
309.2209, 9310.626
309.7031, 9288.500
310.1852, 9271.960
310.6673, 9270.136
311.1494, 9276.338
311.6315, 9280.907
312.1136, 9279.198
312.5958, 9275.248
313.0779, 9270.822
313.5600, 9265.975
314.0421, 9261.963
314.5242, 9255.530
315.0063, 9251.635
315.4885, 9255.388
315.9706, 9276.686
316.4527, 9297.027
316.9348, 9307.670
317.4169, 9309.930
317.8990, 9309.940
318.3812, 9309.473
318.8633, 9308.200
319.3454, 9305.536
319.8275, 9298.084
320.3096, 9294.813
320.7917, 9302.138
321.2739, 9316.213
321.7560, 9327.104
322.2381, 9328.955
322.7202, 9329.853
323.2023, 9333.725
323.6844, 9342.185
324.1666, 9351.069
324.6487, 9358.604
325.1308, 9366.182
325.6129, 9375.942
326.0950, 9391.245
326.5771, 9405.572
327.0593, 9415.838
327.5414, 9419.867
328.0235, 9427.733
328.5056, 9444.338
328.9877, 9462.935
329.4698, 9476.381
329.9520, 9483.216
330.4341, 9486.545
330.9162, 9484.607
331.3983, 9477.085
331.8804, 9476.037
332.3625, 9487.834
332.8447, 9500.853
333.3268, 9506.210
333.8089, 9498.421
334.2910, 9493.188
334.7731, 9492.229
335.2552, 9495.234
335.7374, 9500.902
336.2195, 9511.907
336.7016, 9521.305
337.1837, 9524.610
337.6658, 9519.549
338.1479, 9515.116
338.6301, 9510.483
339.1122, 9507.417
339.5943, 9510.962
340.0764, 9522.612
340.5585, 9535.472
341.0406, 9547.116
341.5227, 9557.836
342.0049, 9563.836
342.4870, 9564.234
342.9691, 9561.813
343.4512, 9560.415
343.9333, 9560.144
344.4154, 9559.757
344.8976, 9557.936
345.3797, 9555.639
345.8618, 9558.998
346.3439, 9569.017
346.8260, 9578.604
347.3081, 9578.998
347.7903, 9571.751
348.2724, 9567.324
348.7545, 9568.782
349.2366, 9574.218
349.7187, 9580.828
350.2008, 9588.579
350.6830, 9595.612
351.1651, 9598.793
351.6472, 9600.364
352.1293, 9606.154
352.6114, 9618.271
353.0935, 9631.635
353.5757, 9641.784
354.0578, 9648.598
354.5399, 9651.865
355.0220, 9645.824
355.5041, 9638.608
355.9862, 9641.669
356.4684, 9657.057
356.9505, 9674.186
357.4326, 9684.162
357.9147, 9690.381
358.3968, 9698.330
358.8789, 9716.877
359.3611, 9732.933
359.8432, 9734.838
360.3253, 9722.999
360.8074, 9711.819
361.2895, 9703.605
361.7716, 9701.717
362.2538, 9709.633
362.7359, 9742.073
363.2180, 9769.337
363.7001, 9776.297
364.1822, 9768.292
364.6643, 9764.645
365.1465, 9773.837
365.6286, 9787.137
366.1107, 9800.439
366.5928, 9814.545
367.0749, 9826.383
367.5570, 9831.136
368.0392, 9834.094
368.5213, 9844.387
369.0034, 9867.153
369.4855, 9892.857
369.9676, 9921.096
370.4497, 9953.590
370.9319, 9976.674
371.4140, 9981.729
371.8961, 9982.391
372.3782, 9992.445
372.8603, 10019.84
373.3424, 10042.13
373.8246, 10053.82
374.3067, 10056.45
374.7888, 10064.15
375.2709, 10079.28
375.7530, 10095.97
376.2351, 10111.32
376.7173, 10125.91
377.1994, 10137.09
377.6815, 10143.38
378.1636, 10148.14
378.6457, 10158.82
379.1278, 10176.33
379.6100, 10196.25
380.0921, 10218.50
380.5742, 10242.78
381.0563, 10261.33
381.5384, 10272.77
382.0205, 10283.20
382.5027, 10300.05
382.9848, 10322.84
383.4669, 10346.94
383.9490, 10373.31
384.4311, 10398.74
384.9132, 10414.65
385.3954, 10421.19
385.8775, 10425.79
386.3596, 10433.00
386.8417, 10442.62
387.3238, 10455.16
387.8059, 10472.22
388.2881, 10488.81
388.7702, 10498.78
389.2523, 10503.54
389.7344, 10507.55
390.2165, 10515.17
390.6986, 10522.14
391.1808, 10522.96
391.6629, 10516.21
392.1450, 10510.55
392.6271, 10513.63
393.1092, 10520.68
393.5913, 10525.43
394.0735, 10525.46
394.5556, 10523.12
395.0377, 10520.02
395.5198, 10516.08
396.0019, 10509.09
396.4840, 10493.23
396.9662, 10477.45
397.4483, 10467.57
397.9304, 10465.15
398.4125, 10467.81
398.8946, 10480.10
399.3767, 10497.24
399.8589, 10507.59
400.3410, 10503.34
400.8231, 10498.35
401.3052, 10497.29
401.7873, 10502.16
402.2694, 10502.43
402.7516, 10495.81
403.2337, 10486.16
403.7158, 10477.47
404.1979, 10468.89
404.6800, 10463.58
405.1621, 10464.59
405.6443, 10470.18
406.1264, 10464.96
406.6085, 10444.72
407.0906, 10425.21
407.5727, 10419.86
408.0548, 10430.40
408.5370, 10433.62
409.0191, 10426.50
409.5012, 10413.06
409.9833, 10398.76
410.4654, 10383.55
410.9475, 10370.92
411.4297, 10364.85
411.9118, 10362.78
412.3939, 10355.52
412.8760, 10342.89
413.3581, 10328.83
413.8402, 10316.62
414.3224, 10306.10
414.8045, 10296.57
415.2866, 10288.05
415.7687, 10280.37
416.2508, 10274.84
416.7329, 10270.58
417.2151, 10263.46
417.6972, 10250.95
418.1793, 10234.49
418.6614, 10213.39
419.1435, 10185.61
419.6256, 10162.32
420.1078, 10154.75
420.5899, 10154.73
421.0720, 10149.85
421.5541, 10130.26
422.0362, 10110.19
422.5183, 10093.13
423.0005, 10079.54
423.4826, 10073.31
423.9647, 10085.09
424.4468, 10098.54
424.9289, 10102.84
425.4110, 10086.82
425.8932, 10074.02
426.3753, 10065.73
426.8574, 10061.01
427.3395, 10058.17
427.8216, 10061.14
428.3037, 10060.13
428.7859, 10048.72
429.2680, 10023.16
429.7501, 10014.15
430.2322, 10028.77
430.7143, 10049.59
431.1964, 10057.36
431.6786, 10049.96
432.1607, 10041.01
432.6428, 10033.93
433.1249, 10026.86
433.6070, 10011.83
434.0891, 9988.224
434.5713, 9965.729
435.0534, 9951.533
435.5355, 9944.347
436.0176, 9937.460
436.4997, 9930.631
436.9818, 9923.817
437.4640, 9916.174
437.9461, 9908.322
438.4282, 9902.079
438.9103, 9898.011
439.3924, 9896.005
439.8745, 9896.224
440.3566, 9898.486
440.8387, 9901.765
441.3209, 9906.682
441.8030, 9911.485
442.2851, 9914.551
442.7672, 9915.821
443.2493, 9914.274
443.7314, 9904.096
444.2136, 9891.117
444.6957, 9886.218
445.1778, 9903.489
445.6599, 9919.720
446.1420, 9925.967
446.6241, 9921.230
447.1063, 9911.941
447.5884, 9889.775
448.0705, 9868.864
448.5526, 9860.211
449.0347, 9878.135
449.5168, 9887.662
449.9990, 9883.182
450.4811, 9869.640
450.9632, 9861.189
451.4453, 9859.143
451.9274, 9859.735
452.4095, 9863.443
452.8917, 9871.160
453.3738, 9869.082
453.8559, 9854.247
454.3380, 9836.899
454.8201, 9829.711
455.3022, 9832.914
455.7844, 9832.901
456.2665, 9825.966
456.7486, 9815.045
457.2307, 9805.397
457.7128, 9797.157
458.1949, 9790.757
458.6771, 9787.554
459.1592, 9786.182
459.6413, 9784.383
460.1234, 9782.059
460.6055, 9778.318
461.0876, 9771.475
461.5698, 9762.767
462.0519, 9754.294
462.5340, 9746.535
463.0161, 9739.496
463.4982, 9731.630
463.9803, 9723.949
464.4625, 9720.759
464.9446, 9730.782
465.4267, 9740.825
465.9088, 9741.897
466.3909, 9728.740
466.8730, 9718.257
467.3552, 9716.234
467.8373, 9717.774
468.3194, 9716.658
468.8015, 9710.084
469.2836, 9703.441
469.7657, 9696.980
470.2479, 9690.673
470.7300, 9685.710
471.2121, 9681.999
471.6942, 9679.465
472.1763, 9677.986
472.6584, 9677.462
473.1406, 9679.178
473.6227, 9684.744
474.1048, 9689.979
474.5869, 9687.364
475.0690, 9676.842
475.5511, 9667.245
476.0333, 9661.378
476.5154, 9658.602
476.9975, 9658.105
477.4796, 9659.811
477.9617, 9660.449
478.4438, 9657.248
478.9260, 9651.408
479.4081, 9643.913
479.8902, 9633.770
480.3723, 9626.723
480.8544, 9630.611
481.3365, 9640.427
481.8187, 9647.596
482.3008, 9645.289
482.7829, 9642.098
483.2650, 9643.613
483.7471, 9649.154
484.2292, 9652.992
484.7114, 9650.215
485.1935, 9647.405
485.6756, 9649.064
486.1577, 9659.897
486.6398, 9666.802
487.1219, 9667.385
487.6041, 9664.011
488.0862, 9659.209
488.5683, 9649.432
489.0504, 9644.068
489.5325, 9645.962
490.0146, 9654.167
490.4968, 9662.459
490.9789, 9672.060
491.4610, 9678.076
491.9431, 9674.780
492.4252, 9661.928
492.9073, 9656.469
493.3895, 9660.523
493.8716, 9668.447
494.3537, 9673.652
494.8358, 9676.319
495.3179, 9677.186
495.8000, 9675.048
496.2822, 9672.674
496.7643, 9674.214
497.2464, 9679.444
497.7285, 9686.775
498.2106, 9697.223
498.6927, 9708.181
499.1749, 9716.994
499.6570, 9722.951
500.1391, 9727.715
500.6212, 9729.469
501.1033, 9731.236
501.5854, 9736.635
502.0676, 9752.979
502.5497, 9766.029
503.0318, 9771.278
503.5139, 9769.674
503.9960, 9767.037
504.4781, 9761.245
504.9603, 9757.221
505.4424, 9757.902
505.9245, 9765.873
506.4066, 9767.811
506.8887, 9760.646
507.3708, 9751.635
507.8530, 9748.869
508.3351, 9753.598
508.8172, 9758.354
509.2993, 9762.252
509.7814, 9764.994
510.2635, 9764.374
510.7457, 9760.389
511.2278, 9758.952
511.7099, 9763.745
512.1920, 9773.246
512.6741, 9786.010
513.1563, 9802.064
513.6384, 9814.850
514.1205, 9817.638
514.6026, 9813.968
515.0847, 9808.076
515.5668, 9797.808
516.0490, 9791.889
516.5311, 9800.943
517.0132, 9818.074
517.4953, 9829.279
517.9774, 9826.377
518.4595, 9819.796
518.9417, 9810.951
519.4238, 9799.607
519.9059, 9796.366
520.3880, 9809.568
520.8701, 9825.580
521.3522, 9837.520
521.8344, 9845.770
522.3165, 9848.397
522.7986, 9842.485
523.2807, 9833.287
523.7628, 9829.926
524.2449, 9833.330
524.7271, 9837.245
525.2092, 9839.321
525.6913, 9840.807
526.1734, 9848.418
526.6555, 9862.392
527.1376, 9872.939
527.6198, 9867.999
528.1019, 9855.056
528.5840, 9852.415
529.0661, 9862.635
529.5482, 9876.026
530.0303, 9885.952
530.5125, 9892.654
530.9946, 9896.608
531.4767, 9895.764
531.9588, 9894.447
532.4409, 9893.736
532.9230, 9894.111
533.4052, 9897.104
533.8873, 9902.607
534.3694, 9911.248
534.8515, 9925.883
535.3336, 9949.661
535.8157, 9962.443
536.2979, 9955.936
536.7800, 9945.674
537.2621, 9943.393
537.7442, 9953.573
538.2263, 9960.321
538.7084, 9962.886
539.1906, 9961.572
539.6727, 9954.497
540.1548, 9940.701
540.6369, 9933.172
541.1190, 9937.878
541.6011, 9951.787
542.0833, 9967.898
542.5654, 9985.968
543.0475, 10000.91
543.5296, 10005.50
544.0117, 10005.55
544.4938, 10011.28
544.9760, 10024.91
545.4581, 10037.04
545.9402, 10036.48
546.4223, 10031.41
546.9044, 10032.34
547.3865, 10052.18
547.8687, 10068.23
548.3508, 10068.95
548.8329, 10059.36
549.3150, 10055.71
549.7971, 10069.10
550.2792, 10080.26
550.7614, 10081.96
551.2435, 10073.14
551.7256, 10070.10
552.2077, 10076.51
552.6898, 10083.78
553.1719, 10084.46
553.6541, 10077.52
554.1362, 10073.72
554.6183, 10074.30
555.1004, 10077.79
555.5825, 10081.33
556.0646, 10085.22
556.5468, 10092.07
557.0289, 10105.16
557.5110, 10119.44
557.9931, 10126.01
558.4752, 10126.11
558.9573, 10126.53
559.4395, 10131.02
559.9216, 10137.74
560.4037, 10146.08
560.8858, 10156.37
561.3679, 10164.53
561.8500, 10165.71
562.3322, 10165.79
562.8143, 10169.95
563.2964, 10186.14
563.7785, 10197.58
564.2606, 10200.35
564.7427, 10198.71
565.2249, 10201.66
565.7070, 10213.68
566.1891, 10220.19
566.6712, 10214.39
567.1533, 10199.13
567.6354, 10193.28
568.1176, 10197.69
568.5997, 10206.18
569.0818, 10216.68
569.5639, 10228.06
570.0460, 10235.47
570.5281, 10238.11
571.0103, 10239.88
571.4924, 10244.40
571.9745, 10250.77
572.4566, 10257.28
572.9387, 10262.36
573.4208, 10269.17
573.9030, 10283.28
574.3851, 10300.56
574.8672, 10312.10
575.3493, 10310.10
575.8314, 10306.45
576.3135, 10303.51
576.7957, 10301.43
577.2778, 10305.75
577.7599, 10321.89
578.2420, 10338.41
578.7241, 10349.59
579.2062, 10355.10
579.6884, 10356.37
580.1705, 10352.08
580.6526, 10346.33
581.1347, 10343.94
581.6168, 10344.88
582.0989, 10346.71
582.5811, 10348.85
583.0632, 10352.00
583.5453, 10358.37
584.0274, 10367.10
584.5095, 10374.72
584.9916, 10378.24
585.4738, 10380.66
585.9559, 10385.92
586.4380, 10393.33
586.9201, 10397.53
587.4022, 10390.25
587.8843, 10383.01
588.3664, 10383.88
588.8485, 10396.58
589.3306, 10408.37
589.8127, 10422.22
590.2949, 10431.71
590.7770, 10429.40
591.2591, 10405.52
591.7412, 10393.21
592.2233, 10399.52
592.7054, 10415.94
593.1876, 10423.90
593.6697, 10422.94
594.1518, 10420.59
594.6339, 10419.36
595.1160, 10419.03
595.5981, 10418.30
596.0803, 10417.47
596.5624, 10418.96
597.0445, 10428.00
597.5266, 10438.56
598.0087, 10441.10
598.4908, 10434.10
598.9730, 10429.73
599.4551, 10437.46
599.9372, 10449.33
600.4193, 10457.75
600.9014, 10457.24
601.3835, 10458.90
601.8657, 10467.94
602.3478, 10478.83
602.8299, 10483.36
603.3120, 10479.59
603.7941, 10473.00
604.2762, 10463.04
604.7584, 10451.56
605.2405, 10446.58
605.7226, 10449.05
606.2047, 10451.56
606.6868, 10447.75
607.1689, 10440.89
607.6511, 10444.88
608.1332, 10459.86
608.6153, 10472.05
609.0974, 10465.90
609.5795, 10452.01
610.0616, 10445.00
610.5438, 10448.85
611.0259, 10454.28
611.5080, 10456.26
611.9901, 10456.93
612.4722, 10458.83
612.9543, 10462.88
613.4365, 10467.82
613.9186, 10473.05
614.4007, 10478.94
614.8828, 10486.78
615.3649, 10497.76
615.8470, 10508.04
616.3292, 10517.48
616.8113, 10525.33
617.2934, 10525.85
617.7755, 10518.14
618.2576, 10509.72
618.7397, 10504.21
619.2219, 10501.89
619.7040, 10504.73
620.1861, 10513.05
620.6682, 10521.75
621.1503, 10527.08
621.6324, 10530.04
622.1146, 10532.64
622.5967, 10537.52
623.0788, 10537.38
623.5609, 10520.87
624.0430, 10499.99
624.5251, 10491.83
625.0073, 10513.97
625.4894, 10531.67
625.9715, 10538.18
626.4536, 10537.00
626.9357, 10539.45
627.4178, 10545.99
627.9000, 10555.10
628.3821, 10569.01
628.8642, 10585.40
629.3463, 10586.60
629.8284, 10572.04
630.3105, 10557.16
630.7927, 10551.70
631.2748, 10554.19
631.7569, 10564.35
632.2390, 10582.83
632.7211, 10599.54
633.2032, 10608.71
633.6854, 10611.36
634.1675, 10607.80
634.6496, 10593.88
635.1317, 10581.82
635.6138, 10573.17
636.0959, 10569.09
636.5781, 10571.69
637.0602, 10587.17
637.5423, 10599.24
638.0244, 10604.25
638.5065, 10604.73
638.9886, 10608.57
639.4708, 10616.00
639.9529, 10624.77
640.4350, 10635.39
640.9171, 10645.96
641.3992, 10648.72
641.8813, 10644.08
642.3635, 10639.23
642.8456, 10639.51
643.3277, 10642.23
643.8098, 10644.19
644.2919, 10644.91
644.7740, 10646.33
645.2562, 10652.33
645.7383, 10657.83
646.2204, 10658.16
646.7025, 10646.73
647.1846, 10640.38
647.6667, 10640.99
648.1489, 10646.45
648.6310, 10655.36
649.1131, 10670.19
649.5952, 10679.54
650.0773, 10680.21
650.5594, 10675.88
651.0416, 10673.88
651.5237, 10674.17
652.0058, 10676.46
652.4879, 10681.32
652.9700, 10687.66
653.4521, 10694.43
653.9343, 10701.52
654.4164, 10707.92
654.8985, 10712.71
655.3806, 10716.98
655.8627, 10720.91
656.3448, 10724.46
656.8270, 10729.83
657.3091, 10741.78
657.7912, 10752.28
