##NAMES=Braunite
##RRUFFID=R050390
##IDEAL CHEMISTRY=Mn^2+^Mn^3+^_6_SiO_12_
##LOCALITY=Oehrenstock, Thuringia, Germany
##OWNER=RRUFF
##SOURCE=University of Arizona Mineral Museum
##DESCRIPTION=Mass of black octahedra
##STATUS=The identification of this mineral has been confirmed by X-ray diffraction and chemical analysis
##URL=rruff.info/R050390
##MEASURED CHEMISTRY=(Mn^2+^_0.83_Ca_0.17_)_Î£=1_Mn^3+^_6.00_Si_1.00_O_12_
93.48767, 246.1683
93.96979, 251.7850
94.45190, 257.6089
94.93402, 263.0196
95.41614, 264.3879
95.89825, 262.6072
96.38037, 259.7248
96.86249, 256.1592
97.34460, 253.4405
97.82672, 252.1591
98.30884, 251.2687
98.79095, 251.2729
99.27307, 251.2659
99.75519, 249.7753
100.2373, 246.4439
100.7194, 241.9863
101.2015, 238.9809
101.6837, 237.4711
102.1658, 237.0027
102.6479, 237.5053
103.1300, 239.0230
103.6121, 240.6963
104.0942, 241.5073
104.5764, 242.0070
105.0585, 243.1694
105.5406, 246.2565
106.0227, 250.3404
106.5048, 252.4546
106.9869, 251.5954
107.4691, 249.8587
107.9512, 247.9896
108.4333, 246.1264
108.9154, 244.5342
109.3975, 243.2656
109.8796, 242.1802
110.3618, 242.2929
110.8439, 244.9624
111.3260, 247.6776
111.8081, 249.0675
112.2902, 249.1167
112.7723, 248.9383
113.2544, 250.1516
113.7366, 253.9525
114.2187, 256.9994
114.7008, 258.7207
115.1829, 260.0463
115.6650, 261.8920
116.1471, 264.5981
116.6293, 267.6787
117.1114, 269.9852
117.5935, 271.4613
118.0756, 272.4509
118.5577, 272.5785
119.0398, 272.2293
119.5220, 272.3339
120.0041, 273.3378
120.4862, 275.0893
120.9683, 277.1511
121.4504, 279.9427
121.9325, 282.3494
122.4147, 283.3980
122.8968, 283.0190
123.3789, 282.1078
123.8610, 280.7871
124.3431, 279.2464
124.8252, 277.6486
125.3074, 276.0671
125.7895, 274.4248
126.2716, 272.5666
126.7537, 270.5059
127.2358, 268.1816
127.7179, 265.5427
128.2001, 262.6948
128.6822, 259.7738
129.1643, 256.9225
129.6464, 254.0900
130.1285, 250.7675
130.6107, 246.0625
131.0928, 241.6732
131.5749, 238.0945
132.0570, 235.1991
132.5391, 232.5626
133.0212, 229.8119
133.5033, 226.8483
133.9855, 224.5048
134.4676, 223.1580
134.9497, 221.9911
135.4318, 220.6131
135.9139, 218.9677
136.3960, 217.1181
136.8782, 215.0164
137.3603, 212.5167
137.8424, 210.7813
138.3245, 210.7104
138.8066, 211.1219
139.2887, 210.5932
139.7709, 208.7395
140.2530, 206.2498
140.7351, 203.6901
141.2172, 201.0648
141.6993, 198.9546
142.1814, 197.8900
142.6636, 197.6244
143.1457, 197.2417
143.6278, 196.5178
144.1099, 195.6554
144.5920, 194.6519
145.0741, 193.5356
145.5563, 192.7862
146.0384, 192.9951
146.5205, 194.2916
147.0026, 195.4363
147.4847, 196.5549
147.9668, 197.2262
148.4490, 196.8340
148.9311, 195.3480
149.4132, 193.7076
149.8953, 193.5256
150.3774, 196.0542
150.8595, 197.4587
151.3417, 197.0233
151.8238, 195.8087
152.3059, 194.5474
152.7880, 193.5398
153.2701, 192.7158
153.7522, 191.9176
154.2344, 191.3850
154.7165, 190.5872
155.1986, 189.2457
155.6807, 187.6953
156.1628, 186.3129
156.6449, 185.2795
157.1271, 184.5848
157.6092, 184.2374
158.0913, 185.1205
158.5734, 185.3263
159.0555, 183.6797
159.5376, 180.8397
160.0198, 178.5505
160.5019, 177.8499
160.9840, 178.4415
161.4661, 178.9107
161.9482, 179.3619
162.4303, 179.6004
162.9125, 179.3295
163.3946, 178.5752
163.8767, 177.9776
164.3588, 178.1162
164.8409, 178.6020
165.3230, 178.7625
165.8052, 178.3389
166.2873, 177.6804
166.7694, 177.3383
167.2515, 177.4892
167.7336, 177.3343
168.2157, 176.2550
168.6979, 174.7260
169.1800, 173.2665
169.6621, 172.1178
170.1442, 171.1640
170.6263, 170.0191
171.1084, 168.3459
171.5906, 167.0578
172.0727, 166.7791
172.5548, 166.9404
173.0369, 166.6651
173.5190, 165.2797
174.0011, 163.0071
174.4833, 161.7367
174.9654, 162.2168
175.4475, 163.0812
175.9296, 164.5339
176.4117, 166.1540
176.8938, 167.2786
177.3760, 167.3721
177.8581, 166.4064
178.3402, 165.4717
178.8223, 164.1471
179.3044, 163.2466
179.7865, 163.4475
180.2687, 164.4246
180.7508, 165.1920
181.2329, 164.8330
181.7150, 163.1983
182.1971, 162.3253
182.6792, 162.5020
183.1614, 163.0687
183.6435, 163.9447
184.1256, 165.0109
184.6077, 165.6880
185.0898, 165.2678
185.5719, 163.6763
186.0541, 162.8440
186.5362, 163.2672
187.0183, 164.2031
187.5004, 165.0951
187.9825, 165.8994
188.4646, 166.4749
188.9468, 166.4515
189.4289, 166.0113
189.9110, 165.9347
190.3931, 166.7749
190.8752, 167.9678
191.3573, 168.5676
191.8395, 168.3245
192.3216, 168.0040
192.8037, 168.3820
193.2858, 169.1587
193.7679, 169.6301
194.2500, 168.9148
194.7322, 167.5906
195.2143, 167.7260
195.6964, 170.4375
196.1785, 172.9428
196.6606, 173.6687
197.1427, 173.0871
197.6249, 172.1877
198.1070, 171.3427
198.5891, 170.6172
199.0712, 170.7213
199.5533, 172.3411
200.0354, 174.1059
200.5176, 175.7293
200.9997, 177.0901
201.4818, 177.9720
201.9639, 178.0332
202.4460, 177.2355
202.9281, 177.1066
203.4103, 178.5763
203.8924, 179.9057
204.3745, 180.4217
204.8566, 180.3268
205.3387, 180.2549
205.8208, 180.8236
206.3030, 182.1732
206.7851, 182.8511
207.2672, 182.0269
207.7493, 181.3814
208.2314, 181.8221
208.7135, 183.1243
209.1957, 184.3494
209.6778, 184.5712
210.1599, 183.5548
210.6420, 183.4254
211.1241, 185.1234
211.6062, 186.7100
212.0884, 187.0262
212.5705, 186.1698
213.0526, 185.0667
213.5347, 184.4747
214.0168, 184.4574
214.4989, 184.8475
214.9811, 186.3843
215.4632, 187.7282
215.9453, 187.7352
216.4274, 186.4406
216.9095, 185.0520
217.3916, 184.5526
217.8737, 185.0219
218.3559, 185.7398
218.8380, 187.0957
219.3201, 188.4464
219.8022, 189.3015
220.2843, 189.6249
220.7664, 189.4629
221.2486, 188.4038
221.7307, 186.7987
222.2128, 186.1750
222.6949, 187.7698
223.1770, 189.9210
223.6591, 190.6006
224.1413, 189.5765
224.6234, 188.3316
225.1055, 187.8171
225.5876, 187.8456
226.0697, 188.1585
226.5518, 188.5843
227.0340, 189.3116
227.5161, 190.8572
227.9982, 193.5513
228.4803, 195.9044
228.9624, 196.9171
229.4445, 197.0919
229.9267, 196.9476
230.4088, 196.4837
230.8909, 195.9510
231.3730, 195.9103
231.8551, 196.6004
232.3372, 197.1779
232.8194, 197.3529
233.3015, 197.2178
233.7836, 196.7626
234.2657, 195.8347
234.7478, 194.8219
235.2299, 194.6875
235.7121, 195.9065
236.1942, 197.0775
236.6763, 197.9926
237.1584, 198.5809
237.6405, 198.7055
238.1227, 198.2705
238.6048, 197.4770
239.0869, 196.8359
239.5690, 196.4287
240.0511, 196.0373
240.5332, 195.7229
241.0154, 195.3580
241.4975, 194.7316
241.9796, 193.7461
242.4617, 192.6559
242.9438, 192.1564
243.4259, 192.8473
243.9081, 193.1916
244.3902, 192.8211
244.8723, 192.1600
245.3544, 191.6159
245.8365, 191.3446
246.3186, 191.2099
246.8008, 190.8774
247.2829, 189.9799
247.7650, 189.4366
248.2471, 189.5589
248.7292, 189.8868
249.2113, 190.1489
249.6935, 190.2178
250.1756, 189.8972
250.6577, 188.7481
251.1398, 185.5170
251.6219, 183.3013
252.1040, 182.7782
252.5862, 182.8706
253.0683, 182.7047
253.5504, 182.0107
254.0325, 180.9641
254.5146, 179.8230
254.9967, 178.3693
255.4789, 177.2786
255.9610, 176.8849
256.4431, 176.6642
256.9252, 176.1669
257.4073, 175.2867
257.8894, 174.1887
258.3716, 173.0470
258.8537, 171.7146
259.3358, 170.8333
259.8179, 170.8875
260.3000, 171.1007
260.7821, 170.6717
261.2643, 169.4924
261.7464, 168.2518
262.2285, 167.7447
262.7106, 168.1901
263.1927, 168.3605
263.6748, 167.9185
264.1570, 167.3971
264.6391, 167.3400
265.1212, 167.7793
265.6033, 168.1989
266.0854, 168.0711
266.5675, 167.3611
267.0497, 166.8587
267.5318, 166.4588
268.0139, 166.3576
268.4960, 167.0052
268.9781, 168.3572
269.4602, 169.4038
269.9424, 169.2657
270.4245, 168.0675
270.9066, 167.1472
271.3887, 166.5091
271.8708, 166.1757
272.3529, 166.3873
272.8351, 167.0804
273.3172, 167.5064
273.7993, 167.0251
274.2814, 165.9761
274.7635, 165.5024
275.2456, 166.0518
275.7278, 166.7068
276.2099, 166.7319
276.6920, 166.2111
277.1741, 165.8362
277.6562, 165.9603
278.1383, 166.4338
278.6205, 166.8995
279.1026, 167.4152
279.5847, 167.8080
280.0668, 167.9484
280.5489, 167.8577
281.0310, 167.5682
281.5132, 166.7292
281.9953, 166.1084
282.4774, 166.8256
282.9595, 169.0915
283.4416, 171.4071
283.9237, 173.0438
284.4059, 174.0284
284.8880, 174.3825
285.3701, 173.7692
285.8522, 172.9750
286.3343, 172.8366
286.8164, 173.3213
287.2986, 173.9390
287.7807, 174.5296
288.2628, 175.0623
288.7449, 175.4012
289.2270, 175.4368
289.7091, 175.4418
290.1913, 175.8003
290.6734, 176.3711
291.1555, 176.6112
291.6376, 175.9872
292.1197, 174.8793
292.6018, 174.2488
293.0840, 174.3467
293.5661, 174.4329
294.0482, 173.7713
294.5303, 172.7678
295.0124, 172.2074
295.4945, 172.7914
295.9767, 173.7886
296.4588, 173.8207
296.9409, 172.6707
297.4230, 171.2931
297.9051, 169.8785
298.3872, 168.6052
298.8694, 167.7665
299.3515, 167.5761
299.8336, 167.6244
300.3157, 167.4603
300.7978, 167.1077
301.2799, 166.3747
301.7621, 164.6814
302.2442, 162.8245
302.7263, 161.5851
303.2084, 161.1775
303.6905, 160.9337
304.1726, 160.2187
304.6548, 159.0239
305.1369, 157.5164
305.6190, 154.9254
306.1011, 152.7283
306.5832, 152.3418
307.0653, 153.7967
307.5475, 155.4357
308.0296, 155.9399
308.5117, 155.3901
308.9938, 154.7297
309.4759, 153.9608
309.9580, 153.2370
310.4402, 152.6925
310.9223, 152.2883
311.4044, 151.8698
311.8865, 151.2270
312.3686, 150.4649
312.8507, 150.0237
313.3329, 149.9109
313.8150, 150.1521
314.2971, 151.0744
314.7792, 152.2890
315.2613, 153.0717
315.7434, 153.0234
316.2256, 152.3888
316.7077, 151.4821
317.1898, 149.9169
317.6719, 149.1658
318.1540, 150.7149
318.6361, 153.0763
319.1183, 154.6899
319.6004, 155.0693
320.0825, 154.6503
320.5646, 153.7506
321.0467, 152.2092
321.5288, 151.2222
322.0110, 151.5707
322.4931, 152.4113
322.9752, 153.1388
323.4573, 153.6569
323.9394, 154.1661
324.4215, 155.0933
324.9037, 156.4122
325.3858, 156.8436
325.8679, 155.1548
326.3500, 153.5506
326.8321, 153.8360
327.3142, 155.7723
327.7964, 157.6898
328.2785, 158.4828
328.7606, 158.3192
329.2427, 157.8929
329.7248, 156.7966
330.2069, 156.2354
330.6891, 157.6904
331.1712, 160.1535
331.6533, 161.4150
332.1354, 159.8279
332.6175, 156.7481
333.0996, 154.9646
333.5818, 154.7802
334.0639, 154.8947
334.5460, 155.2085
335.0281, 155.2670
335.5102, 154.2240
335.9923, 151.3328
336.4745, 148.4946
336.9566, 148.4355
337.4387, 151.3671
337.9208, 153.4441
338.4029, 152.7927
338.8850, 151.1378
339.3671, 150.1557
339.8492, 150.0049
340.3314, 150.0296
340.8135, 149.7724
341.2956, 149.2688
341.7777, 148.7164
342.2598, 148.0183
342.7419, 147.4828
343.2241, 147.4848
343.7062, 147.9136
344.1883, 148.2118
344.6704, 148.2078
345.1525, 147.8751
345.6346, 146.9912
346.1168, 145.3208
346.5989, 143.8285
347.0810, 143.3609
347.5631, 143.5494
348.0452, 143.8320
348.5273, 144.0979
349.0095, 144.3707
349.4916, 144.7958
349.9737, 145.3830
350.4558, 145.5925
350.9379, 144.8321
351.4200, 143.7439
351.9022, 143.4101
352.3843, 144.1141
352.8664, 144.9218
353.3485, 145.3062
353.8306, 145.3016
354.3127, 144.9709
354.7949, 144.1607
355.2770, 143.3113
355.7591, 142.9846
356.2412, 143.1548
356.7233, 143.4841
357.2054, 144.0551
357.6876, 144.6459
358.1697, 144.8892
358.6518, 144.7207
359.1339, 144.3150
359.6160, 143.6126
360.0981, 142.7391
360.5803, 142.3926
361.0624, 142.9285
361.5445, 143.8211
362.0266, 144.9400
362.5087, 146.1817
362.9908, 146.7277
363.4730, 145.7678
363.9551, 144.0073
364.4372, 143.6478
364.9193, 145.5562
365.4014, 147.2932
365.8835, 147.6582
366.3657, 147.1618
366.8478, 146.8224
367.3299, 146.9792
367.8120, 147.3833
368.2941, 147.6674
368.7762, 147.8174
369.2584, 147.9222
369.7405, 147.9402
370.2226, 147.9480
370.7047, 148.0541
371.1868, 148.2618
371.6689, 148.4575
372.1511, 148.6082
372.6332, 148.7048
373.1153, 148.2273
373.5974, 146.7282
374.0795, 145.1546
374.5616, 143.6556
375.0438, 142.4303
375.5259, 142.0267
376.0080, 142.8680
376.4901, 144.4594
376.9722, 145.0266
377.4543, 143.5505
377.9365, 142.3831
378.4186, 141.7934
378.9007, 141.6128
379.3828, 141.8699
379.8649, 142.5136
380.3470, 143.0271
380.8292, 142.6220
381.3113, 140.7880
381.7934, 139.5465
382.2755, 139.3753
382.7576, 139.2979
383.2397, 138.5606
383.7219, 137.3576
384.2040, 136.5273
384.6861, 136.8001
385.1682, 138.0794
385.6503, 138.8064
386.1324, 138.4899
386.6146, 138.1323
387.0967, 138.0959
387.5788, 138.0477
388.0609, 137.3800
388.5430, 135.8440
389.0251, 134.0630
389.5073, 133.3449
389.9894, 134.2554
390.4715, 135.0830
390.9536, 135.9267
391.4357, 136.5240
391.9178, 136.6766
392.4000, 136.3877
392.8821, 135.8034
393.3642, 134.8991
393.8463, 133.6432
394.3284, 133.1609
394.8105, 134.5006
395.2927, 135.4016
395.7748, 134.6907
396.2569, 133.1157
396.7390, 131.9462
397.2211, 131.8577
397.7032, 132.4447
398.1854, 132.8485
398.6675, 133.0633
399.1496, 133.1147
399.6317, 133.1291
400.1138, 132.9083
400.5959, 132.1094
401.0781, 130.6963
401.5602, 129.3585
402.0423, 128.9398
402.5244, 129.3257
403.0065, 129.1374
403.4886, 127.7558
403.9708, 126.4597
404.4529, 126.1506
404.9350, 126.6175
405.4171, 127.3076
405.8992, 128.2947
406.3813, 129.2097
406.8635, 129.3273
407.3456, 128.5523
407.8277, 127.8525
408.3098, 127.7187
408.7919, 127.9533
409.2740, 128.1856
409.7562, 128.3530
410.2383, 128.6305
410.7204, 129.4226
411.2025, 130.4318
411.6846, 130.7024
412.1667, 129.8556
412.6489, 128.6137
413.1310, 127.8814
413.6131, 127.6375
414.0952, 127.2384
414.5773, 126.3599
415.0594, 125.4232
415.5416, 124.7411
416.0237, 124.3499
416.5058, 124.3367
416.9879, 124.8750
417.4700, 125.8058
417.9521, 126.2550
418.4343, 125.8121
418.9164, 125.4664
419.3985, 125.5072
419.8806, 125.8016
420.3627, 126.1836
420.8448, 126.5987
421.3270, 127.0293
421.8091, 127.4808
422.2912, 128.0901
422.7733, 128.2608
423.2554, 127.5647
423.7375, 126.8379
424.2197, 126.6455
424.7018, 126.8892
425.1839, 127.0971
425.6660, 126.9120
426.1481, 126.4156
426.6302, 126.1669
427.1124, 126.4929
427.5945, 126.6760
428.0766, 126.3611
428.5587, 125.9999
429.0408, 126.1459
429.5229, 126.9316
430.0051, 127.8936
430.4872, 128.3811
430.9693, 128.3042
431.4514, 128.1264
431.9335, 127.7289
432.4156, 127.3416
432.8978, 126.9719
433.3799, 126.6838
433.8620, 126.6162
434.3441, 126.9171
434.8262, 127.4492
435.3083, 127.7827
435.7905, 127.8027
436.2726, 127.9407
436.7547, 128.4965
437.2368, 129.1651
437.7189, 129.6834
438.2010, 129.9992
438.6832, 130.2225
439.1653, 130.3787
439.6474, 130.4988
440.1295, 130.8106
440.6116, 131.4913
441.0938, 132.0880
441.5759, 131.9757
442.0580, 131.4180
442.5401, 131.2598
443.0222, 132.3050
443.5043, 133.4605
443.9865, 133.3036
444.4686, 132.0165
444.9507, 131.3171
445.4328, 132.1706
445.9149, 133.9455
446.3970, 135.1672
446.8792, 135.6293
447.3613, 136.2354
447.8434, 137.6628
448.3255, 139.1670
448.8076, 139.5760
449.2897, 138.7657
449.7719, 137.9849
450.2540, 138.5104
450.7361, 140.4390
451.2182, 141.5977
451.7003, 141.1158
452.1824, 140.9362
452.6646, 141.9908
453.1467, 143.7796
453.6288, 145.4980
454.1109, 146.7981
454.5930, 147.7088
455.0751, 148.2246
455.5573, 147.7827
456.0394, 148.0766
456.5215, 149.3086
457.0036, 150.9694
457.4857, 153.1741
457.9678, 155.5998
458.4500, 157.4037
458.9321, 157.7250
459.4142, 156.9566
459.8963, 157.5470
460.3784, 160.5122
460.8605, 163.0302
461.3427, 164.2677
461.8248, 164.8281
462.3069, 165.1046
462.7890, 165.1996
463.2711, 165.5702
463.7532, 166.9535
464.2354, 169.2528
464.7175, 170.9508
465.1996, 171.7009
465.6817, 172.0924
466.1638, 172.5151
466.6459, 172.9290
467.1281, 173.2006
467.6102, 172.9176
468.0923, 172.8044
468.5744, 174.0226
469.0565, 176.4051
469.5386, 178.1106
470.0208, 178.2446
470.5029, 177.5487
470.9850, 177.3885
471.4671, 177.9205
471.9492, 178.0379
472.4313, 177.1530
472.9135, 175.8963
473.3956, 174.9587
473.8777, 174.3867
474.3598, 173.7978
474.8419, 172.8807
475.3240, 171.6860
475.8062, 170.7307
476.2883, 170.4859
476.7704, 169.8689
477.2525, 167.9703
477.7346, 165.8903
478.2167, 165.3292
478.6989, 166.5859
479.1810, 167.9718
479.6631, 167.1161
480.1452, 163.3287
480.6273, 160.8713
481.1094, 161.3548
481.5916, 161.5343
482.0737, 159.9503
482.5558, 157.4030
483.0379, 155.3807
483.5200, 154.6196
484.0021, 154.5688
484.4843, 154.1787
484.9664, 153.3496
485.4485, 152.6339
485.9306, 152.2596
486.4127, 151.9273
486.8948, 151.2888
487.3770, 150.4411
487.8591, 149.9507
488.3412, 150.6768
488.8233, 151.8140
489.3054, 151.5259
489.7875, 149.6352
490.2697, 147.9968
490.7518, 147.6480
491.2339, 148.1205
491.7160, 148.3902
492.1981, 148.4245
492.6802, 148.3496
493.1624, 148.0562
493.6445, 147.7448
494.1266, 147.8407
494.6087, 148.3997
495.0908, 148.7872
495.5729, 148.2289
496.0551, 146.7651
496.5372, 146.8476
497.0193, 150.0070
497.5014, 152.6847
497.9835, 153.5815
498.4656, 153.4184
498.9478, 153.1724
499.4299, 153.1865
499.9120, 153.3165
500.3941, 153.2989
500.8762, 152.9552
501.3583, 153.1838
501.8405, 154.7154
502.3226, 156.0750
502.8047, 156.6125
503.2868, 156.6132
503.7689, 156.6371
504.2510, 156.9661
504.7331, 157.4229
505.2152, 157.5796
505.6974, 157.3154
506.1795, 157.5386
506.6616, 159.0219
507.1437, 160.4837
507.6258, 160.8791
508.1079, 160.3570
508.5901, 159.8148
509.0722, 159.8531
509.5543, 160.0414
510.0364, 159.6339
510.5185, 158.6396
511.0006, 157.7640
511.4828, 157.2812
511.9649, 157.1760
512.4470, 157.5466
512.9291, 158.6809
513.4113, 159.2613
513.8934, 158.7800
514.3755, 157.6810
514.8576, 156.2287
515.3397, 154.5435
515.8218, 152.9883
516.3040, 151.8314
516.7861, 151.0285
517.2682, 150.2748
517.7503, 149.9174
518.2324, 149.1643
518.7145, 147.5890
519.1967, 145.7906
519.6788, 144.3866
520.1609, 143.4411
520.6430, 142.5059
521.1251, 141.0740
521.6072, 139.1601
522.0894, 137.5409
522.5715, 136.0452
523.0536, 135.1519
523.5357, 135.6083
524.0178, 136.4066
524.4999, 136.2623
524.9821, 134.7840
525.4642, 133.0709
525.9463, 132.1688
526.4284, 131.9061
526.9105, 131.3964
527.3926, 130.3714
527.8748, 129.5685
528.3569, 129.9214
528.8390, 130.9982
529.3211, 131.2900
529.8032, 130.1822
530.2853, 128.7924
530.7675, 127.5583
531.2496, 126.5023
531.7317, 125.6976
532.2138, 125.1635
532.6959, 124.7901
533.1780, 124.4490
533.6602, 124.1350
534.1423, 123.8868
534.6244, 123.9018
535.1065, 123.7565
535.5886, 123.1409
536.0707, 122.3061
536.5529, 121.6103
537.0350, 121.2025
537.5171, 121.0300
537.9992, 121.0025
538.4813, 121.0930
538.9634, 121.4932
539.4456, 122.7815
539.9277, 123.7382
540.4098, 123.7150
540.8919, 122.9755
541.3740, 122.0364
541.8561, 121.0323
542.3383, 120.0531
542.8204, 118.9367
543.3025, 117.7883
543.7846, 117.8288
544.2667, 119.8352
544.7488, 122.1732
545.2310, 122.9219
545.7131, 122.2634
546.1952, 121.6668
546.6773, 121.5759
547.1594, 121.4034
547.6415, 120.4092
548.1237, 119.0357
548.6058, 118.4826
549.0879, 119.2590
549.5700, 120.6310
550.0521, 121.4098
550.5342, 121.4523
551.0164, 121.2969
551.4985, 120.8399
551.9806, 120.3260
552.4627, 119.7388
552.9448, 119.1933
553.4269, 118.8177
553.9091, 118.6598
554.3912, 118.8329
554.8733, 119.7741
555.3554, 121.7138
555.8375, 122.8164
556.3196, 122.2995
556.8018, 121.5031
557.2839, 121.3151
557.7660, 121.5515
558.2481, 121.6779
558.7302, 121.4069
559.2123, 121.0646
559.6945, 121.0557
560.1766, 121.2882
560.6587, 121.3247
561.1408, 121.0006
561.6229, 120.5324
562.1050, 120.0650
562.5872, 119.5361
563.0693, 119.7512
563.5514, 121.6130
564.0335, 123.3220
564.5156, 123.8190
564.9977, 123.5357
565.4799, 123.3156
565.9620, 123.4947
566.4441, 123.8253
566.9262, 123.8488
567.4083, 123.3645
567.8904, 123.3957
568.3726, 124.9936
568.8547, 126.0077
569.3368, 125.3417
569.8189, 123.6888
570.3010, 122.1044
570.7831, 120.8942
571.2653, 120.2198
571.7474, 120.5376
572.2295, 121.6974
572.7116, 122.4633
573.1937, 122.5596
573.6758, 122.4299
574.1580, 122.4659
574.6401, 122.5831
575.1222, 122.4433
575.6043, 121.8697
576.0864, 121.1988
576.5685, 120.2574
577.0507, 119.4293
577.5328, 119.6195
578.0149, 120.9837
578.4970, 122.3730
578.9791, 122.4984
579.4612, 121.2966
579.9434, 120.4350
580.4255, 120.3647
580.9076, 120.1088
581.3897, 119.2752
581.8718, 118.2738
582.3539, 117.4743
582.8361, 116.9890
583.3182, 116.8707
583.8003, 117.4329
584.2824, 118.5197
584.7645, 118.9295
585.2466, 118.5085
585.7288, 117.8237
586.2108, 116.8536
586.6929, 115.9232
587.1750, 115.4715
587.6572, 115.5175
588.1393, 116.0923
588.6214, 117.7971
589.1035, 119.7417
589.5856, 120.6892
