##NAMES=Braunite
##RRUFFID=R050388
##IDEAL CHEMISTRY=Mn^2+^Mn^3+^_6_SiO_12_
##LOCALITY=Langban, Filipstad, Varmland, Sweden
##OWNER=RRUFF
##SOURCE=University of Arizona Mineral Museum
##DESCRIPTION=Black crystals
##STATUS=The identification of this mineral has been confirmed by X-ray diffraction and chemical analysis
##URL=rruff.info/R050388
##MEASURED CHEMISTRY=(Mn^2+^_0.96_Mg_0.04_)_Î£=1_Mn^3+^_6.00_Si_1.00_O_12_
92.35352, 24.91827
92.83563, 25.51962
93.31775, 25.77662
93.79987, 25.47128
94.28198, 24.79270
94.76410, 24.32732
95.24622, 24.31858
95.72833, 24.45251
96.21045, 23.91531
96.69257, 22.65912
97.17468, 21.45172
97.65680, 21.00466
98.13892, 21.30359
98.62103, 21.87716
99.10315, 22.78295
99.58527, 23.90993
100.0674, 24.26261
100.5495, 23.55161
101.0316, 22.69623
101.5137, 22.92748
101.9958, 24.54494
102.4780, 26.20002
102.9601, 27.47781
103.4422, 28.33361
103.9243, 29.01811
104.4064, 29.18127
104.8885, 29.39687
105.3707, 30.86575
105.8528, 34.63165
106.3349, 38.16902
106.8170, 40.47243
107.2991, 40.84270
107.7813, 41.28476
108.2634, 41.57669
108.7455, 41.91126
109.2276, 42.91343
109.7097, 45.00889
110.1918, 47.47951
110.6740, 50.03224
111.1561, 52.96310
111.6382, 55.63545
112.1203, 57.65151
112.6024, 59.20890
113.0845, 61.39905
113.5667, 64.80055
114.0488, 68.65454
114.5309, 72.49049
115.0130, 75.92852
115.4951, 79.56387
115.9772, 83.83878
116.4594, 88.76199
116.9415, 93.21837
117.4236, 97.09712
117.9057, 100.2048
118.3878, 102.3261
118.8699, 101.3886
119.3521, 100.9384
119.8342, 103.1370
120.3163, 108.2501
120.7984, 114.5519
121.2805, 121.5474
121.7626, 128.9855
122.2448, 136.4372
122.7269, 146.2048
123.2090, 154.6790
123.6911, 157.4024
124.1732, 152.8915
124.6553, 146.8784
125.1375, 143.9858
125.6196, 143.8057
126.1017, 145.0468
126.5838, 147.0884
127.0659, 150.0305
127.5480, 154.5560
128.0302, 161.6379
128.5123, 168.5390
128.9944, 171.0259
129.4765, 169.4267
129.9586, 166.8068
130.4407, 165.5760
130.9229, 165.2369
131.4050, 163.5469
131.8871, 159.5320
132.3692, 154.4619
132.8513, 151.1214
133.3334, 149.3176
133.8156, 148.1411
134.2977, 147.5604
134.7798, 148.0540
135.2619, 149.1606
135.7440, 151.0178
136.2261, 153.3782
136.7083, 155.0193
137.1904, 155.6784
137.6725, 156.4799
138.1546, 159.5976
138.6367, 166.0854
139.1188, 169.2038
139.6010, 166.8378
140.0831, 159.0278
140.5652, 150.1870
141.0473, 139.2895
141.5294, 128.5998
142.0115, 121.3089
142.4937, 118.1727
142.9758, 116.3612
143.4579, 115.1503
143.9400, 114.6006
144.4221, 114.3363
144.9042, 114.3285
145.3864, 114.6054
145.8685, 115.2817
146.3506, 116.8997
146.8327, 118.1872
147.3148, 118.7145
147.7969, 118.1876
148.2791, 117.5280
148.7612, 116.0044
149.2433, 114.4035
149.7254, 114.5727
150.2075, 118.0840
150.6896, 121.9814
151.1718, 125.2165
151.6539, 128.0175
152.1360, 129.8721
152.6181, 130.0857
153.1002, 129.2495
153.5823, 129.1278
154.0645, 131.9111
154.5466, 133.9428
155.0287, 133.5099
155.5108, 128.3145
155.9929, 123.2031
156.4750, 118.6543
156.9572, 114.6826
157.4393, 111.4853
157.9214, 109.4059
158.4035, 107.8858
158.8856, 106.5679
159.3677, 105.2538
159.8499, 104.2456
160.3320, 103.3745
160.8141, 102.7468
161.2962, 103.0794
161.7783, 105.8704
162.2604, 109.1494
162.7426, 111.2919
163.2247, 111.3062
163.7068, 110.5442
164.1889, 109.2195
164.6710, 107.4145
165.1531, 106.0099
165.6353, 105.1649
166.1174, 105.0331
166.5995, 105.7803
167.0816, 108.4509
167.5637, 111.2855
168.0458, 113.2403
168.5280, 114.2792
169.0101, 114.7602
169.4922, 115.0958
169.9743, 114.9757
170.4564, 113.9562
170.9385, 111.0515
171.4207, 107.6533
171.9028, 104.9091
172.3849, 102.8834
172.8670, 101.3013
173.3491, 99.95792
173.8312, 98.89113
174.3134, 98.17188
174.7955, 97.89037
175.2776, 97.95232
175.7597, 98.28579
176.2418, 98.90388
176.7239, 99.69399
177.2061, 100.7780
177.6882, 102.0024
178.1703, 102.9303
178.6524, 103.0675
179.1345, 102.8551
179.6166, 103.1691
180.0988, 104.1732
180.5809, 105.1065
181.0630, 104.8495
181.5451, 103.6817
182.0272, 102.7342
182.5093, 102.4767
182.9915, 102.8650
183.4736, 103.9668
183.9557, 105.9492
184.4378, 108.0736
184.9199, 109.2398
185.4020, 109.5581
185.8842, 109.9678
186.3663, 111.1923
186.8484, 112.9662
187.3305, 114.2328
187.8126, 114.8467
188.2947, 115.1503
188.7769, 115.5768
189.2590, 116.1315
189.7411, 116.9273
190.2232, 118.1662
190.7053, 119.7667
191.1874, 121.1641
191.6696, 122.2232
192.1517, 123.2655
192.6338, 125.0874
193.1159, 127.7247
193.5980, 130.1824
194.0801, 131.5829
194.5623, 132.0307
195.0444, 133.2422
195.5265, 135.5774
196.0086, 138.4355
196.4907, 140.4787
196.9728, 141.6196
197.4550, 142.6764
197.9371, 143.9794
198.4192, 145.5210
198.9013, 147.7394
199.3834, 150.7566
199.8655, 154.3654
200.3477, 158.3495
200.8298, 162.8721
201.3119, 166.9823
201.7940, 169.8273
202.2761, 171.2274
202.7582, 173.5022
203.2404, 177.1510
203.7225, 181.5806
204.2046, 184.9949
204.6867, 187.0872
205.1688, 189.2358
205.6509, 192.4120
206.1331, 196.8418
206.6152, 200.8789
207.0973, 204.2506
207.5794, 207.2119
208.0615, 210.5442
208.5436, 214.3051
209.0258, 218.3020
209.5079, 222.3224
209.9900, 226.2404
210.4721, 230.7467
210.9542, 236.1471
211.4363, 242.0842
211.9185, 247.3009
212.4006, 251.5712
212.8827, 255.6413
213.3648, 259.9791
213.8469, 264.8945
214.3290, 269.1569
214.8112, 272.8145
215.2933, 275.7090
215.7754, 277.2847
216.2575, 277.1878
216.7396, 276.4347
217.2217, 275.6469
217.7038, 275.0008
218.1860, 273.7917
218.6681, 271.9597
219.1502, 269.5459
219.6323, 266.7574
220.1144, 263.8235
220.5965, 260.1715
221.0787, 255.1956
221.5608, 247.9000
222.0429, 242.1201
222.5250, 238.6813
223.0071, 236.8700
223.4892, 234.0875
223.9714, 229.5781
224.4535, 225.2560
224.9356, 222.1300
225.4177, 220.5682
225.8998, 219.3586
226.3819, 218.3586
226.8641, 217.6748
227.3462, 217.8173
227.8283, 219.3219
228.3104, 220.8302
228.7925, 221.7041
229.2746, 222.0642
229.7568, 221.4480
230.2389, 219.4247
230.7210, 216.4720
231.2031, 214.2640
231.6852, 213.4630
232.1673, 212.4284
232.6495, 210.3375
233.1316, 206.7919
233.6137, 203.0725
234.0958, 199.2221
234.5779, 195.2539
235.0600, 191.1624
235.5422, 186.3632
236.0243, 182.2238
236.5064, 179.5866
236.9885, 179.8595
237.4706, 178.4167
237.9527, 174.4192
238.4349, 168.9457
238.9170, 164.7654
239.3991, 162.5402
239.8812, 160.6169
240.3633, 158.2575
240.8454, 155.0707
241.3276, 152.4244
241.8097, 150.4415
242.2918, 148.9883
242.7739, 147.8609
243.2560, 147.3618
243.7381, 146.7195
244.2203, 145.5670
244.7024, 143.5738
245.1845, 142.0084
245.6666, 140.9578
246.1487, 140.2965
246.6308, 139.7090
247.1130, 138.8821
247.5951, 138.6593
248.0772, 139.6082
248.5593, 142.4187
249.0414, 143.8581
249.5235, 143.5071
250.0057, 142.0463
250.4878, 140.4781
250.9699, 138.4902
251.4520, 136.9563
251.9341, 136.3086
252.4162, 136.8129
252.8984, 136.8832
253.3805, 136.5237
253.8626, 135.7173
254.3447, 134.3825
254.8268, 132.1757
255.3089, 130.1110
255.7911, 128.5848
256.2732, 127.6963
256.7553, 126.4405
257.2374, 124.7390
257.7195, 122.7393
258.2017, 120.5112
258.6838, 117.6963
259.1659, 115.4489
259.6480, 114.2134
260.1301, 114.0539
260.6122, 113.4103
261.0944, 112.0090
261.5765, 110.4585
262.0586, 109.4377
262.5407, 109.1481
263.0228, 108.8369
263.5049, 108.3343
263.9871, 107.6465
264.4692, 107.0343
264.9513, 106.5048
265.4334, 106.0316
265.9155, 105.5662
266.3976, 105.0847
266.8798, 104.7047
267.3619, 104.3910
267.8440, 104.1783
268.3261, 104.5018
268.8082, 105.6613
269.2903, 106.7260
269.7725, 106.7460
270.2546, 105.3775
270.7367, 104.5735
271.2188, 104.7361
271.7009, 105.6460
272.1830, 106.4405
272.6652, 107.1338
273.1473, 107.6533
273.6294, 107.8501
274.1115, 107.6233
274.5936, 107.7440
275.0757, 108.4254
275.5579, 109.4072
276.0400, 109.8819
276.5221, 109.7519
277.0042, 109.5056
277.4863, 109.3383
277.9684, 109.2297
278.4506, 109.5613
278.9327, 110.5464
279.4148, 111.7485
279.8969, 112.1887
280.3790, 111.7865
280.8611, 111.1977
281.3433, 110.5613
281.8254, 109.8827
282.3075, 109.9472
282.7896, 110.9059
283.2717, 112.3236
283.7538, 113.6963
284.2360, 115.0411
284.7181, 115.9190
285.2002, 115.8704
285.6823, 115.0349
286.1644, 114.6907
286.6465, 114.8838
287.1287, 115.4062
287.6108, 116.0411
288.0929, 116.7862
288.5750, 117.6047
289.0571, 118.3819
289.5392, 119.2225
290.0214, 120.5804
290.5035, 122.4820
290.9856, 124.6188
291.4677, 126.6592
291.9498, 128.6461
292.4319, 130.8199
292.9141, 133.5609
293.3962, 136.3915
293.8783, 137.9794
294.3604, 138.3007
294.8425, 138.4764
295.3246, 139.7715
295.8068, 141.7745
296.2889, 143.1015
296.7710, 143.4516
297.2531, 142.9589
297.7352, 141.6945
298.2173, 139.7080
298.6995, 137.3384
299.1816, 134.6430
299.6637, 131.7628
300.1458, 129.1474
300.6279, 127.0241
301.1100, 124.8034
301.5922, 121.3903
302.0743, 117.1173
302.5564, 113.3487
303.0385, 111.3163
303.5206, 110.1247
304.0027, 108.4059
304.4849, 105.9151
304.9670, 103.2534
305.4491, 100.5821
305.9312, 98.17023
306.4133, 96.66279
306.8954, 97.09231
307.3776, 98.20100
307.8597, 98.75020
308.3418, 98.63905
308.8239, 98.26420
309.3060, 97.85404
309.7881, 97.38393
310.2703, 96.82835
310.7524, 96.11406
311.2345, 95.35189
311.7166, 94.51103
312.1987, 93.60820
312.6808, 93.01105
313.1630, 93.07777
313.6451, 93.49635
314.1272, 93.93352
314.6093, 94.34831
315.0914, 94.68511
315.5735, 94.86563
316.0557, 94.91794
316.5378, 94.99413
317.0199, 94.80494
317.5020, 94.86766
317.9841, 95.63268
318.4662, 97.81392
318.9484, 99.76633
319.4305, 100.9692
319.9126, 101.5370
320.3947, 101.7698
320.8768, 101.1535
321.3589, 100.6796
321.8411, 100.9081
322.3232, 102.2137
322.8053, 103.4661
323.2874, 104.3268
323.7695, 105.0263
324.2516, 105.9293
324.7338, 107.5436
325.2159, 108.9528
325.6980, 109.7210
326.1801, 109.5851
326.6622, 109.9304
327.1443, 111.2395
327.6265, 112.9065
328.1086, 114.3284
328.5907, 115.3156
329.0728, 116.2371
329.5549, 116.9405
330.0370, 117.4228
330.5192, 118.6849
331.0013, 121.6461
331.4834, 124.6186
331.9655, 126.4372
332.4476, 126.4608
332.9297, 126.4030
333.4119, 126.2273
333.8940, 126.0561
334.3761, 126.5983
334.8582, 128.5822
335.3403, 130.1069
335.8224, 129.9728
336.3046, 127.2915
336.7867, 125.7242
337.2688, 125.9263
337.7509, 126.8221
338.2330, 126.0424
338.7151, 123.0654
339.1973, 120.0722
339.6794, 118.0372
340.1615, 117.0530
340.6436, 115.2493
341.1257, 112.3682
341.6078, 109.2765
342.0899, 107.1515
342.5721, 106.0963
343.0542, 105.1110
343.5363, 103.9558
344.0184, 102.6516
344.5005, 101.2058
344.9826, 99.61068
345.4648, 98.02017
345.9469, 96.53664
346.4290, 95.15745
346.9111, 94.03461
347.3932, 93.22463
347.8753, 92.62456
348.3575, 92.01521
348.8396, 91.41420
349.3217, 91.01877
349.8038, 91.15664
350.2859, 91.59320
350.7680, 91.71984
351.2502, 91.41090
351.7323, 90.99306
352.2144, 90.91431
352.6965, 91.05159
353.1786, 91.03481
353.6607, 90.56172
354.1429, 89.88826
354.6250, 89.29865
355.1071, 88.80592
355.5892, 88.41957
356.0713, 88.16022
356.5534, 88.01085
357.0356, 87.94615
357.5177, 87.98989
357.9998, 88.08870
358.4819, 88.28087
358.9640, 88.53117
359.4461, 88.63385
359.9283, 88.25905
360.4104, 87.80841
360.8925, 87.59785
361.3746, 87.64239
361.8567, 88.02972
362.3388, 89.27591
362.8210, 90.89677
363.3031, 91.82478
363.7852, 90.66363
364.2673, 89.58305
364.7494, 89.78677
365.2315, 91.87257
365.7137, 93.49904
366.1958, 94.11403
366.6779, 94.05153
367.1600, 93.70922
367.6421, 92.47861
368.1242, 91.64719
368.6064, 91.60108
369.0885, 92.38661
369.5706, 93.10628
370.0527, 93.78909
370.5348, 94.38945
371.0169, 94.88116
371.4991, 95.20337
371.9812, 95.53286
372.4633, 96.04750
372.9454, 96.57336
373.4275, 96.42137
373.9096, 95.19650
374.3918, 93.97652
374.8739, 93.20293
375.3560, 92.83257
375.8381, 93.19897
376.3202, 94.72623
376.8023, 96.43403
377.2845, 96.55998
377.7666, 94.75031
378.2487, 93.28472
378.7308, 92.99544
379.2129, 93.71777
379.6950, 94.55727
380.1772, 95.61626
380.6593, 96.29874
381.1414, 95.77339
381.6235, 94.19404
382.1056, 93.00459
382.5877, 92.65935
383.0699, 92.64853
383.5520, 91.86818
384.0341, 90.39690
384.5162, 89.10642
384.9983, 88.62694
385.4804, 88.70763
385.9626, 88.84117
386.4447, 88.99370
386.9268, 89.10942
387.4089, 89.40582
387.8910, 89.63169
388.3731, 89.21350
388.8553, 86.92294
389.3374, 84.48146
389.8195, 83.68663
390.3016, 84.49339
390.7837, 85.68330
391.2658, 86.80662
391.7480, 87.79032
392.2301, 88.57484
392.7122, 89.28191
393.1943, 89.60033
393.6764, 89.11827
394.1585, 88.08963
394.6407, 87.24507
395.1228, 87.10201
395.6049, 86.99267
396.0870, 86.47793
396.5691, 85.25169
397.0512, 84.47686
397.5334, 84.79521
398.0155, 85.54880
398.4976, 85.90985
398.9797, 85.24409
399.4618, 84.77431
399.9439, 84.96677
400.4261, 85.81486
400.9082, 85.92289
401.3903, 84.95891
401.8724, 83.56765
402.3545, 82.08000
402.8366, 80.24457
403.3188, 78.90158
403.8009, 78.18069
404.2830, 77.94341
404.7651, 77.90263
405.2472, 78.15728
405.7293, 78.32780
406.2115, 78.22947
406.6936, 77.85515
407.1757, 77.47518
407.6578, 77.03647
408.1399, 76.73678
408.6220, 76.88771
409.1042, 77.47845
409.5863, 78.01258
410.0684, 78.37037
410.5505, 78.57889
411.0326, 78.72048
411.5147, 78.79430
411.9969, 78.77016
412.4790, 78.59122
412.9611, 78.30038
413.4432, 78.00334
413.9253, 77.71346
414.4074, 77.41081
414.8896, 76.98862
415.3717, 76.53092
415.8538, 76.24013
416.3359, 76.19109
416.8180, 76.36897
417.3001, 76.91797
417.7823, 77.82269
418.2644, 78.50499
418.7465, 78.42541
419.2286, 78.07129
419.7107, 77.90900
420.1928, 78.07265
420.6750, 78.42534
421.1571, 79.04977
421.6392, 79.83586
422.1213, 80.48263
422.6034, 80.99015
423.0855, 81.27345
423.5677, 81.15419
424.0498, 80.34410
424.5319, 80.13783
425.0140, 81.28713
425.4961, 82.77821
425.9782, 83.57695
426.4604, 83.11635
426.9425, 82.80589
427.4246, 82.96944
427.9067, 83.49653
428.3888, 83.52667
428.8709, 82.71114
429.3531, 82.01465
429.8352, 82.04237
430.3173, 82.96099
430.7994, 83.79649
431.2815, 84.58965
431.7636, 85.18253
432.2458, 85.23792
432.7279, 84.72913
433.2100, 84.09914
433.6921, 83.38895
434.1742, 82.69148
434.6563, 82.44475
435.1385, 82.65772
435.6206, 82.92712
436.1027, 82.87244
436.5848, 82.60292
437.0669, 82.37992
437.5490, 82.19859
438.0312, 82.21680
438.5133, 82.82340
438.9954, 83.80587
439.4775, 84.57207
439.9596, 84.54820
440.4417, 84.34528
440.9239, 84.63963
441.4060, 85.47127
441.8881, 86.06248
442.3702, 85.51754
442.8523, 84.71910
443.3344, 84.52942
443.8166, 85.97226
444.2987, 87.12117
444.7808, 86.93871
445.2629, 85.95190
445.7450, 85.70567
446.2271, 87.40405
446.7093, 89.12349
447.1914, 89.98962
447.6735, 89.48553
448.1556, 89.78181
448.6377, 91.52999
449.1198, 93.63561
449.6020, 94.95679
450.0841, 95.01295
450.5662, 95.26035
451.0483, 96.05225
451.5304, 97.19714
452.0125, 97.69057
452.4947, 97.26234
452.9768, 97.02885
453.4589, 97.80987
453.9410, 99.64726
454.4231, 100.9253
454.9052, 101.5746
455.3874, 101.8268
455.8695, 101.7891
456.3516, 101.5321
456.8337, 101.5937
457.3158, 102.2937
457.7979, 103.2921
458.2801, 103.9919
458.7622, 104.4209
459.2443, 104.7945
459.7264, 104.8189
460.2085, 105.0440
460.6906, 106.3809
461.1728, 109.1699
461.6549, 112.0592
462.1370, 114.1682
462.6191, 115.7068
463.1012, 116.9272
463.5833, 117.3447
464.0655, 118.0080
464.5476, 119.5359
465.0297, 121.8251
465.5118, 124.0240
465.9939, 126.0140
466.4760, 127.7290
466.9582, 129.0844
467.4403, 129.7417
467.9224, 130.6573
468.4045, 131.8630
468.8866, 133.3213
469.3687, 135.0652
469.8509, 137.4057
470.3330, 139.4115
470.8151, 140.8348
471.2972, 141.7185
471.7793, 142.4312
472.2614, 142.8820
472.7436, 143.4341
473.2257, 144.6076
473.7078, 146.4303
474.1899, 147.1906
474.6720, 146.5795
475.1541, 145.3969
475.6363, 144.7930
476.1184, 144.6873
476.6005, 144.5870
477.0826, 144.5489
477.5647, 144.2451
478.0468, 142.8557
478.5290, 140.4974
479.0111, 138.2326
479.4932, 137.3512
479.9753, 136.7515
480.4574, 134.9822
480.9395, 131.4599
481.4217, 127.8224
481.9038, 125.3169
482.3859, 123.3330
482.8680, 121.0061
483.3501, 117.1818
483.8322, 113.8100
484.3144, 111.8486
484.7965, 111.2235
485.2786, 110.3478
485.7607, 108.6370
486.2428, 106.9102
486.7249, 105.6001
487.2071, 105.0456
487.6892, 104.1839
488.1713, 102.7401
488.6534, 101.1845
489.1355, 100.3155
489.6176, 100.5478
490.0998, 100.1676
490.5819, 98.42141
491.0640, 95.74990
491.5461, 94.62432
492.0282, 95.22227
492.5103, 96.00111
492.9925, 95.84702
493.4746, 94.93181
493.9567, 94.05999
494.4388, 93.22183
494.9209, 92.72305
495.4030, 93.17080
495.8852, 94.23386
496.3673, 95.06750
496.8494, 94.94058
497.3315, 94.83813
497.8136, 96.04186
498.2957, 98.21042
498.7779, 99.89378
499.2600, 99.83855
499.7421, 99.38670
500.2242, 99.54965
500.7063, 100.6346
501.1884, 101.5118
501.6706, 101.2642
502.1527, 100.8961
502.6348, 101.4289
503.1169, 104.1370
503.5990, 106.3907
504.0811, 107.8559
504.5633, 108.6484
505.0454, 109.1216
505.5275, 108.8480
506.0096, 108.9801
506.4917, 110.0415
506.9738, 112.1138
507.4560, 114.3264
507.9381, 116.7922
508.4202, 119.0937
508.9023, 120.6096
509.3844, 121.4012
509.8665, 122.6161
510.3487, 124.6438
510.8308, 126.8635
511.3129, 127.9864
511.7950, 128.2726
512.2772, 128.9345
512.7593, 131.0344
513.2414, 133.6350
513.7235, 135.7917
514.2056, 137.4673
514.6877, 138.5500
515.1699, 138.6487
515.6520, 138.2863
516.1341, 138.0089
516.6162, 138.3024
517.0983, 137.9586
517.5804, 136.2304
518.0626, 133.6806
518.5447, 131.2325
519.0268, 129.0751
519.5089, 126.9812
519.9910, 124.9808
520.4731, 123.0507
520.9553, 120.9141
521.4374, 118.4960
521.9195, 116.0218
522.4016, 113.5915
522.8837, 111.2147
523.3658, 108.8935
523.8480, 106.5258
524.3301, 104.4281
524.8122, 103.3288
525.2943, 103.1482
525.7764, 102.4269
526.2585, 100.5058
526.7407, 98.13149
527.2228, 96.68001
527.7049, 96.02494
528.1870, 95.46432
528.6691, 94.17437
529.1512, 92.94037
529.6334, 93.04726
530.1155, 94.63837
530.5976, 95.70425
531.0797, 94.45299
531.5618, 92.36644
532.0439, 90.94047
532.5261, 91.04103
533.0082, 91.09398
533.4903, 90.65816
533.9724, 89.90335
534.4545, 89.17897
534.9366, 88.33879
535.4188, 87.75129
535.9009, 87.66631
536.3830, 88.06231
536.8651, 87.91058
537.3472, 87.02702
537.8293, 85.96593
538.3115, 85.02475
538.7936, 84.19438
539.2757, 83.67283
539.7578, 83.50225
540.2399, 83.56287
540.7220, 83.86474
541.2042, 84.32127
541.6863, 84.45567
542.1684, 84.06493
542.6505, 83.34440
543.1326, 82.40630
543.6147, 81.33592
544.0969, 80.43881
544.5790, 79.68922
545.0611, 79.34557
545.5432, 79.90027
546.0253, 81.44547
546.5074, 82.57492
546.9896, 82.38982
547.4717, 81.70345
547.9538, 81.17245
548.4359, 81.09776
548.9180, 80.91592
549.4001, 80.20506
549.8823, 79.47163
550.3644, 79.66571
550.8465, 81.45107
551.3286, 82.92403
551.8107, 83.59904
552.2928, 83.55623
552.7750, 83.27760
553.2571, 82.68909
553.7392, 82.22129
554.2213, 82.17434
554.7034, 82.50110
555.1855, 82.92326
555.6677, 83.42099
556.1498, 84.06321
556.6319, 85.08526
557.1140, 86.28346
557.5961, 87.19083
558.0782, 87.48087
558.5604, 87.76815
559.0425, 88.65996
559.5246, 89.92276
560.0067, 91.03391
560.4888, 91.58992
560.9709, 92.10899
561.4531, 92.84193
561.9352, 93.80034
562.4173, 94.69249
562.8994, 95.38976
563.3815, 96.08348
563.8636, 96.83461
564.3458, 97.48686
564.8279, 98.65057
565.3100, 100.5238
565.7921, 102.6753
566.2742, 104.5592
566.7563, 106.1745
567.2385, 107.6379
567.7206, 108.9491
568.2027, 110.1412
568.6848, 111.0635
569.1669, 111.7979
569.6490, 112.8720
570.1312, 115.0552
570.6133, 117.5437
571.0954, 119.0361
571.5775, 119.5775
572.0596, 120.0075
572.5417, 120.6655
573.0239, 121.5825
573.5060, 122.9355
573.9881, 125.1988
574.4702, 126.6987
574.9523, 126.1737
575.4344, 124.9045
575.9166, 124.5263
576.3987, 126.3689
576.8808, 127.4738
577.3629, 127.2878
577.8450, 126.1693
578.3271, 125.2787
578.8093, 124.6616
579.2914, 124.1516
579.7735, 123.8220
580.2556, 123.5932
580.7377, 122.8037
581.2198, 121.4440
581.7020, 119.6169
582.1841, 116.9889
582.6662, 114.0045
583.1483, 111.7296
583.6304, 110.4013
584.1125, 109.4546
584.5947, 108.4546
585.0768, 107.5079
585.5589, 106.7804
586.0410, 106.7968
586.5231, 106.5225
587.0052, 105.3460
587.4873, 103.5383
587.9694, 101.8489
588.4515, 100.0109
