##NAMES=Braunite
##RRUFFID=R090057
##IDEAL CHEMISTRY=Mn^2+^Mn^3+^_6_SiO_12_
##LOCALITY=N'Chwaning III Mine, N'Chwaning Mines, Kalahari manganese field, Northern Cape Province, South Africa
##OWNER=RRUFF
##SOURCE=Marshall Sussman
##DESCRIPTION=Blocky lustrous black crystals on fine-grained matrix of the same material. Note that this is braunite II, as defined in de Villiers (1980)
##STATUS=The identification of this mineral has been confirmed by X-ray diffraction.
##URL=rruff.info/R090057
92.02539, 118.8440
92.50751, 123.9826
92.98962, 127.2738
93.47174, 125.0956
93.95386, 120.6908
94.43597, 116.1932
94.91809, 112.7040
95.40021, 109.9707
95.88232, 106.6588
96.36444, 102.0173
96.84656, 97.87104
97.32867, 94.63466
97.81078, 92.22067
98.29290, 90.54947
98.77502, 89.68842
99.25713, 89.77061
99.73925, 88.35789
100.2214, 84.91460
100.7035, 80.93007
101.1856, 76.79781
101.6677, 72.66517
102.1498, 68.70676
102.6320, 65.11534
103.1141, 61.83854
103.5962, 59.17047
104.0783, 57.16381
104.5604, 55.69816
105.0425, 54.80358
105.5247, 54.57345
106.0068, 54.55834
106.4889, 53.95894
106.9710, 52.76220
107.4531, 51.40560
107.9352, 50.08867
108.4173, 48.78087
108.8995, 47.25723
109.3816, 45.05688
109.8637, 42.90603
110.3458, 41.59217
110.8279, 41.29294
111.3100, 41.44510
111.7922, 41.44572
112.2743, 41.30882
112.7564, 40.95782
113.2385, 40.16870
113.7206, 39.26829
114.2027, 38.54045
114.6849, 38.12291
115.1670, 37.93721
115.6491, 37.72152
116.1312, 37.49764
116.6133, 37.20409
117.0954, 36.82232
117.5776, 36.36699
118.0597, 35.83342
118.5418, 35.19608
119.0239, 34.44856
119.5060, 34.00010
119.9881, 33.98609
120.4703, 34.07257
120.9524, 34.16665
121.4345, 34.24874
121.9166, 34.31066
122.3987, 34.34386
122.8808, 34.34242
123.3630, 34.32422
123.8451, 34.34626
124.3272, 34.32277
124.8093, 34.14610
125.2914, 33.78406
125.7735, 33.36018
126.2557, 32.99677
126.7378, 32.68344
127.2199, 32.40879
127.7020, 32.13935
128.1841, 31.90140
128.6662, 31.80950
129.1483, 32.01404
129.6305, 32.20325
130.1126, 32.15850
130.5947, 31.88725
131.0768, 31.49225
131.5589, 30.98088
132.0410, 30.31327
132.5232, 29.85990
133.0053, 29.90032
133.4874, 30.01206
133.9695, 29.98256
134.4516, 29.77131
134.9337, 29.48181
135.4159, 29.27530
135.8980, 29.22231
136.3801, 29.11858
136.8622, 28.89439
137.3443, 28.65399
137.8264, 28.50013
138.3086, 28.46948
138.7907, 28.50624
139.2728, 28.45785
139.7549, 28.26667
140.2370, 28.05016
140.7191, 27.75444
141.2013, 27.44750
141.6834, 27.23452
142.1655, 27.17776
142.6476, 27.24738
143.1297, 27.31005
143.6118, 27.42494
144.0939, 27.47731
144.5761, 27.43278
145.0582, 27.29078
145.5403, 27.03012
146.0224, 26.55397
146.5045, 25.97592
146.9866, 25.61520
147.4688, 25.59220
147.9509, 25.70299
148.4330, 25.76118
148.9151, 25.75744
149.3972, 25.75987
149.8793, 25.90335
150.3615, 26.06060
150.8436, 26.04215
151.3257, 25.68027
151.8078, 25.14973
152.2899, 24.89544
152.7720, 25.14606
153.2542, 25.26094
153.7363, 24.92400
154.2184, 24.31592
154.7005, 23.69025
155.1826, 23.17224
155.6647, 22.76772
156.1469, 22.55716
156.6290, 22.73082
157.1111, 22.93354
157.5932, 23.10274
158.0753, 23.22893
158.5574, 23.31539
159.0396, 23.36641
159.5217, 23.38386
160.0038, 23.34205
160.4859, 23.24857
160.9680, 23.10010
161.4501, 22.85427
161.9323, 22.53526
162.4144, 22.22481
162.8965, 22.00824
163.3786, 21.90540
163.8607, 21.83230
164.3428, 21.84265
164.8250, 21.84420
165.3071, 21.77016
165.7892, 21.61041
166.2713, 21.39379
166.7534, 21.11243
167.2355, 20.73687
167.7177, 20.55468
168.1998, 20.69043
168.6819, 21.00339
169.1640, 21.35973
169.6461, 21.76429
170.1282, 22.08974
170.6104, 22.14249
171.0925, 21.95890
171.5746, 21.70307
172.0567, 21.36242
172.5388, 20.98981
173.0209, 20.75218
173.5031, 20.73103
173.9852, 20.78949
174.4673, 20.78195
174.9494, 20.71821
175.4315, 20.69533
175.9136, 20.84888
176.3958, 21.16848
176.8779, 21.32081
177.3600, 21.12812
177.8421, 20.85330
178.3242, 20.62201
178.8063, 20.44747
179.2885, 20.31514
179.7706, 20.20989
180.2527, 20.13061
180.7348, 20.08510
181.2169, 20.08254
181.6990, 20.10616
182.1812, 20.15419
182.6633, 20.22399
183.1454, 20.30726
183.6275, 20.40358
184.1096, 20.56230
184.5917, 20.61975
185.0738, 20.46273
185.5560, 20.29776
186.0381, 20.31224
186.5202, 20.53690
187.0023, 20.81550
187.4844, 20.87457
187.9665, 20.48049
188.4487, 20.22953
188.9308, 20.23460
189.4129, 20.32165
189.8950, 20.33765
190.3771, 20.23171
190.8592, 20.04183
191.3414, 19.82633
191.8235, 19.49135
192.3056, 19.31240
192.7877, 19.40850
193.2698, 19.65310
193.7519, 19.89206
194.2341, 20.07723
194.7162, 20.21582
195.1983, 20.32235
195.6804, 20.41835
196.1625, 20.44388
196.6446, 20.36040
197.1268, 20.19304
197.6089, 19.98536
198.0910, 19.72741
198.5731, 19.47437
199.0552, 19.31418
199.5373, 19.25344
200.0195, 19.21847
200.5016, 19.17298
200.9837, 19.12006
201.4658, 19.07392
201.9479, 19.02944
202.4300, 19.00546
202.9122, 19.02673
203.3943, 19.09831
203.8764, 19.16961
204.3585, 19.18217
204.8406, 19.13664
205.3227, 19.14219
205.8048, 19.28116
206.2870, 19.43995
206.7691, 19.55602
207.2512, 19.62055
207.7333, 19.61774
208.2154, 19.47608
208.6975, 19.14664
209.1797, 18.97119
209.6618, 19.23515
210.1439, 19.51756
210.6260, 19.56731
211.1081, 19.34945
211.5902, 19.02583
212.0724, 18.79801
212.5545, 18.69266
213.0366, 18.61010
213.5187, 18.55426
214.0008, 18.50861
214.4829, 18.46376
214.9651, 18.41779
215.4472, 18.37373
215.9293, 18.33097
216.4114, 18.26480
216.8935, 18.25734
217.3756, 18.35329
217.8578, 18.46569
218.3399, 18.53314
218.8220, 18.54313
219.3041, 18.52817
219.7862, 18.53838
220.2683, 18.59694
220.7505, 18.63602
221.2326, 18.62344
221.7147, 18.61338
222.1968, 18.68863
222.6789, 18.85469
223.1610, 18.99335
223.6432, 18.91746
224.1253, 18.44785
224.6074, 18.12770
225.0895, 17.99709
225.5716, 17.98945
226.0537, 18.05487
226.5358, 18.17993
227.0180, 18.36998
227.5001, 18.66369
227.9822, 19.14971
228.4643, 19.42916
228.9464, 19.31546
229.4285, 19.05796
229.9107, 18.92984
230.3928, 18.99464
230.8749, 19.11222
231.3570, 19.07606
231.8391, 18.86034
232.3212, 18.77041
232.8034, 18.96982
233.2855, 19.27656
233.7676, 19.46138
234.2497, 19.47716
234.7318, 19.40876
235.2139, 19.31174
235.6961, 19.19169
236.1782, 19.12601
236.6603, 19.18451
237.1424, 19.29409
237.6245, 19.31447
238.1066, 19.19168
238.5888, 19.10585
239.0709, 19.30066
239.5530, 19.68917
240.0351, 20.00503
240.5172, 20.20150
240.9993, 20.25828
241.4815, 20.06573
241.9636, 19.49349
242.4457, 18.99698
242.9278, 19.05400
243.4099, 19.43413
243.8920, 19.65949
244.3742, 19.35337
244.8563, 18.78293
245.3384, 18.61628
245.8205, 19.04661
246.3026, 19.44817
246.7847, 19.43529
247.2668, 19.16978
247.7490, 18.89798
248.2311, 18.74439
248.7132, 18.65049
249.1953, 18.44150
249.6774, 18.01339
250.1595, 17.68937
250.6417, 17.66763
251.1238, 17.79874
251.6059, 17.90096
252.0880, 17.89571
252.5701, 17.80713
253.0522, 17.69123
253.5344, 17.54220
254.0165, 17.37604
254.4986, 17.23614
254.9807, 17.07185
255.4628, 16.78808
255.9449, 16.31949
256.4271, 15.80325
256.9092, 15.57976
257.3913, 15.81876
257.8734, 16.04281
258.3555, 16.19587
258.8376, 16.27197
259.3198, 16.23097
259.8019, 16.05494
260.2840, 15.83871
260.7661, 15.81255
261.2482, 16.19444
261.7303, 16.33890
262.2125, 16.00564
262.6946, 15.54331
263.1767, 15.22696
263.6588, 15.14523
264.1409, 15.22488
264.6230, 15.36126
265.1052, 15.66740
265.5873, 15.79571
266.0694, 15.62068
266.5515, 15.36711
267.0336, 15.19886
267.5157, 15.15276
267.9979, 15.15452
268.4800, 15.07944
268.9621, 14.81489
269.4442, 14.73200
269.9263, 14.97320
270.4084, 15.25430
270.8906, 15.42217
271.3727, 15.44109
271.8548, 15.32855
272.3369, 15.06918
272.8190, 14.52761
273.3011, 14.31869
273.7833, 14.68203
274.2654, 15.10931
274.7475, 15.33505
275.2296, 15.34202
275.7117, 15.23997
276.1938, 15.12123
276.6760, 14.96393
277.1581, 14.93613
277.6402, 15.24818
278.1223, 15.46719
278.6044, 15.30623
279.0865, 14.84755
279.5686, 14.39848
280.0508, 14.20711
280.5329, 14.27855
281.0150, 14.36485
281.4971, 14.47510
281.9792, 14.58779
282.4613, 14.70267
282.9435, 14.81409
283.4256, 14.91794
283.9077, 15.01689
284.3898, 15.10327
284.8719, 15.09903
285.3540, 14.90354
285.8362, 14.74489
286.3183, 14.69447
286.8004, 14.72099
287.2825, 14.76379
287.7646, 14.79103
288.2467, 14.81565
288.7289, 14.88614
289.2110, 15.11578
289.6931, 15.24967
290.1752, 15.16708
290.6573, 14.98595
291.1394, 14.88387
291.6216, 14.93306
292.1037, 15.05128
292.5858, 15.06659
293.0679, 14.91924
293.5500, 14.78429
294.0321, 14.68768
294.5143, 14.60778
294.9964, 14.49975
295.4785, 14.35179
295.9606, 14.23566
296.4427, 14.26177
296.9248, 14.48951
297.4070, 14.69281
297.8891, 14.87852
298.3712, 15.02834
298.8533, 15.14806
299.3354, 15.23195
299.8175, 15.21360
300.2997, 14.98094
300.7818, 14.47734
301.2639, 14.22773
301.7460, 14.52125
302.2281, 14.83882
302.7102, 14.74382
303.1924, 14.27300
303.6745, 13.86660
304.1566, 13.88863
304.6387, 14.31648
305.1208, 14.55664
305.6029, 14.45492
306.0851, 14.33583
306.5672, 14.38951
307.0493, 14.56835
307.5314, 14.70503
308.0135, 14.70344
308.4956, 14.58817
308.9778, 14.46708
309.4599, 14.28416
309.9420, 14.16267
310.4241, 14.19563
310.9062, 14.31352
311.3883, 14.38670
311.8705, 14.36418
312.3526, 14.26273
312.8347, 14.08634
313.3168, 13.71523
313.7989, 13.54905
314.2810, 13.84572
314.7632, 14.32982
315.2453, 14.63534
315.7274, 14.65935
316.2095, 14.54211
316.6916, 14.46963
317.1737, 14.46512
317.6559, 14.39536
318.1380, 14.16595
318.6201, 13.91654
319.1022, 13.76035
319.5843, 13.71478
320.0664, 13.77649
320.5485, 13.98053
321.0306, 14.33979
321.5128, 14.53514
321.9949, 14.51487
322.4770, 14.38221
322.9591, 14.12962
323.4412, 13.79813
323.9233, 13.54233
324.4055, 13.47775
324.8876, 13.57850
325.3697, 13.64346
325.8518, 13.64429
326.3339, 13.64628
326.8160, 13.66290
327.2982, 13.69870
327.7803, 13.77111
328.2624, 13.89555
328.7445, 14.04355
329.2266, 14.13262
329.7087, 14.10566
330.1909, 14.13022
330.6730, 14.32542
331.1551, 14.55823
331.6372, 14.63938
332.1193, 14.51247
332.6014, 14.28716
333.0836, 14.10431
333.5657, 13.95032
334.0478, 13.90656
334.5299, 14.17503
335.0120, 14.42540
335.4941, 14.28128
335.9763, 13.74595
336.4584, 13.25300
336.9405, 13.24802
337.4226, 13.79242
337.9047, 14.04755
338.3868, 13.72628
338.8690, 13.42207
339.3511, 13.51254
339.8332, 13.89535
340.3153, 14.21305
340.7974, 14.23458
341.2795, 14.00683
341.7617, 13.82190
342.2438, 13.71144
342.7259, 13.59994
343.2080, 13.41516
343.6901, 13.23192
344.1722, 13.17636
344.6544, 13.30236
345.1365, 13.54130
345.6186, 13.75721
346.1007, 14.06013
346.5828, 14.14795
347.0649, 13.78383
347.5471, 13.34004
348.0292, 13.19948
348.5113, 13.40879
348.9934, 13.66869
349.4755, 13.60479
349.9576, 13.10017
350.4398, 12.74766
350.9219, 12.45836
351.4040, 12.36962
351.8861, 12.71538
352.3682, 13.35748
352.8503, 13.90506
353.3325, 14.05423
353.8146, 13.82877
354.2967, 13.59463
354.7788, 13.27587
355.2609, 13.03521
355.7430, 12.93235
356.2252, 12.92237
356.7073, 12.97022
357.1894, 13.06167
357.6715, 13.13785
358.1536, 13.03393
358.6357, 12.46247
359.1179, 12.15860
359.5999, 12.38937
360.0821, 12.72319
360.5642, 12.74845
361.0463, 12.41616
361.5284, 12.05100
362.0105, 12.10140
362.4926, 12.75007
362.9748, 13.10308
363.4569, 12.98776
363.9390, 12.76047
364.4211, 12.47779
364.9032, 12.20313
365.3853, 12.05031
365.8675, 12.12324
366.3496, 12.39394
366.8317, 12.59490
367.3138, 12.69316
367.7959, 12.75552
368.2780, 12.81071
368.7602, 12.83548
369.2423, 12.79995
369.7244, 12.69112
370.2065, 12.52143
370.6886, 12.28532
371.1707, 11.89680
371.6529, 11.66796
372.1350, 11.74889
372.6171, 11.91472
373.0992, 12.04451
373.5813, 12.11129
374.0634, 12.12885
374.5456, 12.11304
375.0277, 12.06510
375.5098, 11.94701
375.9919, 11.56227
376.4740, 11.33709
376.9561, 11.64762
377.4383, 12.26305
377.9204, 12.64054
378.4025, 12.38112
378.8846, 11.72301
379.3667, 11.33679
379.8488, 11.30367
380.3310, 11.33638
380.8131, 11.38276
381.2952, 11.40606
381.7773, 11.34483
382.2594, 11.16515
382.7415, 10.98468
383.2237, 10.95208
383.7058, 11.06615
384.1879, 11.15328
384.6700, 11.14482
385.1521, 11.12484
385.6342, 11.19116
386.1164, 11.33505
386.5985, 11.43556
387.0806, 11.39666
387.5627, 11.26849
388.0448, 11.18263
388.5269, 11.17099
389.0091, 11.12863
389.4912, 10.88767
389.9733, 10.55811
390.4554, 10.39916
390.9375, 10.57143
391.4196, 10.83370
391.9018, 11.00927
392.3839, 11.09611
392.8660, 11.04451
393.3481, 10.75249
393.8302, 10.38554
394.3123, 10.28519
394.7945, 10.53181
395.2766, 10.75271
395.7587, 10.76752
396.2408, 10.67041
396.7229, 10.63054
397.2050, 10.69065
397.6872, 10.75320
398.1693, 10.68659
398.6514, 10.47393
399.1335, 10.37738
399.6156, 10.51795
400.0977, 10.68887
400.5798, 10.72402
401.0620, 10.64646
401.5441, 10.60184
402.0262, 10.69430
402.5083, 10.88014
402.9904, 10.93256
403.4725, 10.72902
403.9547, 10.56527
404.4368, 10.53524
404.9189, 10.56061
405.4010, 10.58313
405.8831, 10.23650
406.3652, 10.63944
406.8474, 10.85667
407.3295, 10.89817
407.8116, 10.23762
408.2937, 10.48362
408.7758, 10.36632
409.2579, 10.84047
409.7401, 10.65954
410.2222, 10.28479
410.7043, 9.962680
411.1864, 9.707773
411.6685, 9.636243
412.1506, 9.935546
412.6328, 10.19778
413.1149, 10.39432
413.5970, 10.51036
414.0791, 10.49996
414.5612, 10.35465
415.0433, 10.18024
415.5255, 10.17227
416.0076, 10.42195
416.4897, 10.52091
416.9718, 10.28641
417.4539, 10.02901
417.9360, 9.876601
418.4182, 9.829165
418.9003, 9.838018
419.3824, 9.876392
419.8645, 9.941302
420.3466, 10.03925
420.8287, 10.23355
421.3109, 10.32332
421.7930, 10.10223
422.2751, 9.792130
422.7572, 9.670852
423.2393, 9.846231
423.7214, 10.06873
424.2036, 10.00887
424.6857, 9.683288
425.1678, 9.543857
425.6499, 9.803435
426.1320, 10.13877
426.6141, 10.22895
427.0963, 10.10433
427.5784, 9.999661
428.0605, 10.08409
428.5426, 10.21948
429.0247, 10.14753
429.5068, 9.839793
429.9890, 9.582202
430.4711, 9.578599
430.9532, 9.760686
431.4353, 9.876179
431.9174, 9.897250
432.3995, 9.892012
432.8817, 9.880101
433.3638, 9.867615
433.8459, 9.859201
434.3280, 9.852375
434.8101, 9.877973
435.2922, 10.00679
435.7744, 10.30096
436.2565, 10.41855
436.7386, 10.19233
437.2207, 9.910432
437.7028, 9.775574
438.1849, 9.776381
438.6671, 9.796737
439.1492, 9.759678
439.6313, 9.676184
440.1134, 9.611463
440.5955, 9.478732
441.0776, 9.475207
441.5598, 9.757627
442.0418, 10.11137
442.5240, 10.31147
443.0061, 10.30249
443.4882, 10.19009
443.9703, 10.09446
444.4524, 9.999896
444.9345, 9.996115
445.4167, 10.19686
445.8988, 10.37700
446.3809, 10.50045
446.8630, 10.53841
447.3451, 10.41398
447.8272, 10.03935
448.3094, 9.584822
448.7915, 9.540098
449.2736, 10.10434
449.7557, 10.50810
450.2378, 10.46881
450.7199, 10.26355
451.2021, 10.05223
451.6842, 9.860463
452.1663, 9.677374
452.6484, 9.420410
453.1305, 9.147490
453.6126, 9.183002
454.0948, 9.688267
454.5769, 10.16059
455.0590, 10.17825
455.5411, 9.937514
456.0232, 9.763913
456.5053, 9.743539
456.9875, 9.790011
457.4696, 9.860853
457.9517, 9.944931
458.4338, 9.996335
458.9159, 10.00589
459.3980, 9.963872
459.8802, 9.820638
460.3623, 9.559024
460.8444, 9.379103
461.3265, 9.360144
461.8086, 9.408560
462.2907, 9.463177
462.7729, 9.510755
463.2550, 9.527739
463.7371, 9.494738
464.2192, 9.419768
464.7013, 9.347503
465.1834, 9.208938
465.6656, 9.159793
466.1477, 9.279635
466.6298, 9.470928
467.1119, 9.272561
467.5940, 9.728812
468.0761, 9.999357
468.5583, 10.09418
469.0404, 9.486935
469.5225, 9.786253
470.0046, 9.722263
470.4867, 9.643374
470.9688, 10.07029
471.4510, 9.618784
471.9331, 9.548676
472.4152, 9.674102
472.8973, 9.871389
473.3794, 9.894052
473.8615, 9.699787
474.3437, 9.508667
474.8258, 9.261211
475.3079, 9.116420
475.7900, 9.258986
476.2721, 9.634435
476.7542, 9.940669
477.2364, 9.936373
477.7185, 9.743864
478.2006, 9.640319
478.6827, 9.638332
479.1648, 9.659648
479.6469, 9.673367
480.1291, 9.682138
480.6112, 9.689472
481.0933, 9.692338
481.5754, 9.702767
482.0575, 9.757989
482.5396, 9.817795
483.0217, 9.779638
483.5038, 9.617757
483.9860, 9.477179
484.4681, 9.534659
484.9502, 9.797503
485.4323, 9.829729
485.9144, 9.318395
486.3965, 8.922753
486.8787, 9.062863
487.3608, 9.488740
487.8429, 9.711757
488.3250, 9.537031
488.8071, 9.182575
489.2892, 9.042821
489.7714, 9.238301
490.2535, 9.353930
490.7356, 9.304873
491.2177, 9.268244
491.6998, 9.376073
492.1819, 9.572354
492.6641, 9.696962
493.1462, 9.633233
493.6283, 9.463340
494.1104, 9.453887
494.5925, 9.704557
495.0746, 9.844404
495.5568, 9.647341
496.0389, 9.405173
496.5210, 9.357182
497.0031, 9.504069
497.4852, 9.611324
497.9673, 9.444744
498.4495, 9.118096
498.9316, 8.950506
499.4137, 8.970137
499.8958, 9.070960
500.3779, 9.255124
500.8600, 9.460596
501.3422, 9.557109
501.8243, 9.498778
502.3064, 9.418272
502.7885, 9.331790
503.2706, 9.280021
503.7527, 9.387210
504.2349, 9.683318
504.7170, 9.943863
505.1991, 9.935273
505.6812, 9.638831
506.1633, 9.389554
506.6454, 9.066970
507.1276, 8.916870
507.6097, 9.201045
508.0918, 9.667028
508.5739, 9.912909
509.0560, 9.793326
509.5381, 9.492334
510.0203, 9.289382
510.5024, 9.189753
510.9845, 9.170213
511.4666, 9.331885
511.9487, 9.473561
512.4308, 9.479783
512.9130, 9.412341
513.3951, 9.411893
513.8772, 9.566815
514.3593, 9.771588
514.8414, 9.831637
515.3235, 9.733611
515.8057, 9.589112
516.2878, 9.378751
516.7699, 9.172577
517.2520, 9.002654
517.7341, 8.877183
518.2162, 8.846528
518.6984, 8.970697
519.1805, 9.178908
519.6626, 9.406927
520.1447, 9.648278
520.6268, 9.850935
521.1089, 9.997514
521.5911, 10.08214
522.0732, 10.07553
522.5553, 9.957109
523.0374, 9.830078
523.5195, 9.683309
524.0016, 9.554816
524.4838, 9.479394
524.9659, 9.457539
525.4480, 9.479130
525.9301, 9.546187
526.4122, 9.638211
526.8943, 9.644847
527.3765, 9.454065
527.8586, 9.338567
528.3407, 9.406631
528.8228, 9.495449
529.3049, 9.427081
529.7870, 9.213538
530.2692, 9.058016
530.7513, 9.191360
531.2334, 9.542938
531.7155, 9.676925
532.1976, 9.514586
532.6797, 9.316605
533.1619, 9.145662
533.6440, 9.017899
534.1261, 8.960226
534.6082, 8.982157
535.0903, 9.032290
535.5724, 9.085327
536.0546, 9.141071
536.5367, 9.214946
537.0188, 9.313325
537.5009, 9.363344
537.9830, 9.290298
538.4651, 9.122168
538.9473, 9.022554
539.4294, 9.068343
539.9115, 9.079005
540.3936, 8.948416
540.8757, 8.781174
541.3578, 8.739740
541.8400, 8.839116
542.3221, 8.908976
542.8042, 8.742019
543.2863, 8.329888
543.7684, 8.204346
544.2505, 8.747934
544.7326, 9.123489
545.2147, 9.018569
545.6968, 8.744699
546.1790, 8.665551
546.6611, 8.866000
547.1432, 9.122848
547.6253, 9.181276
548.1074, 9.061357
548.5895, 9.006012
549.0717, 9.074086
549.5538, 9.100859
550.0359, 8.903714
550.5180, 8.623658
551.0001, 8.473818
551.4822, 8.508944
551.9644, 8.628235
552.4465, 8.876920
552.9286, 9.144433
553.4107, 9.138148
553.8928, 8.794704
554.3749, 8.459421
554.8571, 8.448015
555.3392, 8.753018
555.8213, 9.038968
556.3034, 9.376439
556.7855, 9.613302
557.2676, 9.653314
557.7498, 9.600358
558.2319, 9.583084
558.7140, 9.627574
559.1961, 9.659432
559.6782, 9.590048
560.1603, 9.418595
560.6425, 9.270741
561.1246, 9.213690
561.6067, 9.078876
562.0888, 8.641318
562.5709, 8.191645
563.0530, 8.114356
563.5352, 8.512653
564.0173, 8.971948
564.4994, 9.106771
564.9815, 9.017057
565.4636, 9.073511
565.9457, 9.357514
566.4279, 9.536258
566.9100, 9.326329
567.3921, 8.840241
567.8742, 8.495784
568.3563, 8.257688
568.8384, 8.215750
569.3206, 8.588044
569.8027, 9.078846
570.2848, 9.328451
570.7669, 9.287729
571.2490, 9.101922
571.7311, 8.864981
572.2133, 8.599936
572.6954, 8.582086
573.1775, 9.240049
573.6596, 9.547053
574.1417, 8.939883
574.6238, 8.233784
575.1060, 8.283734
575.5881, 9.093494
576.0702, 9.833424
576.5523, 9.691807
577.0344, 8.939379
577.5165, 8.614904
577.9987, 8.811466
578.4808, 9.031454
578.9629, 9.083981
579.4450, 9.032742
579.9271, 8.971334
580.4092, 8.902357
580.8914, 8.814607
581.3735, 8.652954
581.8556, 8.502223
582.3377, 8.463307
582.8198, 8.532115
583.3019, 8.652948
583.7841, 8.805853
584.2662, 8.959420
584.7483, 9.027842
585.2304, 8.978303
585.7125, 8.890350
586.1946, 8.722050
