##NAMES=Braunite
##RRUFFID=R050390
##IDEAL CHEMISTRY=Mn^2+^Mn^3+^_6_SiO_12_
##LOCALITY=Oehrenstock, Thuringia, Germany
##OWNER=RRUFF
##SOURCE=University of Arizona Mineral Museum
##DESCRIPTION=Mass of black octahedra
##STATUS=The identification of this mineral has been confirmed by X-ray diffraction and chemical analysis
##URL=rruff.info/R050390
##MEASURED CHEMISTRY=(Mn^2+^_0.83_Ca_0.17_)_Î£=1_Mn^3+^_6.00_Si_1.00_O_12_
173.833, 4041.000
175.213, 4047.000
176.594, 4039.000
177.974, 4038.000
179.354, 4023.000
180.734, 3986.000
182.114, 4021.000
183.493, 4023.723
184.872, 4004.000
186.251, 4082.000
187.630, 4156.000
189.008, 4198.000
190.387, 4189.000
191.765, 4256.000
193.143, 4336.000
194.520, 4430.000
195.898, 4490.000
197.275, 4588.000
198.652, 4707.000
200.029, 4829.515
201.405, 4945.000
202.782, 5131.000
204.158, 5291.000
205.534, 5463.000
206.909, 5690.000
208.285, 5721.842
209.660, 5968.000
211.035, 5791.000
212.410, 5689.000
213.784, 5695.137
215.159, 5634.856
216.533, 5725.000
217.907, 5625.000
219.281, 5634.000
220.654, 5565.000
222.027, 5499.000
223.400, 5449.864
224.773, 5349.000
226.146, 5286.000
227.518, 5221.000
228.891, 5095.000
230.263, 5085.000
231.634, 5010.000
233.006, 4924.000
234.377, 4834.000
235.748, 4813.000
237.119, 4785.000
238.490, 4654.000
239.860, 4559.000
241.231, 4505.000
242.601, 4471.000
243.970, 4455.000
245.340, 4383.000
246.709, 4322.000
248.079, 4240.000
249.448, 4187.000
250.816, 4137.165
252.185, 4077.872
253.553, 4066.000
254.921, 3976.000
256.289, 3964.000
257.657, 3909.000
259.024, 3826.000
260.391, 3825.000
261.758, 3812.000
263.125, 3762.000
264.492, 3681.000
265.858, 3747.000
267.224, 3701.000
268.590, 3702.000
269.956, 3754.000
271.321, 3642.000
272.687, 3745.000
274.052, 3732.000
275.416, 3777.000
276.781, 3696.000
278.146, 3732.000
279.510, 3721.000
280.874, 3663.000
282.237, 3670.000
283.601, 3716.000
284.964, 3680.000
286.327, 3683.000
287.690, 3702.000
289.053, 3804.000
290.416, 3812.000
291.778, 3911.000
293.140, 3970.000
294.502, 3928.000
295.863, 4020.000
297.225, 3977.000
298.586, 3860.000
299.947, 3808.000
301.308, 3750.000
302.668, 3714.000
304.029, 3669.185
305.389, 3628.570
306.749, 3602.000
308.108, 3560.000
309.468, 3540.603
310.827, 3520.000
312.186, 3478.000
313.545, 3480.000
314.903, 3477.000
316.262, 3466.000
317.620, 3518.000
318.978, 3549.000
320.336, 3658.000
321.693, 3712.000
323.051, 3787.144
324.408, 3876.597
325.765, 3962.000
327.121, 4036.000
328.478, 4130.542
329.834, 4238.000
331.190, 4306.000
332.546, 4409.383
333.902, 4487.957
335.257, 4513.000
336.612, 4523.574
337.967, 4518.000
339.322, 4429.000
340.677, 4367.000
342.031, 4226.000
343.385, 4194.000
344.739, 4026.000
346.093, 4086.000
347.446, 3915.264
348.799, 3906.000
350.153, 3687.000
351.505, 3702.000
352.858, 3677.000
354.210, 3718.000
355.563, 3687.000
356.915, 3652.000
358.267, 3679.000
359.618, 3672.000
360.969, 3660.992
362.321, 3619.000
363.672, 3637.000
365.022, 3644.000
366.373, 3615.000
367.723, 3626.000
369.073, 3672.000
370.423, 3708.000
371.773, 3646.000
373.122, 3648.000
374.471, 3634.000
375.821, 3657.000
377.169, 3714.000
378.518, 3621.000
379.866, 3672.000
381.215, 3643.000
382.563, 3618.000
383.910, 3658.000
385.258, 3564.000
386.605, 3530.000
387.952, 3572.000
389.299, 3602.000
390.646, 3540.000
391.992, 3516.000
393.339, 3504.000
394.685, 3475.000
396.031, 3466.861
397.376, 3469.000
398.722, 3444.000
400.067, 3408.000
401.412, 3388.000
402.757, 3329.867
404.101, 3364.042
405.446, 3375.800
406.790, 3366.371
408.134, 3303.000
409.478, 3295.000
410.821, 3326.000
412.165, 3357.000
413.508, 3298.000
414.851, 3295.000
416.193, 3283.782
417.536, 3312.000
418.878, 3268.000
420.220, 3275.000
421.562, 3297.000
422.904, 3287.000
424.245, 3322.000
425.586, 3338.000
426.927, 3338.000
428.268, 3338.000
429.609, 3322.000
430.949, 3337.000
432.289, 3335.890
433.629, 3344.704
434.969, 3350.000
436.309, 3365.000
437.648, 3373.351
438.987, 3373.500
440.326, 3376.000
441.665, 3356.000
443.003, 3347.000
444.342, 3362.000
445.680, 3449.000
447.018, 3434.000
448.355, 3448.000
449.693, 3407.000
451.030, 3488.000
452.367, 3512.000
453.704, 3529.000
455.041, 3625.000
456.377, 3602.000
457.713, 3657.794
459.049, 3679.000
460.385, 3729.000
461.721, 3848.000
463.056, 3902.000
464.391, 4019.000
465.726, 4043.000
467.061, 4108.000
468.395, 4249.000
469.730, 4282.000
471.064, 4354.000
472.398, 4412.000
473.731, 4446.000
475.065, 4556.000
476.398, 4431.000
477.731, 4474.000
479.064, 4559.000
480.397, 4503.000
481.729, 4563.000
483.062, 4657.000
484.394, 4396.000
485.725, 4379.000
487.057, 4328.000
488.389, 4288.000
489.720, 4240.000
491.051, 4221.000
492.382, 4171.000
493.712, 4123.000
495.043, 4147.000
496.373, 4163.000
497.703, 4143.000
499.032, 4178.000
500.362, 4274.000
501.691, 4243.000
503.020, 4325.000
504.349, 4393.000
505.678, 4438.000
507.007, 4498.000
508.335, 4601.000
509.663, 4689.000
510.991, 4815.000
512.319, 4920.000
513.646, 4963.000
514.973, 4907.000
516.300, 4891.000
517.627, 4921.000
518.954, 4828.000
520.280, 4797.000
521.607, 4636.000
522.933, 4624.000
524.259, 4513.000
525.584, 4422.000
526.910, 4373.000
528.235, 4409.000
529.560, 4152.000
530.885, 4072.000
532.209, 4092.000
533.534, 3960.000
534.858, 3907.000
536.182, 3932.000
537.506, 3827.000
538.829, 3931.000
540.152, 3849.422
541.476, 3856.000
542.799, 3713.000
544.121, 3743.000
545.444, 3580.000
546.766, 3679.000
548.088, 3709.000
549.410, 3651.000
550.732, 3692.000
552.053, 3681.000
553.375, 3661.000
554.696, 3626.000
556.017, 3614.000
557.337, 3644.000
558.658, 3755.000
559.978, 3758.000
561.298, 3822.000
562.618, 3791.000
563.938, 3938.000
565.257, 3858.000
566.576, 3974.000
567.895, 4060.000
569.214, 4028.000
570.533, 4139.000
571.851, 4148.000
573.170, 4137.000
574.488, 4191.000
575.805, 4251.000
577.123, 4167.000
578.440, 4160.000
579.758, 4052.000
581.075, 4052.000
582.391, 4055.000
583.708, 4034.000
585.024, 4067.000
586.341, 3980.000
587.657, 3918.000
588.972, 3805.000
590.288, 3863.000
591.603, 3883.000
592.918, 3895.000
594.233, 3910.768
595.548, 3886.000
596.863, 3918.000
598.177, 3965.000
599.491, 3989.801
600.805, 3920.000
602.119, 4005.000
603.432, 4038.000
604.746, 4063.000
606.059, 4181.000
607.372, 4112.000
608.685, 4217.000
609.997, 4295.000
611.309, 4391.000
612.621, 4430.000
613.933, 4460.000
615.245, 4526.000
616.557, 4573.000
617.868, 4679.000
619.179, 4742.000
620.490, 4665.000
621.801, 4736.000
623.111, 4657.000
624.421, 4692.000
625.731, 4600.000
627.041, 4626.000
628.351, 4439.000
629.660, 4393.000
630.970, 4326.000
632.279, 4272.000
633.588, 4231.000
634.896, 4158.570
636.205, 4122.000
637.513, 4042.000
638.821, 3963.000
640.129, 3935.000
641.437, 3896.000
642.744, 3866.012
644.051, 3830.000
645.358, 3845.000
646.665, 3832.000
647.972, 3851.000
649.278, 3840.000
650.584, 3807.000
651.890, 3816.000
653.196, 3817.000
654.502, 3920.000
655.807, 3831.000
657.113, 3854.000
658.418, 3763.000
659.722, 3874.000
661.027, 3830.000
662.331, 3785.000
663.636, 3761.000
664.940, 3730.000
666.244, 3706.000
667.547, 3615.000
668.851, 3666.000
670.154, 3610.000
671.457, 3626.000
672.760, 3558.000
674.062, 3569.000
675.365, 3587.000
676.667, 3598.000
677.969, 3546.000
679.271, 3601.000
680.572, 3554.000
681.874, 3565.000
683.175, 3567.000
684.476, 3648.000
685.777, 3648.000
687.077, 3636.000
688.378, 3627.000
689.678, 3638.284
690.978, 3638.000
692.278, 3620.000
693.577, 3606.000
694.877, 3581.015
696.176, 3596.000
697.475, 3538.000
698.774, 3518.000
700.072, 3535.000
701.371, 3516.000
702.669, 3491.000
703.967, 3486.000
705.265, 3414.000
706.562, 3439.000
707.860, 3349.000
709.157, 3394.000
710.454, 3352.000
711.751, 3340.000
713.047, 3287.000
714.344, 3267.904
715.640, 3211.753
716.936, 3270.412
718.232, 3301.202
719.527, 3305.625
720.823, 3204.687
722.118, 3239.799
723.413, 3220.390
724.708, 3198.745
726.002, 3253.010
727.297, 3218.000
728.591, 3268.000
729.885, 3200.000
731.179, 3206.000
732.472, 3220.000
733.766, 3179.000
735.059, 3172.000
736.352, 3127.000
737.645, 3148.000
738.937, 3136.000
740.230, 3174.000
741.522, 3153.000
742.814, 3146.000
744.106, 3084.000
745.397, 3118.000
746.689, 3184.000
747.980, 3154.000
749.271, 3101.000
750.562, 3162.000
751.853, 3102.000
753.143, 3188.000
754.433, 3096.000
755.723, 3158.000
757.013, 3171.000
758.303, 3136.000
759.592, 3158.000
760.881, 3162.000
762.170, 3172.000
763.459, 3161.397
764.748, 3200.000
766.036, 3119.000
767.325, 3132.000
768.613, 3092.000
769.901, 3117.000
771.188, 3166.000
772.476, 3147.000
773.763, 3138.000
775.050, 3151.000
776.337, 3140.000
777.624, 3136.000
778.910, 3167.000
780.196, 3095.000
781.482, 3136.000
782.768, 3125.000
784.054, 3143.000
785.339, 3161.000
786.625, 3152.000
787.910, 3153.273
789.195, 3137.000
790.479, 3104.000
791.764, 3173.000
793.048, 3096.000
794.332, 3173.000
795.616, 3113.000
796.900, 3142.000
798.183, 3166.000
799.467, 3099.000
800.750, 3123.000
802.033, 3107.000
803.316, 3136.000
804.598, 3122.000
805.880, 3177.000
807.163, 3116.000
808.445, 3176.000
809.726, 3177.000
811.008, 3196.000
812.289, 3187.000
813.570, 3234.000
814.851, 3185.000
816.132, 3177.000
817.413, 3195.000
818.693, 3219.000
819.973, 3234.000
821.253, 3243.288
822.533, 3262.000
823.813, 3257.000
825.092, 3238.000
826.371, 3246.000
827.650, 3272.000
828.929, 3206.000
830.208, 3202.000
831.486, 3264.000
832.764, 3237.000
834.042, 3172.000
835.320, 3154.000
836.598, 3246.000
837.875, 3185.000
839.152, 3138.567
840.429, 3200.110
841.706, 3235.443
842.983, 3245.974
844.259, 3157.418
845.536, 3196.812
846.812, 3184.928
848.088, 3170.943
849.363, 3228.342
850.639, 3154.198
851.914, 3210.465
853.189, 3214.674
854.464, 3242.709
855.739, 3219.151
857.013, 3211.528
858.288, 3255.514
859.562, 3270.923
860.836, 3241.425
862.110, 3270.973
863.383, 3195.023
864.656, 3211.648
865.930, 3268.216
867.203, 3241.310
868.475, 3271.799
869.748, 3280.429
871.020, 3189.717
872.292, 3271.770
873.564, 3279.107
874.836, 3209.729
876.108, 3285.862
877.379, 3227.058
878.650, 3216.418
879.922, 3242.025
881.192, 3229.845
882.463, 3277.239
883.733, 3267.240
885.004, 3252.115
886.274, 3259.367
887.544, 3203.208
888.813, 3264.686
890.083, 3245.808
891.352, 3266.873
892.621, 3257.000
893.890, 3262.789
895.159, 3308.000
896.427, 3317.000
897.695, 3317.975
898.964, 3246.000
900.232, 3309.000
901.499, 3266.000
902.767, 3260.000
904.034, 3266.000
905.301, 3312.000
906.568, 3290.000
907.835, 3310.000
909.102, 3363.000
910.368, 3305.000
911.634, 3339.000
912.900, 3275.000
914.166, 3324.000
915.432, 3343.000
916.697, 3318.579
917.962, 3348.592
919.227, 3315.000
920.492, 3377.000
921.757, 3404.000
923.021, 3458.000
924.285, 3449.000
925.550, 3454.000
926.813, 3450.000
928.077, 3465.000
929.341, 3489.333
930.604, 3510.860
931.867, 3559.000
933.130, 3565.000
934.393, 3610.000
935.655, 3616.447
936.918, 3796.000
938.180, 3655.000
939.442, 3770.000
940.703, 3761.000
941.965, 3744.000
943.226, 3785.000
944.488, 3861.000
945.749, 3789.000
947.009, 3749.000
948.270, 3820.000
949.530, 3794.000
950.791, 3786.000
952.051, 3743.000
953.311, 3743.000
954.570, 3704.000
955.830, 3737.000
957.089, 3718.000
958.348, 3646.000
959.607, 3639.000
960.866, 3584.000
962.124, 3633.000
963.383, 3548.000
964.641, 3596.000
965.899, 3539.000
967.156, 3509.000
968.414, 3508.000
969.671, 3465.000
970.928, 3452.000
972.185, 3473.000
973.442, 3451.000
974.699, 3469.000
975.955, 3425.000
977.211, 3488.000
978.468, 3405.000
979.723, 3437.000
980.979, 3433.000
982.234, 3413.000
983.490, 3372.000
984.745, 3460.000
986.000, 3372.000
987.254, 3425.000
988.509, 3390.000
989.763, 3413.000
991.017, 3411.000
992.271, 3404.000
993.525, 3500.648
994.779, 3436.471
996.032, 3459.974
997.285, 3375.000
998.538, 3419.000
999.791, 3412.000
1001.044, 3350.000
1002.296, 3415.000
1003.548, 3381.000
1004.800, 3372.000
1006.052, 3404.000
1007.304, 3395.440
1008.555, 3454.000
1009.807, 3400.000
1011.058, 3441.000
1012.309, 3391.000
1013.559, 3443.000
1014.810, 3405.000
1016.060, 3380.000
1017.310, 3310.000
1018.560, 3410.000
1019.810, 3358.000
1021.060, 3387.000
1022.309, 3375.000
1023.558, 3399.000
1024.807, 3400.894
1026.056, 3395.569
1027.305, 3398.000
1028.553, 3399.000
1029.801, 3377.000
1031.049, 3407.000
1032.297, 3415.000
1033.545, 3349.000
1034.793, 3415.000
1036.040, 3389.000
1037.287, 3395.000
1038.534, 3392.000
1039.781, 3392.000
1041.027, 3392.000
1042.274, 3376.425
1043.520, 3398.351
1044.766, 3411.173
1046.012, 3415.382
1047.257, 3385.175
1048.503, 3399.408
1049.748, 3395.831
1050.993, 3391.524
1052.238, 3412.011
1053.483, 3386.810
1054.727, 3406.903
1055.971, 3408.914
1057.216, 3419.202
1058.459, 3411.569
1059.703, 3409.000
1060.947, 3467.000
1062.190, 3385.000
1063.433, 3447.000
1064.676, 3497.000
1065.919, 3435.000
1067.162, 3468.000
1068.404, 3414.000
1069.646, 3439.000
1070.888, 3419.000
1072.130, 3405.000
1073.372, 3473.000
1074.613, 3396.000
1075.855, 3463.000
1077.096, 3486.000
1078.337, 3444.000
1079.578, 3439.000
1080.818, 3446.000
1082.059, 3466.000
1083.299, 3420.000
1084.539, 3375.000
1085.779, 3470.000
1087.018, 3435.000
1088.258, 3442.142
1089.497, 3456.135
1090.736, 3425.000
1091.975, 3456.000
1093.213, 3437.000
1094.452, 3468.000
1095.690, 3420.000
1096.928, 3413.000
1098.166, 3346.000
1099.404, 3375.000
1100.642, 3404.000
1101.879, 3367.000
1103.116, 3357.000
1104.353, 3415.000
1105.590, 3342.088
1106.827, 3458.788
1108.063, 3395.000
1109.299, 3469.000
1110.536, 3455.189
1111.771, 3446.000
1113.007, 3451.000
1114.243, 3431.672
1115.478, 3401.000
1116.713, 3398.000
1117.948, 3393.000
1119.183, 3364.000
1120.418, 3414.000
1121.652, 3362.000
1122.886, 3516.000
1124.120, 3469.000
1125.354, 3484.000
1126.588, 3382.000
1127.821, 3372.000
1129.055, 3403.000
1130.288, 3347.000
1131.521, 3376.000
1132.753, 3367.000
1133.986, 3378.000
1135.218, 3338.000
1136.450, 3355.000
1137.682, 3360.000
1138.914, 3348.000
1140.146, 3383.000
1141.377, 3328.000
1142.609, 3366.000
1143.840, 3337.000
1145.071, 3305.000
1146.301, 3390.000
1147.532, 3331.000
1148.762, 3385.000
1149.992, 3338.000
1151.222, 3434.000
1152.452, 3334.000
1153.682, 3373.000
1154.911, 3395.000
1156.140, 3299.000
1157.369, 3363.000
1158.598, 3362.000
1159.827, 3318.000
1161.055, 3392.000
1162.284, 3384.000
1163.512, 3359.000
1164.740, 3353.000
1165.967, 3346.000
1167.195, 3344.208
1168.422, 3360.000
1169.650, 3345.000
1170.877, 3374.000
1172.103, 3358.000
1173.330, 3370.000
1174.557, 3364.000
1175.783, 3394.000
1177.009, 3370.000
1178.235, 3387.000
1179.461, 3282.000
1180.686, 3390.000
1181.912, 3356.000
1183.137, 3337.000
1184.362, 3401.000
1185.587, 3414.000
1186.811, 3413.000
1188.036, 3366.000
1189.260, 3415.000
1190.484, 3358.000
1191.708, 3382.000
1192.932, 3398.000
1194.155, 3435.000
1195.378, 3407.000
1196.602, 3396.000
1197.825, 3397.000
1199.047, 3382.000
1200.270, 3387.687
1201.492, 3390.000
1202.715, 3397.518
1203.937, 3400.786
1205.159, 3408.000
1206.380, 3406.000
1207.602, 3420.000
1208.823, 3431.000
1210.044, 3407.000
1211.265, 3437.000
1212.486, 3448.000
1213.707, 3417.000
1214.927, 3433.000
1216.147, 3430.000
1217.367, 3402.000
1218.587, 3419.000
1219.807, 3468.000
1221.027, 3429.000
1222.246, 3372.000
1223.465, 3490.000
1224.684, 3399.000
1225.903, 3419.000
1227.121, 3436.000
1228.340, 3419.000
1229.558, 3423.000
1230.776, 3438.000
1231.994, 3463.000
1233.212, 3428.000
1234.429, 3428.000
1235.646, 3504.000
1236.864, 3473.000
1238.081, 3404.000
1239.297, 3508.000
1240.514, 3466.000
1241.730, 3473.357
1242.947, 3449.698
1244.163, 3439.170
1245.378, 3371.000
1246.594, 3441.000
1247.810, 3465.000
1249.025, 3506.000
1250.240, 3442.000
1251.455, 3493.000
1252.670, 3457.000
1253.885, 3561.000
1255.099, 3485.000
1256.313, 3462.000
1257.527, 3487.000
1258.741, 3459.000
1259.955, 3450.550
1261.168, 3468.435
1262.382, 3428.000
1263.595, 3480.000
1264.808, 3496.000
1266.021, 3470.000
1267.233, 3522.000
1268.446, 3452.000
1269.658, 3471.000
1270.870, 3497.000
1272.082, 3504.000
1273.294, 3546.000
1274.505, 3536.521
1275.716, 3508.000
1276.928, 3513.000
1278.139, 3531.000
1279.349, 3492.000
1280.560, 3524.000
1281.770, 3484.000
1282.981, 3556.000
1284.191, 3523.000
1285.401, 3495.000
1286.610, 3496.000
1287.820, 3498.000
1289.029, 3498.206
1290.239, 3509.434
1291.448, 3506.000
1292.656, 3538.000
1293.865, 3517.000
1295.073, 3538.000
1296.282, 3522.000
1297.490, 3516.000
1298.698, 3528.000
1299.906, 3528.471
1301.113, 3580.000
1302.320, 3550.000
1303.528, 3543.000
1304.735, 3550.000
1305.942, 3620.000
1307.148, 3548.000
1308.355, 3604.000
1309.561, 3584.000
1310.767, 3564.000
1311.973, 3584.000
1313.179, 3549.000
1314.384, 3591.000
1315.590, 3586.000
1316.795, 3571.000
1318.000, 3671.000
1319.205, 3630.000
1320.410, 3595.000
1321.614, 3634.000
1322.819, 3608.000
1324.023, 3568.000
1325.227, 3640.000
1326.431, 3648.000
1327.634, 3671.000
1328.838, 3680.000
1330.041, 3591.000
1331.244, 3665.000
1332.447, 3657.000
1333.650, 3720.000
1334.852, 3699.203
1336.055, 3696.706
1337.257, 3654.000
1338.459, 3688.000
1339.661, 3674.000
1340.862, 3729.000
1342.064, 3682.000
1343.265, 3694.000
1344.466, 3717.000
1345.667, 3669.000
1346.868, 3751.000
1348.068, 3737.000
1349.269, 3742.000
1350.469, 3736.000
1351.669, 3712.000
1352.869, 3722.583
1354.069, 3714.397
1355.268, 3728.000
1356.468, 3717.000
1357.667, 3720.103
1358.866, 3724.569
1360.065, 3745.000
1361.263, 3750.000
1362.462, 3754.285
1363.660, 3774.000
1364.858, 3748.000
1366.056, 3768.000
1367.254, 3745.000
1368.451, 3793.000
1369.649, 3812.000
1370.846, 3793.000
1372.043, 3803.570
1373.240, 3794.199
1374.436, 3791.000
1375.633, 3780.000
1376.829, 3808.000
1378.025, 3816.000
1379.221, 3822.000
1380.417, 3827.000
1381.613, 3828.000
1382.808, 3826.000
1384.003, 3790.000
1385.199, 3799.000
1386.393, 3787.991
1387.588, 3798.671
1388.783, 3780.000
1389.977, 3840.000
1391.171, 3835.000
1392.365, 3863.000
1393.559, 3832.000
1394.753, 3867.000
1395.946, 3840.000
1397.140, 3874.000
1398.333, 3826.000
1399.526, 3839.000
1400.719, 3873.000
1401.911, 3776.000
##END=



