##NAMES=Braunite
##RRUFFID=R050388
##IDEAL CHEMISTRY=Mn^2+^Mn^3+^_6_SiO_12_
##LOCALITY=Langban, Filipstad, Varmland, Sweden
##OWNER=RRUFF
##SOURCE=University of Arizona Mineral Museum
##DESCRIPTION=Black crystals
##STATUS=The identification of this mineral has been confirmed by X-ray diffraction and chemical analysis
##URL=rruff.info/R050388
##MEASURED CHEMISTRY=(Mn^2+^_0.96_Mg_0.04_)_Î£=1_Mn^3+^_6.00_Si_1.00_O_12_
93.48767, 390.4161
93.96979, 376.3528
94.45190, 363.1201
94.93402, 349.9738
95.41614, 333.5275
95.89825, 316.1127
96.38037, 300.8185
96.86249, 287.5792
97.34460, 276.8264
97.82672, 274.0228
98.30884, 267.4229
98.79095, 251.9888
99.27307, 231.0784
99.75519, 212.3445
100.2373, 201.2315
100.7194, 196.6155
101.2015, 190.9187
101.6837, 183.6343
102.1658, 175.7056
102.6479, 167.2657
103.1300, 158.1190
103.6121, 150.0056
104.0942, 144.5356
104.5764, 140.8826
105.0585, 138.3605
105.5406, 137.9762
106.0227, 138.6168
106.5048, 136.6605
106.9869, 130.3826
107.4691, 123.6966
107.9512, 118.5565
108.4333, 114.5739
108.9154, 110.7237
109.3975, 105.9161
109.8796, 99.81669
110.3618, 94.91600
110.8439, 92.00620
111.3260, 89.57937
111.8081, 87.00377
112.2902, 84.21960
112.7723, 81.55550
113.2544, 79.47257
113.7366, 78.11048
114.2187, 77.21278
114.7008, 76.90718
115.1829, 76.94766
115.6650, 77.23830
116.1471, 77.75142
116.6293, 78.27514
117.1114, 78.24166
117.5935, 77.32216
118.0756, 76.55054
118.5577, 76.12036
119.0398, 76.00975
119.5220, 76.20482
120.0041, 76.80670
120.4862, 77.63264
120.9683, 78.23389
121.4504, 78.48012
121.9325, 78.72147
122.4147, 79.31228
122.8968, 80.29048
123.3789, 81.15147
123.8610, 81.75171
124.3431, 82.05047
124.8252, 81.87932
125.3074, 81.03294
125.7895, 79.87473
126.2716, 79.20332
126.7537, 79.35255
127.2358, 79.41713
127.7179, 78.94922
128.2001, 78.26982
128.6822, 77.83881
129.1643, 78.01018
129.6464, 78.70546
130.1285, 78.90550
130.6107, 78.35374
131.0928, 77.50278
131.5749, 76.24812
132.0570, 74.75176
132.5391, 73.29688
133.0212, 72.14253
133.5033, 71.32643
133.9855, 70.57903
134.4676, 69.66505
134.9497, 68.98217
135.4318, 68.97481
135.9139, 69.59582
136.3960, 70.20427
136.8782, 70.06731
137.3603, 69.03490
137.8424, 67.83052
138.3245, 66.48635
138.8066, 64.99374
139.2887, 63.27841
139.7709, 61.27580
140.2530, 59.26696
140.7351, 57.58616
141.2172, 56.19966
141.6993, 55.02594
142.1814, 54.17967
142.6636, 53.56512
143.1457, 52.79838
143.6278, 51.67801
144.1099, 50.52659
144.5920, 49.57624
145.0741, 48.83686
145.5563, 48.24834
146.0384, 47.72463
146.5205, 47.24307
147.0026, 47.02669
147.4847, 47.58659
147.9668, 48.12186
148.4490, 48.12217
148.9311, 47.50074
149.4132, 46.62055
149.8953, 46.03481
150.3774, 45.91074
150.8595, 45.75053
151.3417, 45.50681
151.8238, 45.22252
152.3059, 44.92921
152.7880, 44.64100
153.2701, 44.34945
153.7522, 44.03707
154.2344, 43.58908
154.7165, 43.26103
155.1986, 43.19723
155.6807, 43.22184
156.1628, 43.08049
156.6449, 42.63036
157.1271, 41.98342
157.6092, 41.61016
158.0913, 41.92661
158.5734, 42.00321
159.0555, 41.29592
159.5376, 40.10249
160.0198, 39.23409
160.5019, 39.22094
160.9840, 39.84470
161.4661, 40.17877
161.9482, 40.04134
162.4303, 39.82200
162.9125, 39.79364
163.3946, 39.94764
163.8767, 40.07688
164.3588, 39.99389
164.8409, 39.82829
165.3230, 39.80978
165.8052, 40.06657
166.2873, 40.40351
166.7694, 40.55814
167.2515, 40.49379
167.7336, 40.37030
168.2157, 40.25144
168.6979, 40.12672
169.1800, 39.98450
169.6621, 39.82765
170.1442, 39.64430
170.6263, 39.39156
171.1084, 39.01529
171.5906, 38.65432
172.0727, 38.38551
172.5548, 38.15126
173.0369, 37.85080
173.5190, 37.39317
174.0011, 36.81907
174.4833, 36.47333
174.9654, 36.45216
175.4475, 36.59940
175.9296, 37.10920
176.4117, 37.76082
176.8938, 38.16227
177.3760, 37.98323
177.8581, 37.20147
178.3402, 36.70700
178.8223, 36.66880
179.3044, 36.71421
179.7865, 36.75222
180.2687, 36.76835
180.7508, 36.76962
181.2329, 36.76152
181.7150, 36.74348
182.1971, 36.71514
182.6792, 36.63143
183.1614, 36.57516
183.6435, 36.62518
184.1256, 36.77198
184.6077, 36.90795
185.0898, 36.93316
185.5719, 36.83625
186.0541, 36.74768
186.5362, 36.60276
187.0183, 36.50572
187.5004, 36.60056
187.9825, 36.91282
188.4646, 37.22784
188.9468, 37.30611
189.4289, 37.20737
189.9110, 37.17519
190.3931, 37.41247
190.8752, 37.70345
191.3573, 37.60261
191.8395, 36.88696
192.3216, 36.32945
192.8037, 36.80939
193.2858, 37.91972
193.7679, 38.73561
194.2500, 38.59353
194.7322, 37.81145
195.2143, 37.45869
195.6964, 37.84620
196.1785, 38.21889
196.6606, 38.06824
197.1427, 37.58710
197.6249, 37.20106
198.1070, 37.22736
198.5891, 37.62169
199.0712, 37.93108
199.5533, 38.04621
200.0354, 38.19496
200.5176, 38.54179
200.9997, 38.99505
201.4818, 39.33469
201.9639, 39.32014
202.4460, 38.93370
202.9281, 38.88320
203.4103, 39.71895
203.8924, 40.40467
204.3745, 40.47584
204.8566, 40.10395
205.3387, 39.77886
205.8208, 39.95881
206.3030, 40.72685
206.7851, 41.22901
207.2672, 41.36919
207.7493, 41.37081
208.2314, 41.21059
208.7135, 40.96056
209.1957, 40.78384
209.6778, 40.83624
210.1599, 41.15131
210.6420, 41.45403
211.1241, 41.90029
211.6062, 42.20572
212.0884, 42.13251
212.5705, 41.73344
213.0526, 41.28950
213.5347, 41.02519
214.0168, 40.96124
214.4989, 41.10523
214.9811, 41.90507
215.4632, 42.55382
215.9453, 42.32254
216.4274, 41.24340
216.9095, 40.16508
217.3916, 39.83600
217.8737, 40.29580
218.3559, 40.66000
218.8380, 40.96535
219.3201, 41.14079
219.8022, 41.09412
220.2843, 40.81899
220.7664, 40.44638
221.2486, 39.98111
221.7307, 39.48799
222.2128, 39.25157
222.6949, 39.62603
223.1770, 40.11434
223.6591, 40.05965
224.1413, 39.36423
224.6234, 38.69015
225.1055, 38.59718
225.5876, 38.86214
226.0697, 39.10805
226.5518, 39.20115
227.0340, 39.24050
227.5161, 39.38938
227.9982, 39.68423
228.4803, 39.96120
228.9624, 40.16837
229.4445, 40.29061
229.9267, 40.28324
230.4088, 40.09329
230.8909, 39.79375
231.3730, 39.50610
231.8551, 39.20631
232.3372, 38.98603
232.8194, 38.90507
233.3015, 38.90780
233.7836, 38.93362
234.2657, 38.95545
234.7478, 38.98996
235.2299, 39.07112
235.7121, 39.19329
236.1942, 39.38283
236.6763, 39.87183
237.1584, 40.33718
237.6405, 40.38017
238.1227, 39.78891
238.6048, 38.83203
239.0869, 38.18320
239.5690, 37.91833
240.0511, 37.86496
240.5332, 38.12749
241.0154, 38.48528
241.4975, 38.71940
241.9796, 38.73606
242.4617, 38.60239
242.9438, 38.47991
243.4259, 38.35976
243.9081, 38.26792
244.3902, 38.23402
244.8723, 38.21386
245.3544, 38.16684
245.8365, 38.07684
246.3186, 37.95570
246.8008, 37.82008
247.2829, 37.55255
247.7650, 37.45878
248.2471, 37.67135
248.7292, 37.98840
249.2113, 38.28799
249.6935, 38.51397
250.1756, 38.58823
250.6577, 38.33893
251.1398, 37.32022
251.6219, 36.62583
252.1040, 36.40088
252.5862, 36.40948
253.0683, 36.47970
253.5504, 36.55267
254.0325, 36.62434
254.5146, 36.68925
254.9967, 36.75798
255.4789, 36.79426
255.9610, 36.82978
256.4431, 36.81657
256.9252, 36.69807
257.4073, 36.46453
257.8894, 36.17087
258.3716, 35.88280
258.8537, 35.58569
259.3358, 35.35006
259.8179, 35.15417
260.3000, 35.03130
260.7821, 35.05058
261.2643, 35.21464
261.7464, 35.39766
262.2285, 35.46991
262.7106, 35.41091
263.1927, 35.27799
263.6748, 34.90596
264.1570, 34.56559
264.6391, 34.57833
265.1212, 34.95475
265.6033, 35.29617
266.0854, 35.16745
266.5675, 34.54549
267.0497, 34.22242
267.5318, 34.39587
268.0139, 34.74947
268.4960, 35.12641
268.9781, 35.49887
269.4602, 35.69933
269.9424, 35.53331
270.4245, 35.05137
270.9066, 34.71617
271.3887, 34.56525
271.8708, 34.54322
272.3529, 34.72382
272.8351, 35.07578
273.3172, 35.23582
273.7993, 34.87122
274.2814, 34.16874
274.7635, 33.76108
275.2456, 33.80633
275.7278, 33.98680
276.2099, 34.13819
276.6920, 34.25488
277.1741, 34.27868
277.6562, 34.13084
278.1383, 33.90268
278.6205, 33.78746
279.1026, 33.81890
279.5847, 33.88737
280.0668, 33.94678
280.5489, 33.99111
281.0310, 33.96748
281.5132, 33.79319
281.9953, 33.61097
282.4774, 33.59654
282.9595, 33.75370
283.4416, 34.04066
283.9237, 34.59374
284.4059, 35.30257
284.8880, 35.66944
285.3701, 35.43166
285.8522, 34.99688
286.3343, 34.77437
286.8164, 34.75463
287.2986, 34.83703
287.7807, 35.07999
288.2628, 35.39780
288.7449, 35.47427
289.2270, 35.15480
289.7091, 34.78941
290.1913, 34.66162
290.6734, 34.72733
291.1555, 34.84330
291.6376, 34.95141
292.1197, 35.06157
292.6018, 35.22834
293.0840, 35.51461
293.5661, 35.70671
294.0482, 35.59245
294.5303, 35.29644
295.0124, 35.03164
295.4945, 34.86420
295.9767, 34.78605
296.4588, 34.85036
296.9409, 35.14988
297.4230, 35.27056
297.9051, 34.77865
298.3872, 34.04823
298.8694, 33.48883
299.3515, 33.18879
299.8336, 33.15142
300.3157, 33.57955
300.7978, 34.63024
301.2799, 35.19761
301.7621, 34.30196
302.2442, 33.00269
302.7263, 32.22694
303.2084, 32.17723
303.6905, 32.42993
304.1726, 32.69745
304.6548, 32.99402
305.1369, 32.90420
305.6190, 31.87589
306.1011, 30.78591
306.5832, 30.34100
307.0653, 30.57578
307.5475, 31.00105
308.0296, 31.24367
308.5117, 31.32159
308.9938, 31.47513
309.4759, 31.86708
309.9580, 32.17219
310.4402, 32.14637
310.9223, 31.84918
311.4044, 31.51345
311.8865, 31.17659
312.3686, 30.89673
312.8507, 30.97592
313.3329, 31.63986
313.8150, 32.28382
314.2971, 32.61340
314.7792, 32.70005
315.2613, 32.65675
315.7434, 32.47414
316.2256, 32.23288
316.7077, 32.08328
317.1898, 31.99676
317.6719, 32.08646
318.1540, 32.57153
318.6361, 33.18890
319.1183, 33.67447
319.6004, 33.96396
320.0825, 34.06542
320.5646, 33.90320
321.0467, 33.41118
321.5288, 33.07615
322.0110, 33.05571
322.4931, 33.26793
322.9752, 33.74059
323.4573, 34.48378
323.9394, 35.22919
324.4215, 35.76534
324.9037, 36.09043
325.3858, 36.19768
325.8679, 35.84164
326.3500, 35.51383
326.8321, 35.60802
327.3142, 36.07458
327.7964, 36.56203
328.2785, 36.85903
328.7606, 36.98586
329.2427, 37.01298
329.7248, 36.83247
330.2069, 36.74992
330.6891, 37.06022
331.1712, 37.59180
331.6533, 37.98438
332.1354, 38.07275
332.6175, 37.92263
333.0996, 37.61333
333.5818, 37.07108
334.0639, 36.60415
334.5460, 36.58842
335.0281, 36.66004
335.5102, 36.33694
335.9923, 35.35386
336.4745, 34.26661
336.9566, 33.78289
337.4387, 33.94348
337.9208, 34.03899
338.4029, 33.74361
338.8850, 33.35205
339.3671, 33.16188
339.8492, 33.20555
340.3314, 33.30213
340.8135, 33.38746
341.2956, 33.43797
341.7777, 33.25715
342.2598, 32.62972
342.7419, 32.02647
343.2241, 31.91540
343.7062, 32.20546
344.1883, 32.45128
344.6704, 32.43845
345.1525, 32.23503
345.6346, 31.94637
346.1168, 31.52966
346.5989, 31.18487
347.0810, 31.17311
347.5631, 31.32705
348.0452, 31.34410
348.5273, 31.02462
349.0095, 30.64668
349.4916, 30.55079
349.9737, 30.74314
350.4558, 30.94969
350.9379, 31.04626
351.4200, 31.08117
351.9022, 31.15921
352.3843, 31.33387
352.8664, 31.41373
353.3485, 31.18354
353.8306, 30.72953
354.3127, 30.40465
354.7949, 30.33916
355.2770, 30.38003
355.7591, 30.28782
356.2412, 30.06025
356.7233, 29.98792
357.2054, 30.33920
357.6876, 30.85827
358.1697, 31.14388
358.6518, 31.13597
359.1339, 30.95101
359.6160, 30.54722
360.0981, 30.00910
360.5803, 29.80456
361.0624, 30.25847
361.5445, 30.86588
362.0266, 31.25656
362.5087, 31.43327
362.9908, 31.45807
363.4730, 31.28766
363.9551, 31.03596
364.4372, 31.04385
364.9193, 31.41687
365.4014, 31.84453
365.8835, 32.32030
366.3657, 32.74832
366.8478, 32.88135
367.3299, 32.59595
367.8120, 32.15862
368.2941, 31.99737
368.7762, 32.16921
369.2584, 32.33675
369.7405, 32.46665
370.2226, 32.56516
370.7047, 32.60748
371.1868, 32.60011
371.6689, 32.64878
372.1511, 32.89909
372.6332, 33.36040
373.1153, 33.46712
373.5974, 32.90650
374.0795, 32.33742
374.5616, 32.03581
375.0438, 31.97960
375.5259, 32.10378
376.0080, 32.40203
376.4901, 32.78658
376.9722, 32.93799
377.4543, 32.66082
377.9365, 32.40744
378.4186, 32.18918
378.9007, 32.03194
379.3828, 32.03424
379.8649, 32.20371
380.3470, 32.33433
380.8292, 32.11202
381.3113, 31.33556
381.7934, 30.80412
382.2755, 30.71765
382.7576, 30.66812
383.2397, 30.34432
383.7219, 29.82441
384.2040, 29.44997
384.6861, 29.51898
385.1682, 29.99179
385.6503, 30.23097
386.1324, 29.98059
386.6146, 29.76857
387.0967, 29.87633
387.5788, 30.00886
388.0609, 29.67636
388.5430, 28.67660
389.0251, 27.44750
389.5073, 26.89378
389.9894, 27.33525
390.4715, 27.81416
390.9536, 28.47230
391.4357, 28.99709
391.9178, 29.14813
392.4000, 28.93319
392.8821, 28.55682
393.3642, 28.16068
393.8463, 27.73763
394.3284, 27.53505
394.8105, 27.74856
395.2927, 27.96702
395.7748, 28.05133
396.2569, 28.04530
396.7390, 28.02325
397.2211, 28.01204
397.7032, 28.02797
398.1854, 28.13662
398.6675, 28.40530
399.1496, 28.56244
399.6317, 28.53533
400.1138, 28.36497
400.5959, 28.02024
401.0781, 27.50262
401.5602, 26.97986
402.0423, 26.59592
402.5244, 26.34563
403.0065, 26.16464
403.4886, 26.03854
403.9708, 26.00111
404.4529, 26.11936
404.9350, 26.34009
405.4171, 26.51353
405.8992, 26.54071
406.3813, 26.50089
406.8635, 26.51297
407.3456, 26.57915
407.8277, 26.68230
408.3098, 26.86190
408.7919, 27.05039
409.2740, 27.12374
409.7562, 27.02766
410.2383, 26.94250
410.7204, 26.97902
411.2025, 27.11293
411.6846, 27.29054
412.1667, 27.52048
412.6489, 27.73133
413.1310, 27.86394
413.6131, 27.92717
414.0952, 27.80333
414.5773, 27.27456
415.0594, 26.68286
415.5416, 26.33018
416.0237, 26.22608
416.5058, 26.27727
416.9879, 26.47924
417.4700, 26.76941
417.9521, 26.80659
418.4343, 26.24923
418.9164, 25.89003
419.3985, 26.11122
419.8806, 26.61207
420.3627, 26.94108
420.8448, 26.95512
421.3270, 26.83561
421.8091, 26.85727
422.2912, 27.11016
422.7733, 27.24255
423.2554, 27.12814
423.7375, 27.01234
424.2197, 27.09101
424.7018, 27.30984
425.1839, 27.44687
425.6660, 27.32367
426.1481, 26.99907
426.6302, 26.87767
427.1124, 27.14344
427.5945, 27.40275
428.0766, 27.67785
428.5587, 27.88903
429.0408, 27.91710
429.5229, 27.74089
430.0051, 27.51915
430.4872, 27.47931
430.9693, 27.65908
431.4514, 27.86246
431.9335, 28.30674
432.4156, 28.56968
432.8978, 28.35236
433.3799, 27.80344
433.8620, 27.29422
434.3441, 27.03412
434.8262, 26.99091
435.3083, 27.09744
435.7905, 27.39507
436.2726, 27.72781
436.7547, 28.07642
437.2368, 28.41749
437.7189, 28.72733
438.2010, 29.00114
438.6832, 29.25213
439.1653, 29.49352
439.6474, 29.72223
440.1295, 29.92742
440.6116, 30.11376
441.0938, 30.26159
441.5759, 30.29799
442.0580, 30.27114
442.5401, 30.34304
443.0222, 30.73460
443.5043, 31.12292
443.9865, 31.05129
444.4686, 30.58783
444.9507, 30.37354
445.4328, 30.78039
445.9149, 31.54929
446.3970, 32.06898
446.8792, 32.23782
447.3613, 32.49395
447.8434, 33.10184
448.3255, 33.79416
448.8076, 34.13531
449.2897, 34.08279
449.7719, 34.14418
450.2540, 34.87080
450.7361, 36.31701
451.2182, 37.24469
451.7003, 37.05113
452.1824, 37.07826
452.6646, 38.04173
453.1467, 39.50954
453.6288, 40.72113
454.1109, 41.34541
454.5930, 41.63100
455.0751, 42.07300
455.5573, 42.73685
456.0394, 43.43948
456.5215, 44.11730
457.0036, 44.87876
457.4857, 45.88435
457.9678, 47.05199
458.4500, 48.10133
458.9321, 48.74703
459.4142, 49.11889
459.8963, 50.04124
460.3784, 51.91529
460.8605, 53.62535
461.3427, 54.90168
461.8248, 55.89649
462.3069, 56.70928
462.7890, 57.36599
463.2711, 57.99106
463.7532, 58.63478
464.2354, 59.31661
464.7175, 60.33295
465.1996, 62.01345
465.6817, 63.55435
466.1638, 64.23024
466.6459, 64.33379
467.1281, 64.58734
467.6102, 65.22493
468.0923, 66.11546
468.5744, 67.31035
469.0565, 68.75394
469.5386, 69.75600
470.0208, 69.94605
470.5029, 69.68080
470.9850, 69.57838
471.4671, 69.67314
471.9492, 69.69907
472.4313, 69.61089
472.9135, 69.40836
473.3956, 69.09740
473.8777, 68.67713
474.3598, 68.12209
474.8419, 67.40324
475.3240, 66.53204
475.8062, 65.63235
476.2883, 64.88790
476.7704, 63.89350
477.2525, 62.23892
477.7346, 60.43619
478.2167, 59.21340
478.6989, 58.71420
479.1810, 58.35344
479.6631, 57.30962
480.1452, 55.37243
480.6273, 53.86540
481.1094, 53.37147
481.5916, 52.71764
482.0737, 51.25981
482.5558, 49.42492
483.0379, 48.01263
483.5200, 47.43832
484.0021, 47.27492
484.4843, 46.64094
484.9664, 45.36633
485.4485, 44.40167
485.9306, 44.25755
486.4127, 44.20347
486.8948, 43.68652
487.3770, 42.77348
487.8591, 41.96598
488.3412, 41.74094
488.8233, 41.75588
489.3054, 41.20115
489.7875, 39.98925
490.2697, 39.07146
490.7518, 39.07780
491.2339, 39.62289
491.7160, 39.88885
492.1981, 39.81798
492.6802, 39.63539
493.1624, 39.32324
493.6445, 38.99825
494.1266, 38.86680
494.6087, 38.95892
495.0908, 39.06951
495.5729, 38.94479
496.0551, 38.60001
496.5372, 38.86367
497.0193, 40.48347
497.5014, 41.74747
497.9835, 41.88411
498.4656, 41.43774
498.9478, 41.15187
499.4299, 41.27950
499.9120, 41.64363
500.3941, 42.00027
500.8762, 42.35139
501.3583, 42.69627
501.8405, 43.00054
502.3226, 43.33251
502.8047, 43.76760
503.2868, 44.24030
503.7689, 44.61139
504.2510, 44.80123
504.7331, 44.91862
505.2152, 45.13096
505.6974, 45.42352
506.1795, 45.92004
506.6616, 46.88301
507.1437, 47.82995
507.6258, 48.40545
508.1079, 48.64577
508.5901, 48.76772
509.0722, 48.90496
509.5543, 48.97153
510.0364, 48.73240
510.5185, 48.19586
511.0006, 47.88013
511.4828, 48.10782
511.9649, 48.63419
512.4470, 48.95972
512.9291, 49.08971
513.4113, 49.06364
513.8934, 49.00018
514.3755, 48.71791
514.8576, 47.87334
515.3397, 46.52620
515.8218, 45.23301
516.3040, 44.41337
516.7861, 43.99785
517.2682, 43.49551
517.7503, 42.98156
518.2324, 42.27827
518.7145, 41.16125
519.1967, 39.96572
519.6788, 39.05254
520.1609, 38.44960
520.6430, 37.85815
521.1251, 36.94020
521.6072, 35.70577
522.0894, 34.68703
522.5715, 33.88130
523.0536, 33.30991
523.5357, 33.18813
524.0178, 33.17678
524.4999, 32.80581
524.9821, 31.91927
525.4642, 31.06516
525.9463, 30.86016
526.4284, 31.14531
526.9105, 31.14691
527.3926, 30.66568
527.8748, 30.18740
528.3569, 30.23290
528.8390, 30.60127
529.3211, 30.58836
529.8032, 29.87290
530.2853, 29.05051
530.7675, 28.37450
531.2496, 27.83387
531.7317, 27.42223
532.2138, 27.13668
532.6959, 26.93108
533.1780, 26.73937
533.6602, 26.53729
534.1423, 26.51155
534.6244, 26.92190
535.1065, 27.19777
535.5886, 27.09069
536.0707, 26.71943
536.5529, 26.21119
537.0350, 25.62910
537.5171, 25.12337
537.9992, 24.94384
538.4813, 25.11976
538.9634, 25.48883
539.4456, 26.43196
539.9277, 27.13007
540.4098, 27.07420
540.8919, 26.52436
541.3740, 26.00891
541.8561, 25.74621
542.3383, 25.57349
542.8204, 25.20861
543.3025, 24.69808
543.7846, 24.53030
544.2667, 24.92272
544.7488, 25.49987
545.2310, 25.91330
545.7131, 26.17135
546.1952, 26.25248
546.6773, 25.97314
547.1594, 25.68202
547.6415, 25.59040
548.1237, 25.66941
548.6058, 25.85384
549.0879, 26.12221
549.5700, 26.40556
550.0521, 26.59997
550.5342, 26.73152
551.0164, 26.67761
551.4985, 26.35709
551.9806, 25.96611
552.4627, 25.51056
552.9448, 25.06022
553.4269, 24.69791
553.9091, 24.45771
554.3912, 24.37613
554.8733, 24.61925
555.3554, 25.28320
555.8375, 25.58540
556.3196, 25.06221
556.8018, 24.57721
557.2839, 24.85130
557.7660, 25.60455
558.2481, 26.03267
558.7302, 25.69546
559.2123, 25.09950
559.6945, 24.68864
560.1766, 24.45014
560.6587, 24.35887
561.1408, 24.43660
561.6229, 24.55739
562.1050, 24.53171
562.5872, 24.31467
563.0693, 24.32681
563.5514, 24.84565
564.0335, 25.32004
564.5156, 25.42562
564.9977, 25.29477
565.4799, 25.19469
565.9620, 25.23092
566.4441, 25.29848
566.9262, 25.19923
567.4083, 24.83917
567.8904, 24.69436
568.3726, 24.92220
568.8547, 25.21518
569.3368, 25.64416
569.8189, 26.02439
570.3010, 25.99473
570.7831, 25.35275
571.2653, 24.63400
571.7474, 24.56359
572.2295, 25.04635
572.7116, 25.27380
573.1937, 25.03731
573.6758, 24.72787
574.1580, 24.69058
574.6401, 24.85541
575.1222, 24.94720
575.6043, 24.93043
576.0864, 24.84710
576.5685, 24.56697
577.0507, 24.27745
577.5328, 24.39819
578.0149, 25.00528
578.4970, 25.61618
578.9791, 25.69721
579.4612, 25.22523
579.9434, 24.80807
580.4255, 24.37171
580.9076, 24.08385
581.3897, 24.05564
581.8718, 24.14801
582.3539, 24.19064
582.8361, 24.15433
583.3182, 24.17384
583.8003, 24.49596
584.2824, 25.04344
584.7645, 25.20567
585.2466, 24.87522
585.7288, 24.45379
586.2108, 23.99847
586.6929, 23.63693
587.1750, 23.56622
587.6572, 23.82951
588.1393, 24.25444
588.6214, 24.93903
589.1035, 25.65122
589.5856, 26.06984
