##NAMES=Braunite
##RRUFFID=R050385
##IDEAL CHEMISTRY=Mn^2+^Mn^3+^_6_SiO_12_
##LOCALITY=Jhabua District, Madhya Pradesh, India
##OWNER=RRUFF
##SOURCE=University of Arizona Mineral Museum
##DESCRIPTION=Black prismatic crystals
##STATUS=The identification of this mineral has been confirmed by X-ray diffraction and chemical analysis
##URL=rruff.info/R050385
##MEASURED CHEMISTRY=(Fe^2+^_0.61_Mn^2+^_0.39_)_Σ=1_(Mn^3+^_5.94_Al_0.06_)_Σ=6_Si_1.00_O_12_
93.48767, 430.9674
93.96979, 426.7722
94.45190, 423.6786
94.93402, 422.1033
95.41614, 415.0321
95.89825, 402.7524
96.38037, 388.0675
96.86249, 372.1407
97.34460, 358.9556
97.82672, 349.8738
98.30884, 341.8179
98.79095, 334.5737
99.27307, 327.4982
99.75519, 320.1694
100.2373, 313.5676
100.7194, 307.5982
101.2015, 300.7961
101.6837, 293.0827
102.1658, 284.5853
102.6479, 274.4240
103.1300, 262.2217
103.6121, 251.5721
104.0942, 245.5426
104.5764, 242.7389
105.0585, 242.0108
105.5406, 245.1768
106.0227, 250.2780
106.5048, 250.8265
106.9869, 243.4338
107.4691, 235.9132
107.9512, 232.4666
108.4333, 232.0009
108.9154, 231.6713
109.3975, 228.7608
109.8796, 222.6336
110.3617, 218.0377
110.8439, 215.5828
111.3260, 214.0587
111.8081, 213.1945
112.2902, 212.8536
112.7723, 212.9152
113.2544, 213.3294
113.7366, 215.0990
114.2187, 215.1560
114.7008, 213.4184
115.1829, 210.2099
115.6650, 205.2957
116.1471, 198.5487
116.6293, 191.1050
117.1114, 185.7210
117.5935, 182.7940
118.0756, 180.7157
118.5577, 179.1681
119.0398, 178.1987
119.5220, 178.0635
120.0041, 179.2922
120.4862, 181.0715
120.9683, 181.5824
121.4504, 180.2473
121.9325, 178.6465
122.4147, 178.1380
122.8968, 178.8152
123.3789, 179.4313
123.8610, 179.0960
124.3431, 178.4591
124.8252, 178.1834
125.3074, 178.6180
125.7895, 179.3444
126.2716, 179.5182
126.7537, 179.0746
127.2358, 178.0957
127.7179, 176.2462
128.2001, 174.0664
128.6822, 172.3185
129.1643, 171.6039
129.6464, 171.7821
130.1285, 171.0835
130.6106, 168.9360
131.0928, 166.3684
131.5749, 163.2312
132.0570, 159.8246
132.5391, 156.6642
133.0212, 154.2401
133.5033, 152.6539
133.9855, 151.1692
134.4676, 149.6274
134.9497, 148.2842
135.4318, 147.6487
135.9139, 147.6261
136.3960, 147.2390
136.8782, 145.1972
137.3603, 141.0466
137.8424, 137.5689
138.3245, 135.4885
138.8066, 133.9462
139.2887, 131.8500
139.7709, 128.8569
140.2530, 125.7655
140.7351, 123.6713
141.2172, 122.4727
141.6993, 121.3870
142.1814, 120.0059
142.6636, 118.4609
143.1457, 117.2968
143.6278, 117.0144
144.1099, 116.7088
144.5920, 115.4359
145.0741, 113.2172
145.5563, 111.0740
146.0384, 109.9028
146.5205, 109.7810
147.0026, 109.9803
147.4847, 111.2395
147.9668, 112.2260
148.4490, 112.0293
148.9311, 110.5043
149.4132, 108.3595
149.8953, 106.6360
150.3774, 105.4779
150.8595, 104.4770
151.3417, 103.4045
151.8238, 102.5402
152.3059, 102.2687
152.7880, 102.7053
153.2701, 103.4619
153.7522, 103.5519
154.2344, 102.3167
154.7165, 101.0792
155.1986, 99.70547
155.6807, 98.39709
156.1628, 97.43705
156.6449, 96.98921
157.1271, 96.92300
157.6092, 96.71663
158.0913, 96.51694
158.5734, 96.05863
159.0555, 94.99776
159.5376, 93.57711
160.0198, 92.42734
160.5019, 91.90388
160.9840, 91.94662
161.4661, 92.15614
161.9482, 92.81119
162.4303, 93.34278
162.9125, 93.30058
163.3946, 92.70525
163.8767, 92.01353
164.3588, 91.44594
164.8409, 90.96919
165.3230, 90.49366
165.8052, 89.85837
166.2873, 89.35612
166.7694, 89.64691
167.2515, 91.14406
167.7336, 91.99515
168.2157, 90.47739
168.6979, 88.04813
169.1800, 86.47483
169.6621, 86.81364
170.1442, 88.26516
170.6263, 88.51755
171.1084, 86.82356
171.5906, 85.03925
172.0727, 83.48301
172.5548, 82.27415
173.0369, 81.60702
173.5190, 81.67751
174.0011, 82.38358
174.4833, 82.86604
174.9654, 83.08134
175.4475, 83.07648
175.9296, 82.70072
176.4117, 82.11243
176.8938, 81.57561
177.3760, 81.29246
177.8581, 81.26994
178.3402, 81.23415
178.8223, 81.17582
179.3044, 81.11542
179.7865, 81.07534
180.2687, 81.04335
180.7508, 80.99529
181.2329, 80.92586
181.7150, 80.83955
182.1971, 80.55199
182.6792, 79.72633
183.1614, 79.00466
183.6435, 78.78571
184.1256, 79.07246
184.6077, 79.59666
185.0898, 80.20409
185.5719, 80.88663
186.0540, 81.27934
186.5362, 81.28294
187.0183, 81.04318
187.5004, 80.61236
187.9825, 79.98177
188.4646, 79.37392
188.9467, 78.92387
189.4289, 78.64689
189.9110, 78.67078
190.3931, 79.24080
190.8752, 80.06594
191.3573, 80.71159
191.8394, 81.12929
192.3216, 81.41316
192.8037, 81.64314
193.2858, 81.80711
193.7679, 81.85099
194.2500, 81.58573
194.7321, 81.16393
195.2143, 81.16725
195.6964, 82.04643
196.1785, 82.64183
196.6606, 81.88537
197.1427, 80.38178
197.6248, 79.49981
198.1070, 80.56258
198.5891, 83.28856
199.0712, 84.77306
199.5533, 83.98466
200.0354, 82.98299
200.5175, 82.37372
200.9997, 82.17003
201.4818, 82.29865
201.9639, 82.77699
202.4460, 83.61831
202.9281, 84.27188
203.4102, 84.59165
203.8924, 84.83685
204.3745, 85.09003
204.8566, 85.33345
205.3387, 85.49208
205.8208, 85.48930
206.3029, 85.30275
206.7851, 85.16414
207.2672, 84.90309
207.7493, 84.83672
208.2314, 85.30394
208.7135, 86.14221
209.1956, 86.82584
209.6778, 86.82813
210.1599, 86.00249
210.6420, 85.65737
211.1241, 85.96115
211.6062, 86.49023
212.0883, 87.05587
212.5705, 87.64159
213.0526, 88.34226
213.5347, 89.31248
214.0168, 90.60579
214.4989, 91.36948
214.9810, 91.38309
215.4632, 91.09596
215.9453, 90.63464
216.4274, 90.06010
216.9095, 89.67500
217.3916, 89.78698
217.8737, 90.42260
218.3559, 90.97611
218.8380, 91.48660
219.3201, 91.88598
219.8022, 92.01073
220.2843, 91.84999
220.7664, 91.80486
221.2486, 92.33266
221.7307, 93.28050
222.2128, 93.95979
222.6949, 93.97324
223.1770, 93.82970
223.6591, 94.20469
224.1413, 95.20115
224.6234, 96.11752
225.1055, 96.22382
225.5876, 95.89919
226.0697, 95.83588
226.5518, 96.40087
227.0340, 97.22657
227.5161, 97.78326
227.9982, 98.03461
228.4803, 98.13604
228.9624, 98.15435
229.4445, 98.08738
229.9267, 97.88003
230.4088, 97.36775
230.8909, 96.82442
231.3730, 96.85088
231.8551, 97.68254
232.3372, 98.49422
232.8194, 98.93053
233.3015, 99.16461
233.7836, 99.36185
234.2657, 99.55151
234.7478, 99.80490
235.2299, 100.3284
235.7121, 101.3249
236.1942, 102.1866
236.6763, 102.9644
237.1584, 103.4587
237.6405, 103.3486
238.1227, 102.4278
238.6048, 101.0779
239.0869, 100.2510
239.5690, 100.0378
240.0511, 100.2605
240.5332, 101.2726
241.0154, 102.4550
241.4975, 103.1776
241.9796, 103.1700
242.4617, 102.6494
242.9438, 102.1236
243.4259, 101.4337
243.9081, 101.0149
244.3902, 101.0336
244.8723, 101.2551
245.3544, 101.5102
245.8365, 101.7272
246.3186, 101.8578
246.8007, 101.7958
247.2829, 101.5276
247.7650, 101.0426
248.2471, 100.0735
248.7292, 99.03944
249.2113, 98.40859
249.6934, 98.32033
250.1756, 98.44019
250.6577, 98.10014
251.1398, 96.75683
251.6219, 95.72704
252.1040, 94.96204
252.5861, 94.52309
253.0683, 94.71101
253.5504, 95.54869
254.0325, 96.42091
254.5146, 96.29151
254.9967, 94.41985
255.4788, 92.82859
255.9610, 91.35333
256.4431, 90.24979
256.9252, 89.94413
257.4073, 90.48566
257.8894, 91.23379
258.3716, 91.31319
258.8537, 90.37331
259.3358, 89.61195
259.8179, 89.24532
260.3000, 88.92577
260.7821, 88.22146
261.2643, 87.08717
261.7464, 86.04463
262.2285, 85.71989
262.7106, 86.32909
263.1927, 86.66254
263.6748, 86.58450
264.1570, 86.29817
264.6391, 85.94751
265.1212, 85.55348
265.6033, 85.09184
266.0854, 84.48050
266.5675, 83.72336
267.0497, 83.26826
267.5318, 83.35492
268.0139, 83.58921
268.4960, 83.51834
268.9781, 83.15354
269.4602, 83.14787
269.9424, 84.24976
270.4245, 86.22578
270.9066, 87.34845
271.3887, 87.13167
271.8708, 86.38910
272.3529, 85.53738
272.8351, 84.61473
273.3172, 83.92376
273.7993, 83.67848
274.2814, 83.82587
274.7635, 84.06276
275.2456, 84.47266
275.7278, 84.87199
276.2099, 85.06877
276.6920, 85.09698
277.1741, 85.24678
277.6562, 85.70554
278.1383, 86.34528
278.6204, 86.88735
279.1025, 87.34636
279.5847, 87.68784
280.0668, 87.83846
280.5489, 87.82832
281.0310, 87.81237
281.5131, 87.76625
281.9952, 87.83305
282.4774, 88.25711
282.9595, 89.12025
283.4416, 89.85557
283.9237, 90.04378
284.4058, 89.79690
284.8879, 89.57715
285.3701, 89.47960
285.8522, 89.46753
286.3343, 89.48223
286.8164, 89.52352
287.2985, 89.63843
287.7806, 89.86619
288.2628, 90.18977
288.7449, 90.56187
289.2270, 91.00578
289.7091, 91.44566
290.1912, 91.84297
290.6733, 92.19427
291.1555, 92.48506
291.6376, 92.77995
292.1197, 93.00198
292.6018, 92.96517
293.0839, 92.63956
293.5660, 92.09277
294.0482, 91.21474
294.5303, 90.17210
295.0124, 89.25186
295.4945, 88.52621
295.9766, 88.01694
296.4587, 87.92424
296.9409, 88.47578
297.4230, 88.65619
297.9051, 87.60046
298.3872, 85.96691
298.8693, 84.47791
299.3514, 83.35677
299.8336, 82.42297
300.3157, 81.37096
300.7978, 80.12886
301.2799, 79.17854
301.7620, 79.18877
302.2441, 79.32092
302.7263, 78.73338
303.2084, 77.18839
303.6905, 75.43385
304.1726, 74.14768
304.6547, 73.33983
305.1368, 72.86671
305.6190, 72.97469
306.1011, 73.19392
306.5832, 73.21386
307.0653, 73.00827
307.5474, 72.60555
308.0295, 71.83527
308.5117, 70.75979
308.9938, 70.15289
309.4759, 70.36468
309.9580, 70.80038
310.4401, 71.15013
310.9222, 71.38860
311.4044, 71.45040
311.8865, 70.98903
312.3686, 70.24272
312.8507, 70.38727
313.3328, 72.04645
313.8149, 73.54482
314.2971, 73.93374
314.7792, 73.56615
315.2613, 73.05223
315.7434, 72.57092
316.2255, 72.17651
316.7076, 72.00227
317.1898, 72.09651
317.6719, 72.27761
318.1540, 72.50299
318.6361, 72.75468
319.1182, 72.99801
319.6003, 73.20082
320.0825, 73.45729
320.5646, 73.99564
321.0467, 74.90308
321.5288, 75.53255
322.0109, 75.45151
322.4930, 75.13584
322.9752, 74.86575
323.4573, 74.67993
323.9394, 74.69996
324.4215, 75.24916
324.9036, 76.30568
325.3857, 76.85674
325.8679, 76.41045
326.3500, 75.69792
326.8321, 75.24069
327.3142, 75.01668
327.7963, 74.79455
328.2784, 74.27029
328.7606, 73.57365
329.2427, 73.37620
329.7248, 73.92827
330.2069, 74.62415
330.6890, 75.24862
331.1711, 75.73380
331.6533, 75.90536
332.1354, 75.53266
332.6175, 74.87447
333.0996, 74.45445
333.5817, 74.31641
334.0638, 74.27077
334.5460, 74.52269
335.0281, 74.71083
335.5102, 74.26447
335.9923, 72.76958
336.4744, 71.21519
336.9565, 71.05348
337.4387, 72.40418
337.9208, 73.08802
338.4029, 71.81187
338.8850, 69.95100
339.3671, 68.86022
339.8492, 68.67506
340.3314, 68.74004
340.8135, 68.56404
341.2956, 68.20132
341.7777, 68.01398
342.2598, 68.13362
342.7419, 68.35230
343.2241, 68.55125
343.7062, 68.71349
344.1883, 68.72664
344.6704, 68.39212
345.1525, 67.89429
345.6346, 67.67400
346.1168, 67.83217
346.5989, 68.01384
347.0810, 67.99191
347.5631, 67.81431
348.0452, 67.52443
348.5273, 67.03275
349.0095, 66.52376
349.4916, 66.26112
349.9737, 66.25323
350.4558, 66.12901
350.9379, 65.47679
351.4200, 64.76653
351.9022, 64.79701
352.3843, 65.85732
352.8664, 66.95313
353.3485, 67.37086
353.8306, 67.25898
354.3127, 67.25728
354.7949, 67.67827
355.2770, 68.03111
355.7591, 67.43732
356.2412, 65.90636
356.7233, 64.92868
357.2054, 65.52432
357.6876, 66.84964
358.1697, 67.50303
358.6518, 67.23619
359.1339, 66.81239
359.6160, 66.96794
360.0981, 67.56741
360.5803, 67.86362
361.0624, 67.37434
361.5445, 66.84527
362.0266, 66.85950
362.5087, 67.39769
362.9908, 68.29266
363.4730, 69.69198
363.9551, 71.22966
364.4372, 71.82811
364.9193, 70.99510
365.4014, 70.13391
365.8835, 69.85752
366.3657, 69.95596
366.8478, 69.99635
367.3299, 69.82548
367.8120, 69.59757
368.2941, 69.57233
368.7762, 69.79884
369.2584, 69.99119
369.7405, 70.09771
370.2226, 70.16009
370.7047, 70.21117
371.1868, 70.25739
371.6689, 70.29765
372.1511, 70.32104
372.6332, 70.32760
373.1153, 70.41373
373.5974, 70.80092
374.0795, 71.04648
374.5616, 70.83364
375.0438, 70.30135
375.5259, 69.80325
376.0080, 69.53096
376.4901, 69.43855
376.9722, 69.37199
377.4543, 69.41151
377.9365, 69.37340
378.4186, 69.08815
378.9007, 68.78334
379.3828, 68.84080
379.8649, 69.32844
380.3470, 69.78405
380.8292, 69.53373
381.3113, 68.27512
381.7934, 67.16578
382.2755, 65.97626
382.7576, 65.10539
383.2397, 64.98940
383.7219, 65.44781
384.2040, 65.88171
384.6861, 65.80377
385.1682, 65.25532
385.6503, 64.89109
386.1324, 65.11152
386.6146, 65.07293
387.0967, 64.34975
387.5788, 63.37964
388.0609, 62.70756
388.5430, 62.56814
389.0251, 62.80032
389.5073, 63.13801
389.9894, 63.81684
390.4715, 64.08144
390.9536, 63.64861
391.4357, 63.04232
391.9178, 62.59129
392.4000, 62.31997
392.8821, 62.03387
393.3642, 61.44521
393.8463, 60.52849
394.3284, 60.18552
394.8105, 60.99675
395.2927, 61.73271
395.7748, 62.00698
396.2569, 61.92112
396.7390, 61.64817
397.2211, 61.23895
397.7032, 60.76713
398.1854, 60.44065
398.6675, 60.36366
399.1496, 60.11060
399.6317, 59.01449
400.1138, 58.03088
400.5959, 58.10146
401.0780, 59.36097
401.5602, 60.73957
402.0423, 61.31510
402.5244, 61.12881
403.0065, 60.54087
403.4886, 59.17867
403.9707, 58.03649
404.4529, 57.98167
404.9350, 58.69036
405.4171, 59.25986
405.8992, 59.24422
406.3813, 58.89761
406.8634, 58.59306
407.3456, 58.33303
407.8277, 58.09331
408.3098, 57.91447
408.7919, 57.71648
409.2740, 57.32304
409.7561, 56.58475
410.2383, 56.01707
410.7204, 56.15593
411.2025, 56.72588
411.6846, 56.85275
412.1667, 56.21333
412.6488, 55.37611
413.1310, 55.03937
413.6131, 55.17788
414.0952, 55.40365
414.5773, 55.62109
415.0594, 55.91795
415.5415, 56.45649
416.0237, 57.20406
416.5058, 57.89509
416.9879, 58.41115
417.4700, 58.70595
417.9521, 58.53878
418.4342, 57.21727
418.9164, 56.33775
419.3985, 56.68566
419.8806, 57.63487
420.3627, 58.25905
420.8448, 58.26362
421.3269, 57.98533
421.8091, 57.92861
422.2912, 58.23304
422.7733, 58.35524
423.2554, 58.23674
423.7375, 58.00414
424.2196, 57.62901
424.7018, 57.19105
425.1839, 56.91304
425.6660, 56.98915
426.1481, 57.33161
426.6302, 57.32035
427.1123, 56.22345
427.5945, 55.68980
428.0766, 56.41266
428.5587, 57.53316
429.0408, 58.14962
429.5229, 58.00550
430.0050, 57.56170
430.4872, 57.45189
430.9693, 57.74179
431.4514, 58.09048
431.9335, 58.63480
432.4156, 59.11079
432.8977, 59.45869
433.3799, 59.65262
433.8620, 59.61436
434.3441, 59.14475
434.8262, 58.52951
435.3083, 58.76022
435.7904, 60.28733
436.2726, 61.40593
436.7547, 60.93930
437.2368, 60.08961
437.7189, 59.95107
438.2010, 60.75545
438.6831, 61.81825
439.1653, 62.58137
439.6474, 63.10069
440.1295, 63.76818
440.6116, 64.85593
441.0937, 65.67590
441.5758, 65.18905
442.0580, 63.87361
442.5401, 63.25341
443.0222, 64.38538
443.5043, 65.96404
443.9864, 66.53242
444.4685, 66.21215
444.9507, 66.21843
445.4328, 67.24905
445.9149, 68.82250
446.3970, 69.80669
446.8791, 70.03317
447.3612, 70.28181
447.8434, 70.72169
448.3255, 71.31773
448.8076, 72.04391
449.2897, 72.89433
449.7718, 73.82244
450.2539, 74.76830
450.7361, 75.73006
451.2182, 76.92005
451.7003, 78.87453
452.1824, 80.44160
452.6645, 80.71632
453.1466, 80.43023
453.6288, 80.92336
454.1109, 82.78746
454.5930, 85.28510
455.0751, 86.92054
455.5572, 87.02867
456.0393, 87.55935
456.5215, 88.59536
457.0036, 89.90540
457.4857, 91.60069
457.9678, 93.48671
458.4499, 95.04121
458.9320, 95.73824
459.4142, 95.81108
459.8963, 96.73824
460.3784, 99.23723
460.8605, 101.3036
461.3426, 102.2468
461.8247, 102.6655
462.3069, 102.9649
462.7890, 103.2500
463.2711, 103.9199
463.7532, 105.6623
464.2353, 108.3814
464.7174, 110.5626
465.1996, 111.9380
465.6817, 112.8903
466.1638, 113.7037
466.6459, 114.3420
467.1280, 114.6636
467.6101, 114.3063
468.0923, 113.8944
468.5744, 114.1958
469.0565, 115.1451
469.5386, 116.1131
470.0207, 116.9844
470.5028, 117.5781
470.9850, 117.4325
471.4671, 116.4131
471.9492, 115.5950
472.4313, 115.6013
472.9134, 115.7339
473.3955, 115.0418
473.8777, 113.5442
474.3598, 112.2902
474.8419, 112.2406
475.3240, 113.1697
475.8061, 112.8115
476.2882, 109.9661
476.7704, 107.4952
477.2525, 106.2224
477.7346, 105.5228
478.2167, 104.7030
478.6988, 103.5508
479.1809, 102.2131
479.6631, 100.8234
480.1452, 99.33805
480.6273, 98.07229
481.1094, 97.21414
481.5915, 96.39029
482.0736, 95.54946
482.5558, 94.64602
483.0379, 93.59120
483.5200, 92.31646
484.0021, 90.97519
484.4842, 89.81224
484.9663, 88.79155
485.4485, 88.10367
485.9306, 88.07179
486.4127, 88.15312
486.8948, 88.06593
487.3769, 87.78554
487.8590, 87.30132
488.3412, 86.36947
488.8233, 85.30386
489.3054, 84.80039
489.7875, 84.92248
490.2696, 85.05178
490.7517, 84.89118
491.2339, 84.52953
491.7160, 84.10613
492.1981, 83.48016
492.6802, 83.20921
493.1623, 83.85326
493.6444, 84.88123
494.1266, 85.38474
494.6087, 85.22795
495.0908, 85.15690
495.5729, 85.93413
496.0550, 87.53887
496.5371, 88.45400
497.0193, 88.03146
497.5014, 87.78184
497.9835, 88.11546
498.4656, 88.91963
498.9477, 90.16446
499.4298, 91.79806
499.9120, 93.42904
500.3941, 94.45708
500.8762, 94.73508
501.3583, 95.01688
501.8404, 95.19534
502.3225, 95.48604
502.8047, 96.07510
503.2868, 96.81709
503.7689, 97.40688
504.2510, 97.66856
504.7331, 97.83900
505.2152, 98.42892
505.6974, 99.54415
506.1795, 100.4385
506.6616, 100.9757
507.1437, 101.2054
507.6258, 101.0033
508.1079, 100.4756
508.5901, 100.1696
509.0722, 100.7084
509.5543, 101.4443
510.0364, 101.2465
510.5185, 100.1282
511.0006, 99.26513
511.4828, 99.33853
511.9649, 99.88264
512.4470, 99.95079
512.9291, 99.55701
513.4112, 98.78606
513.8933, 97.42542
514.3754, 95.83945
514.8575, 94.34866
515.3397, 93.00471
515.8218, 91.82140
516.3039, 90.80373
516.7860, 89.94778
517.2681, 89.24054
517.7502, 89.40914
518.2324, 88.79678
518.7145, 86.53731
519.1966, 83.85164
519.6787, 81.88049
520.1608, 80.80645
520.6429, 80.08029
521.1251, 79.23338
521.6072, 78.25565
522.0893, 76.94243
522.5714, 74.88850
523.0535, 73.14829
523.5356, 72.13385
524.0178, 71.55755
524.4999, 71.16428
524.9820, 70.91074
525.4641, 70.60304
525.9462, 69.96904
526.4283, 69.10658
526.9105, 68.54903
527.3926, 68.55724
527.8747, 68.30531
528.3568, 66.78348
528.8389, 64.43992
529.3210, 62.82196
529.8032, 62.50457
530.2853, 62.46646
530.7674, 62.23156
531.2495, 61.87374
531.7316, 61.56055
532.2137, 61.34090
532.6959, 61.08369
533.1780, 60.61951
533.6601, 59.90942
534.1422, 59.22318
534.6243, 58.50219
535.1064, 57.85857
535.5886, 57.35757
536.0707, 56.95602
536.5528, 56.54425
537.0349, 56.08693
537.5170, 55.73914
537.9991, 55.85518
538.4813, 56.59728
538.9634, 56.96108
539.4455, 56.66476
539.9276, 56.23254
540.4097, 55.85402
540.8918, 55.52795
541.3740, 55.22842
541.8561, 54.93514
542.3382, 54.68655
542.8203, 54.46215
543.3024, 54.28693
543.7845, 54.49327
544.2667, 55.37288
544.7488, 56.24267
545.2309, 56.24037
545.7130, 55.46658
546.1951, 54.73394
546.6772, 53.92519
547.1594, 53.41581
547.6415, 53.70350
548.1236, 54.48107
548.6057, 54.88970
549.0878, 54.56188
549.5699, 54.08947
550.0521, 54.49830
550.5342, 56.20870
551.0163, 57.51993
551.4984, 58.52369
551.9805, 59.09816
552.4626, 58.85783
552.9448, 58.21144
553.4269, 57.88621
553.9090, 58.23347
554.3911, 58.98179
554.8732, 59.72687
555.3553, 60.49792
555.8375, 61.07809
556.3196, 61.38253
556.8017, 61.54266
557.2838, 61.63985
557.7659, 61.67516
558.2480, 61.65010
558.7302, 61.58216
559.2123, 61.43380
559.6944, 61.09404
560.1765, 60.61962
560.6586, 60.27563
561.1407, 60.15430
561.6229, 60.14898
562.1050, 60.12138
562.5871, 60.05769
563.0692, 60.11250
563.5513, 60.59668
564.0334, 60.88824
564.5156, 60.49087
564.9977, 59.71225
565.4798, 59.11808
565.9619, 58.93473
566.4440, 58.97081
566.9261, 58.93469
567.4083, 58.81351
567.8904, 58.67006
568.3725, 58.34845
568.8546, 58.17283
569.3367, 58.34299
569.8188, 58.71171
570.3010, 59.07559
570.7831, 59.39063
571.2652, 59.53505
571.7473, 59.23375
572.2294, 58.56401
572.7115, 58.14837
573.1937, 58.10735
573.6758, 58.29387
574.1579, 58.87578
574.6400, 59.62944
575.1221, 59.65789
575.6042, 58.11417
576.0864, 56.69628
576.5685, 56.29134
577.0506, 56.55619
577.5327, 57.03217
578.0148, 57.57872
578.4969, 58.04508
578.9791, 58.27011
579.4612, 58.24928
579.9433, 58.10366
580.4254, 57.83561
580.9075, 57.43216
581.3896, 56.63229
581.8718, 55.82637
582.3539, 55.48336
582.8360, 55.68293
583.3181, 56.06073
583.8002, 56.27654
584.2823, 56.35276
584.7645, 56.44205
585.2466, 56.52949
585.7287, 56.68044
586.2108, 57.04762
586.6929, 57.43946
587.1750, 57.53945
587.6572, 57.25180
588.1393, 56.99606
588.6214, 56.89561
589.1035, 56.97015
