##NAMES=Braunite
##RRUFFID=R050385
##IDEAL CHEMISTRY=Mn^2+^Mn^3+^_6_SiO_12_
##LOCALITY=Jhabua District, Madhya Pradesh, India
##OWNER=RRUFF
##SOURCE=University of Arizona Mineral Museum
##DESCRIPTION=Black prismatic crystals
##STATUS=The identification of this mineral has been confirmed by X-ray diffraction and chemical analysis
##URL=rruff.info/R050385
##MEASURED CHEMISTRY=(Fe^2+^_0.61_Mn^2+^_0.39_)_Σ=1_(Mn^3+^_5.94_Al_0.06_)_Σ=6_Si_1.00_O_12_
92.35352, 13.35223
92.83563, 14.40508
93.31775, 14.85415
93.79987, 14.22239
94.28198, 12.92376
94.76410, 12.20091
95.24622, 12.46230
95.72833, 13.25786
96.21045, 13.61747
96.69257, 13.51955
97.17468, 13.36450
97.65680, 13.59352
98.13892, 14.19658
98.62103, 14.60646
99.10315, 14.65024
99.58527, 14.37009
100.0674, 13.92335
100.5495, 13.16678
101.0316, 12.56842
101.5137, 12.78185
101.9958, 13.99231
102.4780, 15.37273
102.9601, 16.73490
103.4422, 18.12074
103.9243, 19.15957
104.4064, 19.63880
104.8885, 19.91185
105.3707, 20.64520
105.8528, 22.02217
106.3349, 23.59547
106.8170, 25.20829
107.2991, 26.91479
107.7813, 28.56023
108.2634, 30.16706
108.7455, 31.72383
109.2276, 33.13505
109.7097, 34.34301
110.1918, 35.45884
110.6740, 36.53020
111.1561, 37.30538
111.6382, 38.32009
112.1203, 39.65267
112.6024, 41.28522
113.0845, 43.03674
113.5667, 44.85483
114.0488, 46.78772
114.5309, 48.89009
115.0130, 51.73495
115.4951, 54.19838
115.9772, 55.64206
116.4594, 56.11341
116.9415, 57.02444
117.4236, 59.14125
117.9057, 61.89074
118.3878, 64.64738
118.8699, 67.12084
119.3521, 69.62089
119.8342, 72.30370
120.3163, 75.16934
120.7984, 78.32285
121.2805, 81.68530
121.7626, 85.38781
122.2448, 89.65456
122.7269, 96.39839
123.2090, 102.8837
123.6911, 105.9701
124.1732, 104.7728
124.6553, 102.4985
125.1375, 101.7993
125.6196, 102.3991
126.1017, 103.4237
126.5838, 104.5930
127.0659, 105.8074
127.5480, 106.9598
128.0302, 108.1436
128.5123, 109.0505
128.9944, 109.0359
129.4765, 108.1878
129.9586, 107.3299
130.4407, 107.5809
130.9229, 108.4763
131.4050, 107.9339
131.8871, 105.0365
132.3692, 100.9622
132.8513, 98.36473
133.3334, 97.15448
133.8156, 96.29245
134.2977, 95.30718
134.7798, 94.53267
135.2619, 94.18266
135.7440, 94.38762
136.2261, 95.03908
136.7083, 95.49166
137.1904, 95.53549
137.6725, 96.01884
138.1546, 98.66257
138.6367, 104.3382
139.1188, 107.3948
139.6010, 105.7651
140.0831, 99.46370
140.5652, 94.39772
141.0473, 90.73284
141.5294, 87.93368
142.0115, 85.32455
142.4937, 82.68844
142.9758, 80.65549
143.4579, 79.40599
143.9400, 79.00874
144.4221, 79.06294
144.9042, 79.69635
145.3864, 80.69355
145.8685, 81.68073
146.3506, 82.64870
146.8327, 83.62917
147.3148, 84.68659
147.7969, 86.02644
148.2791, 86.97201
148.7612, 87.49486
149.2433, 87.63647
149.7254, 87.47049
150.2075, 86.16878
150.6896, 85.28056
151.1718, 85.41975
151.6539, 87.70116
152.1360, 89.37199
152.6181, 90.10143
153.1002, 90.14746
153.5823, 90.27380
154.0645, 91.25130
154.5466, 91.80862
155.0287, 91.34996
155.5108, 88.97535
155.9929, 86.58742
156.4750, 84.39864
156.9572, 82.39902
157.4393, 80.60905
157.9214, 78.92374
158.4035, 77.49086
158.8856, 76.39584
159.3677, 75.48766
159.8499, 75.08031
160.3320, 75.49092
160.8141, 76.59200
161.2962, 77.63908
161.7783, 78.60362
162.2604, 79.28822
162.7426, 79.53038
163.2247, 78.87016
163.7068, 78.12199
164.1889, 77.62450
164.6710, 77.37383
165.1531, 77.20406
165.6353, 76.88774
166.1174, 76.65755
166.5995, 76.76401
167.0816, 77.77910
167.5637, 78.80055
168.0458, 79.05534
168.5280, 78.53651
169.0101, 78.25169
169.4922, 79.37450
169.9743, 81.02930
170.4564, 81.98487
170.9385, 81.56483
171.4207, 80.33994
171.9028, 78.53114
172.3849, 76.11962
172.8670, 73.92027
173.3491, 72.44414
173.8312, 71.61163
174.3134, 71.27193
174.7955, 71.83010
175.2776, 72.63909
175.7597, 72.82152
176.2418, 72.26580
176.7239, 71.67786
177.2061, 71.79040
177.6882, 72.40427
178.1703, 72.97337
178.6524, 73.17390
179.1345, 73.18085
179.6166, 73.29744
180.0988, 73.55905
180.5809, 73.83796
181.0630, 74.04715
181.5451, 74.17097
182.0272, 74.13749
182.5093, 73.62214
182.9915, 72.93205
183.4736, 72.80652
183.9557, 73.30772
184.4378, 74.31590
184.9199, 76.01104
185.4020, 78.24538
185.8842, 80.19405
186.3663, 81.37825
186.8484, 81.89634
187.3305, 82.00288
187.8126, 81.66325
188.2947, 81.06590
188.7769, 80.26911
189.2590, 79.30318
189.7411, 78.81802
190.2232, 79.44734
190.7053, 81.00333
191.1874, 82.23505
191.6696, 82.95942
192.1517, 83.50799
192.6338, 84.62382
193.1159, 86.33368
193.5980, 87.89922
194.0801, 88.84447
194.5623, 89.20136
195.0444, 89.39072
195.5265, 89.34686
196.0086, 89.29191
196.4907, 89.65184
196.9728, 90.42559
197.4550, 91.60790
197.9371, 93.48022
198.4192, 96.06371
198.9013, 97.92689
199.3834, 98.77232
199.8655, 99.00655
200.3477, 99.57662
200.8298, 100.5002
201.3119, 101.6869
201.7940, 103.1975
202.2761, 105.0780
202.7582, 106.7557
203.2404, 108.1419
203.7225, 109.3256
204.2046, 110.5124
204.6867, 111.6716
205.1688, 112.9473
205.6509, 114.4429
206.1331, 116.1983
206.6152, 117.9593
207.0973, 119.7014
207.5794, 121.4376
208.0615, 123.1854
208.5436, 124.9112
209.0258, 126.7463
209.5079, 128.8647
209.9900, 131.4066
210.4721, 133.4999
210.9542, 134.9366
211.4363, 135.9230
211.9185, 137.1740
212.4006, 138.7905
212.8827, 140.4634
213.3648, 142.0282
213.8469, 143.5765
214.3290, 144.7680
214.8112, 145.6355
215.2933, 146.1113
215.7754, 145.8957
216.2575, 144.7295
216.7396, 143.3555
217.2217, 142.1875
217.7038, 141.2400
218.1860, 140.5035
218.6681, 140.1737
219.1502, 140.0314
219.6323, 139.1942
220.1144, 137.3324
220.5965, 135.3571
221.0787, 133.8059
221.5608, 132.8203
222.0429, 131.8687
222.5250, 130.8410
223.0071, 129.8369
223.4892, 129.3324
223.9714, 129.6732
224.4535, 129.9648
224.9356, 129.6351
225.4177, 128.2235
225.8998, 127.3095
226.3819, 127.0120
226.8641, 127.2558
227.3462, 127.8684
227.8283, 129.1622
228.3104, 130.3452
228.7925, 131.0160
229.2746, 131.1306
229.7568, 130.7955
230.2389, 129.7820
230.7210, 128.3528
231.2031, 127.3895
231.6852, 127.0747
232.1673, 126.9531
232.6495, 126.8317
233.1316, 126.7588
233.6137, 126.5832
234.0958, 126.3300
234.5779, 125.9690
235.0600, 125.4028
235.5422, 124.5265
236.0243, 123.5884
236.5064, 122.7246
236.9885, 122.1090
237.4706, 121.1522
237.9527, 119.6328
238.4349, 117.8434
238.9170, 116.5263
239.3991, 115.7799
239.8812, 115.3602
240.3633, 115.2724
240.8454, 115.9199
241.3276, 115.8394
241.8097, 114.5754
242.2918, 112.7536
242.7739, 111.8211
243.2560, 112.3672
243.7381, 112.8882
244.2203, 112.7071
244.7024, 111.3075
245.1845, 110.7004
245.6666, 111.2168
246.1487, 112.3681
246.6308, 113.2566
247.1130, 113.8804
247.5951, 114.2393
248.0772, 114.2394
248.5593, 113.6745
249.0414, 113.5490
249.5235, 114.1832
250.0057, 115.0534
250.4878, 115.3151
250.9699, 114.8598
251.4520, 113.9704
251.9341, 112.6059
252.4162, 110.5646
252.8984, 109.0664
253.3805, 108.4475
253.8626, 108.1047
254.3447, 107.1655
254.8268, 105.4304
255.3089, 103.4737
255.7911, 101.3877
256.2732, 99.10817
256.7553, 97.15642
257.2374, 95.56361
257.7195, 94.26378
258.2017, 93.21783
258.6838, 92.55821
259.1659, 91.83002
259.6480, 90.89788
260.1301, 89.76231
260.6122, 88.60550
261.0944, 87.31173
261.5765, 86.13629
262.0586, 85.39561
262.5407, 85.26225
263.0228, 85.08515
263.5049, 84.68843
263.9871, 84.08438
264.4692, 83.69827
264.9513, 83.63774
265.4334, 83.61816
265.9155, 83.34412
266.3976, 82.72594
266.8798, 82.16378
267.3619, 81.69699
267.8440, 81.33620
268.3261, 81.17850
268.8082, 81.18317
269.2903, 81.47292
269.7725, 82.33208
270.2546, 83.99928
270.7367, 85.04769
271.2188, 85.08624
271.7009, 84.38213
272.1830, 84.10543
272.6652, 84.40095
273.1473, 84.73166
273.6294, 84.61579
274.1115, 83.90813
274.5936, 83.72501
275.0757, 84.37295
275.5579, 85.47525
276.0400, 85.81499
276.5221, 85.19138
277.0042, 84.61334
277.4863, 84.80241
277.9684, 85.83761
278.4506, 86.53291
278.9327, 86.77017
279.4148, 86.67796
279.8969, 86.45419
280.3790, 86.06994
280.8611, 85.76160
281.3433, 85.67169
281.8254, 85.79943
282.3075, 85.96008
282.7896, 86.16129
283.2717, 86.36839
283.7538, 86.51195
284.2360, 86.58916
284.7181, 86.68548
285.2002, 86.81474
285.6823, 86.98438
286.1644, 87.30857
286.6465, 87.82646
287.1287, 88.34402
287.6108, 88.43968
288.0929, 88.15410
288.5750, 88.26343
289.0571, 89.26291
289.5392, 90.89694
290.0214, 92.04408
290.5035, 92.63989
290.9856, 93.24169
291.4677, 94.50645
291.9498, 96.34402
292.4319, 98.17409
292.9141, 99.98187
293.3962, 101.5995
293.8783, 102.5330
294.3604, 102.7707
294.8425, 102.7975
295.3246, 102.9820
295.8068, 103.2914
296.2889, 103.6551
296.7710, 104.2087
297.2531, 104.6343
297.7352, 104.4828
298.2173, 103.7564
298.6995, 102.4243
299.1816, 99.97671
299.6637, 96.94471
300.1458, 94.57067
300.6279, 93.22145
301.1100, 92.22298
301.5922, 90.85920
302.0743, 89.16283
302.5564, 87.27831
303.0385, 85.05315
303.5206, 82.75896
304.0027, 80.69557
304.4849, 78.88951
304.9670, 77.44503
305.4491, 76.60259
305.9312, 76.22900
306.4133, 76.00484
306.8954, 76.17036
307.3776, 76.19552
307.8597, 75.27762
308.3418, 73.25874
308.8239, 71.51365
309.3060, 71.29513
309.7881, 71.97813
310.2703, 72.58000
310.7524, 72.77165
311.2345, 72.69305
311.7166, 72.16106
312.1987, 71.21600
312.6808, 70.79003
313.1630, 72.01258
313.6451, 73.80116
314.1272, 74.99962
314.6093, 74.79243
315.0914, 74.30658
315.5735, 74.00774
316.0557, 73.87321
316.5378, 73.78539
317.0199, 73.41844
317.5020, 73.23805
317.9841, 73.62518
318.4662, 75.05440
318.9484, 76.46788
319.4305, 77.52934
319.9126, 78.31379
320.3947, 79.01784
320.8768, 79.75386
321.3589, 80.38268
321.8411, 80.78423
322.3232, 80.76152
322.8053, 80.95107
323.2874, 81.49479
323.7695, 82.31932
324.2516, 83.30862
324.7338, 84.88835
325.2159, 86.22163
325.6980, 86.95685
326.1801, 86.91483
326.6622, 87.02493
327.1443, 87.37707
327.6265, 87.89968
328.1086, 88.52370
328.5907, 89.15549
329.0728, 89.98270
329.5549, 90.99932
330.0370, 92.21067
330.5192, 93.76245
331.0013, 96.02715
331.4834, 98.32857
331.9655, 100.2430
332.4476, 101.7929
332.9297, 102.9019
333.4119, 103.3919
333.8940, 103.4130
334.3761, 103.6709
334.8582, 104.4809
335.3403, 105.0202
335.8224, 104.7453
336.3046, 103.2012
336.7867, 102.2932
337.2688, 102.4782
337.7509, 102.9925
338.2330, 102.1481
338.7151, 99.56900
339.1973, 96.82643
339.6794, 94.49439
340.1615, 92.61290
340.6436, 90.66776
341.1257, 88.60654
341.6078, 86.64259
342.0899, 85.11385
342.5721, 84.07946
343.0542, 83.02284
343.5363, 81.69710
344.0184, 80.25033
344.5005, 79.40089
344.9826, 79.22139
345.4648, 79.16051
345.9469, 78.68356
346.4290, 77.84267
346.9111, 77.12263
347.3932, 76.66115
347.8753, 76.29514
348.3575, 75.65844
348.8396, 74.78111
349.3217, 73.98734
349.8038, 73.58178
350.2859, 73.42361
350.7680, 73.12066
351.2502, 72.56818
351.7323, 72.09267
352.2144, 72.26444
352.6965, 72.86342
353.1786, 73.21891
353.6607, 72.74056
354.1429, 71.95274
354.6250, 71.57213
355.1071, 71.64331
355.5892, 71.67190
356.0713, 71.10527
356.5534, 70.28795
357.0356, 69.72800
357.5177, 69.64999
357.9998, 69.86094
358.4819, 70.34956
358.9640, 71.06535
359.4461, 71.71491
359.9283, 72.31551
360.4104, 72.69203
360.8925, 72.62837
361.3746, 71.67924
361.8567, 70.97209
362.3388, 71.18991
362.8210, 71.99147
363.3031, 72.60638
363.7852, 72.72330
364.2673, 72.65409
364.7494, 72.48372
365.2315, 72.14268
365.7137, 71.99275
366.1958, 72.20785
366.6779, 72.61607
367.1600, 73.01740
367.6421, 73.56142
368.1242, 73.91927
368.6064, 73.92012
369.0885, 73.53816
369.5706, 73.37171
370.0527, 73.63065
370.5348, 73.94234
371.0169, 74.05085
371.4991, 73.71288
371.9812, 73.59817
372.4633, 73.89691
372.9454, 74.44627
373.4275, 74.63095
373.9096, 74.22533
374.3918, 73.85301
374.8739, 73.86604
375.3560, 74.41972
375.8381, 74.61336
376.3202, 74.29236
376.8023, 73.80915
377.2845, 73.78776
377.7666, 74.34800
378.2487, 74.69561
378.7308, 74.43746
379.2129, 73.70612
379.6950, 73.55350
380.1772, 74.10005
380.6593, 74.59526
381.1414, 74.21274
381.6235, 73.05368
382.1056, 71.98872
382.5877, 71.12276
383.0699, 70.55467
383.5520, 70.71618
384.0341, 71.52457
384.5162, 72.12206
384.9983, 71.69484
385.4804, 70.70280
385.9626, 70.20253
386.4447, 70.36929
386.9268, 70.64375
387.4089, 70.35182
387.8910, 69.72671
388.3731, 69.30003
388.8553, 69.41012
389.3374, 69.76158
389.8195, 70.20232
390.3016, 70.70232
390.7837, 70.96483
391.2658, 70.63910
391.7480, 70.04470
392.2301, 69.50946
392.7122, 69.12860
393.1943, 68.81703
393.6764, 68.50856
394.1585, 68.23704
394.6407, 68.10197
395.1228, 68.17553
395.6049, 68.36162
396.0870, 68.69311
396.5691, 69.32079
397.0512, 69.60002
397.5334, 69.16850
398.0155, 68.39822
398.4976, 67.76141
398.9797, 67.42662
399.4618, 67.09097
399.9439, 66.60809
400.4261, 65.97924
400.9082, 65.70072
401.3903, 66.03672
401.8724, 66.47018
402.3545, 66.69287
402.8366, 66.71588
403.3188, 66.47031
403.8009, 65.80000
404.2830, 64.92508
404.7651, 64.44131
405.2472, 64.48153
405.7293, 64.54544
406.2115, 64.38200
406.6936, 63.98003
407.1757, 63.85340
407.6578, 64.07915
408.1399, 64.37231
408.6220, 64.48150
409.1042, 64.40425
409.5863, 63.93986
410.0684, 62.77441
410.5505, 61.39365
411.0326, 61.11098
411.5147, 61.89034
411.9969, 62.62952
412.4790, 62.37814
412.9611, 61.51363
413.4432, 60.92513
413.9253, 60.73068
414.4074, 60.79995
414.8896, 61.06211
415.3717, 61.48000
415.8538, 61.96695
416.3359, 62.59341
416.8180, 63.19517
417.3001, 63.67266
417.7823, 64.02139
418.2644, 64.10133
418.7465, 63.43745
419.2286, 62.65260
419.7107, 62.38866
420.1928, 63.32533
420.6750, 64.10513
421.1571, 63.93232
421.6392, 63.18832
422.1213, 62.86791
422.6034, 63.72306
423.0855, 64.63610
423.5677, 65.15337
424.0498, 65.15228
424.5319, 65.05743
425.0140, 64.80264
425.4961, 64.51601
425.9782, 64.32925
426.4604, 64.33865
426.9425, 64.30234
427.4246, 64.11272
427.9067, 63.82222
428.3888, 63.86023
428.8709, 64.46584
429.3531, 64.97826
429.8352, 64.97059
430.3173, 64.31150
430.7994, 63.76799
431.2815, 63.31559
431.7636, 63.05385
432.2458, 63.28768
432.7279, 64.05733
433.2100, 64.62508
433.6921, 64.66133
434.1742, 64.30453
434.6563, 64.03830
435.1385, 63.85944
435.6206, 63.74426
436.1027, 63.75983
436.5848, 63.82582
437.0669, 63.66201
437.5490, 63.10337
438.0312, 62.58498
438.5133, 62.58383
438.9954, 63.01998
439.4775, 63.67095
439.9596, 64.62816
440.4417, 65.62005
440.9239, 66.48871
441.4060, 67.22572
441.8881, 67.60994
442.3702, 67.16063
442.8523, 66.45608
443.3344, 66.05244
443.8166, 66.34279
444.2987, 66.66608
444.7808, 66.64778
445.2629, 66.48426
445.7450, 66.75471
446.2271, 68.05236
446.7093, 69.38167
447.1914, 70.35541
447.6735, 70.85638
448.1556, 71.33568
448.6377, 71.75338
449.1198, 72.17104
449.6020, 72.63522
450.0841, 73.06007
450.5662, 73.70955
451.0483, 74.73439
451.5304, 76.01369
452.0125, 76.98138
452.4947, 77.60909
452.9768, 78.03803
453.4589, 78.16771
453.9410, 77.98161
454.4231, 78.52120
454.9052, 79.94717
455.3874, 81.66372
455.8695, 82.91740
456.3516, 83.77180
456.8337, 84.64046
457.3158, 85.60471
457.7979, 86.71887
458.2801, 88.21143
458.7622, 90.01753
459.2443, 91.73443
459.7264, 92.81659
460.2085, 93.73669
460.6906, 95.20111
461.1728, 97.43408
461.6549, 99.61979
462.1370, 100.9251
462.6191, 101.8348
463.1012, 103.0287
463.5833, 104.7280
464.0655, 106.7964
464.5476, 109.4324
465.0297, 112.5146
465.5118, 115.1949
465.9939, 116.7618
466.4760, 118.1611
466.9582, 119.9532
467.4403, 122.8683
467.9224, 124.9463
468.4045, 125.4060
468.8866, 125.3229
469.3687, 126.3000
469.8509, 128.9335
470.3330, 131.5423
470.8151, 133.8843
471.2972, 135.9281
471.7793, 137.1898
472.2614, 137.4201
472.7436, 137.5856
473.2257, 138.6026
473.7078, 140.5019
474.1899, 141.3947
474.6720, 140.9564
475.1541, 140.0062
475.6363, 140.0249
476.1184, 140.7781
476.6005, 140.7450
477.0826, 138.9636
477.5647, 136.2421
478.0468, 133.7852
478.5290, 131.5778
479.0111, 129.4809
479.4932, 127.5082
479.9753, 125.5433
480.4574, 123.4647
480.9395, 121.2671
481.4217, 118.8794
481.9038, 116.0529
482.3859, 113.0923
482.8680, 110.4824
483.3501, 108.6867
483.8322, 106.9717
484.3144, 104.9649
484.7965, 102.7167
485.2786, 100.8014
485.7607, 99.58720
486.2428, 98.52805
486.7249, 97.36021
487.2071, 96.09724
487.6892, 94.69867
488.1713, 92.95584
488.6534, 91.22704
489.1355, 90.06441
489.6176, 89.66972
490.0998, 89.24052
490.5819, 88.56409
491.0640, 87.69348
491.5461, 86.89673
492.0282, 86.17033
492.5103, 85.51881
492.9925, 84.84087
493.4746, 84.20656
493.9567, 84.14194
494.4388, 84.77566
494.9209, 85.47139
495.4030, 85.27214
495.8852, 84.55534
496.3673, 84.29631
496.8494, 85.30348
497.3315, 86.49574
497.8136, 86.62303
498.2957, 85.95994
498.7779, 85.63396
499.2600, 86.47145
499.7421, 87.69286
500.2242, 88.79780
500.7063, 89.73936
501.1884, 90.54095
501.6706, 91.10837
502.1527, 91.58234
502.6348, 92.09477
503.1169, 92.47359
503.5990, 93.12782
504.0811, 94.25671
504.5633, 95.70082
505.0454, 96.84802
505.5275, 97.36736
506.0096, 98.13397
506.4917, 99.61405
506.9738, 101.9153
507.4560, 103.7379
507.9381, 104.9980
508.4202, 106.0052
508.9023, 106.9684
509.3844, 107.9030
509.8665, 109.1092
510.3487, 110.7064
510.8308, 112.4830
511.3129, 114.2180
511.7950, 115.8667
512.2772, 117.2187
512.7593, 118.0714
513.2414, 118.6129
513.7235, 119.0565
514.2056, 119.4086
514.6877, 119.6655
515.1699, 119.9937
515.6520, 120.1366
516.1341, 119.8370
516.6162, 118.9065
517.0983, 117.7833
517.5804, 116.4506
518.0626, 115.0417
518.5447, 113.7762
519.0268, 113.1643
519.5089, 112.1776
519.9910, 110.5313
520.4731, 108.2576
520.9553, 105.8760
521.4374, 103.2609
521.9195, 100.7658
522.4016, 98.66105
522.8837, 97.09511
523.3658, 95.16180
523.8480, 92.68742
524.3301, 90.19463
524.8122, 88.47926
525.2943, 87.50468
525.7764, 86.58469
526.2585, 85.55678
526.7407, 84.45700
527.2228, 83.22438
527.7049, 81.90553
528.1870, 80.80655
528.6691, 80.33154
529.1512, 80.04924
529.6334, 79.37303
530.1155, 78.24006
530.5976, 77.22711
531.0797, 76.83181
531.5618, 76.64046
532.0439, 76.22854
532.5261, 75.10877
533.0082, 74.30008
533.4903, 74.43305
533.9724, 75.01403
534.4545, 74.98172
534.9366, 73.56750
535.4188, 72.30949
535.9009, 71.61494
536.3830, 71.46927
536.8651, 71.22578
537.3472, 70.91063
537.8293, 70.45245
538.3115, 69.63156
538.7936, 68.37578
539.2757, 67.94250
539.7578, 68.59017
540.2399, 69.51371
540.7220, 69.53999
541.2042, 68.82473
541.6863, 68.29309
542.1684, 68.37798
542.6505, 68.60350
543.1326, 68.19936
543.6147, 67.31316
544.0969, 66.49690
544.5790, 66.00014
545.0611, 65.77361
545.5432, 65.89059
546.0253, 66.37537
546.5074, 66.73097
546.9896, 66.64030
547.4717, 66.39059
547.9538, 66.21465
548.4359, 66.24958
548.9180, 66.22529
549.4001, 66.06417
549.8823, 65.84940
550.3644, 65.70213
550.8465, 65.53327
551.3286, 65.60765
551.8107, 66.04652
552.2928, 66.80159
552.7750, 67.59603
553.2571, 68.51630
553.7392, 69.08170
554.2213, 68.65856
554.7034, 67.49556
555.1855, 67.04462
555.6677, 67.40822
556.1498, 68.23027
556.6319, 69.39363
557.1140, 70.70517
557.5961, 71.75218
558.0782, 72.37146
558.5604, 72.76759
559.0425, 72.87053
559.5246, 72.87227
560.0067, 73.20403
560.4888, 74.40676
560.9709, 75.64516
561.4531, 76.45768
561.9352, 76.83452
562.4173, 77.39658
562.8994, 78.36058
563.3815, 79.42362
563.8636, 80.44160
564.3458, 81.35518
564.8279, 82.39804
565.3100, 83.70518
565.7921, 84.98695
566.2742, 85.75670
566.7563, 85.94273
567.2385, 86.37535
567.7206, 87.26962
568.2027, 88.45937
568.6848, 89.59552
569.1669, 90.69102
569.6490, 91.72614
570.1312, 92.65789
570.6133, 93.55305
571.0954, 94.51720
571.5775, 95.55676
572.0596, 96.54525
572.5417, 97.46121
573.0239, 98.27163
573.5060, 98.87273
573.9881, 99.08415
574.4702, 99.55569
574.9523, 100.8542
575.4344, 102.3925
575.9166, 103.4183
576.3987, 103.8776
576.8808, 103.8368
577.3629, 103.1235
577.8450, 101.9317
578.3271, 100.8779
578.8093, 99.98116
579.2914, 99.17219
579.7735, 98.45805
580.2556, 97.82807
580.7377, 97.13882
581.2198, 96.39286
581.7020, 95.57442
582.1841, 94.62686
582.6662, 93.60374
583.1483, 92.67645
583.6304, 91.93092
584.1125, 91.00379
584.5947, 89.31995
585.0768, 87.31933
585.5589, 85.64568
586.0410, 84.62553
586.5231, 83.85797
587.0052, 83.29315
587.4873, 82.86913
587.9694, 82.42739
