##NAMES=Braunite
##RRUFFID=R050390
##IDEAL CHEMISTRY=Mn^2+^Mn^3+^_6_SiO_12_
##LOCALITY=Oehrenstock, Thuringia, Germany
##OWNER=RRUFF
##SOURCE=University of Arizona Mineral Museum
##DESCRIPTION=Mass of black octahedra
##STATUS=The identification of this mineral has been confirmed by X-ray diffraction and chemical analysis
##URL=rruff.info/R050390
##MEASURED CHEMISTRY=(Mn^2+^_0.83_Ca_0.17_)_Î£=1_Mn^3+^_6.00_Si_1.00_O_12_
92.35352, 9.006450
92.83563, 9.604237
93.31775, 9.859251
93.79987, 9.495025
94.28198, 8.751462
94.76410, 8.339741
95.24622, 8.470972
95.72833, 8.933320
96.21045, 9.314148
96.69257, 9.613342
97.17468, 9.866816
97.65680, 10.11570
98.13892, 10.36002
98.62103, 10.51558
99.10315, 10.47605
99.58527, 10.30469
100.0674, 10.44510
100.5495, 10.91945
101.0316, 11.65542
101.5137, 12.66098
101.9958, 14.08667
102.4780, 15.26553
102.9601, 15.85324
103.4422, 15.68819
103.9243, 16.00467
104.4064, 16.89615
104.8885, 18.20926
105.3707, 19.70887
105.8528, 21.42854
106.3349, 23.27218
106.8170, 25.24825
107.2991, 27.72038
107.7813, 29.61768
108.2634, 30.51021
108.7455, 30.77245
109.2276, 31.62476
109.7097, 33.79630
110.1918, 36.03948
110.6740, 37.84063
111.1561, 38.76124
111.6382, 39.71757
112.1203, 40.49134
112.6024, 41.22054
113.0845, 42.70729
113.5667, 45.72276
114.0488, 49.17122
114.5309, 52.34936
115.0130, 54.82484
115.4951, 57.24465
115.9772, 59.80431
116.4594, 62.52639
116.9415, 65.25296
117.4236, 68.10540
117.9057, 70.87764
118.3878, 73.33875
118.8699, 75.01306
119.3521, 76.67072
119.8342, 78.64796
120.3163, 80.94135
120.7984, 83.83282
121.2805, 87.76414
121.7626, 92.39327
122.2448, 97.13543
122.7269, 103.1164
123.2090, 108.4015
123.6911, 110.5107
124.1732, 108.5575
124.6553, 106.0480
125.1375, 106.2852
125.6196, 108.6744
126.1017, 111.3331
126.5838, 113.1277
127.0659, 114.4514
127.5480, 116.0560
128.0302, 118.1458
128.5123, 120.3690
128.9944, 122.4775
129.4765, 124.4233
129.9586, 125.7561
130.4407, 126.0158
130.9229, 125.3501
131.4050, 124.2964
131.8871, 122.8453
132.3692, 121.1953
132.8513, 119.6531
133.3334, 118.0018
133.8156, 116.3282
134.2977, 115.2921
134.7798, 115.2594
135.2619, 115.4826
135.7440, 115.7819
136.2261, 116.1983
136.7083, 117.0138
137.1904, 118.2890
137.6725, 119.7690
138.1546, 121.5503
138.6367, 123.9369
139.1188, 125.0566
139.6010, 124.3123
140.0831, 121.7198
140.5652, 118.5764
141.0473, 114.4799
141.5294, 110.3307
142.0115, 107.3768
142.4937, 105.8623
142.9758, 104.8442
143.4579, 104.0254
143.9400, 103.3487
144.4221, 103.1335
144.9042, 103.4089
145.3864, 104.1089
145.8685, 105.2005
146.3506, 107.3502
146.8327, 108.9985
147.3148, 109.5144
147.7969, 108.0348
148.2791, 107.3737
148.7612, 107.9224
149.2433, 109.2389
149.7254, 110.3260
150.2075, 110.9539
150.6896, 111.5509
151.1718, 112.2813
151.6539, 113.4667
152.1360, 114.3250
152.6181, 114.5977
153.1002, 114.4986
153.5823, 114.6646
154.0645, 116.0002
154.5466, 116.9919
155.0287, 116.9335
155.5108, 114.9937
155.9929, 112.9170
156.4750, 110.6819
156.9572, 108.4221
157.4393, 106.7539
157.9214, 106.2351
158.4035, 106.0655
158.8856, 105.7440
159.3677, 104.7861
159.8499, 104.0377
160.3320, 103.7949
160.8141, 103.9977
161.2962, 104.3063
161.7783, 104.8089
162.2604, 105.2697
162.7426, 105.4939
163.2247, 105.2883
163.7068, 104.9564
164.1889, 104.5576
164.6710, 104.1082
165.1531, 103.7653
165.6353, 103.5707
166.1174, 103.5333
166.5995, 103.6627
167.0816, 104.1526
167.5637, 104.6672
168.0458, 105.0288
168.5280, 105.2296
169.0101, 105.2588
169.4922, 105.0561
169.9743, 104.6868
170.4564, 104.2422
170.9385, 103.7981
171.4207, 103.2727
171.9028, 102.5135
172.3849, 101.5055
172.8670, 100.5704
173.3491, 99.94639
173.8312, 99.56518
174.3134, 99.29524
174.7955, 99.05784
175.2776, 98.90992
175.7597, 98.99432
176.2418, 99.35234
176.7239, 99.66670
177.2061, 99.60678
177.6882, 99.26575
178.1703, 98.89908
178.6524, 98.49960
179.1345, 98.18201
179.6166, 98.16899
180.0988, 98.49541
180.5809, 99.00008
181.0630, 99.62153
181.5451, 100.3101
182.0272, 100.8402
182.5093, 100.9089
182.9915, 100.7459
183.4736, 100.9496
183.9557, 101.6185
184.4378, 102.4456
184.9199, 103.0577
185.4020, 103.4634
185.8842, 103.8077
186.3663, 104.2261
186.8484, 104.6567
187.3305, 104.8183
187.8126, 104.6401
188.2947, 104.3271
188.7769, 104.1127
189.2590, 104.0035
189.7411, 104.1415
190.2232, 104.7477
190.7053, 105.7364
191.1874, 106.5477
191.6696, 107.1086
192.1517, 107.5485
192.6338, 108.0846
193.1159, 108.7169
193.5980, 109.4408
194.0801, 110.2827
194.5623, 111.2303
195.0444, 112.2235
195.5265, 113.3360
196.0086, 114.3668
196.4907, 114.7116
196.9728, 114.2692
197.4550, 113.9820
197.9371, 114.4969
198.4192, 115.8255
198.9013, 117.1690
199.3834, 118.4695
199.8655, 119.7291
200.3477, 120.9313
200.8298, 122.0368
201.3119, 123.2573
201.7940, 124.9388
202.2761, 127.1854
202.7582, 128.5930
203.2404, 128.6655
203.7225, 128.1012
204.2046, 129.0701
204.6867, 132.0095
205.1688, 134.9937
205.6509, 136.6212
206.1331, 136.6213
206.6152, 137.1222
207.0973, 138.3623
207.5794, 140.1860
208.0615, 142.1686
208.5436, 144.3655
209.0258, 146.5848
209.5079, 148.7453
209.9900, 150.8911
210.4721, 152.6944
210.9542, 153.9805
211.4363, 154.9547
211.9185, 156.3497
212.4006, 158.3103
212.8827, 160.3909
213.3648, 162.3265
213.8469, 164.1803
214.3290, 165.7407
214.8112, 166.9888
215.2933, 167.9269
215.7754, 168.5989
216.2575, 168.9920
216.7396, 169.1415
217.2217, 169.0435
217.7038, 168.6473
218.1860, 168.1511
218.6681, 167.5269
219.1502, 166.8214
219.6323, 166.1648
220.1144, 165.4180
220.5965, 164.9702
221.0787, 165.2422
221.5608, 166.8775
222.0429, 167.4359
222.5250, 166.4249
223.0071, 164.2712
223.4892, 162.5704
223.9714, 161.4462
224.4535, 160.5584
224.9356, 159.7124
225.4177, 158.8730
225.8998, 158.1890
226.3819, 157.7399
226.8641, 157.4400
227.3462, 156.9691
227.8283, 156.1198
228.3104, 155.4133
228.7925, 155.1849
229.2746, 155.7883
229.7568, 156.0457
230.2389, 155.7950
230.7210, 155.1914
231.2031, 154.7695
231.6852, 154.7482
232.1673, 154.5844
232.6495, 153.9757
233.1316, 152.6582
233.6137, 151.4985
234.0958, 150.6328
234.5779, 149.9256
235.0600, 148.9621
235.5422, 147.4192
236.0243, 146.0736
236.5064, 145.3469
236.9885, 145.7448
237.4706, 145.6206
237.9527, 144.7643
238.4349, 143.4425
238.9170, 142.3049
239.3991, 141.3451
239.8812, 140.5790
240.3633, 140.0514
240.8454, 139.9198
241.3276, 139.6191
241.8097, 139.0170
242.2918, 138.2988
242.7739, 137.8839
243.2560, 137.8799
243.7381, 138.0138
244.2203, 138.2022
244.7024, 138.4807
245.1845, 138.6984
245.6666, 138.7448
246.1487, 138.7837
246.6308, 139.1906
247.1130, 140.3118
247.5951, 141.2331
248.0772, 141.5606
248.5593, 141.0730
249.0414, 140.8409
249.5235, 141.0958
250.0057, 141.4591
250.4878, 141.2746
250.9699, 140.2734
251.4520, 139.1975
251.9341, 138.3055
252.4162, 137.6570
252.8984, 136.8876
253.3805, 136.0569
253.8626, 135.0488
254.3447, 133.6704
254.8268, 131.6655
255.3089, 129.7774
255.7911, 128.2835
256.2732, 127.2412
256.7553, 126.0144
257.2374, 124.4333
257.7195, 122.8307
258.2017, 121.6711
258.6838, 121.2090
259.1659, 120.5690
259.6480, 119.3732
260.1301, 117.5865
260.6122, 116.5594
261.0944, 116.7326
261.5765, 117.1170
262.0586, 116.5001
262.5407, 114.3138
263.0228, 112.7387
263.5049, 112.4856
263.9871, 113.4784
264.4692, 113.7670
264.9513, 113.1202
265.4334, 112.1467
265.9155, 111.3818
266.3976, 110.9000
266.8798, 110.4095
267.3619, 109.8103
267.8440, 109.1409
268.3261, 108.7902
268.8082, 108.8517
269.2903, 109.0342
269.7725, 109.0952
270.2546, 108.9928
270.7367, 108.9694
271.2188, 109.1055
271.7009, 109.3370
272.1830, 109.3705
272.6652, 109.1469
273.1473, 108.8841
273.6294, 108.7032
274.1115, 108.5978
274.5936, 108.6192
275.0757, 108.7616
275.5579, 109.0390
276.0400, 109.5697
276.5221, 110.4432
277.0042, 111.2046
277.4863, 111.5664
277.9684, 111.5067
278.4506, 111.3202
278.9327, 110.9856
279.4148, 110.5861
279.8969, 110.2447
280.3790, 109.9400
280.8611, 109.8487
281.3433, 110.2660
281.8254, 111.1856
282.3075, 111.4493
282.7896, 110.8751
283.2717, 109.9769
283.7538, 109.5290
284.2360, 109.5398
284.7181, 109.7851
285.2002, 110.3589
285.6823, 111.1826
286.1644, 111.4558
286.6465, 111.0829
287.1287, 110.4967
287.6108, 110.1003
288.0929, 109.9057
288.5750, 110.1740
289.0571, 111.2641
289.5392, 112.9058
290.0214, 113.9414
290.5035, 114.3148
290.9856, 114.5211
291.4677, 115.0981
291.9498, 115.9863
292.4319, 116.7861
292.9141, 117.3170
293.3962, 117.7222
293.8783, 118.4441
294.3604, 119.4871
294.8425, 120.3794
295.3246, 120.6372
295.8068, 120.4045
296.2889, 120.1733
296.7710, 120.1212
297.2531, 120.0544
297.7352, 119.6205
298.2173, 118.8490
298.6995, 117.9622
299.1816, 117.1272
299.6637, 116.2948
300.1458, 115.3796
300.6279, 114.3482
301.1100, 113.2461
301.5922, 112.1400
302.0743, 111.0205
302.5564, 109.8595
303.0385, 108.5517
303.5206, 107.2124
304.0027, 105.9381
304.4849, 104.7165
304.9670, 103.7100
305.4491, 103.1996
305.9312, 103.0472
306.4133, 102.9228
306.8954, 102.6865
307.3776, 102.3863
307.8597, 102.0374
308.3418, 101.6289
308.8239, 101.3018
309.3060, 101.2136
309.7881, 101.2673
310.2703, 101.3120
310.7524, 101.2311
311.2345, 101.1602
311.7166, 101.2069
312.1987, 101.3697
312.6808, 101.5594
313.1630, 101.8503
313.6451, 102.0953
314.1272, 102.1340
314.6093, 101.4849
315.0914, 101.0183
315.5735, 101.3698
316.0557, 102.3739
316.5378, 103.1558
317.0199, 103.1206
317.5020, 102.8489
317.9841, 102.7625
318.4662, 103.0310
318.9484, 103.3863
319.4305, 103.8318
319.9126, 104.3078
320.3947, 104.6573
320.8768, 104.5914
321.3589, 104.5723
321.8411, 104.8811
322.3232, 105.7534
322.8053, 106.4511
323.2874, 106.4958
323.7695, 106.3409
324.2516, 106.7047
324.7338, 108.5310
325.2159, 110.1234
325.6980, 110.8302
326.1801, 110.3675
326.6622, 110.1787
327.1443, 110.5033
327.6265, 111.0849
328.1086, 111.6692
328.5907, 112.2010
329.0728, 112.7853
329.5549, 113.4560
330.0370, 114.2175
330.5192, 114.9562
331.0013, 115.6607
331.4834, 116.3580
331.9655, 117.0964
332.4476, 118.0812
332.9297, 118.7383
333.4119, 118.8412
333.8940, 118.5570
334.3761, 118.6756
334.8582, 119.5148
335.3403, 120.2463
335.8224, 120.3496
336.3046, 119.4435
336.7867, 119.1126
337.2688, 119.6920
337.7509, 120.6264
338.2330, 120.8132
338.7151, 120.1695
339.1973, 119.0145
339.6794, 117.1698
340.1615, 114.5752
340.6436, 113.1354
341.1257, 113.2050
341.6078, 113.6920
342.0899, 113.0753
342.5721, 111.2722
343.0542, 109.6698
343.5363, 108.7506
344.0184, 108.3647
344.5005, 107.8329
344.9826, 107.1400
345.4648, 106.4478
345.9469, 105.9417
346.4290, 105.5889
346.9111, 105.1989
347.3932, 104.7480
347.8753, 104.2145
348.3575, 103.4132
348.8396, 102.3880
349.3217, 101.6301
349.8038, 101.7412
350.2859, 102.3593
350.7680, 102.5377
351.2502, 102.0753
351.7323, 101.5099
352.2144, 101.5938
352.6965, 102.1133
353.1786, 102.4197
353.6607, 101.8377
354.1429, 101.0274
354.6250, 100.9033
355.1071, 101.5230
355.5892, 102.2187
356.0713, 102.4689
356.5534, 102.4668
357.0356, 102.4996
357.5177, 102.8734
357.9998, 103.1517
358.4819, 102.8405
358.9640, 102.0619
359.4461, 101.5060
359.9283, 101.9626
360.4104, 102.5664
360.8925, 102.5003
361.3746, 100.9677
361.8567, 99.80656
362.3388, 100.1008
362.8210, 101.3232
363.3031, 102.2821
363.7852, 102.4006
364.2673, 102.3330
364.7494, 102.3834
365.2315, 102.6282
365.7137, 102.8280
366.1958, 102.8562
366.6779, 102.8414
367.1600, 102.9353
367.6421, 103.4137
368.1242, 103.7348
368.6064, 103.6943
369.0885, 103.2659
369.5706, 103.0402
370.0527, 103.1477
370.5348, 103.3565
371.0169, 103.5142
371.4991, 103.5317
371.9812, 103.6574
372.4633, 103.9933
372.9454, 104.4480
373.4275, 104.6767
373.9096, 104.5676
374.3918, 104.4327
374.8739, 104.4365
375.3560, 104.6384
375.8381, 104.6925
376.3202, 104.5335
376.8023, 104.3100
377.2845, 104.2715
377.7666, 104.4558
378.2487, 104.6136
378.7308, 104.6398
379.2129, 104.5618
379.6950, 104.5745
380.1772, 104.6890
380.6593, 104.8338
381.1414, 105.0263
381.6235, 105.2366
382.1056, 105.1552
382.5877, 104.6028
383.0699, 103.8855
383.5520, 103.6737
384.0341, 103.9132
384.5162, 104.0707
384.9983, 103.6833
385.4804, 102.9858
385.9626, 102.4818
386.4447, 102.2326
386.9268, 102.1131
387.4089, 102.0217
387.8910, 101.9622
388.3731, 101.9456
388.8553, 102.1637
389.3374, 102.3089
389.8195, 101.9495
390.3016, 101.1241
390.7837, 100.4144
391.2658, 100.3078
391.7480, 100.4599
392.2301, 100.5069
392.7122, 100.2480
393.1943, 100.0092
393.6764, 100.0293
394.1585, 100.2048
394.6407, 100.2400
395.1228, 99.72326
395.6049, 99.28759
396.0870, 99.36842
396.5691, 100.3105
397.0512, 100.7982
397.5334, 100.0664
398.0155, 98.90971
398.4976, 98.33172
398.9797, 99.26997
399.4618, 99.88870
399.9439, 99.72081
400.4261, 98.76989
400.9082, 97.96992
401.3903, 97.18398
401.8724, 96.67609
402.3545, 96.67800
402.8366, 97.56576
403.3188, 98.13843
403.8009, 98.27991
404.2830, 98.08932
404.7651, 97.76687
405.2472, 97.23695
405.7293, 96.80059
406.2115, 96.58512
406.6936, 96.59592
407.1757, 96.75016
407.6578, 97.11365
408.1399, 97.44456
408.6220, 97.45135
409.1042, 97.13936
409.5863, 96.70499
410.0684, 96.08987
410.5505, 95.47229
411.0326, 95.32545
411.5147, 95.63638
411.9969, 96.00242
412.4790, 96.15757
412.9611, 96.15488
413.4432, 96.14388
413.9253, 96.17243
414.4074, 96.08604
414.8896, 95.60121
415.3717, 94.86718
415.8538, 94.23692
416.3359, 93.81184
416.8180, 93.61366
417.3001, 93.76997
417.7823, 94.26868
418.2644, 94.72008
418.7465, 94.93464
419.2286, 94.98347
419.7107, 94.92596
420.1928, 94.69402
420.6750, 94.46915
421.1571, 94.24380
421.6392, 94.06925
422.1213, 94.08688
422.6034, 94.51388
423.0855, 94.98495
423.5677, 95.38224
424.0498, 95.71953
424.5319, 95.89021
425.0140, 95.81660
425.4961, 95.60866
425.9782, 95.37260
426.4604, 95.06045
426.9425, 94.79526
427.4246, 94.61155
427.9067, 94.49549
428.3888, 94.30579
428.8709, 93.83967
429.3531, 93.65600
429.8352, 94.28623
430.3173, 96.05214
430.7994, 96.82377
431.2815, 96.25774
431.7636, 95.14278
432.2458, 94.81571
432.7279, 95.32580
433.2100, 95.76953
433.6921, 95.75993
434.1742, 95.44768
434.6563, 95.39793
435.1385, 95.61488
435.6206, 95.91644
436.1027, 96.16933
436.5848, 96.38594
437.0669, 96.60123
437.5490, 96.82662
438.0312, 97.04459
438.5133, 97.24551
438.9954, 97.42782
439.4775, 97.58517
439.9596, 97.55863
440.4417, 97.60665
440.9239, 98.06921
441.4060, 98.96672
441.8881, 99.75748
442.3702, 99.99328
442.8523, 100.0284
443.3344, 100.2067
443.8166, 100.7412
444.2987, 101.2872
444.7808, 101.7642
445.2629, 102.1742
445.7450, 102.5275
446.2271, 102.6525
446.7093, 102.8615
447.1914, 103.3101
447.6735, 104.1168
448.1556, 104.7787
448.6377, 105.1012
449.1198, 105.4024
449.6020, 106.0498
450.0841, 107.3149
450.5662, 108.3282
451.0483, 108.9251
451.5304, 109.1743
452.0125, 109.3576
452.4947, 108.8777
452.9768, 110.0285
453.4589, 110.7708
453.9410, 111.1264
454.4231, 109.9377
454.9052, 110.7432
455.3874, 110.7496
455.8695, 110.7232
456.3516, 111.8094
456.8337, 110.8453
457.3158, 111.9139
457.7979, 112.1711
458.2801, 112.7996
458.7622, 112.6240
459.2443, 112.6968
459.7264, 113.5740
460.2085, 114.0057
460.6906, 113.5803
461.1728, 114.6641
461.6549, 115.6194
462.1370, 115.9463
462.6191, 115.8876
463.1012, 115.7882
463.5833, 115.6508
464.0655, 115.6175
464.5476, 115.7118
465.0297, 115.9446
465.5118, 116.4122
465.9939, 117.3549
466.4760, 118.3735
466.9582, 119.2300
467.4403, 119.7102
467.9224, 120.3930
468.4045, 121.3063
468.8866, 122.4125
469.3687, 123.7242
469.8509, 125.4776
470.3330, 126.9635
470.8151, 127.9777
471.2972, 128.5611
471.7793, 129.0853
472.2614, 129.4935
472.7436, 130.0152
473.2257, 131.2004
473.7078, 133.0841
474.1899, 133.1087
474.6720, 130.5501
475.1541, 127.5614
475.6363, 128.0192
476.1184, 131.3154
476.6005, 133.5270
477.0826, 132.4659
477.5647, 129.7453
478.0468, 127.8525
478.5290, 126.7419
479.0111, 126.0005
479.4932, 125.5269
479.9753, 125.1778
480.4574, 124.7934
480.9395, 124.3489
481.4217, 123.8516
481.9038, 123.2754
482.3859, 122.6640
482.8680, 122.0884
483.3501, 121.7852
483.8322, 121.3126
484.3144, 120.2707
484.7965, 118.7375
485.2786, 117.7362
485.7607, 118.0969
486.2428, 118.5003
486.7249, 118.2407
487.2071, 116.7922
487.6892, 115.8265
488.1713, 115.5387
488.6534, 115.5999
489.1355, 115.5809
489.6176, 115.5462
490.0998, 115.2205
490.5819, 114.4352
491.0640, 113.3109
491.5461, 112.4201
492.0282, 111.7465
492.5103, 111.3906
492.9925, 111.6287
493.4746, 112.3131
493.9567, 112.6542
494.4388, 112.5802
494.9209, 112.2683
495.4030, 111.7371
495.8852, 111.1181
496.3673, 110.7394
496.8494, 110.8721
497.3315, 111.1558
497.8136, 111.2361
498.2957, 111.1616
498.7779, 111.1340
499.2600, 111.2645
499.7421, 111.4751
500.2242, 111.7651
500.7063, 112.1986
501.1884, 112.4290
501.6706, 112.0700
502.1527, 111.5841
502.6348, 111.4450
503.1169, 112.0363
503.5990, 112.5957
504.0811, 113.0161
504.5633, 113.3395
505.0454, 113.7344
505.5275, 114.2383
506.0096, 114.7389
506.4917, 115.1926
506.9738, 115.6020
507.4560, 115.9600
507.9381, 116.2405
508.4202, 116.5384
508.9023, 116.9966
509.3844, 117.6006
509.8665, 118.0772
510.3487, 118.3240
510.8308, 118.5172
511.3129, 118.9733
511.7950, 119.6496
512.2772, 120.3452
512.7593, 121.0772
513.2414, 121.7041
513.7235, 122.0215
514.2056, 122.0360
514.6877, 121.9719
515.1699, 121.8732
515.6520, 121.8122
516.1341, 121.8731
516.6162, 122.1668
517.0983, 122.3982
517.5804, 122.6581
518.0626, 122.7575
518.5447, 122.3872
519.0268, 120.9334
519.5089, 119.6017
519.9910, 118.6810
520.4731, 118.1458
520.9553, 117.6986
521.4374, 117.4792
521.9195, 117.1488
522.4016, 116.4639
522.8837, 115.3337
523.3658, 114.3731
523.8480, 113.6124
524.3301, 112.9700
524.8122, 112.3406
525.2943, 111.7315
525.7764, 111.2181
526.2585, 110.8560
526.7407, 110.5631
527.2228, 110.1358
527.7049, 109.6077
528.1870, 109.1852
528.6691, 109.1791
529.1512, 109.2448
529.6334, 108.8794
530.1155, 108.0272
530.5976, 107.2986
531.0797, 107.0978
531.5618, 107.1713
532.0439, 107.2783
532.5261, 107.4329
533.0082, 107.5077
533.4903, 107.4173
533.9724, 107.2299
534.4545, 107.0904
534.9366, 107.0986
535.4188, 107.0531
535.9009, 106.8389
536.3830, 106.4667
536.8651, 106.4237
537.3472, 106.8809
537.8293, 107.3349
538.3115, 107.4115
538.7936, 107.0794
539.2757, 106.8556
539.7578, 106.7941
540.2399, 106.7667
540.7220, 106.5997
541.2042, 106.3104
541.6863, 105.9575
542.1684, 105.4146
542.6505, 104.9847
543.1326, 105.3024
543.6147, 106.1692
544.0969, 106.8370
544.5790, 106.7489
545.0611, 106.3424
545.5432, 105.8370
546.0253, 105.2346
546.5074, 104.9827
546.9896, 105.7589
547.4717, 106.6927
547.9538, 107.0685
548.4359, 106.0652
548.9180, 105.4608
549.4001, 105.5682
549.8823, 106.0974
550.3644, 106.5806
550.8465, 107.0491
551.3286, 107.4303
551.8107, 107.7453
552.2928, 107.9688
552.7750, 107.8113
553.2571, 107.1724
553.7392, 106.6430
554.2213, 106.7347
554.7034, 107.3172
555.1855, 107.5745
555.6677, 107.4248
556.1498, 107.2708
556.6319, 107.6854
557.1140, 108.3953
557.5961, 108.7699
558.0782, 108.3141
558.5604, 108.0018
559.0425, 109.0154
559.5246, 110.7706
560.0067, 111.9607
560.4888, 111.1610
560.9709, 110.4755
561.4531, 111.1704
561.9352, 113.2769
562.4173, 114.6494
562.8994, 114.2441
563.3815, 113.6459
563.8636, 113.6647
564.3458, 114.5881
564.8279, 115.3789
565.3100, 116.0846
565.7921, 116.6107
566.2742, 116.6964
566.7563, 116.2616
567.2385, 116.1990
567.7206, 116.7661
568.2027, 117.7298
568.6848, 118.6794
569.1669, 119.6028
569.6490, 120.3082
570.1312, 120.4509
570.6133, 120.4342
571.0954, 120.8990
571.5775, 121.8361
572.0596, 122.7936
572.5417, 123.5427
573.0239, 124.1591
573.5060, 124.7246
573.9881, 125.3378
574.4702, 125.6846
574.9523, 125.5223
575.4344, 125.1006
575.9166, 124.7352
576.3987, 124.3811
576.8808, 124.1810
577.3629, 124.2565
577.8450, 124.4850
578.3271, 124.4309
578.8093, 123.9923
579.2914, 123.5731
579.7735, 123.3637
580.2556, 123.3308
580.7377, 123.2298
581.2198, 123.0645
581.7020, 122.7676
582.1841, 122.3015
582.6662, 121.6613
583.1483, 120.7007
583.6304, 119.3212
584.1125, 118.1450
584.5947, 117.9790
585.0768, 118.3079
585.5589, 118.3761
586.0410, 117.7783
586.5231, 117.0421
587.0052, 116.2100
587.4873, 115.3985
587.9694, 114.9307
588.4515, 115.5817
