##NAMES=Braunite
##RRUFFID=R090057
##IDEAL CHEMISTRY=Mn^2+^Mn^3+^_6_SiO_12_
##LOCALITY=N'Chwaning III Mine, N'Chwaning Mines, Kalahari manganese field, Northern Cape Province, South Africa
##OWNER=RRUFF
##SOURCE=Marshall Sussman
##DESCRIPTION=Blocky lustrous black crystals on fine-grained matrix of the same material. Note that this is braunite II, as defined in de Villiers (1980)
##STATUS=The identification of this mineral has been confirmed by X-ray diffraction.
##URL=rruff.info/R090057
90.26367, 14.14258
90.74579, 14.43037
91.22791, 14.28030
91.71002, 13.74616
92.19214, 13.30341
92.67426, 13.49142
93.15637, 14.09365
93.63850, 14.52959
94.12061, 14.53432
94.60273, 14.26785
95.08485, 14.05513
95.56696, 13.88860
96.04908, 13.83959
96.53120, 14.16546
97.01331, 14.83016
97.49543, 15.21563
97.97755, 14.86124
98.45966, 13.82547
98.94178, 13.17639
99.42390, 12.99265
99.90602, 13.09408
100.3881, 13.18129
100.8703, 13.27962
101.3524, 13.27109
101.8345, 13.04882
102.3166, 12.53963
102.7987, 12.15381
103.2808, 11.98857
103.7630, 11.96511
104.2451, 11.69228
104.7272, 10.89192
105.2093, 10.20667
105.6914, 10.12883
106.1735, 11.30252
106.6557, 11.95970
107.1378, 11.59061
107.6199, 10.14002
108.1020, 9.474566
108.5841, 10.30799
109.0662, 11.54910
109.5484, 12.22969
110.0305, 11.81519
110.5126, 11.37967
110.9947, 11.08659
111.4768, 10.94639
111.9590, 10.90272
112.4411, 11.08488
112.9232, 11.32875
113.4053, 11.41798
113.8874, 11.12680
114.3695, 10.82820
114.8517, 10.68665
115.3338, 10.80528
115.8159, 10.86688
116.2980, 10.80223
116.7801, 10.61553
117.2622, 10.32045
117.7444, 9.586324
118.2265, 8.942226
118.7086, 8.796161
119.1907, 9.588253
119.6728, 10.34990
120.1549, 10.31003
120.6371, 9.692843
121.1192, 9.406521
121.6013, 10.36216
122.0834, 11.80199
122.5655, 12.88498
123.0477, 13.31019
123.5298, 13.31839
124.0119, 12.92114
124.4940, 12.15471
124.9761, 11.52928
125.4582, 11.42450
125.9404, 11.75320
126.4225, 12.35125
126.9046, 13.46000
127.3867, 14.70618
127.8688, 15.44104
128.3509, 15.63260
128.8331, 15.62431
129.3152, 15.71092
129.7973, 15.89388
130.2794, 16.17511
130.7615, 16.65608
131.2436, 17.25145
131.7258, 17.63211
132.2079, 17.74810
132.6900, 17.75991
133.1721, 17.78633
133.6542, 17.82471
134.1364, 18.21299
134.6185, 19.34221
135.1006, 21.17917
135.5827, 22.63316
136.0648, 23.50764
136.5469, 24.10456
137.0291, 25.26542
137.5112, 27.14132
137.9933, 28.92236
138.4754, 30.20002
138.9575, 30.98663
139.4396, 31.04041
139.9218, 30.04087
140.4039, 28.29519
140.8860, 27.36888
141.3681, 27.51365
141.8502, 28.04705
142.3323, 28.47898
142.8145, 28.84246
143.2966, 29.01865
143.7787, 28.86789
144.2608, 28.40090
144.7429, 28.34918
145.2251, 28.86825
145.7072, 29.66417
146.1893, 30.46845
146.6714, 31.27076
147.1535, 32.10004
147.6356, 33.02940
148.1178, 34.12117
148.5999, 34.86151
149.0820, 34.86412
149.5641, 34.67463
150.0462, 34.94072
150.5283, 36.51574
151.0105, 37.69252
151.4926, 37.58960
151.9747, 36.04362
152.4568, 35.07029
152.9389, 35.03903
153.4210, 35.51735
153.9032, 35.90519
154.3853, 36.22772
154.8674, 36.38347
155.3495, 36.32853
155.8316, 36.00733
156.3138, 35.61240
156.7959, 35.05772
157.2780, 34.45581
157.7601, 34.02215
158.2422, 33.92467
158.7243, 33.90698
159.2065, 33.84473
159.6886, 33.70116
160.1707, 33.54261
160.6528, 33.38400
161.1349, 33.22372
161.6170, 33.05816
162.0992, 33.04382
162.5813, 32.93052
163.0634, 32.53640
163.5455, 31.63631
164.0276, 30.70592
164.5097, 29.85616
164.9919, 29.11766
165.4740, 28.61744
165.9561, 28.39869
166.4382, 28.45052
166.9203, 28.77959
167.4025, 29.71025
167.8846, 30.58669
168.3667, 31.03088
168.8488, 31.07146
169.3309, 30.87699
169.8130, 30.26773
170.2952, 29.55929
170.7773, 29.15814
171.2594, 29.56405
171.7415, 30.04602
172.2236, 29.81833
172.7057, 28.93577
173.1879, 28.21622
173.6700, 28.47930
174.1521, 29.29094
174.6342, 29.91625
175.1163, 30.00646
175.5984, 29.81013
176.0806, 29.54888
176.5627, 29.21987
177.0448, 28.95280
177.5269, 28.89334
178.0090, 28.98620
178.4911, 29.09917
178.9733, 29.26224
179.4554, 29.38493
179.9375, 29.26030
180.4196, 28.86379
180.9017, 28.46188
181.3839, 28.34511
181.8660, 28.46208
182.3481, 28.62722
182.8302, 28.73005
183.3123, 28.82287
183.7944, 29.08379
184.2766, 29.55931
184.7587, 29.99510
185.2408, 29.99048
185.7229, 29.61814
186.2050, 29.31966
186.6871, 29.40837
187.1693, 29.76361
187.6514, 29.95137
188.1335, 29.95691
188.6156, 29.79918
189.0977, 29.38075
189.5798, 28.72366
190.0620, 28.22518
190.5441, 28.10459
191.0262, 28.33056
191.5083, 28.54749
191.9904, 28.83812
192.4725, 29.02184
192.9547, 29.10441
193.4368, 28.78283
193.9189, 28.98312
194.4010, 28.97427
194.8831, 28.95684
195.3652, 29.23057
195.8474, 28.96779
196.3295, 29.23690
196.8116, 29.29369
197.2937, 29.44766
197.7758, 28.77275
198.2579, 28.77871
198.7401, 28.57550
199.2222, 28.36374
199.7043, 28.23451
200.1864, 28.49486
200.6685, 28.64831
201.1507, 28.70060
201.6328, 28.34874
202.1149, 28.51875
202.5970, 28.47962
203.0791, 28.43192
203.5612, 28.67537
204.0434, 28.38231
204.5255, 28.62115
205.0076, 28.64766
205.4897, 28.77134
205.9718, 28.68460
206.4539, 27.63720
206.9361, 27.90562
207.4182, 28.06713
207.9003, 28.12748
208.3824, 27.78369
208.8645, 27.96176
209.3466, 27.93069
209.8288, 27.89105
210.3109, 28.14257
210.7930, 27.85756
211.2751, 28.10447
211.7572, 28.13904
212.2393, 28.27079
212.7215, 28.19212
213.2036, 28.17844
213.6857, 28.14995
214.1678, 27.70698
214.6499, 27.37191
215.1321, 27.59503
215.6142, 27.71126
216.0963, 27.72632
216.5784, 27.33725
217.0605, 27.47005
217.5426, 27.39370
218.0248, 27.30877
218.5069, 27.51501
218.9890, 27.18472
219.4711, 27.38635
219.9532, 27.44750
220.4353, 27.43693
220.9175, 27.32517
221.3996, 26.80930
221.8817, 26.81529
222.3638, 27.23392
222.8459, 27.47363
223.3280, 27.61219
223.8102, 27.34663
224.2923, 27.60291
224.7744, 27.65005
225.2565, 27.68862
225.7386, 28.43747
226.2208, 28.79578
226.7029, 28.61072
227.1850, 28.02455
227.6671, 27.81379
228.1492, 28.19821
228.6313, 28.64530
229.1135, 28.78772
229.5956, 28.35341
230.0777, 28.24131
230.5598, 28.63441
231.0419, 29.41832
231.5240, 30.05002
232.0062, 30.54308
232.4883, 30.86767
232.9704, 30.97772
233.4525, 30.74196
233.9346, 30.58578
234.4167, 30.57882
234.8989, 30.68044
235.3810, 30.67146
235.8631, 30.37131
236.3452, 30.19802
236.8273, 30.42571
237.3095, 31.30205
237.7916, 32.05715
238.2737, 32.75088
238.7558, 33.30017
239.2379, 33.31012
239.7200, 32.38782
240.2022, 31.45626
240.6843, 31.05079
241.1664, 31.54092
241.6485, 31.73499
242.1306, 31.45342
242.6127, 30.83814
243.0949, 30.44627
243.5770, 30.39979
244.0591, 30.40787
244.5412, 30.31187
245.0233, 30.01404
245.5054, 29.84520
245.9876, 29.92103
246.4697, 30.11959
246.9518, 30.02059
247.4339, 29.40469
247.9160, 28.81733
248.3981, 28.55326
248.8803, 28.81054
249.3624, 28.90932
249.8445, 28.79563
250.3266, 28.52613
250.8087, 28.23144
251.2909, 27.83104
251.7730, 27.53814
252.2551, 27.50958
252.7372, 27.98964
253.2193, 28.07221
253.7014, 27.55589
254.1836, 26.73056
254.6657, 26.26898
255.1478, 26.28912
255.6299, 26.46734
256.1120, 26.72367
256.5941, 27.16253
257.0763, 27.31116
257.5584, 27.02246
258.0405, 26.53811
258.5226, 26.37106
259.0047, 26.67711
259.4868, 26.97700
259.9690, 27.09401
260.4511, 27.00564
260.9332, 26.80767
261.4153, 26.38752
261.8974, 25.95365
262.3795, 25.93334
262.8617, 26.56697
263.3438, 27.02980
263.8259, 26.96647
264.3080, 26.26579
264.7901, 25.84408
265.2722, 25.76715
265.7544, 25.88960
266.2365, 26.04902
266.7186, 26.30558
267.2007, 26.40479
267.6829, 26.17328
268.1650, 25.56983
268.6471, 25.39768
269.1292, 25.83470
269.6113, 26.41807
270.0934, 26.49619
270.5756, 25.88999
271.0577, 25.48692
271.5398, 25.64289
272.0219, 26.33280
272.5040, 26.56626
272.9861, 26.23415
273.4683, 25.68063
273.9504, 25.18361
274.4325, 24.70658
274.9146, 24.54176
275.3967, 24.91737
275.8788, 25.71574
276.3610, 25.88309
276.8431, 25.26652
277.3252, 24.48215
277.8073, 24.11543
278.2894, 24.20266
278.7715, 24.28764
279.2537, 24.26889
279.7358, 24.18170
280.2179, 24.17938
280.7000, 24.27408
281.1821, 24.40077
281.6642, 24.55468
282.1464, 24.73702
282.6285, 24.74921
283.1106, 24.50545
283.5927, 24.11584
284.0748, 23.87070
284.5569, 23.77604
285.0391, 23.76562
285.5212, 23.79577
286.0033, 23.86753
286.4854, 24.02044
286.9675, 24.30268
287.4496, 24.60098
287.9318, 24.63782
288.4139, 24.40878
288.8960, 24.20060
289.3781, 24.23050
289.8602, 24.44377
290.3424, 24.55463
290.8245, 24.52323
291.3066, 24.42407
291.7887, 24.37634
292.2708, 24.37343
292.7530, 24.35331
293.2351, 24.22745
293.7172, 24.05426
294.1993, 24.03273
294.6814, 24.18742
295.1635, 24.41899
295.6457, 24.66375
296.1278, 24.89878
296.6099, 25.02003
297.0920, 24.89496
297.5741, 24.63941
298.0562, 24.48642
298.5384, 24.44585
299.0205, 24.43627
299.5026, 24.41282
299.9847, 24.36128
300.4668, 24.23756
300.9489, 23.87881
301.4311, 23.51514
301.9132, 23.57585
302.3953, 24.04350
302.8774, 24.46746
303.3595, 24.38850
303.8416, 24.03211
304.3238, 23.79323
304.8059, 23.84465
305.2880, 24.02542
305.7701, 24.23980
306.2522, 24.47079
306.7343, 24.60196
307.2165, 24.36174
307.6986, 23.86057
308.1807, 24.12279
308.6628, 24.27811
309.1449, 24.33226
309.6270, 23.98228
310.1092, 24.15417
310.5913, 24.11691
311.0734, 24.07108
311.5555, 24.31641
312.0376, 24.02521
312.5197, 24.26592
313.0019, 24.29431
313.4840, 24.41987
313.9661, 24.33501
314.4482, 24.31513
314.9304, 24.50576
315.4125, 24.57983
315.8946, 24.47074
316.3767, 24.03281
316.8588, 23.77349
317.3409, 23.72675
317.8231, 23.84563
318.3052, 24.06723
318.7873, 24.57795
319.2694, 25.01030
319.7515, 25.22842
320.2336, 25.22141
320.7158, 24.83085
321.1979, 25.17173
321.6800, 25.40571
322.1621, 25.53853
322.6442, 25.26721
323.1263, 25.51775
323.6085, 25.55917
324.0906, 25.59200
324.5727, 25.91599
325.0548, 25.70346
325.5369, 26.02283
326.0190, 26.12988
326.5012, 26.33412
326.9833, 26.32791
327.4654, 26.38670
327.9475, 26.65599
328.4296, 26.33378
328.9117, 26.29762
329.3939, 26.30309
329.8760, 26.32352
330.3581, 26.37055
330.8402, 26.41167
331.3223, 26.46042
331.8044, 26.49913
332.2866, 26.49544
332.7687, 26.23728
333.2508, 26.56253
333.7329, 26.78088
334.2150, 26.89807
334.6971, 26.61112
335.1793, 26.84605
335.6614, 26.87182
336.1435, 26.88902
336.6256, 27.19738
337.1077, 26.96921
337.5899, 27.27297
338.0720, 27.36439
338.5541, 27.55298
339.0362, 27.10358
339.5183, 27.32543
340.0005, 27.44036
340.4826, 27.45415
340.9647, 27.06379
341.4468, 27.19530
341.9289, 27.11767
342.4110, 27.03146
342.8932, 27.23642
343.3753, 26.90484
343.8574, 27.10519
344.3395, 27.77918
344.8216, 27.70453
345.3037, 27.86610
345.7859, 27.92076
346.2680, 27.87426
346.7501, 27.42364
347.2322, 27.49487
347.7143, 27.35697
348.1964, 27.21048
348.6786, 27.35515
349.1607, 26.96330
349.6428, 27.10337
350.1249, 27.03110
350.6070, 27.05601
351.0891, 26.87049
351.5713, 26.74996
352.0534, 26.83993
352.5355, 26.79389
353.0176, 26.78111
353.4997, 26.66717
353.9818, 26.14908
354.4640, 26.15283
354.9461, 25.94746
355.4282, 25.73353
355.9103, 25.81074
356.3924, 25.65827
356.8745, 25.56414
357.3567, 25.06586
357.8388, 25.08945
358.3209, 24.90391
358.8030, 24.70979
359.2851, 24.68779
359.7672, 24.51172
360.2494, 24.59727
360.7315, 24.79265
361.2136, 24.81735
361.6957, 24.37288
362.1779, 23.88978
362.6600, 23.57440
363.1421, 23.45438
363.6242, 23.42144
364.1063, 23.48292
364.5884, 23.59964
365.0706, 23.73096
365.5527, 23.94383
366.0348, 24.09131
366.5169, 24.13876
366.9990, 24.08735
367.4811, 23.97178
367.9633, 23.70085
368.4454, 23.43035
368.9275, 23.25145
369.4096, 23.24325
369.8917, 23.21909
370.3738, 23.17207
370.8560, 23.10711
371.3381, 23.04705
371.8202, 23.06080
372.3023, 22.98401
372.7844, 22.72410
373.2665, 22.20862
373.7487, 21.81330
374.2308, 21.56485
374.7129, 21.40992
375.1950, 21.28266
375.6771, 21.19345
376.1592, 21.09734
376.6414, 20.97560
377.1235, 20.83338
377.6056, 20.70179
378.0877, 20.56249
378.5698, 20.49010
379.0519, 20.64257
379.5341, 21.02191
380.0162, 21.11148
380.4983, 20.72964
380.9804, 20.12181
381.4625, 19.89340
381.9446, 20.03345
382.4268, 20.19243
382.9089, 20.09000
383.3910, 19.82963
383.8731, 19.78878
384.3553, 20.03495
384.8374, 20.31483
385.3195, 20.29480
385.8016, 20.05897
386.2837, 19.85467
386.7658, 19.94052
387.2480, 20.04707
387.7301, 19.71366
388.2122, 18.96354
388.6943, 18.32032
389.1764, 18.21951
389.6585, 18.43962
390.1407, 18.73856
390.6228, 19.22301
391.1049, 19.51667
391.5870, 19.12406
392.0691, 18.29044
392.5512, 17.75475
393.0334, 18.18826
393.5155, 18.79688
393.9976, 19.05602
394.4797, 18.80178
394.9618, 18.51635
395.4439, 18.32902
395.9261, 18.20541
396.4082, 18.10026
396.8903, 17.92121
397.3724, 17.84045
397.8545, 17.94590
398.3366, 18.24707
398.8188, 18.50070
399.3009, 18.70175
399.7830, 18.84243
400.2651, 18.91979
400.7472, 18.97305
401.2293, 18.89427
401.7115, 18.57706
402.1936, 18.13296
402.6757, 17.91688
403.1578, 18.04836
403.6399, 18.20560
404.1220, 18.30735
404.6042, 18.40409
405.0863, 17.70821
405.5684, 17.79555
406.0505, 17.77597
406.5326, 17.65524
407.0147, 17.13036
407.4969, 18.54879
407.9790, 18.80593
408.4611, 18.36881
408.9432, 17.87062
409.4254, 17.29491
409.9075, 16.86256
410.3896, 16.81288
410.8717, 17.07141
411.3538, 17.31311
411.8359, 17.49071
412.3181, 17.62896
412.8002, 17.75381
413.2823, 17.86455
413.7644, 17.96783
414.2465, 18.21320
414.7286, 18.02798
415.2108, 18.13594
415.6929, 18.13702
416.1750, 18.03694
416.6571, 17.53272
417.1392, 17.55036
417.6213, 18.33937
418.1035, 18.27176
418.5856, 18.04295
419.0677, 17.90822
419.5498, 17.85422
420.0319, 17.83633
420.5140, 17.86152
420.9962, 17.89879
421.4783, 17.94228
421.9604, 18.02304
422.4425, 18.02328
422.9246, 17.76242
423.4067, 17.44978
423.8889, 17.36992
424.3710, 17.88904
424.8531, 18.29778
425.3352, 18.38370
425.8173, 18.14568
426.2994, 18.04542
426.7816, 18.23991
427.2637, 18.41381
427.7458, 18.32375
428.2279, 17.75207
428.7100, 17.46046
429.1921, 17.58854
429.6743, 17.96470
430.1564, 18.20341
430.6385, 18.29780
431.1206, 18.27938
431.6028, 18.11749
432.0849, 17.82039
432.5670, 17.60503
433.0491, 17.46574
433.5312, 17.43078
434.0133, 17.65036
434.4955, 18.06002
434.9776, 18.18254
435.4597, 17.76718
435.9418, 17.17383
436.4239, 17.10168
436.9060, 17.48020
437.3882, 17.85240
437.8703, 17.87922
438.3524, 17.73873
438.8345, 17.68126
439.3166, 17.73789
439.7987, 17.84447
440.2809, 17.98611
440.7630, 18.13790
441.2451, 18.25970
441.7272, 18.35313
442.2093, 18.39724
442.6914, 18.30630
443.1736, 18.11760
443.6557, 18.07405
444.1378, 18.43521
444.6199, 18.85449
445.1020, 19.13214
445.5841, 19.30092
446.0663, 19.20998
446.5484, 18.47452
447.0305, 17.54120
447.5126, 17.16224
447.9947, 17.82488
448.4768, 18.46979
448.9590, 18.92300
449.4411, 19.18299
449.9232, 19.14700
450.4053, 18.67416
450.8874, 18.10707
451.3695, 17.65386
451.8517, 17.27037
452.3338, 17.23768
452.8159, 17.73212
453.2980, 18.41467
453.7801, 18.50562
454.2622, 17.95881
454.7444, 17.49208
455.2265, 17.49469
455.7086, 17.85205
456.1907, 18.09240
456.6729, 18.21555
457.1550, 18.25725
457.6371, 18.28041
458.1192, 18.25039
458.6013, 18.04477
459.0834, 17.52618
459.5656, 17.02513
460.0477, 16.97286
460.5298, 17.24866
461.0119, 17.49671
461.4940, 17.55987
461.9761, 17.50688
462.4583, 17.35242
462.9404, 17.08687
463.4225, 16.87356
463.9046, 16.74498
464.3867, 16.72268
464.8688, 16.82968
465.3510, 17.27788
465.8331, 17.62290
466.3152, 17.62611
466.7973, 17.42389
467.2794, 17.37635
467.7615, 17.55396
468.2437, 17.62464
468.7258, 17.59419
469.2079, 17.15960
469.6900, 17.24686
470.1721, 17.12500
470.6542, 16.99455
471.1364, 17.15525
471.6185, 17.04237
472.1006, 17.22461
472.5827, 17.55893
473.0648, 17.93623
473.5469, 17.93324
474.0291, 17.50970
474.5112, 17.18035
474.9933, 17.33090
475.4754, 17.84268
475.9575, 18.21655
476.4396, 18.43299
476.9218, 18.52826
477.4039, 18.49554
477.8860, 18.37082
478.3681, 18.23333
478.8503, 18.08585
479.3324, 17.96328
479.8145, 17.90383
480.2966, 17.89949
480.7787, 17.92215
481.2608, 17.92804
481.7430, 17.97499
482.2251, 18.15174
482.7072, 18.51300
483.1893, 18.73470
483.6714, 18.70648
484.1535, 18.48212
484.6357, 17.66839
485.1178, 18.03596
485.5999, 18.29663
486.0820, 18.45614
486.5641, 18.21152
487.0462, 19.32200
487.5284, 18.72550
488.0105, 18.07976
488.4926, 17.88604
488.9747, 18.22918
489.4568, 18.49485
489.9389, 18.67524
490.4211, 18.78840
490.9032, 18.84225
491.3853, 18.83484
491.8674, 18.79623
492.3495, 18.70752
492.8316, 18.62060
493.3138, 18.69749
493.7959, 18.91978
494.2780, 19.07717
494.7601, 18.93953
495.2422, 18.67938
495.7243, 18.69757
496.2065, 19.02547
496.6886, 19.27242
497.1707, 18.96726
497.6528, 18.43929
498.1349, 18.14800
498.6170, 18.34402
499.0992, 18.62378
499.5813, 18.77726
500.0634, 18.84795
500.5455, 18.94463
501.0276, 19.15361
501.5097, 19.34967
501.9919, 19.43654
502.4740, 19.36740
502.9561, 19.48627
503.4382, 19.91403
503.9203, 20.27114
504.4025, 20.52137
504.8846, 20.67043
505.3667, 20.41534
505.8488, 20.68211
506.3309, 20.73975
506.8130, 20.78881
507.2952, 21.12905
507.7773, 20.93275
508.2594, 21.26835
508.7415, 21.39163
509.2236, 21.61209
509.7057, 21.72378
510.1879, 21.86053
510.6700, 21.59313
511.1521, 21.84758
511.6342, 21.89289
512.1163, 21.92962
512.5984, 22.25753
513.0806, 22.04894
513.5627, 22.37222
514.0448, 22.83267
514.5269, 23.06882
515.0090, 23.09199
515.4911, 22.72675
515.9733, 23.03621
516.4554, 23.23874
516.9375, 23.34013
517.4196, 23.03737
517.9017, 23.25646
518.3839, 23.26644
518.8660, 23.26783
519.3481, 23.56037
519.8302, 23.85792
520.3123, 23.98162
520.7944, 23.29556
521.2766, 22.77471
521.7587, 22.62890
522.2408, 22.74899
522.7229, 22.71354
523.2050, 22.51255
523.6871, 22.19526
524.1693, 21.66222
524.6514, 20.96344
525.1335, 20.71825
525.6156, 20.98503
526.0977, 21.32191
526.5798, 21.21804
527.0620, 20.81667
527.5441, 20.56269
528.0262, 20.61927
528.5083, 20.73742
528.9904, 20.63495
529.4725, 20.38405
529.9547, 20.16062
530.4368, 20.09476
530.9189, 20.05097
531.4010, 19.96270
531.8831, 19.82369
532.3652, 19.61359
532.8474, 19.19185
533.3295, 18.78641
533.8116, 18.54327
534.2937, 18.59556
534.7758, 18.61435
535.2579, 18.50497
535.7401, 18.40136
536.2222, 18.54723
536.7043, 19.18075
537.1865, 19.48520
537.6686, 19.14312
538.1507, 18.35562
538.6328, 18.15599
539.1149, 18.64261
539.5970, 19.09173
540.0792, 18.94574
540.5613, 18.35840
541.0434, 18.12254
541.5255, 18.30230
542.0076, 18.48022
542.4897, 18.06949
542.9719, 17.37709
543.4540, 17.05220
543.9361, 17.46492
544.4182, 17.96052
544.9003, 17.93147
545.3824, 17.59635
545.8646, 17.44124
546.3467, 17.93704
546.8288, 18.41027
547.3109, 18.48310
547.7930, 18.13115
548.2751, 17.91074
548.7573, 18.09763
549.2394, 18.28706
549.7215, 18.23779
550.2036, 17.73112
550.6857, 17.48310
551.1678, 17.54087
551.6500, 17.77574
552.1321, 17.99431
552.6142, 18.10598
553.0963, 18.11649
553.5784, 17.72286
554.0605, 17.85110
554.5427, 17.39325
555.0248, 17.63634
555.5069, 17.93227
555.9890, 18.12131
556.4711, 18.20918
556.9532, 17.89291
557.4354, 18.09852
557.9175, 18.09498
558.3996, 18.08286
558.8817, 18.36191
559.3638, 18.10442
559.8459, 18.37885
560.3281, 18.44096
560.8102, 18.60023
561.2923, 18.54908
561.7744, 18.56293
562.2565, 17.94878
562.7386, 17.60981
563.2208, 17.69166
563.7029, 18.13098
564.1850, 18.50173
564.6671, 18.79375
565.1492, 19.03080
565.6313, 19.26902
566.1135, 19.52892
566.5956, 19.41972
567.0777, 18.85328
567.5598, 18.23046
568.0419, 17.94932
568.5240, 17.97551
569.0062, 18.14422
569.4883, 18.45968
569.9704, 18.81397
570.4525, 19.14874
570.9346, 19.41784
571.4167, 19.49017
571.8989, 18.89829
572.3810, 18.42887
572.8631, 18.84598
573.3452, 19.07216
573.8273, 19.19144
574.3094, 19.20956
574.7916, 18.82354
575.2737, 18.95939
575.7558, 18.88610
576.2379, 18.80423
576.7200, 19.01353
577.2021, 18.68629
577.6843, 18.73657
578.1664, 18.72950
578.6485, 18.78497
579.1306, 18.94239
579.6127, 19.12790
580.0948, 19.21513
580.5770, 19.20440
581.0591, 19.07145
581.5412, 18.73162
582.0233, 18.30558
582.5054, 18.02664
582.9875, 17.89720
583.4697, 17.91351
583.9518, 18.15200
584.4340, 18.49572
