##NAMES=Brazilianite
##RRUFFID=R050319
##IDEAL CHEMISTRY=NaAl_3_(PO_4_)_2_(OH)_4_
##LOCALITY=Minas Gerais, Brazil
##OWNER=RRUFF
##SOURCE=American Museum of Natural History
##DESCRIPTION=Pale green fragment
##STATUS=The identification of this mineral has been confirmed by X-ray diffraction and chemical analysis
##URL=rruff.info/R050319
##MEASURED CHEMISTRY=Na_1.00_Al_3.00_(PO_4_)_2_(OH)_4_
92.52344, 416.2533
93.00555, 415.1417
93.48767, 415.6156
93.96979, 425.4898
94.45190, 435.4513
94.93402, 443.6143
95.41614, 445.1042
95.89825, 442.2935
96.38037, 438.9631
96.86249, 435.7242
97.34460, 435.2286
97.82672, 438.8560
98.30884, 443.6166
98.79095, 448.2708
99.27307, 452.9859
99.75519, 458.9904
100.2373, 467.8926
100.7194, 480.8048
101.2015, 498.8429
101.6837, 523.6743
102.1658, 551.4374
102.6479, 583.4551
103.1300, 621.1470
103.6121, 650.3430
104.0942, 659.8185
104.5764, 654.0141
105.0585, 634.6933
105.5406, 595.6976
106.0227, 543.0617
106.5048, 494.8113
106.9869, 449.4308
107.4691, 411.0793
107.9512, 380.2264
108.4333, 356.4376
108.9154, 338.8928
109.3975, 327.1854
109.8796, 321.5026
110.3618, 320.3755
110.8439, 325.0839
111.3260, 333.0367
111.8081, 344.1438
112.2902, 357.8878
112.7723, 373.2798
113.2544, 389.6230
113.7366, 412.9423
114.2187, 424.4383
114.7008, 423.6932
115.1829, 412.7656
115.6650, 391.1568
116.1471, 358.5219
116.6293, 319.6969
117.1114, 285.5715
117.5935, 255.6250
118.0756, 230.1260
118.5577, 209.6598
119.0398, 193.7401
119.5220, 181.1395
120.0041, 171.8374
120.4862, 165.5783
120.9683, 160.8964
121.4504, 158.0789
121.9325, 156.2724
122.4147, 155.0889
122.8968, 154.5785
123.3789, 154.0674
123.8610, 152.9258
124.3431, 151.7099
124.8252, 150.9882
125.3074, 150.9919
125.7895, 151.5141
126.2716, 152.1533
126.7537, 152.9345
127.2358, 153.7952
127.7179, 155.1821
128.2001, 156.5332
128.6822, 157.0499
129.1643, 156.1091
129.6464, 153.8525
130.1285, 152.1450
130.6107, 151.5467
131.0928, 150.9977
131.5749, 150.1201
132.0570, 149.0756
132.5391, 148.2295
133.0212, 147.8715
133.5034, 147.9869
133.9855, 148.9359
134.4676, 150.9025
134.9497, 153.3516
135.4318, 156.0972
135.9139, 159.0731
136.3960, 162.1768
136.8782, 165.2146
137.3603, 168.1103
137.8424, 171.5816
138.3245, 175.8391
138.8066, 180.6202
139.2887, 185.5684
139.7709, 190.5553
140.2530, 195.8280
140.7351, 201.5293
141.2172, 207.5433
141.6993, 214.5532
142.1814, 222.9447
142.6636, 232.5417
143.1457, 242.9700
143.6278, 254.9268
144.1099, 266.7131
144.5920, 277.3823
145.0741, 286.8423
145.5563, 294.9624
146.0384, 301.9143
146.5205, 307.8423
147.0026, 311.2951
147.4847, 311.2725
147.9668, 309.0396
148.4490, 304.5453
148.9311, 297.9463
149.4132, 290.2789
149.8953, 283.0092
150.3774, 275.9823
150.8595, 269.7003
151.3417, 263.5839
151.8238, 258.3876
152.3059, 254.8430
152.7880, 253.2184
153.2701, 253.0509
153.7522, 253.2110
154.2344, 252.9656
154.7165, 254.0428
155.1986, 256.4511
155.6807, 260.2161
156.1628, 265.7013
156.6449, 273.2067
157.1271, 282.0892
157.6092, 289.6747
158.0913, 293.7412
158.5734, 299.2497
159.0555, 307.7670
159.5376, 318.8146
160.0198, 331.1825
160.5019, 344.2856
160.9840, 358.3040
161.4661, 373.2395
161.9482, 389.2907
162.4303, 405.9912
162.9125, 424.0685
163.3946, 443.3880
163.8767, 460.6725
164.3588, 475.4519
164.8409, 485.9601
165.3230, 489.3682
165.8052, 483.5721
166.2873, 471.8622
166.7694, 457.5110
167.2515, 439.4852
167.7336, 422.1857
168.2157, 406.2188
168.6979, 392.4805
169.1800, 382.3722
169.6621, 376.7426
170.1442, 374.9637
170.6263, 375.7936
171.1084, 382.0762
171.5906, 386.3490
172.0727, 388.1126
172.5548, 386.4302
173.0369, 379.7312
173.5190, 366.5081
174.0011, 347.4992
174.4833, 328.9387
174.9654, 309.4187
175.4475, 291.8519
175.9296, 276.9176
176.4117, 264.4395
176.8938, 253.8791
177.3760, 244.8924
177.8581, 237.4819
178.3402, 231.6981
178.8223, 228.7115
179.3044, 226.0048
179.7865, 222.6143
180.2687, 218.7119
180.7508, 215.0511
181.2329, 212.2905
181.7150, 210.5092
182.1971, 208.9831
182.6792, 207.8094
183.1614, 206.7692
183.6435, 205.6310
184.1256, 204.4309
184.6077, 203.5269
185.0898, 203.3103
185.5719, 203.8466
186.0541, 204.2613
186.5362, 204.2696
187.0183, 204.3036
187.5004, 204.8538
187.9825, 205.9965
188.4646, 207.2039
188.9468, 207.8752
189.4289, 208.1656
189.9110, 208.7506
190.3931, 209.9556
190.8752, 211.4907
191.3573, 212.8788
191.8395, 213.9972
192.3216, 215.2319
192.8037, 216.9278
193.2858, 218.9515
193.7679, 221.0528
194.2500, 223.5529
194.7322, 226.0884
195.2143, 227.3777
195.6964, 226.6736
196.1785, 225.7855
196.6606, 225.9407
197.1427, 226.7108
197.6249, 227.1670
198.1070, 226.8086
198.5891, 225.6436
199.0712, 223.7268
199.5533, 220.6399
200.0354, 217.1594
200.5176, 213.4058
200.9997, 209.5155
201.4818, 205.6983
201.9639, 202.0372
202.4460, 198.5122
202.9281, 195.7737
203.4103, 194.0768
203.8924, 193.0335
204.3745, 192.4060
204.8566, 192.3387
205.3387, 193.2362
205.8208, 195.5264
206.3030, 199.3653
206.7851, 203.2898
207.2672, 207.0935
207.7493, 211.1633
208.2314, 215.8911
208.7135, 221.0750
209.1957, 226.0521
209.6778, 230.1341
210.1599, 233.0881
210.6420, 236.9794
211.1241, 242.3370
211.6062, 247.9490
212.0884, 253.3584
212.5705, 258.4605
213.0526, 263.1943
213.5347, 267.3547
214.0168, 270.8182
214.4989, 275.5356
214.9811, 282.3681
215.4632, 289.6741
215.9453, 296.5458
216.4274, 302.8987
216.9095, 308.9618
217.3916, 315.2989
217.8737, 321.7396
218.3559, 325.7099
218.8380, 326.8033
219.3201, 325.6867
219.8022, 322.5996
220.2843, 317.5654
220.7664, 311.4137
221.2486, 304.3340
221.7307, 296.5356
222.2128, 289.2226
222.6949, 281.6857
223.1770, 275.1535
223.6591, 271.4384
224.1413, 270.8604
224.6234, 271.1004
225.1055, 270.4308
225.5876, 269.4231
226.0697, 269.1971
226.5518, 270.2876
227.0340, 272.1906
227.5161, 274.1554
227.9982, 276.0984
228.4803, 278.4056
228.9624, 281.8487
229.4445, 285.6518
229.9267, 288.7944
230.4088, 290.7341
230.8909, 291.9193
231.3730, 293.1076
231.8551, 294.2386
232.3372, 295.5339
232.8194, 297.2245
233.3015, 299.0833
233.7836, 300.8280
234.2657, 302.2839
234.7478, 303.6544
235.2299, 305.3985
235.7121, 307.6197
236.1942, 310.0613
236.6763, 312.5952
237.1584, 315.2855
237.6405, 318.1885
238.1227, 321.3266
238.6048, 324.7563
239.0869, 328.6702
239.5690, 333.5023
240.0511, 338.0889
240.5332, 342.5410
241.0154, 346.5446
241.4975, 349.6873
241.9796, 351.7920
242.4617, 353.0990
242.9438, 354.3253
243.4259, 356.8081
243.9081, 356.8353
244.3902, 353.3308
244.8723, 347.8294
245.3544, 341.2494
245.8365, 333.9899
246.3186, 326.8470
246.8008, 321.4762
247.2829, 317.4937
247.7650, 316.3583
248.2471, 317.7685
248.7292, 321.9415
249.2113, 329.3932
249.6935, 340.2240
250.1756, 353.6405
250.6577, 368.2875
251.1398, 386.8454
251.6219, 402.4458
252.1040, 418.0438
252.5862, 429.2212
253.0683, 431.9716
253.5504, 425.1514
254.0325, 410.3088
254.5146, 389.4716
254.9967, 357.9584
255.4789, 328.8651
255.9610, 301.3608
256.4431, 276.8201
256.9252, 256.5768
257.4073, 240.8669
257.8894, 228.6497
258.3716, 218.5771
258.8537, 211.1241
259.3358, 205.3987
259.8179, 202.0508
260.3000, 200.0110
260.7821, 198.5291
261.2643, 197.4345
261.7464, 196.6414
262.2285, 196.0156
262.7106, 195.5321
263.1927, 195.6313
263.6748, 196.4398
264.1570, 197.7578
264.6391, 199.5627
265.1212, 201.8154
265.6033, 204.1753
266.0854, 206.3236
266.5675, 208.2379
267.0497, 210.1186
267.5318, 212.1499
268.0139, 214.0141
268.4960, 215.3782
268.9781, 216.2417
269.4602, 216.9677
269.9424, 217.7280
270.4245, 218.5826
270.9066, 219.7560
271.3887, 221.4812
271.8708, 223.3622
272.3529, 225.0541
272.8351, 226.5804
273.3172, 228.2617
273.7993, 230.4857
274.2814, 232.9587
274.7635, 234.8707
275.2456, 236.5929
275.7278, 237.3124
276.2099, 236.2083
276.6920, 233.4197
277.1741, 230.0751
277.6562, 226.7315
278.1383, 223.0647
278.6205, 218.5366
279.1026, 212.6232
279.5847, 206.8843
280.0668, 202.1577
280.5489, 198.4124
281.0310, 195.5625
281.5132, 193.4808
281.9953, 192.5210
282.4774, 193.0491
282.9595, 195.2366
283.4416, 197.8221
283.9237, 199.9959
284.4059, 201.9151
284.8880, 204.2514
285.3701, 207.1136
285.8522, 210.5529
286.3343, 214.6180
286.8164, 219.2780
287.2986, 224.1691
287.7807, 229.1471
288.2628, 234.2207
288.7449, 239.3643
289.2270, 244.5899
289.7091, 249.8938
290.1913, 255.2180
290.6734, 260.5968
291.1555, 266.3606
291.6376, 273.1352
292.1197, 280.3188
292.6018, 286.6793
293.0840, 292.2199
293.5661, 296.6472
294.0482, 299.9498
294.5303, 302.0894
295.0124, 302.7871
295.4945, 301.8881
295.9767, 299.4842
296.4588, 295.5658
296.9409, 289.8951
297.4230, 283.4983
297.9051, 276.4761
298.3872, 269.1106
298.8694, 261.5623
299.3515, 253.5961
299.8336, 245.9422
300.3157, 239.3837
300.7978, 233.8569
301.2799, 229.6255
301.7621, 227.7686
302.2442, 226.7933
302.7263, 225.2287
303.2084, 222.6546
303.6905, 220.4364
304.1726, 220.2261
304.6548, 222.1137
305.1369, 223.8389
305.6190, 224.1791
306.1011, 224.7865
306.5832, 227.1081
307.0653, 231.1929
307.5475, 235.6339
308.0296, 239.0723
308.5117, 241.6464
308.9938, 245.2071
309.4759, 250.5550
309.9580, 256.3122
310.4402, 261.4179
310.9223, 266.0392
311.4044, 270.8850
311.8865, 277.1200
312.3686, 284.0934
312.8507, 288.9901
313.3329, 291.2686
313.8150, 292.1796
314.2971, 292.8004
314.7792, 292.7131
315.2613, 291.0383
315.7434, 287.0279
316.2256, 281.4001
316.7077, 275.6585
317.1898, 269.8012
317.6719, 263.6764
318.1540, 256.8088
318.6361, 249.7866
319.1183, 243.2688
319.6004, 237.4523
320.0825, 232.1001
320.5646, 226.9393
321.0467, 221.9919
321.5288, 217.0976
322.0110, 212.1902
322.4931, 207.3292
322.9752, 202.6824
323.4573, 198.3030
323.9394, 193.7852
324.4215, 188.5244
324.9037, 182.5748
325.3858, 177.1532
325.8679, 172.5573
326.3500, 168.5481
326.8321, 164.9907
327.3142, 161.8372
327.7964, 158.9041
328.2785, 156.0411
328.7606, 153.2898
329.2427, 150.8275
329.7248, 148.7019
330.2069, 146.8315
330.6891, 145.0502
331.1712, 143.4512
331.6533, 142.2660
332.1354, 141.7888
332.6175, 141.6942
333.0996, 141.3194
333.5818, 140.5971
334.0639, 139.8036
334.5460, 139.0359
335.0281, 138.2901
335.5102, 137.5118
335.9923, 136.5791
336.4745, 135.8492
336.9566, 135.9594
337.4387, 136.9826
337.9208, 137.5979
338.4029, 137.2534
338.8850, 136.3570
339.3671, 135.1206
339.8492, 133.5060
340.3314, 132.2535
340.8135, 132.0795
341.2956, 132.8286
341.7777, 133.5276
342.2598, 133.9286
342.7419, 134.3614
343.2241, 135.1550
343.7062, 136.2461
344.1883, 137.3091
344.6704, 137.9841
345.1525, 138.5560
345.6346, 139.6751
346.1168, 141.4509
346.5989, 143.5175
347.0810, 145.7022
347.5631, 147.9800
348.0452, 150.3552
348.5273, 152.8809
349.0095, 155.4564
349.4916, 157.7944
349.9737, 159.8687
350.4558, 162.5129
350.9379, 166.3438
351.4200, 170.8625
351.9022, 175.1590
352.3843, 179.0451
352.8664, 183.0814
353.3485, 187.7619
353.8306, 192.9227
354.3127, 197.9819
354.7949, 202.9655
355.2770, 207.5009
355.7591, 211.1467
356.2412, 213.9493
356.7233, 216.2693
357.2054, 218.7181
357.6876, 220.6131
358.1697, 220.7197
358.6518, 218.7729
359.1339, 215.7978
359.6160, 212.5027
360.0981, 208.8663
360.5803, 204.9148
361.0624, 200.6516
361.5445, 196.0819
362.0266, 190.8053
362.5087, 184.9940
362.9908, 180.0295
363.4730, 176.8116
363.9551, 174.9482
364.4372, 172.9745
364.9193, 170.4256
365.4014, 168.5285
365.8835, 167.9931
366.3657, 168.4517
366.8478, 169.2660
367.3299, 170.2865
367.8120, 171.3415
368.2941, 172.1724
368.7762, 172.7749
369.2584, 173.2011
369.7405, 173.2439
370.2226, 173.2341
370.7047, 173.5952
371.1868, 174.3495
371.6689, 175.0105
372.1511, 175.0777
372.6332, 174.5183
373.1153, 174.4072
373.5974, 175.0071
374.0795, 175.7467
374.5616, 176.5734
375.0438, 177.3317
375.5259, 177.6821
376.0080, 177.4192
376.4901, 176.6601
376.9722, 175.8017
377.4543, 174.8719
377.9365, 173.8117
378.4186, 172.8475
378.9007, 171.6420
379.3828, 169.6057
379.8649, 166.6393
380.3470, 163.5123
380.8292, 161.3545
381.3113, 160.6601
381.7934, 159.4509
382.2755, 157.0808
382.7576, 154.8219
383.2397, 153.4378
383.7219, 152.8475
384.2040, 152.5478
384.6861, 152.1328
385.1682, 151.6339
385.6503, 151.5685
386.1324, 152.0998
386.6146, 152.9241
387.0967, 154.1204
387.5788, 155.5396
388.0609, 157.0721
388.5430, 158.6638
389.0251, 160.2018
389.5073, 161.4073
389.9894, 161.9266
390.4715, 162.8742
390.9536, 164.5257
391.4357, 166.3855
391.9178, 168.1254
392.4000, 169.7325
392.8821, 171.4333
393.3642, 173.4368
393.8463, 175.7503
394.3284, 178.2658
394.8105, 181.3434
395.2927, 184.2261
395.7748, 186.4402
396.2569, 188.3290
396.7390, 190.4903
397.2211, 193.2436
397.7032, 196.3923
398.1854, 199.5011
398.6675, 202.5869
399.1496, 205.6174
399.6317, 208.4021
400.1138, 211.2622
400.5959, 214.5962
401.0781, 218.4484
401.5602, 222.1582
402.0423, 224.9138
402.5244, 226.8179
403.0065, 229.1004
403.4886, 232.0320
403.9708, 235.1741
404.4529, 238.5572
404.9350, 241.9321
405.4171, 244.5683
405.8992, 245.5420
406.3813, 245.8923
406.8635, 247.5858
407.3456, 250.8420
407.8277, 253.4010
408.3098, 253.7516
408.7919, 252.8872
409.2740, 252.5778
409.7562, 253.1485
410.2383, 253.6770
410.7204, 253.6957
411.2025, 253.2383
411.6846, 252.4233
412.1667, 251.2919
412.6489, 249.7628
413.1310, 247.6021
413.6131, 244.8291
414.0952, 242.0020
414.5773, 239.2600
415.0594, 236.4720
415.5416, 233.6253
416.0237, 230.6809
416.5058, 227.3353
416.9879, 223.2166
417.4700, 218.5860
417.9521, 214.8650
418.4343, 212.2087
418.9164, 210.0914
419.3985, 208.5087
419.8806, 207.3349
420.3627, 206.4169
420.8448, 205.7000
421.3270, 205.1665
421.8091, 204.7339
422.2912, 204.1433
422.7733, 204.5513
423.2554, 206.6291
423.7375, 209.0293
424.2197, 210.7389
424.7018, 211.9956
425.1839, 213.8146
425.6660, 216.9897
426.1481, 221.2830
426.6302, 225.1634
427.1124, 227.4653
427.5945, 230.8031
428.0766, 235.7238
428.5587, 241.6723
429.0408, 248.1637
429.5229, 255.0254
430.0051, 262.3849
430.4872, 270.3931
430.9693, 278.9695
431.4514, 288.3656
431.9335, 299.3241
432.4156, 310.5662
432.8978, 321.4409
433.3799, 332.2006
433.8620, 343.6918
434.3441, 356.4431
434.8262, 370.1862
435.3083, 384.3935
435.7905, 399.6004
436.2726, 413.6384
436.7547, 425.8265
437.2368, 436.5082
437.7189, 446.0285
438.2010, 454.5197
438.6832, 460.9397
439.1653, 464.4212
439.6474, 465.0651
440.1295, 463.4909
440.6116, 460.0213
441.0938, 453.8018
441.5759, 442.8679
442.0580, 428.5073
442.5401, 414.2997
443.0222, 401.0030
443.5043, 388.5203
443.9865, 376.5732
444.4686, 365.2453
444.9507, 354.8008
445.4328, 345.2117
445.9149, 336.7808
446.3970, 330.2893
446.8792, 325.8772
447.3613, 322.4841
447.8434, 319.7471
448.3255, 317.9147
448.8076, 317.3358
449.2897, 318.0519
449.7719, 319.7664
450.2540, 322.1891
450.7361, 325.3394
451.2182, 329.5714
451.7003, 336.1297
452.1824, 342.2406
452.6646, 346.2894
453.1467, 349.3649
453.6288, 353.4532
454.1109, 359.4402
454.5930, 366.2745
455.0751, 371.8549
455.5573, 375.2342
456.0394, 379.1828
456.5215, 383.9605
457.0036, 388.9790
457.4857, 393.7924
457.9678, 398.5029
458.4500, 403.5983
458.9321, 409.4318
459.4142, 415.9690
459.8963, 423.2061
460.3784, 431.9543
460.8605, 439.8960
461.3427, 446.2070
461.8248, 451.7169
462.3069, 457.2060
462.7890, 462.8707
463.2711, 468.5196
463.7532, 474.1744
464.2354, 479.8004
464.7175, 484.5259
465.1996, 488.7096
465.6817, 491.1544
466.1638, 490.8083
466.6459, 488.2247
467.1281, 484.5865
467.6102, 480.0611
468.0923, 474.8521
468.5744, 469.3393
469.0565, 463.4267
469.5386, 456.5005
470.0208, 448.0410
470.5029, 438.7780
470.9850, 429.8303
471.4671, 420.9406
471.9492, 413.2310
472.4313, 406.9491
472.9135, 401.9670
473.3956, 398.3206
473.8777, 395.9353
474.3598, 394.2748
474.8419, 392.8934
475.3240, 391.8806
475.8062, 392.1837
476.2883, 394.3824
476.7704, 396.9921
477.2525, 399.5801
477.7346, 402.4897
478.2167, 406.0872
478.6989, 410.4992
479.1810, 415.6078
479.6631, 421.3089
480.1452, 427.5020
480.6273, 434.6549
481.1094, 443.5882
481.5916, 452.6143
482.0737, 461.5508
482.5558, 470.1297
483.0379, 478.0782
483.5200, 485.3309
484.0021, 491.7484
484.4843, 497.0270
484.9664, 501.0775
485.4485, 504.4872
485.9306, 507.3188
486.4127, 509.5207
486.8948, 510.9123
487.3770, 511.5917
487.8591, 512.0338
488.3412, 512.3302
488.8233, 512.6245
489.3054, 513.1604
489.7875, 513.9299
490.2697, 514.9734
490.7518, 516.0590
491.2339, 517.6305
491.7160, 520.4063
492.1981, 524.5457
492.6802, 529.3674
493.1624, 534.6127
493.6445, 540.3255
494.1266, 546.6563
494.6087, 553.6436
495.0908, 560.9005
495.5729, 568.1555
496.0551, 575.3947
496.5372, 582.7382
497.0193, 589.9364
497.5014, 597.4847
497.9835, 606.3067
498.4656, 615.3308
498.9478, 622.9656
499.4299, 628.7291
499.9120, 633.6038
500.3941, 639.1119
500.8762, 645.8867
501.3583, 650.8875
501.8405, 652.4212
502.3226, 653.8829
502.8047, 656.6631
503.2868, 660.2131
503.7689, 663.4288
504.2510, 665.8334
504.7331, 667.4694
505.2152, 668.1580
505.6974, 667.6607
506.1795, 667.7562
506.6616, 669.5500
507.1437, 671.3293
507.6258, 671.4154
508.1079, 670.1713
508.5901, 669.6618
509.0722, 671.9502
509.5543, 675.0261
510.0364, 675.7748
510.5185, 674.2086
511.0006, 672.2892
511.4828, 670.9560
511.9649, 669.7862
512.4470, 667.9211
512.9291, 665.3550
513.4113, 662.3051
513.8934, 658.7895
514.3755, 654.8506
514.8576, 650.2061
515.3397, 645.0113
515.8218, 640.4133
516.3040, 637.4246
516.7861, 635.6641
517.2682, 632.4238
517.7503, 625.1407
518.2324, 619.5978
518.7145, 617.1190
519.1967, 616.0895
519.6788, 615.2330
520.1609, 614.1832
520.6430, 612.8954
521.1251, 610.9863
521.6072, 608.5209
522.0894, 608.1419
522.5715, 610.6492
523.0536, 614.0720
523.5357, 618.0545
524.0178, 622.3058
524.4999, 626.4080
524.9821, 630.2260
525.4642, 634.2939
525.9463, 639.1494
526.4284, 644.6796
526.9105, 650.6875
527.3926, 657.3431
527.8748, 663.7982
528.3569, 669.6914
528.8390, 674.8534
529.3211, 678.7731
529.8032, 681.1951
530.2853, 682.5748
530.7675, 682.6588
531.2496, 681.9488
531.7317, 681.6536
532.2138, 682.1381
532.6959, 682.2579
533.1780, 680.5883
533.6602, 676.9040
534.1423, 672.6959
534.6244, 668.3193
535.1065, 663.1004
535.5886, 656.4362
536.0707, 648.8831
536.5529, 641.2400
537.0350, 633.8768
537.5171, 626.5735
537.9992, 618.9482
538.4813, 610.7875
538.9634, 603.4855
539.4456, 597.7767
539.9277, 592.2618
540.4098, 585.9936
540.8919, 579.5304
541.3740, 573.9680
541.8561, 569.7103
542.3383, 566.5770
542.8204, 564.6552
543.3025, 563.8438
543.7846, 563.0251
544.2667, 561.5684
544.7488, 560.7189
545.2310, 561.8444
545.7131, 564.7999
546.1952, 569.2213
546.6773, 576.2550
547.1594, 583.5953
547.6415, 589.1989
548.1237, 593.9207
548.6058, 600.1758
549.0879, 608.9285
549.5700, 619.0743
550.0521, 628.7139
550.5342, 637.0900
551.0164, 647.2560
551.4985, 659.7080
551.9806, 673.0576
552.4627, 687.0786
552.9448, 701.5641
553.4269, 716.4443
553.9091, 731.7130
554.3912, 747.0712
554.8733, 762.2211
555.3554, 777.3975
555.8375, 791.2307
556.3196, 804.4577
556.8018, 815.0323
557.2839, 821.2233
557.7660, 824.0394
558.2481, 826.3132
558.7302, 829.9254
559.2123, 832.3464
559.6945, 829.9610
560.1766, 823.8220
560.6587, 818.8231
561.1408, 816.6891
561.6229, 815.3658
562.1050, 812.3779
562.5872, 807.4991
563.0693, 802.0786
563.5514, 796.2480
564.0335, 789.7774
564.5156, 782.8528
564.9977, 775.1779
565.4799, 766.0419
565.9620, 755.2064
566.4441, 743.3517
566.9262, 731.7664
567.4083, 721.0654
567.8904, 708.1073
568.3726, 690.4964
568.8547, 673.0137
569.3368, 657.6172
569.8189, 643.3311
570.3010, 628.2951
570.7831, 611.4167
571.2653, 594.9652
571.7474, 582.1252
572.2295, 572.4226
572.7116, 561.3316
573.1937, 547.6361
573.6758, 533.8254
574.1580, 521.4653
574.6401, 510.6808
575.1222, 501.9690
575.6043, 496.4516
576.0864, 491.7998
576.5685, 486.8157
577.0507, 482.0148
577.5328, 478.4176
578.0149, 476.2343
578.4970, 474.5667
578.9791, 472.3783
579.4612, 469.6073
579.9434, 467.9062
580.4255, 467.8037
580.9076, 468.2001
581.3897, 469.6454
581.8718, 471.1036
582.3539, 471.1959
582.8361, 469.7409
583.3182, 468.1841
583.8003, 467.9160
584.2824, 468.8234
584.7645, 470.0530
585.2466, 471.5533
585.7288, 473.5237
586.2108, 476.0991
586.6929, 479.2163
587.1750, 482.7903
587.6572, 486.8803
588.1393, 491.1380
588.6214, 494.8406
589.1035, 498.9048
589.5856, 504.7368
