##NAMES=Brazilianite
##RRUFFID=R050126
##IDEAL CHEMISTRY=NaAl_3_(PO_4_)_2_(OH)_4_
##LOCALITY=Linopolis, Minas Gerais, Brazil
##OWNER=RRUFF
##SOURCE=Carlos and Paulo Vasconcelos
##DESCRIPTION=Pair of greenish yellow elongated crystals
##STATUS=The identification of this mineral has been confirmed by X-ray diffraction and chemical analysis
##URL=rruff.info/R050126
##MEASURED CHEMISTRY=Na_1.00_Al_3.00_(P_1.00_O_4_)_2_((OH)_3.80_F_0.20_)_Î£=4_
94.30859, 38.31829
94.79071, 36.47242
95.27283, 36.17144
95.75494, 37.56845
96.23706, 40.02398
96.71918, 42.75167
97.20129, 45.70616
97.68341, 48.95118
98.16553, 52.55370
98.64764, 56.47260
99.12976, 60.64322
99.61188, 65.14885
100.0940, 69.82410
100.5761, 74.14670
101.0582, 77.87196
101.5403, 82.05758
102.0225, 87.57465
102.5046, 94.48215
102.9867, 102.1354
103.4688, 110.3899
103.9509, 119.2089
104.4330, 129.5308
104.9152, 142.1209
105.3973, 155.0033
105.8794, 166.2822
106.3615, 177.3083
106.8436, 184.4897
107.3257, 186.6599
107.8079, 183.0352
108.2900, 177.9961
108.7721, 169.3347
109.2542, 160.1581
109.7363, 154.5987
110.2184, 154.4792
110.7006, 156.3608
111.1827, 159.2564
111.6648, 162.6074
112.1469, 168.0962
112.6290, 176.3419
113.1111, 186.6863
113.5933, 198.1082
114.0754, 211.5304
114.5575, 225.1567
115.0396, 238.3851
115.5217, 253.6556
116.0038, 265.2055
116.4860, 271.1743
116.9681, 272.1846
117.4502, 270.4605
117.9323, 264.5922
118.4144, 257.4080
118.8965, 250.9472
119.3786, 245.5317
119.8608, 241.1785
120.3429, 237.9130
120.8250, 235.7368
121.3071, 234.7512
121.7892, 235.3720
122.2713, 237.0933
122.7535, 239.3087
123.2356, 242.5680
123.7177, 245.7476
124.1998, 247.6401
124.6819, 248.2170
125.1640, 248.7896
125.6462, 250.2025
126.1283, 252.3935
126.6104, 255.2313
127.0925, 258.9250
127.5746, 263.1688
128.0567, 267.3323
128.5389, 271.3299
129.0210, 275.7139
129.5031, 281.3643
129.9852, 288.0527
130.4673, 294.6418
130.9494, 300.6631
131.4316, 306.0098
131.9137, 309.2633
132.3958, 309.9594
132.8779, 310.4385
133.3600, 311.9208
133.8421, 314.3742
134.3243, 317.1328
134.8064, 319.7265
135.2885, 322.1794
135.7706, 325.0219
136.2527, 328.2455
136.7348, 331.9461
137.2170, 336.4259
137.6991, 341.8070
138.1812, 347.5038
138.6633, 353.1971
139.1454, 358.9530
139.6275, 364.3247
140.1097, 368.9672
140.5918, 373.1128
141.0739, 378.0324
141.5560, 383.6877
142.0381, 390.0523
142.5202, 397.1280
143.0023, 404.7071
143.4845, 413.4141
143.9666, 423.5949
144.4487, 435.3666
144.9308, 446.3817
145.4129, 456.3341
145.8951, 465.9408
146.3772, 476.5804
146.8593, 490.4197
147.3414, 501.7239
147.8235, 509.1752
148.3056, 512.5930
148.7878, 513.5206
149.2699, 510.5048
149.7520, 505.6290
150.2341, 501.6620
150.7162, 498.2041
151.1983, 495.9421
151.6805, 495.0973
152.1626, 495.9619
152.6447, 497.4565
153.1268, 498.9438
153.6089, 501.1560
154.0910, 505.2522
154.5732, 512.4020
155.0553, 520.4881
155.5374, 528.8740
156.0195, 537.7526
156.5016, 546.3951
156.9837, 554.4744
157.4659, 562.2139
157.9480, 570.1163
158.4301, 577.9747
158.9122, 586.1688
159.3943, 594.6381
159.8764, 602.4141
160.3586, 612.0608
160.8407, 624.3752
161.3228, 639.0771
161.8049, 655.4042
162.2870, 672.5905
162.7691, 691.6041
163.2513, 713.1724
163.7334, 738.5595
164.2155, 765.0161
164.6976, 792.3862
165.1797, 820.2009
165.6618, 846.7238
166.1440, 871.6201
166.6261, 894.3878
167.1082, 914.3063
167.5903, 928.2536
168.0724, 942.3732
168.5545, 957.8419
169.0367, 975.4225
169.5188, 999.9809
170.0009, 1034.517
170.4830, 1077.387
170.9651, 1127.979
171.4472, 1195.532
171.9293, 1262.993
172.4115, 1325.182
172.8936, 1380.600
173.3757, 1410.135
173.8578, 1397.285
174.3399, 1350.001
174.8220, 1279.723
175.3042, 1173.198
175.7863, 1055.914
176.2684, 950.8758
176.7505, 858.0292
177.2326, 777.3828
177.7147, 711.8082
178.1969, 658.7618
178.6790, 614.3360
179.1611, 578.9224
179.6432, 550.3400
180.1253, 526.1287
180.6074, 506.5455
181.0896, 490.3801
181.5717, 477.3578
182.0538, 467.1168
182.5359, 458.0309
183.0180, 449.2956
183.5001, 441.3937
183.9823, 435.6838
184.4644, 432.3354
184.9465, 430.3569
185.4286, 428.8488
185.9107, 427.8168
186.3928, 427.3677
186.8750, 427.9511
187.3571, 429.1779
187.8392, 429.5778
188.3213, 428.9012
188.8034, 428.4025
189.2855, 430.0063
189.7677, 433.5286
190.2498, 437.2236
190.7319, 439.8618
191.2140, 441.8146
191.6961, 445.3216
192.1782, 450.7142
192.6604, 456.7226
193.1425, 460.9517
193.6246, 463.4016
194.1067, 466.6864
194.5888, 472.5718
195.0709, 480.7324
195.5531, 488.1664
196.0352, 494.8276
196.5173, 500.8602
196.9994, 506.4132
197.4815, 511.4516
197.9636, 516.4127
198.4458, 521.8014
198.9279, 527.6187
199.4100, 532.3539
199.8921, 535.7769
200.3742, 538.4606
200.8563, 541.3375
201.3385, 544.4149
201.8206, 547.7747
202.3027, 551.5851
202.7848, 555.9147
203.2669, 559.7603
203.7490, 562.6225
204.2311, 565.6037
204.7133, 571.0220
205.1954, 579.1266
205.6775, 588.6498
206.1596, 599.6416
206.6417, 612.6379
207.1238, 623.8896
207.6060, 633.8066
208.0881, 641.5731
208.5702, 645.4033
209.0523, 645.1585
209.5344, 641.4347
210.0165, 634.0336
210.4987, 622.2828
210.9808, 609.4695
211.4629, 594.9172
211.9450, 579.9478
212.4271, 567.7384
212.9092, 558.5822
213.3914, 551.4268
213.8735, 545.7550
214.3556, 541.5347
214.8377, 539.0767
215.3198, 538.3766
215.8019, 539.4724
216.2841, 542.5247
216.7662, 547.7587
217.2483, 554.4806
217.7304, 562.8117
218.2125, 573.6101
218.6946, 583.1176
219.1768, 591.5342
219.6589, 598.4704
220.1410, 603.5058
220.6231, 607.0615
221.1052, 607.9408
221.5873, 605.1820
222.0695, 597.3992
222.5516, 589.8945
223.0337, 582.4837
223.5158, 575.4947
223.9979, 569.1483
224.4800, 562.7949
224.9622, 558.2969
225.4443, 556.6965
225.9264, 558.8865
226.4085, 561.6545
226.8906, 564.9341
227.3727, 568.8117
227.8549, 573.7432
228.3370, 580.0015
228.8191, 586.7945
229.3012, 594.1008
229.7833, 602.5998
230.2654, 609.7979
230.7476, 616.2338
231.2297, 621.1237
231.7118, 622.7927
232.1939, 621.4633
232.6760, 616.5892
233.1581, 607.3798
233.6402, 592.0803
234.1224, 577.2927
234.6045, 562.5067
235.0866, 548.2615
235.5687, 535.6497
236.0508, 524.0900
236.5329, 514.9354
237.0151, 509.0238
237.4972, 507.2443
237.9793, 506.0508
238.4614, 505.2723
238.9435, 505.1456
239.4256, 506.0490
239.9078, 507.6216
240.3899, 510.8045
240.8720, 516.3655
241.3541, 525.4562
241.8362, 532.9636
242.3183, 538.8297
242.8005, 543.2271
243.2826, 546.6985
243.7647, 550.2656
244.2468, 551.1840
244.7289, 548.2621
245.2110, 540.7083
245.6932, 532.6042
246.1753, 524.2966
246.6574, 515.2125
247.1395, 503.9292
247.6216, 487.9701
248.1037, 474.3058
248.5859, 465.2309
249.0680, 461.5089
249.5501, 458.4319
250.0322, 455.0904
250.5143, 453.0961
250.9964, 454.8983
251.4786, 462.2364
251.9607, 470.2753
252.4428, 478.3671
252.9249, 486.7262
253.4070, 492.9976
253.8891, 498.3268
254.3713, 500.5117
254.8534, 496.3280
255.3355, 482.9912
255.8176, 468.9563
256.2997, 455.4297
256.7818, 442.4259
257.2639, 431.9142
257.7461, 424.0270
258.2282, 418.4597
258.7103, 414.9814
259.1924, 413.6098
259.6745, 414.2625
260.1566, 417.2250
260.6388, 422.4809
261.1209, 428.0545
261.6030, 433.9518
262.0851, 440.2348
262.5672, 446.9094
263.0493, 454.1175
263.5315, 461.4918
264.0136, 468.7981
264.4957, 476.1145
264.9778, 484.6966
265.4599, 494.9913
265.9420, 505.6666
266.4242, 515.2360
266.9063, 523.0351
267.3884, 532.3608
267.8705, 544.1738
268.3526, 557.8311
268.8347, 570.2371
269.3169, 580.7000
269.7990, 591.1830
270.2811, 603.1387
270.7632, 616.6865
271.2453, 630.7350
271.7274, 644.9629
272.2096, 659.7626
272.6917, 676.8549
273.1738, 696.2498
273.6559, 718.3943
274.1380, 743.4639
274.6201, 771.6931
275.1023, 802.8942
275.5844, 837.3604
276.0665, 874.3571
276.5486, 914.9766
277.0307, 960.3865
277.5128, 1003.734
277.9950, 1043.759
278.4771, 1081.186
278.9592, 1105.793
279.4413, 1117.599
279.9234, 1116.291
280.4055, 1099.695
280.8877, 1066.693
281.3698, 1026.706
281.8519, 981.6995
282.3340, 931.7148
282.8161, 884.4951
283.2982, 839.8904
283.7804, 798.2582
284.2625, 760.7616
284.7446, 727.2326
285.2267, 697.1208
285.7088, 670.6437
286.1909, 647.5574
286.6731, 626.1514
287.1552, 606.3796
287.6373, 588.4006
288.1194, 573.0151
288.6015, 560.0559
289.0836, 547.9471
289.5658, 535.9600
290.0479, 524.4606
290.5300, 514.5815
291.0121, 506.3878
291.4942, 500.0180
291.9763, 495.9793
292.4585, 494.1053
292.9406, 493.2158
293.4227, 493.1605
293.9048, 493.7921
294.3869, 494.8689
294.8690, 496.3947
295.3512, 498.2184
295.8333, 499.9432
296.3154, 501.8175
296.7975, 504.9870
297.2796, 510.3113
297.7617, 516.0552
298.2439, 519.1462
298.7260, 519.8270
299.2081, 520.2205
299.6902, 521.2896
300.1723, 523.1553
300.6544, 526.3113
301.1366, 531.0780
301.6187, 536.4147
302.1008, 540.9818
302.5829, 544.9789
303.0650, 549.3265
303.5471, 554.1232
304.0293, 559.6942
304.5114, 566.5690
304.9935, 574.9336
305.4756, 584.1619
305.9577, 593.2546
306.4398, 602.8091
306.9220, 614.2308
307.4041, 628.3230
307.8862, 644.5608
308.3683, 662.9041
308.8504, 683.1884
309.3326, 705.4232
309.8147, 729.3585
310.2968, 755.3276
310.7789, 782.6413
311.2610, 812.7924
311.7431, 844.5488
312.2252, 877.9514
312.7073, 912.8474
313.1895, 947.3188
313.6716, 981.9446
314.1537, 1015.018
314.6358, 1044.473
315.1179, 1072.613
315.6000, 1093.922
316.0822, 1105.991
316.5643, 1108.964
317.0464, 1103.396
317.5285, 1085.280
318.0106, 1061.258
318.4927, 1035.686
318.9749, 1007.516
319.4570, 980.7144
319.9391, 956.6805
320.4212, 935.1311
320.9033, 914.8221
321.3854, 895.3962
321.8676, 877.1233
322.3497, 860.2619
322.8318, 845.1575
323.3139, 830.5156
323.7960, 816.6539
324.2781, 803.0016
324.7603, 788.5101
325.2424, 771.7810
325.7245, 755.3708
326.2066, 739.9669
326.6887, 725.6531
327.1708, 712.1151
327.6530, 699.1863
328.1351, 687.1326
328.6172, 676.0365
329.0993, 665.9954
329.5814, 656.8210
330.0635, 648.3300
330.5457, 640.5368
331.0278, 633.9772
331.5099, 629.1768
331.9920, 625.1404
332.4741, 621.3127
332.9562, 617.3233
333.4384, 614.1018
333.9205, 612.1459
334.4026, 611.0162
334.8847, 608.9178
335.3668, 605.0004
335.8489, 601.3324
336.3311, 598.9197
336.8132, 598.0810
337.2953, 597.5614
337.7774, 597.5201
338.2595, 597.6727
338.7416, 597.4293
339.2238, 596.6085
339.7059, 595.9140
340.1880, 595.5548
340.6701, 595.5297
341.1522, 595.8954
341.6343, 596.6075
342.1165, 597.8248
342.5986, 599.9710
343.0807, 603.1838
343.5628, 606.0740
344.0449, 607.9489
344.5270, 609.2801
345.0092, 612.2228
345.4913, 616.8840
345.9734, 622.5837
346.4555, 628.7629
346.9376, 635.4322
347.4197, 643.2084
347.9019, 652.1935
348.3840, 662.2291
348.8661, 673.2554
349.3482, 685.2552
349.8303, 698.5514
350.3124, 713.7131
350.7946, 730.3979
351.2767, 747.6201
351.7588, 765.3417
352.2409, 784.2946
352.7230, 805.5282
353.2051, 828.8522
353.6873, 854.2024
354.1694, 882.4811
354.6515, 912.1286
355.1336, 941.4725
355.6157, 970.8595
356.0978, 998.8997
356.5800, 1025.976
357.0621, 1051.101
357.5442, 1072.934
358.0263, 1093.694
358.5084, 1108.464
358.9905, 1113.706
359.4727, 1109.754
359.9548, 1098.673
360.4369, 1081.425
360.9190, 1057.756
361.4011, 1026.762
361.8832, 985.2854
362.3654, 942.2313
362.8475, 899.8172
363.3296, 858.6600
363.8117, 819.8987
364.2938, 784.2662
364.7759, 751.3198
365.2581, 720.8782
365.7402, 692.8348
366.2223, 667.6754
366.7044, 645.6620
367.1865, 626.5941
367.6686, 609.8555
368.1508, 597.2000
368.6329, 585.2031
369.1150, 572.9842
369.5971, 560.5120
370.0792, 549.3888
370.5613, 541.1106
371.0435, 533.1748
371.5256, 524.0321
372.0077, 512.0787
372.4898, 501.3312
372.9719, 491.7551
373.4540, 483.4145
373.9361, 476.4677
374.4182, 470.9029
374.9004, 466.8732
375.3825, 464.7331
375.8646, 465.0157
376.3467, 464.8804
376.8288, 464.0585
377.3109, 463.1418
377.7931, 462.9620
378.2752, 463.5822
378.7573, 464.6680
379.2394, 466.2986
379.7215, 468.3469
380.2036, 469.9348
380.6858, 470.9412
381.1679, 471.9228
381.6500, 473.4704
382.1321, 475.5383
382.6142, 477.3807
383.0963, 478.9354
383.5785, 480.1314
384.0606, 480.9690
384.5427, 481.4154
385.0248, 481.1958
385.5069, 479.5211
385.9890, 477.1072
386.4712, 475.6111
386.9533, 475.1809
387.4354, 475.5703
387.9175, 476.7911
388.3996, 478.6316
388.8817, 480.6386
389.3639, 482.4704
389.8460, 484.4302
390.3281, 486.6375
390.8102, 489.1298
391.2923, 492.4409
391.7744, 497.2658
392.2566, 502.9697
392.7387, 508.9096
393.2208, 514.5984
393.7029, 520.9460
394.1850, 528.5141
394.6671, 537.1437
395.1493, 546.4807
395.6314, 557.0482
396.1135, 567.7768
396.5956, 577.9063
397.0777, 586.9971
397.5598, 597.2989
398.0420, 609.5890
398.5241, 623.2634
399.0062, 637.6257
399.4883, 653.4109
399.9704, 669.0645
400.4525, 683.7088
400.9347, 697.4642
401.4168, 712.4671
401.8989, 729.5003
402.3810, 747.0631
402.8631, 764.3597
403.3452, 781.7340
403.8274, 798.1653
404.3095, 813.1242
404.7916, 827.2033
405.2737, 841.7690
405.7558, 857.3987
406.2379, 872.1835
406.7201, 885.5844
407.2022, 897.6014
407.6843, 908.5716
408.1664, 918.5991
408.6485, 927.1066
409.1306, 933.0779
409.6128, 936.5490
410.0949, 938.8801
410.5770, 940.3500
411.0591, 940.9388
411.5412, 940.7902
412.0233, 939.8934
412.5055, 937.5414
412.9876, 933.1147
413.4697, 926.8733
413.9518, 919.4408
414.4339, 910.9382
414.9160, 901.3536
415.3982, 890.5864
415.8803, 878.8295
416.3624, 866.0414
416.8445, 851.2116
417.3266, 836.0084
417.8087, 821.6115
418.2909, 808.1666
418.7730, 795.5601
419.2551, 784.5170
419.7372, 774.0383
420.2193, 763.1888
420.7014, 751.0289
421.1836, 739.5485
421.6657, 729.9301
422.1478, 721.7589
422.6299, 713.8715
423.1120, 705.9490
423.5941, 698.2736
424.0763, 691.2167
424.5584, 684.8342
425.0405, 678.4385
425.5226, 672.7294
426.0047, 666.5845
426.4868, 658.9525
426.9690, 648.7061
427.4511, 638.4731
427.9332, 628.7648
428.4153, 619.4724
428.8974, 609.8864
429.3795, 599.8122
429.8617, 589.8568
430.3438, 580.2001
430.8259, 570.4899
431.3080, 562.2416
431.7901, 555.6744
432.2722, 550.2998
432.7544, 545.1849
433.2365, 540.3192
433.7186, 536.1222
434.2007, 532.7816
434.6828, 530.2039
435.1649, 528.0675
435.6470, 526.3730
436.1292, 525.0670
436.6113, 524.1394
437.0934, 523.5621
437.5755, 523.4081
438.0576, 523.9127
438.5397, 524.2180
439.0219, 523.2817
439.5040, 521.2712
439.9861, 518.7296
440.4682, 515.7484
440.9503, 512.4609
441.4324, 509.1338
441.9146, 505.7733
442.3967, 501.8049
442.8788, 496.5400
443.3609, 490.6042
443.8430, 484.7508
444.3251, 478.8868
444.8073, 473.3751
445.2894, 468.3021
445.7715, 463.6718
446.2536, 459.4968
446.7357, 455.2060
447.2178, 451.8510
447.7000, 449.9849
448.1821, 449.9347
448.6642, 450.1114
449.1463, 450.4588
449.6284, 451.0037
450.1105, 451.8014
450.5927, 453.0562
451.0748, 454.1425
451.5569, 454.6871
452.0390, 455.0262
452.5211, 456.7245
453.0032, 460.2459
453.4854, 463.8578
453.9675, 466.7049
454.4496, 468.7912
454.9317, 470.3774
455.4138, 471.3223
455.8959, 472.1878
456.3781, 473.8348
456.8602, 476.1672
457.3423, 478.1887
457.8244, 479.4256
458.3065, 480.3162
458.7886, 481.6738
459.2708, 483.4742
459.7529, 485.3536
460.2350, 487.0767
460.7171, 488.7488
461.1992, 490.4810
461.6813, 492.2205
462.1635, 494.2948
462.6456, 497.3592
463.1277, 500.8488
463.6098, 503.9217
464.0919, 506.0575
464.5740, 507.8707
465.0562, 509.5959
465.5383, 511.2379
466.0204, 512.8395
466.5025, 514.4914
466.9846, 516.0734
467.4667, 517.5314
467.9489, 518.9796
468.4310, 520.0735
468.9131, 520.5356
469.3952, 520.7286
469.8773, 521.0898
470.3594, 521.4986
470.8416, 522.2804
471.3237, 523.4772
471.8058, 525.0906
472.2879, 527.2509
472.7700, 530.0294
473.2521, 533.1758
473.7343, 536.4357
474.2164, 539.7822
474.6985, 543.8235
475.1806, 548.7021
475.6627, 554.0480
476.1448, 559.1889
476.6270, 564.2426
477.1091, 570.1967
477.5912, 577.3587
478.0733, 585.6689
478.5554, 595.1461
479.0375, 605.7930
479.5197, 617.1550
480.0018, 629.3994
480.4839, 642.0883
480.9660, 654.6287
481.4481, 666.8557
481.9302, 679.2198
482.4124, 692.1703
482.8945, 705.4297
483.3766, 718.6126
483.8587, 731.5246
484.3408, 744.5286
484.8229, 757.9509
485.3051, 771.7594
485.7872, 785.0952
486.2693, 798.4967
486.7514, 811.0072
487.2335, 821.8366
487.7156, 830.2136
488.1978, 838.8777
488.6799, 847.6573
489.1620, 856.9186
489.6441, 866.9517
490.1262, 877.6777
490.6083, 889.5778
491.0905, 902.8561
491.5726, 917.2595
492.0547, 931.8875
492.5368, 946.4935
493.0189, 962.0294
493.5010, 979.3435
493.9832, 998.1371
494.4653, 1017.258
494.9474, 1036.467
495.4295, 1056.567
495.9116, 1078.841
496.3937, 1102.883
496.8758, 1126.896
497.3579, 1150.908
497.8401, 1174.240
498.3222, 1196.682
498.8043, 1218.103
499.2864, 1238.428
499.7685, 1256.736
500.2506, 1274.513
500.7328, 1293.045
501.2149, 1312.743
501.6970, 1330.817
502.1791, 1346.386
502.6612, 1359.611
503.1433, 1370.651
503.6255, 1378.894
504.1076, 1385.674
504.5897, 1390.657
505.0718, 1394.340
505.5539, 1398.178
506.0360, 1402.410
506.5182, 1406.564
507.0003, 1410.206
507.4824, 1413.237
507.9645, 1417.903
508.4466, 1424.748
508.9287, 1431.904
509.4109, 1437.355
509.8930, 1441.117
510.3751, 1445.674
510.8572, 1451.696
511.3393, 1458.151
511.8214, 1463.588
512.3036, 1468.053
512.7857, 1471.861
513.2678, 1474.854
513.7499, 1477.398
514.2321, 1480.264
514.7142, 1483.338
515.1963, 1485.614
515.6784, 1486.253
516.1605, 1485.873
516.6426, 1484.964
517.1248, 1483.413
517.6069, 1481.962
518.0890, 1480.377
518.5711, 1479.243
519.0532, 1479.407
519.5353, 1480.385
520.0175, 1483.390
520.4996, 1489.389
520.9817, 1497.985
521.4638, 1506.543
521.9459, 1513.982
522.4280, 1522.844
522.9102, 1534.449
523.3923, 1549.436
523.8744, 1564.141
524.3565, 1577.789
524.8386, 1592.821
525.3207, 1613.208
525.8029, 1638.744
526.2849, 1663.675
526.7670, 1686.283
527.2491, 1707.828
527.7313, 1730.237
528.2134, 1753.413
528.6955, 1776.358
529.1776, 1797.919
529.6597, 1818.948
530.1418, 1841.667
530.6240, 1865.709
531.1061, 1886.928
531.5882, 1902.208
532.0703, 1913.203
532.5524, 1921.427
533.0345, 1927.313
533.5167, 1930.136
533.9988, 1929.295
534.4809, 1925.256
534.9630, 1918.839
535.4451, 1910.440
535.9272, 1899.292
536.4094, 1885.372
536.8915, 1868.687
537.3736, 1848.449
537.8557, 1823.407
538.3378, 1796.549
538.8199, 1769.069
539.3021, 1740.770
539.7842, 1713.415
540.2663, 1686.784
540.7484, 1660.983
541.2305, 1636.269
541.7126, 1612.359
542.1948, 1588.339
542.6769, 1563.354
543.1590, 1539.560
543.6411, 1520.762
544.1232, 1506.511
544.6053, 1495.164
545.0875, 1485.870
545.5696, 1478.888
546.0517, 1474.563
546.5338, 1472.867
547.0159, 1473.437
547.4980, 1476.138
547.9802, 1481.026
548.4623, 1488.019
548.9444, 1496.214
549.4265, 1508.110
549.9086, 1526.143
550.3907, 1547.412
550.8729, 1567.809
551.3550, 1585.084
551.8371, 1605.221
552.3192, 1629.832
552.8013, 1658.140
553.2834, 1685.983
553.7656, 1713.085
554.2477, 1740.921
554.7298, 1770.797
555.2119, 1802.629
555.6940, 1834.689
556.1761, 1867.265
556.6583, 1898.646
557.1404, 1928.577
557.6225, 1956.054
558.1046, 1978.323
558.5867, 1995.042
559.0688, 2006.377
559.5510, 2012.080
560.0331, 2012.555
560.5152, 2008.705
560.9973, 1999.214
561.4794, 1987.036
561.9615, 1973.094
562.4437, 1957.619
562.9258, 1941.556
563.4079, 1925.630
563.8900, 1908.605
564.3721, 1889.863
564.8542, 1868.649
565.3364, 1847.931
565.8185, 1828.927
566.3006, 1809.520
566.7827, 1787.862
567.2648, 1764.208
567.7469, 1737.966
568.2291, 1708.863
568.7112, 1677.400
569.1933, 1643.597
569.6754, 1607.650
570.1575, 1570.105
570.6396, 1529.852
571.1218, 1488.935
571.6039, 1451.089
572.0860, 1416.318
572.5681, 1382.000
573.0502, 1345.005
573.5323, 1309.103
574.0145, 1276.701
574.4966, 1248.524
574.9787, 1223.470
575.4608, 1201.597
575.9429, 1182.598
576.4250, 1166.463
576.9072, 1153.152
577.3893, 1142.809
577.8714, 1136.086
578.3535, 1132.206
578.8356, 1129.465
579.3177, 1127.132
579.7999, 1127.739
580.2820, 1132.116
580.7641, 1140.133
581.2462, 1151.202
581.7283, 1165.451
582.2104, 1181.641
582.6926, 1199.176
583.1747, 1217.967
583.6568, 1237.379
584.1389, 1257.441
584.6210, 1279.386
585.1031, 1304.224
585.5853, 1331.553
586.0674, 1360.682
586.5495, 1391.461
587.0316, 1423.787
587.5137, 1457.849
587.9958, 1493.611
588.4780, 1531.254
588.9601, 1570.038
589.4422, 1611.522
589.9243, 1656.901
