##NAMES=Brazilianite
##RRUFFID=R050504
##IDEAL CHEMISTRY=NaAl_3_(PO_4_)_2_(OH)_4_
##LOCALITY=CÃ³rrego Frio, Minas Gerais, Brazil
##OWNER=RRUFF
##SOURCE=Marcus Origlieri
##DESCRIPTION=Yellowish green fragment
##STATUS=The identification of this mineral has been confirmed by X-ray diffraction and chemical analysis
##URL=rruff.info/R050504
##MEASURED CHEMISTRY=Na_1.00_Al_3.00_(P_1.00_O_4_)_2_(OH)_4_
90.52570, 0.0000000E+00
91.00781, 52.44983
91.48993, 44.36886
91.97205, 41.13921
92.45416, 47.62383
92.93628, 58.74929
93.41840, 62.56366
93.90051, 55.26811
94.38263, 43.30478
94.86475, 36.74038
95.34686, 35.54089
95.82898, 36.41325
96.31110, 37.30069
96.79321, 38.19053
97.27533, 38.88949
97.75745, 39.28172
98.23956, 39.45147
98.72168, 39.66354
99.20380, 39.85865
99.68591, 40.27338
100.1680, 41.16442
100.6501, 42.54610
101.1323, 44.30764
101.6144, 46.50474
102.0965, 49.18505
102.5786, 51.67377
103.0607, 53.84563
103.5428, 55.95463
104.0250, 58.43938
104.5071, 61.21306
104.9892, 64.47615
105.4713, 68.33914
105.9534, 73.10708
106.4355, 77.73789
106.9177, 81.60844
107.3998, 85.30682
107.8819, 90.85880
108.3640, 98.95246
108.8461, 108.2801
109.3282, 118.3877
109.8104, 128.1293
110.2925, 139.7079
110.7746, 153.4492
111.2567, 169.1607
111.7388, 185.9650
112.2209, 204.8082
112.7031, 223.9713
113.1852, 242.4840
113.6673, 259.0628
114.1494, 275.8340
114.6315, 293.9916
115.1136, 313.8053
115.5958, 332.2170
116.0779, 347.9557
116.5600, 361.8999
117.0421, 374.9785
117.5242, 386.5579
118.0063, 398.1994
118.4885, 410.5184
118.9706, 423.3750
119.4527, 438.0032
119.9348, 455.2955
120.4169, 474.7424
120.8990, 495.7249
121.3812, 518.1708
121.8633, 541.8120
122.3454, 566.3353
122.8275, 592.2072
123.3096, 618.0800
123.7917, 642.7360
124.2739, 666.3739
124.7560, 689.7240
125.2381, 713.4211
125.7202, 737.2149
126.2023, 760.2042
126.6844, 781.9728
127.1666, 803.4440
127.6487, 826.4719
128.1308, 851.0139
128.6129, 874.6293
129.0950, 895.8012
129.5771, 914.6882
130.0593, 931.9073
130.5414, 947.3491
131.0235, 961.2024
131.5056, 972.2481
131.9877, 976.6407
132.4698, 976.4481
132.9520, 978.9229
133.4341, 983.9498
133.9162, 989.6677
134.3983, 995.4553
134.8804, 1001.363
135.3625, 1007.712
135.8447, 1014.331
136.3268, 1021.887
136.8089, 1031.810
137.2910, 1044.509
137.7731, 1057.335
138.2552, 1069.526
138.7374, 1081.029
139.2195, 1091.668
139.7016, 1100.910
140.1837, 1109.892
140.6658, 1121.222
141.1479, 1136.214
141.6301, 1150.635
142.1122, 1162.344
142.5943, 1170.016
143.0764, 1178.748
143.5585, 1189.170
144.0406, 1200.699
144.5228, 1211.787
145.0049, 1222.456
145.4870, 1232.552
145.9691, 1242.025
146.4512, 1252.404
146.9333, 1259.856
147.4155, 1262.971
147.8976, 1262.375
148.3797, 1263.549
148.8618, 1267.861
149.3439, 1272.979
149.8260, 1277.393
150.3082, 1280.166
150.7903, 1283.308
151.2724, 1286.796
151.7545, 1290.581
152.2366, 1295.506
152.7188, 1302.968
153.2009, 1310.866
153.6830, 1317.426
154.1651, 1321.644
154.6472, 1325.319
155.1293, 1328.384
155.6115, 1330.677
156.0936, 1333.910
156.5757, 1339.662
157.0578, 1346.085
157.5399, 1351.082
158.0220, 1353.586
158.5042, 1355.186
158.9863, 1355.498
159.4684, 1353.605
159.9505, 1354.985
160.4326, 1363.936
160.9147, 1376.783
161.3969, 1388.049
161.8790, 1396.998
162.3611, 1403.101
162.8432, 1405.243
163.3253, 1401.781
163.8074, 1399.004
164.2896, 1398.852
164.7717, 1401.360
165.2538, 1406.630
165.7359, 1417.605
166.2180, 1429.644
166.7001, 1438.972
167.1823, 1443.665
167.6644, 1448.106
168.1465, 1454.462
168.6286, 1462.617
169.1107, 1472.280
169.5928, 1484.317
170.0750, 1497.324
170.5571, 1510.448
171.0392, 1524.611
171.5213, 1536.766
172.0034, 1545.635
172.4855, 1550.820
172.9677, 1550.371
173.4498, 1540.884
173.9319, 1525.616
174.4140, 1508.764
174.8961, 1489.483
175.3782, 1471.284
175.8604, 1457.620
176.3425, 1448.206
176.8246, 1441.210
177.3067, 1435.905
177.7888, 1431.876
178.2709, 1428.354
178.7531, 1424.963
179.2352, 1422.015
179.7173, 1420.004
180.1994, 1418.899
180.6815, 1418.379
181.1636, 1418.188
181.6458, 1418.361
182.1279, 1419.054
182.6100, 1420.807
183.0921, 1422.904
183.5742, 1423.738
184.0563, 1423.248
184.5385, 1422.442
185.0206, 1422.353
185.5027, 1422.828
185.9848, 1423.130
186.4669, 1422.515
186.9490, 1421.566
187.4312, 1422.521
187.9133, 1425.626
188.3954, 1428.811
188.8775, 1428.924
189.3596, 1426.359
189.8417, 1424.909
190.3239, 1426.680
190.8060, 1430.963
191.2881, 1434.164
191.7702, 1436.219
192.2523, 1437.402
192.7344, 1437.676
193.2166, 1437.054
193.6987, 1436.841
194.1808, 1437.998
194.6629, 1440.333
195.1450, 1441.292
195.6271, 1440.524
196.1093, 1439.289
196.5914, 1439.442
197.0735, 1441.053
197.5556, 1443.070
198.0377, 1445.342
198.5198, 1447.890
199.0020, 1449.322
199.4841, 1449.291
199.9662, 1448.722
200.4483, 1449.218
200.9304, 1450.935
201.4125, 1452.703
201.8947, 1453.803
202.3768, 1454.115
202.8589, 1455.464
203.3410, 1458.308
203.8231, 1461.621
204.3052, 1463.216
204.7874, 1462.677
205.2695, 1462.257
205.7516, 1463.244
206.2337, 1465.996
206.7158, 1467.650
207.1979, 1467.857
207.6801, 1467.280
208.1622, 1467.213
208.6443, 1467.682
209.1264, 1468.579
209.6085, 1470.081
210.0906, 1472.501
210.5728, 1473.902
211.0549, 1473.594
211.5370, 1472.728
212.0191, 1474.333
212.5012, 1479.655
212.9833, 1484.447
213.4655, 1486.336
213.9476, 1484.287
214.4297, 1483.349
214.9118, 1483.975
215.3939, 1485.593
215.8760, 1486.722
216.3581, 1486.972
216.8403, 1487.501
217.3224, 1488.967
217.8045, 1491.804
218.2866, 1494.297
218.7687, 1496.686
219.2508, 1498.553
219.7330, 1498.267
220.2151, 1494.094
220.6972, 1490.875
221.1793, 1491.446
221.6614, 1498.006
222.1435, 1502.227
222.6257, 1503.270
223.1078, 1502.095
223.5899, 1501.312
224.0720, 1500.878
224.5541, 1500.931
225.0362, 1501.726
225.5184, 1503.983
226.0005, 1505.114
226.4826, 1504.248
226.9647, 1502.492
227.4468, 1503.193
227.9289, 1508.188
228.4111, 1512.890
228.8932, 1515.061
229.3753, 1513.467
229.8574, 1512.321
230.3395, 1511.665
230.8216, 1511.519
231.3038, 1512.074
231.7859, 1514.043
232.2680, 1515.635
232.7501, 1515.815
233.2322, 1513.251
233.7143, 1512.299
234.1965, 1513.605
234.6786, 1516.381
235.1607, 1518.379
235.6428, 1518.847
236.1249, 1519.576
236.6070, 1521.537
237.0892, 1525.915
237.5713, 1528.750
238.0534, 1529.271
238.5355, 1528.428
239.0176, 1528.699
239.4997, 1530.591
239.9819, 1532.872
240.4640, 1535.016
240.9461, 1536.934
241.4282, 1538.971
241.9103, 1541.214
242.3924, 1543.561
242.8746, 1545.832
243.3567, 1548.409
243.8388, 1550.361
244.3209, 1551.211
244.8030, 1550.438
245.2851, 1549.915
245.7673, 1549.267
246.2494, 1549.042
246.7315, 1550.645
247.2136, 1555.461
247.6957, 1559.917
248.1778, 1562.434
248.6600, 1562.014
249.1421, 1562.540
249.6242, 1563.647
250.1063, 1565.881
250.5884, 1570.715
251.0705, 1580.141
251.5527, 1588.782
252.0348, 1594.699
252.5169, 1597.677
252.9990, 1598.759
253.4811, 1597.543
253.9632, 1594.682
254.4454, 1591.318
254.9275, 1587.418
255.4096, 1583.007
255.8917, 1577.808
256.3738, 1571.414
256.8560, 1566.178
257.3381, 1561.801
257.8202, 1558.793
258.3023, 1558.231
258.7844, 1561.385
259.2665, 1564.252
259.7487, 1565.639
260.2308, 1565.404
260.7129, 1564.485
261.1950, 1562.486
261.6771, 1560.232
262.1592, 1558.575
262.6414, 1556.997
263.1235, 1557.454
263.6056, 1561.254
264.0877, 1568.807
264.5698, 1574.005
265.0519, 1576.443
265.5341, 1577.086
266.0162, 1576.752
266.4983, 1574.963
266.9804, 1573.666
267.4625, 1573.232
267.9446, 1573.666
268.4268, 1575.322
268.9089, 1578.609
269.3910, 1582.342
269.8731, 1585.302
270.3552, 1587.287
270.8373, 1589.268
271.3195, 1591.694
271.8016, 1594.403
272.2837, 1595.666
272.7658, 1595.002
273.2479, 1593.986
273.7300, 1594.117
274.2122, 1595.563
274.6943, 1597.175
275.1764, 1598.934
275.6585, 1600.693
276.1406, 1601.431
276.6227, 1600.874
277.1049, 1600.250
277.5870, 1600.803
278.0691, 1602.700
278.5512, 1603.900
279.0333, 1603.993
279.5154, 1603.219
279.9976, 1601.891
280.4797, 1599.678
280.9618, 1598.594
281.4439, 1601.104
281.9260, 1607.243
282.4081, 1610.738
282.8903, 1610.069
283.3724, 1607.090
283.8545, 1606.623
284.3366, 1608.949
284.8187, 1610.797
285.3008, 1609.149
285.7830, 1604.431
286.2651, 1602.018
286.7472, 1602.780
287.2293, 1605.234
287.7114, 1606.802
288.1935, 1607.484
288.6757, 1608.055
289.1578, 1608.991
289.6399, 1610.197
290.1220, 1611.113
290.6041, 1611.646
291.0862, 1612.081
291.5684, 1612.730
292.0505, 1613.607
292.5326, 1614.803
293.0147, 1617.206
293.4968, 1620.000
293.9789, 1620.389
294.4611, 1618.035
294.9432, 1614.954
295.4253, 1613.318
295.9074, 1612.941
296.3895, 1612.996
296.8716, 1613.333
297.3538, 1613.837
297.8359, 1614.084
298.3180, 1614.051
298.8001, 1614.423
299.2822, 1616.489
299.7643, 1619.540
300.2465, 1621.660
300.7286, 1621.462
301.2107, 1620.449
301.6928, 1620.825
302.1749, 1622.507
302.6570, 1624.241
303.1392, 1624.614
303.6213, 1624.420
304.1034, 1625.050
304.5855, 1627.251
305.0676, 1630.036
305.5497, 1632.653
306.0319, 1635.068
306.5140, 1637.242
306.9961, 1639.128
307.4782, 1640.718
307.9603, 1641.908
308.4424, 1642.291
308.9246, 1642.925
309.4067, 1644.663
309.8888, 1647.293
310.3709, 1650.283
310.8530, 1654.585
311.3351, 1658.394
311.8173, 1659.827
312.2994, 1657.896
312.7815, 1655.785
313.2636, 1655.393
313.7457, 1656.154
314.2278, 1657.061
314.7100, 1658.491
315.1921, 1659.378
315.6742, 1658.537
316.1563, 1655.416
316.6384, 1653.465
317.1205, 1655.445
317.6027, 1659.137
318.0848, 1661.722
318.5669, 1661.797
319.0490, 1661.058
319.5311, 1659.792
320.0132, 1657.974
320.4954, 1656.811
320.9775, 1656.894
321.4596, 1657.640
321.9417, 1658.557
322.4238, 1659.711
322.9059, 1660.839
323.3881, 1661.887
323.8702, 1662.850
324.3523, 1663.780
324.8344, 1664.834
325.3165, 1665.775
325.7986, 1666.476
326.2808, 1666.799
326.7629, 1667.067
327.2450, 1667.284
327.7271, 1667.467
328.2092, 1667.663
328.6913, 1667.512
329.1735, 1667.697
329.6556, 1668.553
330.1377, 1670.712
330.6198, 1672.332
331.1019, 1673.523
331.5840, 1674.111
332.0662, 1673.617
332.5483, 1670.577
333.0304, 1668.525
333.5125, 1668.915
333.9946, 1672.394
334.4767, 1674.769
334.9589, 1675.614
335.4410, 1675.733
335.9231, 1676.219
336.4052, 1677.449
336.8873, 1677.989
337.3694, 1677.025
337.8515, 1674.745
338.3336, 1674.627
338.8158, 1677.470
339.2979, 1680.852
339.7800, 1682.656
340.2621, 1682.738
340.7442, 1682.149
341.2263, 1680.534
341.7085, 1678.665
342.1906, 1679.631
342.6727, 1683.855
343.1548, 1688.349
343.6369, 1691.064
344.1190, 1692.069
344.6012, 1692.824
345.0833, 1693.202
345.5654, 1693.871
346.0475, 1696.815
346.5296, 1701.805
347.0117, 1705.606
347.4939, 1705.279
347.9760, 1702.263
348.4581, 1701.161
348.9402, 1702.295
349.4223, 1704.689
349.9044, 1707.805
350.3866, 1711.411
350.8687, 1714.745
351.3508, 1717.717
351.8329, 1720.173
352.3150, 1721.550
352.7971, 1721.892
353.2793, 1722.427
353.7614, 1724.651
354.2435, 1727.621
354.7256, 1729.751
355.2077, 1730.013
355.6898, 1729.978
356.1720, 1731.320
356.6541, 1733.684
357.1362, 1735.558
357.6183, 1736.173
358.1004, 1735.873
358.5826, 1734.769
359.0647, 1732.455
359.5468, 1730.444
360.0289, 1730.198
360.5110, 1730.790
360.9931, 1730.451
361.4753, 1727.547
361.9574, 1724.299
362.4395, 1721.875
362.9216, 1720.508
363.4037, 1719.168
363.8858, 1717.403
364.3680, 1715.587
364.8501, 1714.111
365.3322, 1713.539
365.8143, 1712.882
366.2964, 1711.794
366.7785, 1710.300
367.2607, 1709.145
367.7428, 1708.669
368.2249, 1708.400
368.7070, 1708.043
369.1891, 1706.993
369.6712, 1706.678
370.1534, 1707.531
370.6355, 1709.138
371.1176, 1710.174
371.5997, 1709.889
372.0818, 1709.913
372.5639, 1710.814
373.0461, 1712.576
373.5282, 1715.342
374.0103, 1719.804
374.4924, 1724.622
374.9745, 1727.683
375.4566, 1728.670
375.9388, 1728.915
376.4209, 1728.463
376.9030, 1727.433
377.3851, 1727.984
377.8672, 1730.774
378.3493, 1733.255
378.8315, 1732.480
379.3136, 1728.401
379.7957, 1725.012
380.2778, 1722.865
380.7599, 1722.044
381.2420, 1723.344
381.7242, 1726.740
382.2063, 1729.828
382.6884, 1730.478
383.1705, 1729.415
383.6526, 1729.070
384.1347, 1729.607
384.6169, 1730.957
385.0990, 1733.470
385.5811, 1736.799
386.0632, 1739.766
386.5453, 1742.060
387.0274, 1743.565
387.5096, 1743.615
387.9917, 1742.241
388.4738, 1741.218
388.9559, 1742.490
389.4380, 1744.824
389.9201, 1746.628
390.4023, 1747.481
390.8844, 1747.594
391.3665, 1746.130
391.8486, 1743.767
392.3307, 1743.023
392.8128, 1746.951
393.2950, 1751.674
393.7771, 1754.511
394.2592, 1754.447
394.7413, 1753.975
395.2234, 1753.648
395.7055, 1753.414
396.1877, 1753.206
396.6698, 1752.509
397.1519, 1752.299
397.6340, 1752.880
398.1161, 1754.300
398.5982, 1756.253
399.0804, 1760.072
399.5625, 1763.641
400.0446, 1765.395
400.5267, 1763.870
401.0088, 1762.734
401.4909, 1762.151
401.9731, 1762.213
402.4552, 1763.426
402.9373, 1766.676
403.4194, 1769.662
403.9015, 1771.079
404.3836, 1770.304
404.8658, 1770.436
405.3479, 1771.666
405.8300, 1773.494
406.3121, 1775.273
406.7942, 1776.987
407.2763, 1778.552
407.7585, 1779.872
408.2406, 1780.979
408.7227, 1781.945
409.2048, 1782.680
409.6869, 1783.804
410.1690, 1786.098
410.6512, 1789.324
411.1333, 1792.536
411.6154, 1795.743
412.0975, 1798.544
412.5796, 1800.205
413.0617, 1800.884
413.5439, 1801.380
414.0260, 1802.424
414.5081, 1803.486
414.9902, 1803.681
415.4723, 1802.898
415.9544, 1801.951
416.4366, 1801.886
416.9187, 1802.016
417.4008, 1801.310
417.8829, 1798.455
418.3650, 1795.437
418.8471, 1793.180
419.3293, 1791.691
419.8114, 1790.875
420.2935, 1790.743
420.7756, 1791.250
421.2577, 1792.494
421.7398, 1795.155
422.2220, 1797.293
422.7041, 1797.902
423.1862, 1797.828
423.6683, 1798.590
424.1504, 1802.495
424.6325, 1805.138
425.1147, 1804.445
425.5968, 1799.700
426.0789, 1798.218
426.5610, 1802.544
427.0431, 1807.820
427.5252, 1809.756
428.0074, 1806.093
428.4895, 1804.410
428.9716, 1806.031
429.4537, 1809.987
429.9358, 1813.302
430.4179, 1815.842
430.9001, 1818.138
431.3822, 1820.476
431.8643, 1822.859
432.3464, 1824.831
432.8285, 1826.345
433.3106, 1827.607
433.7928, 1828.420
434.2749, 1828.955
434.7570, 1830.781
435.2391, 1835.045
435.7212, 1840.377
436.2033, 1844.255
436.6855, 1846.715
437.1676, 1848.372
437.6497, 1848.821
438.1318, 1849.002
438.6139, 1850.812
439.0960, 1855.196
439.5782, 1858.864
440.0603, 1858.061
440.5424, 1854.692
441.0245, 1852.343
441.5066, 1854.010
441.9887, 1855.904
442.4709, 1855.967
442.9530, 1854.137
443.4351, 1851.208
443.9172, 1845.953
444.3993, 1840.599
444.8814, 1836.854
445.3636, 1836.066
445.8457, 1835.372
446.3278, 1834.470
446.8099, 1833.394
447.2920, 1832.201
447.7741, 1830.403
448.2563, 1829.055
448.7384, 1828.537
449.2205, 1828.929
449.7026, 1829.578
450.1847, 1830.511
450.6668, 1831.702
451.1490, 1833.194
451.6311, 1835.121
452.1132, 1836.896
452.5953, 1838.381
453.0774, 1839.730
453.5595, 1841.376
454.0417, 1843.311
454.5238, 1845.609
455.0059, 1849.045
455.4880, 1853.076
455.9701, 1854.547
456.4522, 1853.011
456.9344, 1851.122
457.4165, 1851.980
457.8986, 1854.806
458.3807, 1857.357
458.8628, 1858.487
459.3449, 1859.533
459.8271, 1862.328
460.3092, 1866.515
460.7913, 1870.597
461.2734, 1874.052
461.7555, 1876.806
462.2376, 1878.732
462.7198, 1879.682
463.2019, 1880.324
463.6840, 1880.689
464.1661, 1880.985
464.6482, 1881.463
465.1303, 1882.228
465.6125, 1883.093
466.0946, 1884.390
466.5767, 1885.966
467.0588, 1886.399
467.5409, 1885.699
468.0230, 1883.741
468.5052, 1880.168
468.9873, 1873.586
469.4694, 1868.996
469.9515, 1867.178
470.4336, 1866.717
470.9157, 1865.865
471.3979, 1864.918
471.8800, 1862.520
472.3621, 1857.723
472.8442, 1851.289
473.3263, 1846.744
473.8084, 1844.251
474.2906, 1842.349
474.7727, 1839.811
475.2548, 1836.878
475.7369, 1834.831
476.2190, 1833.857
476.7011, 1833.444
477.1833, 1832.954
477.6654, 1832.504
478.1475, 1832.441
478.6296, 1834.029
479.1117, 1835.300
479.5938, 1833.347
480.0760, 1828.726
480.5581, 1825.203
481.0402, 1825.467
481.5223, 1827.377
482.0044, 1829.371
482.4865, 1831.368
482.9687, 1832.878
483.4508, 1832.994
483.9329, 1832.723
484.4150, 1833.496
484.8971, 1837.123
485.3792, 1840.170
485.8614, 1841.939
486.3435, 1842.471
486.8256, 1841.953
487.3077, 1838.728
487.7898, 1836.403
488.2719, 1837.316
488.7541, 1842.950
489.2362, 1846.888
489.7183, 1848.635
490.2004, 1849.292
490.6825, 1850.544
491.1646, 1852.472
491.6468, 1854.153
492.1289, 1855.215
492.6110, 1855.893
493.0931, 1857.006
493.5752, 1858.550
494.0573, 1860.046
494.5395, 1860.499
495.0216, 1860.763
495.5037, 1863.267
495.9858, 1868.725
496.4679, 1873.682
496.9500, 1873.836
497.4322, 1871.504
497.9143, 1870.512
498.3964, 1873.963
498.8785, 1877.768
499.3606, 1879.666
499.8427, 1879.947
500.3249, 1879.858
500.8070, 1878.358
501.2891, 1877.776
501.7712, 1879.927
502.2533, 1886.883
502.7354, 1891.111
503.2176, 1889.696
503.6997, 1886.472
504.1818, 1885.362
504.6639, 1887.834
505.1460, 1889.583
505.6281, 1889.622
506.1103, 1888.502
506.5924, 1888.503
507.0745, 1889.869
507.5566, 1891.407
508.0387, 1892.673
508.5208, 1893.644
509.0030, 1893.529
509.4851, 1892.027
509.9672, 1891.154
510.4493, 1894.110
510.9314, 1899.676
511.4135, 1903.633
511.8957, 1904.597
512.3778, 1904.120
512.8599, 1903.429
513.3420, 1902.716
513.8242, 1902.486
514.3063, 1902.876
514.7884, 1903.978
515.2705, 1906.762
515.7526, 1911.302
516.2347, 1913.620
516.7169, 1908.939
517.1990, 1903.260
517.6811, 1901.212
518.1632, 1907.322
518.6453, 1911.893
519.1274, 1912.949
519.6096, 1912.010
520.0917, 1911.760
520.5738, 1912.127
521.0559, 1913.285
521.5380, 1915.568
522.0201, 1918.880
522.5023, 1921.339
522.9844, 1922.659
523.4665, 1924.016
523.9486, 1926.672
524.4307, 1930.529
524.9128, 1932.635
525.3950, 1932.238
525.8771, 1931.846
526.3592, 1935.944
526.8413, 1943.117
527.3234, 1948.269
527.8055, 1948.038
528.2877, 1946.219
528.7698, 1947.888
529.2519, 1952.081
529.7340, 1954.783
530.2161, 1951.482
530.6982, 1947.354
531.1804, 1946.588
531.6625, 1950.269
532.1446, 1953.908
532.6267, 1956.354
533.1088, 1957.954
533.5909, 1958.990
534.0731, 1959.277
534.5552, 1959.343
535.0373, 1959.328
535.5194, 1959.133
536.0015, 1958.349
536.4836, 1956.417
536.9658, 1955.051
537.4479, 1955.098
537.9300, 1956.447
538.4121, 1956.742
538.8942, 1955.692
539.3763, 1954.679
539.8585, 1955.006
540.3406, 1956.438
540.8227, 1957.827
541.3048, 1959.141
541.7869, 1959.963
542.2690, 1959.525
542.7512, 1958.182
543.2333, 1956.816
543.7154, 1955.130
544.1975, 1954.132
544.6796, 1955.035
545.1617, 1957.492
545.6439, 1959.939
546.1260, 1961.990
546.6081, 1963.574
547.0902, 1964.385
547.5723, 1963.980
548.0544, 1964.555
548.5366, 1966.633
549.0187, 1969.735
549.5008, 1973.486
549.9829, 1978.409
550.4650, 1983.113
550.9471, 1987.796
551.4293, 1992.035
551.9114, 1994.524
552.3935, 1994.762
552.8756, 1995.728
553.3577, 1998.755
553.8398, 2003.434
554.3220, 2007.965
554.8041, 2012.366
555.2862, 2016.697
555.7683, 2021.365
556.2504, 2025.957
556.7325, 2029.396
557.2147, 2031.245
557.6968, 2033.535
558.1789, 2038.945
558.6610, 2045.667
559.1431, 2050.983
559.6252, 2053.064
560.1074, 2054.410
560.5895, 2056.123
561.0716, 2057.895
561.5537, 2058.690
562.0358, 2057.628
562.5179, 2056.197
563.0001, 2054.919
563.4822, 2053.841
563.9643, 2052.521
564.4464, 2050.840
564.9285, 2049.095
565.4106, 2047.534
565.8928, 2046.214
566.3749, 2044.990
566.8570, 2044.284
567.3391, 2042.704
567.8212, 2037.073
568.3033, 2028.003
568.7855, 2020.502
569.2676, 2017.109
569.7497, 2015.256
570.2318, 2010.713
570.7139, 2004.142
571.1960, 1998.078
571.6782, 1994.859
572.1603, 1992.250
572.6424, 1988.106
573.1245, 1982.052
573.6066, 1977.096
574.0887, 1975.488
574.5709, 1974.741
575.0530, 1972.878
575.5351, 1968.440
576.0172, 1964.610
576.4993, 1961.703
576.9814, 1959.346
577.4636, 1956.960
577.9457, 1954.403
578.4278, 1952.218
578.9099, 1950.583
579.3920, 1949.436
579.8741, 1948.315
580.3563, 1947.146
580.8384, 1947.049
581.3205, 1949.412
581.8026, 1953.335
582.2847, 1956.342
582.7668, 1958.371
583.2490, 1959.325
583.7311, 1958.197
584.2131, 1956.293
584.6953, 1955.152
585.1774, 1954.854
585.6595, 1956.058
586.1416, 1961.155
586.6237, 1967.467
587.1058, 1971.017
