##NAMES=Brazilianite
##RRUFFID=R050126
##IDEAL CHEMISTRY=NaAl_3_(PO_4_)_2_(OH)_4_
##LOCALITY=Linopolis, Minas Gerais, Brazil
##OWNER=RRUFF
##SOURCE=Carlos and Paulo Vasconcelos
##DESCRIPTION=Pair of greenish yellow elongated crystals
##STATUS=The identification of this mineral has been confirmed by X-ray diffraction and chemical analysis
##URL=rruff.info/R050126
##MEASURED CHEMISTRY=Na_1.00_Al_3.00_(P_1.00_O_4_)_2_((OH)_3.80_F_0.20_)_Î£=4_
94.09991, 0.0000000E+00
94.58203, 857.6555
95.06415, 856.1512
95.54626, 864.4695
96.02838, 875.0212
96.51050, 881.7038
96.99261, 886.0946
97.47473, 890.5261
97.95685, 895.9587
98.43896, 902.4763
98.92108, 911.1298
99.40320, 920.9238
99.88531, 932.5207
100.3674, 952.1558
100.8495, 977.2235
101.3317, 1011.965
101.8138, 1062.465
102.2959, 1127.023
102.7780, 1200.734
103.2601, 1283.663
103.7422, 1392.287
104.2244, 1456.458
104.7065, 1488.872
105.1886, 1483.375
105.6707, 1427.491
106.1528, 1321.272
106.6349, 1184.885
107.1171, 1051.763
107.5992, 910.0603
108.0813, 790.4151
108.5634, 697.6417
109.0455, 626.8900
109.5276, 572.9628
110.0098, 535.1504
110.4919, 510.8259
110.9740, 492.6657
111.4561, 480.6682
111.9382, 472.9772
112.4203, 469.4346
112.9025, 469.8525
113.3846, 472.5449
113.8667, 480.1439
114.3488, 488.0054
114.8309, 489.9162
115.3130, 484.2705
115.7952, 472.8643
116.2773, 457.2127
116.7594, 435.6178
117.2415, 413.9418
117.7236, 393.1486
118.2057, 373.9300
118.6879, 357.5658
119.1700, 344.7534
119.6521, 335.3250
120.1342, 328.5107
120.6163, 326.0139
121.0984, 324.8130
121.5806, 324.6870
122.0627, 325.3151
122.5448, 326.2919
123.0269, 327.2991
123.5090, 328.3626
123.9911, 329.2518
124.4732, 329.4171
124.9554, 329.8757
125.4375, 331.5470
125.9196, 334.3347
126.4017, 337.1194
126.8838, 338.6125
127.3659, 338.4438
127.8481, 337.5404
128.3302, 335.1320
128.8123, 332.3083
129.2944, 330.2892
129.7765, 329.4510
130.2586, 329.2422
130.7408, 328.8249
131.2229, 328.1533
131.7050, 327.7643
132.1871, 327.7618
132.6692, 328.1868
133.1513, 329.2432
133.6335, 331.2900
134.1156, 333.7440
134.5977, 335.8734
135.0798, 337.6069
135.5619, 339.4938
136.0440, 341.9630
136.5262, 345.0156
137.0083, 348.6772
137.4904, 353.4607
137.9725, 358.5883
138.4546, 363.4554
138.9367, 367.8458
139.4189, 372.2563
139.9010, 377.6300
140.3831, 384.2681
140.8652, 391.4145
141.3473, 398.3851
141.8294, 405.8827
142.3116, 414.6624
142.7937, 425.1713
143.2758, 436.9923
143.7579, 448.7018
144.2400, 460.5528
144.7221, 471.9119
145.2043, 482.9000
145.6864, 493.3407
146.1685, 502.9148
146.6506, 511.5244
147.1327, 519.0931
147.6148, 525.0345
148.0970, 529.0390
148.5791, 532.1483
149.0612, 534.1377
149.5433, 535.3348
150.0254, 537.2520
150.5075, 541.3691
150.9896, 547.4836
151.4718, 552.3432
151.9539, 554.5766
152.4360, 556.3206
152.9181, 559.4393
153.4002, 564.0461
153.8823, 569.8340
154.3645, 577.1891
154.8466, 585.6044
155.3287, 593.9840
155.8108, 601.9200
156.2929, 609.6014
156.7750, 617.5372
157.2572, 625.9688
157.7393, 634.2847
158.2214, 641.8797
158.7035, 649.0472
159.1856, 656.4532
159.6677, 663.9005
160.1499, 671.4988
160.6320, 681.6646
161.1141, 695.3347
161.5962, 711.0403
162.0783, 728.3985
162.5604, 747.3227
163.0426, 767.5634
163.5247, 789.1750
164.0068, 812.3785
164.4889, 835.3894
164.9710, 859.8950
165.4531, 882.9221
165.9353, 902.1716
166.4174, 917.9539
166.8995, 932.7796
167.3816, 948.9286
167.8637, 963.9201
168.3458, 988.6223
168.8280, 1021.790
169.3101, 1063.694
169.7922, 1117.510
170.2743, 1182.983
170.7564, 1253.131
171.2385, 1320.894
171.7207, 1396.019
172.2028, 1440.583
172.6849, 1451.043
173.1670, 1430.680
173.6491, 1377.936
174.1312, 1289.741
174.6133, 1181.640
175.0955, 1075.920
175.5776, 969.5450
176.0597, 874.4308
176.5418, 794.2669
177.0239, 727.8242
177.5060, 671.5821
177.9882, 625.6603
178.4703, 588.8771
178.9524, 558.5115
179.4345, 534.5316
179.9166, 514.2632
180.3987, 496.3445
180.8809, 480.7879
181.3630, 468.5237
181.8451, 461.6272
182.3272, 456.8435
182.8093, 450.8560
183.2914, 443.3444
183.7736, 436.5992
184.2557, 433.0195
184.7378, 432.9109
185.2199, 433.5338
185.7020, 434.5458
186.1841, 435.9895
186.6663, 437.9575
187.1484, 440.4645
187.6305, 443.4103
188.1126, 446.7201
188.5947, 450.4433
189.0768, 454.3582
189.5590, 458.7173
190.0411, 463.0503
190.5232, 466.9423
191.0053, 470.2911
191.4874, 473.4965
191.9695, 477.3412
192.4517, 481.9764
192.9338, 487.0839
193.4159, 492.5448
193.8980, 498.4783
194.3801, 504.9659
194.8622, 512.0732
195.3443, 519.8033
195.8265, 528.1812
196.3086, 539.1532
196.7907, 548.4858
197.2728, 554.8653
197.7549, 560.0121
198.2370, 566.1394
198.7192, 574.2028
199.2013, 583.1045
199.6834, 589.6246
200.1655, 591.4401
200.6476, 594.3951
201.1297, 599.8796
201.6119, 607.0169
202.0940, 614.1411
202.5761, 620.2988
203.0582, 626.5253
203.5403, 635.7514
204.0224, 648.3983
204.5046, 662.1895
204.9867, 676.9464
205.4688, 692.2482
205.9509, 707.7236
206.4330, 724.4706
206.9151, 739.3929
207.3973, 747.7454
207.8794, 749.9830
208.3615, 745.7928
208.8436, 733.0062
209.3257, 712.7239
209.8078, 690.6848
210.2900, 667.4813
210.7721, 644.8983
211.2542, 624.7892
211.7363, 607.2923
212.2184, 592.0501
212.7005, 578.9559
213.1827, 567.9902
213.6648, 558.9537
214.1469, 551.3032
214.6290, 546.1737
215.1111, 544.8304
215.5932, 547.6047
216.0754, 552.5618
216.5575, 557.8262
217.0396, 563.2888
217.5217, 569.6249
218.0038, 578.9875
218.4859, 588.0851
218.9680, 595.1952
219.4502, 599.9166
219.9323, 602.1555
220.4144, 601.4125
220.8965, 596.9196
221.3786, 591.8818
221.8607, 585.4371
222.3429, 579.4654
222.8250, 575.2819
223.3071, 573.1234
223.7892, 572.2179
224.2713, 571.2938
224.7534, 569.6556
225.2356, 569.8004
225.7177, 571.7203
226.1998, 575.1841
226.6819, 580.3039
227.1640, 586.9861
227.6461, 594.8015
228.1283, 603.2496
228.6104, 613.6495
229.0925, 622.0543
229.5746, 629.3825
230.0567, 634.5198
230.5388, 637.0153
231.0210, 636.6236
231.5031, 633.0264
231.9852, 625.6084
232.4673, 613.3718
232.9494, 598.5196
233.4315, 578.5101
233.9137, 557.7748
234.3958, 539.1674
234.8779, 523.5230
235.3600, 510.3961
235.8421, 499.1678
236.3242, 489.9772
236.8064, 483.1576
237.2885, 479.4279
237.7706, 477.5283
238.2527, 476.2591
238.7348, 475.4001
239.2169, 475.7928
239.6991, 478.6380
240.1812, 484.7399
240.6633, 491.0670
241.1454, 498.4674
241.6275, 505.5587
242.1096, 511.2971
242.5918, 515.4523
243.0739, 518.0532
243.5560, 519.1882
244.0381, 518.8602
244.5202, 515.8222
245.0023, 508.6844
245.4845, 499.4044
245.9666, 489.3511
246.4487, 478.6236
246.9308, 468.7574
247.4129, 461.2973
247.8950, 456.1163
248.3772, 452.5163
248.8593, 449.8589
249.3414, 449.0027
249.8235, 451.0693
250.3056, 456.2183
250.7877, 463.5777
251.2699, 473.9374
251.7520, 486.1642
252.2341, 496.7558
252.7162, 505.8747
253.1983, 512.5533
253.6804, 514.9925
254.1626, 512.7836
254.6447, 508.5298
255.1268, 502.5901
255.6089, 495.9438
256.0910, 490.2409
256.5731, 485.0791
257.0552, 481.6102
257.5374, 481.8217
258.0195, 486.2151
258.5016, 491.7237
258.9837, 496.9392
259.4658, 502.2391
259.9479, 508.1566
260.4301, 514.9536
260.9122, 522.2556
261.3943, 529.4556
261.8764, 536.4462
262.3585, 544.0043
262.8406, 551.9704
263.3228, 560.8958
263.8049, 571.6075
264.2870, 584.5300
264.7691, 598.6344
265.2512, 612.4783
265.7333, 625.9708
266.2155, 639.8990
266.6976, 654.5482
267.1797, 669.8072
267.6618, 685.6898
268.1439, 702.1619
268.6260, 719.2562
269.1082, 736.9961
269.5903, 755.4366
270.0724, 774.4761
270.5545, 792.2982
271.0366, 811.9324
271.5187, 835.3062
272.0009, 862.7350
272.4830, 893.3426
272.9651, 925.7963
273.4472, 959.4926
273.9293, 998.5258
274.4114, 1045.703
274.8936, 1097.066
275.3757, 1153.796
275.8578, 1214.350
276.3399, 1273.995
276.8220, 1331.196
277.3041, 1387.693
277.7863, 1427.408
278.2684, 1448.622
278.7505, 1452.044
279.2326, 1434.631
279.7147, 1398.175
280.1968, 1347.019
280.6790, 1282.370
281.1611, 1203.483
281.6432, 1127.746
282.1253, 1053.678
282.6074, 984.3572
283.0895, 920.0571
283.5717, 861.1475
284.0538, 808.9462
284.5359, 764.7016
285.0180, 728.0168
285.5001, 694.3309
285.9822, 664.4897
286.4644, 637.3945
286.9465, 613.2449
287.4286, 591.5933
287.9107, 571.8053
288.3928, 553.3150
288.8749, 536.5622
289.3571, 523.5999
289.8392, 516.8580
290.3213, 511.1581
290.8034, 505.5098
291.2855, 500.4174
291.7676, 496.3615
292.2498, 493.5681
292.7319, 492.1898
293.2140, 492.6787
293.6961, 495.8596
294.1782, 499.8553
294.6603, 505.0370
295.1425, 510.5627
295.6246, 515.7559
296.1067, 520.3900
296.5888, 524.6060
297.0709, 528.6759
297.5530, 532.6547
298.0351, 536.3180
298.5172, 539.0800
298.9994, 541.9775
299.4815, 545.6816
299.9636, 550.3353
300.4457, 555.7343
300.9278, 561.7680
301.4099, 568.8032
301.8921, 575.2850
302.3742, 579.6270
302.8563, 584.9163
303.3384, 592.9485
303.8205, 603.5824
304.3026, 615.4006
304.7848, 627.0043
305.2669, 638.3217
305.7490, 651.2674
306.2311, 665.0067
306.7132, 681.0755
307.1953, 700.0740
307.6775, 721.8980
308.1596, 745.9481
308.6417, 771.7564
309.1238, 799.4573
309.6059, 830.5446
310.0880, 866.6042
310.5702, 904.6006
311.0523, 944.1242
311.5344, 985.1238
312.0165, 1028.897
312.4986, 1076.352
312.9807, 1124.879
313.4629, 1167.486
313.9450, 1205.382
314.4271, 1233.911
314.9092, 1254.646
315.3913, 1265.312
315.8734, 1262.984
316.3556, 1246.794
316.8377, 1219.160
317.3198, 1183.586
317.8019, 1133.753
318.2840, 1087.257
318.7661, 1043.035
319.2483, 1002.313
319.7304, 966.1754
320.2125, 934.6132
320.6946, 906.6148
321.1767, 881.2433
321.6588, 858.7829
322.1410, 837.4784
322.6231, 816.7888
323.1052, 797.4211
323.5873, 780.0737
324.0694, 764.3621
324.5515, 749.5147
325.0337, 734.7689
325.5158, 720.1829
325.9979, 706.2916
326.4800, 692.6561
326.9621, 680.2499
327.4442, 669.9989
327.9264, 661.1340
328.4085, 652.2897
328.8906, 642.6023
329.3727, 632.7045
329.8548, 625.2718
330.3369, 622.0585
330.8191, 619.3783
331.3012, 616.8781
331.7833, 614.7067
332.2654, 613.0134
332.7475, 611.8630
333.2296, 611.2328
333.7118, 611.1913
334.1939, 612.4570
334.6760, 612.8953
335.1581, 611.4564
335.6402, 610.0261
336.1223, 610.3300
336.6045, 612.3392
337.0866, 614.3180
337.5687, 614.1955
338.0508, 611.4618
338.5329, 609.0280
339.0150, 607.3173
339.4972, 605.5072
339.9793, 603.0437
340.4614, 600.1815
340.9435, 597.5438
341.4256, 595.5856
341.9077, 594.2980
342.3898, 593.5830
342.8719, 594.1391
343.3541, 594.4951
343.8362, 593.4657
344.3183, 592.3002
344.8004, 592.6581
345.2825, 595.3611
345.7646, 599.9576
346.2468, 605.3053
346.7289, 611.3243
347.2110, 618.3654
347.6931, 626.3928
348.1752, 635.2787
348.6573, 644.7600
349.1395, 654.8470
349.6216, 665.9708
350.1037, 678.7921
350.5858, 693.3004
351.0679, 709.2852
351.5500, 726.7654
352.0322, 745.6064
352.5143, 765.9427
352.9964, 787.6700
353.4785, 810.7383
353.9606, 835.1900
354.4427, 860.9660
354.9249, 887.9819
355.4070, 918.9462
355.8891, 947.4822
356.3712, 972.5870
356.8533, 993.9058
357.3354, 1011.550
357.8176, 1026.183
358.2997, 1036.091
358.7818, 1036.962
359.2639, 1027.982
359.7460, 1011.519
360.2281, 986.2938
360.7103, 955.5516
361.1924, 920.7256
361.6745, 882.1285
362.1566, 841.8824
362.6387, 801.7727
363.1208, 761.3714
363.6030, 724.2813
364.0851, 691.4296
364.5672, 661.8928
365.0493, 635.4865
365.5314, 612.0475
366.0135, 590.5964
366.4957, 570.3196
366.9778, 551.5309
367.4599, 535.7335
367.9420, 523.9700
368.4241, 513.5330
368.9063, 503.2816
369.3884, 493.1275
369.8705, 482.7626
370.3526, 471.7178
370.8347, 460.8414
371.3168, 451.3677
371.7990, 443.4031
372.2811, 435.9660
372.7632, 428.3599
373.2453, 421.2961
373.7274, 415.6323
374.2095, 411.5045
374.6917, 408.4718
375.1738, 406.4150
375.6559, 405.2470
376.1380, 404.4029
376.6201, 403.4474
377.1022, 403.3362
377.5844, 405.5536
378.0665, 409.8031
378.5486, 413.6991
379.0307, 416.3401
379.5128, 418.1158
379.9949, 419.4525
380.4771, 420.3492
380.9592, 421.1913
381.4413, 422.0275
381.9234, 423.0587
382.4055, 424.8950
382.8876, 428.3555
383.3698, 431.9048
383.8519, 434.6964
384.3340, 436.7463
384.8161, 438.0398
385.2982, 438.3417
385.7803, 438.1955
386.2624, 438.7632
386.7445, 439.9888
387.2267, 441.7983
387.7088, 444.4547
388.1909, 447.5860
388.6730, 450.3607
389.1551, 452.6131
389.6372, 455.6529
390.1194, 461.1777
390.6015, 469.7350
391.0836, 477.1419
391.5657, 482.0886
392.0478, 487.0102
392.5299, 493.1043
393.0121, 500.4390
393.4942, 508.7851
393.9763, 518.0379
394.4584, 528.2148
394.9405, 539.5909
395.4226, 553.5109
395.9048, 566.7858
396.3869, 578.0256
396.8690, 588.7557
397.3511, 600.9036
397.8332, 615.0212
398.3153, 630.5347
398.7975, 646.3751
399.2796, 662.3474
399.7617, 679.6829
400.2438, 699.5812
400.7259, 719.5870
401.2080, 738.0861
401.6902, 755.3306
402.1723, 772.4008
402.6544, 790.1788
403.1365, 808.6008
403.6186, 826.8695
404.1007, 845.3279
404.5829, 863.1578
405.0650, 880.7184
405.5471, 897.3243
406.0292, 912.0571
406.5113, 924.5859
406.9934, 935.5416
407.4756, 946.5480
407.9577, 958.6494
408.4398, 967.4496
408.9219, 971.0729
409.4040, 972.5222
409.8861, 973.1724
410.3683, 973.1000
410.8504, 971.7524
411.3325, 968.7685
411.8146, 964.1382
412.2967, 957.8155
412.7788, 949.3929
413.2610, 939.8180
413.7431, 929.8712
414.2252, 919.0468
414.7073, 906.4600
415.1894, 891.5140
415.6715, 875.2842
416.1537, 858.8512
416.6358, 842.1837
417.1179, 826.0037
417.6000, 810.6478
418.0821, 795.6772
418.5642, 780.2451
419.0464, 764.3531
419.5285, 749.3807
420.0106, 736.3320
420.4927, 724.6601
420.9748, 713.1838
421.4569, 701.6297
421.9391, 690.8663
422.4212, 682.2377
422.9033, 674.9257
423.3854, 666.2496
423.8675, 654.5927
424.3496, 642.7865
424.8318, 633.1037
425.3139, 624.9857
425.7960, 616.6027
426.2781, 607.3941
426.7602, 597.2519
427.2423, 585.5934
427.7245, 571.8120
428.2066, 558.8757
428.6887, 547.3189
429.1708, 536.8759
429.6529, 527.4940
430.1350, 519.1066
430.6172, 511.1273
431.0992, 502.9294
431.5814, 494.5498
432.0635, 487.3042
432.5456, 481.1515
433.0277, 475.9263
433.5098, 471.7450
433.9919, 468.3771
434.4741, 465.3864
434.9562, 462.5753
435.4383, 460.2408
435.9204, 459.0861
436.4025, 460.3322
436.8846, 460.4193
437.3668, 458.8434
437.8489, 456.7128
438.3310, 454.6014
438.8131, 452.5674
439.2952, 450.5091
439.7773, 448.4486
440.2595, 446.2997
440.7416, 443.1543
441.2237, 438.5088
441.7058, 433.5347
442.1879, 428.5664
442.6700, 423.4847
443.1522, 417.8869
443.6343, 411.6048
444.1164, 405.6021
444.5985, 401.3485
445.0806, 399.0462
445.5627, 396.0675
446.0449, 390.8610
446.5270, 386.2702
447.0091, 384.2314
447.4912, 384.3620
447.9733, 385.0169
448.4554, 385.5384
448.9376, 386.0023
449.4197, 386.5982
449.9018, 387.3607
450.3839, 387.9380
450.8660, 387.8122
451.3481, 387.5951
451.8303, 388.4144
452.3124, 390.6774
452.7945, 392.8803
453.2766, 394.1135
453.7587, 394.7487
454.2408, 395.6490
454.7230, 397.0475
455.2051, 398.2765
455.6872, 398.6128
456.1693, 397.9754
456.6514, 397.3177
457.1335, 395.8932
457.6157, 395.1573
458.0978, 396.3758
458.5799, 398.9746
459.0620, 401.4922
459.5441, 403.2313
460.0262, 404.4063
460.5084, 405.4768
460.9905, 406.0358
461.4726, 407.1618
461.9547, 408.7964
462.4368, 411.0244
462.9189, 414.3586
463.4011, 418.5047
463.8832, 422.2780
464.3653, 424.5766
464.8474, 425.5103
465.3295, 426.8315
465.8116, 428.2736
466.2938, 430.5390
466.7759, 434.8332
467.2580, 439.4614
467.7401, 442.4624
468.2222, 443.2148
468.7043, 443.0699
469.1865, 443.7338
469.6686, 445.2718
470.1507, 446.7269
470.6328, 448.0895
471.1149, 449.2492
471.5970, 449.9648
472.0792, 450.4398
472.5613, 451.1779
473.0434, 452.2661
473.5255, 453.8608
474.0076, 456.3066
474.4897, 459.6185
474.9719, 463.1017
475.4540, 466.0723
475.9361, 469.5245
476.4182, 475.0144
476.9003, 482.8145
477.3824, 490.5462
477.8645, 496.8652
478.3466, 502.8475
478.8288, 509.5513
479.3109, 517.1754
479.7930, 526.3592
480.2751, 538.0436
480.7572, 551.7711
481.2393, 564.4040
481.7215, 575.4310
482.2036, 586.0222
482.6857, 595.7592
483.1678, 605.5535
483.6499, 617.3305
484.1320, 631.4327
484.6142, 645.4495
485.0963, 656.0303
485.5784, 662.1741
486.0605, 669.5468
486.5426, 680.5436
487.0247, 690.2234
487.5069, 695.8678
487.9890, 699.0637
488.4711, 702.5787
488.9532, 707.7228
489.4353, 714.1526
489.9174, 721.2223
490.3996, 729.0324
490.8817, 737.0196
491.3638, 744.1068
491.8459, 752.2029
492.3280, 762.5861
492.8102, 775.0717
493.2923, 788.5100
493.7744, 802.1950
494.2565, 817.1957
494.7386, 831.9952
495.2207, 849.1536
495.7029, 866.7086
496.1850, 884.4427
496.6671, 902.1663
497.1492, 919.8534
497.6313, 937.6075
498.1134, 954.7044
498.5956, 970.7373
499.0777, 985.9214
499.5598, 1000.415
500.0419, 1014.246
500.5240, 1028.152
501.0061, 1043.137
501.4883, 1058.858
501.9704, 1071.279
502.4525, 1078.980
502.9346, 1085.382
503.4167, 1090.724
503.8988, 1095.637
504.3810, 1101.089
504.8631, 1107.319
505.3452, 1113.397
505.8273, 1117.859
506.3094, 1119.995
506.7915, 1124.221
507.2737, 1133.211
507.7558, 1141.462
508.2379, 1146.238
508.7200, 1149.297
509.2021, 1153.693
509.6842, 1160.872
510.1664, 1169.316
510.6485, 1176.281
511.1306, 1181.376
511.6127, 1187.579
512.0948, 1196.466
512.5769, 1205.396
513.0590, 1212.173
513.5411, 1217.384
514.0233, 1223.208
514.5054, 1231.666
514.9875, 1240.485
515.4696, 1245.784
515.9517, 1247.776
516.4338, 1250.684
516.9160, 1256.261
517.3981, 1263.479
517.8802, 1270.726
518.3623, 1277.820
518.8444, 1285.666
519.3265, 1294.289
519.8087, 1303.852
520.2908, 1314.488
520.7729, 1326.225
521.2550, 1339.206
521.7371, 1353.570
522.2192, 1369.171
522.7014, 1385.421
523.1835, 1401.042
523.6656, 1419.199
524.1477, 1441.960
524.6298, 1465.835
525.1119, 1487.710
525.5941, 1507.816
526.0762, 1528.666
526.5583, 1552.742
527.0404, 1579.550
527.5225, 1606.017
528.0046, 1632.333
528.4868, 1658.102
528.9689, 1684.087
529.4510, 1708.971
529.9331, 1730.755
530.4152, 1749.107
530.8973, 1767.175
531.3795, 1789.504
531.8616, 1813.312
532.3437, 1829.827
532.8258, 1837.636
533.3079, 1842.014
533.7900, 1846.496
534.2722, 1849.847
534.7543, 1849.087
535.2364, 1843.577
535.7185, 1834.988
536.2006, 1824.032
536.6827, 1810.371
537.1649, 1793.305
537.6470, 1772.712
538.1291, 1749.816
538.6112, 1725.617
539.0933, 1700.122
539.5754, 1672.938
540.0576, 1640.848
540.5397, 1611.172
541.0218, 1585.289
541.5039, 1562.570
541.9860, 1542.971
542.4681, 1526.185
542.9503, 1510.503
543.4324, 1493.355
543.9145, 1474.494
544.3966, 1459.337
544.8787, 1448.452
545.3608, 1440.652
545.8430, 1435.233
546.3251, 1432.204
546.8072, 1431.861
547.2893, 1434.467
547.7714, 1438.909
548.2535, 1444.443
548.7357, 1451.022
549.2178, 1458.933
549.6999, 1468.444
550.1820, 1478.038
550.6641, 1486.131
551.1462, 1493.041
551.6284, 1501.573
552.1105, 1511.805
552.5926, 1523.611
553.0747, 1537.380
553.5568, 1552.544
554.0389, 1568.214
554.5211, 1584.234
555.0032, 1601.016
555.4853, 1619.229
555.9674, 1639.058
556.4495, 1658.037
556.9316, 1678.498
557.4138, 1695.483
557.8959, 1708.123
558.3780, 1716.462
558.8601, 1720.358
559.3422, 1719.821
559.8243, 1715.647
560.3065, 1708.385
560.7886, 1698.084
561.2707, 1685.650
561.7528, 1670.196
562.2349, 1654.444
562.7170, 1639.720
563.1992, 1625.896
563.6813, 1613.402
564.1634, 1603.542
564.6455, 1592.163
565.1276, 1575.764
565.6097, 1556.307
566.0919, 1538.386
566.5740, 1522.859
567.0561, 1505.317
567.5382, 1481.532
568.0203, 1451.782
568.5024, 1421.704
568.9846, 1391.537
569.4667, 1360.784
569.9488, 1328.755
570.4309, 1296.088
570.9130, 1262.927
571.3951, 1229.537
571.8773, 1197.629
572.3594, 1168.841
572.8415, 1141.017
573.3236, 1117.894
573.8057, 1092.214
574.2878, 1069.609
574.7700, 1050.843
575.2521, 1035.648
575.7342, 1024.487
576.2163, 1017.431
576.6984, 1012.946
577.1805, 1009.542
577.6627, 1008.072
578.1448, 1010.452
578.6269, 1016.869
579.1090, 1026.273
579.5911, 1038.414
580.0732, 1052.891
580.5554, 1068.955
581.0375, 1086.698
581.5196, 1105.417
582.0017, 1124.163
582.4838, 1144.348
582.9659, 1167.572
583.4481, 1193.505
583.9302, 1219.782
584.4123, 1244.784
584.8944, 1269.279
585.3765, 1296.682
585.8586, 1328.003
586.3408, 1359.953
586.8229, 1390.783
587.3050, 1423.066
587.7871, 1459.242
588.2692, 1498.645
588.7513, 1538.382
589.2334, 1575.844
589.7155, 1613.650
