##NAMES=Brazilianite
##RRUFFID=R050319
##IDEAL CHEMISTRY=NaAl_3_(PO_4_)_2_(OH)_4_
##LOCALITY=Minas Gerais, Brazil
##OWNER=RRUFF
##SOURCE=American Museum of Natural History
##DESCRIPTION=Pale green fragment
##STATUS=The identification of this mineral has been confirmed by X-ray diffraction and chemical analysis
##URL=rruff.info/R050319
##MEASURED CHEMISTRY=Na_1.00_Al_3.00_(PO_4_)_2_(OH)_4_
135.7440, 203.5044
136.2261, 205.5046
136.7083, 208.2035
137.1904, 211.7526
137.6725, 215.5435
138.1546, 219.1106
138.6367, 222.5247
139.1188, 225.4468
139.6010, 227.6113
140.0831, 229.0077
140.5652, 230.9986
141.0473, 233.3848
141.5294, 236.6172
142.0115, 241.3129
142.4937, 247.8324
142.9758, 255.0169
143.4579, 262.8197
143.9400, 271.4835
144.4221, 279.4333
144.9042, 286.8714
145.3864, 293.5170
145.8685, 298.7386
146.3506, 302.5287
146.8327, 305.0211
147.3148, 306.4141
147.7969, 307.2947
148.2791, 305.7431
148.7612, 300.6493
149.2433, 293.2915
149.7254, 286.4623
150.2075, 279.7560
150.6896, 273.9677
151.1718, 269.4373
151.6539, 266.4185
152.1360, 264.2361
152.6181, 263.0255
153.1002, 262.6529
153.5823, 262.7279
154.0645, 263.5128
154.5466, 264.5183
155.0287, 265.5002
155.5108, 265.8805
155.9929, 266.9078
156.4750, 268.9862
156.9572, 271.9200
157.4393, 274.8925
157.9214, 276.9681
158.4035, 279.5068
158.8856, 283.3565
159.3677, 289.1449
159.8499, 295.8289
160.3320, 302.8578
160.8141, 310.3467
161.2962, 319.1646
161.7783, 329.8958
162.2604, 341.8847
162.7426, 354.5904
163.2247, 369.6458
163.7068, 383.8256
164.1889, 396.4319
164.6710, 407.2543
165.1531, 415.0365
165.6353, 418.1837
166.1174, 418.2930
166.5995, 417.0815
167.0816, 412.8178
167.5637, 409.1578
168.0458, 407.7955
168.5280, 408.7860
169.0101, 413.1193
169.4922, 421.9263
169.9743, 434.3126
170.4564, 449.0117
170.9385, 470.4109
171.4207, 490.9857
171.9028, 505.9345
172.3849, 515.1668
172.8670, 515.0128
173.3491, 499.1357
173.8312, 472.0280
174.3134, 442.1323
174.7955, 409.9145
175.2776, 378.7288
175.7597, 352.7644
176.2418, 332.1781
176.7239, 315.7200
177.2061, 302.4219
177.6882, 291.9186
178.1703, 283.4478
178.6524, 277.3554
179.1345, 272.7505
179.6166, 268.1749
180.0988, 263.4245
180.5809, 259.0962
181.0630, 256.0886
181.5451, 254.1367
182.0272, 252.3103
182.5093, 249.7418
182.9915, 246.9308
183.4736, 245.3508
183.9557, 245.3166
184.4378, 245.6592
184.9199, 244.4413
185.4020, 241.9399
185.8842, 239.9745
186.3663, 240.0195
186.8484, 241.5130
187.3305, 242.4458
187.8126, 242.6568
188.2947, 242.3335
188.7769, 241.4710
189.2590, 240.1111
189.7411, 239.1292
190.2232, 239.1900
190.7053, 240.1449
191.1874, 241.0185
191.6696, 241.7155
192.1517, 242.3565
192.6338, 243.0904
193.1159, 243.9100
193.5980, 245.0121
194.0801, 246.7765
194.5623, 249.1163
195.0444, 250.8520
195.5265, 251.7760
196.0086, 252.1697
196.4907, 252.6349
196.9728, 253.2000
197.4550, 253.5891
197.9371, 253.6762
198.4192, 253.4628
198.9013, 252.8551
199.3834, 251.7880
199.8655, 250.3879
200.3477, 248.9267
200.8298, 247.4134
201.3119, 245.8078
201.7940, 243.8992
202.2761, 241.6072
202.7582, 239.9587
203.2404, 239.1488
203.7225, 238.9600
204.2046, 238.6113
204.6867, 237.8359
205.1688, 237.8186
205.6509, 239.5632
206.1331, 243.3873
206.6152, 246.8899
207.0973, 249.7361
207.5794, 252.2012
208.0615, 255.1695
208.5436, 258.7749
209.0258, 262.5457
209.5079, 266.2359
209.9900, 269.8812
210.4721, 273.1307
210.9542, 275.6787
211.4363, 277.9016
211.9185, 281.0876
212.4006, 285.3770
212.8827, 290.3618
213.3648, 295.7970
213.8469, 301.8952
214.3290, 307.7802
214.8112, 313.0667
215.2933, 318.1389
215.7754, 324.8082
216.2575, 333.9051
216.7396, 343.0567
217.2217, 351.0165
217.7038, 357.9982
218.1860, 363.1976
218.6681, 366.9229
219.1502, 368.7617
219.6323, 366.8237
220.1144, 360.1436
220.5965, 351.3862
221.0787, 341.7316
221.5608, 330.3905
222.0429, 320.3345
222.5250, 311.7173
223.0071, 304.5300
223.4892, 299.1389
223.9714, 295.8802
224.4535, 293.8082
224.9356, 292.4525
225.4177, 291.9612
225.8998, 291.8576
226.3819, 292.1013
226.8641, 292.7180
227.3462, 293.8120
227.8283, 295.5000
228.3104, 297.4765
228.7925, 299.5745
229.2746, 301.8386
229.7568, 304.1988
230.2389, 306.7623
230.7210, 309.4211
231.2031, 311.6933
231.6852, 313.2108
232.1673, 314.8780
232.6495, 317.0685
233.1316, 319.6641
233.6137, 323.0605
234.0958, 327.3563
234.5779, 332.4021
235.0600, 337.7435
235.5422, 343.5432
236.0243, 349.4960
236.5064, 355.4887
236.9885, 361.5115
237.4706, 367.5949
237.9527, 373.6798
238.4349, 379.7693
238.9170, 385.7808
239.3991, 391.5678
239.8812, 397.4958
240.3633, 403.7983
240.8454, 410.8221
241.3276, 417.3799
241.8097, 423.5265
242.2918, 429.1004
242.7739, 433.6856
243.2560, 437.2238
243.7381, 439.8672
244.2203, 441.6585
244.7024, 442.5650
245.1845, 442.6005
245.6666, 441.0183
246.1487, 438.9255
246.6308, 438.2285
247.1130, 438.3149
247.5951, 440.7953
248.0772, 445.9354
248.5593, 453.2816
249.0414, 465.1246
249.5235, 482.6132
250.0057, 503.8509
250.4878, 526.4850
250.9699, 552.0245
251.4520, 576.5576
251.9341, 600.8051
252.4162, 628.0023
252.8984, 639.5488
253.3805, 633.3925
253.8626, 612.9578
254.3447, 582.2950
254.8268, 535.7281
255.3089, 489.4938
255.7911, 447.5755
256.2732, 409.4286
256.7553, 378.4848
257.2374, 355.9815
257.7195, 339.4068
258.2017, 325.8040
258.6838, 315.2694
259.1659, 307.2803
259.6480, 302.1314
260.1301, 299.9778
260.6122, 297.4919
261.0944, 294.1503
261.5765, 291.1183
262.0586, 289.7155
262.5407, 290.3827
263.0228, 291.4792
263.5049, 292.7441
263.9871, 294.1816
264.4692, 295.4759
264.9513, 296.3398
265.4334, 297.5376
265.9155, 299.9972
266.3976, 304.1367
266.8798, 307.9743
267.3619, 311.1039
267.8440, 313.6140
268.3261, 315.9429
268.8082, 317.9894
269.2903, 320.0553
269.7725, 322.3304
270.2546, 324.7619
270.7367, 327.5156
271.2188, 330.6681
271.7009, 334.1178
272.1830, 337.6203
272.6652, 341.2844
273.1473, 344.6252
273.6294, 347.4266
274.1115, 349.7189
274.5936, 351.2162
275.0757, 351.9472
275.5579, 351.8461
276.0400, 350.9101
276.5221, 349.3384
277.0042, 346.1176
277.4863, 340.1244
277.9684, 331.1286
278.4506, 322.4882
278.9327, 314.3855
279.4148, 306.8065
279.8969, 299.5025
280.3790, 292.3440
280.8611, 286.3814
281.3433, 282.3622
281.8254, 280.2663
282.3075, 278.6776
282.7896, 277.5013
283.2717, 276.9035
283.7538, 277.3038
284.2360, 278.7317
284.7181, 280.4097
285.2002, 281.7675
285.6823, 282.9401
286.1644, 285.4009
286.6465, 289.3673
287.1287, 293.7377
287.6108, 296.7276
288.0929, 298.4489
288.5750, 301.0024
289.0571, 305.3397
289.5392, 311.1552
290.0214, 317.2976
290.5035, 323.7757
290.9856, 330.2872
291.4677, 336.4601
291.9498, 342.3687
292.4319, 348.3324
292.9141, 354.9077
293.3962, 361.4146
293.8783, 366.4442
294.3604, 369.9713
294.8425, 371.9521
295.3246, 372.1010
295.8068, 370.6429
296.2889, 368.3732
296.7710, 365.5845
297.2531, 361.9305
297.7352, 356.4946
298.2173, 349.4595
298.6995, 342.1206
299.1816, 335.1276
299.6637, 328.5616
300.1458, 322.7143
300.6279, 317.4961
301.1100, 313.1768
301.5922, 310.2317
302.0743, 308.5515
302.5564, 307.7075
303.0385, 307.7750
303.5206, 308.3994
304.0027, 308.9880
304.4849, 309.3542
304.9670, 310.1082
305.4491, 311.8503
305.9312, 314.4286
306.4133, 317.4808
306.8954, 320.6923
307.3776, 324.3707
307.8597, 328.7153
308.3418, 333.7723
308.8239, 339.6300
309.3060, 347.0941
309.7881, 355.3610
310.2703, 362.9167
310.7524, 368.6893
311.2345, 373.9836
311.7166, 380.0003
312.1987, 386.6946
312.6808, 392.3931
313.1630, 396.9117
313.6451, 399.7018
314.1272, 400.1982
314.6093, 397.2304
315.0914, 392.8468
315.5735, 388.1470
316.0557, 382.9586
316.5378, 376.3773
317.0199, 366.7768
317.5020, 356.3964
317.9841, 346.6485
318.4662, 337.7281
318.9484, 329.9836
319.4305, 324.1445
319.9126, 319.6430
320.3947, 314.9862
320.8768, 309.2455
321.3589, 303.6178
321.8411, 298.7571
322.3232, 295.1588
322.8053, 291.4374
323.2874, 287.1874
323.7695, 282.6830
324.2516, 278.3590
324.7338, 274.4548
325.2159, 270.5792
325.6980, 266.3822
326.1801, 261.5159
326.6622, 257.7952
327.1443, 256.0429
327.6265, 255.1597
328.1086, 254.0385
328.5907, 252.2734
329.0728, 250.7200
329.5549, 249.6815
330.0370, 249.1628
330.5192, 248.1327
331.0013, 245.8320
331.4834, 243.6565
331.9655, 242.5937
332.4476, 243.3678
332.9297, 244.0194
333.4119, 244.3700
333.8940, 244.4693
334.3761, 244.5277
334.8582, 244.5587
335.3403, 244.5208
335.8224, 244.3123
336.3046, 243.7004
336.7867, 243.6584
337.2688, 244.4320
337.7509, 245.6075
338.2330, 246.3892
338.7151, 246.7376
339.1973, 246.7878
339.6794, 246.4137
340.1615, 245.5719
340.6436, 245.3828
341.1257, 245.9265
341.6078, 246.9585
342.0899, 248.2668
342.5721, 249.8497
343.0542, 251.4829
343.5363, 253.1244
344.0184, 254.7495
344.5005, 256.1545
344.9826, 257.2648
345.4648, 258.6278
345.9469, 260.8211
346.4290, 263.7852
346.9111, 266.8078
347.3932, 269.7705
347.8753, 272.7200
348.3575, 275.6314
348.8396, 278.5010
349.3217, 281.5070
349.8038, 284.3852
350.2859, 287.4731
350.7680, 291.7929
351.2502, 297.6684
351.7323, 303.9727
352.2144, 309.2692
352.6965, 313.9223
353.1786, 318.8783
353.6607, 325.1380
354.1429, 331.7358
354.6250, 337.5250
355.1071, 342.4556
355.5892, 346.7906
356.0713, 351.0489
356.5534, 354.7856
357.0356, 357.3413
357.5177, 358.5015
357.9998, 358.3886
358.4819, 357.0948
358.9640, 354.6059
359.4461, 350.8152
359.9283, 345.0339
360.4104, 338.2618
360.8925, 331.2892
361.3746, 324.1729
361.8567, 317.0745
362.3388, 309.5797
362.8210, 302.1673
363.3031, 295.7488
363.7852, 290.8605
364.2673, 286.8368
364.7494, 283.4116
365.2315, 280.5836
365.7137, 278.2406
366.1958, 276.1554
366.6779, 274.6406
367.1600, 274.0454
367.6421, 275.7145
368.1242, 276.9574
368.6064, 277.0985
369.0885, 276.0726
369.5706, 275.0861
370.0527, 273.7535
370.5348, 272.7540
371.0169, 272.5875
371.4991, 274.0841
371.9812, 274.9761
372.4633, 274.7182
372.9454, 273.7678
373.4275, 273.8070
373.9096, 275.3565
374.3918, 276.9971
374.8739, 278.0536
375.3560, 278.4236
375.8381, 278.7889
376.3202, 279.2991
376.8023, 279.6046
377.2845, 279.0728
377.7666, 277.5829
378.2487, 275.9203
378.7308, 274.3648
379.2129, 272.8630
379.6950, 271.2070
380.1772, 269.3723
380.6593, 267.4294
381.1414, 265.2658
381.6235, 262.9545
382.1056, 261.0003
382.5877, 259.5431
383.0699, 258.4752
383.5520, 257.5622
384.0341, 256.8160
384.5162, 256.4366
384.9983, 256.7586
385.4804, 257.5078
385.9626, 258.0495
386.4447, 258.2760
386.9268, 258.5362
387.4089, 259.2173
387.8910, 260.2064
388.3731, 261.2349
388.8553, 262.0553
389.3374, 262.9406
389.8195, 264.1699
390.3016, 265.7174
390.7837, 267.4041
391.2658, 269.0319
391.7480, 270.7602
392.2301, 272.7808
392.7122, 275.3975
393.1943, 277.9705
393.6764, 280.1007
394.1585, 281.9344
394.6407, 283.8402
395.1228, 285.7811
395.6049, 287.9713
396.0870, 290.5927
396.5691, 293.7754
397.0512, 296.9889
397.5334, 300.1008
398.0155, 303.2136
398.4976, 306.4120
398.9797, 309.3018
399.4618, 312.7360
399.9439, 317.2073
400.4261, 322.7023
400.9082, 327.4195
401.3903, 330.8312
401.8724, 333.9563
402.3545, 337.4005
402.8366, 341.0212
403.3188, 345.2588
403.8009, 350.5334
404.2830, 356.2650
404.7651, 360.9171
405.2472, 364.1516
405.7293, 367.1431
406.2115, 370.2884
406.6936, 373.5579
407.1757, 377.3160
407.6578, 381.8627
408.1399, 386.1145
408.6220, 388.6893
409.1042, 389.6211
409.5863, 390.3768
410.0684, 391.3076
410.5505, 392.3327
411.0326, 393.5961
411.5147, 395.0690
411.9969, 395.7989
412.4790, 394.6238
412.9611, 392.2351
413.4432, 390.4841
413.9253, 389.8226
414.4074, 388.9435
414.8896, 386.0482
415.3717, 381.8241
415.8538, 377.8965
416.3359, 375.5152
416.8180, 373.4991
417.3001, 370.7416
417.7823, 367.2065
418.2644, 363.7518
418.7465, 360.2744
419.2286, 357.3068
419.7107, 355.4082
420.1928, 354.9169
420.6750, 355.2048
421.1571, 356.0212
421.6392, 357.4291
422.1213, 359.5822
422.6034, 362.7917
423.0855, 366.5065
423.5677, 370.6491
424.0498, 375.3660
424.5319, 379.8628
425.0140, 383.4368
425.4961, 387.1177
425.9782, 391.9425
426.4604, 398.1900
426.9425, 405.2032
427.4246, 413.0131
427.9067, 421.6045
428.3888, 430.2618
428.8709, 438.5935
429.3531, 447.6435
429.8352, 458.1050
430.3173, 469.8800
430.7994, 482.9091
431.2815, 497.3026
431.7636, 512.7122
432.2458, 528.3776
432.7279, 544.2863
433.2100, 560.5081
433.6921, 576.7863
434.1742, 593.4985
434.6563, 611.9402
435.1385, 632.3909
435.6206, 653.0378
436.1027, 672.9601
436.5848, 691.9371
437.0669, 709.6229
437.5490, 726.4430
438.0312, 740.8234
438.5133, 751.9317
438.9954, 759.4643
439.4775, 762.5510
439.9596, 760.0811
440.4417, 753.4193
440.9239, 743.5490
441.4060, 730.5375
441.8881, 714.6956
442.3702, 694.3795
442.8523, 672.3488
443.3344, 651.0537
443.8166, 630.4262
444.2987, 611.4830
444.7808, 594.3544
445.2629, 579.1097
445.7450, 565.8591
446.2271, 554.6628
446.7093, 545.7513
447.1914, 539.4304
447.6735, 536.1174
448.1556, 534.0559
448.6377, 533.0894
449.1198, 533.4879
449.6020, 535.6495
450.0841, 540.0340
450.5662, 545.0568
451.0483, 550.1757
451.5304, 555.7963
452.0125, 564.0233
452.4947, 575.8586
452.9768, 587.4201
453.4589, 596.1682
453.9410, 602.0754
454.4231, 609.6016
454.9052, 619.4031
455.3874, 629.3371
455.8695, 636.1716
456.3516, 640.4152
456.8337, 645.5965
457.3158, 653.2156
457.7979, 662.2170
458.2801, 671.1841
458.7622, 680.0058
459.2443, 688.1944
459.7264, 694.4045
460.2085, 700.1100
460.6906, 707.3557
461.1728, 716.6995
461.6549, 726.3069
462.1370, 734.9485
462.6191, 742.8724
463.1012, 750.2333
463.5833, 757.5621
464.0655, 763.9218
464.5476, 769.2991
465.0297, 773.5088
465.5118, 775.3107
465.9939, 774.9938
466.4760, 771.6411
466.9582, 764.6345
467.4403, 752.5076
467.9224, 739.0688
468.4045, 724.4675
468.8866, 708.6891
469.3687, 691.3232
469.8509, 672.0873
470.3330, 652.2642
470.8151, 631.7901
471.2972, 610.8354
471.7793, 591.0762
472.2614, 572.1740
472.7436, 554.8798
473.2257, 539.6256
473.7078, 526.3629
474.1899, 515.1175
474.6720, 505.9438
475.1541, 498.3969
475.6363, 491.8265
476.1184, 486.2795
476.6005, 482.0826
477.0826, 479.5080
477.5647, 478.2815
478.0468, 478.1102
478.5290, 478.9407
479.0111, 480.2912
479.4932, 481.6858
479.9753, 483.4685
480.4574, 486.0233
480.9395, 489.4106
481.4217, 493.6407
481.9038, 499.3556
482.3859, 505.7085
482.8680, 511.3839
483.3501, 515.1921
483.8322, 518.9785
484.3144, 523.8183
484.7965, 529.5403
485.2786, 534.1416
485.7607, 537.5746
486.2428, 539.5257
486.7249, 539.7333
487.2071, 537.2543
487.6892, 535.0087
488.1713, 532.8300
488.6534, 531.0123
489.1355, 529.9820
489.6176, 529.8759
490.0998, 530.1642
490.5819, 530.5978
491.0640, 531.3478
491.5461, 533.3255
492.0282, 536.6332
492.5103, 540.5266
492.9925, 544.0986
493.4746, 547.7167
493.9567, 553.0436
494.4388, 560.3731
494.9209, 568.8221
495.4030, 578.2341
495.8852, 588.0399
496.3673, 597.0568
496.8494, 604.2643
497.3315, 610.9077
497.8136, 618.1863
498.2957, 625.9743
498.7779, 633.4757
499.2600, 640.4216
499.7421, 646.9276
500.2242, 653.2623
500.7063, 659.7591
501.1884, 665.0178
501.6706, 667.5657
502.1527, 669.1276
502.6348, 671.3967
503.1169, 675.9981
503.5990, 679.6386
504.0811, 681.6249
504.5633, 682.3520
505.0454, 683.2146
505.5275, 683.9070
506.0096, 685.2556
506.4917, 687.8243
506.9738, 691.7969
507.4560, 694.9865
507.9381, 697.3184
508.4202, 699.0612
508.9023, 700.2154
509.3844, 700.8370
509.8665, 702.0771
510.3487, 704.4636
510.8308, 706.9874
511.3129, 707.7852
511.7950, 707.1407
512.2772, 706.3642
512.7593, 706.2983
513.2414, 706.4033
513.7235, 705.9265
514.2056, 704.8795
514.6877, 703.8737
515.1699, 703.7117
515.6520, 703.5485
516.1341, 702.5012
516.6162, 699.7748
517.0983, 697.3134
517.5804, 695.6339
518.0626, 694.6231
518.5447, 694.0999
519.0268, 694.1735
519.5089, 694.5790
519.9910, 695.0141
520.4731, 695.5438
520.9553, 697.3537
521.4374, 700.8840
521.9195, 705.0076
522.4016, 709.0284
522.8837, 712.7169
523.3658, 717.3223
523.8480, 722.8506
524.3301, 729.3568
524.8122, 737.1947
525.2943, 746.2512
525.7764, 755.1739
526.2585, 763.6301
526.7407, 771.7169
527.2228, 779.9133
527.7049, 788.1592
528.1870, 795.8358
528.6691, 802.2324
529.1512, 808.1303
529.6334, 814.7305
530.1155, 822.2106
530.5976, 828.8755
531.0797, 833.6408
531.5618, 837.1984
532.0439, 840.2237
532.5261, 843.6287
533.0082, 845.4789
533.4903, 844.8646
533.9724, 842.4257
534.4545, 839.5209
534.9366, 836.8259
535.4188, 833.0511
535.9009, 827.7995
536.3830, 821.1022
536.8651, 813.9979
537.3472, 806.6481
537.8293, 798.6479
538.3115, 789.4332
538.7936, 778.8846
539.2757, 769.3704
539.7578, 761.0352
540.2399, 753.8707
540.7220, 747.9647
541.2042, 743.2705
541.6863, 739.0245
542.1684, 734.6324
542.6505, 730.9348
543.1326, 729.5306
543.6147, 729.9721
544.0969, 730.5492
544.5790, 729.0832
545.0611, 728.1093
545.5432, 729.9144
546.0253, 734.7497
546.5074, 740.5621
546.9896, 746.4387
547.4717, 752.9218
547.9538, 760.4423
548.4359, 768.9494
548.9180, 778.6995
549.4001, 789.7939
549.8823, 802.1584
550.3644, 815.6838
550.8465, 830.6961
551.3286, 846.5791
551.8107, 863.3943
552.2928, 881.0893
552.7750, 898.3045
553.2571, 914.8079
553.7392, 932.3826
554.2213, 952.7762
554.7034, 975.3503
555.1855, 997.8893
555.6677, 1020.454
556.1498, 1041.761
556.6319, 1060.852
557.1140, 1077.473
557.5961, 1090.780
558.0782, 1099.924
558.5604, 1106.726
559.0425, 1112.625
559.5246, 1117.254
560.0067, 1119.721
560.4888, 1117.946
560.9709, 1115.451
561.4531, 1114.435
561.9352, 1114.948
562.4173, 1113.090
562.8994, 1107.104
563.3815, 1099.596
563.8636, 1091.807
564.3458, 1084.165
564.8279, 1075.385
565.3100, 1065.849
565.7921, 1054.595
566.2742, 1040.370
566.7563, 1022.968
567.2385, 1004.068
567.7206, 984.1793
568.2027, 962.9266
568.6848, 939.7802
569.1669, 914.7376
569.6490, 890.1151
570.1312, 867.1396
570.6133, 844.9802
571.0954, 822.6924
571.5775, 800.0157
572.0596, 777.8633
572.5417, 755.7449
573.0239, 734.6597
573.5060, 715.9443
573.9881, 700.1339
574.4702, 685.3312
574.9523, 670.2439
575.4344, 655.9235
575.9166, 643.8779
576.3987, 634.8783
576.8808, 626.9566
577.3629, 620.0731
577.8450, 614.0583
578.3271, 608.2427
578.8093, 602.5674
579.2914, 597.2992
579.7735, 592.7033
580.2556, 588.7247
580.7377, 584.4175
581.2198, 579.7538
581.7020, 575.1951
582.1841, 571.2111
582.6662, 567.6240
583.1483, 563.7526
583.6304, 559.4150
584.1125, 555.6471
584.5947, 553.6415
585.0768, 552.7429
585.5589, 551.9772
586.0410, 550.2490
586.5231, 549.4673
587.0052, 550.9944
587.4873, 554.1416
587.9694, 557.0080
588.4515, 558.6356
588.9337, 560.5900
589.4158, 562.9762
589.8979, 565.7881
590.3800, 570.5786
590.8621, 577.8799
591.3442, 586.2434
591.8264, 594.6002
592.3085, 602.9065
592.7906, 612.3546
593.2727, 623.1150
593.7548, 634.5923
594.2369, 646.2811
594.7191, 658.2694
595.2012, 670.6766
595.6833, 683.7188
596.1654, 696.9962
596.6475, 710.5037
597.1296, 723.8544
597.6118, 736.4700
598.0939, 749.2695
598.5760, 760.2027
599.0581, 768.6976
599.5402, 774.4673
600.0223, 776.6837
600.5045, 774.6417
600.9866, 769.3768
601.4687, 761.2023
601.9508, 749.7753
602.4329, 737.0262
602.9150, 722.9366
603.3972, 707.6578
603.8793, 690.6879
604.3614, 671.5715
604.8435, 654.6715
605.3256, 640.7733
605.8077, 628.9076
606.2899, 618.1105
606.7720, 608.2499
607.2541, 599.1399
607.7362, 590.2131
608.2183, 582.4838
608.7004, 577.7614
609.1826, 575.4568
609.6647, 573.6985
610.1468, 571.5242
610.6289, 569.5731
611.1110, 568.3158
611.5931, 567.7793
612.0753, 567.4083
612.5574, 567.2584
613.0395, 567.1237
613.5216, 567.0487
614.0037, 567.7558
614.4858, 566.6119
614.9680, 563.3237
615.4501, 558.5769
615.9322, 552.9579
616.4143, 546.4480
616.8964, 539.7587
617.3785, 532.9821
617.8607, 526.2424
618.3428, 520.1574
618.8249, 514.4258
619.3070, 507.7845
619.7891, 498.5986
620.2712, 488.9728
620.7534, 480.6089
621.2355, 473.4983
621.7176, 467.9560
622.1997, 465.5448
622.6818, 463.5967
623.1639, 460.2584
623.6461, 454.9965
624.1282, 451.1193
624.6103, 449.4493
625.0924, 448.8080
625.5745, 448.5436
626.0566, 448.7495
626.5388, 449.0348
627.0209, 449.3539
627.5030, 449.7903
627.9851, 450.5907
628.4672, 451.7131
628.9493, 452.4970
629.4315, 452.6786
629.9136, 452.6362
630.3957, 452.8652
630.8778, 453.3444
631.3599, 454.0144
631.8420, 455.8311
632.3242, 457.0385
632.8063, 456.0225
