##NAMES=Brenkite
##RRUFFID=R060247
##IDEAL CHEMISTRY=Ca_2_(CO_3_)F_2_
##LOCALITY=Schellkopf, Brenk, Eifel, Germany
##OWNER=RRUFF
##SOURCE=Michael Scott
##DESCRIPTION=Colorless prismatic crystals in radial aggregates
##STATUS=The identification of this mineral is confirmed by single-crystal X-ray diffraction and chemical analysis.
##URL=rruff.info/R060247
##MEASURED CHEMISTRY=Ca_2.00_(CO_3_)F_2.00_ ; C not measured but estimated by difference and stoichiometry
91.00781, 9.579600
91.48993, 9.558962
91.97205, 9.551005
92.45416, 9.570962
92.93628, 9.602967
93.41840, 9.611309
93.90051, 9.587446
94.38263, 9.543135
94.86475, 9.452704
95.34686, 9.317547
95.82898, 9.269928
96.31110, 9.463925
96.79321, 9.877072
97.27533, 10.26243
97.75745, 10.53313
98.23956, 10.73409
98.72168, 11.03108
99.20380, 11.41523
99.68591, 11.91302
100.1680, 12.56182
100.6501, 13.36522
101.1323, 14.27197
101.6144, 15.23744
102.0965, 16.24759
102.5786, 17.44592
103.0607, 18.73415
103.5428, 20.30382
104.0250, 22.51846
104.5071, 25.45443
104.9892, 28.87912
105.4713, 32.73767
105.9534, 37.25263
106.4355, 41.67459
106.9177, 45.74071
107.3998, 49.69809
107.8819, 54.49321
108.3640, 60.65394
108.8461, 67.17253
109.3282, 73.67589
109.8104, 80.17890
110.2925, 86.50355
110.7746, 92.60555
111.2567, 98.46282
111.7388, 104.1539
112.2209, 108.8698
112.7031, 113.7932
113.1852, 119.8013
113.6673, 127.7609
114.1494, 136.1010
114.6315, 144.4053
115.1136, 152.7193
115.5958, 161.3870
116.0779, 170.3569
116.5600, 179.7939
117.0421, 189.8391
117.5242, 200.0680
118.0063, 211.3806
118.4885, 224.5109
118.9706, 239.6762
119.4527, 255.7880
119.9348, 271.7718
120.4169, 288.2188
120.8990, 306.5017
121.3812, 327.7530
121.8633, 350.8726
122.3454, 374.7876
122.8275, 399.8116
123.3096, 424.8131
123.7917, 450.1328
124.2739, 475.0536
124.7560, 496.9451
125.2381, 515.0059
125.7202, 528.8378
126.2023, 537.4377
126.6844, 540.2309
127.1666, 538.3571
127.6487, 533.0383
128.1308, 524.2543
128.6129, 512.4552
129.0950, 497.2808
129.5771, 479.1465
130.0593, 459.3017
130.5414, 437.4301
131.0235, 414.5257
131.5056, 392.7973
131.9877, 371.2187
132.4698, 349.4676
132.9520, 329.0263
133.4341, 309.8709
133.9162, 292.3185
134.3983, 276.4174
134.8804, 262.2278
135.3625, 250.1521
135.8447, 240.1933
136.3268, 232.0641
136.8089, 225.4065
137.2910, 220.2723
137.7731, 215.9866
138.2552, 212.4431
138.7374, 209.7801
139.2195, 206.7666
139.7016, 203.3042
140.1837, 199.5406
140.6658, 195.7338
141.1479, 191.6111
141.6301, 187.9513
142.1122, 185.1263
142.5943, 183.3558
143.0764, 181.7167
143.5585, 179.9976
144.0406, 178.3826
144.5228, 177.4846
145.0049, 177.3718
145.4870, 177.8757
145.9691, 178.9610
146.4512, 181.2153
146.9333, 183.1066
147.4155, 184.3636
147.8976, 185.0935
148.3797, 186.1570
148.8618, 187.2941
149.3439, 188.9547
149.8260, 191.4173
150.3082, 195.7880
150.7903, 199.7511
151.2724, 202.8292
151.7545, 204.9677
152.2366, 207.8767
152.7188, 212.1646
153.2009, 216.9685
153.6830, 221.5488
154.1651, 225.5075
154.6472, 229.5699
155.1293, 233.8627
155.6115, 238.4395
156.0936, 242.9876
156.5757, 247.0434
157.0578, 251.1926
157.5399, 256.0237
158.0220, 261.9211
158.5042, 268.3358
158.9863, 275.2943
159.4684, 283.0719
159.9505, 290.1341
160.4326, 295.2593
160.9147, 299.4673
161.3969, 304.2709
161.8790, 311.0505
162.3611, 317.9488
162.8432, 324.0473
163.3253, 329.1354
163.8074, 333.5085
164.2896, 337.2808
164.7717, 340.4243
165.2538, 342.8825
165.7359, 344.3947
166.2180, 345.3400
166.7001, 346.0923
167.1823, 346.9525
167.6644, 347.0674
168.1465, 345.3813
168.6286, 342.4138
169.1107, 339.6290
169.5928, 337.6732
170.0750, 336.3770
170.5571, 335.6205
171.0392, 335.6699
171.5213, 335.7909
172.0034, 334.7777
172.4855, 333.0473
172.9677, 332.4503
173.4498, 334.8493
173.9319, 338.9374
174.4140, 342.8557
174.8961, 346.0094
175.3782, 348.9337
175.8604, 352.7647
176.3425, 357.3262
176.8246, 360.9938
177.3067, 363.2815
177.7888, 363.8185
178.2709, 361.8232
178.7531, 356.8295
179.2352, 349.3634
179.7173, 339.4783
180.1994, 327.2188
180.6815, 314.5751
181.1636, 303.0156
181.6458, 292.4442
182.1279, 282.9742
182.6100, 274.5874
183.0921, 267.2666
183.5742, 260.6135
184.0563, 254.7135
184.5385, 249.9707
185.0206, 247.3534
185.5027, 246.5081
185.9848, 245.8669
186.4669, 244.7036
186.9490, 243.3480
187.4312, 242.7470
187.9133, 242.9305
188.3954, 243.7156
188.8775, 245.1568
189.3596, 247.1701
189.8417, 249.0287
190.3239, 250.3422
190.8060, 251.2402
191.2881, 252.3985
191.7702, 253.8929
192.2523, 255.3165
192.7344, 256.2523
193.2166, 256.6973
193.6987, 256.5935
194.1808, 255.9773
194.6629, 254.8311
195.1450, 252.8299
195.6271, 249.8588
196.1093, 246.3315
196.5914, 242.8264
197.0735, 239.3578
197.5556, 235.7151
198.0377, 231.8683
198.5198, 227.7839
199.0020, 223.2262
199.4841, 217.9840
199.9662, 212.6194
200.4483, 208.0807
200.9304, 204.5142
201.4125, 200.8754
201.8947, 196.4738
202.3768, 191.1816
202.8589, 186.8089
203.3410, 183.5350
203.8231, 180.9460
204.3052, 178.2846
204.7874, 175.4380
205.2695, 172.9298
205.7516, 171.1496
206.2337, 170.2593
206.7158, 168.9079
207.1979, 166.8231
207.6801, 164.5192
208.1622, 163.1595
208.6443, 162.9606
209.1264, 163.0005
209.6085, 162.7661
210.0906, 162.0568
210.5728, 162.0368
211.0549, 162.8975
211.5370, 164.3305
212.0191, 165.6070
212.5012, 166.6427
212.9833, 167.7580
213.4655, 169.0715
213.9476, 170.5804
214.4297, 172.3453
214.9118, 174.4581
215.3939, 176.7792
215.8760, 179.0052
216.3581, 181.0304
216.8403, 183.1388
217.3224, 185.4090
217.8045, 187.8039
218.2866, 190.5407
218.7687, 193.7061
219.2508, 197.1725
219.7330, 200.5173
220.2151, 203.6857
220.6972, 206.8105
221.1793, 209.8749
221.6614, 212.7919
222.1435, 215.9370
222.6257, 219.3477
223.1078, 222.9838
223.5899, 226.8394
224.0720, 230.9717
224.5541, 235.2547
225.0362, 239.7940
225.5184, 244.8499
226.0005, 249.3962
226.4826, 253.1840
226.9647, 256.5300
227.4468, 260.4840
227.9289, 265.3659
228.4111, 270.3357
228.8932, 275.0567
229.3753, 279.5894
229.8574, 283.7008
230.3395, 287.2100
230.8216, 290.3047
231.3038, 293.6125
231.7859, 297.4442
232.2680, 300.9941
232.7501, 303.8966
233.2322, 306.0176
233.7143, 307.8136
234.1965, 309.5217
234.6786, 310.8624
235.1607, 311.0247
235.6428, 309.5504
236.1249, 307.5541
236.6070, 305.4893
237.0892, 303.3446
237.5713, 301.1994
238.0534, 299.3990
238.5355, 297.5053
239.0176, 294.3352
239.4997, 289.2379
239.9819, 283.7209
240.4640, 278.4733
240.9461, 273.6767
241.4282, 268.6706
241.9103, 263.5575
242.3924, 258.2072
242.8746, 252.2114
243.3567, 245.0237
243.8388, 238.0292
244.3209, 231.8454
244.8030, 227.0031
245.2851, 221.6938
245.7673, 215.6165
246.2494, 209.1980
246.7315, 203.3317
247.2136, 198.0372
247.6957, 193.2652
248.1778, 189.0569
248.6600, 185.6515
249.1421, 182.1507
249.6242, 178.3611
250.1063, 174.5532
250.5884, 171.2933
251.0705, 168.8492
251.5527, 166.4770
252.0348, 163.8455
252.5169, 160.6777
252.9990, 158.2146
253.4811, 156.7129
253.9632, 155.7209
254.4454, 154.4463
254.9275, 152.6871
255.4096, 151.0097
255.8917, 149.5612
256.3738, 148.3249
256.8560, 147.4621
257.3381, 147.0719
257.8202, 146.9647
258.3023, 146.9007
258.7844, 147.0145
259.2665, 146.8774
259.7487, 146.2793
260.2308, 145.1289
260.7129, 144.1507
261.1950, 143.3084
261.6771, 142.6770
262.1592, 142.4131
262.6414, 142.6602
263.1235, 142.9200
263.6056, 143.0701
264.0877, 143.1115
264.5698, 142.9982
265.0519, 142.5764
265.5341, 142.2099
266.0162, 142.4413
266.4983, 143.5614
266.9804, 144.3540
267.4625, 144.3496
267.9446, 143.5690
268.4268, 143.4572
268.9089, 144.2164
269.3910, 145.2892
269.8731, 146.0585
270.3552, 146.3749
270.8373, 146.9917
271.3195, 148.1944
271.8016, 149.9003
272.2837, 151.2314
272.7658, 152.0611
273.2479, 152.8363
273.7300, 154.0165
274.2122, 155.6624
274.6943, 157.3024
275.1764, 158.8098
275.6585, 160.2312
276.1406, 161.8234
276.6227, 163.6185
277.1049, 165.4838
277.5870, 167.4014
278.0691, 169.4048
278.5512, 171.0558
279.0333, 172.1909
279.5154, 172.9752
279.9976, 174.0573
280.4797, 175.5416
280.9618, 176.7956
281.4439, 177.2571
281.9260, 176.9132
282.4081, 176.7421
282.8903, 176.9167
283.3724, 177.2761
283.8545, 177.3920
284.3366, 177.2355
284.8187, 177.1392
285.3008, 177.4597
285.7830, 178.1382
286.2651, 178.3798
286.7472, 178.0034
287.2293, 177.3789
287.7114, 177.1305
288.1935, 177.2566
288.6757, 177.6313
289.1578, 178.3073
289.6399, 179.2132
290.1220, 179.9254
290.6041, 180.3847
291.0862, 180.7751
291.5684, 181.5871
292.0505, 182.7299
292.5326, 183.3367
293.0147, 182.6293
293.4968, 181.0529
293.9789, 180.0117
294.4611, 179.6297
294.9432, 179.3127
295.4253, 178.4964
295.9074, 177.1882
296.3895, 175.4514
296.8716, 173.1839
297.3538, 170.5222
297.8359, 167.6956
298.3180, 164.6775
298.8001, 161.5732
299.2822, 158.0157
299.7643, 154.3649
300.2465, 151.6492
300.7286, 150.8935
301.2107, 150.8258
301.6928, 149.5363
302.1749, 147.1129
302.6570, 144.7196
303.1392, 143.3450
303.6213, 142.6318
304.1034, 142.0188
304.5855, 141.4211
305.0676, 140.7583
305.5497, 139.7740
306.0319, 138.5664
306.5140, 137.5948
306.9961, 137.3575
307.4782, 137.4651
307.9603, 137.4799
308.4424, 137.3524
308.9246, 137.0100
309.4067, 136.2152
309.8888, 135.1279
310.3709, 134.1924
310.8530, 133.8188
311.3351, 133.6159
311.8173, 133.2452
312.2994, 132.6085
312.7815, 131.9258
313.2636, 131.3002
313.7457, 130.7279
314.2278, 130.1977
314.7100, 129.5829
315.1921, 129.1066
315.6742, 129.0185
316.1563, 129.4384
316.6384, 129.6467
317.1205, 129.2402
317.6027, 128.4697
318.0848, 127.6523
318.5669, 126.8574
319.0490, 126.0605
319.5311, 125.2166
320.0132, 124.3183
320.4954, 123.5241
320.9775, 122.8321
321.4596, 122.2890
321.9417, 121.9470
322.4238, 122.0564
322.9059, 122.1169
323.3881, 122.1479
323.8702, 122.1129
324.3523, 121.6284
324.8344, 119.8507
325.3165, 118.1275
325.7986, 117.2387
326.2808, 118.4954
326.7629, 119.1174
327.2450, 118.4469
327.7271, 116.8842
328.2092, 116.0110
328.6913, 116.4892
329.1735, 117.0866
329.6556, 117.3257
330.1377, 117.0245
330.6198, 116.7050
331.1019, 116.3507
331.5840, 115.9820
332.0662, 115.6362
332.5483, 115.3627
333.0304, 115.0259
333.5125, 114.4839
333.9946, 113.5705
334.4767, 113.3424
334.9589, 114.1429
335.4410, 115.2932
335.9231, 115.9329
336.4052, 115.9098
336.8873, 115.7655
337.3694, 115.6447
337.8516, 115.5376
338.3336, 115.1626
338.8158, 114.3802
339.2979, 113.6288
339.7800, 113.3996
340.2621, 113.8080
340.7442, 113.9063
341.2263, 113.3562
341.7085, 112.4721
342.1906, 112.4635
342.6727, 113.4623
343.1548, 114.5115
343.6369, 114.9541
344.1190, 114.8173
344.6012, 114.5469
345.0833, 114.0948
345.5654, 113.7115
346.0475, 113.9884
346.5296, 114.8785
347.0117, 115.6755
347.4939, 115.8979
347.9760, 115.7146
348.4581, 115.6392
348.9402, 115.6908
349.4223, 115.8714
349.9044, 116.3582
350.3866, 117.0190
350.8687, 117.4051
351.3508, 117.1232
351.8329, 116.5537
352.3150, 116.2697
352.7971, 116.2666
353.2793, 116.3916
353.7614, 116.6190
354.2435, 116.8764
354.7256, 117.0513
355.2077, 117.1178
355.6898, 117.0809
356.1720, 116.8846
356.6541, 116.5652
357.1362, 116.2812
357.6183, 116.3045
358.1004, 116.3058
358.5826, 115.9039
359.0647, 114.8013
359.5468, 113.8766
360.0289, 113.8223
360.5110, 114.2652
360.9931, 114.4947
361.4753, 114.1946
361.9574, 113.6410
362.4395, 112.8791
362.9216, 111.8550
363.4037, 111.0175
363.8858, 110.5632
364.3680, 110.3389
364.8501, 110.1832
365.3322, 110.0618
365.8143, 110.0110
366.2964, 110.1336
366.7785, 110.4207
367.2607, 110.4771
367.7428, 110.1586
368.2249, 109.6741
368.7070, 109.1400
369.1891, 108.2979
369.6712, 107.7621
370.1534, 107.6396
370.6355, 107.8343
371.1176, 108.0567
371.5997, 108.3403
372.0818, 108.6059
372.5639, 108.8660
373.0461, 109.2284
373.5282, 109.1859
374.0103, 108.5783
374.4924, 107.7109
374.9745, 107.0327
375.4566, 106.5489
375.9388, 106.2328
376.4209, 106.1439
376.9030, 106.2593
377.3851, 106.1317
377.8672, 105.6481
378.3493, 105.2787
378.8315, 105.6878
379.3136, 106.9033
379.7957, 107.5528
380.2778, 107.2163
380.7599, 106.3400
381.2420, 106.0304
381.7242, 106.2918
382.2063, 106.6013
382.6884, 106.5527
383.1705, 106.2628
383.6526, 106.1576
384.1347, 106.3011
384.6169, 106.5243
385.0990, 106.5917
385.5811, 106.5530
386.0632, 106.5706
386.5453, 106.8726
387.0274, 107.2052
387.5096, 107.1213
387.9917, 106.6234
388.4738, 106.2117
388.9559, 106.5414
389.4380, 107.1225
389.9201, 107.2743
390.4023, 106.3325
390.8844, 105.4210
391.3665, 105.4079
391.8486, 106.0894
392.3307, 106.7173
392.8128, 107.0255
393.2950, 107.0929
393.7771, 106.9300
394.2592, 106.4290
394.7413, 105.9906
395.2234, 105.6829
395.7055, 105.5301
396.1877, 105.5698
396.6698, 106.1209
397.1519, 106.5686
397.6340, 106.6374
398.1161, 106.2524
398.5982, 106.1086
399.0804, 106.4892
399.5625, 106.9861
400.0446, 107.3121
400.5267, 107.4767
401.0088, 107.4488
401.4909, 107.0763
401.9731, 106.4979
402.4552, 106.3304
402.9373, 106.8808
403.4194, 107.3421
403.9015, 107.2153
404.3836, 106.2015
404.8658, 105.8464
405.3479, 106.3607
405.8300, 107.2494
406.3121, 107.8372
406.7942, 108.1163
407.2763, 108.1102
407.7585, 107.6588
408.2406, 106.9050
408.7227, 106.7455
409.2048, 107.2343
409.6869, 107.8496
410.1690, 108.2223
410.6512, 108.3456
411.1333, 108.1344
411.6154, 107.4252
412.0975, 106.6481
412.5796, 106.4641
413.0617, 106.8034
413.5439, 107.3043
414.0260, 108.0410
414.5081, 108.7129
414.9902, 108.7478
415.4723, 108.0469
415.9544, 107.3710
416.4366, 107.4753
416.9187, 107.9777
417.4008, 108.3034
417.8829, 108.0309
418.3650, 107.6984
418.8471, 107.6927
419.3293, 107.9454
419.8114, 108.0422
420.2935, 107.5206
420.7756, 106.9637
421.2577, 106.7970
421.7398, 107.2934
422.2220, 107.7737
422.7041, 108.1637
423.1862, 108.4374
423.6683, 108.5527
424.1504, 108.1944
424.6325, 107.9894
425.1147, 108.2133
425.5968, 108.9578
426.0789, 109.3167
426.5610, 109.0879
427.0431, 108.6582
427.5252, 108.3228
428.0074, 108.0700
428.4895, 107.9508
428.9716, 108.0345
429.4537, 108.2346
429.9358, 108.2409
430.4179, 107.9803
430.9001, 107.7800
431.3822, 107.8346
431.8643, 108.1482
432.3464, 108.4482
432.8285, 108.7488
433.3106, 108.9891
433.7928, 109.0689
434.2749, 109.0031
434.7570, 108.9111
435.2391, 108.7911
435.7212, 108.6982
436.2033, 108.8499
436.6855, 109.2075
437.1676, 109.3887
437.6497, 108.9053
438.1318, 108.1345
438.6139, 107.6216
439.0960, 107.4367
439.5782, 107.5773
440.0603, 108.3823
440.5424, 109.4865
441.0245, 110.1964
441.5066, 109.8124
441.9887, 109.2896
442.4709, 109.2311
442.9530, 109.6366
443.4351, 109.9772
443.9172, 110.0464
444.3993, 109.9739
444.8814, 109.8490
445.3636, 109.6275
445.8457, 109.4324
446.3278, 109.2551
446.8099, 109.1165
447.2920, 109.0650
447.7741, 109.1600
448.2563, 109.2779
448.7384, 109.3783
449.2205, 109.4555
449.7026, 109.5892
450.1847, 109.8474
450.6668, 110.0780
451.1490, 110.1073
451.6311, 109.8590
452.1132, 109.7027
452.5953, 109.6778
453.0774, 109.7884
453.5595, 110.1422
454.0417, 110.7839
454.5238, 111.2528
455.0059, 111.2171
455.4880, 110.7682
455.9701, 110.3687
456.4522, 110.0328
456.9344, 109.7485
457.4165, 109.4341
457.8986, 109.1525
458.3807, 109.1066
458.8628, 109.4811
459.3449, 109.9813
459.8271, 110.2713
460.3092, 110.3908
460.7913, 110.5158
461.2734, 110.7369
461.7555, 111.0153
462.2376, 111.3934
462.7198, 111.9483
463.2019, 112.2425
463.6840, 111.8391
464.1661, 111.1331
464.6482, 110.6023
465.1303, 110.3379
465.6125, 110.2936
466.0946, 110.6418
466.5767, 111.3105
467.0588, 111.6222
467.5409, 111.1436
468.0230, 110.6381
468.5052, 110.4557
468.9873, 110.7787
469.4694, 110.9668
469.9515, 110.9472
470.4336, 110.8578
470.9157, 110.9052
471.3979, 111.1346
471.8800, 111.3483
472.3621, 111.4854
472.8442, 111.5687
473.3263, 111.7335
473.8084, 111.9942
474.2906, 112.2224
474.7727, 112.2959
475.2548, 112.2468
475.7369, 112.2643
476.2190, 112.3985
476.7011, 112.4707
477.1833, 112.0622
477.6654, 111.3947
478.1475, 111.0821
478.6296, 111.7350
479.1117, 112.6187
479.5938, 112.9122
480.0760, 112.7036
480.5581, 112.5729
481.0402, 113.0993
481.5223, 113.6954
482.0044, 113.8356
482.4865, 113.2395
482.9687, 112.6927
483.4508, 112.5222
483.9329, 112.5430
484.4150, 112.4932
484.8971, 112.1522
485.3792, 111.9175
485.8614, 111.9453
486.3435, 111.2763
486.8256, 112.4756
487.3077, 113.1660
487.7898, 113.3750
488.2719, 111.6603
488.7541, 112.4296
489.2362, 112.2035
489.7183, 111.9365
490.2004, 113.0553
490.6825, 111.6205
491.1646, 112.7174
491.6468, 112.8037
492.1289, 113.3525
492.6110, 112.8997
493.0931, 112.7563
493.5752, 113.6148
494.0573, 113.9185
494.5395, 113.3504
495.0216, 113.9286
495.5037, 112.4588
495.9858, 112.7861
496.4679, 113.8889
496.9500, 113.3712
497.4322, 113.9677
497.9143, 114.1398
498.3964, 112.3835
498.8785, 113.9810
499.3606, 114.1281
499.8427, 112.7858
500.3249, 114.2685
500.8070, 113.1316
501.2891, 112.9297
501.7712, 113.4314
502.2533, 113.1996
502.7354, 114.1244
503.2176, 113.9350
503.6997, 113.6460
504.1818, 113.7914
504.6639, 112.7059
505.1460, 113.9041
505.6281, 113.5423
506.1103, 113.9560
506.5924, 114.5454
507.0745, 113.7890
507.5566, 114.4574
508.0387, 112.9162
508.5208, 113.2239
509.0030, 113.3325
509.4851, 114.6227
509.9672, 113.0924
510.4493, 113.3486
510.9314, 114.3657
511.4135, 114.3182
511.8957, 114.7159
512.3778, 113.7960
512.8599, 114.1138
513.3420, 114.0904
513.8242, 115.2460
514.3063, 115.4709
514.7884, 114.5733
515.2705, 113.6805
515.7526, 114.9209
516.2347, 114.1395
516.7169, 114.4488
517.1990, 113.6316
517.6811, 113.7870
518.1632, 113.9271
518.6453, 114.5657
519.1274, 113.6924
519.6096, 114.7804
520.0917, 114.7348
520.5738, 115.0231
521.0559, 115.2742
521.5380, 114.0043
522.0201, 113.9813
522.5023, 115.7425
522.9844, 114.7827
523.4665, 114.3721
523.9486, 114.3519
524.4307, 116.1742
524.9128, 116.2839
525.3950, 114.3465
525.8771, 116.0877
526.3592, 115.5657
526.8413, 115.7163
527.3234, 115.8591
527.8055, 116.1092
528.2877, 116.0993
528.7698, 115.6628
529.2519, 114.9241
529.7340, 114.3970
530.2161, 114.5159
530.6982, 114.8612
531.1804, 115.1073
531.6625, 115.1784
532.1446, 115.3576
532.6267, 115.9447
533.1088, 116.5817
533.5909, 116.9301
534.0731, 116.7744
534.5552, 116.5441
535.0373, 116.2404
535.5194, 115.8918
536.0015, 115.5200
536.4836, 115.0052
536.9658, 114.7224
537.4479, 114.8606
537.9300, 115.3966
538.4121, 115.8494
538.8942, 116.1978
539.3763, 116.5353
539.8585, 117.0775
540.3406, 117.7288
540.8227, 117.8676
541.3048, 117.3236
541.7869, 116.5903
542.2690, 116.2180
542.7512, 116.1361
543.2333, 116.1685
543.7154, 116.2955
544.1975, 116.4629
544.6796, 116.7300
545.1617, 117.0371
545.6439, 117.1070
546.1260, 116.5036
546.6081, 115.8636
547.0902, 115.5509
547.5723, 115.6455
548.0544, 115.9141
548.5366, 116.6381
549.0187, 117.3452
549.5008, 117.6148
549.9829, 117.2044
550.4650, 116.7747
550.9471, 116.2663
551.4293, 115.8322
551.9114, 115.9098
552.3935, 116.6206
552.8756, 117.2575
553.3577, 117.5383
553.8398, 117.5279
554.3220, 117.5057
554.8041, 117.4714
555.2862, 117.4297
555.7683, 117.4214
556.2504, 117.4008
556.7325, 117.2281
557.2147, 116.8451
557.6968, 116.5307
558.1789, 116.4499
558.6610, 116.6059
559.1431, 117.0033
559.6252, 118.1472
560.1074, 119.0126
560.5895, 118.9675
561.0716, 118.2770
561.5537, 117.8324
562.0358, 118.1367
562.5179, 118.3924
563.0001, 118.2647
563.4822, 117.7001
563.9643, 117.3327
564.4464, 117.1799
564.9285, 117.2013
565.4106, 117.4173
565.8928, 117.8763
566.3749, 118.2231
566.8570, 118.4351
567.3391, 118.5267
567.8212, 118.4874
568.3033, 118.3316
568.7855, 118.1728
569.2676, 118.0803
569.7497, 117.9723
570.2318, 117.5589
570.7139, 116.9639
571.1960, 116.6959
571.6782, 117.3678
572.1603, 118.2840
572.6424, 118.8496
573.1245, 118.9962
573.6066, 119.1649
574.0887, 119.8041
574.5709, 120.3694
575.0530, 120.4318
575.5351, 119.3168
576.0172, 118.5979
576.4993, 118.4952
576.9814, 118.7226
577.4636, 118.8114
577.9457, 118.6671
578.4278, 118.6479
578.9099, 118.8944
579.3920, 119.3105
579.8741, 119.5093
580.3563, 119.4745
580.8384, 119.4252
581.3205, 119.5505
581.8026, 119.7594
582.2847, 119.7087
582.7668, 119.3814
583.2490, 119.1536
583.7311, 119.4958
584.2132, 120.0661
584.6953, 120.4268
585.1774, 120.4437
585.6595, 120.3096
586.1416, 119.9808
