##NAMES=Brewsterite-Sr
##RRUFFID=R070227
##IDEAL CHEMISTRY=Sr(Al_2_Si_6_)O_16_&#183;5H_2_O
##LOCALITY=Strontian, North West Highlands (Argyllshire), Scotland, UK
##OWNER=RRUFF
##SOURCE=Michael Scott
##DESCRIPTION=Colorless to off-white striated prismatic crystals associated with calcite and pyrite on gneissic matrix
##STATUS=The identification of this mineral has been confirmed only by single crystal X-ray diffraction.
##URL=rruff.info/R070227
130.3772, 1242.145
130.8593, 1290.610
131.3414, 1338.424
131.8235, 1391.816
132.3056, 1450.590
132.7877, 1513.544
133.2699, 1580.266
133.7520, 1651.231
134.2341, 1721.740
134.7162, 1792.504
135.1983, 1863.880
135.6804, 1922.888
136.1626, 1966.232
136.6447, 2000.798
137.1268, 2041.414
137.6089, 2091.383
138.0910, 2134.620
138.5731, 2159.946
139.0553, 2163.732
139.5374, 2168.679
140.0195, 2177.625
140.5016, 2188.389
140.9837, 2190.858
141.4658, 2179.679
141.9480, 2168.667
142.4301, 2168.343
142.9122, 2185.743
143.3943, 2198.613
143.8764, 2202.086
144.3585, 2196.441
144.8407, 2197.050
145.3228, 2204.923
145.8049, 2218.314
146.2870, 2235.834
146.7691, 2259.749
147.2512, 2284.517
147.7334, 2309.077
148.2155, 2333.672
148.6976, 2358.009
149.1797, 2380.647
149.6618, 2403.515
150.1439, 2428.917
150.6261, 2456.408
151.1082, 2486.544
151.5903, 2518.873
152.0724, 2551.772
152.5545, 2590.325
153.0366, 2641.694
153.5188, 2698.561
154.0009, 2746.331
154.4830, 2779.223
154.9651, 2805.844
155.4472, 2829.929
155.9293, 2849.004
156.4115, 2869.849
156.8936, 2895.114
157.3757, 2923.587
157.8578, 2951.420
158.3399, 2971.458
158.8221, 2993.938
159.3042, 3025.794
159.7863, 3083.776
160.2684, 3136.574
160.7505, 3170.581
161.2326, 3188.289
161.7148, 3206.455
162.1969, 3230.120
162.6790, 3258.576
163.1611, 3290.791
163.6432, 3335.123
164.1253, 3376.530
164.6075, 3404.205
165.0896, 3417.660
165.5717, 3432.517
166.0538, 3464.353
166.5359, 3501.886
167.0180, 3529.116
167.5002, 3529.923
167.9823, 3524.136
168.4644, 3528.707
168.9465, 3546.679
169.4286, 3562.445
169.9107, 3564.942
170.3929, 3556.808
170.8750, 3543.637
171.3571, 3529.163
171.8392, 3510.848
172.3213, 3485.215
172.8034, 3451.102
173.2856, 3412.953
173.7677, 3372.372
174.2498, 3330.336
174.7319, 3290.934
175.2140, 3259.284
175.6961, 3231.162
176.1783, 3199.136
176.6604, 3159.479
177.1425, 3120.514
177.6246, 3098.072
178.1067, 3089.262
178.5888, 3073.692
179.0710, 3030.747
179.5531, 2970.523
180.0352, 2915.369
180.5173, 2870.608
180.9994, 2833.995
181.4815, 2805.729
181.9637, 2785.318
182.4458, 2765.202
182.9279, 2737.903
183.4100, 2705.072
183.8921, 2672.139
184.3742, 2638.483
184.8564, 2606.596
185.3385, 2584.811
185.8206, 2573.517
186.3027, 2565.324
186.7848, 2553.806
187.2669, 2539.058
187.7491, 2521.443
188.2312, 2499.329
188.7133, 2474.460
189.1954, 2452.764
189.6775, 2434.543
190.1596, 2418.796
190.6418, 2403.013
191.1239, 2387.397
191.6060, 2376.605
192.0881, 2375.710
192.5702, 2383.085
193.0524, 2383.616
193.5345, 2375.962
194.0166, 2364.982
194.4987, 2358.383
194.9808, 2356.449
195.4629, 2354.557
195.9451, 2351.203
196.4272, 2346.333
196.9093, 2337.818
197.3914, 2323.657
197.8735, 2308.891
198.3556, 2305.768
198.8378, 2316.620
199.3199, 2324.390
199.8020, 2315.790
200.2841, 2289.046
200.7662, 2274.686
201.2483, 2277.663
201.7305, 2291.043
202.2126, 2297.591
202.6947, 2295.810
203.1768, 2292.792
203.6589, 2292.217
204.1410, 2294.043
204.6232, 2299.132
205.1053, 2309.106
205.5874, 2321.724
206.0695, 2328.802
206.5516, 2328.540
207.0337, 2327.466
207.5159, 2329.632
207.9980, 2335.050
208.4801, 2344.043
208.9622, 2359.064
209.4443, 2377.647
209.9264, 2386.145
210.4086, 2380.225
210.8907, 2372.914
211.3728, 2375.328
211.8549, 2391.131
212.3370, 2403.850
212.8191, 2409.337
213.3013, 2409.021
213.7834, 2415.539
214.2655, 2430.031
214.7476, 2449.619
215.2297, 2472.999
215.7118, 2503.413
216.1940, 2529.128
216.6761, 2547.174
217.1582, 2557.968
217.6403, 2567.510
218.1224, 2571.806
218.6045, 2580.007
219.0867, 2603.708
219.5688, 2652.707
220.0509, 2693.301
220.5330, 2715.085
221.0151, 2717.813
221.4972, 2726.657
221.9794, 2740.395
222.4615, 2761.664
222.9436, 2795.564
223.4257, 2850.753
223.9078, 2901.129
224.3899, 2938.690
224.8721, 2962.670
225.3542, 2990.771
225.8363, 3025.736
226.3184, 3062.448
226.8005, 3094.733
227.2827, 3118.198
227.7648, 3145.266
228.2469, 3179.531
228.7290, 3221.653
229.2111, 3264.782
229.6932, 3308.877
230.1754, 3353.496
230.6575, 3400.035
231.1396, 3454.542
231.6217, 3499.237
232.1038, 3524.818
232.5859, 3524.462
233.0681, 3542.616
233.5502, 3586.766
234.0323, 3643.854
234.5144, 3696.144
234.9965, 3741.960
235.4786, 3785.166
235.9608, 3827.130
236.4429, 3867.643
236.9250, 3906.003
237.4071, 3944.707
237.8892, 3979.395
238.3713, 4001.396
238.8535, 4000.481
239.3356, 4004.169
239.8177, 4024.112
240.2998, 4068.439
240.7819, 4097.440
241.2640, 4106.769
241.7462, 4103.777
242.2283, 4101.015
242.7104, 4099.626
243.1925, 4096.624
243.6746, 4091.567
244.1567, 4085.492
244.6389, 4073.345
245.1210, 4053.595
245.6031, 4028.766
246.0852, 4004.160
246.5673, 3983.903
247.0494, 3956.733
247.5316, 3916.661
248.0137, 3857.707
248.4958, 3805.714
248.9779, 3761.455
249.4600, 3724.020
249.9421, 3694.912
250.4243, 3682.968
250.9064, 3663.145
251.3885, 3623.786
251.8706, 3556.186
252.3527, 3497.544
252.8348, 3450.258
253.3170, 3410.523
253.7991, 3371.750
254.2812, 3334.471
254.7633, 3297.940
255.2454, 3262.170
255.7275, 3228.228
256.2097, 3191.340
256.6918, 3147.839
257.1739, 3104.324
257.6560, 3075.229
258.1381, 3070.397
258.6202, 3059.445
259.1024, 3027.448
259.5845, 2966.695
260.0666, 2918.280
260.5487, 2884.155
261.0308, 2861.026
261.5129, 2842.978
261.9951, 2832.943
262.4772, 2821.336
262.9593, 2804.001
263.4414, 2779.261
263.9235, 2756.068
264.4056, 2734.427
264.8878, 2714.062
265.3699, 2694.322
265.8520, 2675.557
266.3341, 2655.909
266.8162, 2633.743
267.2983, 2608.459
267.7805, 2585.270
268.2626, 2563.372
268.7447, 2544.717
269.2268, 2534.627
269.7089, 2536.221
270.1910, 2535.219
270.6732, 2525.433
271.1553, 2506.018
271.6374, 2485.740
272.1195, 2463.726
272.6016, 2442.092
273.0837, 2426.067
273.5659, 2416.941
274.0480, 2406.457
274.5301, 2390.537
275.0122, 2368.998
275.4943, 2348.607
275.9764, 2328.594
276.4586, 2311.180
276.9407, 2299.816
277.4228, 2294.876
277.9049, 2293.835
278.3870, 2298.514
278.8691, 2308.350
279.3513, 2309.603
279.8334, 2300.843
280.3155, 2287.167
280.7976, 2274.294
281.2798, 2262.294
281.7619, 2252.070
282.2440, 2244.272
282.7261, 2238.692
283.2082, 2233.769
283.6903, 2229.485
284.1725, 2225.926
284.6546, 2224.776
285.1367, 2225.820
285.6188, 2222.761
286.1009, 2209.608
286.5830, 2190.186
287.0652, 2182.499
287.5473, 2187.929
288.0294, 2197.237
288.5115, 2201.873
288.9936, 2201.905
289.4757, 2197.653
289.9579, 2185.952
290.4400, 2170.841
290.9221, 2163.703
291.4042, 2164.888
291.8863, 2169.682
292.3684, 2174.234
292.8506, 2178.610
293.3327, 2183.296
293.8148, 2189.576
294.2969, 2195.647
294.7790, 2197.828
295.2611, 2196.110
295.7433, 2192.592
296.2254, 2188.278
296.7075, 2183.475
297.1896, 2178.922
297.6717, 2172.980
298.1538, 2168.865
298.6360, 2174.658
299.1181, 2189.406
299.6002, 2201.210
300.0823, 2196.675
300.5644, 2183.284
301.0465, 2175.507
301.5287, 2179.491
302.0108, 2187.643
302.4929, 2192.280
302.9750, 2193.743
303.4571, 2193.718
303.9392, 2191.914
304.4214, 2189.753
304.9035, 2189.895
305.3856, 2195.959
305.8677, 2199.634
306.3498, 2187.468
306.8319, 2164.904
307.3141, 2150.982
307.7962, 2163.623
308.2783, 2187.404
308.7604, 2208.589
309.2425, 2225.834
309.7246, 2236.053
310.2068, 2232.790
310.6889, 2220.389
311.1710, 2210.132
311.6531, 2206.140
312.1352, 2207.164
312.6173, 2213.593
313.0995, 2227.687
313.5816, 2240.470
314.0637, 2245.930
314.5458, 2247.310
315.0279, 2250.766
315.5100, 2262.784
315.9922, 2274.390
316.4743, 2279.137
316.9564, 2273.566
317.4385, 2272.439
317.9206, 2285.113
318.4027, 2304.126
318.8849, 2319.051
319.3670, 2324.150
319.8491, 2327.273
320.3312, 2330.805
320.8133, 2334.831
321.2954, 2340.001
321.7776, 2345.492
322.2597, 2352.571
322.7418, 2362.590
323.2239, 2380.748
323.7060, 2396.871
324.1881, 2408.808
324.6703, 2416.397
325.1524, 2420.922
325.6345, 2414.948
326.1166, 2409.870
326.5987, 2414.848
327.0808, 2437.927
327.5630, 2461.728
328.0451, 2487.353
328.5272, 2514.281
329.0093, 2530.934
329.4914, 2531.799
329.9735, 2527.080
330.4557, 2522.948
330.9378, 2518.527
331.4199, 2516.289
331.9020, 2517.035
332.3841, 2520.202
332.8662, 2522.683
333.3484, 2522.574
333.8305, 2524.635
334.3126, 2531.863
334.7947, 2545.632
335.2768, 2560.899
335.7589, 2580.371
336.2411, 2599.541
336.7232, 2604.251
337.2053, 2587.754
337.6874, 2576.435
338.1695, 2585.881
338.6516, 2619.184
339.1338, 2645.865
339.6159, 2665.117
340.0980, 2677.744
340.5801, 2679.802
341.0622, 2669.085
341.5443, 2669.087
342.0265, 2697.113
342.5086, 2748.525
342.9907, 2781.455
343.4728, 2793.987
343.9549, 2794.419
344.4370, 2785.035
344.9192, 2767.987
345.4013, 2764.591
345.8834, 2789.101
346.3655, 2830.817
346.8476, 2861.122
347.3297, 2879.702
347.8119, 2893.411
348.2940, 2906.692
348.7761, 2919.853
349.2582, 2933.262
349.7403, 2946.204
350.2225, 2960.635
350.7046, 2981.355
351.1867, 3007.606
351.6688, 3032.090
352.1509, 3044.754
352.6331, 3053.577
353.1152, 3071.084
353.5973, 3102.373
354.0794, 3138.620
354.5615, 3177.020
355.0436, 3214.988
355.5258, 3244.661
356.0079, 3248.943
356.4900, 3250.122
356.9721, 3268.876
357.4542, 3311.946
357.9363, 3360.495
358.4185, 3407.723
358.9006, 3452.894
359.3827, 3494.737
359.8648, 3526.180
360.3469, 3559.382
360.8290, 3600.796
361.3112, 3651.750
361.7933, 3706.578
362.2754, 3770.198
362.7575, 3834.662
363.2396, 3891.571
363.7217, 3921.402
364.2039, 3960.338
364.6860, 4021.119
365.1681, 4104.443
365.6502, 4186.336
366.1323, 4263.354
366.6144, 4339.119
367.0966, 4416.386
367.5787, 4492.593
368.0608, 4572.621
368.5429, 4658.615
369.0250, 4749.619
369.5071, 4837.935
369.9893, 4916.744
370.4714, 5000.307
370.9535, 5097.358
371.4356, 5217.029
371.9177, 5326.790
372.3998, 5423.216
372.8820, 5511.445
373.3641, 5601.625
373.8462, 5694.598
374.3283, 5786.782
374.8104, 5876.208
375.2925, 5963.767
375.7747, 6048.489
376.2568, 6133.617
376.7389, 6210.938
377.2210, 6264.085
377.7031, 6291.211
378.1852, 6321.271
378.6674, 6368.348
379.1495, 6425.255
379.6316, 6461.810
380.1137, 6476.562
380.5958, 6481.305
381.0779, 6487.503
381.5601, 6493.336
382.0422, 6489.344
382.5243, 6472.064
383.0064, 6445.640
383.4885, 6416.263
383.9706, 6383.602
384.4528, 6347.306
384.9349, 6312.148
385.4170, 6271.643
385.8991, 6210.770
386.3812, 6121.234
386.8633, 6029.082
387.3455, 5960.994
387.8276, 5909.092
388.3097, 5854.171
388.7918, 5778.068
389.2739, 5701.172
389.7560, 5642.967
390.2382, 5606.580
390.7203, 5568.939
391.2024, 5515.258
391.6845, 5454.488
392.1666, 5396.223
392.6487, 5348.719
393.1309, 5299.910
393.6130, 5239.751
394.0951, 5170.079
394.5772, 5115.198
395.0593, 5094.404
395.5414, 5081.969
396.0236, 5062.012
396.5057, 5017.901
396.9878, 4983.226
397.4699, 4969.279
397.9520, 4968.234
398.4341, 4955.285
398.9163, 4913.396
399.3984, 4877.337
399.8805, 4861.724
400.3626, 4876.830
400.8447, 4881.568
401.3268, 4871.611
401.8090, 4854.473
402.2911, 4840.296
402.7732, 4830.008
403.2553, 4820.574
403.7374, 4810.907
404.2195, 4801.147
404.7017, 4794.172
405.1838, 4790.511
405.6659, 4788.164
406.1480, 4786.414
406.6301, 4785.328
407.1122, 4779.855
407.5944, 4766.773
408.0765, 4751.154
408.5586, 4747.486
409.0407, 4755.503
409.5228, 4762.423
410.0049, 4760.286
410.4871, 4750.525
410.9692, 4734.064
411.4513, 4708.287
411.9334, 4686.673
412.4155, 4686.509
412.8976, 4703.227
413.3798, 4723.300
413.8619, 4750.232
414.3440, 4772.087
414.8261, 4773.250
415.3082, 4753.500
415.7903, 4731.212
416.2725, 4715.964
416.7546, 4705.640
417.2367, 4697.865
417.7188, 4699.316
418.2009, 4695.225
418.6830, 4673.648
419.1652, 4639.471
419.6473, 4611.458
420.1294, 4599.329
420.6115, 4592.223
421.0937, 4585.913
421.5758, 4586.639
422.0579, 4573.608
422.5400, 4530.378
423.0221, 4474.629
423.5042, 4434.590
423.9864, 4425.050
424.4685, 4416.128
424.9506, 4401.774
425.4327, 4381.986
425.9148, 4359.659
426.3969, 4337.876
426.8791, 4310.082
427.3612, 4267.888
427.8433, 4203.395
428.3254, 4150.612
428.8075, 4118.557
429.2896, 4099.928
429.7718, 4070.052
430.2539, 4027.277
430.7360, 3982.005
431.2181, 3941.648
431.7002, 3905.601
432.1823, 3864.345
432.6645, 3816.594
433.1466, 3766.159
433.6287, 3717.794
434.1108, 3671.569
434.5929, 3627.679
435.0750, 3588.639
435.5572, 3551.370
436.0393, 3510.011
436.5214, 3464.726
437.0035, 3418.788
437.4856, 3376.659
437.9677, 3335.344
438.4499, 3289.646
438.9320, 3232.468
439.4141, 3180.458
439.8962, 3150.736
440.3783, 3136.099
440.8604, 3117.107
441.3426, 3077.646
441.8247, 3037.414
442.3068, 3008.559
442.7889, 2994.671
443.2710, 2981.229
443.7531, 2967.101
444.2353, 2950.427
444.7174, 2928.895
445.1995, 2886.703
445.6816, 2856.925
446.1637, 2851.485
446.6458, 2867.507
447.1280, 2873.790
447.6101, 2864.182
448.0922, 2851.583
448.5743, 2843.073
449.0564, 2840.096
449.5385, 2837.181
450.0207, 2834.091
450.5028, 2831.090
450.9849, 2828.165
451.4670, 2824.838
451.9491, 2824.126
452.4312, 2827.482
452.9134, 2834.598
453.3955, 2843.161
453.8776, 2853.114
454.3597, 2864.637
454.8418, 2879.396
455.3239, 2896.277
455.8061, 2909.492
456.2882, 2916.135
456.7703, 2921.322
457.2524, 2930.031
457.7345, 2942.866
458.2166, 2962.700
458.6988, 2995.106
459.1809, 3033.362
459.6630, 3070.097
460.1451, 3104.828
460.6272, 3138.746
461.1093, 3167.938
461.5915, 3198.042
462.0736, 3235.554
462.5557, 3291.239
463.0378, 3346.289
463.5199, 3386.300
464.0020, 3414.972
464.4842, 3462.053
464.9663, 3554.068
465.4484, 3650.617
465.9305, 3730.049
466.4126, 3777.672
466.8947, 3834.071
467.3769, 3899.730
467.8590, 3973.623
468.3411, 4056.403
468.8232, 4153.128
469.3053, 4247.777
469.7874, 4334.719
470.2696, 4414.818
470.7517, 4504.054
471.2338, 4602.621
471.7159, 4708.824
472.1980, 4823.828
472.6801, 4947.740
473.1623, 5063.183
473.6444, 5166.630
474.1265, 5264.468
474.6086, 5367.187
475.0907, 5474.189
475.5728, 5581.598
476.0550, 5688.231
476.5371, 5794.098
477.0192, 5896.159
477.5013, 5994.686
477.9834, 6095.591
478.4655, 6203.892
478.9477, 6317.634
479.4298, 6432.673
479.9119, 6547.438
480.3940, 6665.599
480.8761, 6788.567
481.3582, 6915.851
481.8404, 7044.626
482.3225, 7164.952
482.8046, 7293.929
483.2867, 7442.190
483.7688, 7615.808
484.2509, 7790.555
484.7331, 7954.182
485.2152, 8122.822
485.6973, 8316.605
486.1794, 8550.553
486.6615, 8785.594
487.1436, 9022.520
487.6258, 9257.809
488.1079, 9472.014
488.5900, 9656.088
489.0721, 9840.717
489.5542, 10054.24
490.0363, 10298.26
490.5185, 10491.58
491.0006, 10626.07
491.4827, 10724.55
491.9648, 10817.86
492.4470, 10901.55
492.9291, 10947.86
493.4112, 10940.34
493.8933, 10895.26
494.3754, 10841.52
494.8575, 10775.16
495.3397, 10674.59
495.8218, 10528.83
496.3039, 10337.69
496.7860, 10097.04
497.2681, 9793.816
497.7502, 9478.065
498.2324, 9174.678
498.7145, 8873.583
499.1966, 8555.146
499.6787, 8192.218
500.1608, 7836.061
500.6429, 7502.042
501.1251, 7189.752
501.6072, 6887.936
502.0893, 6597.540
502.5714, 6311.791
503.0535, 6024.468
503.5356, 5723.159
504.0178, 5452.743
504.4999, 5221.943
504.9820, 5016.546
505.4641, 4810.479
505.9462, 4601.921
506.4283, 4405.422
506.9105, 4226.594
507.3926, 4064.204
507.8747, 3914.675
508.3568, 3777.657
508.8389, 3650.823
509.3210, 3530.932
509.8032, 3417.842
510.2853, 3308.805
510.7674, 3202.582
511.2495, 3104.272
511.7316, 3022.616
512.2137, 2952.256
512.6959, 2883.569
513.1780, 2808.879
513.6601, 2736.684
514.1422, 2672.757
514.6243, 2616.550
515.1064, 2563.887
515.5886, 2510.773
516.0707, 2462.168
516.5528, 2422.874
517.0349, 2400.615
517.5170, 2371.972
517.9991, 2329.814
518.4813, 2282.208
518.9634, 2238.787
519.4455, 2197.128
519.9276, 2164.321
520.4097, 2145.098
520.8918, 2136.935
521.3740, 2120.993
521.8561, 2096.477
522.3382, 2066.815
522.8203, 2028.799
523.3024, 1984.028
523.7845, 1957.385
524.2667, 1953.042
524.7488, 1955.793
525.2309, 1948.066
525.7130, 1931.672
526.1951, 1912.900
526.6772, 1891.262
527.1594, 1870.606
527.6415, 1856.333
528.1236, 1847.516
528.6057, 1839.751
529.0878, 1833.153
529.5699, 1825.026
530.0521, 1813.319
530.5342, 1797.306
531.0163, 1779.384
531.4984, 1752.375
531.9805, 1727.062
532.4626, 1714.751
532.9448, 1736.239
533.4269, 1747.529
533.9090, 1738.841
534.3911, 1715.863
534.8732, 1701.735
535.3553, 1701.528
535.8375, 1700.346
536.3196, 1690.678
536.8017, 1671.796
537.2838, 1657.456
537.7659, 1648.024
538.2480, 1641.503
538.7302, 1635.269
539.2123, 1629.688
539.6944, 1628.828
540.1765, 1636.446
540.6586, 1643.871
541.1407, 1636.761
541.6229, 1618.450
542.1050, 1600.885
542.5871, 1591.094
543.0692, 1584.493
543.5513, 1576.328
544.0334, 1566.467
544.5156, 1560.091
544.9977, 1562.187
545.4798, 1567.303
545.9619, 1571.196
546.4440, 1572.918
546.9261, 1573.621
547.4083, 1573.989
547.8904, 1573.290
548.3725, 1570.024
548.8546, 1561.831
549.3367, 1554.902
549.8188, 1550.784
550.3010, 1549.322
550.7831, 1548.483
551.2652, 1547.859
551.7473, 1549.241
552.2294, 1557.754
552.7115, 1571.739
553.1937, 1572.185
553.6758, 1555.709
554.1579, 1533.498
554.6400, 1515.092
555.1221, 1501.707
555.6042, 1497.551
556.0864, 1511.158
556.5685, 1527.393
557.0506, 1529.951
557.5327, 1522.199
558.0148, 1516.579
558.4969, 1525.536
558.9791, 1533.678
559.4612, 1528.424
559.9433, 1504.057
560.4254, 1489.691
560.9075, 1502.553
561.3896, 1520.973
561.8718, 1525.486
562.3539, 1503.561
562.8360, 1489.190
563.3181, 1487.202
563.8002, 1493.249
564.2823, 1497.232
564.7645, 1498.835
565.2466, 1499.674
565.7287, 1500.585
566.2108, 1501.264
566.6929, 1499.127
567.1750, 1494.008
567.6572, 1490.249
568.1393, 1494.678
568.6214, 1502.609
569.1035, 1503.797
569.5856, 1495.479
570.0677, 1485.191
570.5499, 1477.389
571.0320, 1472.045
571.5141, 1469.038
571.9962, 1469.294
572.4783, 1470.909
572.9604, 1476.120
573.4426, 1483.154
573.9247, 1483.154
574.4068, 1463.914
574.8889, 1447.282
575.3710, 1442.759
575.8531, 1453.395
576.3353, 1459.851
576.8174, 1459.604
577.2995, 1458.831
577.7816, 1466.433
578.2637, 1484.205
578.7458, 1488.322
579.2280, 1470.941
579.7101, 1446.519
580.1922, 1442.278
580.6743, 1455.215
581.1564, 1468.376
581.6385, 1473.120
582.1207, 1474.087
582.6028, 1478.643
583.0849, 1485.852
583.5670, 1488.726
584.0491, 1480.456
584.5313, 1467.903
585.0134, 1454.517
585.4955, 1437.641
585.9776, 1430.544
586.4597, 1447.348
586.9418, 1471.260
587.4240, 1482.816
587.9061, 1472.258
588.3882, 1464.138
588.8703, 1463.197
589.3524, 1465.793
589.8345, 1459.801
590.3167, 1442.432
590.7988, 1427.124
591.2809, 1420.259
591.7630, 1420.445
592.2451, 1421.914
592.7272, 1424.742
593.2094, 1426.955
593.6915, 1427.419
594.1736, 1425.995
594.6557, 1420.911
595.1378, 1410.336
595.6199, 1403.202
596.1021, 1409.543
596.5842, 1422.717
597.0663, 1433.289
597.5485, 1440.401
598.0306, 1441.840
598.5127, 1432.059
598.9948, 1414.676
599.4769, 1405.329
599.9590, 1411.581
600.4412, 1417.688
600.9233, 1417.753
601.4054, 1411.125
601.8875, 1409.003
602.3696, 1412.307
602.8517, 1417.919
603.3339, 1424.157
603.8160, 1430.860
604.2981, 1434.128
604.7802, 1432.410
605.2623, 1431.050
605.7444, 1440.758
606.2266, 1456.671
606.7087, 1465.104
607.1908, 1455.071
607.6729, 1442.074
608.1550, 1436.534
608.6371, 1437.885
609.1193, 1444.093
609.6014, 1456.141
610.0835, 1471.380
610.5656, 1491.248
611.0477, 1517.735
611.5298, 1532.736
612.0120, 1528.599
612.4941, 1519.957
612.9762, 1516.025
613.4583, 1517.524
613.9404, 1521.510
614.4225, 1528.712
614.9047, 1536.891
615.3868, 1543.248
615.8689, 1547.856
616.3510, 1550.693
616.8331, 1550.643
617.3152, 1550.280
617.7974, 1554.485
618.2795, 1562.111
618.7616, 1568.898
619.2437, 1572.592
619.7258, 1574.460
620.2079, 1575.077
620.6901, 1574.497
621.1722, 1573.839
621.6543, 1573.866
622.1364, 1573.678
622.6185, 1573.005
623.1006, 1573.641
623.5828, 1569.553
624.0649, 1558.510
624.5470, 1544.791
625.0291, 1533.221
625.5112, 1523.921
625.9933, 1516.167
