##NAMES=Brewsterite-Ba
##RRUFFID=R070120
##IDEAL CHEMISTRY=Ba(Al_2_Si_6_)O_16_&#183;5H_2_O
##LOCALITY=Strontian, North West Highlands (Argyllshire), Scotland, UK
##OWNER=RRUFF
##SOURCE=Michael Scott
##DESCRIPTION=Colorless crystal fragment
##STATUS=The identification of this mineral has been confirmed only by single crystal X-ray diffraction.
##URL=rruff.info/R070120
160.8436, 3804.552
161.3257, 3806.112
161.8078, 3822.384
162.2899, 3878.113
162.7720, 3969.770
163.2542, 4035.764
163.7363, 4058.119
164.2184, 4065.179
164.7005, 4079.554
165.1826, 4102.474
165.6647, 4124.835
166.1469, 4138.738
166.6290, 4145.997
167.1111, 4156.296
167.5932, 4167.195
168.0753, 4183.576
168.5574, 4215.868
169.0396, 4265.519
169.5217, 4308.548
170.0038, 4324.331
170.4859, 4319.932
170.9680, 4315.166
171.4501, 4315.708
171.9323, 4315.764
172.4144, 4308.322
172.8965, 4292.798
173.3786, 4274.901
173.8607, 4254.117
174.3428, 4234.277
174.8250, 4223.552
175.3071, 4229.973
175.7892, 4241.896
176.2713, 4243.862
176.7534, 4234.086
177.2355, 4225.599
177.7177, 4230.239
178.1998, 4239.921
178.6819, 4243.060
179.1640, 4234.829
179.6461, 4220.863
180.1282, 4206.725
180.6104, 4191.538
181.0925, 4180.779
181.5746, 4178.096
182.0567, 4181.402
182.5388, 4190.884
183.0209, 4211.126
183.5031, 4230.901
183.9852, 4231.279
184.4673, 4206.903
184.9494, 4187.978
185.4315, 4192.123
185.9136, 4206.868
186.3958, 4223.282
186.8779, 4241.252
187.3600, 4254.918
187.8421, 4252.779
188.3242, 4230.302
188.8063, 4212.995
189.2885, 4216.329
189.7706, 4226.229
190.2527, 4231.505
190.7348, 4229.060
191.2169, 4222.536
191.6990, 4214.918
192.1812, 4204.816
192.6633, 4200.208
193.1454, 4206.436
193.6275, 4217.746
194.1096, 4231.597
194.5917, 4247.697
195.0739, 4263.302
195.5560, 4275.608
196.0381, 4284.737
196.5202, 4289.627
197.0023, 4280.840
197.4844, 4273.302
197.9665, 4279.698
198.4487, 4302.159
198.9308, 4326.695
199.4129, 4337.313
199.8950, 4332.542
200.3771, 4323.545
200.8592, 4303.288
201.3414, 4285.366
201.8235, 4277.253
202.3056, 4279.868
202.7877, 4289.292
203.2698, 4305.132
203.7519, 4329.373
204.2341, 4343.542
204.7162, 4333.133
205.1983, 4321.605
205.6804, 4323.394
206.1625, 4337.404
206.6446, 4349.772
207.1268, 4344.186
207.6089, 4318.616
208.0910, 4302.500
208.5731, 4307.927
209.0552, 4313.396
209.5373, 4308.850
210.0195, 4295.324
210.5016, 4279.392
210.9837, 4263.197
211.4658, 4246.634
211.9479, 4242.730
212.4300, 4261.156
212.9122, 4283.089
213.3943, 4307.929
213.8764, 4330.770
214.3585, 4340.566
214.8406, 4323.235
215.3227, 4283.274
215.8049, 4263.659
216.2870, 4275.306
216.7691, 4295.431
217.2512, 4319.835
217.7333, 4345.698
218.2154, 4369.260
218.6976, 4389.108
219.1797, 4404.546
219.6618, 4411.278
220.1439, 4399.349
220.6260, 4394.174
221.1081, 4405.209
221.5903, 4426.076
222.0724, 4449.572
222.5545, 4473.257
223.0366, 4495.233
223.5187, 4510.149
224.0008, 4514.518
224.4830, 4518.259
224.9651, 4523.507
225.4472, 4529.735
225.9293, 4536.170
226.4114, 4542.444
226.8935, 4549.476
227.3756, 4559.745
227.8578, 4575.342
228.3399, 4588.391
228.8220, 4593.616
229.3041, 4597.847
229.7862, 4608.521
230.2683, 4627.524
230.7505, 4645.795
231.2326, 4647.710
231.7147, 4626.995
232.1968, 4616.679
232.6789, 4630.590
233.1610, 4650.806
233.6432, 4669.236
234.1253, 4684.178
234.6074, 4695.342
235.0895, 4701.458
235.5716, 4702.009
236.0537, 4702.606
236.5359, 4700.971
237.0180, 4702.097
237.5001, 4710.961
237.9822, 4726.021
238.4643, 4739.723
238.9464, 4743.232
239.4286, 4737.201
239.9107, 4740.148
240.3928, 4765.935
240.8749, 4783.777
241.3570, 4771.945
241.8391, 4740.568
242.3213, 4715.083
242.8034, 4715.224
243.2855, 4733.928
243.7676, 4740.212
244.2497, 4725.034
244.7318, 4712.951
245.2140, 4718.442
245.6961, 4732.837
246.1782, 4743.933
246.6603, 4747.834
247.1424, 4743.469
247.6245, 4724.866
248.1067, 4684.798
248.5888, 4651.794
249.0709, 4639.177
249.5530, 4638.441
250.0351, 4644.045
250.5172, 4656.515
250.9994, 4668.243
251.4815, 4667.148
251.9636, 4651.146
252.4457, 4638.028
252.9278, 4636.316
253.4099, 4638.226
253.8921, 4637.071
254.3742, 4631.712
254.8563, 4626.093
255.3384, 4623.786
255.8205, 4624.637
256.3026, 4626.210
256.7848, 4630.103
257.2669, 4632.124
257.7490, 4627.088
258.2311, 4615.504
258.7132, 4606.166
259.1953, 4606.749
259.6775, 4614.241
260.1596, 4617.662
260.6417, 4614.652
261.1238, 4609.411
261.6059, 4603.167
262.0880, 4596.944
262.5702, 4595.170
263.0523, 4608.771
263.5344, 4625.067
264.0165, 4615.644
264.4986, 4572.657
264.9807, 4537.611
265.4629, 4550.452
265.9450, 4591.335
266.4271, 4618.908
266.9092, 4619.350
267.3913, 4608.783
267.8734, 4602.551
268.3556, 4600.403
268.8377, 4594.233
269.3198, 4576.378
269.8019, 4553.800
270.2840, 4541.790
270.7661, 4543.979
271.2483, 4550.264
271.7304, 4555.950
272.2125, 4561.139
272.6946, 4566.596
273.1767, 4573.453
273.6588, 4579.229
274.1409, 4578.657
274.6230, 4570.430
275.1052, 4563.829
275.5873, 4562.844
276.0694, 4564.977
276.5515, 4565.686
277.0336, 4563.697
277.5157, 4562.885
277.9979, 4569.028
278.4800, 4583.162
278.9621, 4593.414
279.4442, 4592.331
279.9263, 4591.158
280.4084, 4603.609
280.8906, 4628.813
281.3727, 4650.011
281.8548, 4652.548
282.3369, 4636.639
282.8190, 4626.026
283.3011, 4625.536
283.7833, 4624.915
284.2654, 4616.400
284.7475, 4603.690
285.2296, 4597.448
285.7117, 4604.341
286.1938, 4620.267
286.6760, 4629.333
287.1581, 4625.187
287.6402, 4622.585
288.1223, 4624.421
288.6044, 4628.634
289.0865, 4632.193
289.5687, 4634.118
290.0508, 4636.786
290.5329, 4645.120
291.0150, 4668.543
291.4971, 4678.137
291.9792, 4657.868
292.4614, 4636.448
292.9435, 4638.803
293.4256, 4664.417
293.9077, 4691.777
294.3898, 4697.951
294.8719, 4679.238
295.3541, 4666.803
295.8362, 4663.033
296.3183, 4662.681
296.8004, 4667.505
297.2825, 4674.257
297.7646, 4676.148
298.2468, 4667.667
298.7289, 4652.055
299.2110, 4646.523
299.6931, 4659.400
300.1752, 4671.503
300.6573, 4676.064
301.1395, 4679.547
301.6216, 4690.086
302.1037, 4710.825
302.5858, 4735.694
303.0679, 4754.449
303.5500, 4765.930
304.0322, 4774.776
304.5143, 4781.380
304.9964, 4785.772
305.4785, 4787.654
305.9606, 4787.071
306.4427, 4784.518
306.9249, 4780.176
307.4070, 4774.071
307.8891, 4766.180
308.3712, 4749.653
308.8533, 4740.899
309.3354, 4752.708
309.8176, 4778.081
310.2997, 4800.769
310.7818, 4814.166
311.2639, 4818.609
311.7460, 4810.222
312.2281, 4783.134
312.7103, 4765.631
313.1924, 4780.661
313.6745, 4810.843
314.1566, 4836.775
314.6387, 4856.696
315.1208, 4867.903
315.6030, 4863.529
316.0851, 4845.763
316.5672, 4831.851
317.0493, 4827.927
317.5314, 4829.214
318.0135, 4827.834
318.4957, 4822.896
318.9778, 4823.496
319.4599, 4838.603
319.9420, 4859.814
320.4241, 4874.346
320.9063, 4880.308
321.3884, 4878.620
321.8705, 4865.955
322.3526, 4842.835
322.8347, 4832.372
323.3168, 4844.971
323.7990, 4862.706
324.2811, 4872.360
324.7632, 4875.831
325.2453, 4884.392
325.7274, 4906.577
326.2095, 4936.929
326.6917, 4951.227
327.1738, 4933.255
327.6559, 4921.686
328.1380, 4922.905
328.6201, 4934.638
329.1022, 4957.889
329.5844, 4992.333
330.0665, 5027.947
330.5486, 5048.766
331.0307, 5047.318
331.5128, 5048.854
331.9949, 5057.772
332.4771, 5065.643
332.9592, 5065.220
333.4413, 5058.350
333.9234, 5053.287
334.4055, 5057.343
334.8876, 5070.014
335.3697, 5078.876
335.8518, 5078.573
336.3340, 5080.576
336.8161, 5093.671
337.2982, 5108.382
337.7803, 5096.080
338.2624, 5117.071
338.7445, 5131.042
339.2267, 5138.369
339.7088, 5119.150
340.1909, 5134.208
340.6730, 5135.530
341.1551, 5136.288
341.6372, 5156.171
342.1194, 5140.814
342.6015, 5160.394
343.0836, 5166.026
343.5657, 5178.042
344.0478, 5176.237
344.5299, 5178.700
345.0121, 5194.991
345.4942, 5203.625
345.9763, 5200.228
346.4584, 5212.650
346.9405, 5196.809
347.4226, 5205.769
347.9048, 5225.430
348.3869, 5222.729
348.8690, 5235.403
349.3511, 5242.222
349.8332, 5222.426
350.3153, 5259.793
350.7975, 5262.489
351.2796, 5264.901
351.7617, 5280.602
352.2438, 5301.895
352.7259, 5313.426
353.2080, 5311.085
353.6902, 5306.925
354.1723, 5315.209
354.6544, 5338.991
355.1365, 5355.755
355.6186, 5359.293
356.1007, 5361.248
356.5829, 5368.011
357.0650, 5379.483
357.5471, 5394.378
358.0292, 5412.502
358.5113, 5432.277
358.9934, 5446.317
359.4756, 5445.049
359.9577, 5449.703
360.4398, 5466.034
360.9219, 5487.028
361.4040, 5505.644
361.8861, 5520.074
362.3683, 5533.257
362.8504, 5550.283
363.3325, 5574.300
363.8146, 5588.904
364.2967, 5584.201
364.7788, 5579.250
365.2610, 5580.219
365.7431, 5586.851
366.2252, 5597.124
366.7073, 5610.320
367.1894, 5625.737
367.6715, 5640.224
368.1537, 5650.271
368.6358, 5668.450
369.1179, 5704.593
369.6000, 5747.548
370.0821, 5791.142
370.5642, 5835.004
371.0464, 5868.296
371.5285, 5874.617
372.0106, 5859.226
372.4927, 5852.598
372.9748, 5860.029
373.4569, 5876.429
373.9391, 5902.911
374.4212, 5936.251
374.9033, 5962.016
375.3854, 5972.510
375.8675, 5976.449
376.3496, 5978.554
376.8318, 5980.146
377.3139, 5989.900
377.7960, 6013.787
378.2781, 6047.943
378.7602, 6080.969
379.2423, 6121.791
379.7245, 6147.774
380.2066, 6142.490
380.6887, 6125.017
381.1708, 6118.301
381.6529, 6127.138
382.1350, 6141.282
382.6172, 6149.892
383.0993, 6153.232
383.5814, 6148.968
384.0635, 6128.179
384.5456, 6110.151
385.0277, 6106.785
385.5099, 6111.055
385.9920, 6108.839
386.4741, 6092.228
386.9562, 6066.738
387.4383, 6046.811
387.9204, 6035.334
388.4026, 6022.984
388.8847, 6008.688
389.3668, 5993.014
389.8489, 5972.991
390.3310, 5950.015
390.8131, 5932.876
391.2953, 5935.542
391.7774, 5952.976
392.2595, 5952.929
392.7416, 5927.021
393.2237, 5899.898
393.7058, 5885.502
394.1880, 5879.569
394.6701, 5877.089
395.1522, 5881.452
395.6343, 5881.761
396.1164, 5864.672
396.5985, 5833.952
397.0806, 5806.231
397.5627, 5785.468
398.0449, 5772.492
398.5270, 5773.163
399.0091, 5790.448
399.4912, 5796.827
399.9733, 5779.125
400.4554, 5755.219
400.9376, 5739.462
401.4197, 5732.373
401.9018, 5728.968
402.3839, 5726.144
402.8660, 5723.891
403.3481, 5722.319
403.8303, 5726.521
404.3124, 5724.990
404.7945, 5707.917
405.2766, 5689.000
405.7587, 5684.582
406.2408, 5697.390
406.7230, 5713.995
407.2051, 5717.538
407.6872, 5706.005
408.1693, 5696.390
408.6514, 5689.643
409.1335, 5683.998
409.6157, 5677.014
410.0978, 5670.939
410.5799, 5671.518
411.0620, 5684.932
411.5441, 5698.513
412.0262, 5684.460
412.5084, 5639.176
412.9905, 5616.218
413.4726, 5642.967
413.9547, 5686.991
414.4368, 5712.081
414.9189, 5717.934
415.4011, 5723.089
415.8832, 5743.358
416.3653, 5763.327
416.8474, 5754.332
417.3295, 5715.629
417.8116, 5685.558
418.2938, 5692.194
418.7759, 5727.706
419.2580, 5750.095
419.7401, 5759.473
420.2222, 5758.157
420.7043, 5734.839
421.1865, 5706.278
421.6686, 5694.837
422.1507, 5705.258
422.6328, 5724.107
423.1149, 5736.355
423.5970, 5742.205
424.0792, 5739.679
424.5613, 5720.338
425.0434, 5701.526
425.5255, 5685.289
426.0076, 5673.963
426.4897, 5673.106
426.9719, 5686.899
427.4540, 5702.602
427.9361, 5695.381
428.4182, 5660.886
428.9003, 5629.901
429.3824, 5606.228
429.8646, 5589.660
430.3467, 5583.485
430.8288, 5585.595
431.3109, 5583.831
431.7930, 5565.830
432.2751, 5543.551
432.7573, 5536.782
433.2394, 5545.791
433.7215, 5556.211
434.2036, 5562.440
434.6857, 5563.976
435.1678, 5559.084
435.6500, 5545.130
436.1321, 5531.689
436.6142, 5520.784
437.0963, 5511.826
437.5784, 5504.275
438.0605, 5498.048
438.5427, 5493.882
439.0248, 5492.993
439.5069, 5495.292
439.9890, 5493.322
440.4711, 5486.781
440.9532, 5476.027
441.4354, 5453.970
441.9175, 5430.896
442.3996, 5421.610
442.8817, 5429.785
443.3638, 5440.358
443.8459, 5431.502
444.3281, 5401.669
444.8102, 5381.342
445.2923, 5380.449
445.7744, 5378.041
446.2565, 5359.981
446.7386, 5332.462
447.2208, 5307.703
447.7029, 5286.833
448.1850, 5255.686
448.6671, 5269.166
449.1492, 5275.624
449.6313, 5275.437
450.1135, 5248.705
450.5956, 5256.250
451.0777, 5250.060
451.5598, 5243.305
452.0419, 5255.675
452.5240, 5232.804
453.0062, 5244.870
453.4883, 5257.428
453.9704, 5273.323
454.4525, 5276.286
454.9346, 5253.382
455.4167, 5218.728
455.8989, 5214.122
456.3810, 5266.137
456.8631, 5301.293
457.3452, 5312.430
457.8273, 5311.921
458.3094, 5301.927
458.7915, 5286.545
459.2737, 5274.789
459.7558, 5271.676
460.2379, 5277.804
460.7200, 5298.752
461.2021, 5340.368
461.6842, 5375.454
462.1664, 5392.891
462.6485, 5398.715
463.1306, 5397.095
463.6127, 5386.787
464.0948, 5380.793
464.5769, 5386.528
465.0591, 5400.151
465.5412, 5417.787
466.0233, 5438.779
466.5054, 5457.616
466.9875, 5469.838
467.4696, 5476.672
467.9518, 5486.047
468.4339, 5494.647
468.9160, 5509.667
469.3981, 5533.685
469.8802, 5563.945
470.3623, 5602.872
470.8445, 5647.974
471.3266, 5685.439
471.8087, 5696.997
472.2908, 5683.554
472.7729, 5692.971
473.2550, 5741.706
473.7372, 5789.689
474.2193, 5830.985
474.7014, 5862.225
475.1835, 5875.972
475.6656, 5869.314
476.1477, 5859.700
476.6299, 5861.857
477.1120, 5873.843
477.5941, 5888.814
478.0762, 5906.192
478.5583, 5925.656
479.0404, 5950.484
479.5226, 5977.670
480.0047, 5992.292
480.4868, 5977.741
480.9689, 5969.083
481.4510, 5989.133
481.9331, 6020.984
482.4153, 6035.477
482.8974, 6026.212
483.3795, 6015.950
483.8616, 6033.599
484.3437, 6084.210
484.8258, 6116.347
485.3080, 6107.226
485.7901, 6104.062
486.2722, 6119.964
486.7543, 6147.506
487.2364, 6179.333
487.7185, 6213.171
488.2007, 6241.368
488.6828, 6250.196
489.1649, 6241.818
489.6470, 6243.317
490.1291, 6258.652
490.6112, 6281.740
491.0934, 6318.624
491.5755, 6359.943
492.0576, 6380.163
492.5397, 6356.832
493.0218, 6335.547
493.5039, 6347.251
493.9861, 6378.448
494.4682, 6408.508
494.9503, 6431.833
495.4324, 6436.689
495.9145, 6406.426
496.3966, 6335.701
496.8788, 6280.460
497.3609, 6257.623
497.8430, 6230.071
498.3251, 6190.815
498.8072, 6139.756
499.2893, 6073.460
499.7715, 5991.705
500.2536, 5907.711
500.7357, 5838.819
501.2178, 5784.636
501.6999, 5726.053
502.1820, 5653.964
502.6642, 5592.535
503.1463, 5567.176
503.6284, 5560.704
504.1105, 5543.978
504.5926, 5511.743
505.0747, 5468.744
505.5569, 5403.164
506.0390, 5332.129
506.5211, 5294.591
507.0032, 5298.390
507.4853, 5306.326
507.9674, 5280.296
508.4496, 5219.982
508.9317, 5179.230
509.4138, 5176.187
509.8959, 5169.373
510.3780, 5147.067
510.8601, 5118.112
511.3423, 5091.203
511.8244, 5068.804
512.3065, 5050.580
512.7886, 5038.727
513.2707, 5032.226
513.7528, 5016.437
514.2349, 4984.253
514.7170, 4959.607
515.1992, 4962.883
515.6813, 4977.750
516.1634, 4981.613
516.6455, 4968.596
517.1276, 4957.220
517.6097, 4964.052
518.0919, 4975.363
518.5740, 4967.315
519.0561, 4938.618
519.5382, 4910.160
520.0203, 4897.446
520.5024, 4897.500
520.9846, 4893.349
521.4667, 4873.801
521.9488, 4864.844
522.4309, 4881.106
522.9130, 4898.958
523.3951, 4897.731
523.8773, 4877.779
524.3594, 4853.693
524.8415, 4832.694
525.3236, 4817.914
525.8057, 4822.554
526.2878, 4850.583
526.7700, 4877.527
527.2521, 4897.632
527.7342, 4910.314
528.2163, 4914.869
528.6984, 4910.978
529.1805, 4904.976
529.6627, 4897.901
530.1448, 4890.255
530.6269, 4879.423
531.1090, 4867.903
531.5911, 4866.303
532.0732, 4880.905
532.5554, 4900.930
533.0375, 4902.770
533.5196, 4872.830
534.0017, 4855.701
534.4838, 4862.139
534.9659, 4869.689
535.4481, 4865.683
535.9302, 4855.269
536.4123, 4851.149
536.8944, 4860.558
537.3765, 4873.279
537.8586, 4872.953
538.3408, 4861.338
538.8229, 4859.364
539.3050, 4874.362
539.7871, 4891.037
540.2692, 4895.786
540.7513, 4889.591
541.2335, 4882.473
541.7156, 4874.216
542.1977, 4865.885
542.6798, 4855.585
543.1619, 4846.385
543.6440, 4844.780
544.1262, 4851.275
544.6083, 4857.300
545.0904, 4853.082
545.5725, 4838.958
546.0546, 4829.032
546.5367, 4821.770
547.0189, 4821.630
547.5010, 4836.085
547.9831, 4853.898
548.4652, 4864.096
548.9473, 4865.029
549.4294, 4863.044
549.9116, 4857.211
550.3937, 4853.061
550.8758, 4862.809
551.3579, 4886.090
551.8400, 4909.605
552.3221, 4928.541
552.8043, 4939.879
553.2864, 4935.726
553.7685, 4901.801
554.2506, 4879.767
554.7327, 4869.320
555.2148, 4871.189
555.6970, 4894.762
556.1791, 4930.279
556.6612, 4956.322
557.1433, 4961.186
557.6254, 4956.785
558.1075, 4968.337
558.5897, 4997.798
559.0718, 5002.803
559.5539, 4965.439
560.0360, 4922.358
560.5181, 4902.456
561.0002, 4899.092
561.4824, 4895.805
561.9645, 4889.544
562.4466, 4883.642
562.9287, 4877.942
563.4108, 4874.373
563.8929, 4877.806
564.3751, 4888.313
564.8572, 4898.956
565.3393, 4903.593
565.8214, 4902.445
566.3035, 4897.183
566.7856, 4881.320
567.2678, 4872.234
567.7499, 4878.860
568.2320, 4888.464
568.7141, 4894.309
569.1962, 4894.248
569.6783, 4883.134
570.1605, 4841.617
570.6426, 4795.953
571.1247, 4796.092
571.6068, 4835.900
572.0889, 4856.902
572.5710, 4833.468
573.0532, 4793.056
573.5353, 4776.599
574.0174, 4792.943
574.4995, 4797.232
574.9816, 4770.922
575.4637, 4753.202
575.9459, 4772.403
576.4280, 4806.196
576.9101, 4816.735
577.3922, 4792.695
577.8743, 4764.025
578.3564, 4770.563
578.8386, 4807.368
579.3207, 4826.080
579.8028, 4820.398
580.2849, 4812.465
580.7670, 4816.004
581.2491, 4823.508
581.7313, 4818.466
582.2134, 4794.774
582.6955, 4777.884
583.1776, 4777.996
583.6597, 4785.648
584.1418, 4797.647
584.6240, 4809.846
585.1061, 4811.691
585.5882, 4796.953
586.0703, 4772.688
586.5524, 4751.568
587.0345, 4730.430
587.5167, 4726.075
587.9988, 4751.177
588.4809, 4780.184
588.9630, 4803.588
589.4451, 4820.515
589.9272, 4829.172
590.4094, 4827.683
590.8915, 4821.222
591.3736, 4814.588
591.8557, 4804.989
592.3378, 4783.512
592.8199, 4750.200
593.3021, 4721.019
593.7842, 4708.780
594.2663, 4709.845
594.7484, 4706.905
595.2305, 4694.416
595.7126, 4687.236
596.1948, 4691.118
596.6769, 4695.897
597.1590, 4693.987
597.6411, 4687.062
598.1232, 4682.143
598.6053, 4683.219
599.0875, 4686.902
599.5696, 4690.907
600.0517, 4694.281
600.5338, 4690.515
601.0159, 4676.783
601.4980, 4664.458
601.9802, 4665.023
602.4623, 4677.874
602.9444, 4686.589
603.4265, 4691.152
603.9086, 4692.106
604.3907, 4686.802
604.8729, 4679.790
605.3550, 4674.088
605.8371, 4663.057
606.3192, 4677.630
606.8013, 4685.182
607.2834, 4686.088
607.7656, 4660.450
608.2477, 4669.089
608.7298, 4663.992
609.2119, 4658.331
609.6940, 4671.795
610.1761, 4650.018
610.6583, 4663.178
611.1404, 4662.393
611.6224, 4667.990
612.1046, 4659.766
612.5867, 4655.811
613.0688, 4665.681
613.5509, 4667.896
614.0330, 4658.081
614.5151, 4664.084
614.9973, 4639.459
615.4794, 4648.004
615.9615, 4646.675
616.4436, 4632.794
616.9257, 4623.694
617.4078, 4629.290
617.8900, 4636.542
618.3721, 4625.500
618.8542, 4597.861
619.3363, 4585.735
619.8184, 4608.589
620.3005, 4633.308
620.7827, 4644.492
621.2648, 4644.800
621.7469, 4636.152
622.2290, 4620.529
622.7111, 4605.753
623.1932, 4599.393
623.6754, 4600.962
624.1575, 4607.786
624.6396, 4621.996
625.1217, 4635.500
625.6038, 4650.052
626.0859, 4659.091
626.5681, 4651.992
627.0502, 4629.834
627.5323, 4617.196
628.0144, 4634.886
628.4965, 4650.062
628.9786, 4631.003
629.4608, 4596.187
629.9429, 4583.592
630.4250, 4602.239
630.9071, 4628.163
631.3892, 4636.298
631.8713, 4627.868
632.3535, 4615.019
632.8356, 4591.951
633.3177, 4578.474
633.7998, 4592.137
634.2819, 4608.938
634.7640, 4600.757
635.2462, 4569.606
635.7283, 4556.457
636.2104, 4600.745
636.6925, 4642.335
637.1746, 4625.412
637.6567, 4575.801
638.1389, 4546.891
638.6210, 4552.749
639.1031, 4571.076
639.5852, 4579.753
640.0673, 4579.280
640.5494, 4574.911
641.0316, 4562.172
641.5137, 4555.693
641.9958, 4569.285
642.4779, 4582.946
642.9600, 4577.612
643.4421, 4554.894
643.9243, 4534.847
644.4064, 4523.559
644.8885, 4517.611
645.3706, 4514.888
645.8527, 4515.717
646.3348, 4522.768
646.8170, 4535.871
647.2991, 4547.886
647.7812, 4551.565
648.2633, 4548.033
648.7454, 4546.941
649.2275, 4552.875
649.7097, 4549.415
650.1918, 4522.866
650.6739, 4494.202
651.1560, 4480.417
651.6381, 4479.632
652.1202, 4479.385
652.6024, 4477.433
653.0845, 4473.606
653.5666, 4463.125
654.0487, 4452.455
654.5308, 4454.984
655.0129, 4471.352
655.4951, 4486.887
655.9772, 4489.075
656.4593, 4480.898
656.9414, 4474.026
657.4235, 4467.219
657.9056, 4466.372
658.3878, 4480.037
