##NAMES=Brewsterite-Ba
##RRUFFID=R070120
##IDEAL CHEMISTRY=Ba(Al_2_Si_6_)O_16_&#183;5H_2_O
##LOCALITY=Strontian, North West Highlands (Argyllshire), Scotland, UK
##OWNER=RRUFF
##SOURCE=Michael Scott
##DESCRIPTION=Colorless crystal fragment
##STATUS=The identification of this mineral has been confirmed only by single crystal X-ray diffraction.
##URL=rruff.info/R070120
152.1101, 8177.412
152.5922, 8229.340
153.0744, 8283.524
153.5565, 8340.106
154.0386, 8409.076
154.5207, 8469.884
155.0028, 8519.672
155.4849, 8558.352
155.9671, 8585.037
156.4492, 8591.459
156.9313, 8588.922
157.4134, 8588.404
157.8955, 8584.271
158.3777, 8589.550
158.8598, 8612.026
159.3419, 8655.520
159.8240, 8698.455
160.3061, 8735.378
160.7882, 8767.452
161.2704, 8796.357
161.7525, 8813.377
162.2346, 8833.927
162.7167, 8868.810
163.1988, 8925.639
163.6809, 8980.184
164.1631, 9015.867
164.6452, 9040.680
165.1273, 9072.475
165.6094, 9123.029
166.0915, 9181.886
166.5736, 9243.043
167.0558, 9313.458
167.5379, 9372.178
168.0200, 9394.962
168.5021, 9390.525
168.9842, 9390.680
169.4663, 9412.971
169.9485, 9450.438
170.4306, 9496.688
170.9127, 9559.275
171.3948, 9619.687
171.8769, 9661.596
172.3590, 9685.953
172.8412, 9698.189
173.3233, 9695.437
173.8054, 9683.933
174.2875, 9673.483
174.7696, 9659.849
175.2517, 9653.336
175.7339, 9675.961
176.2160, 9728.270
176.6981, 9773.443
177.1802, 9775.182
177.6623, 9744.407
178.1444, 9708.935
178.6266, 9680.638
179.1087, 9654.636
179.5908, 9621.223
180.0729, 9579.563
180.5550, 9536.899
181.0371, 9500.374
181.5193, 9469.507
182.0014, 9443.867
182.4835, 9426.123
182.9656, 9413.299
183.4477, 9396.740
183.9298, 9375.326
184.4120, 9352.500
184.8941, 9333.680
185.3762, 9318.220
185.8583, 9301.969
186.3404, 9282.223
186.8225, 9259.641
187.3047, 9236.077
187.7868, 9211.858
188.2689, 9186.758
188.7510, 9158.153
189.2331, 9126.201
189.7152, 9098.394
190.1974, 9083.784
190.6795, 9080.354
191.1616, 9070.186
191.6437, 9048.791
192.1258, 9021.273
192.6080, 8999.598
193.0901, 8983.557
193.5722, 8972.183
194.0543, 8964.675
194.5364, 8961.047
195.0185, 8962.040
195.5007, 8968.610
195.9828, 8979.641
196.4649, 8992.018
196.9470, 9006.557
197.4291, 9019.513
197.9112, 9028.637
198.3934, 9034.095
198.8755, 9031.992
199.3576, 9016.172
199.8397, 8991.375
200.3218, 8989.330
200.8039, 9015.529
201.2861, 9049.073
201.7682, 9068.223
202.2503, 9070.898
202.7324, 9072.409
203.2145, 9076.704
203.6966, 9083.565
204.1788, 9085.698
204.6609, 9077.456
205.1430, 9075.358
205.6251, 9107.646
206.1072, 9186.948
206.5893, 9247.691
207.0715, 9262.155
207.5536, 9227.586
208.0357, 9219.413
208.5178, 9244.136
208.9999, 9286.479
209.4820, 9327.200
209.9642, 9366.824
210.4463, 9403.126
210.9284, 9434.416
211.4105, 9459.393
211.8926, 9486.696
212.3747, 9515.990
212.8569, 9547.951
213.3390, 9585.689
213.8211, 9632.082
214.3032, 9676.066
214.7853, 9710.566
215.2674, 9729.604
215.7496, 9764.700
216.2317, 9819.896
216.7138, 9888.723
217.1959, 9959.952
217.6780, 10037.37
218.1601, 10110.66
218.6423, 10175.15
219.1244, 10231.11
219.6065, 10276.68
220.0886, 10300.98
220.5707, 10320.08
221.0528, 10376.63
221.5350, 10491.83
222.0171, 10608.10
222.4992, 10699.23
222.9813, 10752.96
223.4634, 10811.56
223.9455, 10877.06
224.4277, 10947.76
224.9098, 11014.43
225.3919, 11074.54
225.8740, 11136.28
226.3561, 11206.10
226.8382, 11291.03
227.3204, 11364.76
227.8025, 11416.95
228.2846, 11457.30
228.7667, 11524.81
229.2488, 11637.92
229.7310, 11749.59
230.2131, 11834.96
230.6952, 11883.27
231.1773, 11927.19
231.6594, 11969.81
232.1415, 12009.62
232.6237, 12038.80
233.1058, 12046.28
233.5879, 12057.80
234.0700, 12085.22
234.5521, 12117.54
235.0342, 12193.80
235.5164, 12354.53
235.9985, 12570.67
236.4806, 12671.13
236.9627, 12598.42
237.4448, 12483.44
237.9269, 12405.05
238.4091, 12383.52
238.8912, 12358.76
239.3733, 12322.55
239.8554, 12277.69
240.3375, 12242.00
240.8196, 12209.66
241.3018, 12193.66
241.7839, 12208.49
242.2660, 12286.52
242.7481, 12328.57
243.2302, 12321.45
243.7123, 12268.48
244.1945, 12191.84
244.6766, 12074.60
245.1587, 11954.20
245.6408, 11853.33
246.1229, 11768.96
246.6050, 11711.45
247.0872, 11688.24
247.5693, 11695.75
248.0514, 11708.51
248.5335, 11752.77
249.0156, 11770.06
249.4977, 11706.04
249.9799, 11504.83
250.4620, 11347.97
250.9441, 11267.39
251.4262, 11255.20
251.9083, 11238.26
252.3904, 11214.98
252.8726, 11189.23
253.3547, 11165.29
253.8368, 11147.57
254.3189, 11120.53
254.8010, 11078.95
255.2831, 11024.72
255.7653, 10974.96
256.2474, 10928.44
256.7295, 10888.71
257.2116, 10860.57
257.6937, 10849.53
258.1758, 10836.24
258.6580, 10819.51
259.1401, 10798.88
259.6222, 10768.86
260.1043, 10724.04
260.5864, 10678.63
261.0685, 10645.73
261.5507, 10631.30
262.0328, 10610.96
262.5149, 10576.46
262.9970, 10531.71
263.4791, 10509.13
263.9612, 10520.80
264.4434, 10532.88
264.9255, 10515.14
265.4076, 10455.29
265.8897, 10409.64
266.3718, 10389.88
266.8539, 10390.95
267.3361, 10382.93
267.8182, 10364.86
268.3003, 10339.87
268.7824, 10304.84
269.2645, 10252.84
269.7466, 10223.94
270.2288, 10234.71
270.7109, 10271.51
271.1930, 10262.61
271.6751, 10191.46
272.1572, 10117.71
272.6393, 10091.35
273.1215, 10121.79
273.6036, 10139.65
274.0857, 10132.36
274.5678, 10106.84
275.0499, 10088.89
275.5320, 10079.95
276.0142, 10072.96
276.4963, 10063.28
276.9784, 10050.81
277.4605, 10034.87
277.9426, 10011.68
278.4247, 9987.374
278.9069, 9985.954
279.3890, 10013.19
279.8711, 10034.80
280.3532, 10020.81
280.8354, 9970.501
281.3175, 9929.534
281.7996, 9905.624
282.2817, 9892.706
282.7638, 9875.307
283.2459, 9852.526
283.7281, 9833.931
284.2102, 9829.362
284.6923, 9837.565
285.1744, 9838.347
285.6565, 9826.236
286.1386, 9810.367
286.6208, 9810.749
287.1029, 9827.790
287.5850, 9847.829
288.0671, 9867.071
288.5492, 9883.776
289.0313, 9887.411
289.5135, 9876.221
289.9956, 9852.615
290.4777, 9812.794
290.9598, 9758.388
291.4419, 9713.501
291.9240, 9696.768
292.4062, 9701.889
292.8883, 9707.289
293.3704, 9711.367
293.8525, 9714.460
294.3346, 9719.681
294.8167, 9725.732
295.2989, 9725.057
295.7810, 9711.644
296.2631, 9688.610
296.7452, 9659.772
297.2273, 9623.404
297.7094, 9590.839
298.1916, 9574.359
298.6737, 9572.508
299.1558, 9579.487
299.6379, 9606.778
300.1200, 9636.897
300.6021, 9636.667
301.0843, 9600.364
301.5664, 9558.622
302.0485, 9539.302
302.5306, 9537.350
303.0127, 9541.064
303.4948, 9549.570
303.9770, 9558.604
304.4591, 9565.176
304.9412, 9569.449
305.4233, 9566.041
305.9054, 9541.981
306.3875, 9508.274
306.8697, 9483.273
307.3518, 9476.124
307.8339, 9480.374
308.3160, 9492.991
308.7981, 9513.761
309.2802, 9536.975
309.7624, 9566.703
310.2445, 9594.121
310.7266, 9607.814
311.2087, 9590.711
311.6908, 9569.021
312.1729, 9562.777
312.6551, 9570.261
313.1372, 9569.479
313.6193, 9527.455
314.1014, 9480.920
314.5835, 9464.655
315.0656, 9519.122
315.5478, 9577.350
316.0299, 9616.997
316.5120, 9638.185
316.9941, 9641.669
317.4762, 9602.981
317.9583, 9560.996
318.4405, 9543.511
318.9226, 9578.602
319.4047, 9612.900
319.8868, 9629.336
320.3689, 9632.593
320.8510, 9639.957
321.3332, 9664.455
321.8153, 9688.046
322.2974, 9700.296
322.7795, 9685.528
323.2616, 9681.064
323.7437, 9699.788
324.2259, 9733.101
324.7080, 9758.663
325.1901, 9771.779
325.6722, 9778.533
326.1543, 9779.636
326.6364, 9765.739
327.1186, 9764.619
327.6007, 9787.110
328.0828, 9820.739
328.5649, 9842.946
329.0470, 9837.818
329.5291, 9838.696
330.0113, 9858.311
330.4934, 9906.073
330.9755, 9938.414
331.4576, 9948.978
331.9397, 9947.833
332.4218, 9947.682
332.9040, 9946.272
333.3861, 9949.880
333.8682, 9961.038
334.3503, 9980.458
334.8324, 9999.345
335.3145, 10018.90
335.7967, 10036.63
336.2788, 10048.29
336.7609, 10050.64
337.2430, 10058.33
337.7251, 10077.61
338.2072, 10106.08
338.6894, 10117.91
339.1715, 10106.67
339.6536, 10096.47
340.1357, 10110.23
340.6178, 10150.39
341.0999, 10191.51
341.5821, 10233.60
342.0642, 10271.43
342.5463, 10285.77
343.0284, 10273.31
343.5105, 10264.00
343.9926, 10283.22
344.4748, 10327.52
344.9569, 10369.14
345.4390, 10405.52
345.9211, 10435.46
346.4032, 10451.63
346.8853, 10455.47
347.3675, 10464.58
347.8496, 10490.96
348.3317, 10530.42
348.8138, 10574.61
349.2959, 10624.51
349.7780, 10671.62
350.2602, 10703.16
350.7423, 10723.40
351.2244, 10747.44
351.7065, 10790.27
352.1887, 10838.39
352.6708, 10866.20
353.1529, 10871.11
353.6350, 10883.24
354.1171, 10939.91
354.5992, 11019.67
355.0814, 11085.14
355.5635, 11105.47
356.0456, 11116.74
356.5277, 11147.97
357.0098, 11198.47
357.4919, 11253.10
357.9741, 11308.35
358.4562, 11361.34
358.9383, 11409.31
359.4204, 11437.90
359.9025, 11475.47
360.3846, 11541.31
360.8668, 11629.41
361.3489, 11715.18
361.8310, 11781.75
362.3131, 11846.90
362.7952, 11922.05
363.2773, 12012.22
363.7595, 12105.97
364.2416, 12209.10
364.7237, 12314.04
365.2058, 12404.05
365.6879, 12447.93
366.1700, 12499.54
366.6522, 12582.06
367.1343, 12713.54
367.6164, 12832.37
368.0985, 12932.21
368.5806, 13020.34
369.0627, 13105.02
369.5449, 13163.48
370.0270, 13247.63
370.5091, 13380.56
370.9912, 13569.47
371.4733, 13727.06
371.9554, 13840.37
372.4376, 13933.91
372.9197, 14026.79
373.4018, 14112.54
373.8839, 14214.68
374.3660, 14349.68
374.8481, 14505.24
375.3303, 14611.28
375.8124, 14650.26
376.2945, 14685.95
376.7766, 14772.12
377.2587, 14915.34
377.7408, 15030.78
378.2230, 15108.58
378.7051, 15157.84
379.1872, 15193.36
379.6693, 15214.02
380.1514, 15237.98
380.6335, 15285.58
381.1157, 15348.73
381.5978, 15378.48
382.0799, 15368.71
382.5620, 15341.94
383.0441, 15321.95
383.5262, 15308.04
384.0084, 15298.11
384.4905, 15309.32
384.9726, 15317.66
385.4547, 15271.15
385.9368, 15169.83
386.4189, 15066.02
386.9011, 15011.16
387.3832, 14981.00
387.8653, 14935.70
388.3474, 14849.50
388.8295, 14758.30
389.3116, 14692.88
389.7938, 14650.19
390.2759, 14613.50
390.7580, 14588.72
391.2401, 14557.53
391.7222, 14500.01
392.2043, 14394.59
392.6865, 14300.74
393.1686, 14243.93
393.6507, 14216.27
394.1328, 14199.65
394.6149, 14213.21
395.0970, 14216.05
395.5792, 14181.80
396.0613, 14093.94
396.5434, 14032.67
397.0255, 14034.90
397.5076, 14059.68
397.9897, 14061.80
398.4719, 14010.34
398.9540, 13966.37
399.4361, 13941.26
399.9182, 13934.76
400.4003, 13926.29
400.8824, 13906.92
401.3646, 13894.62
401.8467, 13904.27
402.3288, 13949.53
402.8109, 13983.21
403.2930, 14000.48
403.7751, 14004.36
404.2573, 14001.05
404.7394, 13986.72
405.2215, 13976.63
405.7036, 13978.27
406.1857, 13991.84
406.6678, 14010.93
407.1500, 14033.95
407.6321, 14066.10
408.1142, 14125.21
408.5963, 14209.38
409.0784, 14275.61
409.5605, 14306.26
410.0427, 14307.42
410.5248, 14288.11
411.0069, 14247.54
411.4890, 14215.35
411.9711, 14221.21
412.4532, 14255.87
412.9354, 14301.43
413.4175, 14363.89
413.8996, 14417.66
414.3817, 14426.18
414.8638, 14398.14
415.3459, 14367.41
415.8281, 14343.97
416.3102, 14333.03
416.7923, 14346.73
417.2744, 14395.30
417.7565, 14433.00
418.2386, 14427.74
418.7208, 14395.76
419.2029, 14361.98
419.6850, 14328.62
420.1671, 14300.82
420.6492, 14283.99
421.1313, 14278.90
421.6135, 14267.81
422.0956, 14246.18
422.5777, 14217.30
423.0598, 14183.32
423.5420, 14132.13
424.0241, 14090.95
424.5062, 14070.52
424.9883, 14063.27
425.4704, 14039.60
425.9525, 13991.96
426.4347, 13936.40
426.9168, 13874.95
427.3989, 13794.32
427.8810, 13752.21
428.3631, 13765.98
428.8452, 13800.33
429.3274, 13801.35
429.8095, 13762.88
430.2916, 13717.60
430.7737, 13675.49
431.2558, 13635.18
431.7379, 13582.78
432.2201, 13515.93
432.7022, 13451.17
433.1843, 13408.99
433.6664, 13384.98
434.1485, 13348.97
434.6306, 13293.17
435.1128, 13226.42
435.5949, 13161.63
436.0770, 13098.47
436.5591, 13032.86
437.0412, 12952.43
437.5233, 12873.17
438.0055, 12824.89
438.4876, 12814.26
438.9697, 12800.35
439.4518, 12739.44
439.9339, 12657.03
440.4160, 12591.29
440.8982, 12572.65
441.3803, 12561.11
441.8624, 12535.98
442.3445, 12498.15
442.8266, 12457.99
443.3087, 12412.86
443.7909, 12370.67
444.2730, 12337.41
444.7551, 12318.76
445.2372, 12301.15
445.7193, 12284.42
446.2014, 12267.26
446.6836, 12246.63
447.1657, 12209.55
447.6478, 12183.71
448.1299, 12180.91
448.6120, 12206.19
449.0941, 12218.68
449.5763, 12214.31
450.0584, 12201.94
450.5405, 12189.36
451.0226, 12176.06
451.5047, 12162.65
451.9868, 12144.04
452.4690, 12127.80
452.9511, 12146.19
453.4332, 12203.13
453.9153, 12259.45
454.3974, 12283.53
454.8795, 12282.85
455.3617, 12299.14
455.8438, 12337.18
456.3259, 12383.92
456.8080, 12423.12
457.2901, 12457.63
457.7722, 12499.24
458.2544, 12562.02
458.7365, 12628.54
459.2186, 12669.31
459.7007, 12688.22
460.1828, 12718.35
460.6649, 12786.80
461.1471, 12874.77
461.6292, 12963.91
462.1113, 13052.08
462.5934, 13139.16
463.0755, 13227.80
463.5576, 13315.61
464.0398, 13395.98
464.5219, 13446.56
465.0040, 13508.02
465.4861, 13597.80
465.9682, 13720.72
466.4503, 13847.30
466.9325, 13988.80
467.4146, 14126.32
467.8967, 14243.22
468.3788, 14314.40
468.8609, 14410.21
469.3430, 14545.16
469.8252, 14708.46
470.3073, 14863.59
470.7894, 15010.26
471.2715, 15149.52
471.7536, 15280.21
472.2357, 15402.00
472.7179, 15523.24
473.2000, 15643.24
473.6821, 15764.96
474.1642, 15893.55
474.6463, 16028.05
475.1284, 16162.99
475.6106, 16305.32
476.0927, 16440.06
476.5748, 16527.58
477.0569, 16574.63
477.5390, 16626.11
478.0211, 16732.09
478.5033, 16852.27
478.9854, 16928.58
479.4675, 16939.83
479.9496, 16955.19
480.4317, 17029.62
480.9138, 17135.09
481.3960, 17229.95
481.8781, 17266.47
482.3602, 17320.45
482.8423, 17436.39
483.3244, 17611.30
483.8065, 17765.06
484.2887, 17855.39
484.7708, 17939.18
485.2529, 18050.59
485.7350, 18210.88
486.2171, 18366.07
486.6992, 18516.83
487.1814, 18661.85
487.6635, 18800.99
488.1456, 18932.80
488.6277, 19062.97
489.1098, 19190.90
489.5919, 19318.28
490.0741, 19464.96
490.5562, 19643.27
491.0383, 19795.45
491.5204, 19853.84
492.0026, 19829.15
492.4847, 19819.13
492.9668, 19849.94
493.4489, 19875.97
493.9310, 19829.20
494.4131, 19718.54
494.8953, 19577.83
495.3774, 19432.62
495.8595, 19262.70
496.3416, 19042.60
496.8237, 18769.62
497.3058, 18480.97
497.7880, 18195.43
498.2701, 17905.97
498.7522, 17600.19
499.2343, 17268.51
499.7164, 16934.48
500.1985, 16584.10
500.6807, 16236.52
501.1628, 15927.50
501.6449, 15703.13
502.1270, 15477.00
502.6091, 15215.52
503.0912, 14907.77
503.5734, 14621.95
504.0555, 14358.29
504.5376, 14117.35
505.0197, 13894.74
505.5018, 13692.86
505.9839, 13505.58
506.4661, 13332.40
506.9482, 13173.12
507.4303, 13035.34
507.9124, 12920.45
508.3945, 12808.89
508.8766, 12687.34
509.3588, 12561.40
509.8409, 12454.86
510.3230, 12368.57
510.8051, 12293.72
511.2872, 12224.57
511.7693, 12161.39
512.2515, 12108.74
512.7336, 12079.38
513.2157, 12039.94
513.6978, 11937.36
514.1799, 11801.30
514.6620, 11705.90
515.1442, 11728.80
515.6263, 11765.46
516.1084, 11757.23
516.5905, 11695.51
517.0726, 11630.40
517.5547, 11564.78
518.0369, 11505.27
518.5190, 11457.75
519.0011, 11427.11
519.4832, 11401.16
519.9653, 11380.92
520.4474, 11364.61
520.9296, 11343.03
521.4117, 11304.27
521.8938, 11306.52
522.3759, 11318.43
522.8580, 11317.32
523.3401, 11304.08
523.8223, 11231.42
524.3044, 11243.87
524.7865, 11227.33
525.2686, 11213.11
525.7507, 11248.00
526.2328, 11202.80
526.7150, 11188.23
527.1971, 11160.46
527.6792, 11116.06
528.1613, 11088.94
528.6434, 11112.73
529.1255, 11147.79
529.6077, 11159.49
530.0898, 11147.56
530.5719, 11139.93
531.0540, 11164.64
531.5361, 11189.46
532.0182, 11188.11
532.5004, 11126.85
532.9825, 11085.83
533.4646, 11088.51
533.9467, 11115.60
534.4288, 11134.09
534.9109, 11145.14
535.3931, 11144.81
535.8752, 11122.75
536.3573, 11082.80
536.8394, 11088.43
537.3215, 11157.57
537.8036, 11220.66
538.2858, 11218.39
538.7679, 11154.27
539.2500, 11109.41
539.7321, 11091.33
540.2142, 11090.68
540.6964, 11102.63
541.1785, 11122.97
541.6606, 11137.34
542.1427, 11133.30
542.6248, 11126.03
543.1069, 11135.97
543.5891, 11159.43
544.0712, 11178.07
544.5533, 11173.79
545.0354, 11166.22
545.5175, 11172.36
545.9996, 11200.06
546.4818, 11218.71
546.9639, 11208.07
547.4460, 11188.99
547.9281, 11184.54
548.4102, 11211.98
548.8923, 11233.03
549.3745, 11239.52
549.8566, 11237.06
550.3387, 11248.15
550.8208, 11280.98
551.3029, 11307.16
551.7850, 11312.34
552.2672, 11297.23
552.7493, 11277.30
553.2314, 11249.30
553.7135, 11233.48
554.1956, 11267.68
554.6777, 11334.50
555.1599, 11363.40
555.6420, 11325.24
556.1241, 11276.13
556.6062, 11285.37
557.0883, 11335.06
557.5704, 11380.11
558.0526, 11399.33
558.5347, 11406.32
559.0168, 11407.42
559.4989, 11403.15
559.9810, 11397.89
560.4631, 11386.60
560.9453, 11379.23
561.4274, 11383.20
561.9095, 11413.66
562.3916, 11429.33
562.8737, 11422.17
563.3558, 11404.73
563.8380, 11393.32
564.3201, 11389.16
564.8022, 11388.37
565.2843, 11393.25
565.7664, 11399.88
566.2485, 11389.26
566.7307, 11359.77
567.2128, 11333.00
567.6949, 11325.11
568.1770, 11330.14
568.6591, 11328.32
569.1412, 11317.71
569.6234, 11313.79
570.1055, 11343.03
570.5876, 11384.55
571.0697, 11405.91
571.5518, 11388.50
572.0339, 11364.35
572.5161, 11349.10
572.9982, 11340.04
573.4803, 11331.05
573.9624, 11319.99
574.4445, 11309.21
574.9266, 11300.31
575.4088, 11293.36
575.8909, 11283.74
576.3730, 11265.51
576.8551, 11252.00
577.3372, 11251.97
577.8193, 11268.11
578.3015, 11287.98
578.7836, 11315.22
579.2657, 11338.62
579.7478, 11340.86
580.2299, 11323.48
580.7120, 11301.86
581.1942, 11278.52
581.6763, 11255.94
582.1584, 11240.46
582.6405, 11230.36
583.1226, 11217.10
583.6047, 11177.52
584.0869, 11144.59
584.5690, 11159.55
585.0511, 11228.23
585.5332, 11277.46
586.0153, 11256.57
586.4974, 11215.14
586.9796, 11193.11
587.4617, 11226.18
587.9438, 11235.81
588.4259, 11195.97
588.9080, 11140.63
589.3901, 11133.77
589.8723, 11206.83
590.3544, 11246.51
590.8365, 11208.06
591.3186, 11115.76
591.8007, 11088.65
592.2828, 11131.45
592.7650, 11180.99
593.2471, 11192.75
593.7292, 11179.45
594.2113, 11180.54
594.6934, 11199.84
595.1755, 11212.70
595.6577, 11194.43
596.1398, 11157.79
596.6219, 11119.90
597.1040, 11085.44
597.5862, 11050.64
598.0683, 10998.55
598.5504, 10946.26
599.0325, 10926.50
599.5146, 10982.62
599.9968, 11034.30
600.4789, 11062.04
600.9610, 11066.67
601.4431, 11063.17
601.9252, 11046.58
602.4073, 11030.42
602.8895, 11020.19
603.3716, 11015.54
603.8537, 11027.45
604.3358, 11061.83
604.8179, 11090.67
605.3000, 11072.16
605.7822, 11018.99
606.2643, 10981.38
606.7464, 10973.33
607.2285, 10979.70
607.7106, 10989.27
608.1927, 11000.63
608.6749, 11010.72
609.1570, 11013.97
609.6391, 11019.17
610.1212, 11035.50
610.6033, 11061.56
611.0854, 11076.39
611.5676, 11059.92
612.0497, 11044.59
612.5318, 11047.31
613.0139, 11075.04
613.4960, 11096.54
613.9781, 11112.68
614.4603, 11120.69
614.9424, 11113.32
615.4245, 11089.24
615.9066, 11074.35
616.3887, 11074.08
616.8708, 11082.53
617.3530, 11087.17
617.8351, 11090.76
618.3172, 11104.91
618.7993, 11153.31
619.2814, 11202.70
619.7635, 11216.42
620.2457, 11198.74
620.7278, 11175.24
621.2099, 11147.48
621.6920, 11125.97
622.1741, 11117.62
622.6563, 11124.94
623.1384, 11138.50
623.6205, 11164.99
624.1026, 11191.63
624.5847, 11208.41
625.0668, 11213.63
625.5490, 11212.38
626.0311, 11201.59
626.5132, 11189.05
626.9953, 11190.06
627.4774, 11204.38
627.9595, 11220.11
628.4417, 11238.96
628.9238, 11251.75
629.4059, 11229.19
629.8880, 11179.91
630.3701, 11147.19
630.8522, 11175.22
631.3344, 11218.90
631.8165, 11235.85
632.2986, 11221.28
632.7807, 11218.72
633.2628, 11266.84
633.7449, 11318.19
634.2271, 11337.06
634.7092, 11298.95
635.1913, 11267.91
635.6734, 11241.78
636.1555, 11224.53
636.6376, 11221.03
637.1198, 11231.84
637.6019, 11256.86
638.0840, 11303.32
638.5661, 11355.67
639.0482, 11378.56
639.5303, 11373.90
640.0125, 11358.17
640.4946, 11321.44
640.9767, 11288.92
641.4588, 11304.15
641.9409, 11361.51
642.4230, 11406.08
642.9052, 11401.35
643.3873, 11376.51
643.8694, 11346.30
644.3515, 11304.04
644.8336, 11286.11
645.3157, 11327.74
645.7979, 11376.09
646.2800, 11387.09
646.7621, 11343.65
647.2442, 11306.92
647.7263, 11282.05
648.2084, 11265.95
648.6906, 11253.74
649.1727, 11245.59
649.6548, 11242.91
