##NAMES=Britvinite
##RRUFFID=R070639
##IDEAL CHEMISTRY=Pb^2+^_14_Mg_9_Si_10_O_28_(BO_3_)_4_(CO_3_)_2_F_2_(OH)_12_
##LOCALITY=Kombat mine, Kombat, Grootfontein District, Otjozondjupa Region, Namibia
##OWNER=RRUFF
##SOURCE=William W. Pinch
##DESCRIPTION=Colorless tabular crystals, associated with barite and red hematophanite R070638 
##STATUS=The identification of this mineral has been confirmed by single-crystal X-ray diffraction.
##URL=rruff.info/R070639
136.0372, 29577.43
136.5193, 30024.62
137.0014, 30529.75
137.4835, 31090.87
137.9656, 31658.11
138.4477, 32212.10
138.9299, 32772.12
139.4120, 33440.70
139.8941, 34255.53
140.3762, 35103.80
140.8583, 35919.70
141.3404, 36684.41
141.8225, 37457.93
142.3047, 38276.48
142.7868, 39138.72
143.2689, 39903.16
143.7510, 40577.03
144.2331, 41145.79
144.7152, 41596.95
145.1974, 41980.24
145.6795, 42182.42
146.1616, 42166.80
146.6437, 41898.50
147.1258, 41504.41
147.6079, 40961.28
148.0901, 40289.89
148.5722, 39571.75
149.0543, 38745.09
149.5364, 37918.27
150.0185, 37144.40
150.5006, 36464.72
150.9828, 35787.65
151.4649, 35141.36
151.9470, 34516.86
152.4291, 33813.48
152.9112, 32946.27
153.3933, 32045.51
153.8755, 31193.10
154.3576, 30452.06
154.8397, 29712.81
155.3218, 28948.18
155.8039, 28142.27
156.2860, 27357.85
156.7682, 26598.07
157.2503, 25875.37
157.7324, 25199.82
158.2145, 24584.93
158.6966, 24015.78
159.1787, 23490.04
159.6609, 23017.97
160.1430, 22563.32
160.6251, 22119.26
161.1072, 21689.24
161.5893, 21277.70
162.0714, 20886.27
162.5536, 20518.70
163.0357, 20178.29
163.5178, 19878.31
163.9999, 19590.75
164.4820, 19300.71
164.9641, 19010.36
165.4463, 18742.44
165.9284, 18533.27
166.4105, 18343.88
166.8926, 18132.18
167.3747, 17849.15
167.8568, 17561.91
168.3390, 17315.27
168.8211, 17116.33
169.3032, 16930.35
169.7853, 16739.73
170.2674, 16547.06
170.7495, 16357.05
171.2317, 16163.27
171.7138, 15976.51
172.1959, 15813.80
172.6780, 15683.73
173.1601, 15556.80
173.6422, 15399.11
174.1244, 15220.91
174.6065, 15058.52
175.0886, 14947.36
175.5707, 14860.55
176.0528, 14755.79
176.5349, 14615.03
177.0171, 14468.61
177.4992, 14350.03
177.9813, 14258.15
178.4634, 14175.79
178.9455, 14101.76
179.4276, 14028.07
179.9098, 13934.32
180.3919, 13804.22
180.8740, 13655.54
181.3561, 13508.93
181.8382, 13365.27
182.3203, 13229.32
182.8025, 13113.84
183.2846, 13014.23
183.7667, 12906.31
184.2488, 12769.02
184.7309, 12615.54
185.2130, 12492.49
185.6951, 12403.05
186.1773, 12328.89
186.6594, 12241.64
187.1415, 12143.71
187.6236, 12055.36
188.1057, 11993.14
188.5878, 11951.63
189.0700, 11900.37
189.5521, 11834.52
190.0342, 11762.50
190.5163, 11696.33
190.9984, 11636.06
191.4805, 11584.83
191.9627, 11550.92
192.4448, 11532.19
192.9269, 11504.89
193.4090, 11462.03
193.8911, 11409.42
194.3732, 11365.17
194.8554, 11329.89
195.3375, 11297.86
195.8196, 11265.93
196.3017, 11234.50
196.7838, 11197.70
197.2659, 11152.92
197.7481, 11101.71
198.2302, 11052.71
198.7123, 11006.54
199.1944, 10961.98
199.6765, 10919.75
200.1586, 10880.71
200.6408, 10835.41
201.1229, 10775.55
201.6050, 10701.16
202.0871, 10643.05
202.5692, 10605.63
203.0513, 10577.20
203.5335, 10537.23
204.0156, 10482.67
204.4977, 10428.22
204.9798, 10383.31
205.4619, 10351.31
205.9440, 10303.40
206.4262, 10231.11
206.9083, 10147.54
207.3904, 10088.48
207.8725, 10060.74
208.3546, 10038.14
208.8367, 10000.90
209.3189, 9939.813
209.8010, 9905.747
210.2831, 9917.107
210.7652, 9957.023
211.2473, 9944.691
211.7294, 9860.737
212.2116, 9763.116
212.6937, 9690.861
213.1758, 9639.671
213.6579, 9631.365
214.1400, 9693.946
214.6221, 9818.129
215.1043, 9851.768
215.5864, 9763.387
216.0685, 9631.519
216.5506, 9534.910
217.0327, 9485.907
217.5148, 9438.746
217.9970, 9383.313
218.4791, 9319.620
218.9612, 9251.707
219.4433, 9175.452
219.9254, 9099.369
220.4075, 9036.630
220.8897, 8995.749
221.3718, 8950.416
221.8539, 8891.864
222.3360, 8815.206
222.8181, 8743.550
223.3002, 8673.437
223.7824, 8610.784
224.2645, 8572.194
224.7466, 8577.808
225.2287, 8572.094
225.7108, 8526.924
226.1929, 8414.096
226.6750, 8342.992
227.1572, 8330.170
227.6393, 8354.905
228.1214, 8364.425
228.6035, 8355.212
229.0856, 8336.042
229.5677, 8307.562
230.0499, 8256.629
230.5320, 8228.451
231.0141, 8235.732
231.4962, 8267.700
231.9783, 8279.282
232.4604, 8259.282
232.9426, 8233.028
233.4247, 8215.455
233.9068, 8211.669
234.3889, 8206.292
234.8710, 8194.949
235.3531, 8179.359
235.8353, 8176.633
236.3174, 8193.623
236.7995, 8215.935
237.2816, 8232.567
237.7637, 8239.524
238.2458, 8248.347
238.7280, 8257.697
239.2101, 8267.810
239.6922, 8295.202
240.1743, 8351.174
240.6564, 8413.161
241.1385, 8459.699
241.6207, 8483.686
242.1028, 8505.550
242.5849, 8529.386
243.0670, 8555.524
243.5491, 8578.531
244.0313, 8596.433
244.5134, 8612.844
244.9955, 8631.256
245.4776, 8649.096
245.9597, 8673.762
246.4418, 8709.259
246.9240, 8758.431
247.4061, 8801.993
247.8882, 8836.162
248.3703, 8867.142
248.8524, 8904.144
249.3345, 8951.532
249.8167, 8997.540
250.2988, 9038.385
250.7809, 9072.182
251.2630, 9109.002
251.7451, 9152.998
252.2272, 9197.058
252.7094, 9228.792
253.1915, 9248.846
253.6736, 9255.155
254.1557, 9247.811
254.6378, 9228.587
255.1199, 9187.931
255.6021, 9115.705
256.0842, 9027.350
256.5663, 8957.907
257.0484, 8915.132
257.5305, 8877.563
258.0126, 8838.056
258.4948, 8800.062
258.9769, 8748.023
259.4590, 8672.242
259.9411, 8585.832
260.4232, 8525.631
260.9053, 8505.707
261.3875, 8486.301
261.8696, 8442.678
262.3517, 8362.312
262.8338, 8301.880
263.3159, 8273.165
263.7980, 8264.231
264.2802, 8233.382
264.7623, 8170.056
265.2444, 8105.056
265.7265, 8054.137
266.2086, 8018.201
266.6907, 7996.084
267.1729, 7989.569
267.6550, 7996.355
268.1371, 8012.837
268.6192, 8047.715
269.1013, 8072.055
269.5834, 8062.505
270.0656, 8012.468
270.5477, 7959.810
271.0298, 7908.354
271.5119, 7858.269
271.9940, 7808.308
272.4761, 7757.933
272.9583, 7710.425
273.4404, 7668.632
273.9225, 7633.798
274.4046, 7599.453
274.8867, 7565.960
275.3688, 7532.176
275.8510, 7486.262
276.3331, 7421.284
276.8152, 7366.106
277.2973, 7349.227
277.7794, 7374.437
278.2615, 7402.432
278.7437, 7428.892
279.2258, 7452.103
279.7079, 7460.084
280.1900, 7448.563
280.6721, 7438.463
281.1542, 7453.726
281.6364, 7495.938
282.1185, 7526.435
282.6006, 7527.446
283.0827, 7512.401
283.5648, 7545.941
284.0469, 7637.294
284.5291, 7729.637
285.0112, 7755.631
285.4933, 7717.912
285.9754, 7704.431
286.4575, 7744.029
286.9396, 7822.269
287.4217, 7893.742
287.9038, 7958.783
288.3860, 8013.358
288.8681, 8043.117
289.3502, 8051.870
289.8323, 8079.458
290.3144, 8146.758
290.7965, 8237.119
291.2787, 8301.644
291.7608, 8338.803
292.2429, 8368.804
292.7250, 8406.614
293.2071, 8452.967
293.6892, 8512.563
294.1714, 8596.037
294.6535, 8689.464
295.1356, 8756.179
295.6177, 8795.202
296.0998, 8839.821
296.5819, 8928.383
297.0641, 9050.896
297.5462, 9172.922
298.0283, 9293.376
298.5104, 9401.035
298.9925, 9470.669
299.4746, 9502.240
299.9568, 9526.721
300.4389, 9569.875
300.9210, 9626.663
301.4031, 9687.109
301.8852, 9753.364
302.3673, 9816.872
302.8495, 9864.665
303.3316, 9896.429
303.8137, 9925.378
304.2958, 9968.271
304.7779, 10014.91
305.2600, 10046.46
305.7422, 10057.55
306.2243, 10049.34
306.7064, 10015.72
307.1885, 9957.610
307.6706, 9899.045
308.1527, 9864.720
308.6349, 9838.719
309.1170, 9799.708
309.5991, 9734.634
310.0812, 9657.328
310.5633, 9581.179
311.0454, 9504.688
311.5276, 9411.385
312.0097, 9273.832
312.4918, 9120.553
312.9739, 8981.589
313.4560, 8879.068
313.9381, 8785.251
314.4203, 8689.808
314.9024, 8591.191
315.3845, 8487.320
315.8666, 8370.679
316.3487, 8250.824
316.8308, 8136.772
317.3130, 8010.167
317.7951, 7908.727
318.2772, 7872.940
318.7593, 7894.249
319.2414, 7880.017
319.7235, 7761.017
320.2057, 7613.866
320.6878, 7499.293
321.1699, 7465.194
321.6520, 7430.282
322.1341, 7375.159
322.6162, 7300.909
323.0984, 7222.430
323.5805, 7134.995
324.0626, 7048.859
324.5447, 6970.949
325.0268, 6920.162
325.5089, 6857.957
325.9911, 6762.279
326.4732, 6639.972
326.9553, 6554.836
327.4374, 6549.899
327.9195, 6556.839
328.4016, 6535.800
328.8838, 6456.006
329.3659, 6386.323
329.8480, 6335.524
330.3301, 6300.006
330.8122, 6255.820
331.2943, 6191.036
331.7765, 6128.891
332.2586, 6083.839
332.7407, 6071.656
333.2228, 6048.216
333.7049, 6010.165
334.1870, 5959.010
334.6692, 5899.126
335.1513, 5825.418
335.6334, 5750.603
336.1155, 5682.410
336.5976, 5621.937
337.0797, 5563.945
337.5619, 5511.062
338.0440, 5459.393
338.5261, 5396.886
339.0082, 5319.065
339.4903, 5244.094
339.9724, 5182.336
340.4546, 5133.781
340.9367, 5094.440
341.4188, 5065.581
341.9009, 5043.456
342.3830, 5023.546
342.8651, 5007.328
343.3473, 4981.687
343.8294, 4932.769
344.3115, 4863.060
344.7936, 4808.844
345.2757, 4771.886
345.7578, 4750.089
346.2400, 4743.960
346.7221, 4752.835
347.2042, 4763.118
347.6863, 4767.652
348.1684, 4768.120
348.6505, 4771.486
349.1327, 4779.065
349.6148, 4784.207
350.0969, 4775.004
350.5790, 4755.060
351.0611, 4738.733
351.5432, 4734.937
352.0254, 4738.136
352.5075, 4746.031
352.9896, 4760.337
353.4717, 4758.567
353.9538, 4710.049
354.4359, 4630.885
354.9181, 4553.914
355.4002, 4485.938
355.8823, 4431.016
356.3644, 4402.741
356.8465, 4401.478
357.3286, 4389.394
357.8108, 4330.635
358.2929, 4249.523
358.7750, 4176.742
359.2571, 4126.210
359.7392, 4084.838
360.2213, 4041.128
360.7035, 3996.323
361.1856, 3969.684
361.6677, 3995.790
362.1498, 4031.236
362.6319, 4038.688
363.1140, 3979.973
363.5962, 3920.606
364.0783, 3877.479
364.5604, 3849.597
365.0425, 3829.083
365.5246, 3816.796
366.0067, 3809.606
366.4889, 3805.556
366.9710, 3817.813
367.4531, 3817.595
367.9352, 3797.050
368.4173, 3760.426
368.8994, 3726.139
369.3815, 3691.231
369.8636, 3661.858
370.3458, 3641.701
370.8279, 3639.920
371.3100, 3630.503
371.7921, 3603.506
372.2742, 3570.925
372.7563, 3566.694
373.2385, 3615.726
373.7206, 3651.876
374.2027, 3641.299
374.6848, 3565.616
375.1669, 3521.771
375.6490, 3520.624
376.1312, 3540.000
376.6133, 3541.228
377.0954, 3518.531
377.5775, 3501.350
378.0596, 3506.974
378.5417, 3534.074
379.0239, 3534.314
379.5060, 3501.238
379.9881, 3460.674
380.4702, 3446.756
380.9523, 3458.515
381.4344, 3471.226
381.9166, 3474.148
382.3987, 3472.389
382.8808, 3485.281
383.3629, 3513.660
383.8450, 3541.151
384.3271, 3544.276
384.8093, 3532.377
385.2914, 3535.683
385.7735, 3573.143
386.2556, 3620.393
386.7377, 3637.476
387.2198, 3628.500
387.7020, 3625.542
388.1841, 3656.719
388.6662, 3706.042
389.1483, 3752.682
389.6304, 3790.049
390.1125, 3825.765
390.5947, 3869.252
391.0768, 3917.238
391.5589, 3957.942
392.0410, 3981.228
392.5231, 3997.751
393.0052, 4014.479
393.4874, 4030.855
393.9695, 4051.777
394.4516, 4081.505
394.9337, 4116.883
395.4158, 4152.155
395.8979, 4180.787
396.3801, 4213.029
396.8622, 4256.875
397.3443, 4320.835
397.8264, 4367.365
398.3085, 4369.502
398.7906, 4358.722
399.2728, 4373.195
399.7549, 4438.704
400.2370, 4501.813
400.7191, 4552.737
401.2012, 4590.849
401.6833, 4627.187
402.1655, 4662.468
402.6476, 4695.041
403.1297, 4722.512
403.6118, 4741.636
404.0939, 4763.514
404.5760, 4787.860
405.0582, 4816.015
405.5403, 4859.147
406.0224, 4923.832
406.5045, 4983.137
406.9866, 5015.530
407.4688, 5019.555
407.9509, 5021.463
408.4330, 5021.407
408.9151, 5024.011
409.3972, 5042.963
409.8793, 5078.182
410.3615, 5110.873
410.8436, 5125.313
411.3257, 5128.301
411.8078, 5146.298
412.2899, 5184.583
412.7720, 5222.279
413.2542, 5226.198
413.7363, 5207.448
414.2184, 5199.029
414.7005, 5225.322
415.1826, 5265.599
415.6647, 5298.745
416.1469, 5323.880
416.6290, 5339.582
417.1111, 5344.943
417.5932, 5339.819
418.0753, 5324.061
418.5574, 5280.285
419.0396, 5241.065
419.5217, 5230.974
420.0038, 5244.631
420.4859, 5245.618
420.9680, 5213.248
421.4501, 5167.163
421.9323, 5121.584
422.4144, 5080.032
422.8965, 5037.075
423.3786, 4979.730
423.8607, 4919.055
424.3428, 4885.756
424.8250, 4919.923
425.3071, 4948.211
425.7892, 4942.483
426.2713, 4883.824
426.7534, 4842.725
427.2355, 4831.353
427.7177, 4829.830
428.1998, 4806.417
428.6819, 4746.134
429.1640, 4697.505
429.6461, 4677.405
430.1282, 4685.200
430.6104, 4682.015
431.0925, 4666.388
431.5746, 4643.057
432.0567, 4611.613
432.5388, 4571.411
433.0209, 4546.390
433.5031, 4547.357
433.9852, 4561.963
434.4673, 4559.383
434.9494, 4540.031
435.4315, 4515.608
435.9136, 4493.333
436.3958, 4472.731
436.8779, 4451.979
437.3600, 4430.526
437.8421, 4410.723
438.3242, 4393.563
438.8063, 4380.009
439.2885, 4372.677
439.7706, 4382.091
440.2527, 4392.868
440.7348, 4387.594
441.2169, 4363.056
441.6990, 4342.061
442.1812, 4342.177
442.6633, 4351.219
443.1454, 4354.660
443.6275, 4346.200
444.1096, 4332.951
444.5917, 4316.592
445.0739, 4297.147
445.5560, 4275.603
446.0381, 4252.365
446.5202, 4227.012
447.0023, 4199.354
447.4844, 4165.858
447.9666, 4134.658
448.4487, 4107.539
448.9308, 4082.579
449.4129, 4054.381
449.8950, 4023.476
450.3771, 3989.575
450.8592, 3950.568
451.3413, 3904.375
451.8235, 3868.704
452.3056, 3847.220
452.7877, 3830.416
453.2698, 3805.833
453.7519, 3773.328
454.2340, 3735.206
454.7162, 3688.273
455.1983, 3636.964
455.6804, 3596.238
456.1625, 3566.281
456.6446, 3540.995
457.1267, 3517.071
457.6089, 3493.760
458.0910, 3466.821
458.5731, 3433.553
459.0552, 3400.250
459.5373, 3377.723
460.0194, 3362.684
460.5016, 3343.657
460.9837, 3314.810
461.4658, 3278.885
461.9479, 3236.632
462.4300, 3187.045
462.9121, 3138.244
463.3943, 3094.432
463.8764, 3054.111
464.3585, 3016.016
464.8406, 2989.988
465.3227, 2956.107
465.8048, 2901.542
466.2870, 2826.333
466.7691, 2764.035
467.2512, 2722.495
467.7333, 2691.599
468.2154, 2665.272
468.6975, 2646.489
469.1797, 2627.374
469.6618, 2607.741
470.1439, 2587.758
470.6260, 2567.157
471.1081, 2543.522
471.5902, 2525.126
472.0724, 2518.540
472.5545, 2524.976
473.0366, 2519.107
473.5187, 2497.580
474.0008, 2473.327
474.4829, 2462.730
474.9651, 2464.908
475.4472, 2469.994
475.9293, 2479.824
476.4114, 2487.441
476.8935, 2472.083
477.3756, 2435.991
477.8578, 2405.108
478.3399, 2405.317
478.8220, 2420.882
479.3041, 2429.501
479.7862, 2427.807
480.2683, 2416.288
480.7505, 2384.049
481.2326, 2342.397
481.7147, 2314.941
482.1968, 2327.934
482.6789, 2343.695
483.1610, 2339.142
483.6432, 2309.326
484.1253, 2288.509
484.6074, 2300.193
485.0895, 2316.921
485.5716, 2314.924
486.0537, 2269.458
486.5359, 2232.187
487.0180, 2211.947
487.5001, 2204.032
487.9822, 2184.577
488.4643, 2142.246
488.9464, 2107.323
489.4286, 2098.438
489.9107, 2123.028
490.3928, 2133.914
490.8749, 2128.532
491.3570, 2113.636
491.8391, 2098.262
492.3213, 2082.570
492.8034, 2064.385
493.2855, 2040.853
493.7676, 2015.410
494.2497, 1997.638
494.7318, 1987.547
495.2140, 1977.803
495.6961, 1958.972
496.1782, 1937.181
496.6603, 1924.933
497.1424, 1928.627
497.6245, 1933.333
498.1067, 1928.277
498.5888, 1915.180
499.0709, 1898.208
499.5530, 1868.140
500.0351, 1843.297
500.5172, 1836.983
500.9994, 1853.401
501.4815, 1864.032
501.9636, 1857.036
502.4457, 1844.089
502.9278, 1835.776
503.4099, 1840.889
503.8921, 1840.184
504.3742, 1827.995
504.8563, 1808.368
505.3384, 1798.964
505.8205, 1804.886
506.3026, 1811.509
506.7848, 1811.725
507.2669, 1804.720
507.7490, 1797.946
508.2311, 1791.792
508.7132, 1785.092
509.1953, 1774.652
509.6775, 1761.064
510.1596, 1750.871
510.6417, 1747.532
511.1238, 1748.054
511.6059, 1746.993
512.0880, 1744.371
512.5701, 1741.098
513.0522, 1736.830
513.5344, 1732.568
514.0165, 1729.694
514.4986, 1728.706
514.9807, 1728.283
515.4628, 1725.549
515.9449, 1723.148
516.4271, 1725.572
516.9092, 1738.265
517.3913, 1752.373
517.8734, 1767.936
518.3555, 1785.312
518.8376, 1791.270
519.3198, 1779.421
519.8019, 1759.171
520.2840, 1734.333
520.7661, 1694.912
521.2482, 1672.293
521.7303, 1675.560
522.2125, 1691.948
522.6946, 1691.258
523.1767, 1669.286
523.6588, 1648.091
524.1409, 1638.222
524.6230, 1637.705
525.1052, 1630.924
525.5873, 1617.801
526.0694, 1598.978
526.5515, 1569.291
527.0336, 1534.048
527.5157, 1509.007
527.9979, 1499.720
528.4800, 1499.763
528.9621, 1511.463
529.4442, 1528.536
529.9263, 1532.735
530.4084, 1500.572
530.8906, 1462.077
531.3727, 1436.792
531.8548, 1426.599
532.3369, 1426.391
532.8190, 1453.537
533.3011, 1480.506
533.7833, 1481.854
534.2654, 1414.177
534.7475, 1369.401
535.2296, 1364.703
535.7117, 1389.307
536.1938, 1406.175
536.6760, 1415.724
537.1581, 1417.240
537.6402, 1407.664
538.1223, 1385.638
538.6044, 1371.052
539.0865, 1364.597
539.5687, 1363.204
540.0508, 1368.964
540.5329, 1379.512
541.0150, 1375.041
541.4971, 1344.938
541.9792, 1304.655
542.4614, 1274.278
542.9435, 1254.137
543.4256, 1245.827
543.9077, 1260.599
544.3898, 1281.738
544.8719, 1293.813
545.3541, 1294.913
545.8362, 1289.294
546.3183, 1268.832
546.8004, 1246.788
547.2825, 1237.458
547.7646, 1262.342
548.2468, 1280.009
548.7289, 1276.938
549.2110, 1258.819
549.6931, 1250.246
550.1752, 1255.016
550.6573, 1264.248
551.1395, 1276.895
551.6216, 1295.517
552.1037, 1299.323
552.5858, 1282.936
553.0679, 1263.546
553.5500, 1262.540
554.0322, 1279.215
554.5143, 1297.071
554.9964, 1315.178
555.4785, 1328.765
555.9606, 1321.976
556.4427, 1299.297
556.9249, 1285.281
557.4070, 1305.709
557.8891, 1337.207
558.3712, 1351.086
558.8533, 1342.657
559.3354, 1336.618
559.8176, 1354.971
560.2997, 1379.024
560.7818, 1389.624
561.2639, 1362.188
561.7460, 1342.820
562.2281, 1344.848
562.7103, 1363.082
563.1924, 1377.307
563.6745, 1385.945
564.1566, 1392.351
564.6387, 1397.858
565.1208, 1402.785
565.6030, 1403.199
566.0851, 1397.115
566.5672, 1391.180
567.0493, 1393.501
567.5314, 1403.602
568.0135, 1411.380
568.4957, 1414.652
568.9778, 1415.243
569.4599, 1414.341
569.9420, 1412.743
570.4241, 1413.857
570.9063, 1420.736
571.3884, 1430.444
571.8705, 1441.902
572.3526, 1454.868
572.8347, 1463.999
573.3168, 1459.964
573.7990, 1454.309
574.2811, 1457.277
574.7632, 1482.562
575.2453, 1500.055
575.7274, 1497.276
576.2095, 1485.051
576.6917, 1484.943
577.1738, 1502.846
577.6559, 1523.331
578.1380, 1543.394
578.6201, 1562.842
579.1022, 1577.731
579.5844, 1586.869
580.0665, 1595.817
580.5486, 1609.469
581.0307, 1627.165
581.5128, 1643.966
581.9949, 1659.831
582.4771, 1672.874
582.9592, 1674.062
583.4413, 1670.289
583.9234, 1678.619
584.4055, 1725.017
584.8876, 1771.344
585.3698, 1781.604
585.8519, 1762.849
586.3340, 1754.106
586.8161, 1784.607
587.2982, 1819.952
587.7803, 1839.511
588.2625, 1832.231
588.7446, 1832.681
589.2267, 1847.821
589.7088, 1867.626
590.1909, 1881.146
590.6730, 1885.652
591.1552, 1891.200
591.6373, 1900.360
592.1194, 1911.036
592.6015, 1915.569
593.0836, 1913.464
593.5657, 1913.432
594.0479, 1928.667
594.5300, 1948.828
595.0121, 1941.934
595.4942, 1906.647
595.9763, 1866.628
596.4584, 1837.278
596.9406, 1816.700
597.4227, 1802.560
597.9048, 1797.338
598.3869, 1793.038
598.8690, 1793.127
599.3511, 1790.749
599.8333, 1772.635
600.3154, 1711.057
600.7975, 1659.567
601.2796, 1635.250
601.7617, 1637.326
602.2438, 1635.500
602.7260, 1629.908
603.2081, 1620.375
603.6902, 1605.192
604.1723, 1583.524
604.6544, 1567.338
605.1365, 1558.566
605.6187, 1551.582
606.1008, 1539.041
606.5829, 1521.908
607.0650, 1503.585
607.5471, 1480.462
608.0292, 1461.725
608.5114, 1463.846
608.9935, 1481.061
609.4756, 1493.049
609.9577, 1480.477
610.4398, 1465.846
610.9219, 1465.286
611.4041, 1482.850
611.8862, 1494.230
612.3683, 1484.832
612.8504, 1473.871
613.3325, 1477.126
613.8146, 1509.688
614.2968, 1525.437
614.7789, 1514.957
615.2610, 1492.886
615.7431, 1491.711
616.2252, 1514.436
616.7073, 1527.365
617.1895, 1513.370
617.6716, 1483.028
618.1537, 1465.127
618.6358, 1458.807
619.1179, 1456.693
619.6000, 1458.195
620.0822, 1458.731
620.5643, 1450.424
621.0464, 1430.119
621.5285, 1413.734
622.0106, 1416.789
622.4927, 1425.509
622.9749, 1425.151
623.4570, 1404.071
623.9391, 1383.756
624.4212, 1364.092
624.9033, 1347.448
625.3854, 1341.120
625.8676, 1349.787
626.3497, 1358.427
626.8318, 1360.666
627.3139, 1357.684
627.7960, 1363.958
628.2781, 1381.137
628.7603, 1393.887
629.2424, 1386.507
629.7245, 1365.160
630.2066, 1344.200
630.6887, 1324.460
631.1708, 1310.176
