##NAMES=Brizziite
##RRUFFID=R060611
##IDEAL CHEMISTRY=NaSb^5+^O_3_
##LOCALITY=Le Cetine di Cotorniano, Chiusdino, Siena Province, Tuscany, Italy
##OWNER=RRUFF
##SOURCE=Michael Scott
##DESCRIPTION=Colorless thin hexagonal plates associated with romeite, R060736
##STATUS=The identification of this mineral is confirmed by single-crystal X-ray diffraction and chemical analysis.
##URL=rruff.info/R060611
##MEASURED CHEMISTRY=Na_1.00_Sb_1.00_O_3_; = gray phase with trace amounts of Fe; bright phase: stibiconite
121.041, 4547.879
121.523, 4594.416
122.005, 4632.084
122.487, 4666.276
122.969, 4705.748
123.451, 4749.049
123.934, 4780.418
124.416, 4780.290
124.898, 4760.573
125.380, 4742.942
125.862, 4740.718
126.344, 4744.066
126.826, 4737.248
127.308, 4719.385
127.790, 4699.474
128.273, 4681.954
128.755, 4668.771
129.237, 4668.269
129.719, 4693.121
130.201, 4734.819
130.683, 4765.659
131.165, 4780.989
131.648, 4791.756
132.130, 4818.286
132.612, 4860.473
133.094, 4901.452
133.576, 4924.864
134.058, 4932.504
134.540, 4955.513
135.022, 5003.380
135.504, 5065.930
135.986, 5110.357
136.469, 5134.283
136.951, 5149.639
137.433, 5164.400
137.915, 5177.991
138.397, 5194.798
138.879, 5217.903
139.361, 5246.412
139.843, 5267.527
140.326, 5280.780
140.808, 5288.043
141.290, 5290.514
141.772, 5286.008
142.254, 5282.396
142.736, 5280.793
143.218, 5280.222
143.700, 5286.817
144.182, 5298.855
144.665, 5318.877
145.147, 5349.727
145.629, 5385.190
146.111, 5440.011
146.593, 5518.566
147.075, 5622.339
147.557, 5748.563
148.039, 5903.652
148.521, 6080.377
149.004, 6261.419
149.486, 6442.401
149.968, 6628.687
150.450, 6824.701
150.932, 7035.698
151.414, 7248.281
151.896, 7445.885
152.378, 7636.702
152.861, 7873.372
153.343, 8141.178
153.825, 8468.789
154.307, 8873.011
154.789, 9366.576
155.271, 9931.893
155.753, 10673.290
156.235, 11586.040
156.717, 12248.050
157.200, 12706.210
157.682, 12831.800
158.164, 12508.830
158.646, 11273.740
159.128, 9962.690
159.610, 8816.806
160.092, 7849.096
160.574, 7082.149
161.057, 6590.066
161.539, 6291.247
162.021, 6073.034
162.503, 5939.631
162.985, 5845.033
163.467, 5766.823
163.949, 5704.375
164.431, 5653.485
164.913, 5615.739
165.396, 5588.407
165.878, 5565.986
166.360, 5552.848
166.842, 5540.145
167.324, 5520.087
167.806, 5487.846
168.288, 5455.564
168.770, 5431.025
169.253, 5413.018
169.735, 5397.210
170.217, 5378.687
170.699, 5362.217
171.181, 5353.864
171.663, 5359.879
172.145, 5368.782
172.627, 5368.758
173.109, 5361.325
173.592, 5356.087
174.074, 5361.948
174.556, 5374.069
175.038, 5384.116
175.520, 5384.254
176.002, 5384.864
176.484, 5404.026
176.966, 5440.820
177.449, 5473.252
177.931, 5476.327
178.413, 5460.166
178.895, 5448.681
179.377, 5451.523
179.859, 5464.676
180.341, 5485.228
180.823, 5514.365
181.305, 5539.234
181.788, 5540.866
182.270, 5525.102
182.752, 5514.591
183.234, 5523.330
183.716, 5544.825
184.198, 5561.939
184.680, 5573.344
185.162, 5583.949
185.645, 5605.923
186.127, 5636.412
186.609, 5655.133
187.091, 5638.390
187.573, 5597.494
188.055, 5583.028
188.537, 5603.254
189.019, 5638.404
189.501, 5656.933
189.984, 5659.294
190.466, 5660.320
190.948, 5666.393
191.430, 5677.889
191.912, 5698.624
192.394, 5731.619
192.876, 5770.304
193.358, 5800.819
193.840, 5822.690
194.323, 5842.314
194.805, 5860.898
195.287, 5878.727
195.769, 5905.132
196.251, 5942.060
196.733, 5988.520
197.215, 6044.730
197.697, 6113.521
198.180, 6178.772
198.662, 6221.408
199.144, 6239.377
199.626, 6273.528
200.108, 6330.735
200.590, 6409.899
201.072, 6509.169
201.554, 6634.881
202.036, 6761.340
202.519, 6877.387
203.001, 6989.003
203.483, 7045.481
203.965, 7029.535
204.447, 6946.266
204.929, 6837.457
205.411, 6694.127
205.893, 6543.891
206.376, 6411.525
206.858, 6296.754
207.340, 6200.991
207.822, 6125.097
208.304, 6069.016
208.786, 6032.034
209.268, 6020.418
209.750, 6018.602
210.232, 6007.882
210.714, 5984.679
211.197, 5965.882
211.679, 5956.780
212.161, 5958.026
212.643, 5960.093
213.125, 5961.523
213.607, 5965.913
214.089, 5978.993
214.572, 6003.958
215.054, 6028.489
215.536, 6038.765
216.018, 6024.820
216.500, 6078.263
216.982, 6240.198
217.464, 6430.094
217.946, 6516.559
218.428, 6447.546
218.911, 6387.191
219.393, 6392.534
219.875, 6477.576
220.357, 6560.812
220.839, 6636.294
221.321, 6713.986
221.803, 6816.362
222.285, 6952.237
222.767, 7094.593
223.250, 7231.141
223.732, 7358.099
224.214, 7496.730
224.696, 7647.847
225.178, 7810.837
225.660, 7990.780
226.142, 8183.105
226.624, 8397.813
227.107, 8634.290
227.589, 8889.202
228.071, 9185.060
228.553, 9553.132
229.035, 9954.534
229.517, 10309.280
229.999, 10682.380
230.481, 10917.060
230.963, 10950.920
231.445, 10771.440
231.928, 10404.150
232.410, 9763.233
232.892, 8951.004
233.374, 8264.115
233.856, 7709.409
234.338, 7262.960
234.820, 6915.747
235.303, 6694.552
235.785, 6523.113
236.267, 6415.300
236.749, 6354.388
237.231, 6293.819
237.713, 6232.000
238.195, 6173.889
238.677, 6120.115
239.159, 6062.325
239.641, 6028.426
240.124, 6028.716
240.606, 6052.425
241.088, 6063.744
241.570, 6054.563
242.052, 6044.162
242.534, 6042.454
243.016, 6054.593
243.498, 6063.867
243.981, 6066.490
244.463, 6065.774
244.945, 6074.296
245.427, 6096.079
245.909, 6121.168
246.391, 6145.562
246.873, 6172.285
247.355, 6190.928
247.837, 6199.893
248.320, 6200.303
248.802, 6195.426
249.284, 6180.484
249.766, 6167.215
250.248, 6162.933
250.730, 6174.771
251.212, 6179.261
251.694, 6171.096
252.176, 6155.414
252.659, 6150.290
253.141, 6157.911
253.623, 6173.505
254.105, 6197.549
254.587, 6239.390
255.069, 6265.630
255.551, 6268.599
256.033, 6255.404
256.516, 6252.447
256.998, 6265.485
257.480, 6279.433
257.962, 6284.282
258.444, 6272.601
258.926, 6272.321
259.408, 6289.102
259.890, 6317.326
260.372, 6335.608
260.855, 6336.555
261.337, 6340.641
261.819, 6363.569
262.301, 6419.004
262.783, 6449.124
263.265, 6440.887
263.747, 6408.191
264.229, 6395.019
264.711, 6406.787
265.194, 6427.045
265.676, 6448.776
266.158, 6473.846
266.640, 6491.626
267.122, 6498.913
267.604, 6499.857
268.086, 6506.615
268.569, 6521.706
269.051, 6536.947
269.533, 6548.851
270.015, 6558.068
270.497, 6560.063
270.979, 6550.713
271.461, 6537.025
271.943, 6539.223
272.425, 6562.325
272.908, 6585.358
273.390, 6593.241
273.872, 6581.988
274.354, 6586.700
274.836, 6614.380
275.318, 6653.573
275.800, 6676.264
276.282, 6677.898
276.764, 6682.415
277.247, 6704.896
277.729, 6747.223
278.211, 6784.569
278.693, 6816.659
279.175, 6842.500
279.657, 6857.321
280.139, 6859.233
280.621, 6862.725
281.103, 6874.373
281.586, 6894.103
282.068, 6920.592
282.550, 6955.999
283.032, 6993.821
283.514, 7022.417
283.996, 7041.367
284.478, 7058.489
284.960, 7078.713
285.443, 7101.555
285.925, 7115.763
286.407, 7117.056
286.889, 7121.152
287.371, 7157.382
287.853, 7224.766
288.335, 7288.657
288.817, 7326.505
289.299, 7344.995
289.782, 7381.034
290.264, 7436.203
290.746, 7501.258
291.228, 7565.800
291.710, 7629.862
292.192, 7694.471
292.674, 7755.178
293.156, 7816.118
293.638, 7891.869
294.121, 7983.549
294.603, 8080.439
295.085, 8169.347
295.567, 8253.352
296.049, 8345.486
296.531, 8454.340
297.013, 8573.736
297.496, 8687.858
297.978, 8794.317
298.460, 8908.782
298.942, 9047.574
299.424, 9205.313
299.906, 9366.841
300.388, 9527.205
300.870, 9686.724
301.352, 9848.678
301.835, 10012.410
302.317, 10159.190
302.799, 10293.270
303.281, 10397.800
303.763, 10442.770
304.245, 10394.770
304.727, 10300.080
305.209, 10197.070
305.691, 10085.970
306.174, 9985.151
306.656, 9894.422
307.138, 9823.178
307.620, 9783.131
308.102, 9773.979
308.584, 9801.338
309.066, 9868.076
309.548, 9975.627
310.030, 10124.220
310.513, 10322.530
310.995, 10559.720
311.477, 10829.280
311.959, 11160.000
312.441, 11473.840
312.923, 11804.550
313.405, 12096.940
313.887, 12171.450
314.370, 11861.250
314.852, 11354.900
315.334, 10768.620
315.816, 10062.930
316.298, 9412.055
316.780, 8876.780
317.262, 8447.242
317.744, 8093.258
318.226, 7827.685
318.709, 7621.314
319.191, 7465.777
319.673, 7372.523
320.155, 7294.935
320.637, 7219.139
321.119, 7150.745
321.601, 7098.767
322.083, 7082.239
322.565, 7068.332
323.048, 7044.606
323.530, 7007.266
324.012, 6970.440
324.494, 6930.960
324.976, 6894.550
325.458, 6868.279
325.940, 6866.786
326.422, 6861.780
326.905, 6844.412
327.387, 6811.514
327.869, 6784.113
328.351, 6763.239
328.833, 6747.713
329.315, 6736.834
329.797, 6744.546
330.279, 6738.973
330.762, 6705.127
331.244, 6643.181
331.726, 6611.691
332.208, 6550.185
332.690, 6588.130
333.172, 6601.932
333.654, 6592.892
334.136, 6492.589
334.618, 6510.134
335.100, 6480.452
335.583, 6448.831
336.065, 6482.960
336.547, 6395.931
337.029, 6422.571
337.511, 6400.300
337.993, 6387.477
338.475, 6386.313
338.957, 6392.076
339.440, 6393.126
339.922, 6389.369
340.404, 6380.613
340.886, 6365.594
341.368, 6344.066
341.850, 6321.393
342.332, 6297.531
342.814, 6274.007
343.297, 6256.598
343.779, 6245.870
344.261, 6229.977
344.743, 6195.659
345.225, 6147.946
345.707, 6123.368
346.189, 6124.119
346.671, 6138.632
347.153, 6159.461
347.635, 6184.518
348.118, 6200.667
348.600, 6201.022
349.082, 6189.532
349.564, 6172.516
350.046, 6149.310
350.528, 6128.480
351.010, 6119.892
351.492, 6119.226
351.975, 6116.060
352.457, 6104.570
352.939, 6091.632
353.421, 6088.412
353.903, 6093.263
354.385, 6095.051
354.867, 6083.021
355.349, 6064.668
355.832, 6050.303
356.314, 6045.082
356.796, 6039.618
357.278, 6024.014
357.760, 6001.900
358.242, 5984.029
358.724, 5977.623
359.206, 5976.381
359.688, 5975.682
360.171, 5974.665
360.653, 5974.572
361.135, 5979.271
361.617, 5984.726
362.099, 5984.264
362.581, 5968.912
363.063, 5952.683
363.545, 5941.531
364.027, 5936.312
364.510, 5932.977
364.992, 5932.397
365.474, 5932.434
365.956, 5930.919
366.438, 5918.938
366.920, 5914.437
367.402, 5924.778
367.884, 5950.121
368.366, 5970.831
368.849, 5987.523
369.331, 5998.484
369.813, 6001.962
370.295, 5987.383
370.777, 5981.133
371.259, 5989.530
371.741, 6008.131
372.224, 6017.116
372.706, 6005.743
373.188, 5999.481
373.670, 6012.853
374.152, 6054.577
374.634, 6089.646
375.116, 6117.683
375.598, 6138.408
376.080, 6149.375
376.562, 6147.765
377.045, 6145.860
377.527, 6148.618
378.009, 6156.120
378.491, 6161.206
378.973, 6161.735
379.455, 6166.232
379.937, 6191.622
380.419, 6237.833
380.902, 6269.634
381.384, 6268.330
381.866, 6248.609
382.348, 6258.928
382.830, 6300.067
383.312, 6344.769
383.794, 6369.496
384.276, 6378.525
384.759, 6383.427
385.241, 6382.526
385.723, 6384.973
386.205, 6404.497
386.687, 6438.791
387.169, 6478.855
387.651, 6523.257
388.133, 6567.667
388.615, 6607.015
389.098, 6639.763
389.580, 6668.978
390.062, 6700.071
390.544, 6728.994
391.026, 6747.532
391.508, 6740.689
391.990, 6731.225
392.472, 6732.450
392.954, 6745.536
393.437, 6766.540
393.919, 6808.067
394.401, 6850.518
394.883, 6875.974
395.365, 6853.389
395.847, 6840.075
396.329, 6854.529
396.811, 6893.748
397.293, 6936.352
397.776, 6983.244
398.258, 7029.032
398.740, 7071.437
399.222, 7114.602
399.704, 7147.691
400.186, 7165.038
400.668, 7172.820
401.151, 7184.516
401.633, 7199.908
402.115, 7219.761
402.597, 7246.516
403.079, 7283.162
403.561, 7310.190
404.043, 7322.998
404.525, 7331.811
405.007, 7348.995
405.490, 7376.101
405.972, 7406.644
406.454, 7440.487
406.936, 7476.599
407.418, 7508.883
407.900, 7537.387
408.382, 7562.050
408.864, 7580.083
409.346, 7592.472
409.828, 7613.724
410.311, 7650.652
410.793, 7688.458
411.275, 7696.939
411.757, 7679.553
412.239, 7664.681
412.721, 7666.962
413.203, 7683.181
413.685, 7710.341
414.168, 7749.447
414.650, 7787.713
415.132, 7810.181
415.614, 7823.021
416.096, 7837.491
416.578, 7868.150
417.060, 7895.139
417.542, 7886.859
418.025, 7849.387
418.507, 7841.233
418.989, 7939.872
419.471, 8056.769
419.953, 8116.595
420.435, 8075.771
420.917, 8012.944
421.399, 7934.851
421.881, 7853.587
422.364, 7799.118
422.846, 7794.478
423.328, 7804.153
423.810, 7815.248
424.292, 7826.025
424.774, 7841.971
425.256, 7881.224
425.738, 7917.688
426.220, 7918.699
426.703, 7847.081
427.185, 7799.022
427.667, 7802.321
428.149, 7851.641
428.631, 7871.521
429.113, 7847.744
429.595, 7819.298
430.077, 7816.611
430.560, 7845.193
431.042, 7862.726
431.524, 7861.820
432.006, 7852.160
432.488, 7856.920
432.970, 7877.198
433.452, 7892.005
433.934, 7888.550
434.417, 7870.475
434.899, 7853.326
435.381, 7837.067
435.863, 7823.849
436.345, 7817.215
436.827, 7815.686
437.309, 7814.534
437.791, 7809.588
438.273, 7806.960
438.755, 7817.465
439.238, 7838.530
439.720, 7856.542
440.202, 7860.405
440.684, 7858.092
441.166, 7857.436
441.648, 7860.340
442.130, 7863.252
442.612, 7861.897
443.095, 7859.563
443.577, 7861.877
444.059, 7867.083
444.541, 7880.467
445.023, 7910.283
445.505, 7959.178
445.987, 7993.729
446.469, 7999.269
446.952, 7994.459
447.434, 7992.868
447.916, 7996.139
448.398, 8000.860
448.880, 8004.279
449.362, 8009.076
449.844, 8024.937
450.326, 8056.331
450.808, 8090.467
451.290, 8123.518
451.773, 8156.218
452.255, 8178.354
452.737, 8185.561
453.219, 8190.130
453.701, 8210.276
454.183, 8246.564
454.665, 8280.486
455.147, 8307.399
455.630, 8328.277
456.112, 8345.036
456.594, 8357.630
457.076, 8370.979
457.558, 8394.947
458.040, 8421.836
458.522, 8432.040
459.004, 8418.979
459.487, 8401.431
459.969, 8401.702
460.451, 8412.006
460.933, 8414.612
461.415, 8390.040
461.897, 8362.777
462.379, 8353.907
462.861, 8364.039
463.343, 8368.159
463.826, 8345.734
464.308, 8317.193
464.790, 8299.414
465.272, 8308.155
465.754, 8313.590
466.236, 8309.843
466.718, 8298.543
467.200, 8284.366
467.682, 8256.336
468.165, 8236.635
468.647, 8232.803
469.129, 8247.702
469.611, 8266.564
470.093, 8290.921
470.575, 8317.263
471.057, 8341.124
471.539, 8359.856
472.022, 8386.276
472.504, 8427.779
472.986, 8476.209
473.468, 8496.848
473.950, 8485.782
474.432, 8483.046
474.914, 8519.194
475.396, 8586.613
475.878, 8650.629
476.361, 8708.757
476.843, 8766.242
477.325, 8831.688
477.807, 8901.449
478.289, 8964.689
478.771, 9007.225
479.253, 9049.191
479.735, 9112.317
480.217, 9194.440
480.700, 9282.018
481.182, 9368.772
481.664, 9455.572
482.146, 9540.704
482.628, 9615.888
483.110, 9705.932
483.592, 9827.042
484.074, 9965.937
484.556, 10102.560
485.039, 10205.990
485.521, 10331.470
486.003, 10502.430
486.485, 10719.090
486.967, 10927.240
487.449, 11124.250
487.931, 11312.870
488.414, 11492.320
488.896, 11653.660
489.378, 11827.900
489.860, 12014.050
490.342, 12218.790
490.824, 12468.390
491.306, 12770.720
491.788, 13065.220
492.270, 13322.660
492.753, 13553.510
493.235, 13816.770
493.717, 14108.880
494.199, 14416.460
494.681, 14735.090
495.163, 15056.870
495.645, 15372.220
496.127, 15675.340
496.609, 15973.050
497.092, 16273.060
497.574, 16566.770
498.056, 16836.029
498.538, 17037.850
499.020, 17235.340
499.502, 17474.160
499.984, 17760.529
500.466, 18037.910
500.948, 18302.311
501.431, 18538.650
501.913, 18731.350
502.395, 18840.920
502.877, 18952.039
503.359, 19074.529
503.841, 19201.580
504.323, 19318.971
504.805, 19419.711
505.288, 19521.980
505.770, 19658.131
506.252, 19838.760
506.734, 19849.881
507.216, 19652.199
507.698, 19376.410
508.180, 19131.580
508.662, 18917.770
509.145, 18725.570
509.627, 18562.070
510.109, 18405.289
510.591, 18223.131
511.073, 18015.180
511.555, 17778.029
512.037, 17496.240
512.519, 17189.029
513.001, 16869.770
513.484, 16538.670
513.966, 16253.570
514.448, 16088.680
514.930, 15976.570
515.412, 15844.610
515.894, 15666.450
516.376, 15476.320
516.858, 15273.110
517.341, 15068.880
517.823, 14891.460
518.305, 14770.900
518.787, 14654.850
519.269, 14520.770
519.751, 14363.610
520.233, 14235.000
520.715, 14153.170
521.197, 14083.170
521.680, 14002.040
522.162, 13909.930
522.644, 13804.030
523.126, 13679.420
523.608, 13548.130
524.090, 13438.780
524.572, 13352.100
525.054, 13261.960
525.536, 13149.860
526.019, 13026.000
526.501, 12922.730
526.983, 12840.660
527.465, 12762.130
527.947, 12671.650
528.429, 12576.220
528.911, 12482.730
529.393, 12392.330
529.875, 12307.880
530.358, 12239.990
530.840, 12178.830
531.322, 12105.560
531.804, 11996.310
532.286, 11889.680
532.768, 11808.050
533.250, 11749.660
533.732, 11685.270
534.214, 11595.530
534.697, 11510.550
535.179, 11446.250
535.661, 11418.060
536.143, 11378.960
536.625, 11328.560
537.107, 11268.640
537.589, 11199.730
538.071, 11118.690
538.554, 11045.610
539.036, 10987.950
539.518, 10941.830
540.000, 10891.380
540.482, 10836.980
540.964, 10787.710
541.446, 10755.570
541.928, 10731.820
542.411, 10694.450
542.893, 10640.330
543.375, 10583.080
543.857, 10535.730
544.339, 10493.560
544.821, 10449.130
545.303, 10405.930
545.785, 10352.630
546.268, 10272.810
546.750, 10176.460
547.232, 10095.500
547.714, 10051.910
548.196, 10014.220
548.678, 9972.139
549.160, 9927.690
549.642, 9866.367
550.124, 9772.411
550.606, 9676.819
551.089, 9609.495
551.571, 9584.068
552.053, 9540.143
552.535, 9468.784
553.017, 9379.329
553.499, 9291.888
553.981, 9206.575
554.463, 9114.602
554.945, 8999.715
555.428, 8877.959
555.910, 8802.140
556.392, 8770.224
556.874, 8735.532
557.356, 8656.354
557.838, 8555.995
558.320, 8463.419
558.802, 8383.717
559.284, 8312.517
559.767, 8245.984
560.249, 8186.190
560.731, 8134.942
561.213, 8102.866
561.695, 8068.752
562.177, 8025.316
562.659, 7973.534
563.141, 7923.098
563.624, 7877.570
564.106, 7829.495
564.588, 7773.291
565.070, 7706.518
565.552, 7647.512
566.034, 7595.116
566.516, 7552.625
566.998, 7526.732
567.481, 7516.963
567.963, 7504.315
568.445, 7484.360
568.927, 7460.868
569.409, 7441.890
569.891, 7425.361
570.373, 7401.914
570.855, 7356.839
571.338, 7308.541
571.820, 7279.591
572.302, 7268.872
572.784, 7257.912
573.266, 7229.095
573.748, 7201.250
574.230, 7190.125
574.712, 7211.590
575.194, 7222.805
575.677, 7210.662
576.159, 7186.979
576.641, 7166.540
577.123, 7146.595
577.605, 7135.404
578.087, 7138.377
578.569, 7150.995
579.051, 7152.888
579.533, 7142.926
580.016, 7128.178
580.498, 7108.656
580.980, 7086.481
581.462, 7076.008
581.944, 7078.226
582.426, 7081.628
582.908, 7072.304
583.390, 7056.778
583.872, 7046.664
584.355, 7044.472
584.837, 7048.418
585.319, 7063.483
585.801, 7083.028
586.283, 7094.669
586.765, 7083.459
587.247, 7073.829
587.729, 7074.374
588.211, 7085.083
588.694, 7099.964
589.176, 7131.756
589.658, 7153.322
590.140, 7147.233
590.622, 7101.203
591.104, 7082.859
591.586, 7099.588
592.068, 7129.644
592.551, 7148.171
593.033, 7155.750
593.515, 7168.627
593.997, 7192.155
594.479, 7219.091
594.961, 7232.920
595.443, 7239.026
595.925, 7256.235
596.407, 7301.065
596.890, 7356.756
597.372, 7409.243
597.854, 7458.561
598.336, 7506.674
598.818, 7550.696
599.300, 7596.646
599.782, 7649.326
600.265, 7714.082
600.747, 7774.548
601.229, 7829.712
601.711, 7879.436
602.193, 7918.921
602.675, 7931.399
603.157, 7978.614
603.639, 8079.323
604.121, 8211.801
604.604, 8321.419
605.086, 8407.216
605.568, 8501.977
606.050, 8628.793
606.532, 8774.287
607.014, 8902.913
607.496, 9015.813
607.978, 9137.223
608.460, 9273.037
608.943, 9431.451
609.425, 9620.205
609.907, 9844.269
610.389, 10089.910
610.871, 10356.820
611.353, 10639.710
611.835, 10931.640
612.317, 11228.050
612.799, 11543.560
613.282, 11931.700
613.764, 12332.510
614.246, 12610.210
614.728, 12782.160
615.210, 12784.640
615.692, 12576.750
616.174, 12177.460
616.656, 11683.170
617.138, 11085.420
617.621, 10513.630
618.103, 10044.930
618.585, 9673.879
619.067, 9378.231
619.549, 9158.576
620.031, 8991.645
620.513, 8876.356
620.995, 8794.455
621.477, 8720.919
621.960, 8631.959
622.442, 8572.689
622.924, 8577.643
623.406, 8620.532
623.888, 8645.637
624.370, 8618.511
624.852, 8608.403
625.334, 8635.948
625.817, 8696.103
626.299, 8740.703
626.781, 8764.227
627.263, 8790.676
627.745, 8837.896
628.227, 8903.033
628.709, 8957.965
629.191, 9001.373
629.674, 9043.233
630.156, 9089.195
630.638, 9140.628
631.120, 9200.081
631.602, 9269.898
632.084, 9343.434
632.566, 9415.274
633.048, 9488.138
633.531, 9566.910
634.013, 9640.831
634.495, 9731.939
634.977, 9850.144
635.459, 9992.460
635.941, 10140.860
636.423, 10305.820
636.905, 10459.610
637.387, 10578.060
