##NAMES=Brochantite
##RRUFFID=R060117
##IDEAL CHEMISTRY=Cu^2+^_4_S^6+^O_4_(OH)_6_
##LOCALITY=M'sesa mine, Likasi, Katanga Province, Democratic Republic of the Congo
##OWNER=RRUFF
##SOURCE=University of Arizona Mineral Museum
##DESCRIPTION=Emerald-green thick acicular crystals
##STATUS=The identification of this mineral has been confirmed by X-ray diffraction and chemical analysis
##URL=rruff.info/R060117
##MEASURED CHEMISTRY=Cu_4.00_S_1.00_O_4_(OH)_6_
89.78156, 0.0000000E+00
90.26367, 13.61591
90.74579, 13.37056
91.22791, 13.49427
91.71002, 13.94281
92.19214, 14.32601
92.67426, 14.24522
93.15638, 13.84015
93.63850, 13.48139
94.12061, 13.29872
94.60273, 13.23919
95.08485, 13.21439
95.56696, 13.23633
96.04908, 13.21370
96.53120, 12.93324
97.01331, 12.41989
97.49543, 12.08145
97.97755, 12.20802
98.45966, 12.76495
98.94178, 13.11155
99.42390, 13.21013
99.90602, 13.14529
100.3881, 13.04835
100.8703, 12.89528
101.3524, 12.79522
101.8345, 12.85505
102.3166, 13.15788
102.7987, 13.23183
103.2808, 12.91904
103.7630, 12.35700
104.2451, 12.22458
104.7272, 12.86596
105.2093, 13.48022
105.6914, 13.48753
106.1735, 12.34435
106.6557, 11.53121
107.1378, 11.33760
107.6199, 11.78500
108.1020, 12.07202
108.5841, 11.97362
109.0662, 11.83503
109.5484, 11.96431
110.0305, 12.50811
110.5126, 13.17479
110.9947, 14.04114
111.4768, 15.25674
111.9590, 16.00877
112.4411, 15.66938
112.9232, 14.96340
113.4053, 14.83285
113.8874, 15.83804
114.3695, 17.12191
114.8517, 18.12508
115.3338, 18.14087
115.8159, 19.51863
116.2980, 24.26215
116.7801, 30.93811
117.2622, 36.37903
117.7444, 38.15920
118.2265, 39.09625
118.7086, 41.03878
119.1907, 44.66508
119.6728, 48.96840
120.1549, 53.51867
120.6371, 58.32096
121.1192, 63.41796
121.6013, 69.00538
122.0834, 74.79739
122.5655, 80.43812
123.0476, 85.62987
123.5298, 90.79398
124.0119, 96.29214
124.4940, 102.1158
124.9761, 108.1705
125.4582, 114.3622
125.9404, 120.6900
126.4225, 127.0999
126.9046, 133.2956
127.3867, 139.6446
127.8688, 146.7970
128.3509, 154.7878
128.8331, 163.2396
129.3152, 171.8216
129.7973, 180.5749
130.2794, 189.4792
130.7615, 198.4526
131.2436, 207.5737
131.7258, 216.7111
132.2079, 225.5998
132.6900, 235.2686
133.1721, 247.1748
133.6542, 261.2819
134.1364, 277.3792
134.6185, 296.0819
135.1006, 317.3790
135.5827, 339.0115
136.0648, 361.8641
136.5469, 384.0319
137.0291, 401.4375
137.5112, 414.0744
137.9933, 421.4218
138.4754, 422.0394
138.9575, 414.8897
139.4396, 407.2837
139.9218, 399.7024
140.4039, 392.3196
140.8860, 386.2580
141.3681, 381.9516
141.8502, 378.2723
142.3323, 374.1403
142.8145, 368.4586
143.2966, 364.9760
143.7787, 364.3580
144.2608, 366.5885
144.7429, 370.5942
145.2250, 376.6790
145.7072, 384.3255
146.1893, 393.1529
146.6714, 403.7256
147.1535, 414.6332
147.6356, 425.8255
148.1178, 437.4621
148.5999, 448.0063
149.0820, 456.1850
149.5641, 463.7670
150.0462, 472.7305
150.5283, 482.6982
151.0105, 494.3047
151.4926, 503.0999
151.9747, 512.8350
152.4568, 524.0307
152.9389, 539.2462
153.4210, 555.2222
153.9032, 567.6193
154.3853, 580.1644
154.8674, 585.5264
155.3495, 581.5466
155.8316, 567.7994
156.3137, 546.0573
156.7959, 512.1700
157.2780, 470.9329
157.7601, 431.5128
158.2422, 392.7330
158.7243, 358.0380
159.2065, 328.5888
159.6886, 304.7577
160.1707, 285.5544
160.6528, 271.7168
161.1349, 262.3143
161.6170, 254.9777
162.0992, 249.7303
162.5813, 245.6851
163.0634, 242.2663
163.5455, 239.3290
164.0276, 236.9900
164.5097, 235.4238
164.9919, 234.5316
165.4740, 233.9465
165.9561, 233.7490
166.4382, 233.6600
166.9203, 233.3848
167.4024, 232.1592
167.8846, 231.4225
168.3667, 232.2591
168.8488, 234.4971
169.3309, 237.0515
169.8130, 239.5904
170.2952, 241.9863
170.7773, 244.0347
171.2594, 245.1762
171.7415, 246.3356
172.2236, 248.3994
172.7057, 251.3188
173.1879, 254.4360
173.6700, 256.3111
174.1521, 258.1517
174.6342, 261.9876
175.1163, 270.0369
175.5984, 279.7946
176.0806, 288.0699
176.5627, 294.8838
177.0448, 301.8039
177.5269, 310.5072
178.0090, 320.3604
178.4911, 330.1144
178.9733, 339.1475
179.4554, 347.6660
179.9375, 356.0067
180.4196, 364.0730
180.9017, 372.2416
181.3838, 380.9842
181.8660, 390.1197
182.3481, 399.3391
182.8302, 408.1654
183.3123, 416.9449
183.7944, 426.6260
184.2766, 437.4671
184.7587, 448.4507
185.2408, 459.1966
185.7229, 469.4168
186.2050, 477.9069
186.6871, 484.3990
187.1693, 488.7451
187.6514, 489.6197
188.1335, 486.5701
188.6156, 481.5347
189.0977, 476.4494
189.5798, 471.3956
190.0620, 467.6210
190.5441, 465.3799
191.0262, 464.8000
191.5083, 466.8458
191.9904, 471.8746
192.4725, 478.8486
192.9547, 486.4420
193.4368, 494.7466
193.9189, 502.8658
194.4010, 511.0523
194.8831, 519.1497
195.3652, 525.0161
195.8474, 529.2487
196.3295, 530.0675
196.8116, 524.4967
197.2937, 512.7193
197.7758, 493.7528
198.2579, 465.3441
198.7401, 427.3089
199.2222, 387.9648
199.7043, 346.9738
200.1864, 306.6975
200.6685, 272.3133
201.1507, 244.3275
201.6328, 220.7399
202.1149, 200.8292
202.5970, 184.7471
203.0791, 170.6766
203.5612, 158.6494
204.0434, 148.5455
204.5255, 140.4465
205.0076, 134.6277
205.4897, 129.8517
205.9718, 125.4371
206.4539, 121.3713
206.9361, 117.7461
207.4182, 114.5838
207.9003, 111.8673
208.3824, 109.4625
208.8645, 107.3786
209.3466, 105.5673
209.8288, 103.9526
210.3109, 102.4901
210.7930, 101.4711
211.2751, 101.1346
211.7572, 101.2083
212.2393, 100.5691
212.7215, 98.91035
213.2036, 97.22647
213.6857, 96.16625
214.1678, 95.87676
214.6499, 95.70479
215.1320, 95.58746
215.6142, 95.54269
216.0963, 95.69844
216.5784, 96.19340
217.0605, 96.62440
217.5426, 96.74535
218.0247, 96.53596
218.5069, 96.02010
218.9890, 94.91877
219.4711, 93.50081
219.9532, 93.09908
220.4353, 94.12074
220.9175, 95.48145
221.3996, 96.52528
221.8817, 97.12886
222.3638, 97.70271
222.8459, 98.21034
223.3280, 98.71190
223.8102, 99.49863
224.2923, 100.7534
224.7744, 102.0317
225.2565, 103.0282
225.7386, 103.6049
226.2207, 104.2448
226.7029, 105.0956
227.1850, 106.0584
227.6671, 106.5506
228.1492, 106.3535
228.6313, 105.9969
229.1134, 105.8040
229.5956, 105.8640
230.0777, 105.8907
230.5598, 105.8919
231.0419, 105.8487
231.5240, 105.6155
232.0062, 104.9321
232.4883, 104.4142
232.9704, 104.4665
233.4525, 105.3530
233.9346, 106.2437
234.4167, 107.1652
234.8989, 108.0543
235.3810, 108.5568
235.8631, 108.3440
236.3452, 108.1831
236.8273, 108.5187
237.3094, 109.5112
237.7916, 110.6627
238.2737, 112.0845
238.7558, 113.6558
239.2379, 114.9099
239.7200, 115.8469
240.2021, 116.4657
240.6843, 116.7819
241.1664, 116.8358
241.6485, 116.4755
242.1306, 115.5228
242.6127, 114.1521
243.0948, 113.0701
243.5770, 112.4348
244.0591, 111.8705
244.5412, 111.1867
245.0233, 110.2909
245.5054, 109.4676
245.9876, 108.6644
246.4697, 107.9521
246.9518, 107.5461
247.4339, 107.5425
247.9160, 107.7011
248.3981, 107.8718
248.8803, 107.8830
249.3624, 108.3373
249.8445, 109.4174
250.3266, 110.9002
250.8087, 112.1631
251.2908, 113.0301
251.7730, 113.9394
252.2551, 115.0884
252.7372, 116.5895
253.2193, 118.0748
253.7014, 119.5933
254.1835, 121.0623
254.6657, 122.2915
255.1478, 123.3092
255.6299, 124.0377
256.1120, 124.3580
256.5941, 124.0091
257.0763, 124.1277
257.5584, 124.9621
258.0405, 126.1114
258.5226, 126.7723
259.0047, 126.8651
259.4868, 126.6489
259.9690, 126.1946
260.4511, 125.4754
260.9332, 124.6012
261.4153, 123.4055
261.8974, 122.1894
262.3795, 121.5363
262.8617, 121.6765
263.3438, 121.8044
263.8259, 121.5617
264.3080, 120.8335
264.7901, 120.6142
265.2722, 121.0880
265.7544, 121.8494
266.2365, 122.2557
266.7186, 122.1301
267.2007, 122.1943
267.6828, 122.7538
268.1649, 123.8602
268.6471, 124.6515
269.1292, 125.0469
269.6113, 125.2795
270.0934, 125.6297
270.5755, 126.1194
271.0576, 126.6658
271.5398, 127.2953
272.0219, 128.0053
272.5040, 128.5384
272.9861, 128.9396
273.4682, 129.0602
273.9503, 128.6553
274.4325, 127.6331
274.9146, 126.6004
275.3967, 125.7003
275.8788, 124.9089
276.3610, 124.1302
276.8431, 123.4027
277.3252, 122.5959
277.8073, 121.4368
278.2894, 119.8542
278.7715, 118.8037
279.2537, 118.6839
279.7358, 119.1891
280.2179, 118.9723
280.7000, 117.9256
281.1821, 116.6398
281.6642, 115.5949
282.1464, 114.7931
282.6285, 113.8523
283.1106, 112.6906
283.5927, 111.3674
284.0748, 110.0039
284.5569, 108.5826
285.0391, 107.2254
285.5212, 106.0450
286.0033, 105.0215
286.4854, 103.9467
286.9675, 102.8057
287.4496, 101.5806
287.9318, 100.1429
288.4139, 98.47594
288.8960, 96.96373
289.3781, 95.82594
289.8602, 95.02154
290.3423, 94.37038
290.8245, 93.88892
291.3066, 93.47623
291.7887, 92.87270
292.2708, 92.11975
292.7529, 91.63433
293.2350, 91.88284
293.7172, 92.59556
294.1993, 92.82352
294.6814, 92.42463
295.1635, 92.01280
295.6456, 92.37601
296.1277, 93.40324
296.6099, 94.63570
297.0920, 95.86954
297.5741, 97.14367
298.0562, 98.49787
298.5383, 99.91553
299.0204, 101.4743
299.5026, 103.3191
299.9847, 105.3622
300.4668, 107.4393
300.9489, 109.5320
301.4311, 111.5632
301.9132, 113.2327
302.3953, 114.5754
302.8774, 116.0824
303.3595, 118.5034
303.8416, 121.3239
304.3238, 123.6670
304.8059, 124.8175
305.2880, 125.7429
305.7701, 127.4101
306.2522, 129.7503
306.7343, 132.2456
307.2165, 134.6568
307.6986, 137.0158
308.1807, 139.3398
308.6628, 141.5664
309.1449, 143.9201
309.6270, 146.6123
310.1092, 149.6167
310.5913, 152.7694
311.0734, 156.0294
311.5555, 159.3807
312.0376, 162.8298
312.5197, 166.5097
313.0019, 169.9385
313.4840, 172.7564
313.9661, 175.1763
314.4482, 177.6602
314.9303, 180.8138
315.4124, 183.8070
315.8946, 186.2571
316.3767, 188.2317
316.8588, 189.1301
317.3409, 188.6247
317.8230, 186.9437
318.3051, 184.3989
318.7873, 181.0795
319.2694, 176.8932
319.7515, 171.5407
320.2336, 164.9359
320.7157, 158.3147
321.1978, 151.8958
321.6800, 145.7291
322.1621, 139.8858
322.6442, 134.1641
323.1263, 128.9863
323.6084, 124.5582
324.0905, 120.8486
324.5727, 117.3471
325.0548, 113.8484
325.5369, 110.6581
326.0190, 107.9714
326.5012, 106.0915
326.9833, 104.3725
327.4654, 102.7367
327.9475, 101.2238
328.4296, 100.0184
328.9117, 99.34724
329.3939, 98.78479
329.8760, 98.12711
330.3581, 97.07864
330.8402, 96.49200
331.3223, 96.64954
331.8044, 97.18458
332.2866, 97.33878
332.7687, 96.85348
333.2508, 96.35796
333.7329, 96.04205
334.2150, 95.93157
334.6971, 95.85052
335.1793, 95.70741
335.6614, 95.68102
336.1435, 96.07307
336.6256, 97.11205
337.1077, 97.97009
337.5898, 98.35981
338.0720, 98.32097
338.5541, 98.57638
339.0362, 99.29385
339.5183, 99.94449
340.0004, 99.86202
340.4825, 98.87002
340.9647, 98.44862
341.4468, 99.02634
341.9289, 100.2484
342.4110, 100.9156
342.8931, 100.9433
343.3752, 100.9286
343.8574, 101.2374
344.3395, 101.8633
344.8216, 102.7123
345.3037, 103.8129
345.7858, 105.0506
346.2679, 106.3063
346.7501, 107.5770
347.2322, 108.6567
347.7143, 109.2265
348.1964, 109.5103
348.6785, 110.3050
349.1607, 111.7076
349.6428, 113.2813
350.1249, 114.7646
350.6070, 116.0682
351.0891, 116.9167
351.5713, 116.6762
352.0534, 116.1592
352.5355, 116.6393
353.0176, 118.0888
353.4997, 119.8634
353.9818, 121.6317
354.4640, 123.3503
354.9461, 124.9604
355.4282, 126.3279
355.9103, 127.7119
356.3924, 129.1969
356.8745, 130.8553
357.3567, 132.9275
357.8388, 135.6383
358.3209, 138.7775
358.8030, 142.3250
359.2851, 146.5014
359.7672, 150.3939
360.2494, 152.8716
360.7315, 154.7874
361.2136, 157.6691
361.6957, 162.8643
362.1778, 168.5624
362.6599, 173.9060
363.1421, 178.7849
363.6242, 183.5923
364.1063, 187.8862
364.5884, 192.4112
365.0705, 197.8918
365.5526, 205.0438
366.0348, 212.5366
366.5169, 220.1541
366.9990, 227.8822
367.4811, 235.6445
367.9632, 243.4020
368.4453, 251.2392
368.9275, 259.1557
369.4096, 266.7805
369.8917, 274.9379
370.3738, 283.9077
370.8559, 293.4466
371.3380, 302.6724
371.8202, 311.2984
372.3023, 320.1325
372.7844, 329.5197
373.2665, 339.6587
373.7487, 349.3268
374.2308, 358.2861
374.7129, 367.0157
375.1950, 376.2631
375.6771, 386.0820
376.1592, 396.3643
376.6414, 407.3055
377.1235, 418.7992
377.6056, 430.2598
378.0877, 441.8792
378.5698, 453.1675
379.0519, 463.8568
379.5341, 473.8596
380.0162, 483.5908
380.4983, 493.0937
380.9804, 502.3106
381.4625, 510.9023
381.9446, 518.9704
382.4268, 525.8729
382.9089, 531.9216
383.3910, 536.5875
383.8731, 538.1450
384.3552, 536.2674
384.8373, 532.0942
385.3195, 526.8206
385.8016, 520.3534
386.2837, 512.2712
386.7658, 502.4923
387.2479, 491.0569
387.7300, 477.3435
388.2122, 461.4804
388.6943, 445.1249
389.1764, 429.2370
389.6585, 413.7687
390.1406, 399.0371
390.6227, 385.5110
391.1049, 372.1854
391.5870, 357.9469
392.0691, 343.3829
392.5512, 330.2651
393.0333, 320.1483
393.5154, 311.2206
393.9976, 302.2235
394.4797, 292.6696
394.9618, 284.1398
395.4439, 277.4460
395.9260, 271.9790
396.4081, 266.9497
396.8903, 262.0027
397.3724, 257.5958
397.8545, 253.8210
398.3366, 250.6860
398.8188, 248.0670
399.3009, 246.0405
399.7830, 244.4757
400.2651, 243.2811
400.7472, 242.2099
401.2293, 241.8916
401.7115, 242.5193
402.1936, 243.8996
402.6757, 245.5431
403.1578, 247.8144
403.6399, 249.7146
404.1220, 250.5730
404.6042, 250.0353
405.0863, 250.5579
405.5684, 252.2508
406.0505, 254.8094
406.5326, 257.9992
407.0147, 261.9194
407.4969, 265.7855
407.9790, 269.2712
408.4611, 272.5949
408.9432, 276.7248
409.4253, 281.6923
409.9074, 286.9547
410.3896, 292.1995
410.8717, 297.4323
411.3538, 302.6718
411.8359, 307.8407
412.3180, 313.0807
412.8001, 318.7306
413.2823, 324.5934
413.7644, 330.3023
414.2465, 335.2578
414.7286, 340.0854
415.2107, 345.7735
415.6928, 352.3296
416.1750, 359.2304
416.6571, 366.3540
417.1392, 373.4429
417.6213, 380.3976
418.1034, 387.0815
418.5855, 393.6302
419.0677, 400.1507
419.5498, 406.6083
420.0319, 412.6122
420.5140, 418.6155
420.9961, 423.7665
421.4782, 427.7095
421.9604, 430.6867
422.4425, 431.6553
422.9246, 429.8756
423.4067, 426.0925
423.8889, 421.2861
424.3710, 416.1059
424.8531, 409.3327
425.3352, 400.5089
425.8173, 389.6542
426.2994, 378.4103
426.7816, 366.7075
427.2637, 354.7793
427.7458, 342.7297
428.2279, 330.0861
428.7100, 318.0746
429.1921, 306.7392
429.6743, 296.1849
430.1564, 287.2758
430.6385, 280.3745
431.1206, 273.6954
431.6027, 266.1289
432.0848, 257.7306
432.5670, 251.5150
433.0491, 247.6831
433.5312, 245.1536
434.0133, 242.7740
434.4954, 240.6199
434.9775, 239.2354
435.4597, 238.8699
435.9418, 239.1962
436.4239, 239.6353
436.9060, 240.2294
437.3881, 241.2711
437.8702, 243.0566
438.3524, 245.3622
438.8345, 247.8093
439.3166, 250.3121
439.7987, 253.2592
440.2808, 257.3477
440.7629, 262.0248
441.2451, 266.3861
441.7272, 269.5494
442.2093, 272.7649
442.6914, 276.9464
443.1735, 281.9111
443.6556, 286.4129
444.1378, 289.6174
444.6199, 292.4908
445.1020, 295.6954
445.5841, 299.9106
446.0662, 303.3115
446.5483, 305.6194
447.0305, 306.9810
447.5126, 307.6387
447.9947, 307.8251
448.4768, 307.0428
448.9590, 304.8943
449.4411, 301.3515
449.9232, 298.2104
450.4053, 295.7856
450.8874, 293.2541
451.3695, 289.9755
451.8517, 285.7480
452.3338, 281.5608
452.8159, 277.5299
453.2980, 273.5995
453.7801, 269.6025
454.2622, 265.5710
454.7444, 261.4679
455.2265, 257.0211
455.7086, 252.4653
456.1907, 249.0235
456.6728, 246.6873
457.1549, 245.1028
457.6371, 244.0658
458.1192, 243.4810
458.6013, 243.0367
459.0834, 242.5095
459.5655, 242.3847
460.0476, 243.2161
460.5298, 244.8996
461.0119, 247.0673
461.4940, 249.3840
461.9761, 252.2475
462.4582, 256.1437
462.9403, 261.2068
463.4225, 266.3576
463.9046, 271.0871
464.3867, 275.7150
464.8688, 280.4290
465.3509, 284.6656
465.8330, 289.7269
466.3152, 296.4463
466.7973, 304.2981
467.2794, 311.3542
467.7615, 317.3826
468.2436, 322.8060
468.7257, 327.7160
469.2079, 331.9572
469.6900, 336.1427
470.1721, 340.3155
470.6542, 344.3449
471.1363, 348.1720
471.6184, 351.9100
472.1006, 354.9406
472.5827, 356.9768
473.0648, 358.3463
473.5469, 359.9951
474.0291, 361.9314
474.5112, 364.0637
474.9933, 366.4856
475.4754, 369.0924
475.9575, 371.4200
476.4396, 373.4425
476.9218, 375.2769
477.4039, 376.7032
477.8860, 378.0226
478.3681, 380.0170
478.8502, 383.5650
479.3323, 387.1038
479.8145, 389.6139
480.2966, 390.9438
480.7787, 390.5098
481.2608, 387.7152
481.7429, 383.2918
482.2250, 377.8190
482.7072, 371.4613
483.1893, 363.4674
483.6714, 352.5735
484.1535, 340.3382
484.6356, 328.3459
485.1177, 316.7287
485.5999, 305.4079
486.0820, 294.0577
486.5641, 282.9823
487.0462, 273.0663
487.5283, 264.8475
488.0104, 257.0498
488.4926, 248.8555
488.9747, 239.9970
489.4568, 232.9770
489.9389, 228.1629
490.4210, 224.6297
490.9031, 221.5368
491.3853, 218.8673
491.8674, 216.6295
492.3495, 214.8679
492.8316, 213.5113
493.3137, 212.4113
493.7958, 211.5651
494.2780, 211.0259
494.7601, 210.9274
495.2422, 211.1334
495.7243, 211.2656
496.2064, 211.2903
496.6885, 211.7726
497.1707, 213.6240
497.6528, 216.0799
498.1349, 218.0895
498.6170, 219.2117
499.0992, 220.0593
499.5813, 220.8612
500.0634, 221.6467
500.5455, 222.4963
501.0276, 223.8706
501.5097, 224.9229
501.9919, 225.3520
502.4740, 225.1223
502.9561, 224.3220
503.4382, 222.4402
503.9203, 220.3540
504.4024, 218.6954
504.8846, 217.9714
505.3667, 216.6739
505.8488, 214.6472
506.3309, 212.0546
506.8130, 209.2595
507.2951, 206.3163
507.7773, 202.9691
508.2594, 199.0002
508.7415, 194.5657
509.2236, 190.3597
509.7057, 186.3956
510.1878, 182.5099
510.6700, 178.5524
511.1521, 174.5401
511.6342, 170.3965
512.1163, 166.0745
512.5984, 161.8996
513.0806, 158.3238
513.5627, 155.1602
514.0448, 152.0188
514.5269, 148.7046
515.0090, 145.3723
515.4911, 141.9617
515.9733, 138.5317
516.4554, 135.5668
516.9375, 133.6853
517.4196, 131.9732
517.9017, 129.9072
518.3839, 127.3699
518.8660, 124.6003
519.3481, 121.3002
519.8302, 117.9398
520.3123, 115.0912
520.7944, 112.9686
521.2766, 110.9525
521.7587, 109.0413
522.2408, 107.1668
522.7229, 104.8980
523.2050, 102.0925
523.6871, 99.42678
524.1693, 97.26363
524.6514, 95.60584
525.1335, 94.12077
525.6156, 92.85274
526.0977, 91.43059
526.5798, 89.28996
527.0620, 86.65076
527.5441, 84.19498
528.0262, 82.09142
528.5083, 80.20914
528.9904, 78.46239
529.4725, 76.84991
529.9547, 75.38419
530.4368, 74.21103
530.9189, 73.08781
531.4010, 71.93303
531.8831, 70.72055
532.3652, 69.33083
532.8474, 67.14877
533.3295, 65.14955
533.8116, 63.99709
534.2937, 64.76149
534.7758, 64.67802
535.2579, 63.19384
535.7401, 61.07494
536.2222, 59.44545
536.7043, 58.37166
537.1864, 57.60142
537.6685, 57.21452
538.1506, 57.07258
538.6328, 56.44342
539.1149, 55.22059
539.5970, 54.14305
540.0791, 53.91444
540.5612, 54.27501
541.0433, 53.93676
541.5255, 52.80291
542.0076, 51.46966
542.4897, 50.27760
542.9718, 49.33511
543.4539, 48.91220
543.9360, 49.37308
544.4182, 49.86840
544.9003, 49.64354
545.3824, 48.94833
545.8645, 48.33879
546.3466, 48.26630
546.8287, 48.12570
547.3109, 47.49439
547.7930, 46.35114
548.2751, 45.58067
548.7572, 45.67286
549.2393, 45.89738
549.7214, 45.85290
550.2036, 45.36045
550.6857, 45.01377
551.1678, 44.88236
551.6499, 44.82605
552.1320, 44.63941
552.6141, 44.29718
553.0963, 43.97463
553.5784, 43.67348
554.0605, 43.45171
554.5426, 43.57289
555.0247, 44.01196
555.5068, 44.31224
555.9890, 44.04668
556.4711, 43.50995
556.9532, 43.24350
557.4353, 43.26734
557.9174, 43.32788
558.3995, 43.27787
558.8817, 43.14245
559.3638, 42.95922
559.8459, 42.78866
560.3281, 42.46663
560.8102, 41.60836
561.2923, 40.62897
561.7744, 40.18894
562.2565, 41.01159
562.7386, 41.72457
563.2208, 42.07333
563.7029, 42.08101
564.1850, 41.87516
564.6671, 41.26542
565.1492, 40.78465
565.6313, 40.73304
566.1135, 41.14513
566.5956, 41.53016
567.0777, 41.88729
567.5598, 42.21116
568.0419, 42.58498
568.5240, 42.95073
569.0062, 42.94051
569.4883, 42.32174
569.9704, 41.69200
570.4525, 41.97284
570.9346, 42.86699
571.4167, 43.59248
571.8989, 43.46326
572.3810, 43.32356
572.8631, 43.83961
573.3452, 44.92487
573.8273, 45.97344
574.3094, 46.58101
574.7916, 47.22236
575.2737, 48.15980
575.7558, 49.48000
576.2379, 50.88172
576.7200, 52.17341
577.2021, 53.67265
577.6843, 55.63953
578.1664, 57.99744
578.6485, 61.09436
579.1306, 65.25118
579.6127, 69.89211
580.0948, 73.94240
580.5770, 77.38503
581.0591, 80.85453
581.5412, 84.69356
582.0233, 88.63314
582.5054, 92.14951
582.9875, 95.20842
583.4697, 97.90205
583.9518, 99.63793
584.4339, 101.3421
584.9160, 104.0976
