##NAMES=Brochantite
##RRUFFID=R060133
##IDEAL CHEMISTRY=Cu^2+^_4_S^6+^O_4_(OH)_6_
##LOCALITY=Shattuck mine, Bisbee, Cochise County, Arizona, USA
##OWNER=RRUFF
##SOURCE=University of Arizona Mineral Museum
##DESCRIPTION=Deep green thick prismatic crystals
##STATUS=The identification of this mineral has been confirmed by X-ray diffraction and chemical analysis
##URL=rruff.info/R060133
##MEASURED CHEMISTRY=Cu_4.00_S_1.00_O_4_(OH)_6_
90.26367, 6.151137
90.74579, 6.281313
91.22791, 6.238022
91.71002, 6.038176
92.19214, 5.828544
92.67426, 5.750932
93.15637, 5.759645
93.63850, 5.735115
94.12061, 5.611778
94.60273, 5.435408
95.08485, 5.310175
95.56696, 5.239573
96.04908, 5.204182
96.53120, 5.190009
97.01331, 5.196527
97.49543, 5.208244
97.97755, 5.216279
98.45966, 5.221387
98.94178, 5.240951
99.42390, 5.278459
99.90602, 5.325624
100.3881, 5.354051
100.8703, 5.346868
101.3524, 5.383200
101.8345, 5.567642
102.3166, 5.994598
102.7987, 6.127472
103.2808, 5.800918
103.7630, 5.156365
104.2451, 4.861748
104.7272, 5.129753
105.2093, 5.462967
105.6914, 5.516754
106.1735, 5.063544
106.6557, 4.721052
107.1378, 4.594598
107.6199, 4.690410
108.1020, 4.759078
108.5841, 4.753049
109.0662, 4.745372
109.5484, 4.801380
110.0305, 4.997669
110.5126, 5.182163
110.9947, 5.317717
111.4768, 5.387661
111.9590, 5.490255
112.4411, 5.672560
112.9232, 5.884102
113.4053, 6.054573
113.8874, 6.038005
114.3695, 6.087816
114.8517, 6.323724
115.3338, 6.838973
115.8159, 7.335585
116.2980, 7.723747
116.7801, 8.035580
117.2622, 8.338996
117.7444, 8.502144
118.2265, 8.761463
118.7086, 9.265121
119.1907, 10.04400
119.6728, 11.08328
120.1549, 12.42403
120.6371, 14.03735
121.1192, 15.81395
121.6013, 17.59856
122.0834, 19.52657
122.5655, 21.76877
123.0477, 24.73089
123.5298, 27.71786
124.0119, 30.13306
124.4940, 31.99056
124.9761, 33.49529
125.4582, 34.56833
125.9404, 35.39618
126.4225, 36.33510
126.9046, 37.54670
127.3867, 38.94693
127.8688, 40.39333
128.3509, 41.87987
128.8331, 43.47139
129.3152, 45.22292
129.7973, 47.14352
130.2794, 49.22809
130.7615, 51.68856
131.2436, 54.34734
131.7258, 56.39642
132.2079, 57.62873
132.6900, 58.77042
133.1721, 61.03003
133.6542, 64.41119
134.1364, 68.04994
134.6185, 71.40479
135.1006, 74.52122
135.5827, 78.13012
136.0648, 82.28196
136.5469, 86.98713
137.0291, 92.32944
137.5112, 98.32333
137.9933, 104.7620
138.4754, 111.6195
138.9575, 118.8507
139.4396, 126.5996
139.9218, 135.4344
140.4039, 144.7478
140.8860, 151.9401
141.3681, 158.0883
141.8502, 160.0520
142.3323, 154.3336
142.8145, 137.4357
143.2966, 121.5936
143.7787, 108.3217
144.2608, 97.52341
144.7429, 89.90694
145.2251, 86.15028
145.7072, 84.89224
146.1893, 84.92541
146.6714, 86.74681
147.1535, 89.12029
147.6356, 91.91630
148.1178, 95.18633
148.5999, 98.44521
149.0820, 101.4655
149.5641, 104.5594
150.0462, 108.0665
150.5283, 112.2608
151.0105, 116.5497
151.4926, 119.7129
151.9747, 122.5990
152.4568, 125.4734
152.9389, 128.2654
153.4210, 131.0472
153.9032, 133.9736
154.3853, 137.3472
154.8674, 140.5621
155.3495, 143.6064
155.8316, 147.1183
156.3138, 149.0950
156.7959, 148.3090
157.2780, 145.8844
157.7601, 143.9357
158.2422, 143.0768
158.7243, 142.6559
159.2065, 142.2774
159.6886, 141.4587
160.1707, 141.3974
160.6528, 142.6469
161.1349, 144.9224
161.6170, 147.4872
162.0992, 150.0329
162.5813, 152.7980
163.0634, 155.9660
163.5455, 159.8425
164.0276, 163.7592
164.5097, 167.6939
164.9919, 171.5182
165.4740, 174.7129
165.9561, 176.7298
166.4382, 178.1421
166.9203, 179.4790
167.4025, 180.7648
167.8846, 182.1446
168.3667, 184.6144
168.8488, 187.7849
169.3309, 189.0631
169.8130, 186.8534
170.2952, 181.8670
170.7773, 174.9758
171.2594, 164.3093
171.7415, 153.4544
172.2236, 144.8698
172.7057, 138.5376
173.1879, 134.4712
173.6700, 133.2605
174.1521, 134.2536
174.6342, 136.3196
175.1163, 141.1066
175.5984, 145.7564
176.0806, 147.0555
176.5627, 145.0410
177.0448, 140.3779
177.5269, 132.3377
178.0090, 122.0319
178.4911, 111.8610
178.9733, 102.2154
179.4554, 93.63412
179.9375, 87.03228
180.4196, 82.54507
180.9017, 79.27750
181.3839, 76.56548
181.8660, 74.39428
182.3481, 72.61604
182.8302, 71.28536
183.3123, 70.30433
183.7944, 69.44450
184.2766, 68.68060
184.7587, 68.09513
185.2408, 67.82053
185.7229, 67.82957
186.2050, 67.94418
186.6871, 68.11990
187.1693, 68.33994
187.6514, 68.50054
188.1335, 68.56831
188.6156, 68.67752
189.0977, 69.00369
189.5798, 69.54362
190.0620, 70.26543
190.5441, 71.10435
191.0262, 72.09325
191.5083, 73.46765
191.9904, 75.31600
192.4725, 77.42390
192.9547, 79.41240
193.4368, 81.29143
193.9189, 83.28889
194.4010, 85.59865
194.8831, 88.19797
195.3652, 90.88028
195.8474, 93.88489
196.3295, 96.56975
196.8116, 97.79615
197.2937, 97.57736
197.7758, 95.88510
198.2579, 92.38576
198.7401, 87.04845
199.2222, 81.28067
199.7043, 74.97031
200.1864, 68.61963
200.6685, 63.35526
201.1507, 59.28642
201.6328, 55.92571
202.1149, 53.04916
202.5970, 50.66967
203.0791, 48.61691
203.5612, 46.88514
204.0434, 45.48460
204.5255, 44.53656
205.0076, 44.12800
205.4897, 43.87075
205.9718, 43.52022
206.4539, 43.04344
206.9361, 42.67265
207.4182, 42.43129
207.9003, 42.30833
208.3824, 42.28709
208.8645, 42.40991
209.3466, 42.52471
209.8288, 42.52820
210.3109, 42.39114
210.7930, 42.25385
211.2751, 42.06809
211.7572, 41.90557
212.2393, 42.07880
212.7215, 42.72057
213.2036, 43.40073
213.6857, 43.83367
214.1678, 43.94536
214.6499, 44.05585
215.1321, 44.17159
215.6142, 44.30914
216.0963, 44.53859
216.5784, 44.86760
217.0605, 45.26910
217.5426, 45.70462
218.0248, 46.10946
218.5069, 46.72746
218.9890, 47.60790
219.4711, 48.71995
219.9532, 49.91735
220.4353, 51.16677
220.9175, 52.57201
221.3996, 54.20995
221.8817, 56.05627
222.3638, 58.17929
222.8459, 60.65729
223.3280, 63.43916
223.8102, 66.07537
224.2923, 68.60884
224.7744, 71.00186
225.2565, 73.28801
225.7386, 75.72066
226.2208, 77.38728
226.7029, 77.94758
227.1850, 77.63529
227.6671, 77.64794
228.1492, 78.16776
228.6313, 78.75281
229.1135, 79.06680
229.5956, 78.75681
230.0777, 78.98528
230.5598, 79.96132
231.0419, 81.56210
231.5240, 83.19866
232.0062, 84.81996
232.4883, 86.54790
232.9704, 88.43168
233.4525, 90.37543
233.9346, 92.67941
234.4167, 95.40620
234.8989, 98.50649
235.3810, 101.7319
235.8631, 105.0819
236.3452, 108.6129
236.8273, 112.4165
237.3095, 116.6090
237.7916, 120.8153
238.2737, 125.1474
238.7558, 129.5001
239.2379, 133.6255
239.7200, 138.0981
240.2022, 141.5690
240.6843, 143.4026
241.1664, 143.6277
241.6485, 142.1419
242.1306, 138.7963
242.6127, 133.7354
243.0949, 127.5105
243.5770, 119.5513
244.0591, 111.1956
244.5412, 103.0941
245.0233, 94.87331
245.5054, 87.61263
245.9876, 81.34326
246.4697, 76.07641
246.9518, 71.72166
247.4339, 68.52931
247.9160, 65.85818
248.3981, 63.44069
248.8803, 61.22759
249.3624, 59.34736
249.8445, 57.84362
250.3266, 56.66104
250.8087, 55.64345
251.2909, 54.76445
251.7730, 54.10453
252.2551, 53.70692
252.7372, 53.57871
253.2193, 53.72622
253.7014, 54.36182
254.1836, 55.17833
254.6657, 55.39834
255.1478, 54.64832
255.6299, 53.95900
256.1120, 53.80108
256.5941, 54.41085
257.0763, 54.80835
257.5584, 54.97683
258.0405, 54.94892
258.5226, 54.76467
259.0047, 54.35011
259.4868, 53.92957
259.9690, 53.58971
260.4511, 53.34502
260.9332, 53.14063
261.4153, 53.06181
261.8974, 52.94631
262.3795, 52.50907
262.8617, 51.66447
263.3438, 50.69698
263.8259, 49.70996
264.3080, 48.73546
264.7901, 47.48510
265.2722, 45.79304
265.7544, 44.02204
266.2365, 42.75099
266.7186, 42.10906
267.2007, 41.57496
267.6829, 40.97514
268.1650, 40.28677
268.6471, 39.84615
269.1292, 39.71499
269.6113, 39.72114
270.0934, 39.63683
270.5756, 39.41802
271.0577, 39.27799
271.5398, 39.29286
272.0219, 39.45805
272.5040, 39.62097
272.9861, 39.80624
273.4683, 39.93330
273.9504, 39.88888
274.4325, 39.63902
274.9146, 39.40541
275.3967, 39.23665
275.8788, 39.12745
276.3610, 39.05267
276.8431, 39.01703
277.3252, 39.00330
277.8073, 39.01039
278.2894, 39.04384
278.7715, 39.03507
279.2537, 38.95863
279.7358, 38.83279
280.2179, 38.71955
280.7000, 38.61163
281.1821, 38.55003
281.6642, 38.55489
282.1464, 38.62606
282.6285, 38.81197
283.1106, 39.16230
283.5927, 39.59755
284.0748, 39.88977
284.5569, 40.02714
285.0391, 40.13252
285.5212, 40.22247
286.0033, 40.31493
286.4854, 40.67296
286.9675, 41.41266
287.4496, 42.30352
287.9318, 42.84446
288.4139, 43.03385
288.8960, 43.20969
289.3781, 43.62762
289.8602, 44.22851
290.3424, 44.68875
290.8245, 44.94612
291.3066, 45.14813
291.7887, 45.51172
292.2708, 46.02948
292.7530, 46.62307
293.2351, 47.33351
293.7172, 48.09283
294.1993, 48.57884
294.6814, 48.71150
295.1635, 48.89940
295.6457, 49.66343
296.1278, 50.93002
296.6099, 52.39281
297.0920, 53.88450
297.5741, 55.45846
298.0562, 57.20878
298.5384, 59.12384
299.0205, 61.17616
299.5026, 63.40426
299.9847, 65.74070
300.4668, 68.08413
300.9489, 70.30264
301.4311, 72.51172
301.9132, 74.89005
302.3953, 77.44666
302.8774, 79.86826
303.3595, 81.83997
303.8416, 83.53014
304.3238, 85.29200
304.8059, 87.26833
305.2880, 89.28722
305.7701, 91.14028
306.2522, 92.85556
306.7343, 94.49187
307.2165, 95.88409
307.6986, 97.30900
308.1807, 99.12627
308.6628, 101.5426
309.1449, 104.2208
309.6270, 106.8646
310.1092, 109.5767
310.5913, 112.6076
311.0734, 116.2727
311.5555, 120.2312
312.0376, 124.1376
312.5197, 127.9031
313.0019, 131.7009
313.4840, 135.8346
313.9661, 140.1202
314.4482, 144.2187
314.9304, 148.2792
315.4125, 151.9048
315.8946, 154.9992
316.3767, 157.7192
316.8588, 159.0974
317.3409, 158.9288
317.8231, 157.1678
318.3052, 153.7684
318.7873, 148.0477
319.2694, 141.2346
319.7515, 133.5105
320.2336, 124.8260
320.7158, 116.2912
321.1979, 108.0235
321.6800, 100.2058
322.1621, 93.03860
322.6442, 86.40701
323.1263, 80.58537
323.6085, 75.71483
324.0906, 71.77275
324.5727, 68.39408
325.0548, 65.83814
325.5369, 63.66655
326.0190, 61.62282
326.5012, 59.58742
326.9833, 57.78886
327.4654, 56.21656
327.9475, 54.89234
328.4296, 53.92686
328.9117, 53.49283
329.3939, 53.26715
329.8760, 53.12114
330.3581, 53.04428
330.8402, 53.06599
331.3223, 53.19906
331.8044, 53.42535
332.2866, 53.72224
332.7687, 54.17134
333.2508, 54.56161
333.7329, 54.79045
334.2150, 54.78695
334.6971, 54.96818
335.1793, 55.36854
335.6614, 55.92260
336.1435, 56.54784
336.6256, 57.26023
337.1077, 58.01891
337.5899, 58.79714
338.0720, 59.60722
338.5541, 60.46870
339.0362, 61.37761
339.5183, 62.36627
340.0005, 63.50197
340.4826, 64.83585
340.9647, 66.02691
341.4468, 66.98329
341.9289, 67.77405
342.4110, 68.56241
342.8932, 69.30202
343.3753, 70.29571
343.8574, 71.91907
344.3395, 74.12651
344.8216, 75.94921
345.3037, 77.19782
345.7859, 78.20877
346.2680, 79.60413
346.7501, 81.36870
347.2322, 83.06963
347.7143, 84.48865
348.1964, 85.67332
348.6786, 86.78751
349.1607, 87.84989
349.6428, 88.84872
350.1249, 89.89171
350.6070, 90.89530
351.0891, 91.60757
351.5713, 91.75471
352.0534, 91.62629
352.5355, 91.58498
353.0176, 91.63534
353.4997, 91.84470
353.9818, 92.19633
354.4640, 92.75407
354.9461, 93.65336
355.4282, 95.10072
355.9103, 96.67752
356.3924, 97.98341
356.8745, 99.09549
357.3567, 100.2848
357.8388, 101.5830
358.3209, 103.0983
358.8030, 104.9629
359.2851, 107.2415
359.7672, 109.7285
360.2494, 112.5385
360.7315, 115.4747
361.2136, 118.1305
361.6957, 120.0573
362.1779, 121.9372
362.6600, 124.1227
363.1421, 126.6735
363.6242, 129.2801
364.1063, 131.9357
364.5884, 134.5763
365.0706, 137.1137
365.5527, 139.5358
366.0348, 141.8378
366.5169, 143.8520
366.9990, 145.6170
367.4811, 147.7704
367.9633, 150.8166
368.4454, 153.9709
368.9275, 156.7585
369.4096, 158.4397
369.8917, 160.7476
370.3738, 163.9341
370.8560, 167.7722
371.3381, 171.5743
371.8202, 175.3756
372.3023, 179.1394
372.7844, 182.7117
373.2665, 185.8327
373.7487, 189.8043
374.2308, 194.9620
374.7129, 200.6331
375.1950, 205.9540
375.6771, 210.7752
376.1592, 215.7730
376.6414, 221.1860
377.1235, 226.9706
377.6056, 232.9018
378.0877, 239.0560
378.5698, 245.2750
379.0519, 251.6507
379.5341, 258.1353
380.0162, 264.1844
380.4983, 269.5582
380.9804, 274.5722
381.4625, 280.0401
381.9446, 286.0040
382.4268, 290.9719
382.9089, 294.1722
383.3910, 295.6857
383.8731, 295.8331
384.3553, 294.6060
384.8374, 292.1150
385.3195, 288.5952
385.8016, 283.9590
386.2837, 277.8393
386.7658, 269.7936
387.2480, 260.3965
387.7301, 249.9323
388.2122, 238.4805
388.6943, 226.8022
389.1764, 215.2232
389.6585, 203.9019
390.1407, 193.2616
390.6228, 183.3911
391.1049, 174.2640
391.5870, 166.2030
392.0691, 159.0045
392.5512, 152.0560
393.0334, 144.8039
393.5155, 137.9013
393.9976, 131.8149
394.4797, 126.7442
394.9618, 122.0164
395.4439, 117.5952
395.9261, 113.3447
396.4082, 109.1017
396.8903, 104.4372
397.3724, 100.1113
397.8545, 96.34690
398.3366, 93.16343
398.8188, 90.15262
399.3009, 87.30390
399.7830, 84.60950
400.2651, 82.06470
400.7472, 79.60387
401.2293, 77.38112
401.7115, 75.34714
402.1936, 73.54838
402.6757, 72.14699
403.1578, 71.25520
403.6399, 70.56444
404.1220, 69.94751
404.6042, 69.37678
405.0863, 69.02495
405.5684, 68.92192
406.0505, 68.99426
406.5326, 69.21115
407.0147, 69.60911
407.4969, 69.85812
407.9790, 69.77493
408.4611, 69.49804
408.9432, 69.61887
409.4254, 70.16235
409.9075, 70.84782
410.3896, 71.49507
410.8717, 72.10999
411.3538, 72.70970
411.8359, 73.27624
412.3181, 73.86442
412.8002, 74.59457
413.2823, 75.41833
413.7644, 76.19638
414.2465, 76.71029
414.7286, 77.19416
415.2108, 78.01936
415.6929, 79.20290
416.1750, 80.44355
416.6571, 81.56055
417.1392, 82.57204
417.6213, 83.53993
418.1035, 84.44308
418.5856, 85.33762
419.0677, 86.26210
419.5498, 87.20690
420.0319, 88.09866
420.5140, 89.22563
420.9962, 90.07722
421.4783, 90.27383
421.9604, 89.51252
422.4425, 88.78060
422.9246, 88.49052
423.4067, 88.30056
423.8889, 87.73606
424.3710, 86.75091
424.8531, 85.36915
425.3352, 83.51723
425.8173, 81.19859
426.2994, 78.87389
426.7816, 76.52840
427.2637, 74.21146
427.7458, 71.95093
428.2279, 69.68019
428.7100, 67.55320
429.1921, 65.56443
429.6743, 63.74916
430.1564, 62.29485
430.6385, 61.26276
431.1206, 60.35295
431.6028, 59.41638
432.0849, 58.45642
432.5670, 57.73246
433.0491, 57.24218
433.5312, 56.99305
434.0133, 57.10165
434.4955, 57.50916
434.9776, 57.78352
435.4597, 57.70647
435.9418, 57.58355
436.4239, 58.02086
436.9060, 58.94765
437.3882, 59.93399
437.8703, 60.55297
438.3524, 61.11703
438.8345, 62.12628
439.3166, 63.67795
439.7987, 65.36475
440.2809, 66.91093
440.7630, 68.37683
441.2451, 69.84053
441.7272, 71.24223
442.2093, 72.72581
442.6914, 74.54701
443.1736, 76.61028
443.6557, 78.28910
444.1378, 79.21014
444.6199, 79.77743
445.1020, 80.24662
445.5841, 80.76435
446.0663, 80.97486
446.5484, 80.76602
447.0305, 80.23635
447.5126, 79.53876
447.9947, 78.60384
448.4768, 77.60713
448.9590, 76.57342
449.4411, 75.50617
449.9232, 74.41072
450.4053, 73.23363
450.8874, 72.08717
451.3695, 71.03790
451.8517, 70.04825
452.3338, 69.30290
452.8159, 68.86507
453.2980, 68.63392
453.7801, 68.37846
454.2622, 68.08878
454.7444, 67.94843
455.2265, 68.07745
455.7086, 68.43004
456.1907, 68.79530
456.6729, 69.17313
457.1550, 69.63294
457.6371, 70.31377
458.1192, 71.13115
458.6013, 71.87243
459.0834, 72.39743
459.5656, 72.97901
460.0477, 73.92444
460.5298, 75.17465
461.0119, 76.50084
461.4940, 77.74180
461.9761, 79.07058
462.4583, 80.64429
462.9404, 82.50043
463.4225, 84.43704
463.9046, 86.15768
464.3867, 88.02433
464.8688, 90.33629
465.3510, 93.55795
465.8331, 96.80683
466.3152, 99.85320
466.7973, 102.7664
467.2794, 105.7849
467.7615, 109.0198
468.2437, 112.3134
468.7258, 115.6859
469.2079, 119.1769
469.6900, 122.3647
470.1721, 125.1329
470.6542, 127.6953
471.1364, 130.2988
471.6185, 133.0078
472.1006, 135.4547
472.5827, 137.4214
473.0648, 139.1790
473.5469, 141.6211
474.0291, 144.7934
474.5112, 148.1192
474.9933, 151.2234
475.4754, 154.1951
475.9575, 157.4154
476.4396, 160.9042
476.9218, 164.6127
477.4039, 168.7307
477.8860, 173.0000
478.3681, 176.7708
478.8503, 179.7625
479.3324, 182.2620
479.8145, 184.7153
480.2966, 186.9761
480.7787, 188.4281
481.2608, 188.8882
481.7430, 188.3821
482.2251, 186.9638
482.7072, 184.6720
483.1893, 181.2734
483.6714, 176.1921
484.1535, 170.1714
484.6357, 163.9722
485.1178, 157.3035
485.5999, 150.8869
486.0820, 144.5205
486.5641, 138.4523
487.0462, 133.5014
487.5284, 130.1222
488.0105, 127.2474
488.4926, 124.3489
488.9747, 121.3036
489.4568, 119.2400
489.9389, 118.3762
490.4211, 118.1329
490.9032, 117.8896
491.3853, 117.6249
491.8674, 117.6776
492.3495, 118.1413
492.8316, 118.9307
493.3138, 119.8982
493.7959, 121.0405
494.2780, 122.2969
494.7601, 123.5770
495.2422, 124.9550
495.7243, 126.5629
496.2065, 128.4317
496.6886, 130.4033
497.1707, 132.4614
497.6528, 134.5533
498.1349, 136.6313
498.6170, 138.8531
499.0992, 140.8341
499.5813, 142.3317
500.0634, 143.4409
500.5455, 144.4149
501.0276, 145.5388
501.5097, 146.3602
501.9919, 146.6855
502.4740, 146.4656
502.9561, 145.9749
503.4382, 145.1760
503.9203, 144.1511
504.4025, 142.9493
504.8846, 141.6192
505.3667, 140.0465
505.8488, 138.2146
506.3309, 136.1545
506.8130, 133.9171
507.2952, 131.4994
507.7773, 128.9583
508.2594, 126.3350
508.7415, 123.6357
509.2236, 120.7101
509.7057, 117.5433
510.1879, 114.3585
510.6700, 111.3029
511.1521, 108.3556
511.6342, 105.4063
512.1163, 102.4639
512.5984, 99.52942
513.0806, 96.49331
513.5627, 93.47912
514.0448, 90.74548
514.5269, 88.51998
515.0090, 86.51794
515.4911, 84.65211
515.9733, 82.87740
516.4554, 80.99330
516.9375, 78.77602
517.4196, 76.51240
517.9017, 74.34769
518.3839, 72.24873
518.8660, 70.36649
519.3481, 68.93272
519.8302, 67.63362
520.3123, 66.15633
520.7944, 64.34513
521.2766, 62.63149
521.7587, 61.12444
522.2408, 59.76401
522.7229, 58.22700
523.2050, 56.45292
523.6871, 54.72970
524.1693, 53.21490
524.6514, 51.91669
525.1335, 50.60965
525.6156, 49.28585
526.0977, 47.97503
526.5798, 46.71312
527.0620, 45.47034
527.5441, 44.15978
528.0262, 42.71118
528.5083, 41.29174
528.9904, 40.13534
529.4725, 39.16488
529.9547, 38.20206
530.4368, 37.07512
530.9189, 36.00227
531.4010, 35.16271
531.8831, 34.54819
532.3652, 33.97376
532.8474, 33.45311
533.3295, 32.88942
533.8116, 32.19890
534.2937, 31.18980
534.7758, 30.38317
535.2579, 29.93058
535.7401, 29.61842
536.2222, 29.13215
536.7043, 28.32142
537.1865, 27.68081
537.6686, 27.36788
538.1507, 27.29824
538.6328, 27.09003
539.1149, 26.72378
539.5970, 26.32948
540.0792, 25.98453
540.5613, 25.67752
541.0434, 25.37016
541.5255, 25.05777
542.0076, 24.77636
542.4897, 24.57513
542.9719, 24.42666
543.4540, 24.27868
543.9361, 24.13650
544.4182, 23.95911
544.9003, 23.66113
545.3824, 23.30518
545.8646, 23.03068
546.3467, 22.97555
546.8288, 22.94081
547.3109, 22.83117
547.7930, 22.64152
548.2751, 22.46474
548.7573, 22.33527
549.2394, 22.20632
549.7215, 22.05038
550.2036, 21.84353
550.6857, 21.66314
551.1678, 21.50692
551.6500, 21.37952
552.1321, 21.30367
552.6142, 21.29258
553.0963, 21.23729
553.5784, 21.08301
554.0605, 20.89407
554.5427, 20.86876
555.0248, 20.99766
555.5069, 21.10992
555.9890, 21.09222
556.4711, 20.99354
556.9532, 20.88178
557.4354, 20.76002
557.9175, 20.66733
558.3996, 20.67006
558.8817, 20.70166
559.3638, 20.68666
559.8459, 20.58787
560.3281, 20.48078
560.8102, 20.35600
561.2923, 20.25136
561.7744, 20.22773
562.2565, 20.40752
562.7386, 20.54644
563.2208, 20.57687
563.7029, 20.51631
564.1850, 20.49152
564.6671, 20.52788
565.1492, 20.55564
565.6313, 20.53828
566.1135, 20.47281
566.5956, 20.38918
567.0777, 20.27037
567.5598, 20.19556
568.0419, 20.29583
568.5240, 20.52930
569.0062, 20.68452
569.4883, 20.71234
569.9704, 20.66176
570.4525, 20.50438
570.9346, 20.31030
571.4167, 20.26538
571.8989, 20.62027
572.3810, 21.01470
572.8631, 21.17165
573.3452, 21.12354
573.8273, 21.12189
574.3094, 21.31594
574.7916, 21.53804
575.2737, 21.68738
575.7558, 21.71015
576.2379, 21.80077
576.7200, 21.92967
577.2021, 22.15257
577.6843, 22.53802
578.1664, 23.13953
578.6485, 23.73244
579.1306, 24.28659
579.6127, 24.83664
580.0948, 25.50541
580.5770, 26.29053
581.0591, 26.99496
581.5412, 27.47839
582.0233, 27.85767
582.5054, 28.41624
582.9875, 29.12468
583.4697, 29.81893
583.9518, 30.32626
584.4340, 30.78477
584.9161, 31.33715
585.3982, 32.00127
585.8803, 32.73988
