##NAMES=Brochantite
##RRUFFID=R100199
##IDEAL CHEMISTRY=Cu^2+^_4_S^6+^O_4_(OH)_6_
##LOCALITY=Milpillas mine, Municipio de Santa Cruz, Sonora, Mexico
##OWNER=RRUFF
##SOURCE=Donald K Olson
##DESCRIPTION=Loose green acicular crystals, MDO1 polytype
##STATUS=The identification of this mineral has been confirmed by single-crystal X-ray diffraction.
##URL=rruff.info/R100199
122.9073, 82.55624
123.3894, 81.53588
123.8715, 80.05692
124.3536, 77.91866
124.8357, 76.83524
125.3178, 77.20403
125.8000, 77.46522
126.2821, 76.82439
126.7642, 75.52760
127.2463, 74.53922
127.7284, 74.46998
128.2105, 74.86054
128.6927, 74.79896
129.1748, 74.03405
129.6569, 73.18305
130.1390, 73.01336
130.6211, 73.70142
131.1032, 74.00977
131.5854, 72.89871
132.0675, 71.29569
132.5496, 70.03498
133.0317, 69.45187
133.5138, 69.34336
133.9959, 69.27258
134.4781, 69.43571
134.9602, 69.28331
135.4423, 68.37622
135.9244, 67.16950
136.4065, 66.30723
136.8886, 66.24368
137.3708, 66.89298
137.8529, 67.06345
138.3350, 66.24744
138.8171, 65.42574
139.2992, 64.73663
139.7813, 64.21709
140.2635, 63.90583
140.7456, 63.87770
141.2277, 64.19997
141.7098, 64.13980
142.1919, 63.47768
142.6740, 62.70451
143.1561, 62.04610
143.6383, 61.53310
144.1204, 61.10246
144.6025, 60.69300
145.0846, 60.30620
145.5667, 59.98068
146.0488, 59.71608
146.5310, 59.51599
147.0131, 59.41909
147.4952, 59.45265
147.9773, 59.48402
148.4594, 59.39122
148.9415, 59.19143
149.4237, 58.81707
149.9058, 58.02787
150.3879, 57.02616
150.8700, 56.43601
151.3521, 56.58305
151.8342, 56.85832
152.3164, 56.68839
152.7985, 56.12895
153.2806, 55.59945
153.7627, 55.54963
154.2448, 55.99607
154.7269, 56.06842
155.2091, 55.32118
155.6912, 54.39085
156.1733, 53.41680
156.6554, 52.47644
157.1375, 51.81741
157.6196, 51.85649
158.1018, 52.95504
158.5839, 53.69498
159.0660, 53.90163
159.5481, 53.84929
160.0302, 53.58267
160.5123, 53.15685
160.9945, 52.74136
161.4766, 52.66133
161.9587, 53.36575
162.4408, 53.73171
162.9229, 53.50904
163.4050, 53.08895
163.8871, 52.82005
164.3693, 52.83254
164.8514, 53.03487
165.3335, 53.21816
165.8156, 53.56841
166.2977, 53.63901
166.7798, 53.24406
167.2620, 52.56405
167.7441, 51.80851
168.2262, 51.02037
168.7083, 50.32152
169.1904, 50.11949
169.6725, 50.67461
170.1547, 51.14012
170.6368, 51.16777
171.1189, 50.83204
171.6010, 50.35097
172.0831, 49.70477
172.5652, 49.07307
173.0474, 48.76569
173.5295, 48.86988
174.0116, 49.12784
174.4937, 49.46550
174.9758, 49.88343
175.4579, 50.04233
175.9401, 49.60536
176.4222, 48.90786
176.9043, 48.25897
177.3864, 47.65718
177.8685, 47.24572
178.3506, 47.27571
178.8328, 47.87685
179.3149, 48.46158
179.7970, 49.09501
180.2791, 49.50767
180.7612, 49.30325
181.2433, 48.25130
181.7255, 46.85010
182.2076, 46.21556
182.6897, 46.83337
183.1718, 47.36401
183.6539, 47.44808
184.1360, 47.34689
184.6181, 47.36488
185.1003, 47.66250
185.5824, 48.09639
186.0645, 48.14561
186.5466, 47.36111
187.0287, 46.71534
187.5108, 46.34583
187.9930, 46.18346
188.4751, 46.18440
188.9572, 46.33933
189.4393, 46.58033
189.9214, 46.51291
190.4035, 45.61067
190.8857, 44.98529
191.3678, 45.09232
191.8499, 44.49948
192.3320, 45.77440
192.8141, 46.44393
193.2962, 46.54058
193.7784, 44.34855
194.2605, 45.11188
194.7426, 44.69085
195.2247, 44.22124
195.7068, 45.40053
196.1889, 43.54140
196.6711, 44.69451
197.1532, 44.64521
197.6353, 45.14623
198.1174, 44.45557
198.5995, 44.13298
199.0816, 45.00246
199.5638, 45.21186
200.0459, 44.38402
200.5280, 43.68528
201.0101, 44.03559
201.4922, 44.19326
201.9743, 43.98960
202.4565, 43.73806
202.9386, 43.77122
203.4207, 44.10064
203.9028, 44.30107
204.3849, 43.91012
204.8670, 43.33027
205.3492, 43.18409
205.8313, 43.79451
206.3134, 44.60304
206.7955, 44.93406
207.2776, 44.73297
207.7597, 44.30326
208.2419, 43.43644
208.7240, 42.53819
209.2061, 42.05975
209.6882, 42.21572
210.1703, 42.70456
210.6524, 42.99178
211.1346, 42.95603
211.6167, 43.03045
212.0988, 43.33598
212.5809, 43.80743
213.0630, 44.45826
213.5451, 45.32636
214.0273, 46.23008
214.5094, 46.76075
214.9915, 46.85283
215.4736, 46.63314
215.9557, 45.97656
216.4378, 45.15305
216.9200, 44.42823
217.4021, 43.92585
217.8842, 43.55931
218.3663, 43.07191
218.8484, 42.16301
219.3305, 41.59481
219.8127, 41.50298
220.2948, 41.73994
220.7769, 42.26325
221.2590, 43.05453
221.7411, 43.91124
222.2232, 44.22667
222.7054, 43.34035
223.1875, 42.66443
223.6696, 42.40130
224.1517, 42.34637
224.6338, 42.21231
225.1159, 41.86767
225.5980, 41.47527
226.0802, 41.51630
226.5623, 42.47113
227.0444, 43.30151
227.5265, 44.08199
228.0086, 44.65548
228.4907, 44.70781
228.9729, 44.08335
229.4550, 43.09373
229.9371, 42.56210
230.4192, 42.74764
230.9013, 42.94815
231.3834, 43.10289
231.8656, 43.20031
232.3477, 43.21359
232.8298, 43.12689
233.3119, 42.97478
233.7940, 42.84483
234.2761, 42.81729
234.7583, 42.62856
235.2404, 41.95852
235.7225, 41.12182
236.2046, 40.67400
236.6867, 40.82184
237.1688, 41.36440
237.6510, 42.09237
238.1331, 43.10155
238.6152, 43.79392
239.0973, 43.84379
239.5794, 43.44198
240.0615, 42.95918
240.5437, 42.44460
241.0258, 41.97466
241.5079, 41.58401
241.9900, 41.24574
242.4721, 41.19586
242.9542, 41.78232
243.4364, 42.73830
243.9185, 43.33396
244.4006, 43.29657
244.8827, 43.11118
245.3648, 43.37176
245.8469, 44.00552
246.3290, 44.42250
246.8112, 44.11659
247.2933, 43.35179
247.7754, 42.96158
248.2575, 43.19678
248.7396, 43.58289
249.2217, 43.81316
249.7039, 43.89622
250.1860, 43.83606
250.6681, 43.60360
251.1502, 43.22437
251.6323, 42.77026
252.1144, 42.18245
252.5966, 41.62582
253.0787, 41.13630
253.5608, 40.74100
254.0429, 40.50885
254.5250, 40.58426
255.0071, 40.86041
255.4893, 40.88456
255.9714, 40.43553
256.4535, 40.09290
256.9356, 40.25330
257.4177, 40.65741
257.8998, 40.85417
258.3820, 40.49118
258.8641, 39.79202
259.3462, 39.61321
259.8283, 40.43392
260.3104, 40.98108
260.7925, 40.65911
261.2747, 39.91541
261.7568, 39.33057
262.2389, 39.19400
262.7210, 39.38554
263.2031, 39.55701
263.6852, 39.66798
264.1674, 39.83264
264.6495, 40.21322
265.1316, 40.59906
265.6137, 40.74797
266.0958, 40.55023
266.5779, 40.12183
267.0601, 39.71389
267.5422, 39.25881
268.0243, 38.96660
268.5064, 38.84784
268.9885, 38.88168
269.4706, 39.16981
269.9528, 39.72929
270.4349, 40.26752
270.9170, 40.15512
271.3991, 38.87028
271.8812, 37.95995
272.3633, 37.52171
272.8455, 37.43129
273.3276, 37.75627
273.8097, 38.44726
274.2918, 39.16926
274.7739, 39.37625
275.2560, 38.73170
275.7382, 38.27323
276.2202, 38.06570
276.7024, 37.95254
277.1845, 37.81128
277.6666, 37.63857
278.1487, 37.54852
278.6308, 37.73099
279.1129, 38.39397
279.5951, 38.58343
280.0772, 37.81650
280.5593, 37.07760
281.0414, 36.95884
281.5235, 37.40856
282.0056, 37.95802
282.4878, 38.14706
282.9699, 37.90681
283.4520, 37.80900
283.9341, 38.22889
284.4162, 38.41413
284.8983, 37.69604
285.3805, 36.43062
285.8626, 35.60617
286.3447, 36.06366
286.8268, 37.77038
287.3089, 38.81320
287.7910, 38.76032
288.2732, 38.56958
288.7553, 38.47686
289.2374, 38.44189
289.7195, 38.37057
290.2016, 38.21833
290.6837, 37.96034
291.1659, 37.43000
291.6480, 35.90951
292.1301, 34.95937
292.6122, 35.33500
293.0943, 36.31043
293.5764, 36.76040
294.0586, 36.14948
294.5407, 34.99493
295.0228, 34.69866
295.5049, 36.52066
295.9870, 37.68385
296.4691, 37.69315
296.9513, 37.16851
297.4334, 36.69408
297.9155, 36.47147
298.3976, 36.46894
298.8797, 36.67847
299.3618, 37.57953
299.8440, 37.70827
300.3261, 36.14145
300.8082, 34.39496
301.2903, 33.83415
301.7724, 34.65218
302.2545, 35.91027
302.7367, 36.53387
303.2188, 36.35753
303.7009, 36.05275
304.1830, 35.46761
304.6651, 34.88764
305.1472, 34.42909
305.6294, 34.12831
306.1115, 34.04039
306.5936, 34.23208
307.0757, 34.72154
307.5578, 35.21337
308.0399, 35.91555
308.5221, 36.42122
309.0042, 36.43421
309.4863, 36.09113
309.9684, 35.76753
310.4505, 35.72040
310.9326, 35.88448
311.4148, 35.79659
311.8969, 35.14644
312.3790, 34.64210
312.8611, 34.45735
313.3432, 34.52805
313.8253, 34.84219
314.3075, 35.42608
314.7896, 36.03805
315.2717, 36.02828
315.7538, 34.58750
316.2359, 33.69587
316.7180, 33.99943
317.2001, 34.71245
317.6823, 34.92074
318.1644, 34.36945
318.6465, 33.53262
319.1286, 33.10376
319.6107, 33.22538
320.0928, 33.50185
320.5750, 34.28741
321.0571, 34.98251
321.5392, 34.96760
322.0213, 34.25835
322.5034, 33.50122
322.9855, 33.35008
323.4677, 33.90069
323.9498, 34.44054
324.4319, 35.10008
324.9140, 35.63408
325.3961, 35.96256
325.8782, 36.06686
326.3604, 35.89870
326.8425, 35.38137
327.3246, 34.56425
327.8067, 34.00381
328.2888, 33.73685
328.7709, 33.64100
329.2531, 33.79209
329.7352, 34.07790
330.2173, 34.34072
330.6994, 34.50896
331.1815, 34.58631
331.6636, 34.58077
332.1458, 34.40189
332.6279, 34.24815
333.1100, 34.25109
333.5921, 34.22081
334.0742, 33.86076
334.5563, 33.12259
335.0385, 32.35827
335.5206, 32.08736
336.0027, 32.48381
336.4848, 32.98959
336.9669, 33.92786
337.4490, 34.71888
337.9312, 34.89931
338.4133, 34.51085
338.8954, 33.95771
339.3775, 33.59694
339.8596, 33.43343
340.3417, 33.40111
340.8239, 33.66570
341.3060, 33.87174
341.7881, 33.86148
342.2702, 33.69720
342.7523, 33.50224
343.2344, 33.34459
343.7166, 33.23914
344.1987, 33.26165
344.6808, 33.60582
345.1629, 33.86199
345.6450, 34.02779
346.1271, 34.07185
346.6093, 33.90044
347.0914, 33.49317
347.5735, 33.01408
348.0556, 32.79479
348.5377, 33.05387
349.0198, 33.18283
349.5020, 33.08784
349.9841, 32.95111
350.4662, 32.88439
350.9483, 32.90577
351.4304, 32.98380
351.9125, 33.10935
352.3947, 33.31674
352.8768, 33.33808
353.3589, 32.77199
353.8410, 32.41848
354.3231, 32.80988
354.8052, 33.63292
355.2874, 34.18164
355.7695, 33.92348
356.2516, 33.05039
356.7337, 32.67370
357.2158, 33.27192
357.6979, 33.73824
358.1800, 33.89313
358.6621, 33.81489
359.1443, 33.51078
359.6264, 32.98553
360.1085, 32.46008
360.5906, 32.38977
361.0727, 33.03487
361.5548, 33.45480
362.0370, 33.41458
362.5191, 33.24314
363.0012, 33.03852
363.4833, 32.86204
363.9654, 32.86058
364.4475, 33.33059
364.9297, 34.32994
365.4118, 34.81484
365.8939, 34.43196
366.3760, 33.87996
366.8581, 33.23666
367.3402, 32.64901
367.8224, 32.41082
368.3045, 32.81888
368.7866, 33.59272
369.2687, 33.84422
369.7508, 33.28675
370.2329, 32.83691
370.7151, 32.97677
371.1972, 33.28599
371.6793, 33.30087
372.1614, 32.85609
372.6435, 32.35088
373.1256, 32.29560
373.6078, 32.71785
374.0899, 33.20097
374.5720, 33.83894
375.0541, 34.33990
375.5362, 34.46305
376.0183, 34.22866
376.5005, 33.88177
376.9826, 33.53536
377.4647, 33.19807
377.9468, 32.86659
378.4289, 32.46478
378.9110, 32.24317
379.3932, 32.52745
379.8753, 33.09293
380.3574, 33.52326
380.8395, 33.69885
381.3216, 33.67350
381.8037, 33.40228
382.2859, 32.87579
382.7680, 32.54678
383.2501, 32.75770
383.7322, 33.18986
384.2143, 33.29905
384.6964, 32.97812
385.1786, 32.67826
385.6607, 32.74257
386.1428, 33.02808
386.6249, 33.13101
387.1070, 32.91958
387.5891, 32.61858
388.0713, 32.61583
388.5534, 32.87485
389.0355, 32.69551
389.5176, 31.47674
389.9997, 30.04104
390.4818, 29.13434
390.9640, 28.80200
391.4461, 28.93683
391.9282, 29.61604
392.4103, 30.69624
392.8924, 31.38767
393.3745, 31.41676
393.8567, 31.39422
394.3388, 31.53475
394.8209, 31.79351
395.3030, 32.12873
395.7851, 32.54752
396.2672, 32.91081
396.7494, 32.94607
397.2315, 32.43555
397.7136, 32.11416
398.1957, 32.11920
398.6778, 32.25103
399.1599, 32.40522
399.6420, 32.53976
400.1241, 32.57388
400.6063, 32.42801
401.0884, 32.09667
401.5705, 31.74704
402.0526, 31.30481
402.5347, 30.92811
403.0168, 30.53899
403.4990, 30.27308
403.9811, 30.41291
404.4632, 31.09998
404.9453, 32.07625
405.4274, 32.72155
405.9095, 32.93623
406.3917, 32.94542
406.8738, 32.48377
407.3559, 32.04007
407.8380, 32.10533
408.3201, 32.64123
408.8022, 33.08656
409.2844, 32.77127
409.7665, 31.61305
410.2486, 31.05591
410.7307, 31.86793
411.2128, 32.46518
411.6949, 32.27184
412.1771, 31.57931
412.6592, 30.82850
413.1413, 30.19350
413.6234, 29.76371
414.1055, 29.83439
414.5876, 30.65624
415.0698, 31.21323
415.5519, 30.97480
416.0340, 30.58066
416.5161, 30.44831
416.9982, 30.62811
417.4803, 30.92498
417.9625, 31.25046
418.4446, 31.57923
418.9267, 31.74393
419.4088, 31.72345
419.8909, 31.54645
420.3730, 31.12399
420.8552, 30.57611
421.3373, 30.15438
421.8194, 29.97082
422.3015, 29.91990
422.7836, 29.84618
423.2657, 29.75244
423.7479, 29.87395
424.2300, 30.53289
424.7121, 31.24383
425.1942, 31.11777
425.6763, 29.91211
426.1584, 29.12716
426.6406, 29.93876
427.1227, 31.43749
427.6048, 31.92144
428.0869, 31.04877
428.5690, 30.02193
429.0511, 29.99464
429.5333, 30.97755
430.0154, 31.56170
430.4975, 31.40819
430.9796, 31.17017
431.4617, 31.19836
431.9438, 31.43454
432.4260, 31.74561
432.9081, 32.09601
433.3902, 32.37217
433.8723, 32.28378
434.3544, 31.45167
434.8365, 30.87907
435.3187, 30.72914
435.8008, 30.76317
436.2829, 30.82486
436.7650, 30.87552
437.2471, 30.91105
437.7292, 30.92054
438.2114, 30.90173
438.6935, 30.94967
439.1756, 31.12801
439.6577, 31.30401
440.1398, 31.52313
440.6219, 31.69803
441.1040, 31.66978
441.5862, 31.37332
442.0683, 30.98742
442.5504, 30.88116
443.0325, 31.21095
443.5146, 31.33792
443.9967, 30.84364
444.4789, 30.43971
444.9610, 30.66250
445.4431, 31.36367
445.9252, 31.90273
446.4073, 31.66166
446.8894, 30.91517
447.3716, 30.80194
447.8537, 31.60918
448.3358, 32.33231
448.8179, 32.49095
449.3000, 32.35086
449.7821, 32.12163
450.2643, 31.80545
450.7464, 31.59558
451.2285, 31.84754
451.7106, 32.41530
452.1927, 32.45087
452.6748, 31.54120
453.1570, 30.57296
453.6391, 30.72683
454.1212, 31.72012
454.6033, 32.20071
455.0854, 31.24106
455.5675, 30.09244
456.0497, 30.02604
456.5318, 30.89465
457.0139, 31.64730
457.4960, 31.73405
457.9781, 31.38315
458.4602, 31.20090
458.9424, 31.22978
459.4245, 31.30148
459.9066, 31.45414
460.3887, 31.59847
460.8708, 31.60132
461.3529, 31.46419
461.8351, 31.35528
462.3172, 31.45119
462.7993, 31.76250
463.2814, 31.92474
463.7635, 30.86852
464.2456, 31.96274
464.7278, 32.48228
465.2099, 32.45978
465.6920, 30.17937
466.1741, 30.88506
466.6562, 30.43715
467.1383, 29.97143
467.6205, 31.18535
468.1026, 29.39164
468.5847, 30.64096
469.0668, 30.71860
469.5489, 31.37732
470.0310, 30.87513
470.5132, 30.77181
470.9953, 31.89128
471.4774, 32.38146
471.9595, 31.86515
472.4416, 32.74343
472.9237, 31.37995
473.4059, 30.60104
473.8880, 29.74373
474.3701, 29.38464
474.8522, 29.60107
475.3343, 29.92598
475.8164, 30.10721
476.2986, 30.16918
476.7807, 30.12726
477.2628, 29.94820
477.7449, 29.85830
478.2270, 30.09234
478.7091, 30.56796
479.1913, 30.91758
479.6734, 31.15032
480.1555, 31.22300
480.6376, 31.06904
481.1197, 30.74236
481.6018, 30.29471
482.0839, 29.72760
482.5660, 29.23670
483.0482, 29.13787
483.5303, 29.62824
484.0124, 29.77890
484.4945, 29.38956
484.9766, 28.87195
485.4587, 28.30113
485.9409, 27.78351
486.4230, 27.48920
486.9051, 27.51047
487.3872, 27.82454
487.8693, 28.41370
488.3514, 29.66585
488.8336, 30.45558
489.3157, 30.49775
489.7978, 30.29017
490.2799, 30.09638
490.7620, 29.96438
491.2441, 29.86477
491.7263, 29.75706
492.2084, 29.66373
492.6905, 29.71071
493.1726, 29.95439
493.6547, 30.20269
494.1368, 30.46706
494.6190, 30.65097
495.1011, 30.62900
495.5832, 30.36676
496.0653, 30.00273
496.5474, 29.49940
497.0295, 28.97285
497.5117, 28.86696
497.9938, 29.34487
498.4759, 29.82685
498.9580, 29.77164
499.4401, 29.28886
499.9222, 29.00476
500.4044, 29.11569
500.8865, 29.26783
501.3686, 28.42874
501.8507, 29.40660
502.3328, 29.89758
502.8149, 29.92844
503.2971, 28.08616
503.7792, 28.68938
504.2613, 28.32891
504.7434, 27.94010
505.2255, 28.92087
505.7076, 27.41108
506.1898, 28.39364
506.6719, 28.39762
507.1540, 28.86648
507.6361, 28.36563
508.1182, 28.17955
508.6003, 28.98684
509.0825, 29.26223
509.5646, 28.69506
510.0467, 29.26273
510.5288, 27.83532
511.0109, 28.18051
511.4930, 29.29715
511.9752, 28.83767
512.4573, 29.48160
512.9394, 29.72140
513.4215, 28.69030
513.9036, 28.30525
514.3857, 28.06550
514.8679, 28.37987
515.3500, 28.78390
515.8321, 28.56805
516.3142, 27.62059
516.7963, 26.96314
517.2784, 27.41365
517.7606, 28.23475
518.2427, 28.26864
518.7248, 27.45482
519.2069, 26.71055
519.6890, 26.68622
520.1711, 27.21036
520.6533, 27.42656
521.1354, 26.88815
521.6175, 26.68479
522.0996, 27.30026
522.5817, 28.15811
523.0638, 28.71534
523.5460, 28.86741
524.0281, 28.77097
524.5102, 28.55084
524.9923, 28.21202
525.4744, 27.88844
525.9565, 27.47921
526.4387, 27.23324
526.9208, 27.19020
527.4029, 27.32900
527.8850, 27.73690
528.3671, 28.40853
528.8492, 28.97359
529.3314, 28.86613
529.8135, 28.19169
530.2956, 28.11917
530.7777, 29.12621
531.2598, 29.87579
531.7419, 29.08656
532.2241, 27.58526
532.7062, 26.70662
533.1883, 26.87132
533.6704, 27.33011
534.1525, 27.74071
534.6346, 28.04725
535.1168, 28.04023
535.5989, 27.64308
536.0810, 27.23683
536.5631, 27.18958
537.0452, 27.52141
537.5273, 28.01008
538.0095, 29.16235
538.4916, 29.89594
538.9737, 29.39347
539.4558, 28.36160
539.9379, 27.98313
540.4200, 28.60028
540.9022, 29.39301
541.3843, 29.08954
541.8664, 27.34563
542.3485, 26.45982
542.8306, 27.18380
543.3127, 27.99796
543.7948, 28.57570
544.2769, 28.89577
544.7590, 28.94302
545.2411, 28.69988
545.7233, 28.28036
546.2054, 27.62112
546.6875, 26.77496
547.1696, 26.66077
547.6517, 27.72439
548.1339, 28.95585
548.6160, 29.61445
549.0981, 29.77876
549.5802, 29.55665
550.0623, 28.54325
550.5444, 27.59914
551.0266, 27.37134
551.5087, 27.62148
551.9908, 27.74318
552.4729, 27.54211
552.9550, 27.42296
553.4371, 27.95156
553.9193, 29.31278
554.4014, 30.20152
554.8835, 30.53232
555.3656, 30.56234
555.8477, 30.24947
556.3298, 29.74117
556.8120, 29.19472
557.2941, 28.67342
557.7762, 28.24229
558.2583, 28.01874
558.7404, 28.03189
559.2225, 28.00646
559.7047, 27.81253
560.1868, 27.75010
560.6689, 28.11073
561.1510, 28.64402
561.6331, 28.88810
562.1152, 28.60752
562.5974, 28.28008
563.0795, 28.50755
563.5616, 29.07876
564.0437, 29.10085
564.5258, 28.27252
565.0079, 27.47388
565.4901, 27.63035
565.9722, 28.68187
566.4543, 29.18287
566.9364, 28.48202
567.4185, 27.97927
567.9006, 28.51236
568.3828, 29.45123
568.8649, 29.82936
569.3470, 29.42762
569.8291, 28.83422
570.3112, 28.76925
570.7933, 29.28348
571.2755, 29.39095
571.7576, 28.58501
572.2397, 28.00573
572.7218, 28.09742
573.2039, 28.46284
573.6860, 28.61387
574.1682, 28.43574
574.6503, 28.27607
575.1324, 28.58100
575.6145, 29.20709
576.0966, 29.48588
576.5787, 29.31635
577.0609, 29.03250
577.5430, 28.78931
578.0251, 28.58619
578.5072, 28.39130
578.9893, 28.10769
579.4714, 28.05002
579.9536, 28.51337
580.4357, 29.17708
580.9178, 29.64317
581.3999, 29.87374
581.8820, 30.09255
582.3641, 30.49920
582.8463, 31.01289
583.3284, 31.17021
583.8105, 30.91483
584.2926, 30.34871
584.7747, 28.83039
585.2568, 27.50768
585.7390, 27.50065
586.2211, 28.64411
586.7032, 29.76653
587.1853, 30.04482
587.6674, 29.69754
588.1495, 29.19855
588.6317, 28.47515
589.1138, 28.06762
589.5959, 28.30226
590.0780, 28.79165
590.5601, 29.11214
591.0422, 29.26719
591.5244, 29.29263
592.0065, 29.06908
592.4886, 28.82156
592.9707, 28.75899
593.4528, 28.85331
593.9349, 28.99960
594.4171, 29.15869
594.8992, 29.29633
595.3813, 29.36857
595.8634, 29.44159
596.3455, 29.23445
596.8276, 28.29161
597.3098, 27.58481
597.7919, 27.67760
598.2740, 28.24496
598.7561, 28.76088
599.2382, 29.01894
599.7203, 29.03196
600.2025, 28.64772
600.6846, 27.88744
601.1667, 27.68428
601.6488, 28.43877
602.1309, 29.13888
602.6130, 28.87655
603.0952, 28.09181
603.5773, 27.67772
604.0594, 27.89243
604.5415, 28.21185
605.0236, 28.46803
605.5057, 28.62080
605.9879, 28.56082
606.4700, 28.29011
606.9521, 27.97772
607.4342, 27.74815
607.9163, 27.60676
608.3984, 27.59722
608.8806, 27.82949
609.3627, 28.04816
609.8448, 28.25237
610.3269, 28.41987
610.8090, 28.48315
611.2911, 28.47825
611.7733, 28.57714
612.2554, 29.01644
612.7375, 29.53388
613.2196, 29.41854
613.7017, 28.59743
614.1838, 27.89000
614.6660, 27.47384
615.1481, 27.35206
615.6302, 27.67473
616.1123, 28.40337
616.5944, 28.87659
617.0765, 28.90702
617.5587, 28.69219
618.0408, 28.13151
618.5229, 27.45645
619.0050, 27.16910
619.4871, 27.44137
619.9692, 28.02657
620.4514, 28.66755
