##NAMES=Brochantite
##RRUFFID=R060133
##IDEAL CHEMISTRY=Cu^2+^_4_S^6+^O_4_(OH)_6_
##LOCALITY=Shattuck mine, Bisbee, Cochise County, Arizona, USA
##OWNER=RRUFF
##SOURCE=University of Arizona Mineral Museum
##DESCRIPTION=Deep green thick prismatic crystals
##STATUS=The identification of this mineral has been confirmed by X-ray diffraction and chemical analysis
##URL=rruff.info/R060133
##MEASURED CHEMISTRY=Cu_4.00_S_1.00_O_4_(OH)_6_
92.02539, 62.69164
92.50751, 64.09905
92.98962, 65.21883
93.47174, 64.92599
93.95386, 63.97732
94.43597, 62.52475
94.91809, 60.63525
95.40021, 58.50509
95.88232, 56.52955
96.36444, 54.58511
96.84656, 52.97593
97.32867, 51.88781
97.81078, 51.16920
98.29290, 50.59724
98.77502, 50.00270
99.25713, 49.34959
99.73925, 48.38860
100.2214, 47.02368
100.7035, 45.54195
101.1856, 43.93010
101.6677, 42.24860
102.1498, 40.70322
102.6320, 39.52685
103.1141, 38.72651
103.5962, 38.41967
104.0783, 38.88106
104.5604, 39.70856
105.0425, 40.57847
105.5247, 41.46950
106.0068, 42.11063
106.4889, 41.98413
106.9710, 41.13131
107.4531, 39.87686
107.9352, 38.05363
108.4173, 35.80611
108.8995, 33.92469
109.3816, 32.75875
109.8637, 32.07688
110.3458, 31.64730
110.8279, 31.48855
111.3100, 31.41970
111.7922, 31.19379
112.2743, 30.72678
112.7564, 30.38098
113.2385, 30.26758
113.7206, 30.30213
114.2027, 30.48485
114.6849, 30.84696
115.1670, 31.26200
115.6491, 31.26527
116.1312, 30.37710
116.6133, 29.60133
117.0954, 29.17696
117.5776, 28.96274
118.0597, 28.71919
118.5418, 28.26791
119.0239, 27.60240
119.5060, 27.12267
119.9881, 26.72423
120.4703, 26.55460
120.9524, 26.81309
121.4345, 27.42028
121.9166, 28.05725
122.3987, 28.46183
122.8808, 28.58871
123.3630, 28.45036
123.8451, 27.76671
124.3272, 26.95940
124.8093, 26.48365
125.2914, 26.44254
125.7735, 26.52144
126.2557, 26.33672
126.7378, 25.94694
127.2199, 25.60266
127.7020, 25.38358
128.1841, 25.28165
128.6662, 25.31125
129.1483, 25.64520
129.6305, 25.88805
130.1126, 25.72266
130.5947, 25.17645
131.0768, 24.53078
131.5589, 23.97919
132.0410, 23.51547
132.5232, 23.20036
133.0053, 23.13421
133.4874, 23.15965
133.9695, 23.24408
134.4516, 23.36715
134.9337, 23.47350
135.4159, 23.47178
135.8980, 23.29193
136.3801, 23.12819
136.8622, 22.97161
137.3443, 22.84142
137.8264, 22.78489
138.3086, 22.81524
138.7907, 22.86854
139.2728, 22.76742
139.7549, 22.28445
140.2370, 21.90209
140.7191, 21.70736
141.2013, 21.62592
141.6834, 21.56271
142.1655, 21.47961
142.6476, 21.36053
143.1297, 21.13512
143.6118, 20.65494
144.0939, 20.24431
144.5761, 20.04369
145.0582, 20.03066
145.5403, 20.11568
146.0224, 20.31959
146.5045, 20.55764
146.9866, 20.60969
147.4688, 20.39248
147.9509, 20.04736
148.4330, 19.65974
148.9151, 19.20886
149.3972, 18.84376
149.8793, 18.68396
150.3615, 18.65807
150.8436, 18.70746
151.3257, 18.84595
151.8078, 19.03012
152.2899, 19.15926
152.7720, 19.21806
153.2542, 19.24430
153.7363, 19.29213
154.2184, 19.32108
154.7005, 19.25376
155.1826, 18.99768
155.6647, 18.58688
156.1469, 18.38433
156.6290, 18.59714
157.1111, 18.83798
157.5932, 19.06053
158.0753, 19.23432
158.5574, 19.31806
159.0396, 19.26747
159.5217, 19.06534
160.0038, 18.88310
160.4859, 18.72433
160.9680, 18.57850
161.4501, 18.42053
161.9323, 18.26348
162.4144, 18.15993
162.8965, 18.17655
163.3786, 18.36277
163.8607, 18.44749
164.3428, 18.37834
164.8250, 18.25445
165.3071, 18.12878
165.7892, 18.01323
166.2713, 17.92315
166.7534, 17.88906
167.2355, 17.92252
167.7177, 17.92499
168.1998, 17.88861
168.6819, 17.81478
169.1640, 17.67859
169.6461, 17.45303
170.1282, 17.24776
170.6104, 17.26921
171.0925, 17.48887
171.5746, 17.59792
172.0567, 17.41681
172.5388, 17.02566
173.0209, 16.63792
173.5031, 16.22920
173.9852, 15.93423
174.4673, 15.87204
174.9494, 16.02444
175.4315, 16.22422
175.9136, 16.41315
176.3958, 16.58694
176.8779, 16.58260
177.3600, 16.19065
177.8421, 15.76175
178.3242, 15.47446
178.8063, 15.34195
179.2885, 15.31288
179.7706, 15.38612
180.2527, 15.62451
180.7348, 15.68378
181.2169, 15.38612
181.6990, 15.02273
182.1812, 14.69996
182.6633, 14.45325
183.1454, 14.30483
183.6275, 14.29619
184.1096, 14.49121
184.5917, 14.70259
185.0738, 15.02125
185.5560, 15.29403
186.0381, 15.39330
186.5202, 15.29459
187.0023, 15.08520
187.4844, 14.90938
187.9665, 14.74833
188.4487, 14.66364
188.9308, 14.74708
189.4129, 14.85900
189.8950, 14.85170
190.3771, 14.67814
190.8592, 14.42945
191.3414, 14.28570
191.8235, 14.32073
192.3056, 14.32187
192.7877, 14.20826
193.2698, 14.06503
193.7519, 14.02536
194.2341, 14.15057
194.7162, 14.34411
195.1983, 14.38954
195.6804, 14.24620
196.1625, 14.14000
196.6446, 14.19116
197.1268, 14.32925
197.6089, 14.38548
198.0910, 14.28052
198.5731, 14.10487
199.0552, 14.00467
199.5373, 13.98725
200.0195, 13.98339
200.5016, 13.93543
200.9837, 13.86028
201.4658, 13.85376
201.9479, 13.99369
202.4300, 14.16560
202.9122, 14.25850
203.3943, 14.27040
203.8764, 14.20104
204.3585, 13.98165
204.8406, 13.61337
205.3227, 13.38862
205.8048, 13.51230
206.2870, 13.71114
206.7691, 13.77558
207.2512, 13.68376
207.7333, 13.57808
208.2154, 13.65981
208.6975, 13.98991
209.1797, 14.14283
209.6618, 13.78370
210.1439, 13.40234
210.6260, 13.30025
211.1081, 13.51642
211.5902, 13.83955
212.0724, 14.00219
212.5545, 13.96115
213.0366, 13.88119
213.5187, 13.70056
214.0008, 13.54010
214.4829, 13.47732
214.9651, 13.52588
215.4472, 13.64196
215.9293, 13.78277
216.4114, 14.03633
216.8935, 14.11616
217.3756, 13.92812
217.8578, 13.66664
218.3399, 13.43553
218.8220, 13.27043
219.3041, 13.17299
219.7862, 13.15326
220.2683, 13.27066
220.7505, 13.35458
221.2326, 13.37755
221.7147, 13.38832
222.1968, 13.43546
222.6789, 13.52664
223.1610, 13.61909
223.6432, 13.64672
224.1253, 13.55989
224.6074, 13.50687
225.0895, 13.53024
225.5716, 13.56346
226.0537, 13.53611
226.5358, 13.43344
227.0180, 13.30887
227.5001, 13.23509
227.9822, 13.22351
228.4643, 13.23596
228.9464, 13.26256
229.4285, 13.31596
229.9107, 13.42683
230.3928, 13.60401
230.8749, 13.78749
231.3570, 13.89501
231.8391, 13.92152
232.3212, 13.93853
232.8034, 13.95421
233.2855, 13.96699
233.7676, 13.98477
234.2497, 14.01419
234.7318, 14.01731
235.2139, 13.89893
235.6961, 13.67863
236.1782, 13.56714
236.6603, 13.67402
237.1424, 13.90453
237.6245, 14.11914
238.1066, 14.29982
238.5888, 14.47182
239.0709, 14.72083
239.5530, 15.00225
240.0351, 15.13596
240.5172, 14.88517
240.9993, 14.48120
241.4815, 14.42215
241.9636, 14.86761
242.4457, 15.31705
242.9278, 15.30643
243.4099, 15.02511
243.8920, 14.86412
244.3742, 15.11797
244.8563, 15.58375
245.3384, 15.78218
245.8205, 15.63264
246.3026, 15.38749
246.7847, 15.18054
247.2668, 14.98384
247.7490, 14.74598
248.2311, 14.41677
248.7132, 14.04553
249.1953, 13.74701
249.6774, 13.53621
250.1595, 13.37587
250.6417, 13.29997
251.1238, 13.24554
251.6059, 13.12511
252.0880, 12.88460
252.5701, 12.57209
253.0522, 12.29224
253.5344, 12.01589
254.0165, 11.84281
254.4986, 11.88082
254.9807, 11.99034
255.4628, 12.02164
255.9449, 11.90827
256.4271, 11.68915
256.9092, 11.43515
257.3913, 11.07947
257.8734, 10.82591
258.3555, 10.70465
258.8376, 10.68698
259.3198, 10.78327
259.8019, 10.99979
260.2840, 11.24637
260.7661, 11.32228
261.2482, 11.11714
261.7303, 10.94456
262.2125, 10.78911
262.6946, 10.70247
263.1767, 10.76328
263.6588, 10.98736
264.1409, 11.26974
264.6230, 11.42894
265.1052, 11.43026
265.5873, 11.36048
266.0694, 11.16987
266.5515, 10.95892
267.0336, 10.79949
267.5157, 10.70860
267.9979, 10.65706
268.4800, 10.59582
268.9621, 10.47920
269.4442, 10.46213
269.9263, 10.66168
270.4084, 10.85548
270.8906, 10.87519
271.3727, 10.71286
271.8548, 10.49713
272.3369, 10.37996
272.8190, 10.37893
273.3011, 10.43087
273.7833, 10.55533
274.2654, 10.70470
274.7475, 10.91721
275.2296, 11.15326
275.7117, 11.27069
276.1938, 11.09930
276.6760, 10.55508
277.1581, 10.24603
277.6402, 10.27930
278.1223, 10.38783
278.6044, 10.49124
279.0865, 10.56640
279.5686, 10.59564
280.0508, 10.56360
280.5329, 10.46984
281.0150, 10.34129
281.4971, 10.08228
281.9792, 9.890688
282.4613, 9.875768
282.9435, 9.989797
283.4256, 10.11716
283.9077, 10.18520
284.3898, 10.20004
284.8719, 10.21184
285.3540, 10.29090
285.8362, 10.29075
286.3183, 10.09443
286.8004, 9.799489
287.2825, 9.569275
287.7646, 9.483665
288.2467, 9.531917
288.7289, 9.686404
289.2110, 10.18737
289.6931, 10.49288
290.1752, 10.37701
290.6573, 10.05170
291.1394, 9.811869
291.6216, 9.772311
292.1037, 9.853180
292.5858, 9.897640
293.0679, 9.913213
293.5500, 9.876926
294.0321, 9.694065
294.5143, 9.497840
294.9964, 9.474271
295.4785, 9.672113
295.9606, 9.922915
296.4427, 9.976224
296.9248, 9.729098
297.4070, 9.593579
297.8891, 9.655796
298.3712, 9.791978
298.8533, 9.912738
299.3354, 9.999118
299.8175, 10.04589
300.2997, 10.04532
300.7818, 9.989482
301.2639, 9.910054
301.7460, 9.769994
302.2281, 9.636258
302.7102, 9.522643
303.1924, 9.444143
303.6745, 9.465669
304.1566, 9.661469
304.6387, 10.02108
305.1208, 10.29488
305.6029, 10.48369
306.0851, 10.59856
306.5672, 10.62906
307.0493, 10.58705
307.5314, 10.49575
308.0135, 10.35148
308.4956, 10.18142
308.9778, 10.10860
309.4599, 10.20273
309.9420, 10.28808
310.4241, 10.30422
310.9062, 10.27300
311.3883, 10.24094
311.8705, 10.23128
312.3526, 10.21742
312.8347, 10.12664
313.3168, 9.905421
313.7989, 9.743888
314.2810, 9.701091
314.7632, 9.731371
315.2453, 9.800010
315.7274, 9.901885
316.2095, 9.971633
316.6916, 9.899417
317.1737, 9.637148
317.6559, 9.446736
318.1380, 9.390439
318.6201, 9.389936
319.1022, 9.360435
319.5843, 9.294412
320.0664, 9.277079
320.5485, 9.438212
321.0306, 9.793224
321.5128, 9.841999
321.9949, 9.224738
322.4770, 8.613193
322.9591, 8.513288
323.4412, 8.851506
323.9233, 9.172551
324.4055, 9.173808
324.8876, 8.895420
325.3697, 8.660215
325.8518, 8.405740
326.3339, 8.250483
326.8160, 8.302140
327.2982, 8.484278
327.7803, 8.627942
328.2624, 8.650252
328.7445, 8.599683
329.2266, 8.606646
329.7087, 8.693823
330.1909, 8.787423
330.6730, 8.944455
331.1551, 9.075769
331.6372, 9.022030
332.1193, 8.733994
332.6014, 8.387156
333.0836, 8.237611
333.5657, 8.367641
334.0478, 8.470011
334.5299, 8.502367
335.0120, 8.524796
335.4941, 8.605252
335.9763, 8.743015
336.4584, 8.864051
336.9405, 8.897775
337.4226, 8.835624
337.9047, 8.757000
338.3868, 8.606830
338.8690, 8.492044
339.3511, 8.517248
339.8332, 8.633518
340.3153, 8.666685
340.7974, 8.478632
341.2795, 8.136415
341.7617, 8.089336
342.2438, 8.660870
342.7259, 9.100153
343.2080, 9.187143
343.6901, 9.050928
344.1722, 8.860017
344.6544, 8.681593
345.1365, 8.536391
345.6186, 8.473331
346.1007, 8.646405
346.5828, 8.371722
347.0649, 8.626586
347.5471, 8.760650
348.0292, 8.780410
348.5113, 8.343506
348.9934, 8.496289
349.4755, 8.412752
349.9576, 8.914028
350.4398, 9.087371
350.9219, 8.921925
351.4040, 8.705586
351.8861, 8.549784
352.3682, 8.472156
352.8503, 8.472953
353.3325, 8.562137
353.8146, 8.731397
354.2967, 8.851740
354.7788, 8.917924
355.2609, 8.941518
355.7430, 8.892695
356.2252, 8.810636
356.7073, 8.755277
357.1894, 8.755797
357.6715, 8.779740
358.1536, 8.743093
358.6357, 8.590298
359.1179, 8.458639
359.5999, 8.317522
360.0821, 8.219305
360.5642, 8.229300
361.0463, 8.348816
361.5284, 8.502116
362.0105, 8.600204
362.4926, 8.640775
362.9748, 8.631428
363.4569, 8.511286
363.9390, 8.401487
364.4211, 8.344279
364.9032, 8.341661
365.3853, 8.388914
365.8675, 8.492747
366.3496, 8.642649
366.8317, 8.737712
367.3138, 8.759143
367.7959, 8.742498
368.2780, 8.656617
368.7602, 8.552853
369.2423, 8.489740
369.7244, 8.492548
370.2065, 8.548841
370.6886, 8.645909
371.1707, 8.814245
371.6529, 8.944637
372.1350, 8.987990
372.6171, 9.015552
373.0992, 9.113509
373.5813, 9.274295
374.0634, 9.368081
374.5456, 9.185948
375.0277, 8.705489
375.5098, 8.454535
375.9919, 8.644853
376.4740, 8.857781
376.9561, 8.855193
377.4383, 8.723154
377.9204, 8.684667
378.4025, 8.943178
378.8846, 9.339635
379.3667, 9.369226
379.8488, 8.840127
380.3310, 8.443106
380.8131, 8.613778
381.2952, 8.985826
381.7773, 9.189590
382.2594, 9.115270
382.7415, 8.936331
383.2237, 8.817364
383.7058, 8.757914
384.1879, 8.753498
384.6700, 8.852253
385.1521, 8.955785
385.6342, 8.982272
386.1164, 8.933329
386.5985, 8.845702
387.0806, 8.713717
387.5627, 8.560508
388.0448, 8.446197
388.5269, 8.385807
389.0091, 8.331002
389.4912, 8.243391
389.9733, 8.134443
390.4554, 8.026336
390.9375, 7.897324
391.4196, 7.794802
391.9018, 7.760452
392.3839, 7.792095
392.8660, 7.880126
393.3481, 8.050127
393.8302, 8.246367
394.3123, 8.357447
394.7945, 8.364086
395.2766, 8.360203
395.7587, 8.431476
396.2408, 8.503847
396.7229, 8.413932
397.2050, 8.109555
397.6872, 7.783017
398.1693, 7.649881
398.6514, 7.730875
399.1335, 7.809334
399.6156, 7.917389
400.0977, 7.987567
400.5798, 7.939315
401.0620, 7.798118
401.5441, 7.686185
402.0262, 7.690758
402.5083, 7.775393
402.9904, 7.752735
403.4725, 7.446831
403.9547, 7.266974
404.4368, 7.343121
404.9189, 7.567254
405.4010, 7.850786
405.8831, 8.156332
406.3652, 8.398960
406.8474, 8.445919
407.3295, 8.229918
407.8116, 7.996213
408.2937, 7.677912
408.7758, 7.402984
409.2579, 7.227473
409.7401, 7.157998
410.2222, 7.197476
410.7043, 7.364883
411.1864, 7.635755
411.6685, 7.797856
412.1506, 7.711649
412.6328, 7.684807
413.1149, 7.850899
413.5970, 8.058950
414.0791, 8.138345
414.5612, 8.032062
415.0433, 7.818393
415.5255, 7.589691
416.0076, 7.301204
416.4897, 7.151475
416.9718, 7.257775
417.4539, 7.418963
417.9360, 7.580071
418.4182, 7.720726
418.9003, 7.809625
419.3824, 7.814229
419.8645, 7.750727
420.3466, 7.691766
420.8287, 7.644803
421.3109, 7.586934
421.7930, 7.477460
422.2751, 7.365997
422.7572, 7.329671
423.2393, 7.408027
423.7214, 7.476820
424.2036, 7.327101
424.6857, 6.974731
425.1678, 6.851972
425.6499, 7.202573
426.1320, 7.626862
426.6141, 7.751558
427.0963, 7.606510
427.5784, 7.411390
428.0605, 7.202207
428.5426, 7.020734
429.0247, 6.939976
429.5068, 6.966067
429.9890, 7.045931
430.4711, 7.182961
430.9532, 7.339658
431.4353, 7.405110
431.9174, 7.333528
432.3995, 7.238213
432.8817, 7.161426
433.3638, 7.103237
433.8459, 7.058356
434.3280, 7.022870
434.8101, 7.018786
435.2922, 7.099716
435.7744, 7.316061
436.2565, 7.391204
436.7386, 7.159286
437.2207, 6.908371
437.7028, 6.855862
438.1849, 6.979627
438.6671, 7.130107
439.1492, 7.210074
439.6313, 7.229747
440.1134, 7.246556
440.5955, 7.258537
441.0776, 7.270122
441.5598, 7.263920
442.0418, 7.266609
442.5240, 7.344930
443.0061, 7.498715
443.4882, 7.606248
443.9703, 7.477446
444.4524, 7.025070
444.9345, 6.745624
445.4167, 6.785758
445.8988, 6.857385
446.3809, 6.837267
446.8630, 6.775955
447.3451, 6.804394
447.8272, 7.020531
448.3094, 7.312689
448.7915, 7.378526
449.2736, 7.132909
449.7557, 6.903477
450.2378, 6.712312
450.7199, 6.604723
451.2021, 6.674252
451.6842, 6.913676
452.1663, 7.118469
452.6484, 7.063678
453.1305, 6.823792
453.6126, 6.769118
454.0948, 7.024564
454.5769, 7.219633
455.0590, 6.947692
455.5411, 6.460273
456.0232, 6.220991
456.5053, 6.487802
456.9875, 6.815539
457.4696, 6.773585
457.9517, 6.448210
458.4338, 6.241563
458.9159, 6.303655
459.3980, 6.506238
459.8802, 6.675949
460.3623, 6.814420
460.8444, 6.928871
461.3265, 7.067703
461.8086, 7.149964
462.2907, 7.027737
462.7729, 6.740446
463.2550, 6.546315
463.7371, 6.633368
464.2192, 6.951469
464.7013, 7.215905
465.1834, 7.551438
465.6656, 7.680727
466.1477, 7.351110
466.6298, 6.903159
467.1119, 6.727232
467.5940, 6.900910
468.0761, 7.201064
468.5583, 7.364128
469.0404, 7.369527
469.5225, 7.377666
470.0046, 7.400678
470.4867, 7.413693
470.9688, 7.398764
471.4510, 7.370786
471.9331, 7.359040
472.4152, 7.380006
472.8973, 7.406443
473.3794, 7.362913
473.8615, 7.208791
474.3437, 7.159311
474.8258, 7.365243
475.3079, 7.599967
475.7900, 7.770125
476.2721, 7.853808
476.7542, 7.803394
477.2364, 7.410689
477.7185, 6.898829
478.2006, 6.858825
478.6827, 7.382005
479.1648, 7.837184
479.6469, 7.843687
480.1291, 7.600259
480.6112, 7.481405
481.0933, 7.547681
481.5754, 7.612062
482.0575, 7.546472
482.5396, 7.422663
483.0217, 7.392231
483.5038, 7.489290
483.9860, 7.594437
484.4681, 7.595405
484.9502, 7.485868
485.4323, 7.362616
485.9144, 7.191949
486.3965, 7.044223
486.8787, 6.911788
487.3608, 6.829673
487.8429, 6.903788
488.3250, 7.175924
488.8071, 7.481189
489.2892, 7.506702
489.7714, 7.069632
490.2535, 6.800825
490.7356, 6.752302
491.2177, 6.793566
491.6998, 6.928948
492.1819, 7.099423
492.6641, 7.177993
493.1462, 7.063627
493.6283, 6.848492
494.1104, 6.840990
494.5925, 7.178800
495.0746, 7.349501
495.5568, 6.981904
496.0389, 6.579582
496.5210, 6.546112
497.0031, 6.886688
497.4852, 7.234822
497.9673, 7.332866
498.4495, 7.242261
498.9316, 7.093870
499.4137, 6.861134
499.8958, 6.720501
500.3779, 6.843307
500.8600, 7.105285
501.3422, 7.235520
501.8243, 7.151139
502.3064, 7.086934
502.7885, 7.239682
503.2706, 7.471830
503.7527, 7.521308
504.2349, 7.329884
504.7170, 7.040426
505.1991, 6.772788
505.6812, 6.524561
506.1633, 6.367804
506.6454, 6.306335
507.1276, 6.319906
507.6097, 6.479222
508.0918, 6.686472
508.5739, 6.784772
509.0560, 6.718276
509.5381, 6.570949
510.0203, 6.469141
510.5024, 6.411664
510.9845, 6.403914
511.4666, 6.541647
511.9487, 6.634047
512.4308, 6.595706
512.9130, 6.457558
513.3951, 6.273474
513.8772, 6.052777
514.3593, 5.852708
514.8414, 5.786777
515.3235, 5.868285
515.8057, 5.987990
516.2878, 6.188346
516.7699, 6.350412
517.2520, 6.350091
517.7341, 6.209424
518.2162, 6.090317
518.6984, 6.054103
519.1805, 6.079797
519.6626, 6.190806
520.1447, 6.372890
520.6268, 6.434457
521.1089, 6.239990
521.5911, 5.922177
522.0732, 5.799967
522.5553, 5.927563
523.0374, 6.045407
523.5195, 6.107358
524.0016, 6.144232
524.4838, 6.164455
524.9659, 6.180228
525.4480, 6.243858
525.9301, 6.411165
526.4122, 6.632119
526.8943, 6.640204
527.3765, 6.224238
527.8586, 5.890999
528.3407, 5.619613
528.8228, 5.484719
529.3049, 5.651880
529.7870, 6.069944
530.2692, 6.410884
530.7513, 6.321307
531.2334, 5.898346
531.7155, 5.741751
532.1976, 5.959816
532.6797, 6.193430
533.1619, 6.379740
533.6440, 6.460605
534.1261, 6.305344
534.6082, 5.856682
535.0903, 5.479082
535.5724, 5.495991
536.0546, 5.734572
536.5367, 5.784651
537.0188, 5.579425
537.5009, 5.435660
537.9830, 5.639352
538.4651, 6.102352
538.9473, 6.321050
539.4294, 6.132370
539.9115, 5.930003
540.3936, 5.801311
540.8757, 5.728750
541.3578, 5.695261
541.8400, 5.695193
542.3221, 5.727951
542.8042, 5.802474
543.2863, 5.920530
543.7684, 5.969856
544.2505, 5.869947
544.7326, 5.795882
545.2147, 5.762349
545.6968, 5.780229
546.1790, 5.880611
546.6611, 6.064733
547.1432, 6.256846
547.6253, 6.397810
548.1074, 6.483849
548.5895, 6.435255
549.0717, 6.160390
549.5538, 5.942210
550.0359, 6.040117
550.5180, 6.280498
551.0001, 6.401754
551.4822, 6.326164
551.9644, 6.214798
552.4465, 6.169460
552.9286, 6.159699
553.4107, 6.109950
553.8928, 6.004230
554.3749, 5.915583
554.8571, 5.911250
555.3392, 5.989710
555.8213, 6.076973
556.3034, 6.267424
556.7855, 6.351812
557.2676, 6.183438
557.7498, 5.924703
558.2319, 5.775522
558.7140, 5.777349
559.1961, 5.825487
559.6782, 5.803661
560.1603, 5.710978
560.6425, 5.638785
561.1246, 5.552583
561.6067, 5.544269
562.0888, 5.696243
562.5709, 5.903892
563.0530, 6.069212
563.5352, 6.170402
564.0173, 6.177745
564.4994, 6.007103
564.9815, 5.719635
565.4636, 5.514098
565.9457, 5.411962
566.4279, 5.372995
566.9100, 5.367008
567.3921, 5.408675
567.8742, 5.539186
568.3563, 5.873127
568.8384, 6.105196
569.3206, 6.104685
569.8027, 5.959589
570.2848, 5.711573
570.7669, 5.401734
571.2490, 5.183893
571.7311, 5.210355
572.2133, 5.453609
572.6954, 5.609611
573.1775, 5.606784
573.6596, 5.611829
574.1417, 5.692403
574.6238, 5.758786
575.1060, 5.689899
575.5881, 5.498004
576.0702, 5.355368
576.5523, 5.452508
577.0344, 5.709455
577.5165, 5.813567
577.9987, 5.730093
578.4808, 5.642898
578.9629, 5.600426
579.4450, 5.618432
579.9271, 5.748014
580.4092, 6.020239
580.8914, 6.186056
581.3735, 6.057421
581.8556, 5.833767
582.3377, 5.734650
582.8198, 5.761741
583.3019, 5.817427
583.7841, 5.850663
584.2662, 5.862263
584.7483, 5.855154
585.2304, 5.835024
585.7125, 5.783585
586.1946, 5.644873
586.6768, 5.525797
587.1589, 5.453982
587.6410, 5.458513
