##NAMES=Brochantite
##RRUFFID=R100199
##IDEAL CHEMISTRY=Cu^2+^_4_S^6+^O_4_(OH)_6_
##LOCALITY=Milpillas mine, Municipio de Santa Cruz, Sonora, Mexico
##OWNER=RRUFF
##SOURCE=Donald K Olson
##DESCRIPTION=Loose green acicular crystals, MDO1 polytype
##STATUS=The identification of this mineral has been confirmed by single-crystal X-ray diffraction.
##URL=rruff.info/R100199
164.7991, 91.72165
165.2812, 93.00476
165.7633, 94.15559
166.2454, 95.42943
166.7276, 97.06157
167.2097, 98.69421
167.6918, 100.0778
168.1739, 101.2361
168.6560, 102.4706
169.1381, 103.9234
169.6203, 105.5214
170.1024, 106.5104
170.5845, 107.5366
171.0666, 108.5216
171.5487, 108.9714
172.0309, 108.9318
172.5130, 108.9923
172.9951, 109.5709
173.4772, 110.5090
173.9593, 111.5669
174.4414, 112.9619
174.9236, 114.2628
175.4057, 114.7311
175.8878, 114.3601
176.3699, 114.1893
176.8520, 115.6118
177.3341, 117.8981
177.8163, 119.4621
178.2984, 119.1009
178.7805, 117.8021
179.2626, 116.9488
179.7447, 116.5819
180.2268, 116.5367
180.7090, 116.8843
181.1911, 117.4767
181.6732, 117.8495
182.1553, 117.5263
182.6374, 116.8728
183.1195, 116.6593
183.6017, 116.9166
184.0838, 117.5095
184.5659, 118.4704
185.0480, 119.7089
185.5301, 120.8135
186.0123, 121.4083
186.4944, 121.6946
186.9765, 122.4278
187.4586, 123.7765
187.9407, 125.0637
188.4228, 125.1510
188.9050, 124.1482
189.3871, 123.1945
189.8692, 122.9292
190.3513, 123.2292
190.8334, 123.5258
191.3155, 123.8273
191.7977, 124.0295
192.2798, 123.7609
192.7619, 123.0227
193.2440, 122.6523
193.7261, 123.3398
194.2082, 124.9661
194.6904, 126.1324
195.1725, 126.7069
195.6546, 126.9292
196.1367, 127.1631
196.6188, 127.4061
197.1009, 127.7054
197.5831, 128.3376
198.0652, 129.3048
198.5473, 129.2966
199.0294, 128.0542
199.5115, 126.0743
199.9937, 124.2982
200.4758, 122.7603
200.9579, 121.3260
201.4400, 119.9482
201.9221, 118.6250
202.4042, 117.3443
202.8864, 116.0725
203.3685, 114.8721
203.8506, 113.8549
204.3327, 113.0029
204.8148, 112.4336
205.2969, 112.3401
205.7791, 112.8269
206.2612, 113.0089
206.7433, 112.7757
207.2254, 112.2565
207.7075, 111.7197
208.1896, 111.0948
208.6718, 110.6537
209.1539, 110.6005
209.6360, 111.0289
210.1181, 111.3779
210.6002, 111.6281
211.0823, 111.7789
211.5645, 111.8453
212.0466, 111.8708
212.5287, 111.7160
213.0108, 111.1896
213.4929, 110.0692
213.9750, 109.4693
214.4572, 109.5904
214.9393, 110.2130
215.4214, 110.7189
215.9035, 111.1124
216.3856, 111.3826
216.8678, 111.5082
217.3499, 111.4645
217.8320, 111.3475
218.3141, 111.1190
218.7962, 110.8287
219.2783, 110.6111
219.7605, 110.3934
220.2426, 110.3766
220.7247, 110.7422
221.2068, 111.7250
221.6889, 112.3892
222.1710, 112.5575
222.6532, 112.4131
223.1353, 112.5387
223.6174, 113.0719
224.0995, 113.6516
224.5816, 114.1046
225.0637, 114.4185
225.5459, 114.6341
226.0280, 114.6550
226.5101, 114.6018
226.9922, 114.9021
227.4743, 115.8870
227.9564, 116.7096
228.4386, 116.9006
228.9207, 116.0788
229.4028, 115.5609
229.8849, 115.5308
230.3670, 115.7745
230.8492, 115.6187
231.3313, 114.6361
231.8134, 113.9009
232.2955, 113.9873
232.7776, 115.4374
233.2597, 116.4411
233.7419, 116.8583
234.2240, 116.8632
234.7061, 116.8627
235.1882, 116.7511
235.6703, 116.7976
236.1524, 117.1680
236.6346, 118.1287
237.1167, 118.7583
237.5988, 118.7480
238.0809, 118.5169
238.5630, 119.1269
239.0451, 121.1254
239.5273, 123.1360
240.0094, 124.6044
240.4915, 125.3797
240.9736, 126.0050
241.4557, 126.5084
241.9378, 126.8507
242.4200, 126.9341
242.9021, 126.6481
243.3842, 126.2736
243.8663, 125.9525
244.3484, 125.8232
244.8306, 125.3208
245.3127, 124.3742
245.7948, 123.0997
246.2769, 121.6436
246.7590, 119.7422
247.2411, 118.1372
247.7233, 117.1527
248.2054, 116.9938
248.6875, 116.6724
249.1696, 116.0405
249.6517, 115.3503
250.1338, 115.0473
250.6160, 115.3511
251.0981, 115.6498
251.5802, 115.7486
252.0623, 115.6121
252.5444, 115.4699
253.0265, 115.3449
253.5087, 115.1978
253.9908, 114.9361
254.4729, 114.3973
254.9550, 114.0749
255.4371, 114.1677
255.9192, 114.7409
256.4014, 115.1844
256.8835, 115.4526
257.3656, 115.6363
257.8477, 115.8810
258.3298, 116.2962
258.8120, 116.5202
259.2941, 116.4133
259.7762, 115.9484
260.2583, 115.5790
260.7404, 115.2911
261.2225, 115.1082
261.7047, 115.1110
262.1868, 115.4682
262.6689, 115.5419
263.1510, 115.0616
263.6331, 114.0557
264.1152, 113.5028
264.5974, 113.5639
265.0795, 113.8360
265.5616, 113.9469
266.0437, 113.8696
266.5258, 113.7301
267.0079, 113.5443
267.4901, 113.3149
267.9722, 113.0356
268.4543, 112.6225
268.9364, 112.3274
269.4185, 112.4200
269.9006, 113.0195
270.3828, 113.4956
270.8649, 113.7590
271.3470, 113.8285
271.8291, 113.7615
272.3112, 113.4934
272.7933, 113.2482
273.2755, 113.2522
273.7576, 113.5704
274.2397, 113.6453
274.7218, 113.3212
275.2039, 112.7604
275.6860, 112.4401
276.1682, 112.3656
276.6503, 112.5010
277.1324, 112.9669
277.6145, 113.8153
278.0966, 114.2646
278.5787, 114.2188
279.0609, 113.7962
279.5430, 113.0674
280.0251, 111.9330
280.5072, 111.1547
280.9893, 111.3434
281.4715, 112.4918
281.9536, 113.3208
282.4357, 113.7486
282.9178, 113.8963
283.3999, 113.9754
283.8820, 113.9904
284.3642, 113.8175
284.8463, 113.1726
285.3284, 112.1369
285.8105, 111.8058
286.2926, 112.3081
286.7747, 113.0970
287.2569, 113.3850
287.7390, 113.1913
288.2211, 113.0695
288.7032, 113.3279
289.1853, 113.8537
289.6674, 114.1363
290.1496, 114.1586
290.6317, 114.0697
291.1138, 113.9979
291.5959, 113.9482
292.0780, 113.9592
292.5602, 114.1240
293.0423, 114.3311
293.5244, 114.2553
294.0065, 113.8888
294.4886, 113.4495
294.9707, 112.9209
295.4529, 112.4321
295.9350, 112.5325
296.4171, 113.7234
296.8992, 115.2376
297.3813, 115.5806
297.8634, 114.8355
298.3456, 113.9331
298.8277, 113.5851
299.3098, 113.6049
299.7919, 113.5613
300.2740, 113.2863
300.7561, 113.0577
301.2383, 113.4326
301.7204, 114.2641
302.2025, 114.8549
302.6846, 114.3696
303.1667, 113.4829
303.6488, 113.3139
304.1310, 114.2215
304.6131, 115.2723
305.0952, 115.4230
305.5773, 114.9497
306.0594, 114.5994
306.5415, 114.9698
307.0237, 115.5606
307.5058, 115.8080
307.9879, 115.6169
308.4700, 115.3644
308.9521, 115.2097
309.4343, 115.2028
309.9164, 115.4227
310.3985, 116.1751
310.8806, 116.9846
311.3627, 117.4699
311.8448, 117.6156
312.3270, 117.6788
312.8091, 117.6930
313.2912, 117.7506
313.7733, 117.9607
314.2554, 118.6128
314.7375, 119.2109
315.2197, 119.4057
315.7018, 119.2518
316.1839, 119.2019
316.6660, 119.6984
317.1481, 120.2637
317.6302, 120.4822
318.1124, 119.8016
318.5945, 119.3281
319.0766, 119.7370
319.5587, 120.7230
320.0408, 121.2345
320.5229, 120.6080
321.0051, 119.6508
321.4872, 118.7843
321.9693, 118.0550
322.4514, 117.4716
322.9335, 117.0395
323.4156, 116.7546
323.8978, 116.6090
324.3799, 116.8796
324.8620, 117.0477
325.3441, 116.8848
325.8262, 116.2388
326.3083, 115.6980
326.7905, 115.4017
327.2726, 115.2022
327.7547, 114.9220
328.2368, 114.2888
328.7189, 113.8494
329.2010, 113.7521
329.6832, 114.0288
330.1653, 114.2990
330.6474, 114.5413
331.1295, 114.7923
331.6116, 115.1183
332.0938, 115.8728
332.5759, 116.1153
333.0580, 115.4754
333.5401, 114.1173
334.0222, 113.3343
334.5043, 113.3540
334.9865, 113.6232
335.4686, 113.7966
335.9507, 113.7532
336.4328, 113.9669
336.9149, 114.5699
337.3970, 115.3987
337.8792, 115.9712
338.3613, 116.2044
338.8434, 116.4421
339.3255, 116.9097
339.8076, 117.6810
340.2898, 118.1071
340.7719, 118.1282
341.2540, 117.9186
341.7361, 117.6704
342.2182, 117.3700
342.7003, 117.2101
343.1825, 117.2970
343.6646, 117.5950
344.1467, 117.7907
344.6288, 117.8307
345.1109, 118.0438
345.5930, 119.0304
346.0752, 120.6645
346.5573, 121.7627
347.0394, 121.8572
347.5215, 121.4061
348.0036, 121.4515
348.4857, 121.9832
348.9679, 122.5798
349.4500, 122.8505
349.9321, 122.9393
350.4142, 123.3306
350.8963, 124.2167
351.3784, 125.1266
351.8606, 125.3043
352.3427, 124.9266
352.8248, 124.6486
353.3069, 124.9581
353.7890, 125.5426
354.2711, 125.9597
354.7533, 126.1546
355.2354, 126.3662
355.7175, 126.8042
356.1996, 127.3955
356.6817, 128.0128
357.1638, 128.5239
357.6460, 129.0965
358.1281, 130.0065
358.6102, 131.2069
359.0923, 132.1642
359.5744, 132.2867
360.0565, 132.1365
360.5387, 132.2579
361.0208, 132.8679
361.5029, 133.6961
361.9850, 134.6733
362.4671, 135.7807
362.9492, 136.9495
363.4314, 138.3769
363.9135, 139.6997
364.3956, 140.7119
364.8777, 141.3301
365.3598, 141.7786
365.8419, 142.0420
366.3241, 142.1806
366.8062, 142.2819
367.2883, 142.1351
367.7704, 142.1663
368.2526, 142.5764
368.7347, 143.4714
369.2168, 144.1461
369.6989, 144.4375
370.1810, 144.6020
370.6631, 144.8485
371.1453, 145.1837
371.6274, 145.5946
372.1095, 146.1118
372.5916, 146.7180
373.0737, 147.2395
373.5558, 147.4677
374.0380, 147.9255
374.5201, 149.0066
375.0022, 150.9939
375.4843, 152.6208
375.9664, 153.7851
376.4485, 154.6227
376.9307, 155.2700
377.4128, 155.5502
377.8949, 156.3786
378.3770, 158.3425
378.8591, 161.3565
379.3412, 163.8127
379.8234, 165.5622
380.3055, 167.2057
380.7876, 169.5600
381.2697, 172.5841
381.7518, 175.1537
382.2339, 176.8484
382.7161, 177.9982
383.1982, 179.3743
383.6803, 180.9592
384.1624, 182.5723
384.6445, 182.9120
385.1266, 183.1914
385.6088, 187.6790
386.0909, 198.6441
386.5730, 208.7475
387.0551, 207.9558
387.5372, 198.9909
388.0193, 189.5767
388.5015, 183.2844
388.9836, 178.9018
389.4657, 175.3890
389.9478, 172.7041
390.4299, 170.3671
390.9120, 168.1323
391.3942, 166.0212
391.8763, 164.0932
392.3584, 162.3354
392.8405, 160.7935
393.3226, 159.6638
393.8047, 158.8354
394.2869, 157.7976
394.7690, 156.2072
395.2511, 154.4453
395.7332, 152.7355
396.2154, 151.1093
396.6975, 149.5521
397.1796, 147.9003
397.6617, 146.3257
398.1438, 145.1306
398.6259, 144.7988
399.1081, 144.4028
399.5902, 143.6521
400.0723, 142.4819
400.5544, 141.3723
401.0365, 140.2080
401.5186, 139.1833
402.0008, 138.5036
402.4829, 138.4552
402.9650, 138.1791
403.4471, 137.4509
403.9292, 136.4213
404.4113, 135.7504
404.8935, 135.5105
405.3756, 135.4499
405.8577, 135.5089
406.3398, 135.7334
406.8219, 135.7155
407.3040, 135.3980
407.7862, 134.9438
408.2683, 134.5647
408.7504, 134.2631
409.2325, 134.0117
409.7146, 133.8117
410.1967, 133.6574
410.6789, 133.5866
411.1610, 133.6107
411.6431, 133.4695
412.1252, 132.7050
412.6073, 131.5810
413.0894, 130.8740
413.5716, 130.8033
414.0537, 131.0758
414.5358, 131.5035
415.0179, 132.0141
415.5000, 132.3882
415.9821, 132.2029
416.4643, 131.9755
416.9464, 132.3538
417.4285, 133.4213
417.9106, 134.4635
418.3927, 135.1022
418.8748, 135.4246
419.3570, 135.5241
419.8391, 135.1935
420.3212, 134.8800
420.8033, 134.7850
421.2854, 134.8742
421.7675, 134.9769
422.2497, 135.2437
422.7318, 135.3632
423.2139, 135.0903
423.6960, 134.0148
424.1781, 133.3978
424.6602, 133.8448
425.1424, 134.7072
425.6245, 135.0285
426.1066, 134.4409
426.5887, 133.7677
427.0709, 133.1551
427.5530, 132.6025
428.0351, 132.0707
428.5172, 131.5606
428.9993, 131.0588
429.4814, 130.5896
429.9636, 130.2171
430.4457, 129.5515
430.9278, 128.3519
431.4099, 127.0481
431.8920, 126.7217
432.3741, 127.4962
432.8563, 128.2670
433.3384, 128.4673
433.8205, 128.1994
434.3026, 128.1991
434.7847, 128.4994
435.2668, 128.8028
435.7490, 128.6724
436.2311, 128.2630
436.7132, 128.1317
437.1953, 128.4521
437.6774, 129.0786
438.1595, 130.0031
438.6417, 131.1287
439.1238, 132.0529
439.6059, 132.3344
440.0880, 132.3936
440.5701, 132.6202
441.0522, 133.0425
441.5344, 133.7570
442.0165, 135.0528
442.4986, 136.6002
442.9807, 137.9887
443.4628, 139.0830
443.9449, 139.9931
444.4271, 140.6746
444.9092, 141.1708
445.3913, 141.7251
445.8734, 142.4548
446.3555, 143.1986
446.8376, 143.8694
447.3198, 144.4111
447.8019, 144.9866
448.2840, 145.8436
448.7661, 146.6304
449.2482, 146.8212
449.7303, 146.0694
450.2125, 145.3044
450.6946, 144.7082
451.1767, 144.2696
451.6588, 143.8777
452.1409, 143.5823
452.6230, 143.2133
453.1052, 142.6572
453.5873, 141.9042
454.0694, 141.0139
454.5515, 139.9700
455.0337, 138.8377
455.5158, 137.6215
455.9979, 136.3382
456.4800, 135.4107
456.9621, 135.2906
457.4442, 135.5628
457.9264, 135.1120
458.4085, 133.9696
458.8906, 132.9020
459.3727, 132.6372
459.8548, 132.8405
460.3369, 132.9805
460.8191, 132.9122
461.3012, 132.8363
461.7833, 132.8648
462.2654, 133.0075
462.7475, 133.2834
463.2296, 133.7330
463.7118, 134.2950
464.1939, 134.9519
464.6760, 135.7079
465.1581, 136.4997
465.6402, 137.3902
466.1223, 138.2502
466.6045, 138.9762
467.0866, 139.2957
467.5687, 139.7927
468.0508, 140.4895
468.5329, 141.3857
469.0150, 142.5189
469.4972, 144.0491
469.9793, 145.5506
470.4614, 146.8660
470.9435, 147.9842
471.4256, 149.1461
471.9077, 150.3435
472.3899, 151.6057
472.8720, 152.9763
473.3541, 154.4855
473.8362, 155.8997
474.3183, 157.0617
474.8004, 158.3294
475.2826, 160.6928
475.7647, 164.0579
476.2468, 167.0969
476.7289, 168.7694
477.2110, 169.7137
477.6931, 171.3985
478.1753, 173.8388
478.6574, 176.3296
479.1395, 178.5676
479.6216, 180.4079
480.1037, 181.5385
480.5858, 181.4931
481.0680, 181.4568
481.5501, 182.7167
482.0322, 184.5734
482.5143, 185.5521
482.9964, 184.7282
483.4786, 183.2007
483.9607, 181.3831
484.4428, 179.3150
484.9249, 177.0880
485.4070, 174.8774
485.8892, 172.4408
486.3713, 169.5768
486.8534, 165.7426
487.3355, 162.3241
487.8176, 159.3649
488.2997, 156.8428
488.7819, 154.6844
489.2640, 152.9850
489.7461, 151.4117
490.2282, 149.8435
490.7103, 148.2782
491.1924, 146.9263
491.6746, 145.7841
492.1567, 144.8284
492.6388, 144.0876
493.1209, 143.5369
493.6030, 143.0384
494.0851, 142.5496
494.5673, 142.1458
495.0494, 142.0388
495.5315, 142.1384
496.0136, 142.1240
496.4957, 141.4878
496.9778, 140.8728
497.4600, 141.2139
497.9421, 142.4048
498.4242, 143.3814
498.9063, 143.1304
499.3884, 142.6060
499.8705, 142.7078
500.3527, 143.9177
500.8348, 144.9900
501.3169, 145.4533
501.7990, 145.5106
502.2811, 145.4463
502.7632, 145.0073
503.2454, 144.7769
503.7275, 144.9878
504.2096, 145.5889
504.6917, 146.0352
505.1738, 146.2945
505.6559, 146.4413
506.1381, 146.5429
506.6202, 146.6696
507.1023, 146.3884
507.5844, 145.5052
508.0665, 144.5676
508.5486, 144.5634
509.0308, 145.5263
509.5129, 145.8223
509.9950, 144.7324
510.4771, 143.0132
510.9592, 142.4324
511.4413, 142.8751
511.9235, 143.2287
512.4056, 142.7361
512.8877, 141.7287
513.3698, 140.5203
513.8519, 139.0978
514.3340, 138.0523
514.8162, 138.2542
515.2983, 138.9216
515.7804, 139.1157
516.2625, 138.3698
516.7446, 137.3421
517.2267, 135.8833
517.7089, 134.3300
518.1910, 133.5280
518.6731, 134.6531
519.1552, 135.6269
519.6373, 135.6555
520.1194, 134.6573
520.6016, 133.6112
521.0837, 132.2800
521.5658, 131.1748
522.0479, 130.8044
522.5300, 131.5321
523.0121, 131.6180
523.4943, 130.7597
523.9764, 129.4592
524.4585, 128.6014
524.9406, 128.2082
525.4227, 127.8830
525.9048, 127.5147
526.3870, 127.1056
526.8691, 126.6320
527.3513, 126.0968
527.8334, 125.5710
528.3155, 125.0223
528.7976, 124.5395
529.2797, 124.3260
529.7618, 124.4647
530.2440, 124.4937
530.7261, 123.9442
531.2082, 123.1345
531.6903, 122.4824
532.1724, 122.1946
532.6545, 122.0006
533.1367, 121.8576
533.6188, 121.7440
534.1009, 121.5795
534.5830, 121.3820
535.0651, 121.1020
535.5472, 120.6946
536.0294, 120.1235
536.5115, 119.6549
536.9936, 119.2537
537.4757, 119.0046
537.9578, 119.0515
538.4399, 119.4751
538.9221, 119.6857
539.4042, 119.6143
539.8863, 119.3252
540.3684, 118.8108
540.8505, 118.1039
541.3326, 117.6130
541.8148, 117.6913
542.2969, 117.9760
542.7790, 117.6984
543.2611, 116.9388
543.7432, 116.3272
544.2253, 116.4027
544.7075, 116.7829
545.1896, 117.1123
545.6717, 117.3558
546.1538, 117.4696
546.6359, 117.2514
547.1180, 116.9683
547.6002, 116.9069
548.0823, 117.5966
548.5644, 117.9798
549.0465, 117.6535
549.5286, 116.8738
550.0107, 116.3788
550.4929, 116.2323
550.9750, 116.2812
551.4571, 116.5532
551.9392, 117.0508
552.4213, 117.2860
552.9034, 117.2030
553.3856, 117.0369
553.8677, 116.9901
554.3498, 117.0475
554.8319, 117.0001
555.3140, 116.7988
555.7961, 116.5944
556.2783, 116.6153
556.7604, 116.7971
557.2425, 116.9610
557.7246, 117.0521
558.2067, 117.0872
558.6888, 117.1263
559.1710, 117.1347
559.6531, 116.9875
560.1352, 116.4172
560.6173, 115.8392
561.0994, 115.4754
561.5815, 115.3430
562.0637, 115.4224
562.5458, 116.0400
563.0279, 116.6516
563.5100, 116.8552
563.9921, 116.3116
564.4742, 115.9472
564.9564, 115.7960
565.4385, 115.8184
565.9206, 115.9664
566.4027, 116.2502
566.8848, 116.6238
567.3669, 117.1877
567.8491, 117.7694
568.3312, 117.6415
568.8133, 116.8341
569.2954, 116.1193
569.7775, 116.1034
570.2596, 116.4920
570.7418, 116.7861
571.2239, 116.9597
571.7060, 117.0360
572.1881, 116.9731
572.6702, 116.8509
573.1523, 116.7561
573.6345, 116.7171
574.1166, 116.6976
574.5987, 116.6980
575.0808, 116.7069
575.5629, 116.7061
576.0450, 116.5544
576.5272, 116.5555
577.0093, 116.8607
577.4914, 117.3994
577.9735, 117.6813
578.4556, 117.5619
578.9377, 117.4810
579.4199, 117.6408
579.9020, 118.0423
580.3841, 118.6927
580.8662, 119.6550
581.3483, 120.5293
581.8304, 120.7155
582.3126, 120.4459
582.7947, 120.5858
583.2768, 121.4013
583.7589, 122.3392
584.2410, 122.7380
584.7231, 122.8309
585.2053, 123.0799
585.6874, 123.8329
586.1696, 124.6483
586.6517, 125.2481
587.1338, 125.6905
587.6159, 126.2506
588.0980, 127.0028
588.5801, 127.8794
589.0623, 128.8826
589.5444, 130.0314
590.0265, 131.1266
590.5086, 132.0445
590.9907, 133.0675
591.4728, 134.5138
591.9550, 136.4885
592.4371, 138.0953
592.9192, 139.1624
593.4013, 140.0705
593.8834, 141.5273
594.3655, 143.4029
594.8477, 144.8789
595.3298, 145.7100
595.8119, 145.9748
596.2940, 145.6821
596.7761, 144.8862
597.2582, 143.7611
597.7404, 142.6092
598.2225, 140.9951
598.7046, 138.1453
599.1867, 134.0673
599.6688, 130.9287
600.1509, 129.8166
600.6331, 129.4887
601.1152, 129.2263
601.5973, 128.9414
602.0794, 128.8257
602.5615, 128.9499
603.0436, 129.1765
603.5258, 129.3591
604.0079, 129.4949
604.4900, 129.5668
604.9721, 129.4833
605.4542, 129.4664
605.9363, 130.1063
606.4185, 131.3216
606.9006, 132.4287
607.3827, 132.9621
607.8648, 133.2870
608.3469, 134.0522
608.8290, 135.1521
609.3112, 135.9499
609.7933, 136.0212
610.2754, 135.6872
610.7575, 135.1308
611.2396, 134.3592
611.7217, 133.5450
612.2039, 132.7310
612.6860, 131.9023
613.1681, 131.0160
613.6502, 129.7473
614.1323, 129.0258
614.6144, 129.1451
615.0966, 129.5704
615.5787, 129.3949
616.0608, 128.4472
616.5429, 128.0779
617.0250, 128.8232
617.5071, 130.0771
617.9893, 130.4751
618.4714, 130.0811
618.9535, 129.3928
619.4356, 128.3239
619.9177, 127.2920
620.3998, 126.9769
620.8820, 127.3025
621.3641, 127.5322
621.8462, 127.0961
622.3283, 126.5156
622.8104, 126.2229
623.2925, 126.3916
623.7747, 126.3459
624.2568, 125.8513
624.7389, 125.1577
625.2210, 124.4648
625.7031, 123.8008
626.1852, 123.0135
626.6674, 121.9060
627.1495, 120.8971
627.6316, 120.9268
628.1137, 122.0559
628.5958, 122.6956
629.0779, 122.2324
629.5601, 121.1989
630.0422, 120.5771
630.5243, 120.3156
631.0064, 120.1397
631.4885, 119.9692
631.9706, 119.7683
632.4528, 119.4516
632.9349, 119.0394
633.4170, 118.7287
633.8991, 118.5524
634.3812, 118.5470
634.8633, 118.7866
635.3455, 119.4169
635.8276, 119.8342
636.3097, 119.9268
636.7918, 119.8918
637.2739, 119.8942
637.7560, 119.9571
638.2382, 119.9266
638.7203, 119.7243
639.2024, 119.5467
639.6845, 119.8020
640.1666, 120.4216
640.6487, 120.8414
641.1309, 120.8382
641.6130, 120.6295
642.0951, 120.4811
642.5772, 120.3704
643.0594, 120.2436
643.5415, 120.0853
644.0236, 119.8914
644.5057, 119.6587
644.9879, 119.3872
645.4700, 119.0832
645.9521, 118.4644
646.4342, 118.0844
646.9163, 118.2689
647.3984, 119.1604
647.8806, 119.6717
648.3627, 119.7253
648.8448, 119.5623
649.3269, 119.3754
649.8090, 119.1650
650.2911, 118.7423
650.7733, 118.0239
651.2554, 117.3828
651.7375, 117.3138
652.2196, 117.6615
652.7017, 118.0777
653.1838, 118.5757
653.6660, 118.8914
654.1481, 118.6949
654.6302, 118.1926
655.1123, 117.7465
655.5944, 117.2547
656.0765, 117.0715
656.5587, 117.5374
657.0408, 118.4646
657.5229, 118.9897
658.0050, 118.9627
658.4871, 118.7619
658.9692, 118.4856
659.4514, 118.1390
659.9335, 117.7335
660.4156, 117.2444
660.8977, 116.9075
661.3798, 116.9811
661.8619, 117.3341
662.3441, 117.6300
