##NAMES=Brochantite
##RRUFFID=R060117
##IDEAL CHEMISTRY=Cu^2+^_4_S^6+^O_4_(OH)_6_
##LOCALITY=M'sesa mine, Likasi, Katanga Province, Democratic Republic of the Congo
##OWNER=RRUFF
##SOURCE=University of Arizona Mineral Museum
##DESCRIPTION=Emerald-green thick acicular crystals
##STATUS=The identification of this mineral has been confirmed by X-ray diffraction and chemical analysis
##URL=rruff.info/R060117
##MEASURED CHEMISTRY=Cu_4.00_S_1.00_O_4_(OH)_6_
92.02539, 89.08388
92.50751, 90.50320
92.98962, 91.81977
93.47174, 91.71512
93.95386, 90.92937
94.43597, 89.36094
94.91809, 86.96655
95.40021, 84.08191
95.88232, 81.44266
96.36444, 78.82579
96.84656, 76.77660
97.32867, 75.55529
97.81078, 74.95559
98.29290, 74.68047
98.77502, 74.51446
99.25713, 74.41563
99.73925, 73.85604
100.2214, 72.66689
100.7035, 71.33201
101.1856, 69.97404
101.6677, 68.63760
102.1498, 67.36491
102.6320, 66.16354
103.1141, 64.80628
103.5962, 64.23553
104.0783, 65.05418
104.5604, 66.39523
105.0425, 67.34726
105.5247, 67.65352
106.0068, 67.46267
106.4889, 67.02671
106.9710, 66.44857
107.4531, 65.42013
107.9352, 63.59621
108.4173, 61.10429
108.8995, 58.59820
109.3816, 56.05603
109.8637, 53.81718
110.3458, 52.26010
110.8279, 51.50597
111.3100, 51.09840
111.7922, 50.44233
112.2743, 49.37490
112.7564, 48.60668
113.2385, 48.50531
113.7206, 48.68589
114.2027, 48.86786
114.6849, 48.93903
115.1670, 48.88837
115.6491, 48.67303
116.1312, 48.17165
116.6133, 47.61941
117.0954, 47.00079
117.5776, 46.36391
118.0597, 45.74794
118.5418, 45.16130
119.0239, 44.59932
119.5060, 44.37535
119.9881, 44.64225
120.4703, 45.02311
120.9524, 45.46162
121.4345, 45.90810
121.9166, 46.26051
122.3987, 46.45145
122.8808, 46.45095
123.3630, 46.11628
123.8451, 45.06640
124.3272, 43.87437
124.8093, 43.19055
125.2914, 43.17498
125.7735, 43.28867
126.2557, 42.73073
126.7378, 41.66258
127.2199, 40.93342
127.7020, 41.16578
128.1841, 42.03935
128.6662, 42.49889
129.1483, 42.15360
129.6305, 41.61192
130.1126, 41.42626
130.5947, 41.55836
131.0768, 41.61234
131.5589, 41.11761
132.0410, 39.96523
132.5232, 39.16018
133.0053, 39.20313
133.4874, 39.37640
133.9695, 39.33418
134.4516, 39.00549
134.9337, 38.53346
135.4159, 38.12992
135.8980, 37.83047
136.3801, 37.53522
136.8622, 37.27132
137.3443, 36.99184
137.8264, 36.61676
138.3086, 36.12137
138.7907, 35.59672
139.2728, 35.30616
139.7549, 35.66062
140.2370, 35.78088
140.7191, 35.47960
141.2013, 34.92399
141.6834, 34.32536
142.1655, 33.77189
142.6476, 33.29763
143.1297, 33.06257
143.6118, 33.21171
144.0939, 33.39121
144.5761, 33.55019
145.0582, 33.65632
145.5403, 33.53288
146.0224, 32.93533
146.5045, 32.06597
146.9866, 31.54202
147.4688, 31.67314
147.9509, 31.92260
148.4330, 31.64453
148.9151, 30.71897
149.3972, 30.01814
149.8793, 30.45406
150.3615, 31.36485
150.8436, 31.93444
151.3257, 31.72238
151.8078, 31.06199
152.2899, 30.73455
152.7720, 30.93771
153.2542, 31.13361
153.7363, 31.11661
154.2184, 30.94861
154.7005, 30.72220
155.1826, 30.49798
155.6647, 30.26831
156.1469, 29.95167
156.6290, 29.32499
157.1111, 28.83698
157.5932, 28.69078
158.0753, 28.78388
158.5574, 28.89390
159.0396, 28.83049
159.5217, 28.57060
160.0038, 28.34484
160.4859, 28.08471
160.9680, 27.91101
161.4501, 27.95189
161.9323, 28.16199
162.4144, 28.30645
162.8965, 27.60957
163.3786, 28.01638
163.8607, 28.18874
164.3428, 28.13924
164.8250, 27.20340
165.3071, 27.41208
165.7892, 27.16210
166.2713, 26.89331
166.7534, 27.26308
167.2355, 26.45617
167.7177, 26.81579
168.1998, 26.70976
168.6819, 26.81686
169.1640, 26.46246
169.6461, 26.25061
170.1282, 26.50040
170.6104, 26.49454
171.0925, 26.08702
171.5746, 25.53209
172.0567, 25.59436
172.5388, 25.91409
173.0209, 26.08536
173.5031, 25.93373
173.9852, 25.76051
174.4673, 25.91498
174.9494, 26.35487
175.4315, 26.67133
175.9136, 26.44460
176.3958, 25.69952
176.8779, 25.20548
177.3600, 25.31918
177.8421, 25.51341
178.3242, 25.44960
178.8063, 25.13228
179.2885, 24.81551
179.7706, 24.78455
180.2527, 25.11205
180.7348, 25.41395
181.2169, 25.81794
181.6990, 26.07984
182.1812, 25.97181
182.6633, 25.50022
183.1454, 24.92590
183.6275, 24.62676
184.1096, 24.76951
184.5917, 24.84776
185.0738, 24.77016
185.5560, 24.69534
186.0381, 24.78952
186.5202, 25.07349
187.0023, 25.37808
187.4844, 25.40244
187.9665, 24.81720
188.4487, 24.47119
188.9308, 24.53784
189.4129, 24.74828
189.8950, 24.87307
190.3771, 24.83490
190.8592, 24.67674
191.3414, 24.45916
191.8235, 24.04294
192.3056, 23.83556
192.7877, 24.08854
193.2698, 24.51802
193.7519, 24.71631
194.2341, 24.51464
194.7162, 24.12114
195.1983, 23.98964
195.6804, 24.20316
196.1625, 24.32227
196.6446, 24.17266
197.1268, 23.83218
197.6089, 23.42965
198.0910, 22.92032
198.5731, 22.51557
199.0552, 22.60464
199.5373, 23.27814
200.0195, 23.87900
200.5016, 23.96668
200.9837, 23.64164
201.4658, 23.42760
201.9479, 23.54682
202.4300, 23.77266
202.9122, 23.87142
203.3943, 23.83688
203.8764, 23.68818
204.3585, 23.33790
204.8406, 22.78756
205.3227, 22.45922
205.8048, 22.59644
206.2870, 22.90440
206.7691, 23.20941
207.2512, 23.48855
207.7333, 23.72848
208.2154, 23.95029
208.6975, 24.18430
209.1797, 24.21662
209.6618, 23.71062
210.1439, 23.19172
210.6260, 23.00372
211.1081, 23.18530
211.5902, 23.46202
212.0724, 23.44784
212.5545, 22.99973
213.0366, 22.69677
213.5187, 22.59430
214.0008, 22.62249
214.4829, 22.85325
214.9651, 23.25191
215.4472, 23.59250
215.9293, 23.47257
216.4114, 22.42976
216.8935, 21.90408
217.3756, 22.25297
217.8578, 22.77570
218.3399, 22.96752
218.8220, 22.73013
219.3041, 22.34061
219.7862, 22.23120
220.2683, 22.62068
220.7505, 22.87917
221.2326, 22.92953
221.7147, 22.91370
222.1968, 22.92598
222.6789, 22.99353
223.1610, 23.11052
223.6432, 23.28502
224.1253, 23.65734
224.6074, 23.75677
225.0895, 23.26447
225.5716, 22.67870
226.0537, 22.52484
226.5358, 22.91255
227.0180, 23.44627
227.5001, 23.56173
227.9822, 23.10069
228.4643, 22.69213
228.9464, 22.23981
229.4285, 21.91842
229.9107, 22.01415
230.3928, 22.60259
230.8749, 23.30603
231.3570, 23.61769
231.8391, 23.50404
232.3212, 23.40943
232.8034, 23.43417
233.2855, 23.50133
233.7676, 23.49762
234.2497, 23.39155
234.7318, 23.28238
235.2139, 23.30952
235.6961, 23.45378
236.1782, 23.56136
236.6603, 23.57931
237.1424, 23.54188
237.6245, 23.47672
238.1066, 23.36282
238.5888, 23.30407
239.0709, 23.51389
239.5530, 23.89182
240.0351, 24.09056
240.5172, 23.82311
240.9993, 23.33303
241.4815, 23.10846
241.9636, 23.25237
242.4457, 23.46884
242.9278, 23.50127
243.4099, 23.43882
243.8920, 23.47637
244.3742, 23.83546
244.8563, 24.32876
245.3384, 24.50462
245.8205, 24.26747
246.3026, 23.91673
246.7847, 23.59875
247.2668, 23.29417
247.7490, 22.96823
248.2311, 22.58721
248.7132, 22.18464
249.1953, 21.83067
249.6774, 21.52105
250.1595, 21.27808
250.6417, 21.09263
251.1238, 20.97319
251.6059, 20.95583
252.0880, 21.09571
252.5701, 21.29910
253.0522, 21.31815
253.5344, 21.06170
254.0165, 20.79235
254.4986, 20.62832
254.9807, 20.48322
255.4628, 20.24578
255.9449, 19.85711
256.4271, 19.39467
256.9092, 19.03304
257.3913, 18.79383
257.8734, 18.62928
258.3555, 18.52380
258.8376, 18.47372
259.3198, 18.50265
259.8019, 18.62152
260.2840, 18.75882
260.7661, 18.73344
261.2482, 18.34127
261.7303, 17.71528
262.2125, 18.32905
262.6946, 18.68491
263.1767, 18.79674
263.6588, 17.93361
264.1409, 18.32943
264.6230, 18.22072
265.1052, 18.09133
265.5873, 18.66435
266.0694, 17.94302
266.5515, 18.50490
267.0336, 17.82562
267.5157, 17.59388
267.9979, 17.64908
268.4800, 17.89521
268.9621, 18.50823
269.4442, 18.92105
269.9263, 19.17776
270.4084, 19.24836
270.8906, 19.00802
271.3727, 18.49740
271.8548, 17.95913
272.3369, 17.68640
272.8190, 17.73871
273.3011, 17.88817
273.7833, 18.28633
274.2654, 18.63796
274.7475, 18.78462
275.2296, 18.71900
275.7117, 18.50444
276.1938, 18.17788
276.6760, 17.69018
277.1581, 17.40521
277.6402, 17.43484
278.1223, 17.51196
278.6044, 17.52363
279.0865, 17.47138
279.5686, 17.40853
280.0508, 17.37942
280.5329, 17.38532
281.0150, 17.36239
281.4971, 17.31864
281.9792, 17.24475
282.4613, 17.07320
282.9435, 16.86418
283.4256, 16.76597
283.9077, 16.88954
284.3898, 17.20049
284.8719, 17.38156
285.3540, 17.46033
285.8362, 17.40533
286.3183, 17.02237
286.8004, 16.51672
287.2825, 16.28840
287.7646, 16.56965
288.2467, 17.18874
288.7289, 17.54494
289.2110, 17.51406
289.6931, 17.39974
290.1752, 17.21912
290.6573, 16.98771
291.1394, 16.68849
291.6216, 16.30570
292.1037, 15.94473
292.5858, 15.83415
293.0679, 16.08651
293.5500, 16.37406
294.0321, 16.35117
294.5143, 16.86561
294.9964, 17.14561
295.4785, 17.20375
295.9606, 16.37557
296.4427, 16.69189
296.9248, 16.54955
297.4070, 16.38839
297.8891, 16.86580
298.3712, 16.16653
298.8533, 16.63381
299.3354, 16.63543
299.8175, 16.85017
300.2997, 16.60341
300.7818, 16.49919
301.2639, 16.85662
301.7460, 16.95843
302.2281, 16.65855
302.7102, 16.88683
303.1924, 16.17144
303.6745, 16.28414
304.1566, 16.75412
304.6387, 16.47744
305.1208, 16.71417
305.6029, 16.75536
306.0851, 15.90793
306.5672, 16.60590
307.0493, 16.63554
307.5314, 15.97894
308.0135, 16.62396
308.4956, 16.06197
308.9778, 15.93080
309.4599, 16.12387
309.9420, 15.89098
310.4241, 15.84084
310.9062, 15.88859
311.3883, 15.89842
311.8705, 15.80567
312.3526, 15.67575
312.8347, 15.66905
313.3168, 15.84940
313.7989, 15.98084
314.2810, 15.93769
314.7632, 15.84731
315.2453, 15.92679
315.7274, 16.24466
316.2095, 16.58002
316.6916, 16.60169
317.1737, 16.21237
317.6559, 15.93843
318.1380, 15.94847
318.6201, 16.01559
319.1022, 15.83321
319.5843, 15.38684
320.0664, 15.09443
320.5485, 15.45091
321.0306, 16.51974
321.5128, 17.01243
321.9949, 16.47862
322.4770, 15.77048
322.9591, 15.41633
323.4412, 15.39245
323.9233, 15.39824
324.4055, 15.20819
324.8876, 14.88431
325.3697, 14.86222
325.8518, 15.39238
326.3339, 15.90181
326.8160, 16.24144
327.2982, 16.40297
327.7803, 16.33807
328.2624, 15.98780
328.7445, 15.48567
329.2266, 15.20029
329.7087, 15.25275
330.1909, 15.26824
330.6730, 15.07466
331.1551, 14.84297
331.6372, 14.81271
332.1193, 15.05508
332.6014, 15.44347
333.0836, 15.83672
333.5657, 16.31986
334.0478, 16.49446
334.5299, 16.09452
335.0120, 15.54599
335.4941, 15.18523
335.9763, 15.05506
336.4584, 15.01394
336.9405, 14.93684
337.4226, 14.81882
337.9047, 14.72608
338.3868, 14.61228
338.8690, 14.56146
339.3511, 14.66780
339.8332, 14.88300
340.3153, 15.05391
340.7974, 15.07337
341.2795, 14.97569
341.7617, 14.98399
342.2438, 15.16645
342.7259, 15.35673
343.2080, 15.64236
343.6901, 15.88370
344.1722, 15.79881
344.6544, 15.26239
345.1365, 14.54118
345.6186, 14.19350
346.1007, 14.56326
346.5828, 14.81030
347.0649, 14.85543
347.5471, 14.81901
348.0292, 14.82692
348.5113, 14.89345
348.9934, 14.90617
349.4755, 14.70062
349.9576, 14.15573
350.4398, 13.91498
350.9219, 14.14288
351.4040, 14.47243
351.8861, 14.80655
352.3682, 15.08571
352.8503, 15.19689
353.3325, 15.02419
353.8146, 14.59828
354.2967, 14.40848
354.7788, 14.71125
355.2609, 14.95586
355.7430, 15.00429
356.2252, 14.93079
356.7073, 14.87176
357.1894, 14.89346
357.6715, 14.91022
358.1536, 14.68637
358.6357, 13.87723
359.1179, 13.35959
359.5999, 13.22678
360.0821, 13.33033
360.5642, 13.64214
361.0463, 14.11191
361.5284, 14.56497
362.0105, 14.77633
362.4926, 14.68545
362.9748, 14.58084
363.4569, 14.38685
363.9390, 14.24994
364.4211, 14.31944
364.9032, 14.51149
365.3853, 14.59299
365.8675, 14.35892
366.3496, 13.85671
366.8317, 13.54315
367.3138, 13.51939
367.7959, 13.57538
368.2780, 13.67911
368.7602, 13.82647
369.2423, 14.05463
369.7244, 14.38590
370.2065, 14.70215
370.6886, 14.72229
371.1707, 14.25861
371.6529, 13.97587
372.1350, 14.14747
372.6171, 14.38844
373.0992, 14.42293
373.5813, 14.22686
374.0634, 14.00153
374.5456, 13.97656
375.0277, 14.16452
375.5098, 14.27640
375.9919, 14.26941
376.4740, 14.21736
376.9561, 14.08973
377.4383, 13.94471
377.9204, 13.91882
378.4025, 14.14764
378.8846, 14.51628
379.3667, 14.68585
379.8488, 14.57856
380.3310, 14.47227
380.8131, 14.59810
381.2952, 14.73051
381.7773, 14.56108
382.2594, 13.94399
382.7415, 13.33119
383.2237, 13.30966
383.7058, 13.87465
384.1879, 14.29724
384.6700, 14.37101
385.1521, 14.26697
385.6342, 14.11133
386.1164, 13.91453
386.5985, 13.77311
387.0806, 13.75180
387.5627, 13.82440
388.0448, 13.96974
388.5269, 14.23592
389.0091, 14.40482
389.4912, 14.20554
389.9733, 13.78758
390.4554, 13.47438
390.9375, 13.34403
391.4196, 13.32975
391.9018, 13.41322
392.3839, 13.58264
392.8660, 13.72989
393.3481, 13.81620
393.8302, 13.84262
394.3123, 13.81193
394.7945, 13.71060
395.2766, 13.60392
395.7587, 13.43883
396.2408, 13.30438
396.7229, 13.42285
397.2050, 13.87165
397.6872, 14.31686
398.1693, 14.34393
398.6514, 13.90316
399.1335, 13.64972
399.6156, 13.79834
400.0977, 13.99022
400.5798, 13.95557
401.0620, 13.72190
401.5441, 13.47151
402.0262, 13.31314
402.5083, 13.23054
402.9904, 13.14775
403.4725, 13.01931
403.9547, 12.94594
404.4368, 12.96439
404.9189, 13.04159
405.4010, 13.15893
405.8831, 13.30584
406.3652, 13.43094
406.8474, 13.44882
407.3295, 13.29354
407.8116, 13.22345
408.2937, 13.28523
408.7758, 13.37965
409.2579, 13.50271
409.7401, 13.61569
410.2222, 13.62575
410.7043, 13.44904
411.1864, 13.11517
411.6685, 12.87713
412.1506, 12.69952
412.6328, 12.68019
413.1149, 12.99639
413.5970, 13.40217
414.0791, 13.61868
414.5612, 13.55381
415.0433, 13.34870
415.5255, 13.21165
416.0076, 13.15231
416.4897, 13.12674
416.9718, 13.30118
417.4539, 13.36279
417.9360, 13.00468
418.4182, 12.36099
418.9003, 11.90044
419.3824, 12.02361
419.8645, 12.59277
420.3466, 13.01662
420.8287, 13.31513
421.3109, 13.41121
421.7930, 13.10550
422.2751, 12.66483
422.7572, 12.39995
423.2393, 12.41595
423.7214, 12.52328
424.2036, 12.09674
424.6857, 12.60919
425.1678, 12.88719
425.6499, 12.94333
426.1320, 12.11314
426.6141, 12.42747
427.0963, 12.28312
427.5784, 12.11997
428.0605, 12.59538
428.5426, 11.89411
429.0247, 12.35939
429.5068, 12.35900
429.9890, 12.57174
430.4711, 12.32298
430.9532, 12.21676
431.4353, 12.57219
431.9174, 12.59824
432.3995, 12.97746
432.8817, 13.09792
433.3638, 13.01082
433.8459, 12.76412
434.3280, 12.34543
434.8101, 11.95053
435.2922, 11.87827
435.7744, 12.23223
436.2565, 12.50702
436.7386, 12.66064
437.2207, 12.75050
437.7028, 12.77063
438.1849, 12.75212
438.6671, 12.81054
439.1492, 13.04906
439.6313, 13.40219
440.1134, 13.47635
440.5955, 13.00589
441.0776, 12.57934
441.5598, 12.17263
442.0418, 11.88439
442.5240, 11.87289
443.0061, 12.15323
443.4882, 12.52728
443.9703, 12.73557
444.4524, 12.74152
444.9345, 12.75591
445.4167, 12.70462
445.8988, 12.73634
446.3809, 12.98427
446.8630, 13.34740
447.3451, 13.66032
447.8272, 13.84780
448.3094, 13.87419
448.7915, 13.56801
449.2736, 12.71940
449.7557, 12.14119
450.2378, 12.25463
450.7199, 12.56194
451.2021, 12.76361
451.6842, 12.81386
452.1663, 12.75230
452.6484, 12.54765
453.1305, 12.24274
453.6126, 12.04210
454.0948, 11.98983
454.5769, 11.96836
455.0590, 11.85532
455.5411, 11.72329
456.0232, 11.72187
456.5053, 11.96970
456.9875, 12.23852
457.4696, 12.31971
457.9517, 12.24933
458.4338, 12.18604
458.9159, 12.17027
459.3980, 12.20748
459.8802, 12.35838
460.3623, 12.65336
460.8444, 12.78005
461.3265, 12.45268
461.8086, 12.09036
462.2907, 12.15032
462.7729, 12.59350
463.2550, 12.98560
463.7371, 13.01474
464.2192, 12.75897
464.7013, 12.67231
465.1834, 12.96629
465.6656, 13.14800
466.1477, 13.03998
466.6298, 12.84046
467.1119, 12.79004
467.5940, 12.93187
468.0761, 13.10014
468.5583, 13.08955
469.0404, 12.86671
469.5225, 12.67924
470.0046, 12.53469
470.4867, 12.41885
470.9688, 12.31526
471.4510, 12.24126
471.9331, 12.22716
472.4152, 12.28850
472.8973, 12.40754
473.3794, 12.59804
473.8615, 12.92628
474.3437, 13.03685
474.8258, 12.52981
475.3079, 12.05788
475.7900, 12.12472
476.2721, 12.65476
476.7542, 13.12138
477.2364, 13.12337
477.7185, 12.85157
478.2006, 12.76512
478.6827, 12.90395
479.1648, 12.99950
479.6469, 12.89115
480.1291, 12.65976
480.6112, 12.45383
481.0933, 12.27959
481.5754, 12.13139
482.0575, 11.95459
482.5396, 11.81407
483.0217, 11.87080
483.5038, 12.16475
483.9860, 12.46958
484.4681, 12.03879
484.9502, 12.55012
485.4323, 12.82700
485.9144, 12.88204
486.3965, 12.05074
486.8787, 12.36395
487.3608, 12.21849
487.8429, 12.05423
488.3250, 12.52852
488.8071, 11.82614
489.2892, 12.29031
489.7714, 12.28881
490.2535, 12.50044
490.7356, 12.25056
491.2177, 12.14323
491.6998, 12.49755
492.1819, 12.59625
492.6641, 12.29325
493.1462, 11.74270
493.6283, 11.45396
494.1104, 11.39115
494.5925, 11.68349
495.0746, 11.85055
495.5568, 11.58943
496.0389, 11.29589
496.5210, 11.29077
497.0031, 11.57679
497.4852, 11.85318
497.9673, 11.86041
498.4495, 11.70009
498.9316, 11.66027
499.4137, 11.77036
499.8958, 11.91323
500.3779, 12.09018
500.8600, 12.22931
501.3422, 12.18569
501.8243, 11.89421
502.3064, 11.54671
502.7885, 11.12862
503.2706, 10.74486
503.7527, 10.60747
504.2349, 10.76507
504.7170, 11.05230
505.1991, 11.33638
505.6812, 11.62204
506.1633, 11.77060
506.6454, 11.69106
507.1276, 11.59228
507.6097, 11.53641
508.0918, 11.51505
508.5739, 11.53113
509.0560, 11.58174
509.5381, 11.60701
510.0203, 11.50221
510.5024, 11.22285
510.9845, 10.96548
511.4666, 10.59616
511.9487, 10.38339
512.4308, 10.52430
512.9130, 10.89038
513.3951, 11.24099
513.8772, 11.46692
514.3593, 11.58129
514.8414, 11.57635
515.3235, 11.42981
515.8057, 11.34000
516.2878, 11.42357
516.7699, 11.50413
517.2520, 11.42836
517.7341, 11.21105
518.2162, 10.96983
518.6984, 10.69243
519.1805, 10.45204
519.6626, 10.35011
520.1447, 10.38297
520.6268, 10.48613
521.1089, 10.64792
521.5911, 10.83993
522.0732, 11.00367
522.5553, 11.16690
523.0374, 11.23804
523.5195, 11.04039
524.0016, 10.85632
524.4838, 11.02774
524.9659, 11.49712
525.4480, 11.88513
525.9301, 11.91301
526.4122, 11.63984
526.8943, 11.36022
527.3765, 11.01351
527.8586, 10.75631
528.3407, 10.56982
528.8228, 10.49218
529.3049, 10.63632
529.7870, 10.96118
530.2692, 11.22236
530.7513, 11.16568
531.2334, 10.85569
531.7155, 10.66930
532.1976, 10.61718
532.6797, 10.66661
533.1619, 10.98137
533.6440, 11.30410
534.1261, 11.31109
534.6082, 10.91151
535.0903, 10.54722
535.5724, 10.57546
536.0546, 10.82902
536.5367, 10.90800
537.0188, 10.74644
537.5009, 10.66791
537.9830, 10.97334
538.4651, 11.56412
538.9473, 11.87674
539.4294, 11.77104
539.9115, 11.59340
540.3936, 11.41116
540.8757, 11.22296
541.3578, 10.98201
541.8400, 10.70064
542.3221, 10.51588
542.8042, 10.58437
543.2863, 10.91070
543.7684, 11.20525
544.2505, 11.09912
544.7326, 11.60525
545.2147, 11.87693
545.6968, 11.92677
546.1790, 11.09027
546.6611, 11.39828
547.1432, 11.24763
547.6253, 11.07817
548.1074, 11.54726
548.5895, 10.83969
549.0717, 11.29865
549.5538, 11.29196
550.0359, 11.40544
550.5180, 11.65658
551.0001, 11.68351
551.4822, 11.36102
551.9644, 11.02894
552.4465, 10.90259
552.9286, 10.91687
553.4107, 10.95375
553.8928, 10.99143
554.3749, 11.00718
554.8571, 10.96897
555.3392, 10.87992
555.8213, 10.85837
556.3034, 11.04480
556.7855, 11.11835
557.2676, 10.87156
557.7498, 10.52712
558.2319, 10.33516
558.7140, 10.35926
559.1961, 10.53676
559.6782, 10.84890
560.1603, 11.29855
560.6425, 11.50299
561.1246, 11.32653
561.6067, 11.08957
562.0888, 10.77652
562.5709, 10.51934
563.0530, 10.52784
563.5352, 10.86272
564.0173, 11.17408
564.4994, 11.08488
564.9815, 10.72886
565.4636, 10.57431
565.9457, 10.70205
566.4279, 10.83208
566.9100, 10.75326
567.3921, 10.53315
567.8742, 10.42541
568.3563, 10.50804
568.8384, 10.57205
569.3206, 10.53539
569.8027, 10.44726
570.2848, 10.33153
570.7669, 10.21062
571.2490, 10.17409
571.7311, 10.31776
572.2133, 10.61780
572.6954, 10.80747
573.1775, 10.85179
573.6596, 10.82459
574.1417, 10.66418
574.6238, 10.48728
575.1060, 10.39736
575.5881, 10.40317
576.0702, 10.44210
576.5523, 10.48743
577.0344, 10.52228
577.5165, 10.45544
577.9987, 10.24796
578.4808, 10.11364
578.9629, 10.19494
579.4450, 10.36662
579.9271, 10.43728
580.4092, 10.38421
580.8914, 10.37250
581.3735, 10.52936
581.8556, 10.71832
582.3377, 10.77181
582.8198, 10.69907
583.3019, 10.62604
583.7841, 10.62717
584.2662, 10.67089
584.7483, 10.66075
585.2304, 10.38238
585.7125, 9.989934
586.1946, 10.54448
586.6768, 10.86459
587.1589, 10.96283
