##NAMES=Brookite
##RRUFFID=R050591
##IDEAL CHEMISTRY=Ti^4+^O_2_
##LOCALITY=Taftan, near Dalbandi, Baluchistan, Pakistan
##OWNER=RRUFF
##SOURCE=Wayne Thompson
##DESCRIPTION=Yellowish-brown to reddish-brown thin tabular crystal
##STATUS=The identification of this mineral has been confirmed by X-ray diffraction and chemical analysis
##URL=rruff.info/R050591
##MEASURED CHEMISTRY=Ti_1.00_O_2_
92.06543, 1914.787
92.54755, 1868.776
93.02966, 1866.802
93.51178, 1929.111
93.99390, 1981.178
94.47601, 2011.617
94.95813, 2026.845
95.44025, 2040.214
95.92236, 2062.591
96.40448, 2094.237
96.88660, 2119.619
97.36871, 2136.930
97.85082, 2152.584
98.33294, 2169.093
98.81506, 2185.581
99.29717, 2201.805
99.77929, 2229.282
100.2614, 2267.356
100.7435, 2308.753
101.2256, 2346.358
101.7078, 2385.334
102.1899, 2437.040
102.6720, 2500.978
103.1541, 2584.271
103.6362, 2687.013
104.1183, 2808.645
104.6005, 2946.066
105.0826, 3097.273
105.5647, 3263.145
106.0468, 3438.893
106.5289, 3637.029
107.0110, 3835.349
107.4931, 4022.807
107.9753, 4196.927
108.4574, 4356.743
108.9395, 4498.218
109.4216, 4598.779
109.9037, 4716.483
110.3858, 4852.638
110.8680, 5008.223
111.3501, 5183.931
111.8322, 5380.858
112.3143, 5597.064
112.7964, 5827.587
113.2785, 6077.985
113.7607, 6335.418
114.2428, 6592.953
114.7249, 6853.672
115.2070, 7128.917
115.6891, 7423.576
116.1712, 7742.870
116.6534, 8082.148
117.1355, 8435.731
117.6176, 8812.587
118.0997, 9209.338
118.5818, 9624.853
119.0639, 10089.25
119.5461, 10627.39
120.0282, 11233.96
120.5103, 11923.31
120.9924, 12672.42
121.4745, 13506.63
121.9566, 14480.78
122.4388, 15559.87
122.9209, 16871.37
123.4030, 18476.76
123.8851, 20337.43
124.3672, 22348.17
124.8493, 24601.44
125.3315, 27159.36
125.8136, 29128.21
126.2957, 30486.76
126.7778, 31136.45
127.2599, 30729.75
127.7420, 29354.35
128.2242, 27574.23
128.7063, 26091.86
129.1884, 24842.03
129.6705, 24096.85
130.1526, 24034.96
130.6347, 24258.69
131.1169, 24567.26
131.5990, 24871.73
132.0811, 25088.14
132.5632, 25026.40
133.0453, 24542.05
133.5274, 23928.36
134.0096, 23113.83
134.4917, 22193.04
134.9738, 21281.15
135.4559, 20414.24
135.9380, 19621.31
136.4201, 19012.43
136.9023, 18577.84
137.3844, 18282.03
137.8665, 18121.93
138.3486, 18092.62
138.8307, 18176.53
139.3128, 18368.85
139.7950, 18685.36
140.2771, 19112.52
140.7592, 19661.47
141.2413, 20310.73
141.7234, 21037.89
142.2055, 21836.20
142.6877, 22734.98
143.1698, 23755.33
143.6519, 24877.61
144.1340, 26102.37
144.6161, 27427.17
145.0982, 28857.29
145.5803, 30409.27
146.0625, 32072.96
146.5446, 33898.89
147.0267, 35912.65
147.5088, 38071.46
147.9909, 40330.84
148.4730, 42690.81
148.9552, 45145.24
149.4373, 47462.30
149.9194, 49855.59
150.4015, 51908.05
150.8836, 53625.26
151.3657, 54914.28
151.8479, 55641.96
152.3300, 55685.92
152.8121, 55029.86
153.2942, 53664.82
153.7763, 51456.50
154.2584, 48842.80
154.7406, 45891.89
155.2227, 42689.32
155.7048, 39392.87
156.1869, 36146.60
156.6690, 32931.37
157.1511, 29983.36
157.6333, 27332.27
158.1154, 24920.11
158.5975, 22724.57
159.0796, 20740.96
159.5617, 18946.30
160.0438, 17345.04
160.5260, 15929.01
161.0081, 14643.98
161.4902, 13507.00
161.9723, 12495.05
162.4544, 11569.88
162.9365, 10735.77
163.4187, 9980.193
163.9008, 9287.166
164.3829, 8654.838
164.8650, 8077.321
165.3471, 7560.375
165.8292, 7100.349
166.3113, 6682.245
166.7935, 6312.957
167.2756, 5981.321
167.7577, 5676.731
168.2398, 5397.731
168.7219, 5141.515
169.2040, 4907.507
169.6862, 4696.606
170.1683, 4504.364
170.6504, 4344.218
171.1325, 4194.677
171.6146, 4042.547
172.0967, 3886.191
172.5789, 3734.468
173.0610, 3600.733
173.5431, 3490.152
174.0252, 3387.564
174.5073, 3290.031
174.9894, 3198.425
175.4716, 3114.811
175.9537, 3039.753
176.4358, 2969.308
176.9179, 2895.477
177.4000, 2809.978
177.8821, 2732.990
178.3643, 2665.338
178.8464, 2605.875
179.3285, 2554.371
179.8106, 2510.502
180.2927, 2473.555
180.7748, 2442.285
181.2570, 2418.740
181.7391, 2398.248
182.2212, 2378.991
182.7033, 2362.777
183.1854, 2352.411
183.6675, 2349.136
184.1497, 2352.583
184.6318, 2362.380
185.1139, 2377.628
185.5960, 2398.158
186.0781, 2420.201
186.5602, 2446.767
187.0423, 2485.706
187.5245, 2538.509
188.0066, 2609.570
188.4887, 2701.372
188.9708, 2807.051
189.4529, 2940.778
189.9350, 3114.166
190.4172, 3325.277
190.8993, 3563.988
191.3814, 3850.067
191.8635, 4148.033
192.3456, 4424.716
192.8277, 4701.467
193.3099, 4903.602
193.7920, 4952.720
194.2741, 4840.173
194.7562, 4636.610
195.2383, 4284.305
195.7204, 3888.053
196.2026, 3527.168
196.6847, 3217.598
197.1668, 2958.815
197.6489, 2751.911
198.1310, 2602.904
198.6131, 2492.461
199.0953, 2424.922
199.5774, 2383.894
200.0595, 2358.802
200.5416, 2345.731
201.0237, 2344.530
201.5058, 2355.330
201.9880, 2380.797
202.4701, 2415.266
202.9522, 2453.925
203.4343, 2500.524
203.9164, 2558.494
204.3985, 2629.263
204.8807, 2712.148
205.3628, 2804.340
205.8449, 2895.234
206.3270, 3012.549
206.8091, 3156.070
207.2912, 3326.074
207.7733, 3521.214
208.2555, 3739.891
208.7376, 3986.622
209.2197, 4279.065
209.7018, 4644.833
210.1839, 5029.610
210.6660, 5462.290
211.1482, 5902.832
211.6303, 6318.858
212.1124, 6701.705
212.5945, 7018.987
213.0766, 7129.170
213.5587, 7010.963
214.0409, 6739.047
214.5230, 6253.015
215.0051, 5628.240
215.4872, 4974.727
215.9693, 4334.625
216.4514, 3725.741
216.9336, 3229.426
217.4157, 2851.649
217.8978, 2541.650
218.3799, 2292.877
218.8620, 2099.853
219.3441, 1948.143
219.8263, 1835.956
220.3084, 1759.357
220.7905, 1702.821
221.2726, 1666.997
221.7547, 1645.434
222.2368, 1633.548
222.7190, 1632.723
223.2011, 1648.745
223.6832, 1684.626
224.1653, 1740.726
224.6474, 1811.641
225.1295, 1898.166
225.6117, 1996.722
226.0938, 2106.615
226.5759, 2227.385
227.0580, 2354.680
227.5401, 2494.353
228.0222, 2633.835
228.5043, 2759.399
228.9865, 2868.347
229.4686, 2968.668
229.9507, 3063.371
230.4328, 3152.320
230.9149, 3240.755
231.3970, 3319.832
231.8792, 3407.008
232.3613, 3515.591
232.8434, 3647.079
233.3255, 3798.911
233.8076, 3970.080
234.2897, 4161.030
234.7719, 4365.547
235.2540, 4576.188
235.7361, 4807.628
236.2182, 5068.285
236.7003, 5360.351
237.1824, 5682.736
237.6646, 6029.774
238.1467, 6398.544
238.6288, 6822.053
239.1109, 7297.140
239.5930, 7839.782
240.0751, 8461.721
240.5573, 9165.857
241.0394, 9955.732
241.5215, 10831.66
242.0036, 11799.43
242.4857, 12849.76
242.9678, 14080.03
243.4500, 15313.93
243.9321, 16550.83
244.4142, 17740.18
244.8963, 18741.71
245.3784, 19421.60
245.8605, 19804.61
246.3427, 19741.31
246.8248, 19107.25
247.3069, 18173.18
247.7890, 16945.95
248.2711, 15493.94
248.7532, 13992.37
249.2354, 12594.59
249.7175, 11296.09
250.1996, 10150.71
250.6817, 9161.874
251.1638, 8301.387
251.6459, 7575.917
252.1281, 6973.602
252.6102, 6471.705
253.0923, 6049.476
253.5744, 5717.028
254.0565, 5418.413
254.5386, 5152.716
255.0208, 4913.741
255.5029, 4698.972
255.9850, 4507.960
256.4671, 4340.784
256.9492, 4198.215
257.4313, 4082.415
257.9135, 3971.503
258.3956, 3856.777
258.8777, 3753.777
259.3598, 3670.583
259.8419, 3605.072
260.3240, 3549.814
260.8062, 3500.202
261.2883, 3456.143
261.7704, 3411.188
262.2525, 3361.133
262.7346, 3314.107
263.2167, 3274.938
263.6989, 3241.704
264.1810, 3209.370
264.6631, 3174.346
265.1452, 3137.328
265.6273, 3104.328
266.1094, 3074.978
266.5916, 3049.116
267.0737, 3027.442
267.5558, 3009.384
268.0379, 2993.626
268.5200, 2979.561
269.0021, 2967.203
269.4843, 2956.602
269.9664, 2948.935
270.4485, 2941.164
270.9306, 2929.384
271.4127, 2916.842
271.8948, 2911.038
272.3770, 2916.051
272.8591, 2928.294
273.3412, 2938.910
273.8233, 2947.128
274.3054, 2955.644
274.7875, 2965.306
275.2697, 2975.783
275.7518, 2985.965
276.2339, 2995.011
276.7160, 3004.812
277.1981, 3019.940
277.6802, 3041.307
278.1623, 3061.883
278.6444, 3077.950
279.1266, 3092.437
279.6087, 3110.602
280.0908, 3134.249
280.5729, 3160.081
281.0550, 3182.977
281.5371, 3202.766
282.0193, 3225.857
282.5014, 3259.478
282.9835, 3295.522
283.4656, 3320.264
283.9477, 3329.839
284.4298, 3336.888
284.9120, 3355.364
285.3941, 3383.713
285.8762, 3411.608
286.3583, 3437.784
286.8404, 3462.008
287.3225, 3482.666
287.8047, 3499.131
288.2868, 3516.703
288.7689, 3538.489
289.2510, 3564.863
289.7331, 3598.053
290.2152, 3640.917
290.6974, 3689.153
291.1795, 3735.726
291.6616, 3780.199
292.1437, 3833.374
292.6258, 3900.397
293.1079, 3983.185
293.5901, 4084.226
294.0722, 4208.571
294.5543, 4346.081
295.0364, 4487.230
295.5185, 4632.989
296.0006, 4790.908
296.4828, 4966.520
296.9649, 5156.882
297.4470, 5352.708
297.9291, 5552.111
298.4112, 5760.810
298.8933, 5982.804
299.3755, 6217.011
299.8576, 6463.093
300.3397, 6722.874
300.8218, 6993.293
301.3039, 7268.621
301.7860, 7547.681
302.2682, 7832.812
302.7503, 8123.219
303.2324, 8421.471
303.7145, 8741.337
304.1966, 9092.354
304.6787, 9458.456
305.1609, 9814.968
305.6430, 10165.57
306.1251, 10543.76
306.6072, 10971.11
307.0893, 11435.62
307.5714, 11910.91
308.0536, 12391.18
308.5357, 12888.97
309.0178, 13410.82
309.4999, 13955.12
309.9820, 14528.30
310.4641, 15134.37
310.9463, 15768.05
311.4284, 16418.14
311.9105, 17082.23
312.3926, 17761.12
312.8747, 18459.28
313.3568, 19169.44
313.8390, 19877.99
314.3211, 20602.00
314.8032, 21302.95
315.2853, 21957.93
315.7674, 22565.96
316.2495, 23102.77
316.7317, 23574.45
317.2138, 23950.18
317.6959, 24200.32
318.1780, 24319.99
318.6601, 24319.48
319.1422, 24208.98
319.6243, 23986.25
320.1064, 23634.55
320.5886, 23128.33
321.0707, 22500.78
321.5528, 21804.52
322.0349, 21037.49
322.5170, 20219.78
322.9991, 19336.74
323.4813, 18411.09
323.9634, 17489.69
324.4455, 16580.17
324.9276, 15690.23
325.4097, 14833.60
325.8918, 14005.51
326.3740, 13220.01
326.8561, 12476.66
327.3382, 11778.44
327.8203, 11127.81
328.3024, 10526.89
328.7845, 9958.556
329.2667, 9411.546
329.7488, 8888.411
330.2309, 8396.086
330.7130, 7936.449
331.1951, 7510.052
331.6772, 7121.331
332.1594, 6769.998
332.6415, 6442.060
333.1236, 6130.436
333.6057, 5838.473
334.0878, 5565.895
334.5699, 5316.053
335.0521, 5082.433
335.5342, 4858.295
336.0163, 4646.458
336.4984, 4454.068
336.9805, 4288.441
337.4626, 4139.008
337.9448, 3989.850
338.4269, 3838.291
338.9090, 3694.876
339.3911, 3564.190
339.8732, 3443.988
340.3553, 3332.266
340.8375, 3229.521
341.3196, 3132.018
341.8017, 3034.215
342.2838, 2936.599
342.7659, 2849.934
343.2480, 2781.797
343.7302, 2722.405
344.2123, 2662.082
344.6944, 2600.315
345.1765, 2539.886
345.6586, 2481.082
346.1407, 2425.913
346.6229, 2380.280
347.1050, 2351.869
347.5871, 2326.599
348.0692, 2295.653
348.5513, 2260.660
349.0334, 2226.826
349.5156, 2196.457
349.9977, 2169.739
350.4798, 2147.545
350.9619, 2130.037
351.4440, 2115.537
351.9261, 2105.782
352.4083, 2098.359
352.8904, 2089.529
353.3725, 2078.278
353.8546, 2064.684
354.3367, 2046.880
354.8188, 2021.507
355.3010, 2007.031
355.7831, 2011.404
356.2652, 2023.451
356.7473, 2033.551
357.2294, 2040.576
357.7115, 2048.435
358.1937, 2060.898
358.6758, 2078.230
359.1579, 2094.136
359.6400, 2103.866
360.1221, 2116.868
360.6042, 2139.822
361.0863, 2170.029
361.5685, 2199.851
362.0506, 2225.128
362.5327, 2246.838
363.0148, 2268.930
363.4969, 2294.737
363.9790, 2316.738
364.4612, 2336.718
364.9433, 2351.312
365.4254, 2355.521
365.9075, 2347.847
366.3896, 2331.667
366.8717, 2312.520
367.3539, 2292.617
367.8360, 2263.296
368.3181, 2217.878
368.8002, 2169.041
369.2823, 2124.592
369.7644, 2085.393
370.2466, 2047.851
370.7287, 2007.997
371.2108, 1965.284
371.6929, 1930.668
372.1750, 1907.947
372.6571, 1888.473
373.1393, 1869.787
373.6214, 1852.502
374.1035, 1837.875
374.5856, 1826.701
375.0677, 1818.505
375.5498, 1811.614
376.0320, 1804.995
376.5141, 1801.595
376.9962, 1800.599
377.4783, 1803.182
377.9604, 1812.179
378.4425, 1827.568
378.9247, 1844.131
379.4068, 1853.143
379.8889, 1849.699
380.3710, 1856.048
380.8531, 1879.738
381.3352, 1906.479
381.8174, 1930.599
382.2995, 1952.425
382.7816, 1974.955
383.2637, 2000.384
383.7458, 2028.390
384.2279, 2056.419
384.7101, 2084.046
385.1922, 2112.439
385.6743, 2138.807
386.1564, 2167.096
386.6385, 2203.620
387.1206, 2251.397
387.6028, 2303.907
388.0849, 2349.832
388.5670, 2386.537
389.0491, 2428.650
389.5312, 2479.974
390.0133, 2538.230
390.4955, 2604.097
390.9776, 2677.023
391.4597, 2751.802
391.9418, 2824.199
392.4239, 2895.031
392.9060, 2966.568
393.3882, 3036.456
393.8703, 3111.831
394.3524, 3199.098
394.8345, 3294.723
395.3166, 3391.667
395.7987, 3484.402
396.2809, 3579.135
396.7630, 3683.968
397.2451, 3800.134
397.7272, 3920.107
398.2093, 4041.642
398.6914, 4165.671
399.1736, 4291.630
399.6557, 4418.821
400.1378, 4553.950
400.6199, 4701.830
401.1020, 4860.907
401.5841, 5026.432
402.0662, 5196.225
402.5483, 5374.937
403.0305, 5572.078
403.5126, 5786.401
403.9947, 5995.147
404.4768, 6184.278
404.9589, 6372.874
405.4410, 6581.237
405.9232, 6807.748
406.4053, 7035.913
406.8874, 7258.482
407.3695, 7471.620
407.8516, 7665.542
408.3337, 7838.071
408.8159, 7996.324
409.2980, 8148.878
409.7801, 8287.737
410.2622, 8403.454
410.7443, 8494.080
411.2264, 8552.984
411.7086, 8569.520
412.1907, 8532.493
412.6728, 8472.556
413.1549, 8387.768
413.6370, 8282.604
414.1191, 8160.644
414.6013, 8021.426
415.0834, 7860.526
415.5655, 7673.264
416.0476, 7460.259
416.5297, 7244.774
417.0118, 7030.924
417.4940, 6810.687
417.9761, 6577.742
418.4582, 6338.792
418.9403, 6103.677
419.4224, 5874.953
419.9045, 5653.555
420.3867, 5438.444
420.8688, 5229.739
421.3509, 5030.489
421.8330, 4847.754
422.3151, 4669.202
422.7972, 4485.891
423.2794, 4300.912
423.7615, 4125.146
424.2436, 3966.995
424.7257, 3825.718
425.2078, 3694.982
425.6899, 3578.462
426.1721, 3466.866
426.6542, 3352.747
427.1363, 3241.969
427.6184, 3142.185
428.1005, 3056.568
428.5826, 2978.242
429.0648, 2899.067
429.5469, 2818.482
430.0290, 2743.981
430.5111, 2678.610
430.9932, 2619.253
431.4753, 2562.676
431.9575, 2508.911
432.4396, 2458.147
432.9217, 2410.360
433.4038, 2365.942
433.8859, 2325.073
434.3680, 2287.856
434.8502, 2255.004
435.3323, 2228.054
435.8144, 2205.956
436.2965, 2184.690
436.7786, 2163.542
437.2607, 2144.122
437.7429, 2126.608
438.2250, 2111.570
438.7071, 2100.445
439.1892, 2093.762
439.6713, 2090.745
440.1534, 2091.370
440.6356, 2097.167
441.1177, 2099.336
441.5998, 2090.044
442.0819, 2082.792
442.5640, 2088.547
443.0461, 2105.947
443.5282, 2126.249
444.0103, 2143.281
444.4925, 2158.540
444.9746, 2180.406
445.4567, 2214.443
445.9388, 2248.275
446.4209, 2279.115
446.9030, 2309.719
447.3852, 2342.861
447.8673, 2379.242
448.3494, 2418.973
448.8315, 2464.059
449.3136, 2518.003
449.7957, 2559.396
450.2779, 2580.292
450.7600, 2596.304
451.2421, 2613.550
451.7242, 2629.602
452.2063, 2638.679
452.6884, 2636.955
453.1706, 2628.166
453.6527, 2621.623
454.1348, 2619.549
454.6169, 2612.797
455.0990, 2594.681
455.5811, 2573.885
456.0633, 2556.067
456.5454, 2541.804
457.0275, 2528.218
457.5096, 2513.240
457.9917, 2497.245
458.4738, 2481.506
458.9560, 2466.446
459.4381, 2450.545
459.9202, 2429.941
460.4023, 2408.205
460.8844, 2392.698
461.3665, 2388.311
461.8487, 2385.288
462.3308, 2377.808
462.8129, 2365.879
463.2950, 2348.174
463.7771, 2322.385
464.2592, 2295.469
464.7414, 2278.879
465.2235, 2274.729
465.7056, 2264.804
466.1877, 2240.411
466.6698, 2214.429
467.1519, 2198.009
467.6341, 2190.111
468.1162, 2182.434
468.5983, 2169.235
469.0804, 2152.651
469.5625, 2143.032
470.0446, 2148.636
470.5268, 2150.866
471.0089, 2144.144
471.4910, 2135.905
471.9731, 2133.498
472.4552, 2138.063
472.9373, 2145.379
473.4195, 2150.772
473.9016, 2153.933
474.3837, 2159.098
474.8658, 2164.581
475.3479, 2174.301
475.8300, 2191.494
476.3122, 2212.814
476.7943, 2233.240
477.2764, 2250.345
477.7585, 2267.948
478.2406, 2292.368
478.7227, 2324.014
479.2049, 2357.741
479.6870, 2391.623
480.1691, 2428.817
480.6512, 2471.882
481.1333, 2519.993
481.6154, 2569.618
482.0976, 2616.673
482.5797, 2665.328
483.0618, 2723.409
483.5439, 2791.178
484.0260, 2860.347
484.5081, 2925.128
484.9902, 2990.718
485.4724, 3068.620
485.9545, 3162.365
486.4366, 3256.603
486.9187, 3342.405
487.4008, 3427.855
487.8829, 3524.090
488.3651, 3632.786
488.8472, 3746.954
489.3293, 3859.086
489.8114, 3969.884
490.2935, 4091.331
490.7756, 4223.794
491.2578, 4363.890
491.7399, 4512.074
492.2220, 4666.261
492.7041, 4823.016
493.1862, 4981.034
493.6683, 5143.745
494.1505, 5316.700
494.6326, 5501.275
495.1147, 5688.678
495.5968, 5881.104
496.0789, 6073.087
496.5610, 6265.755
497.0432, 6455.771
497.5253, 6640.767
498.0074, 6819.726
498.4895, 6986.951
498.9716, 7134.958
499.4537, 7266.439
499.9359, 7362.063
500.4180, 7411.438
500.9001, 7426.422
501.3822, 7419.895
501.8643, 7391.513
502.3464, 7335.355
502.8286, 7249.865
503.3107, 7134.091
503.7928, 6979.880
504.2749, 6787.369
504.7570, 6579.378
505.2391, 6364.940
505.7213, 6144.717
506.2034, 5924.577
506.6855, 5702.260
507.1676, 5485.210
507.6497, 5271.472
508.1318, 5065.892
508.6140, 4876.209
509.0961, 4702.871
509.5782, 4539.645
510.0603, 4381.776
510.5424, 4229.536
511.0245, 4089.779
511.5067, 3964.390
511.9888, 3849.768
512.4709, 3746.903
512.9530, 3653.378
513.4351, 3565.900
513.9172, 3483.810
514.3994, 3410.700
514.8815, 3352.467
515.3636, 3309.936
515.8457, 3268.224
516.3278, 3224.095
516.8099, 3185.300
517.2921, 3155.802
517.7742, 3132.925
518.2563, 3111.668
518.7384, 3088.943
519.2205, 3071.952
519.7026, 3072.124
520.1848, 3087.093
520.6669, 3097.165
521.1490, 3094.888
521.6311, 3093.518
522.1132, 3107.874
522.5953, 3135.460
523.0775, 3165.338
523.5596, 3196.467
524.0417, 3228.430
524.5238, 3259.877
525.0059, 3291.640
525.4880, 3326.024
525.9702, 3363.681
526.4523, 3405.372
526.9344, 3453.251
527.4165, 3509.005
527.8986, 3566.548
528.3807, 3625.654
528.8629, 3686.901
529.3450, 3751.805
529.8271, 3818.913
530.3092, 3884.735
530.7913, 3947.104
531.2734, 4008.086
531.7556, 4073.135
532.2377, 4142.491
532.7198, 4214.822
533.2019, 4292.596
533.6840, 4371.143
534.1661, 4450.080
534.6483, 4528.479
535.1304, 4603.359
535.6125, 4671.872
536.0946, 4736.912
536.5767, 4805.963
537.0588, 4879.474
537.5410, 4947.340
538.0231, 5004.813
538.5052, 5054.786
538.9873, 5101.712
539.4694, 5146.130
539.9515, 5186.152
540.4337, 5220.659
540.9158, 5251.175
541.3979, 5280.714
541.8800, 5308.364
542.3621, 5330.283
542.8442, 5344.924
543.3264, 5350.294
543.8085, 5339.386
544.2906, 5301.804
544.7726, 5261.308
545.2548, 5221.618
545.7369, 5176.638
546.2190, 5121.392
546.7011, 5056.533
547.1832, 4986.142
547.6653, 4914.210
548.1475, 4839.212
548.6296, 4755.360
549.1117, 4659.722
549.5938, 4563.427
550.0759, 4471.913
550.5580, 4379.347
551.0402, 4278.254
551.5223, 4168.978
552.0044, 4062.926
552.4865, 3970.044
552.9686, 3883.012
553.4507, 3787.395
553.9329, 3682.563
554.4150, 3578.032
554.8971, 3477.509
555.3792, 3381.592
555.8613, 3293.404
556.3434, 3214.004
556.8256, 3137.623
557.3077, 3064.154
557.7898, 2992.041
558.2719, 2920.130
558.7540, 2848.508
559.2361, 2779.044
559.7183, 2712.316
560.2004, 2649.311
560.6825, 2592.768
561.1646, 2548.377
561.6467, 2501.535
562.1288, 2447.048
562.6110, 2392.785
563.0931, 2343.971
563.5752, 2300.739
564.0573, 2259.773
564.5394, 2218.280
565.0215, 2177.681
565.5037, 2141.901
565.9858, 2111.160
566.4679, 2082.935
566.9500, 2056.289
567.4321, 2031.907
567.9142, 2011.210
568.3964, 1994.561
568.8785, 1976.407
569.3606, 1952.977
569.8427, 1928.468
570.3248, 1907.055
570.8069, 1888.669
571.2891, 1870.414
571.7712, 1850.506
572.2533, 1831.038
572.7354, 1817.545
573.2175, 1813.410
573.6996, 1809.580
574.1818, 1807.055
574.6639, 1803.913
575.1460, 1798.792
575.6281, 1792.035
576.1102, 1784.524
576.5923, 1776.496
577.0745, 1768.963
577.5566, 1763.980
578.0387, 1761.522
578.5208, 1762.131
579.0029, 1769.962
579.4850, 1776.596
579.9672, 1775.094
580.4493, 1766.874
580.9314, 1758.188
581.4135, 1749.557
581.8956, 1742.890
582.3777, 1740.908
582.8599, 1742.645
583.3420, 1744.998
583.8241, 1747.352
584.3062, 1747.789
584.7883, 1743.176
585.2704, 1731.913
585.7526, 1723.382
586.2347, 1719.451
586.7168, 1716.020
587.1989, 1710.964
587.6810, 1705.339
588.1631, 1701.744
588.6453, 1700.968
589.1274, 1699.770
