##NAMES=Brookite
##RRUFFID=R050363
##IDEAL CHEMISTRY=Ti^4+^O_2_
##LOCALITY=Magnet Cove, Arkansas, USA
##OWNER=RRUFF
##SOURCE=University of Arizona Mineral Museum
##DESCRIPTION=Black fragment of a prismatic crystal associated with quartz
##STATUS=The identification of this mineral has been confirmed by X-ray diffraction and chemical analysis
##URL=rruff.info/R050363
##MEASURED CHEMISTRY=(Ti_0.94_Nb^5+^_0.03_Fe^3+^_0.03_)_Î£=1_O_2_
92.52344, 107.4325
93.00555, 107.8688
93.48767, 107.9162
93.96979, 109.0431
94.45190, 110.3459
94.93402, 111.6120
95.41614, 111.3058
95.89825, 109.8820
96.38037, 108.2335
96.86249, 106.3913
97.34460, 104.4904
97.82672, 102.4908
98.30884, 100.6898
98.79095, 99.18985
99.27307, 97.78964
99.75519, 96.28964
100.2373, 94.86547
100.7194, 93.61665
101.2015, 92.59634
101.6837, 91.78568
102.1658, 91.13093
102.6479, 90.58329
103.1300, 90.12717
103.6121, 89.80863
104.0942, 89.67226
104.5764, 89.67777
105.0585, 89.82483
105.5406, 90.15870
106.0227, 90.63081
106.5048, 91.12926
106.9869, 91.79472
107.4691, 92.20851
107.9512, 92.01289
108.4333, 91.40981
108.9154, 90.89769
109.3975, 90.92435
109.8796, 91.57143
110.3618, 92.20203
110.8439, 92.83295
111.3260, 93.43176
111.8081, 93.90772
112.2902, 94.28736
112.7723, 94.72563
113.2544, 95.45692
113.7366, 96.74014
114.2187, 97.84991
114.7008, 98.74011
115.1829, 99.50011
115.6650, 100.1664
116.1471, 100.7524
116.6293, 101.3217
117.1114, 102.0513
117.5935, 103.0995
118.0756, 103.9918
118.5577, 104.5290
119.0398, 104.8190
119.5220, 105.1040
120.0041, 105.4346
120.4862, 105.8912
120.9683, 106.6110
121.4504, 107.7470
121.9325, 108.8811
122.4147, 109.6351
122.8968, 109.9788
123.3789, 110.3027
123.8610, 110.9618
124.3431, 111.6436
124.8252, 112.0131
125.3074, 111.9068
125.7895, 111.5049
126.2716, 111.1661
126.7537, 110.9024
127.2358, 110.6942
127.7179, 110.5663
128.2001, 110.4715
128.6822, 110.3329
129.1643, 110.0834
129.6464, 109.7427
130.1285, 109.5760
130.6107, 109.7050
131.0928, 109.9085
131.5749, 110.2710
132.0570, 110.6841
132.5391, 110.9163
133.0212, 110.7208
133.5034, 109.9778
133.9855, 109.6647
134.4676, 109.9568
134.9497, 110.4374
135.4318, 110.9061
135.9139, 111.3316
136.3960, 111.7696
136.8782, 112.2858
137.3603, 112.8997
137.8424, 113.5027
138.3245, 113.9724
138.8066, 114.4712
139.2887, 115.2394
139.7709, 116.3728
140.2530, 117.5919
140.7351, 118.5266
141.2172, 119.2031
141.6993, 119.8631
142.1814, 120.5680
142.6636, 121.3230
143.1457, 122.1815
143.6278, 123.2797
144.1099, 124.3280
144.5920, 125.0716
145.0741, 125.5096
145.5563, 125.8871
146.0384, 126.4590
146.5205, 127.2648
147.0026, 127.9191
147.4847, 128.1773
147.9668, 128.3772
148.4490, 128.7578
148.9311, 129.3509
149.4132, 129.9379
149.8953, 130.1722
150.3774, 129.8971
150.8595, 129.5566
151.3417, 129.2575
151.8238, 128.8885
152.3059, 128.3791
152.7880, 127.7033
153.2701, 126.8481
153.7522, 125.7895
154.2344, 124.4281
154.7165, 122.9449
155.1986, 121.2566
155.6807, 119.4706
156.1628, 117.7195
156.6449, 116.0772
157.1271, 114.5104
157.6092, 112.8858
158.0913, 111.2636
158.5734, 109.5256
159.0555, 107.6003
159.5376, 105.5306
160.0198, 103.4098
160.5019, 101.2568
160.9840, 99.11446
161.4661, 97.13265
161.9482, 95.41209
162.4303, 93.73489
162.9125, 92.01706
163.3946, 90.25597
163.8767, 88.34962
164.3588, 86.09970
164.8409, 83.71345
165.3230, 81.52846
165.8052, 79.69376
166.2873, 78.00734
166.7694, 76.23281
167.2515, 74.32890
167.7336, 72.45591
168.2157, 70.64443
168.6979, 68.91246
169.1800, 67.29347
169.6621, 65.83626
170.1442, 64.47626
170.6263, 63.00611
171.1084, 61.29934
171.5906, 59.69274
172.0727, 58.30221
172.5548, 57.05638
173.0369, 55.84727
173.5190, 54.60253
174.0011, 53.33764
174.4833, 52.18568
174.9654, 51.14565
175.4475, 50.23515
175.9296, 49.47668
176.4117, 48.85321
176.8938, 48.33615
177.3760, 47.91375
177.8581, 47.58867
178.3402, 47.25443
178.8223, 46.86173
179.3044, 46.50858
179.7865, 46.20922
180.2687, 45.97654
180.7508, 45.85131
181.2329, 45.89561
181.7150, 46.13559
182.1971, 46.15809
182.6792, 45.73488
183.1614, 45.31624
183.6435, 45.16781
184.1256, 45.29629
184.6077, 45.53846
185.0898, 45.77065
185.5719, 45.99018
186.0541, 46.18756
186.5362, 46.35548
187.0183, 46.50440
187.5004, 46.61432
187.9825, 46.67800
188.4646, 46.79177
188.9468, 47.08060
189.4289, 47.50587
189.9110, 47.92831
190.3931, 48.35845
190.8752, 48.75486
191.3573, 49.00394
191.8395, 49.01546
192.3216, 49.11702
192.8037, 49.75120
193.2858, 50.68342
193.7679, 51.36224
194.2500, 51.35295
194.7322, 50.87951
195.2143, 50.67556
195.6964, 50.87255
196.1785, 51.17579
196.6606, 51.43871
197.1427, 51.66880
197.6249, 51.87817
198.1070, 52.05899
198.5891, 52.21773
199.0712, 52.42482
199.5533, 52.73628
200.0354, 53.03591
200.5176, 53.29972
200.9997, 53.51762
201.4818, 53.66774
201.9639, 53.70512
202.4460, 53.62379
202.9281, 53.66005
203.4103, 53.91813
203.8924, 54.20780
204.3745, 54.48383
204.8566, 54.74651
205.3387, 55.01974
205.8208, 55.34480
206.3030, 55.75138
206.7851, 55.93046
207.2672, 55.81023
207.7493, 55.56186
208.2314, 55.18108
208.7135, 54.71373
209.1957, 54.26463
209.6778, 53.94242
210.1599, 53.78260
210.6420, 53.45903
211.1241, 52.93596
211.6062, 52.31897
212.0884, 51.55367
212.5705, 50.70271
213.0526, 50.00487
213.5347, 49.73718
214.0168, 49.97628
214.4989, 49.74266
214.9811, 48.70203
215.4632, 47.49363
215.9453, 46.44775
216.4274, 45.60748
216.9095, 44.99248
217.3916, 44.67558
217.8737, 44.66643
218.3559, 44.56108
218.8380, 44.30940
219.3201, 43.98667
219.8022, 43.59767
220.2843, 43.14342
220.7664, 42.79131
221.2486, 42.70124
221.7307, 42.83976
222.2128, 43.04930
222.6949, 43.39461
223.1770, 43.75755
223.6591, 44.00813
224.1413, 44.13852
224.6234, 44.18693
225.1055, 44.03093
225.5876, 43.81963
226.0697, 43.85655
226.5518, 44.34895
227.0340, 45.06582
227.5161, 45.68230
227.9982, 46.18590
228.4803, 46.63002
228.9624, 46.96229
229.4445, 47.26970
229.9267, 47.68544
230.4088, 48.29066
230.8909, 48.99947
231.3730, 49.66601
231.8551, 50.31986
232.3372, 50.84536
232.8194, 51.03627
233.3015, 51.13717
233.7836, 51.47203
234.2657, 52.23991
234.7478, 53.21274
235.2299, 53.84940
235.7121, 53.97351
236.1942, 54.11110
236.6763, 54.34440
237.1584, 54.69561
237.6405, 55.22649
238.1227, 55.98691
238.6048, 56.86501
239.0869, 57.56193
239.5690, 57.95105
240.0511, 58.37903
240.5332, 58.98071
241.0154, 59.61806
241.4975, 60.13802
241.9796, 60.47425
242.4617, 60.69534
242.9438, 60.96877
243.4259, 61.34599
243.9081, 61.69784
244.3902, 62.08741
244.8723, 62.41204
245.3544, 62.57007
245.8365, 62.52345
246.3186, 62.31660
246.8008, 62.05079
247.2829, 61.76182
247.7650, 61.34266
248.2471, 60.66022
248.7292, 59.92100
249.2113, 59.32654
249.6935, 58.94236
250.1756, 58.67083
250.6577, 58.31758
251.1398, 57.75036
251.6219, 57.29877
252.1040, 57.01183
252.5862, 56.81084
253.0683, 56.62005
253.5504, 56.42020
254.0325, 56.25554
254.5146, 56.20611
254.9967, 56.38588
255.4789, 56.47204
255.9610, 56.33434
256.4431, 56.17859
256.9252, 56.21635
257.4073, 56.48911
257.8894, 56.83392
258.3716, 57.03020
258.8537, 57.00025
259.3358, 57.01006
259.8179, 57.00721
260.3000, 57.07496
260.7821, 57.30687
261.2643, 57.71462
261.7464, 58.20840
262.2285, 58.71616
262.7106, 59.25964
263.1927, 59.66368
263.6748, 59.82755
264.1570, 59.91151
264.6391, 60.01302
265.1212, 60.14968
265.6033, 60.35841
266.0854, 60.67379
266.5675, 61.10758
267.0497, 61.60882
267.5318, 62.32415
268.0139, 63.00190
268.4960, 63.42178
268.9781, 63.57747
269.4602, 63.63050
269.9424, 63.66123
270.4245, 63.68687
270.9066, 63.79311
271.3887, 64.04096
271.8708, 64.32667
272.3529, 64.53565
272.8351, 64.68065
273.3172, 64.93684
273.7993, 65.52068
274.2814, 66.26472
274.7635, 66.65846
275.2456, 66.47568
275.7278, 66.18143
276.2099, 66.12553
276.6920, 66.27440
277.1741, 66.34376
277.6562, 66.16033
278.1383, 65.83562
278.6205, 65.60737
279.1026, 65.47559
279.5847, 65.43424
280.0668, 65.59200
280.5489, 65.88993
281.0310, 65.95452
281.5132, 65.56536
281.9953, 64.95961
282.4774, 64.45284
282.9595, 64.02993
283.4416, 63.77884
283.9237, 63.90667
284.4059, 64.29562
284.8880, 64.40966
285.3701, 63.96450
285.8522, 63.41699
286.3343, 63.25369
286.8164, 63.45546
287.2986, 63.73362
287.7807, 63.97070
288.2628, 64.16869
288.7449, 64.30868
289.2270, 64.32606
289.7091, 64.40350
290.1913, 64.68922
290.6734, 65.15079
291.1555, 65.70398
291.6376, 66.34551
292.1197, 67.04385
292.6018, 67.73251
293.0840, 68.39464
293.5661, 69.07182
294.0482, 69.74944
294.5303, 70.45842
295.0124, 71.29092
295.4945, 72.38570
295.9767, 73.56313
296.4588, 74.41381
296.9409, 74.78801
297.4230, 75.35484
297.9051, 76.66259
298.3872, 78.31216
298.8694, 79.88982
299.3515, 81.32573
299.8336, 82.56536
300.3157, 83.44125
300.7978, 83.87302
301.2799, 84.45932
301.7621, 85.57202
302.2442, 86.88103
302.7263, 88.12458
303.2084, 89.25774
303.6905, 90.32359
304.1726, 91.36469
304.6548, 92.37840
305.1369, 93.37990
305.6190, 94.41076
306.1011, 95.40067
306.5832, 96.25320
307.0653, 96.96992
307.5475, 97.71866
308.0296, 98.72012
308.5117, 99.93645
308.9938, 100.9361
309.4759, 101.6782
309.9580, 102.1381
310.4402, 102.2673
310.9223, 102.1203
311.4044, 101.8949
311.8865, 101.5772
312.3686, 101.2506
312.8507, 101.3657
313.3329, 102.2970
313.8150, 103.0204
314.2971, 102.9561
314.7792, 102.3348
315.2613, 101.5485
315.7434, 100.6973
316.2256, 99.83780
316.7077, 99.12917
317.1898, 98.65468
317.6719, 98.07763
318.1540, 97.26144
318.6361, 96.26252
319.1183, 95.10143
319.6004, 93.75023
320.0825, 92.31818
320.5646, 90.94743
321.0467, 89.64818
321.5288, 88.34837
322.0110, 87.11771
322.4931, 85.81404
322.9752, 84.28087
323.4573, 82.49473
323.9394, 80.67896
324.4215, 79.03475
324.9037, 77.56877
325.3858, 76.14986
325.8679, 74.79721
326.3500, 73.45144
326.8321, 72.06442
327.3142, 70.64030
327.7964, 69.22608
328.2785, 67.85944
328.7606, 66.53207
329.2427, 65.16411
329.7248, 63.65542
330.2069, 62.28717
330.6891, 61.27433
331.1712, 60.50769
331.6533, 59.76124
332.1354, 58.94330
332.6175, 58.07697
333.0996, 57.17919
333.5818, 56.20176
334.0639, 55.33642
334.5460, 54.76200
335.0281, 54.32787
335.5102, 53.87036
335.9923, 53.32035
336.4745, 52.79187
336.9566, 52.41879
337.4387, 52.20833
337.9208, 52.05677
338.4029, 51.97899
338.8850, 51.91288
339.3671, 51.74610
339.8492, 51.45351
340.3314, 51.28969
340.8135, 51.53676
341.2956, 52.12339
341.7777, 52.58776
342.2598, 52.81840
342.7419, 52.94538
343.2241, 53.03024
343.7062, 53.09520
344.1883, 53.26528
344.6704, 53.60891
345.1525, 54.09726
345.6346, 54.70497
346.1168, 55.47602
346.5989, 56.21651
347.0810, 56.75519
347.5631, 57.16493
348.0452, 57.55928
348.5273, 57.93153
349.0095, 58.33199
349.4916, 58.81609
349.9737, 59.38241
350.4558, 60.02777
350.9379, 60.85870
351.4200, 61.69593
351.9022, 62.23112
352.3843, 62.34132
352.8664, 62.44801
353.3485, 62.82001
353.8306, 63.41777
354.3127, 64.10307
354.7949, 64.88273
355.2770, 65.66817
355.7591, 66.39591
356.2412, 67.07462
356.7233, 67.57716
357.2054, 67.84879
357.6876, 67.91906
358.1697, 67.73415
358.6518, 67.23682
359.1339, 66.85285
359.6160, 67.11453
360.0981, 67.86742
360.5803, 68.25752
361.0624, 68.00837
361.5445, 67.48981
362.0266, 66.98109
362.5087, 66.47710
362.9908, 65.88779
363.4730, 65.16000
363.9551, 64.30807
364.4372, 63.37846
364.9193, 62.32539
365.4014, 61.28429
365.8835, 60.28619
366.3657, 59.34639
366.8478, 58.49842
367.3299, 57.76311
367.8120, 57.09766
368.2941, 56.42884
368.7762, 55.74053
369.2584, 55.11892
369.7405, 54.70953
370.2226, 54.29728
370.7047, 53.62172
371.1868, 52.66323
371.6689, 51.68052
372.1511, 50.88691
372.6332, 50.29467
373.1153, 49.79406
373.5974, 49.37583
374.0795, 49.04270
374.5616, 48.80632
375.0438, 48.65555
375.5259, 48.58329
376.0080, 48.60205
376.4901, 48.65992
376.9722, 48.56794
377.4543, 48.14725
377.9365, 47.80988
378.4186, 47.60764
378.9007, 47.50406
379.3828, 47.47926
379.8649, 47.52234
380.3470, 47.59851
380.8292, 47.66198
381.3113, 47.71511
381.7934, 47.74456
382.2755, 47.71666
382.7576, 47.69738
383.2397, 47.74253
383.7219, 47.83533
384.2040, 47.91195
384.6861, 47.92050
385.1682, 47.86558
385.6503, 47.81635
386.1324, 47.70428
386.6146, 47.67900
387.0967, 47.82713
387.5788, 48.05774
388.0609, 48.25410
388.5430, 48.36612
389.0251, 48.43785
389.5073, 48.57192
389.9894, 48.85577
390.4715, 49.01191
390.9536, 48.95193
391.4357, 48.83616
391.9178, 48.73455
392.4000, 48.67142
392.8821, 48.66680
393.3642, 48.74754
393.8463, 48.91578
394.3284, 49.10728
394.8105, 49.43456
395.2927, 49.64811
395.7748, 49.58621
396.2569, 49.37287
396.7390, 49.21455
397.2211, 49.22019
397.7032, 49.32662
398.1854, 49.39957
398.6675, 49.43777
399.1496, 49.44718
399.6317, 49.33662
400.1138, 49.25528
400.5959, 49.36834
401.0781, 49.69781
401.5602, 50.01534
402.0423, 50.09943
402.5244, 49.96777
403.0065, 49.79056
403.4886, 49.47918
403.9708, 49.29200
404.4529, 49.55873
404.9350, 50.09846
405.4171, 50.39216
405.8992, 50.07148
406.3813, 49.45072
406.8635, 49.02974
407.3456, 48.83088
407.8277, 48.61549
408.3098, 48.20744
408.7919, 47.73833
409.2740, 47.43256
409.7562, 47.33910
410.2383, 47.31014
410.7204, 47.30322
411.2025, 47.29281
411.6846, 47.16557
412.1667, 46.84203
412.6489, 46.54299
413.1310, 46.67872
413.6131, 47.24136
414.0952, 47.41157
414.5773, 46.69658
415.0594, 45.76675
415.5416, 45.23208
416.0237, 45.10323
416.5058, 45.10044
416.9879, 45.07134
417.4700, 45.00888
417.9521, 44.87610
418.4343, 44.58558
418.9164, 44.34126
419.3985, 44.27837
419.8806, 44.27127
420.3627, 44.08987
420.8448, 43.66269
421.3270, 43.19743
421.8091, 43.01446
422.2912, 43.25319
422.7733, 43.39013
423.2554, 43.39214
423.7375, 43.33055
424.2197, 43.20716
424.7018, 43.05161
425.1839, 42.92479
425.6660, 42.86806
426.1481, 42.87994
426.6302, 42.95147
427.1124, 43.05665
427.5945, 43.26589
428.0766, 43.73292
428.5587, 44.23250
429.0408, 44.51825
429.5229, 44.52430
430.0051, 44.41460
430.4872, 44.40405
430.9693, 44.49847
431.4514, 44.66735
431.9335, 45.00984
432.4156, 45.34247
432.8978, 45.58855
433.3799, 45.76458
433.8620, 45.91779
434.3441, 46.04300
434.8262, 46.19132
435.3083, 46.55811
435.7905, 47.26400
436.2726, 47.84921
436.7547, 48.01211
437.2368, 48.05423
437.7189, 48.24669
438.2010, 48.64704
438.6832, 49.08487
439.1653, 49.41133
439.6474, 49.64641
440.1295, 49.91623
440.6116, 50.27758
441.0938, 50.60036
441.5759, 50.68315
442.0580, 50.61880
442.5401, 50.70977
443.0222, 51.21363
443.5043, 51.78947
443.9865, 52.05415
444.4686, 52.04057
444.9507, 52.07247
445.4328, 52.31651
445.9149, 52.68304
446.3970, 52.97738
446.8792, 53.21497
447.3613, 53.36139
447.8434, 53.33407
448.3255, 53.24417
448.8076, 53.22146
449.2897, 53.28915
449.7719, 53.41933
450.2540, 53.60801
450.7361, 53.86348
451.2182, 53.96564
451.7003, 53.73771
452.1824, 53.57384
452.6646, 53.69999
453.1467, 53.96946
453.6288, 54.12224
454.1109, 54.04434
454.5930, 53.83672
455.0751, 53.70905
455.5573, 53.77683
456.0394, 53.69157
456.5215, 53.37072
457.0036, 52.99376
457.4857, 52.61901
457.9678, 52.27903
458.4500, 52.01263
458.9321, 51.84958
459.4142, 51.78605
459.8963, 51.83350
460.3784, 52.20537
460.8605, 52.29303
461.3427, 51.74677
461.8248, 50.98008
462.3069, 50.39188
462.7890, 50.08175
463.2711, 49.86777
463.7532, 49.55337
464.2354, 49.14907
464.7175, 48.83849
465.1996, 48.68652
465.6817, 48.56186
466.1638, 48.41244
466.6459, 48.21986
467.1281, 47.91912
467.6102, 47.36650
468.0923, 46.80786
468.5744, 46.56228
469.0565, 46.59666
469.5386, 46.61023
470.0208, 46.51768
470.5029, 46.30098
470.9850, 45.86591
471.4671, 45.14626
471.9492, 44.59822
472.4313, 44.40081
472.9135, 44.39162
473.3956, 44.44854
473.8777, 44.53961
474.3598, 44.59126
474.8419, 44.55303
475.3240, 44.42508
475.8062, 44.20379
476.2883, 43.74033
476.7704, 43.37877
477.2525, 43.28545
477.7346, 43.28926
478.2167, 43.15233
478.6989, 42.82391
479.1810, 42.48921
479.6631, 42.39060
480.1452, 42.57452
480.6273, 42.76201
481.1094, 43.01923
481.5916, 43.20981
482.0737, 43.26014
482.5558, 43.21655
483.0379, 43.15687
483.5200, 43.11607
484.0021, 43.08809
484.4843, 43.06632
484.9664, 43.05603
485.4485, 43.02482
485.9306, 42.91339
486.4127, 42.82625
486.8948, 42.86989
487.3770, 43.01854
487.8591, 43.11865
488.3412, 42.99837
488.8233, 42.79689
489.3054, 42.82946
489.7875, 43.12622
490.2697, 43.38166
490.7518, 43.46832
491.2339, 43.39066
491.7160, 43.17698
492.1981, 42.77692
492.6802, 42.39252
493.1624, 42.11575
493.6445, 41.90689
494.1266, 41.71527
494.6087, 41.53053
495.0908, 41.34575
495.5729, 41.14759
496.0551, 40.93762
496.5372, 40.77478
497.0193, 40.72876
497.5014, 40.64221
497.9835, 40.48048
498.4656, 40.24396
498.9478, 39.89843
499.4299, 39.44283
499.9120, 38.98822
500.3941, 38.71391
500.8762, 38.68573
501.3583, 38.56759
501.8405, 38.25704
502.3226, 37.96085
502.8047, 37.78942
503.2868, 37.68004
503.7689, 37.49388
504.2510, 37.14241
504.7331, 36.76435
505.2152, 36.68083
505.6974, 36.97431
506.1795, 37.03914
506.6616, 36.54889
507.1437, 35.98260
507.6258, 35.72038
508.1079, 35.71680
508.5901, 35.69180
509.0722, 35.46556
509.5543, 35.16142
510.0364, 34.96262
510.5185, 34.86943
511.0006, 34.78621
511.4828, 34.65598
511.9649, 34.52177
512.4470, 34.48261
512.9291, 34.56170
513.4113, 34.63529
513.8934, 34.66970
514.3755, 34.68452
514.8576, 34.70893
515.3397, 34.73993
515.8218, 34.73104
516.3040, 34.63420
516.7861, 34.47359
517.2682, 34.42584
517.7503, 34.65519
518.2324, 34.79266
518.7145, 34.67228
519.1967, 34.52568
519.6788, 34.60589
520.1609, 34.93254
520.6430, 35.30035
521.1251, 35.49709
521.6072, 35.52959
522.0894, 35.61555
522.5715, 35.85009
523.0536, 35.98240
523.5357, 35.82695
524.0178, 35.58212
524.4999, 35.48298
524.9821, 35.59535
525.4642, 35.78518
525.9463, 35.96053
526.4284, 36.11517
526.9105, 36.21064
527.3926, 36.21710
527.8748, 36.23564
528.3569, 36.34474
528.8390, 36.53196
529.3211, 36.75454
529.8032, 37.00389
530.2853, 37.29260
530.7675, 37.74465
531.2496, 38.22033
531.7317, 38.39387
532.2138, 38.16760
532.6959, 37.81656
533.1780, 37.67824
533.6602, 37.79007
534.1423, 37.88706
534.6244, 37.96585
535.1065, 38.03651
535.5886, 38.06249
536.0707, 38.09424
536.5529, 38.23280
537.0350, 38.51336
537.5171, 38.82435
537.9992, 38.98471
538.4813, 38.97525
538.9634, 38.90992
539.4456, 38.70469
539.9277, 38.54280
540.4098, 38.55560
540.8919, 38.66604
541.3740, 38.72279
541.8561, 38.67112
542.3383, 38.53375
542.8204, 38.25730
543.3025, 37.87288
543.7846, 37.70598
544.2667, 37.89821
544.7488, 38.20845
545.2310, 38.37362
545.7131, 38.41132
546.1952, 38.47560
546.6773, 38.75157
547.1594, 38.91015
547.6415, 38.60429
548.1237, 38.01225
548.6058, 37.59398
549.0879, 37.53997
549.5700, 37.65723
550.0521, 37.62002
550.5342, 37.32668
551.0164, 37.19459
551.4985, 37.37188
551.9806, 37.53445
552.4627, 37.52206
552.9448, 37.39345
553.4269, 37.28223
553.9091, 37.25373
554.3912, 37.24884
554.8733, 37.15314
555.3554, 36.94830
555.8375, 36.77394
556.3196, 36.64488
556.8018, 36.55587
557.2839, 36.50376
557.7660, 36.48412
558.2481, 36.48620
558.7302, 36.50909
559.2123, 36.54871
559.6945, 36.62400
560.1766, 36.71918
560.6587, 36.74851
561.1408, 36.66987
561.6229, 36.57205
562.1050, 36.56832
562.5872, 36.67610
563.0693, 36.77143
563.5514, 36.79864
564.0335, 36.86785
564.5156, 37.11404
564.9977, 37.42513
565.4799, 37.58376
565.9620, 37.50508
566.4441, 37.31407
566.9262, 37.18151
567.4083, 37.07103
567.8904, 37.16911
568.3726, 37.79480
568.8547, 38.30084
569.3368, 38.38477
569.8189, 38.22175
570.3010, 38.10176
570.7831, 38.13050
571.2653, 38.23187
571.7474, 38.33669
572.2295, 38.44144
572.7116, 38.51726
573.1937, 38.55196
573.6758, 38.57500
574.1580, 38.60137
574.6401, 38.63513
575.1222, 38.69233
575.6043, 38.76063
576.0864, 38.86843
576.5685, 39.13008
577.0507, 39.41092
577.5328, 39.43212
578.0149, 39.13896
578.4970, 38.80756
578.9791, 38.75619
579.4612, 39.00404
579.9434, 39.04878
580.4255, 38.60850
580.9076, 38.29496
581.3897, 38.37531
581.8718, 38.55559
582.3539, 38.47435
582.8361, 38.06868
583.3182, 37.62255
583.8003, 37.45526
584.2824, 37.51735
584.7645, 37.42426
585.2466, 37.11076
585.7288, 36.82301
586.2108, 36.71151
586.6929, 36.68420
587.1750, 36.62880
587.6572, 36.55167
588.1393, 36.38331
