##NAMES=Brookite
##RRUFFID=R050363
##IDEAL CHEMISTRY=Ti^4+^O_2_
##LOCALITY=Magnet Cove, Arkansas, USA
##OWNER=RRUFF
##SOURCE=University of Arizona Mineral Museum
##DESCRIPTION=Black fragment of a prismatic crystal associated with quartz
##STATUS=The identification of this mineral has been confirmed by X-ray diffraction and chemical analysis
##URL=rruff.info/R050363
##MEASURED CHEMISTRY=(Ti_0.94_Nb^5+^_0.03_Fe^3+^_0.03_)_Î£=1_O_2_
92.35352, 7.435953
92.83563, 7.184254
93.31775, 7.077212
93.79987, 7.201189
94.28198, 7.481271
94.76410, 7.688169
95.24622, 7.733250
95.72833, 7.725905
96.21045, 7.892570
96.69257, 8.237888
97.17468, 8.686584
97.65680, 9.171875
98.13892, 9.695986
98.62103, 10.28656
99.10315, 10.93914
99.58527, 11.65760
100.0674, 12.40549
100.5495, 13.12871
101.0316, 13.98706
101.5137, 15.21596
101.9958, 16.92930
102.4780, 18.63007
102.9601, 20.04061
103.4422, 21.02271
103.9243, 22.64057
104.4064, 25.05112
104.8885, 28.00387
105.3707, 31.13773
105.8528, 34.51711
106.3349, 37.95041
106.8170, 41.35849
107.2991, 44.82143
107.7813, 48.09892
108.2634, 50.99617
108.7455, 53.69520
109.2276, 56.69611
109.7097, 60.35595
110.1918, 64.08858
110.6740, 67.65700
111.1561, 70.71658
111.6382, 73.99224
112.1203, 77.49544
112.6024, 81.26088
113.0845, 85.30474
113.5667, 89.47733
114.0488, 93.99459
114.5309, 99.05408
115.0130, 104.9438
115.4951, 111.1046
115.9772, 117.3892
116.4594, 123.8502
116.9415, 130.5554
117.4236, 137.4553
117.9057, 144.6445
118.3878, 152.1910
118.8699, 160.2191
119.3521, 168.6228
119.8342, 177.4259
120.3163, 186.6261
120.7984, 196.2486
121.2805, 206.1221
121.7626, 216.4400
122.2448, 227.5330
122.7269, 240.2742
123.2090, 253.5185
123.6911, 266.3517
124.1732, 278.8059
124.6553, 290.3109
125.1375, 300.3507
125.6196, 309.0064
126.1017, 316.5350
126.5838, 323.0519
127.0659, 328.5431
127.5480, 332.7782
128.0302, 335.3406
128.5123, 337.5255
128.9944, 340.8765
129.4765, 345.3786
129.9586, 350.8907
130.4407, 357.5447
130.9229, 365.1931
131.4050, 373.3540
131.8871, 381.8995
132.3692, 390.7201
132.8513, 399.3959
133.3334, 407.2719
133.8156, 413.2961
134.2977, 418.1297
134.7798, 423.1994
135.2619, 427.8720
135.7440, 431.8651
136.2261, 435.3484
136.7083, 439.4738
137.1904, 444.3389
137.6725, 449.5885
138.1546, 454.7893
138.6367, 459.8170
139.1188, 465.6346
139.6010, 472.7549
140.0831, 481.1522
140.5652, 489.0990
141.0473, 496.3145
141.5294, 503.5897
142.0115, 511.7852
142.4937, 520.9786
142.9758, 531.0103
143.4579, 542.0233
143.9400, 554.0914
144.4221, 566.3888
144.9042, 578.6490
145.3864, 591.2768
145.8685, 604.7306
146.3506, 619.6450
146.8327, 634.6483
147.3148, 649.5555
147.7969, 664.6039
148.2791, 678.8336
148.7612, 692.2203
149.2433, 704.7675
149.7254, 716.7213
150.2075, 729.8086
150.6896, 740.7761
151.1718, 748.3792
151.6539, 752.1132
152.1360, 753.4011
152.6181, 752.6968
153.1002, 749.6855
153.5823, 743.3920
154.0645, 733.5060
154.5466, 720.4973
155.0287, 704.6253
155.5108, 684.8158
155.9929, 663.1797
156.4750, 639.2231
156.9572, 613.4509
157.4393, 588.4581
157.9214, 564.9485
158.4035, 542.0208
158.8856, 519.0473
159.3677, 494.6411
159.8499, 471.3182
160.3320, 450.1552
160.8141, 430.9631
161.2962, 412.5575
161.7783, 394.6813
162.2604, 377.5099
162.7426, 361.1864
163.2247, 345.8715
163.7068, 331.2933
164.1889, 317.1893
164.6710, 303.6978
165.1531, 291.0846
165.6353, 279.5702
166.1174, 268.9840
166.5995, 259.1427
167.0816, 249.9833
167.5637, 241.5311
168.0458, 233.9673
168.5280, 227.3486
169.0101, 220.8964
169.4922, 214.0341
169.9743, 207.1126
170.4564, 200.6669
170.9385, 195.3020
171.4207, 190.2738
171.9028, 184.8276
172.3849, 178.9379
172.8670, 173.1966
173.3491, 167.7422
173.8312, 162.7253
174.3134, 158.4194
174.7955, 155.4405
175.2776, 153.0623
175.7597, 150.4140
176.2418, 147.3925
176.7239, 144.4601
177.2061, 141.9378
177.6882, 139.7702
178.1703, 137.8519
178.6524, 136.0373
179.1345, 134.4343
179.6166, 133.3680
180.0988, 132.9282
180.5809, 132.5793
181.0630, 131.6614
181.5451, 130.2817
182.0272, 128.9094
182.5093, 127.7460
182.9915, 126.7544
183.4736, 125.7930
183.9557, 124.7780
184.4378, 124.0249
184.9199, 124.0324
185.4020, 124.7323
185.8842, 125.6565
186.3663, 126.6610
186.8484, 127.7031
187.3305, 128.4926
187.8126, 128.9022
188.2947, 129.3569
188.7769, 130.6402
189.2590, 132.7188
189.7411, 134.8957
190.2232, 136.7052
190.7053, 138.2337
191.1874, 140.1676
191.6696, 142.7250
192.1517, 145.4399
192.6338, 147.6533
193.1159, 149.3793
193.5980, 150.2982
194.0801, 150.1877
194.5623, 149.0753
195.0444, 147.1181
195.5265, 144.1470
196.0086, 140.6096
196.4907, 137.3984
196.9728, 134.5296
197.4550, 131.8396
197.9371, 129.1356
198.4192, 126.4085
198.9013, 124.1856
199.3834, 122.5277
199.8655, 121.3836
200.3477, 120.7039
200.8298, 120.5655
201.3119, 120.5571
201.7940, 120.4092
202.2761, 120.0982
202.7582, 119.9122
203.2404, 119.8602
203.7225, 119.9613
204.2046, 120.2340
204.6867, 120.6390
205.1688, 121.3545
205.6509, 122.5709
206.1331, 124.3811
206.6152, 126.0951
207.0973, 127.5787
207.5794, 128.9683
208.0615, 130.7215
208.5436, 132.9368
209.0258, 135.2651
209.5079, 137.5631
209.9900, 139.9067
210.4721, 141.8587
210.9542, 143.4714
211.4363, 144.6386
211.9185, 144.9758
212.4006, 144.3892
212.8827, 143.1607
213.3648, 141.4942
213.8469, 139.4139
214.3290, 136.7279
214.8112, 133.2627
215.2933, 129.2257
215.7754, 125.1476
216.2575, 120.8338
216.7396, 116.8300
217.2217, 113.5287
217.7038, 111.1139
218.1860, 108.8465
218.6681, 106.6323
219.1502, 104.5503
219.6323, 102.9241
220.1144, 101.8020
220.5965, 101.0774
221.0787, 100.7200
221.5608, 100.7783
222.0429, 101.0779
222.5250, 101.6361
223.0071, 102.4281
223.4892, 103.3198
223.9714, 104.2459
224.4535, 105.3875
224.9356, 106.8352
225.4177, 108.5232
225.8998, 110.6906
226.3819, 113.4998
226.8641, 116.7880
227.3462, 119.8921
227.8283, 122.6970
228.3104, 125.4866
228.7925, 128.3572
229.2746, 131.3315
229.7568, 134.4181
230.2389, 137.6186
230.7210, 140.9567
231.2031, 144.4284
231.6852, 148.1160
232.1673, 151.8058
232.6495, 155.3733
233.1316, 158.8149
233.6137, 162.1016
234.0958, 164.9581
234.5779, 167.6782
235.0600, 171.0385
235.5422, 175.1731
236.0243, 179.8144
236.5064, 184.9023
236.9885, 190.6312
237.4706, 196.3472
237.9527, 201.7928
238.4349, 207.2268
238.9170, 213.1939
239.3991, 219.5442
239.8812, 226.6501
240.3633, 234.7275
240.8454, 244.0296
241.3276, 253.6545
241.8097, 263.4305
242.2918, 273.4657
242.7739, 284.0417
243.2560, 295.8872
243.7381, 307.1560
244.2203, 317.2574
244.7024, 326.3460
245.1845, 333.9243
245.6666, 340.5013
246.1487, 345.3120
246.6308, 346.9518
247.1130, 344.9280
247.5951, 340.5010
248.0772, 333.9428
248.5593, 324.8354
249.0414, 314.9577
249.5235, 303.9874
250.0057, 292.4625
250.4878, 280.9501
250.9699, 269.0340
251.4520, 257.8268
251.9341, 247.8400
252.4162, 239.1753
252.8984, 230.9400
253.3805, 223.0462
253.8626, 215.5920
254.3447, 208.9356
254.8268, 203.0863
255.3089, 197.8096
255.7911, 193.1306
256.2732, 189.0551
256.7553, 185.3345
257.2374, 182.0105
257.7195, 178.9897
258.2017, 176.1577
258.6838, 173.4934
259.1659, 171.0082
259.6480, 168.6540
260.1301, 166.4442
260.6122, 164.5521
261.0944, 163.0332
261.5765, 161.7577
262.0586, 160.5405
262.5407, 159.2645
263.0228, 158.3985
263.5049, 158.1855
263.9871, 158.5882
264.4692, 158.6588
264.9513, 158.2586
265.4334, 157.7515
265.9155, 157.4826
266.3976, 157.5366
266.8798, 157.5448
267.3619, 157.3799
267.8440, 157.0919
268.3261, 157.1419
268.8082, 157.6483
269.2903, 158.2412
269.7725, 158.5712
270.2546, 158.5314
270.7367, 158.6960
271.2188, 159.1505
271.7009, 159.8629
272.1830, 160.7694
272.6652, 161.9382
273.1473, 163.0940
273.6294, 164.0660
274.1115, 164.8380
274.5936, 165.4680
275.0757, 165.8667
275.5579, 166.1973
276.0400, 166.9988
276.5221, 168.3886
277.0042, 169.7681
277.4863, 170.7741
277.9684, 171.3837
278.4506, 171.9181
278.9327, 172.3867
279.4148, 172.8063
279.8969, 173.1928
280.3790, 173.5375
280.8611, 173.9178
281.3433, 174.4962
281.8254, 175.2704
282.3075, 175.5467
282.7896, 175.2039
283.2717, 174.5950
283.7538, 174.3318
284.2360, 174.4337
284.7181, 174.4082
285.2002, 173.8457
285.6823, 172.8540
286.1644, 172.4766
286.6465, 172.7971
287.1287, 173.4334
287.6108, 173.9455
288.0929, 174.3377
288.5750, 174.6971
289.0571, 174.9783
289.5392, 175.2508
290.0214, 175.7678
290.5035, 176.5247
290.9856, 177.5268
291.4677, 178.8676
291.9498, 180.5071
292.4319, 182.1265
292.9141, 183.5208
293.3962, 184.9070
293.8783, 186.8093
294.3604, 189.2257
294.8425, 191.9503
295.3246, 194.8175
295.8068, 197.8806
296.2889, 201.2620
296.7710, 205.0815
297.2531, 209.1847
297.7352, 213.2285
298.2173, 217.2236
298.6995, 221.4458
299.1816, 226.1392
299.6637, 231.1783
300.1458, 236.1682
300.6279, 241.0373
301.1100, 245.9361
301.5922, 250.9526
302.0743, 256.0965
302.5564, 261.3938
303.0385, 267.1026
303.5206, 272.9145
304.0027, 278.4099
304.4849, 283.3751
304.9670, 288.4507
305.4491, 294.3802
305.9312, 300.8561
306.4133, 307.1445
306.8954, 312.6121
307.3776, 317.8737
307.8597, 323.5351
308.3418, 329.7321
308.8239, 335.8640
309.3060, 341.4526
309.7881, 346.7554
310.2703, 351.9940
310.7524, 357.4585
311.2345, 362.8305
311.7166, 367.7946
312.1987, 372.3561
312.6808, 376.7481
313.1630, 381.3608
313.6451, 385.8152
314.1272, 389.7424
314.6093, 392.9024
315.0914, 395.5602
315.5735, 398.0172
316.0557, 400.1417
316.5378, 401.2478
317.0199, 400.6691
317.5020, 399.1826
317.9841, 397.3539
318.4662, 395.5925
318.9484, 393.1236
319.4305, 389.4344
319.9126, 384.8221
320.3947, 380.0658
320.8768, 375.8923
321.3589, 371.2559
321.8411, 365.5810
322.3232, 358.6390
322.8053, 351.1876
323.2874, 342.8393
323.7695, 334.1664
324.2516, 326.0754
324.7338, 319.4667
325.2159, 312.7565
325.6980, 305.4001
326.1801, 297.1842
326.6622, 289.0566
327.1443, 280.9929
327.6265, 273.0347
328.1086, 265.1946
328.5907, 257.3918
329.0728, 249.8938
329.5549, 242.7402
330.0370, 235.9042
330.5192, 229.4250
331.0013, 223.3419
331.4834, 217.5350
331.9655, 211.8562
332.4476, 206.2220
332.9297, 200.8273
333.4119, 195.6789
333.8940, 190.7964
334.3761, 186.3850
334.8582, 182.7427
335.3403, 179.2449
335.8224, 175.5270
336.3046, 171.3166
336.7867, 167.6782
337.2688, 164.6854
337.7509, 162.2063
338.2330, 159.9551
338.7151, 158.0042
339.1973, 156.1012
339.6794, 154.0557
340.1615, 151.8612
340.6436, 150.0895
341.1257, 148.8196
341.6078, 147.8445
342.0899, 146.9267
342.5721, 146.0819
343.0542, 145.3127
343.5363, 144.5791
344.0184, 143.9356
344.5005, 143.6438
344.9826, 143.7310
345.4648, 143.9909
345.9469, 144.2473
346.4290, 144.5124
346.9111, 144.8611
347.3932, 145.3216
347.8753, 145.8510
348.3575, 146.3020
348.8396, 146.6883
349.3217, 147.2279
349.8038, 147.8623
350.2859, 148.7609
350.7680, 150.5823
351.2502, 153.6466
351.7323, 156.6866
352.2144, 158.0203
352.6965, 158.0887
353.1786, 158.1859
353.6607, 158.9666
354.1429, 160.1384
354.6250, 161.2520
355.1071, 162.2776
355.5892, 163.6845
356.0713, 166.0841
356.5534, 169.0486
357.0356, 171.9447
357.5177, 174.4567
357.9998, 176.9074
358.4819, 179.4963
358.9640, 182.2018
359.4461, 184.8394
359.9283, 187.3789
360.4104, 189.7724
360.8925, 191.9841
361.3746, 194.0252
361.8567, 195.8451
362.3388, 197.6198
362.8210, 199.1514
363.3031, 200.0385
363.7852, 200.2205
364.2673, 199.6717
364.7494, 198.3410
365.2315, 196.1564
365.7137, 193.4269
366.1958, 189.6348
366.6779, 185.5587
367.1600, 182.0793
367.6421, 180.3196
368.1242, 178.1078
368.6064, 174.7105
369.0885, 170.0275
369.5706, 166.0195
370.0527, 163.0893
370.5348, 160.5004
371.0169, 157.7170
371.4991, 154.4207
371.9812, 151.5238
372.4633, 149.1321
372.9454, 147.1732
373.4275, 145.4436
373.9096, 143.9406
374.3918, 142.6411
374.8739, 141.6095
375.3560, 140.9193
375.8381, 140.0523
376.3202, 138.8419
376.8023, 137.6816
377.2845, 137.3089
377.7666, 137.8919
378.2487, 138.3433
378.7308, 138.2089
379.2129, 137.6086
379.6950, 137.3411
380.1772, 137.4094
380.6593, 137.7788
381.1414, 138.6391
381.6235, 139.8989
382.1056, 140.7174
382.5877, 140.7547
383.0699, 140.4828
383.5520, 140.7834
384.0341, 141.6246
384.5162, 142.6493
384.9983, 143.5570
385.4804, 144.5029
385.9626, 146.0049
386.4447, 148.2473
386.9268, 150.3236
387.4089, 151.1983
387.8910, 151.2006
388.3731, 151.0505
388.8553, 150.8651
389.3374, 150.8031
389.8195, 151.0360
390.3016, 151.5538
390.7837, 152.2334
391.2658, 153.1074
391.7480, 154.0531
392.2301, 154.9454
392.7122, 155.7488
393.1943, 156.4974
393.6764, 157.0758
394.1585, 157.5938
394.6407, 158.3470
395.1228, 159.7122
395.6049, 161.1260
396.0870, 162.3047
396.5691, 163.1314
397.0512, 163.9763
397.5334, 164.9258
398.0155, 165.9303
398.4976, 166.9140
398.9797, 167.6012
399.4618, 168.5611
399.9439, 170.0271
400.4261, 171.9932
400.9082, 173.7323
401.3903, 175.2006
401.8724, 176.4783
402.3545, 177.5750
402.8366, 178.2579
403.3188, 179.2674
403.8009, 180.8134
404.2830, 182.6360
404.7651, 184.1024
405.2472, 185.1857
405.7293, 185.9498
406.2115, 186.3307
406.6936, 186.3118
407.1757, 186.4461
407.6578, 186.7768
408.1399, 187.1488
408.6220, 187.4684
409.1042, 187.7309
409.5863, 187.6610
410.0684, 187.0556
410.5505, 186.1736
411.0326, 185.6838
411.5147, 185.5685
411.9969, 185.3540
412.4790, 184.7312
412.9611, 183.7500
413.4432, 182.5151
413.9253, 181.0005
414.4074, 179.3442
414.8896, 177.6392
415.3717, 175.9004
415.8538, 174.1716
416.3359, 172.5096
416.8180, 170.8558
417.3001, 169.1509
417.7823, 167.3766
418.2644, 165.6991
418.7465, 164.2289
419.2286, 162.8494
419.7107, 161.4825
420.1928, 160.2793
420.6750, 158.8227
421.1571, 156.7361
421.6392, 154.2473
422.1213, 152.0022
422.6034, 150.1125
423.0855, 148.5568
423.5677, 147.4412
424.0498, 147.0199
424.5319, 146.1796
425.0140, 144.3894
425.4961, 142.3484
425.9782, 140.7579
426.4604, 139.8698
426.9425, 139.0726
427.4246, 138.3098
427.9067, 137.5732
428.3888, 136.8426
428.8709, 136.0996
429.3531, 135.3981
429.8352, 134.7401
430.3173, 134.1136
430.7994, 133.6459
431.2815, 133.3640
431.7636, 133.1997
432.2458, 133.0474
432.7279, 132.9023
433.2100, 132.8164
433.6921, 132.7746
434.1742, 132.8091
434.6563, 133.0854
435.1385, 133.6127
435.6206, 134.1783
436.1027, 134.7077
436.5848, 135.1384
437.0669, 135.2034
437.5490, 134.6806
438.0312, 134.2167
438.5133, 134.7029
438.9954, 135.8686
439.4775, 136.9598
439.9596, 137.4958
440.4417, 137.8466
440.9239, 138.3110
441.4060, 138.9075
441.8881, 139.6126
442.3702, 140.3254
442.8523, 141.1721
443.3344, 142.2874
443.8166, 143.9992
444.2987, 145.6384
444.7808, 146.9814
445.2629, 148.0912
445.7450, 149.1638
446.2271, 150.2856
446.7093, 151.3062
447.1914, 152.0915
447.6735, 152.4633
448.1556, 153.2005
448.6377, 154.5862
449.1198, 156.1383
449.6020, 157.3797
450.0841, 158.2057
450.5662, 158.8697
451.0483, 159.2898
451.5304, 159.5831
452.0125, 160.3373
452.4947, 161.7309
452.9768, 163.0544
453.4589, 163.8167
453.9410, 164.0032
454.4231, 164.5463
454.9052, 165.5493
455.3874, 166.6594
455.8695, 167.5371
456.3516, 168.1701
456.8337, 168.4289
457.3158, 168.1043
457.7979, 167.5266
458.2801, 167.3120
458.7622, 167.4185
459.2443, 167.5409
459.7264, 167.4712
460.2085, 167.2961
460.6906, 167.1632
461.1728, 167.1346
461.6549, 166.9706
462.1370, 166.4359
462.6191, 165.6739
463.1012, 164.9039
463.5833, 164.3085
464.0655, 163.6272
464.5476, 162.6707
465.0297, 161.4816
465.5118, 160.3945
465.9939, 159.5360
466.4760, 158.7946
466.9582, 158.1316
467.4403, 157.6718
467.9224, 157.0354
468.4045, 156.0213
468.8866, 154.9128
469.3687, 154.1117
469.8509, 153.7832
470.3330, 153.4994
470.8151, 153.2198
471.2972, 152.9271
471.7793, 152.3503
472.2614, 151.3367
472.7436, 150.4448
473.2257, 150.1570
473.7078, 150.4852
474.1899, 150.6340
474.6720, 150.5154
475.1541, 150.2834
475.6363, 150.1574
476.1184, 150.1224
476.6005, 150.0898
477.0826, 150.0587
477.5647, 149.9871
478.0468, 149.6416
478.5290, 149.0812
479.0111, 148.8421
479.4932, 149.5916
479.9753, 150.7505
480.4574, 151.5884
480.9395, 151.8560
481.4217, 152.2018
481.9038, 153.1854
482.3859, 154.4564
482.8680, 155.4874
483.3501, 155.7705
483.8322, 156.1077
484.3144, 156.7624
484.7965, 157.7298
485.2786, 158.8904
485.7607, 160.4592
486.2428, 162.0180
486.7249, 163.3486
487.2071, 164.2731
487.6892, 165.3185
488.1713, 166.5274
488.6534, 167.8278
489.1355, 169.1623
489.6176, 170.5979
490.0998, 171.8981
490.5819, 173.0100
491.0640, 173.9673
491.5461, 174.8956
492.0282, 175.8037
492.5103, 176.6796
492.9925, 177.4305
493.4746, 178.1208
493.9567, 179.1264
494.4388, 180.5704
494.9209, 181.8833
495.4030, 182.3305
495.8852, 182.1383
496.3673, 181.8902
496.8494, 181.8128
497.3315, 181.7546
497.8136, 181.6057
498.2957, 181.3579
498.7779, 180.9909
499.2600, 180.5107
499.7421, 179.8902
500.2242, 179.1480
500.7063, 178.3207
501.1884, 177.1826
501.6706, 175.5498
502.1527, 173.6373
502.6348, 171.6863
503.1169, 169.6003
503.5990, 167.6391
504.0811, 165.9353
504.5633, 164.4053
505.0454, 162.6698
505.5275, 160.6249
506.0096, 158.6043
506.4917, 156.7558
506.9738, 155.0758
507.4560, 153.3932
507.9381, 151.6789
508.4202, 150.0372
508.9023, 148.6017
509.3844, 147.3618
509.8665, 146.1328
510.3487, 144.8585
510.8308, 143.6208
511.3129, 142.5891
511.7950, 141.7302
512.2772, 140.8856
512.7593, 139.8951
513.2414, 138.9162
513.7235, 138.1535
514.2056, 137.6029
514.6877, 137.0863
515.1699, 136.3526
515.6520, 135.6706
516.1341, 135.3387
516.6162, 135.6962
517.0983, 135.8628
517.5804, 135.3352
518.0626, 134.4734
518.5447, 133.8680
519.0268, 133.7185
519.5089, 133.7242
519.9910, 133.8479
520.4731, 134.0832
520.9553, 134.3335
521.4374, 134.5695
521.9195, 134.8610
522.4016, 135.2665
522.8837, 135.8129
523.3658, 136.2952
523.8480, 136.6662
524.3301, 137.0777
524.8122, 137.8370
525.2943, 138.9092
525.7764, 139.7184
526.2585, 139.9860
526.7407, 140.0475
527.2228, 140.5299
527.7049, 141.3869
528.1870, 142.3229
528.6691, 143.1744
529.1512, 144.0095
529.6334, 145.0130
530.1155, 146.2181
530.5976, 147.1278
531.0797, 147.0574
531.5618, 146.7368
532.0439, 146.8966
532.5261, 147.9987
533.0082, 149.1887
533.4903, 150.3686
533.9724, 151.4842
534.4545, 152.4509
534.9366, 153.3155
535.4188, 153.9529
535.9009, 154.2338
536.3830, 154.1723
536.8651, 154.3446
537.3472, 154.8019
537.8293, 155.3959
538.3115, 156.0746
538.7936, 156.8526
539.2757, 157.5374
539.7578, 158.1516
540.2399, 158.5723
540.7220, 158.5447
541.2042, 158.1369
541.6863, 157.7339
542.1684, 157.4335
542.6505, 157.2149
543.1326, 157.0996
543.6147, 157.0535
544.0969, 156.9450
544.5790, 156.7806
545.0611, 156.4657
545.5432, 155.8118
546.0253, 154.7836
546.5074, 153.9384
546.9896, 153.7497
547.4717, 153.7155
547.9538, 153.4324
548.4359, 152.7702
548.9180, 151.9377
549.4001, 150.7763
549.8823, 149.5069
550.3644, 148.5221
550.8465, 147.9745
551.3286, 147.4097
551.8107, 146.7124
552.2928, 145.8981
552.7750, 145.0933
553.2571, 144.2880
553.7392, 143.5218
554.2213, 142.8598
554.7034, 142.2764
555.1855, 141.5794
555.6677, 140.7518
556.1498, 139.8623
556.6319, 138.9126
557.1140, 137.9682
557.5961, 137.1991
558.0782, 136.7698
558.5604, 136.3289
559.0425, 135.4013
559.5246, 134.2493
560.0067, 133.4652
560.4888, 133.7889
560.9709, 134.0904
561.4531, 133.7800
561.9352, 132.8389
562.4173, 132.0208
562.8994, 131.2161
563.3815, 130.7408
563.8636, 130.8486
564.3458, 131.9947
564.8279, 132.4229
565.3100, 131.7819
565.7921, 130.8733
566.2742, 130.8753
566.7563, 131.9214
567.2385, 132.5258
567.7206, 132.2310
568.2027, 131.4903
568.6848, 131.2815
569.1669, 131.5518
569.6490, 131.9349
570.1312, 132.2864
570.6133, 132.6115
571.0954, 132.9062
571.5775, 133.1752
572.0596, 133.4388
572.5417, 133.7198
573.0239, 133.9993
573.5060, 134.2288
573.9881, 134.3254
574.4702, 134.5855
574.9523, 135.2388
575.4344, 136.0585
575.9166, 136.7500
576.3987, 137.2385
576.8808, 137.6807
577.3629, 138.0499
577.8450, 138.3916
578.3271, 138.9076
578.8093, 139.7065
579.2914, 140.3474
579.7735, 140.6040
580.2556, 140.5197
580.7377, 140.4178
581.2198, 140.2879
581.7020, 140.2422
582.1841, 140.4518
582.6662, 140.8065
583.1483, 141.0466
583.6304, 141.1262
584.1125, 141.1310
584.5947, 141.1414
585.0768, 141.1259
585.5589, 141.0396
586.0410, 140.9105
586.5231, 140.6658
587.0052, 140.1512
587.4873, 139.4930
587.9694, 139.0349
