##NAMES=Brookite
##RRUFFID=R050591
##IDEAL CHEMISTRY=Ti^4+^O_2_
##LOCALITY=Taftan, near Dalbandi, Baluchistan, Pakistan
##OWNER=RRUFF
##SOURCE=Wayne Thompson
##DESCRIPTION=Yellowish-brown to reddish-brown thin tabular crystal
##STATUS=The identification of this mineral has been confirmed by X-ray diffraction and chemical analysis
##URL=rruff.info/R050591
##MEASURED CHEMISTRY=Ti_1.00_O_2_
91.11523, 215.9609
91.59735, 215.4172
92.07947, 216.0063
92.56158, 217.3424
93.04370, 218.2083
93.52582, 216.9093
94.00793, 214.7111
94.49006, 214.6019
94.97218, 217.2610
95.45429, 221.2302
95.93641, 224.9066
96.41853, 228.2658
96.90064, 230.3187
97.38276, 229.1337
97.86488, 225.1570
98.34699, 223.6328
98.82911, 226.1882
99.31123, 231.3352
99.79334, 233.7358
100.2755, 232.6733
100.7576, 231.2769
101.2397, 232.8456
101.7218, 238.3064
102.2039, 242.3037
102.6861, 243.3020
103.1682, 241.3465
103.6503, 240.0564
104.1324, 238.7290
104.6145, 238.8216
105.0966, 242.4422
105.5788, 251.5899
106.0609, 260.7413
106.5430, 267.8927
107.0251, 271.5402
107.5072, 278.6142
107.9893, 287.1664
108.4715, 299.6995
108.9536, 320.6607
109.4357, 355.0681
109.9178, 393.6353
110.3999, 433.6693
110.8820, 470.7324
111.3642, 515.9427
111.8463, 568.8265
112.3284, 630.1722
112.8105, 702.2452
113.2926, 784.4703
113.7747, 879.2379
114.2569, 986.8431
114.7390, 1105.968
115.2211, 1240.281
115.7032, 1388.321
116.1853, 1550.892
116.6674, 1731.258
117.1496, 1934.980
117.6317, 2157.591
118.1138, 2393.370
118.5959, 2635.143
119.0780, 2896.566
119.5602, 3181.750
120.0423, 3493.164
120.5244, 3829.144
121.0065, 4185.538
121.4886, 4567.156
121.9707, 4982.171
122.4529, 5434.636
122.9350, 5916.794
123.4171, 6424.208
123.8992, 6957.404
124.3813, 7506.505
124.8634, 8076.830
125.3456, 8658.153
125.8277, 9229.678
126.3098, 9812.049
126.7919, 10364.56
127.2740, 10829.92
127.7561, 11206.53
128.2383, 11483.53
128.7204, 11564.21
129.2025, 11492.14
129.6846, 11496.08
130.1667, 11699.83
130.6488, 12084.05
131.1310, 12619.69
131.6131, 13330.18
132.0952, 14141.84
132.5773, 14951.63
133.0594, 15763.53
133.5415, 16529.81
134.0237, 17222.15
134.5058, 17845.25
134.9879, 18418.88
135.4700, 18933.02
135.9521, 19411.57
136.4343, 19943.07
136.9164, 20533.03
137.3985, 21161.66
137.8806, 21816.92
138.3627, 22502.37
138.8448, 23227.16
139.3270, 24001.65
139.8091, 24828.69
140.2912, 25686.78
140.7733, 26565.12
141.2554, 27507.33
141.7375, 28543.08
142.2197, 29683.65
142.7018, 30915.28
143.1839, 32223.68
143.6660, 33596.95
144.1481, 35128.80
144.6302, 36785.03
145.1124, 38618.80
145.5945, 40658.59
146.0766, 42918.86
146.5587, 45401.51
147.0408, 48118.20
147.5230, 51073.59
148.0051, 54195.30
148.4872, 57260.84
148.9693, 60097.59
149.4514, 62919.60
149.9335, 66001.17
150.4157, 68816.20
150.8978, 71231.19
151.3799, 73503.92
151.8620, 74981.55
152.3441, 75788.06
152.8262, 75845.20
153.3084, 74954.41
153.7905, 72947.84
154.2726, 70189.08
154.7547, 66725.52
155.2368, 62268.80
155.7189, 57718.95
156.2011, 53023.41
156.6832, 48268.35
157.1653, 43798.39
157.6474, 39579.47
158.1295, 35708.98
158.6116, 32235.17
159.0938, 29208.04
159.5759, 26496.57
160.0580, 24100.92
160.5401, 21995.20
161.0222, 20102.16
161.5044, 18427.75
161.9865, 16932.03
162.4686, 15588.78
162.9507, 14410.79
163.4328, 13356.94
163.9149, 12420.74
164.3971, 11586.16
164.8792, 10823.72
165.3613, 10125.67
165.8434, 9487.429
166.3255, 8902.477
166.8076, 8379.439
167.2898, 7906.496
167.7719, 7479.472
168.2540, 7096.290
168.7361, 6741.837
169.2182, 6409.017
169.7003, 6098.856
170.1825, 5812.636
170.6646, 5552.888
171.1467, 5315.669
171.6288, 5095.032
172.1109, 4892.588
172.5931, 4705.638
173.0752, 4532.090
173.5573, 4373.022
174.0394, 4229.732
174.5215, 4105.602
175.0036, 3996.738
175.4858, 3901.717
175.9679, 3819.604
176.4500, 3749.781
176.9321, 3696.116
177.4142, 3653.588
177.8963, 3611.676
178.3785, 3566.484
178.8606, 3518.184
179.3427, 3466.420
179.8248, 3410.144
180.3069, 3356.413
180.7890, 3314.070
181.2712, 3280.887
181.7533, 3250.354
182.2354, 3217.032
182.7175, 3184.589
183.1996, 3162.779
183.6818, 3152.421
184.1639, 3147.958
184.6460, 3140.847
185.1281, 3132.670
185.6102, 3131.615
186.0923, 3139.445
186.5745, 3157.310
187.0566, 3188.606
187.5387, 3234.034
188.0208, 3292.120
188.5029, 3356.321
188.9850, 3428.124
189.4672, 3527.581
189.9493, 3671.247
190.4314, 3852.927
190.9135, 4049.428
191.3956, 4260.294
191.8777, 4481.851
192.3599, 4733.450
192.8420, 5014.377
193.3241, 5259.706
193.8062, 5474.342
194.2883, 5648.815
194.7704, 5634.366
195.2526, 5396.731
195.7347, 5018.808
196.2168, 4616.084
196.6989, 4182.531
197.1810, 3795.191
197.6632, 3501.743
198.1453, 3299.443
198.6274, 3134.384
199.1095, 3007.231
199.5916, 2910.575
200.0737, 2832.785
200.5559, 2773.878
201.0380, 2730.426
201.5201, 2702.299
202.0022, 2689.777
202.4843, 2685.691
202.9664, 2690.080
203.4486, 2702.266
203.9307, 2721.895
204.4128, 2749.908
204.8949, 2780.874
205.3770, 2808.156
205.8591, 2828.603
206.3413, 2868.665
206.8234, 2932.263
207.3055, 3014.235
207.7876, 3100.638
208.2697, 3188.142
208.7519, 3288.027
209.2340, 3409.007
209.7161, 3554.458
210.1982, 3703.913
210.6803, 3857.048
211.1624, 4013.021
211.6446, 4177.109
212.1267, 4362.479
212.6088, 4520.729
213.0909, 4639.653
213.5730, 4736.152
214.0551, 4727.558
214.5373, 4599.852
215.0194, 4369.451
215.5015, 4063.182
215.9836, 3640.292
216.4657, 3221.707
216.9478, 2857.992
217.4300, 2550.564
217.9121, 2292.798
218.3942, 2090.782
218.8763, 1937.520
219.3584, 1818.240
219.8405, 1740.278
220.3227, 1684.364
220.8048, 1642.014
221.2869, 1613.728
221.7690, 1596.644
222.2511, 1591.420
222.7333, 1597.217
223.2154, 1611.259
223.6975, 1632.095
224.1796, 1663.957
224.6617, 1707.761
225.1438, 1759.848
225.6260, 1832.524
226.1081, 1923.860
226.5902, 2036.512
227.0723, 2174.436
227.5544, 2339.008
228.0365, 2529.375
228.5187, 2747.740
229.0008, 3003.237
229.4829, 3264.480
229.9650, 3538.435
230.4471, 3817.549
230.9292, 4084.293
231.4114, 4340.633
231.8935, 4586.880
232.3756, 4817.388
232.8577, 5023.071
233.3398, 5243.207
233.8220, 5479.458
234.3041, 5730.034
234.7862, 5983.259
235.2683, 6230.409
235.7504, 6492.213
236.2325, 6779.764
236.7147, 7086.216
237.1968, 7423.048
237.6789, 7782.738
238.1610, 8175.943
238.6431, 8622.520
239.1252, 9122.960
239.6074, 9684.529
240.0895, 10309.51
240.5716, 10980.11
241.0537, 11749.82
241.5358, 12637.25
242.0179, 13615.21
242.5001, 14634.01
242.9822, 15703.71
243.4643, 16799.59
243.9464, 17938.25
244.4285, 19187.44
244.9106, 20281.05
245.3928, 21305.77
245.8749, 22131.13
246.3570, 22539.86
246.8391, 22535.80
247.3212, 22102.85
247.8034, 21179.51
248.2855, 19654.32
248.7676, 18070.61
249.2497, 16346.29
249.7318, 14612.71
250.2139, 13061.12
250.6961, 11690.25
251.1782, 10501.73
251.6603, 9500.065
252.1424, 8697.601
252.6245, 7995.237
253.1066, 7395.256
253.5888, 6887.097
254.0709, 6453.251
254.5530, 6109.827
255.0351, 5806.756
255.5172, 5537.383
255.9993, 5301.512
256.4815, 5084.746
256.9636, 4887.416
257.4457, 4711.458
257.9278, 4559.284
258.4099, 4436.473
258.8921, 4323.931
259.3742, 4215.649
259.8563, 4112.403
260.3384, 4021.680
260.8205, 3947.404
261.3026, 3881.695
261.7848, 3815.358
262.2669, 3746.303
262.7490, 3684.082
263.2311, 3631.963
263.7132, 3589.283
264.1953, 3549.667
264.6775, 3513.906
265.1596, 3480.365
265.6417, 3447.615
266.1238, 3415.555
266.6059, 3384.905
267.0880, 3356.115
267.5702, 3328.892
268.0523, 3302.990
268.5344, 3277.783
269.0165, 3254.550
269.4986, 3234.227
269.9807, 3217.074
270.4629, 3200.631
270.9450, 3183.859
271.4271, 3167.668
271.9092, 3156.104
272.3913, 3149.125
272.8734, 3146.853
273.3556, 3150.772
273.8377, 3162.033
274.3198, 3171.692
274.8019, 3179.537
275.2840, 3184.885
275.7661, 3184.848
276.2483, 3178.105
276.7304, 3171.457
277.2125, 3167.413
277.6946, 3165.583
278.1768, 3172.883
278.6589, 3192.592
279.1410, 3217.881
279.6231, 3233.507
280.1052, 3238.074
280.5873, 3243.604
281.0695, 3256.922
281.5516, 3277.971
282.0337, 3298.626
282.5158, 3319.361
282.9979, 3338.228
283.4800, 3348.860
283.9622, 3350.553
284.4443, 3358.542
284.9264, 3383.422
285.4085, 3422.541
285.8906, 3454.113
286.3727, 3477.249
286.8549, 3495.854
287.3370, 3511.275
287.8191, 3524.006
288.3012, 3545.281
288.7833, 3583.388
289.2654, 3632.874
289.7476, 3672.141
290.2297, 3699.710
290.7118, 3728.727
291.1939, 3772.458
291.6760, 3829.587
292.1581, 3894.386
292.6403, 3964.826
293.1224, 4041.875
293.6045, 4128.774
294.0866, 4224.777
294.5687, 4332.581
295.0508, 4454.702
295.5330, 4590.978
296.0151, 4737.766
296.4972, 4895.211
296.9793, 5064.681
297.4614, 5240.743
297.9435, 5425.571
298.4257, 5627.243
298.9078, 5854.247
299.3899, 6101.669
299.8720, 6351.412
300.3541, 6599.600
300.8362, 6857.292
301.3184, 7139.048
301.8005, 7444.883
302.2826, 7762.502
302.7647, 8088.017
303.2469, 8421.816
303.7290, 8773.445
304.2111, 9142.928
304.6932, 9522.862
305.1753, 9894.325
305.6574, 10265.47
306.1396, 10641.34
306.6217, 11026.26
307.1038, 11421.00
307.5859, 11826.12
308.0680, 12245.17
308.5501, 12675.97
309.0323, 13125.59
309.5144, 13585.55
309.9965, 14040.50
310.4786, 14480.73
310.9607, 14921.56
311.4428, 15374.44
311.9250, 15837.69
312.4071, 16315.16
312.8892, 16815.64
313.3713, 17317.84
313.8534, 17803.50
314.3355, 18264.49
314.8177, 18703.74
315.2998, 19138.89
315.7819, 19559.41
316.2640, 19920.81
316.7461, 20199.43
317.2282, 20407.96
317.7104, 20561.94
318.1925, 20688.90
318.6746, 20725.00
319.1567, 20650.45
319.6388, 20468.77
320.1209, 20190.38
320.6031, 19799.59
321.0852, 19327.28
321.5673, 18780.76
322.0494, 18144.72
322.5315, 17474.02
323.0136, 16763.27
323.4958, 16027.93
323.9779, 15293.03
324.4600, 14545.02
324.9421, 13811.41
325.4242, 13107.76
325.9064, 12432.23
326.3885, 11779.89
326.8706, 11137.81
327.3527, 10525.38
327.8348, 9954.378
328.3170, 9439.118
328.7991, 8948.385
329.2812, 8481.037
329.7633, 8034.607
330.2454, 7617.667
330.7275, 7238.271
331.2097, 6885.935
331.6918, 6554.766
332.1739, 6245.165
332.6560, 5953.734
333.1381, 5686.556
333.6202, 5439.987
334.1024, 5207.554
334.5845, 4991.415
335.0666, 4790.044
335.5487, 4603.460
336.0308, 4436.232
336.5129, 4275.978
336.9951, 4120.521
337.4772, 3973.902
337.9593, 3838.224
338.4414, 3714.214
338.9235, 3598.462
339.4056, 3488.422
339.8878, 3385.013
340.3699, 3288.175
340.8520, 3197.171
341.3341, 3113.525
341.8162, 3037.402
342.2983, 2969.930
342.7805, 2904.125
343.2626, 2837.619
343.7447, 2771.027
344.2268, 2711.871
344.7089, 2660.174
345.1910, 2611.936
345.6732, 2562.376
346.1553, 2511.816
346.6374, 2469.654
347.1195, 2439.878
347.6016, 2416.314
348.0837, 2384.805
348.5659, 2345.696
349.0480, 2308.872
349.5301, 2284.200
350.0122, 2267.021
350.4944, 2245.036
350.9765, 2215.132
351.4586, 2186.001
351.9407, 2171.466
352.4228, 2167.737
352.9049, 2162.203
353.3871, 2144.344
353.8692, 2122.738
354.3513, 2108.923
354.8334, 2103.656
355.3155, 2101.565
355.7976, 2098.631
356.2798, 2095.905
356.7619, 2095.073
357.2440, 2098.776
357.7261, 2102.975
358.2082, 2104.158
358.6903, 2102.773
359.1725, 2102.075
359.6546, 2104.280
360.1367, 2107.719
360.6188, 2110.845
361.1009, 2112.538
361.5830, 2114.989
362.0652, 2119.168
362.5473, 2124.820
363.0294, 2131.308
363.5115, 2141.145
363.9936, 2149.721
364.4757, 2154.191
364.9579, 2153.009
365.4400, 2152.068
365.9221, 2154.802
366.4042, 2157.797
366.8863, 2156.715
367.3684, 2150.174
367.8506, 2140.387
368.3327, 2127.228
368.8148, 2110.562
369.2969, 2093.131
369.7790, 2072.572
370.2611, 2052.846
370.7433, 2036.389
371.2254, 2021.309
371.7075, 2012.903
372.1896, 2014.132
372.6717, 2022.590
373.1538, 2028.324
373.6360, 2030.455
374.1181, 2031.222
374.6002, 2030.496
375.0823, 2025.841
375.5645, 2028.892
376.0466, 2041.728
376.5287, 2059.883
377.0108, 2075.983
377.4929, 2089.070
377.9750, 2103.347
378.4572, 2119.664
378.9393, 2138.179
379.4214, 2160.670
379.9035, 2187.705
380.3856, 2215.626
380.8677, 2238.856
381.3499, 2258.054
381.8320, 2282.333
382.3141, 2315.653
382.7962, 2353.123
383.2783, 2383.279
383.7604, 2406.619
384.2426, 2433.558
384.7247, 2472.975
385.2068, 2520.800
385.6889, 2569.721
386.1710, 2618.501
386.6531, 2668.508
387.1353, 2721.471
387.6174, 2777.193
388.0995, 2835.449
388.5816, 2896.929
389.0637, 2961.023
389.5458, 3026.282
390.0280, 3093.435
390.5101, 3167.750
390.9922, 3254.784
391.4743, 3349.875
391.9564, 3448.785
392.4385, 3545.639
392.9207, 3651.061
393.4028, 3772.540
393.8849, 3906.350
394.3670, 4042.589
394.8491, 4172.740
395.3312, 4306.369
395.8134, 4448.599
396.2955, 4600.449
396.7776, 4760.505
397.2597, 4928.710
397.7418, 5102.950
398.2239, 5281.991
398.7061, 5466.374
399.1882, 5653.217
399.6703, 5838.468
400.1524, 6021.593
400.6346, 6221.519
401.1167, 6442.338
401.5988, 6674.092
402.0809, 6910.109
402.5630, 7151.840
403.0451, 7396.233
403.5273, 7642.604
404.0094, 7889.844
404.4915, 8130.991
404.9736, 8363.936
405.4557, 8597.054
405.9378, 8840.107
406.4200, 9095.692
406.9021, 9331.365
407.3842, 9544.881
407.8663, 9738.383
408.3484, 9914.041
408.8305, 10072.64
409.3127, 10211.04
409.7948, 10334.25
410.2769, 10434.06
410.7590, 10484.47
411.2411, 10485.60
411.7232, 10449.35
412.2054, 10387.47
412.6875, 10294.57
413.1696, 10157.02
413.6517, 9968.178
414.1338, 9744.849
414.6159, 9501.041
415.0981, 9238.978
415.5802, 8966.382
416.0623, 8688.592
416.5444, 8401.632
417.0265, 8106.147
417.5086, 7799.724
417.9908, 7494.986
418.4729, 7199.185
418.9550, 6911.321
419.4371, 6635.688
419.9192, 6375.266
420.4013, 6120.271
420.8835, 5862.027
421.3656, 5606.067
421.8477, 5363.708
422.3298, 5141.372
422.8119, 4934.583
423.2940, 4739.560
423.7762, 4558.396
424.2583, 4387.320
424.7404, 4227.876
425.2225, 4080.132
425.7047, 3939.514
426.1868, 3808.880
426.6689, 3683.603
427.1510, 3560.483
427.6331, 3440.677
428.1152, 3332.001
428.5974, 3234.662
429.0795, 3146.187
429.5616, 3064.903
430.0437, 2992.390
430.5258, 2920.995
431.0079, 2849.999
431.4901, 2781.171
431.9722, 2717.807
432.4543, 2660.311
432.9364, 2605.868
433.4185, 2553.900
433.9006, 2504.745
434.3828, 2461.213
434.8649, 2423.397
435.3470, 2390.126
435.8291, 2361.161
436.3112, 2335.906
436.7933, 2313.300
437.2755, 2293.741
437.7576, 2275.189
438.2397, 2255.018
438.7218, 2233.868
439.2039, 2213.818
439.6860, 2194.730
440.1682, 2177.896
440.6503, 2164.852
441.1324, 2155.501
441.6145, 2149.927
442.0966, 2150.180
442.5787, 2153.380
443.0609, 2156.414
443.5430, 2156.001
444.0251, 2157.646
444.5072, 2163.900
444.9893, 2173.887
445.4714, 2184.505
445.9536, 2193.087
446.4357, 2203.872
446.9178, 2219.328
447.3999, 2242.078
447.8820, 2263.031
448.3641, 2283.116
448.8463, 2300.903
449.3284, 2314.874
449.8105, 2322.793
450.2926, 2330.920
450.7747, 2340.773
451.2569, 2351.842
451.7390, 2360.736
452.2211, 2367.458
452.7032, 2372.099
453.1853, 2374.402
453.6674, 2374.250
454.1496, 2374.025
454.6317, 2374.737
455.1138, 2372.872
455.5959, 2360.574
456.0780, 2338.903
456.5602, 2321.430
457.0423, 2316.272
457.5244, 2316.216
458.0065, 2305.224
458.4886, 2284.301
458.9707, 2263.192
459.4529, 2249.248
459.9350, 2239.785
460.4171, 2231.150
460.8992, 2222.391
461.3813, 2215.267
461.8634, 2212.733
462.3456, 2212.496
462.8277, 2210.736
463.3098, 2203.486
463.7919, 2196.390
464.2740, 2192.821
464.7561, 2192.573
465.2383, 2191.804
465.7204, 2189.120
466.2025, 2185.656
466.6846, 2181.939
467.1667, 2176.119
467.6488, 2173.087
468.1310, 2172.462
468.6131, 2174.905
469.0952, 2182.047
469.5773, 2198.375
470.0594, 2212.080
470.5415, 2219.373
471.0237, 2220.536
471.5058, 2224.228
471.9879, 2230.085
472.4700, 2239.366
472.9521, 2253.501
473.4342, 2272.732
473.9164, 2292.989
474.3985, 2314.107
474.8806, 2336.164
475.3627, 2359.280
475.8448, 2383.491
476.3270, 2409.184
476.8091, 2434.179
477.2912, 2461.457
477.7733, 2498.357
478.2554, 2544.393
478.7375, 2592.237
479.2197, 2634.198
479.7018, 2675.497
480.1839, 2722.594
480.6660, 2776.447
481.1481, 2836.578
481.6302, 2905.766
482.1124, 2980.470
482.5945, 3054.697
483.0766, 3119.877
483.5587, 3190.263
484.0408, 3272.280
484.5229, 3365.545
485.0051, 3462.989
485.4872, 3562.822
485.9693, 3667.145
486.4514, 3776.434
486.9335, 3893.226
487.4156, 4011.490
487.8978, 4132.643
488.3799, 4254.104
488.8620, 4374.886
489.3441, 4492.143
489.8262, 4617.138
490.3083, 4755.889
490.7905, 4906.816
491.2726, 5051.963
491.7547, 5190.946
492.2368, 5331.026
492.7189, 5474.210
493.2010, 5621.927
493.6832, 5770.537
494.1653, 5920.961
494.6474, 6072.469
495.1295, 6227.042
495.6116, 6383.819
496.0938, 6542.597
496.5759, 6710.278
497.0580, 6874.207
497.5401, 7020.942
498.0222, 7151.459
498.5044, 7263.426
498.9865, 7356.479
499.4686, 7431.569
499.9507, 7491.715
500.4328, 7540.237
500.9149, 7562.552
501.3971, 7554.363
501.8792, 7517.358
502.3613, 7453.944
502.8434, 7361.388
503.3255, 7244.908
503.8076, 7101.766
504.2898, 6934.597
504.7719, 6753.155
505.2540, 6552.934
505.7361, 6345.620
506.2182, 6131.257
506.7003, 5908.175
507.1825, 5695.683
507.6646, 5494.444
508.1467, 5302.510
508.6288, 5117.794
509.1109, 4940.353
509.5930, 4770.619
510.0752, 4607.314
510.5573, 4453.911
511.0394, 4317.407
511.5215, 4197.135
512.0037, 4088.796
512.4858, 3991.415
512.9679, 3903.905
513.4500, 3825.008
513.9321, 3754.639
514.4142, 3692.268
514.8964, 3639.934
515.3785, 3594.079
515.8606, 3550.993
516.3427, 3506.022
516.8248, 3469.545
517.3069, 3449.479
517.7891, 3440.143
518.2712, 3430.973
518.7533, 3412.437
519.2354, 3401.297
519.7175, 3405.214
520.1996, 3423.759
520.6818, 3439.365
521.1639, 3447.604
521.6460, 3458.450
522.1281, 3477.301
522.6102, 3504.786
523.0923, 3538.864
523.5745, 3581.458
524.0566, 3627.674
524.5387, 3668.542
525.0208, 3704.214
525.5029, 3747.163
525.9850, 3802.285
526.4672, 3865.772
526.9493, 3932.522
527.4314, 4002.697
527.9135, 4071.774
528.3956, 4136.091
528.8777, 4199.765
529.3599, 4267.227
529.8420, 4339.481
530.3241, 4415.031
530.8062, 4494.892
531.2883, 4578.173
531.7704, 4661.858
532.2526, 4747.749
532.7347, 4832.772
533.2168, 4915.876
533.6989, 4997.654
534.1810, 5081.750
534.6631, 5174.983
535.1453, 5263.597
535.6274, 5341.393
536.1095, 5409.130
536.5916, 5475.642
537.0737, 5541.152
537.5558, 5606.259
538.0380, 5672.252
538.5201, 5740.627
539.0022, 5804.411
539.4843, 5863.399
539.9664, 5915.460
540.4485, 5956.170
540.9307, 5985.612
541.4128, 6005.577
541.8949, 6014.427
542.3770, 6015.782
542.8591, 6017.955
543.3412, 6019.005
543.8234, 6009.483
544.3055, 5982.104
544.7876, 5942.142
545.2697, 5893.942
545.7518, 5837.740
546.2339, 5775.776
546.7161, 5714.309
547.1982, 5645.392
547.6803, 5560.335
548.1624, 5444.271
548.6445, 5329.684
549.1266, 5221.456
549.6088, 5117.622
550.0909, 5014.970
550.5730, 4918.294
551.0551, 4814.574
551.5372, 4698.195
552.0193, 4570.901
552.5015, 4455.844
552.9836, 4355.583
553.4657, 4258.435
553.9478, 4155.547
554.4299, 4047.798
554.9120, 3943.865
555.3942, 3844.750
555.8763, 3751.250
556.3584, 3666.090
556.8405, 3587.623
557.3226, 3511.959
557.8047, 3438.497
558.2869, 3366.037
558.7690, 3292.037
559.2511, 3217.827
559.7332, 3147.593
560.2154, 3082.401
560.6975, 3022.495
561.1796, 2969.244
561.6617, 2922.818
562.1439, 2875.082
562.6260, 2819.866
563.1081, 2766.567
563.5902, 2719.884
564.0723, 2683.984
564.5544, 2645.421
565.0366, 2601.665
565.5187, 2557.208
566.0008, 2518.390
566.4829, 2485.077
566.9650, 2456.198
567.4471, 2431.852
567.9293, 2411.344
568.4114, 2394.973
568.8935, 2382.339
569.3756, 2369.068
569.8577, 2351.716
570.3398, 2332.409
570.8220, 2315.503
571.3041, 2300.821
571.7862, 2287.218
572.2683, 2274.138
572.7504, 2261.479
573.2325, 2248.654
573.7147, 2234.906
574.1968, 2223.075
574.6789, 2215.030
575.1610, 2209.288
575.6431, 2203.833
576.1252, 2195.903
576.6074, 2191.454
577.0895, 2192.843
577.5716, 2198.381
578.0537, 2201.428
578.5358, 2200.930
579.0179, 2200.425
579.5001, 2201.484
579.9822, 2203.970
580.4643, 2205.284
580.9464, 2205.171
581.4285, 2205.549
581.9106, 2207.542
582.3928, 2211.341
582.8749, 2218.180
583.3570, 2228.851
583.8391, 2239.544
584.3212, 2246.583
584.8033, 2251.125
585.2855, 2255.174
585.7676, 2258.139
586.2497, 2262.223
586.7318, 2268.009
587.2139, 2275.742
587.6960, 2286.124
588.1782, 2301.459
