##NAMES=Brucite
##RRUFFID=R040077
##IDEAL CHEMISTRY=Mg(OH)_2_
##LOCALITY=Gabbs, Nye County, Nevada, USA
##OWNER=RRUFF
##SOURCE=University of Arizona Mineral Museum
##DESCRIPTION=White fine-grained massive
##STATUS=The identification of this mineral has been confirmed by X-ray diffraction and chemical analysis
##URL=rruff.info/R040077
##MEASURED CHEMISTRY=Mg_1.00_(OH)_2_
150.5564, 1341.487
151.0385, 1351.046
151.5206, 1363.759
152.0027, 1366.107
152.4848, 1355.670
152.9670, 1340.563
153.4491, 1317.318
153.9312, 1290.379
154.4133, 1273.840
154.8954, 1277.163
155.3775, 1292.869
155.8597, 1298.865
156.3418, 1291.408
156.8239, 1280.150
157.3060, 1266.551
157.7881, 1251.924
158.2702, 1242.723
158.7524, 1244.392
159.2345, 1252.511
159.7166, 1254.544
160.1987, 1245.385
160.6808, 1236.986
161.1629, 1238.207
161.6451, 1247.947
162.1272, 1258.147
162.6093, 1266.414
163.0914, 1271.780
163.5735, 1272.801
164.0556, 1266.203
164.5378, 1259.522
165.0199, 1260.489
165.5020, 1268.699
165.9841, 1273.632
166.4662, 1265.841
166.9483, 1253.226
167.4305, 1250.861
167.9126, 1266.712
168.3947, 1285.611
168.8768, 1293.656
169.3589, 1290.725
169.8410, 1284.760
170.3232, 1277.088
170.8053, 1269.760
171.2874, 1266.215
171.7695, 1268.383
172.2516, 1272.819
172.7337, 1276.492
173.2159, 1279.413
173.6980, 1280.855
174.1801, 1277.803
174.6622, 1273.712
175.1443, 1274.148
175.6264, 1283.291
176.1086, 1293.780
176.5907, 1296.985
177.0728, 1292.222
177.5549, 1284.299
178.0370, 1271.798
178.5191, 1258.630
179.0013, 1249.835
179.4834, 1247.142
179.9655, 1248.638
180.4476, 1253.939
180.9297, 1264.545
181.4118, 1270.983
181.8940, 1262.267
182.3761, 1248.577
182.8582, 1241.505
183.3403, 1246.123
183.8224, 1256.071
184.3046, 1264.139
184.7867, 1270.829
185.2688, 1273.405
185.7509, 1267.079
186.2330, 1257.009
186.7151, 1247.987
187.1973, 1240.818
187.6794, 1236.005
188.1615, 1235.590
188.6436, 1241.184
189.1257, 1244.241
189.6078, 1236.611
190.0900, 1226.119
190.5721, 1220.555
191.0542, 1222.926
191.5363, 1229.742
192.0184, 1237.266
192.5005, 1246.162
192.9827, 1252.824
193.4648, 1255.166
193.9469, 1254.769
194.4290, 1252.381
194.9111, 1247.549
195.3932, 1242.253
195.8754, 1238.929
196.3575, 1237.578
196.8396, 1238.140
197.3217, 1246.004
197.8038, 1253.469
198.2859, 1251.109
198.7681, 1233.165
199.2502, 1213.729
199.7323, 1214.018
200.2144, 1238.409
200.6965, 1259.429
201.1786, 1264.514
201.6608, 1262.695
202.1429, 1260.291
202.6250, 1258.763
203.1071, 1257.056
203.5892, 1252.972
204.0713, 1245.718
204.5535, 1241.053
205.0356, 1243.407
205.5177, 1247.979
205.9998, 1250.949
206.4819, 1251.380
206.9640, 1251.042
207.4462, 1252.276
207.9283, 1255.377
208.4104, 1257.144
208.8925, 1255.085
209.3746, 1252.197
209.8567, 1250.274
210.3388, 1249.411
210.8210, 1250.965
211.3031, 1258.737
211.7852, 1273.273
212.2673, 1282.139
212.7494, 1278.834
213.2315, 1270.567
213.7137, 1262.541
214.1958, 1255.327
214.6779, 1248.605
215.1600, 1240.340
215.6421, 1230.674
216.1242, 1227.957
216.6064, 1239.427
217.0885, 1253.999
217.5706, 1262.071
218.0527, 1263.076
218.5348, 1263.972
219.0169, 1272.965
219.4991, 1288.667
219.9812, 1295.933
220.4633, 1287.873
220.9454, 1274.703
221.4275, 1263.582
221.9096, 1254.737
222.3918, 1249.738
222.8739, 1251.265
223.3560, 1258.125
223.8381, 1263.677
224.3202, 1266.065
224.8023, 1268.298
225.2845, 1274.212
225.7666, 1282.971
226.2487, 1288.888
226.7308, 1287.903
227.2129, 1281.538
227.6950, 1274.052
228.1772, 1264.875
228.6593, 1256.520
229.1414, 1249.231
229.6235, 1243.642
230.1056, 1243.562
230.5877, 1257.243
231.0699, 1276.545
231.5520, 1282.023
232.0341, 1267.573
232.5162, 1252.624
232.9983, 1255.507
233.4804, 1269.899
233.9626, 1280.493
234.4447, 1280.144
234.9268, 1274.017
235.4089, 1268.558
235.8910, 1263.487
236.3731, 1261.597
236.8553, 1267.911
237.3374, 1278.933
237.8195, 1286.559
238.3016, 1289.661
238.7837, 1288.321
239.2658, 1279.979
239.7480, 1264.250
240.2301, 1251.495
240.7122, 1249.447
241.1943, 1254.817
241.6764, 1258.183
242.1585, 1257.115
242.6407, 1255.561
243.1228, 1256.144
243.6049, 1258.817
244.0870, 1263.661
244.5691, 1272.490
245.0512, 1282.499
245.5334, 1286.590
246.0155, 1281.137
246.4976, 1275.259
246.9797, 1275.477
247.4618, 1279.635
247.9439, 1279.761
248.4261, 1270.860
248.9082, 1258.211
249.3903, 1254.073
249.8724, 1261.918
250.3545, 1268.762
250.8366, 1267.682
251.3188, 1262.665
251.8009, 1261.682
252.2830, 1267.739
252.7651, 1277.360
253.2472, 1285.269
253.7293, 1292.480
254.2115, 1295.463
254.6936, 1288.798
255.1757, 1279.412
255.6578, 1276.757
256.1399, 1283.177
256.6220, 1292.954
257.1042, 1299.165
257.5863, 1300.998
258.0684, 1301.153
258.5505, 1295.961
259.0326, 1291.502
259.5147, 1294.729
259.9969, 1305.700
260.4790, 1316.347
260.9611, 1317.763
261.4432, 1307.238
261.9253, 1306.594
262.4074, 1324.090
262.8896, 1343.065
263.3717, 1354.039
263.8538, 1357.920
264.3359, 1361.322
264.8180, 1369.246
265.3001, 1381.693
265.7823, 1393.876
266.2644, 1405.919
266.7465, 1417.703
267.2286, 1429.050
267.7107, 1440.117
268.1928, 1450.925
268.6750, 1461.320
269.1571, 1471.828
269.6392, 1484.736
270.1213, 1500.941
270.6034, 1518.888
271.0855, 1538.702
271.5677, 1560.069
272.0498, 1583.347
272.5319, 1608.568
273.0140, 1634.244
273.4961, 1656.842
273.9782, 1676.420
274.4604, 1692.385
274.9425, 1701.724
275.4246, 1709.800
275.9067, 1721.689
276.3888, 1738.334
276.8709, 1755.675
277.3531, 1769.634
277.8352, 1782.319
278.3173, 1784.301
278.7994, 1769.995
279.2815, 1749.543
279.7636, 1726.123
280.2458, 1700.813
280.7279, 1674.609
281.2100, 1648.163
281.6921, 1621.410
282.1742, 1595.186
282.6563, 1568.583
283.1385, 1543.371
283.6206, 1521.816
284.1027, 1502.322
284.5848, 1481.046
285.0669, 1454.145
285.5490, 1423.900
286.0312, 1399.201
286.5133, 1380.695
286.9954, 1366.760
287.4775, 1361.471
287.9596, 1358.783
288.4417, 1349.209
288.9239, 1325.690
289.4060, 1298.864
289.8881, 1284.598
290.3702, 1284.129
290.8523, 1286.758
291.3344, 1290.992
291.8166, 1294.622
292.2987, 1295.043
292.7808, 1291.713
293.2629, 1285.855
293.7450, 1276.916
294.2271, 1265.642
294.7093, 1256.247
295.1914, 1250.155
295.6735, 1246.235
296.1556, 1242.436
296.6377, 1238.413
297.1198, 1236.762
297.6020, 1241.496
298.0841, 1248.547
298.5662, 1250.090
299.0483, 1244.108
299.5304, 1236.177
300.0125, 1231.990
300.4947, 1231.642
300.9768, 1231.946
301.4589, 1231.513
301.9410, 1232.377
302.4231, 1240.240
302.9052, 1253.612
303.3874, 1258.943
303.8695, 1243.057
304.3516, 1207.813
304.8337, 1190.281
305.3158, 1199.690
305.7979, 1214.199
306.2801, 1229.545
306.7622, 1243.525
307.2443, 1252.774
307.7264, 1255.517
308.2085, 1252.438
308.6906, 1245.679
309.1728, 1228.797
309.6549, 1215.951
310.1370, 1207.586
310.6191, 1203.721
311.1012, 1206.000
311.5833, 1214.366
312.0655, 1224.459
312.5476, 1229.245
313.0297, 1225.794
313.5118, 1223.898
313.9939, 1224.804
314.4760, 1225.955
314.9582, 1226.141
315.4403, 1225.190
315.9224, 1223.415
316.4045, 1221.120
316.8866, 1218.306
317.3687, 1214.254
317.8509, 1204.429
318.3330, 1198.833
318.8151, 1206.723
319.2972, 1220.206
319.7793, 1224.390
320.2614, 1208.105
320.7436, 1181.914
321.2257, 1173.196
321.7078, 1188.048
322.1899, 1202.780
322.6720, 1210.048
323.1541, 1212.647
323.6363, 1212.146
324.1184, 1208.484
324.6005, 1203.872
325.0826, 1198.937
325.5647, 1193.958
326.0468, 1194.142
326.5290, 1203.130
327.0111, 1215.183
327.4932, 1224.981
327.9753, 1232.632
328.4574, 1236.933
328.9395, 1235.918
329.4217, 1231.602
329.9038, 1226.876
330.3859, 1221.907
330.8680, 1218.245
331.3501, 1218.354
331.8322, 1221.772
332.3144, 1222.300
332.7965, 1216.970
333.2786, 1210.691
333.7607, 1207.252
334.2428, 1206.069
334.7249, 1203.778
335.2070, 1197.789
335.6891, 1189.781
336.1713, 1187.562
336.6534, 1197.205
337.1355, 1204.314
337.6176, 1204.484
338.0997, 1201.289
338.5818, 1198.500
339.0640, 1197.464
339.5461, 1198.667
340.0282, 1203.744
340.5103, 1218.624
340.9924, 1223.381
341.4745, 1205.745
341.9567, 1189.550
342.4388, 1193.102
342.9209, 1213.448
343.4030, 1232.657
343.8851, 1234.189
344.3672, 1218.607
344.8494, 1208.489
345.3315, 1208.333
345.8136, 1208.528
346.2957, 1206.167
346.7778, 1202.437
347.2599, 1198.987
347.7421, 1196.327
348.2242, 1194.948
348.7063, 1196.340
349.1884, 1201.391
349.6705, 1205.429
350.1526, 1205.531
350.6348, 1205.096
351.1169, 1207.295
351.5990, 1212.639
352.0811, 1217.895
352.5632, 1220.649
353.0453, 1221.352
353.5275, 1221.751
354.0096, 1222.213
354.4917, 1222.170
354.9738, 1221.027
355.4559, 1218.915
355.9380, 1215.973
356.4202, 1209.688
356.9023, 1204.260
357.3844, 1205.675
357.8665, 1213.143
358.3486, 1218.193
358.8307, 1215.195
359.3129, 1205.992
359.7950, 1199.206
360.2771, 1194.394
360.7592, 1192.038
361.2413, 1192.678
361.7234, 1195.736
362.2056, 1201.465
362.6877, 1209.880
363.1698, 1218.117
363.6519, 1221.548
364.1340, 1218.203
364.6161, 1214.642
365.0983, 1211.127
365.5804, 1207.214
366.0625, 1200.998
366.5446, 1193.788
367.0267, 1190.062
367.5089, 1194.500
367.9910, 1205.725
368.4731, 1209.533
368.9552, 1198.997
369.4373, 1190.797
369.9194, 1191.623
370.4016, 1196.122
370.8837, 1197.660
371.3658, 1193.602
371.8479, 1187.441
372.3300, 1183.913
372.8121, 1183.201
373.2943, 1182.630
373.7764, 1181.579
374.2585, 1180.555
374.7406, 1179.123
375.2227, 1177.457
375.7048, 1178.441
376.1870, 1185.811
376.6691, 1196.199
377.1512, 1204.183
377.6333, 1209.557
378.1154, 1210.468
378.5975, 1203.492
379.0797, 1190.214
379.5618, 1181.266
380.0439, 1178.674
380.5260, 1178.490
381.0081, 1179.805
381.4902, 1181.999
381.9724, 1183.205
382.4545, 1182.427
382.9366, 1181.809
383.4187, 1185.764
383.9008, 1199.335
384.3829, 1208.507
384.8651, 1213.106
385.3472, 1213.515
385.8293, 1208.109
386.3114, 1198.070
386.7935, 1187.562
387.2756, 1179.619
387.7578, 1174.323
388.2399, 1175.187
388.7220, 1188.591
389.2041, 1200.422
389.6862, 1208.781
390.1683, 1213.032
390.6505, 1211.390
391.1326, 1202.527
391.6147, 1191.893
392.0968, 1188.474
392.5789, 1193.266
393.0610, 1195.246
393.5432, 1188.824
394.0253, 1182.199
394.5074, 1182.775
394.9895, 1190.188
395.4716, 1197.981
395.9537, 1204.768
396.4359, 1209.369
396.9180, 1209.043
397.4001, 1203.418
397.8822, 1195.880
398.3643, 1186.888
398.8464, 1177.967
399.3286, 1175.118
399.8107, 1187.295
400.2928, 1195.430
400.7749, 1183.314
401.2570, 1164.187
401.7391, 1165.236
402.2213, 1195.655
402.7034, 1233.033
403.1855, 1241.426
403.6676, 1204.714
404.1497, 1181.785
404.6318, 1179.921
405.1140, 1183.260
405.5961, 1184.176
406.0782, 1182.783
406.5603, 1182.718
407.0424, 1187.056
407.5245, 1193.974
408.0067, 1194.510
408.4888, 1182.956
408.9709, 1176.265
409.4530, 1182.554
409.9351, 1192.944
410.4172, 1199.523
410.8994, 1200.585
411.3815, 1199.936
411.8636, 1201.073
412.3457, 1203.532
412.8278, 1204.610
413.3099, 1203.472
413.7921, 1201.982
414.2742, 1201.134
414.7563, 1201.080
415.2384, 1202.813
415.7205, 1209.746
416.2026, 1215.874
416.6848, 1215.089
417.1669, 1209.145
417.6490, 1204.595
418.1311, 1204.411
418.6132, 1207.158
419.0953, 1209.704
419.5775, 1212.735
420.0596, 1214.305
420.5417, 1209.466
421.0238, 1206.605
421.5059, 1215.214
421.9880, 1233.815
422.4702, 1251.569
422.9523, 1258.775
423.4344, 1256.198
423.9165, 1254.633
424.3986, 1252.409
424.8807, 1253.834
425.3629, 1261.724
425.8450, 1272.645
426.3271, 1283.061
426.8092, 1291.892
427.2913, 1299.443
427.7734, 1304.596
428.2556, 1307.693
428.7377, 1315.589
429.2198, 1331.753
429.7019, 1349.211
430.1840, 1359.704
430.6661, 1365.489
431.1483, 1377.095
431.6304, 1397.395
432.1125, 1424.589
432.5946, 1460.277
433.0767, 1502.520
433.5588, 1541.140
434.0410, 1569.599
434.5231, 1595.436
435.0052, 1637.708
435.4873, 1713.118
435.9694, 1776.110
436.4515, 1814.172
436.9337, 1846.090
437.4158, 1885.971
437.8979, 1935.248
438.3800, 1987.946
438.8621, 2040.123
439.3442, 2091.517
439.8264, 2141.575
440.3085, 2193.318
440.7906, 2239.048
441.2727, 2282.479
441.7548, 2317.291
442.2369, 2337.027
442.7191, 2339.927
443.2012, 2328.365
443.6833, 2303.029
444.1654, 2264.557
444.6475, 2217.688
445.1296, 2162.240
445.6118, 2100.219
446.0939, 2030.195
446.5760, 1954.199
447.0581, 1879.710
447.5402, 1803.811
448.0223, 1733.565
448.5045, 1673.034
448.9866, 1621.939
449.4687, 1580.059
449.9508, 1548.653
450.4329, 1520.938
450.9150, 1483.609
451.3972, 1424.079
451.8793, 1383.705
452.3614, 1377.909
452.8435, 1376.898
453.3256, 1361.667
453.8077, 1335.315
454.2899, 1311.931
454.7720, 1301.752
455.2541, 1300.337
455.7362, 1291.519
456.2183, 1270.102
456.7004, 1254.871
457.1826, 1257.768
457.6647, 1264.526
458.1468, 1264.064
458.6289, 1255.222
459.1110, 1244.731
459.5931, 1235.997
460.0753, 1228.745
460.5574, 1223.283
461.0395, 1219.860
461.5216, 1214.623
462.0037, 1203.486
462.4858, 1188.568
462.9680, 1179.899
463.4501, 1181.285
463.9322, 1183.597
464.4143, 1184.234
464.8964, 1184.452
465.3785, 1186.203
465.8607, 1189.766
466.3428, 1193.323
466.8249, 1194.734
467.3070, 1193.775
467.7891, 1193.254
468.2712, 1194.267
468.7534, 1194.489
469.2355, 1193.707
469.7176, 1191.644
470.1997, 1187.427
470.6818, 1180.485
471.1639, 1173.364
471.6461, 1169.751
472.1282, 1169.341
472.6103, 1167.534
473.0924, 1162.342
473.5745, 1157.704
474.0566, 1158.832
474.5388, 1164.140
475.0209, 1166.750
475.5030, 1162.417
475.9851, 1157.698
476.4672, 1157.910
476.9493, 1161.362
477.4315, 1162.960
477.9136, 1160.489
478.3957, 1157.081
478.8778, 1158.883
479.3599, 1171.105
479.8420, 1175.078
480.3242, 1163.488
480.8063, 1151.796
481.2884, 1149.800
481.7705, 1154.004
482.2526, 1154.626
482.7347, 1145.246
483.2169, 1131.702
483.6990, 1126.403
484.1811, 1130.426
484.6632, 1136.529
485.1453, 1145.951
485.6274, 1153.975
486.1096, 1156.217
486.5917, 1152.884
487.0738, 1147.555
487.5559, 1138.315
488.0380, 1129.847
488.5201, 1127.807
489.0023, 1131.698
489.4844, 1138.338
489.9665, 1147.144
490.4486, 1155.374
490.9307, 1156.150
491.4128, 1140.276
491.8950, 1131.394
492.3771, 1134.616
492.8592, 1140.592
493.3413, 1144.342
493.8234, 1145.028
494.3055, 1142.835
494.7877, 1137.128
495.2698, 1129.545
495.7519, 1125.559
496.2340, 1126.078
496.7161, 1127.136
497.1982, 1129.051
497.6804, 1129.951
498.1625, 1127.516
498.6446, 1121.627
499.1267, 1116.180
499.6088, 1112.561
500.0909, 1110.623
500.5730, 1109.961
501.0551, 1110.645
501.5373, 1113.879
502.0194, 1120.951
502.5015, 1130.242
502.9836, 1136.820
503.4657, 1142.417
503.9478, 1142.469
504.4300, 1130.158
504.9121, 1117.328
505.3942, 1114.213
505.8763, 1119.685
506.3584, 1125.053
506.8405, 1123.537
507.3227, 1117.300
507.8048, 1114.303
508.2869, 1115.672
508.7690, 1116.587
509.2511, 1115.375
509.7332, 1113.220
510.2154, 1111.274
510.6975, 1109.614
511.1796, 1107.530
511.6617, 1101.957
512.1439, 1097.350
512.6260, 1100.810
513.1081, 1111.629
513.5902, 1122.315
514.0723, 1128.895
514.5544, 1132.079
515.0366, 1133.824
515.5187, 1133.820
516.0008, 1132.663
516.4829, 1130.371
516.9650, 1126.929
517.4471, 1121.780
517.9293, 1115.380
518.4114, 1108.917
518.8935, 1102.660
519.3756, 1097.496
519.8577, 1096.210
520.3398, 1099.496
520.8220, 1102.908
521.3041, 1105.235
521.7862, 1107.081
522.2683, 1109.830
522.7504, 1113.501
523.2325, 1114.594
523.7147, 1109.178
524.1968, 1102.810
524.6789, 1101.322
525.1610, 1103.730
525.6431, 1105.215
526.1252, 1103.371
526.6074, 1099.633
527.0895, 1097.264
527.5716, 1097.903
528.0537, 1096.425
528.5358, 1089.275
529.0179, 1083.630
529.5001, 1084.658
529.9822, 1090.111
530.4643, 1094.009
530.9464, 1092.682
531.4285, 1089.749
531.9106, 1092.125
532.3928, 1099.569
532.8749, 1102.015
533.3570, 1094.370
533.8391, 1086.036
534.3212, 1088.886
534.8033, 1102.156
535.2855, 1111.080
535.7676, 1113.288
536.2497, 1111.614
536.7318, 1105.704
537.2139, 1097.441
537.6960, 1089.427
538.1782, 1082.666
538.6603, 1078.058
539.1424, 1077.233
539.6245, 1080.833
540.1066, 1084.110
540.5887, 1087.460
541.0709, 1089.885
541.5530, 1089.972
542.0351, 1089.284
542.5172, 1090.632
542.9993, 1095.529
543.4814, 1099.554
543.9636, 1096.840
544.4457, 1090.658
544.9278, 1090.794
545.4099, 1099.143
545.8920, 1106.543
546.3741, 1105.447
546.8563, 1096.776
547.3384, 1089.248
547.8205, 1080.493
548.3026, 1075.717
548.7847, 1078.079
549.2668, 1083.366
549.7490, 1088.985
550.2311, 1093.766
550.7132, 1095.709
551.1953, 1091.591
551.6774, 1083.627
552.1595, 1082.586
552.6417, 1091.149
553.1238, 1095.211
553.6059, 1085.683
554.0880, 1072.015
554.5701, 1067.025
555.0522, 1071.711
555.5344, 1076.200
556.0165, 1078.344
556.4986, 1078.339
556.9807, 1074.644
557.4628, 1068.735
557.9449, 1065.472
558.4271, 1067.464
558.9092, 1072.141
559.3913, 1073.934
559.8734, 1071.451
560.3555, 1069.738
560.8376, 1067.449
561.3198, 1067.393
561.8019, 1074.177
562.2840, 1083.774
562.7661, 1086.906
563.2482, 1077.495
563.7303, 1066.557
564.2125, 1067.869
564.6946, 1077.391
565.1767, 1080.055
565.6588, 1072.237
566.1409, 1061.788
566.6230, 1055.767
567.1052, 1054.110
567.5873, 1051.766
568.0694, 1044.989
568.5515, 1042.258
569.0336, 1048.385
569.5157, 1057.745
569.9979, 1064.849
570.4800, 1068.691
570.9621, 1071.494
571.4442, 1076.241
571.9263, 1081.400
572.4084, 1080.053
572.8906, 1071.118
573.3727, 1060.915
573.8548, 1048.971
574.3369, 1039.610
574.8190, 1040.863
575.3011, 1054.475
575.7833, 1064.788
576.2654, 1066.705
576.7475, 1065.372
577.2296, 1063.395
577.7117, 1061.518
578.1938, 1061.436
578.6760, 1064.030
579.1581, 1066.234
579.6402, 1060.332
580.1223, 1042.383
580.6044, 1036.630
581.0865, 1054.901
581.5686, 1071.424
582.0507, 1071.403
582.5328, 1061.501
583.0150, 1053.655
583.4971, 1050.382
583.9792, 1050.171
584.4613, 1053.481
584.9434, 1058.706
585.4255, 1063.450
585.9077, 1067.258
586.3898, 1069.484
586.8719, 1069.164
587.3540, 1067.176
587.8361, 1068.925
588.3182, 1081.491
588.8004, 1086.116
589.2825, 1073.034
589.7646, 1058.712
590.2467, 1055.437
590.7288, 1062.061
591.2109, 1069.494
591.6931, 1074.903
592.1752, 1076.237
592.6573, 1067.847
593.1394, 1051.620
593.6215, 1038.532
594.1036, 1031.462
594.5858, 1029.644
595.0679, 1033.152
595.5500, 1042.785
596.0321, 1049.322
596.5142, 1052.768
596.9963, 1053.547
597.4785, 1048.028
597.9606, 1041.857
598.4427, 1042.953
598.9248, 1052.242
599.4069, 1061.309
599.8890, 1061.260
600.3712, 1054.712
600.8533, 1051.560
601.3354, 1052.381
601.8175, 1050.731
602.2996, 1040.740
602.7817, 1030.032
603.2639, 1034.374
603.7460, 1058.491
604.2281, 1074.782
604.7102, 1077.787
605.1923, 1074.878
605.6744, 1067.332
606.1566, 1057.820
606.6387, 1050.210
607.1208, 1046.067
607.6029, 1044.455
608.0850, 1045.363
608.5671, 1048.642
609.0493, 1047.191
609.5314, 1037.766
610.0135, 1031.213
610.4956, 1036.600
610.9777, 1048.124
611.4598, 1053.157
611.9420, 1049.755
612.4241, 1044.290
612.9062, 1035.166
613.3883, 1027.327
613.8704, 1027.035
614.3525, 1032.469
614.8347, 1035.988
615.3168, 1033.018
615.7989, 1027.700
616.2810, 1029.706
616.7631, 1040.648
617.2452, 1047.879
617.7274, 1048.777
618.2095, 1047.654
618.6916, 1047.685
619.1737, 1047.805
619.6558, 1045.124
620.1379, 1036.245
620.6201, 1029.759
621.1022, 1031.357
621.5843, 1036.619
622.0664, 1040.563
622.5485, 1042.448
623.0306, 1043.411
623.5128, 1044.337
623.9949, 1044.752
624.4770, 1042.577
624.9591, 1036.407
625.4412, 1032.389
625.9233, 1030.684
626.4055, 1032.336
626.8876, 1042.254
627.3697, 1056.385
627.8518, 1060.903
628.3339, 1044.666
628.8160, 1028.093
629.2982, 1024.369
629.7803, 1027.892
630.2624, 1031.113
630.7445, 1032.145
631.2266, 1030.080
631.7087, 1023.512
632.1909, 1013.844
632.6730, 1008.343
633.1551, 1007.679
633.6372, 1009.589
634.1193, 1017.038
634.6014, 1023.962
635.0836, 1024.162
635.5657, 1019.432
636.0478, 1018.635
636.5299, 1029.709
637.0120, 1040.121
637.4941, 1040.258
637.9763, 1034.013
638.4584, 1027.447
638.9405, 1022.196
639.4226, 1018.925
639.9047, 1018.518
640.3868, 1020.544
640.8690, 1021.694
641.3511, 1020.732
641.8332, 1021.840
642.3153, 1031.302
642.7974, 1038.715
643.2795, 1033.562
643.7617, 1018.026
644.2438, 1006.633
644.7259, 1005.067
645.2080, 1008.124
645.6901, 1014.204
646.1722, 1021.752
646.6544, 1029.338
647.1365, 1036.081
647.6186, 1038.133
648.1007, 1030.764
