##NAMES=Brucite
##RRUFFID=R050455
##IDEAL CHEMISTRY=Mg(OH)_2_
##LOCALITY=Texas, Lancaster County, Pennsylvania, USA
##OWNER=RRUFF
##SOURCE=University of Arizona Mineral Museum
##DESCRIPTION=Group of green tabular crystals
##STATUS=The identification of this mineral has been confirmed by X-ray diffraction and chemical analysis
##URL=rruff.info/R050455
##MEASURED CHEMISTRY=(Mg_0.99_Mn_0.01_)(OH)_2_
91.00781, 23.57151
91.48993, 22.29413
91.97205, 21.78409
92.45416, 22.39701
92.93628, 23.75792
93.41840, 25.04521
93.90051, 26.08824
94.38263, 27.07198
94.86475, 28.28604
95.34686, 29.72990
95.82898, 31.35754
96.31110, 32.92575
96.79321, 34.50287
97.27533, 36.82332
97.75745, 40.11301
98.23956, 44.22853
98.72168, 48.50640
99.20380, 52.88659
99.68591, 57.48151
100.1680, 62.34460
100.6501, 67.37481
101.1323, 72.95632
101.6144, 79.12045
102.0965, 85.85142
102.5786, 93.31910
103.0607, 101.5837
103.5428, 110.5843
104.0250, 120.4712
104.5071, 131.3620
104.9892, 142.8027
105.4713, 154.5960
105.9534, 166.9167
106.4355, 179.1483
106.9177, 191.2882
107.3998, 203.3332
107.8819, 215.7268
108.3640, 228.9436
108.8461, 241.9854
109.3282, 254.5610
109.8104, 266.4039
110.2925, 277.8089
110.7746, 288.3295
111.2567, 298.0870
111.7388, 308.4791
112.2209, 319.5449
112.7031, 331.2250
113.1852, 343.6120
113.6673, 356.6404
114.1494, 370.3441
114.6315, 384.5085
115.1136, 399.2247
115.5958, 415.4177
116.0779, 434.3149
116.5600, 454.5782
117.0421, 474.6205
117.5242, 493.9507
118.0063, 513.1078
118.4885, 532.9141
118.9706, 553.7081
119.4527, 573.6105
119.9348, 591.3212
120.4169, 607.3561
120.8990, 622.9396
121.3812, 638.6979
121.8633, 654.1657
122.3454, 668.7065
122.8275, 682.2657
123.3096, 695.0702
123.7917, 707.6279
124.2739, 719.7087
124.7560, 730.4681
125.2381, 738.3879
125.7202, 744.8045
126.2023, 751.8665
126.6844, 760.1947
127.1666, 769.2568
127.6487, 778.1461
128.1308, 786.9551
128.6129, 796.4164
129.0950, 807.7347
129.5771, 820.4262
130.0593, 832.7228
130.5414, 843.4482
131.0235, 853.5956
131.5056, 865.1146
131.9877, 874.9279
132.4698, 881.1634
132.9520, 886.3760
133.4341, 890.6427
133.9162, 894.8039
134.3983, 899.0365
134.8804, 903.3630
135.3625, 908.1428
135.8447, 913.5953
136.3268, 919.0710
136.8089, 923.6058
137.2910, 927.0660
137.7731, 930.6005
138.2552, 934.8516
138.7374, 939.9466
139.2195, 944.5652
139.7016, 948.9660
140.1837, 952.7074
140.6658, 954.5485
141.1479, 953.7362
141.6301, 952.7603
142.1122, 952.9000
142.5943, 954.8746
143.0764, 955.8199
143.5585, 955.1208
144.0406, 953.3846
144.5228, 952.8677
145.0049, 954.4439
145.4870, 956.1331
145.9691, 956.7405
146.4512, 954.8656
146.9333, 954.2816
147.4155, 955.9467
147.8976, 959.5316
148.3797, 961.6456
148.8618, 960.7947
149.3439, 959.5886
149.8260, 959.6998
150.3082, 962.6160
150.7903, 965.1741
151.2724, 966.8923
151.7545, 967.7216
152.2366, 968.9801
152.7188, 971.6507
153.2009, 974.2784
153.6830, 975.6608
154.1651, 974.3065
154.6472, 973.0192
155.1293, 972.5109
155.6115, 972.9006
156.0936, 973.1675
156.5757, 972.8057
157.0578, 972.3571
157.5399, 972.4235
158.0220, 973.8701
158.5042, 975.2688
158.9863, 975.9490
159.4684, 975.6658
159.9505, 975.7542
160.4326, 977.1771
160.9147, 979.1565
161.3969, 980.5246
161.8790, 980.5062
162.3611, 980.0603
162.8432, 979.5805
163.3253, 978.9836
163.8074, 978.7777
164.2896, 979.5706
164.7717, 980.8990
165.2538, 981.8505
165.7359, 981.5742
166.2180, 980.9834
166.7001, 980.7811
167.1823, 981.2068
167.6644, 981.7359
168.1465, 981.9652
168.6286, 982.0106
169.1107, 982.2120
169.5928, 982.6656
170.0750, 983.4070
170.5571, 984.5988
171.0392, 986.6710
171.5213, 988.5460
172.0034, 989.1210
172.4855, 988.6319
172.9677, 988.0845
173.4498, 987.9933
173.9319, 988.2815
174.4140, 988.8941
174.8961, 990.1144
175.3782, 991.3154
175.8604, 990.3336
176.3425, 992.5922
176.8246, 994.1227
177.3067, 994.9641
177.7888, 993.0527
178.2709, 994.6960
178.7531, 994.9148
179.2352, 995.0751
179.7173, 997.2188
180.1994, 995.7077
180.6815, 997.8198
181.1636, 998.4857
181.6458, 999.8136
182.1279, 999.7080
182.6100, 1000.045
183.0921, 1001.816
183.5742, 1002.793
184.0563, 1002.523
184.5385, 1003.892
185.0206, 1002.331
185.5027, 1003.342
185.9848, 1005.463
186.4669, 1005.264
186.9490, 1006.660
187.4312, 1007.449
187.9133, 1007.535
188.3954, 1009.040
188.8775, 1009.755
189.3596, 1009.746
189.8417, 1009.671
190.3239, 1009.544
190.8060, 1009.501
191.2881, 1010.446
191.7702, 1012.571
192.2523, 1014.919
192.7344, 1016.163
193.2166, 1016.309
193.6987, 1016.497
194.1808, 1017.131
194.6629, 1018.204
195.1450, 1019.807
195.6271, 1022.204
196.1093, 1024.468
196.5914, 1024.657
197.0735, 1022.523
197.5556, 1021.336
198.0377, 1023.209
198.5198, 1028.185
199.0020, 1031.110
199.4841, 1031.580
199.9662, 1030.692
200.4483, 1029.867
200.9304, 1028.952
201.4125, 1028.975
201.8947, 1030.834
202.3768, 1034.746
202.8589, 1037.785
203.3410, 1040.015
203.8231, 1041.283
204.3052, 1040.880
204.7874, 1038.340
205.2695, 1036.120
205.7516, 1035.566
206.2337, 1037.018
206.7158, 1037.774
207.1979, 1037.578
207.6801, 1036.909
208.1622, 1036.800
208.6443, 1037.405
209.1264, 1038.088
209.6085, 1038.534
210.0906, 1038.661
210.5728, 1038.932
211.0549, 1039.370
211.5370, 1039.946
212.0191, 1040.688
212.5012, 1041.819
212.9833, 1042.608
213.4655, 1042.640
213.9476, 1041.724
214.4297, 1040.722
214.9118, 1039.355
215.3939, 1038.074
215.8760, 1038.084
216.3581, 1039.845
216.8403, 1041.945
217.3224, 1043.740
217.8045, 1045.221
218.2866, 1046.401
218.7687, 1047.149
219.2508, 1047.613
219.7330, 1048.246
220.2151, 1049.261
220.6972, 1049.990
221.1793, 1049.976
221.6614, 1048.731
222.1435, 1048.008
222.6257, 1047.946
223.1078, 1048.376
223.5899, 1048.888
224.0720, 1049.657
224.5541, 1050.248
225.0362, 1050.467
225.5184, 1050.235
226.0005, 1049.847
226.4826, 1049.168
226.9647, 1048.402
227.4468, 1048.115
227.9289, 1048.546
228.4111, 1049.139
228.8932, 1049.686
229.3753, 1050.290
229.8574, 1050.632
230.3395, 1050.551
230.8216, 1050.250
231.3038, 1050.260
231.7859, 1050.503
232.2680, 1051.158
232.7501, 1052.326
233.2322, 1054.142
233.7143, 1056.196
234.1965, 1058.917
234.6786, 1061.784
235.1607, 1063.202
235.6428, 1061.923
236.1249, 1060.978
236.6070, 1061.874
237.0892, 1065.920
237.5713, 1068.847
238.0534, 1070.319
238.5355, 1070.744
239.0176, 1071.097
239.4997, 1071.096
239.9819, 1071.434
240.4640, 1072.499
240.9461, 1074.824
241.4282, 1076.631
241.9103, 1077.816
242.3924, 1078.528
242.8746, 1079.067
243.3567, 1079.268
243.8388, 1079.576
244.3209, 1080.214
244.8030, 1081.369
245.2851, 1082.328
245.7673, 1082.720
246.2494, 1083.085
246.7315, 1084.750
247.2136, 1088.787
247.6957, 1092.436
248.1778, 1094.490
248.6600, 1094.205
249.1421, 1094.526
249.6242, 1095.492
250.1063, 1097.034
250.5884, 1099.207
251.0705, 1102.856
251.5527, 1105.655
252.0348, 1106.201
252.5169, 1103.092
252.9990, 1103.045
253.4811, 1107.488
253.9632, 1114.059
254.4454, 1118.473
254.9275, 1119.846
255.4096, 1120.781
255.8917, 1121.968
256.3738, 1123.267
256.8560, 1125.560
257.3381, 1129.434
257.8202, 1133.825
258.3023, 1136.973
258.7844, 1137.936
259.2665, 1139.664
259.7487, 1143.310
260.2308, 1149.218
260.7129, 1154.510
261.1950, 1158.841
261.6771, 1162.903
262.1592, 1167.559
262.6414, 1172.719
263.1235, 1178.647
263.6056, 1185.775
264.0877, 1194.352
264.5698, 1201.029
265.0519, 1204.908
265.5341, 1208.096
266.0162, 1213.248
266.4983, 1220.932
266.9804, 1228.727
267.4625, 1236.092
267.9446, 1242.976
268.4268, 1250.119
268.9089, 1257.360
269.3910, 1264.893
269.8731, 1272.956
270.3552, 1281.497
270.8373, 1290.615
271.3195, 1300.670
271.8016, 1311.471
272.2837, 1321.254
272.7658, 1329.616
273.2479, 1338.125
273.7300, 1349.027
274.2122, 1362.987
274.6943, 1374.902
275.1764, 1383.210
275.6585, 1388.624
276.1406, 1395.231
276.6227, 1403.683
277.1049, 1411.227
277.5870, 1415.965
278.0691, 1417.926
278.5512, 1416.742
279.0333, 1412.013
279.5154, 1404.279
279.9976, 1395.321
280.4797, 1385.163
280.9618, 1373.484
281.4439, 1359.091
281.9260, 1342.001
282.4081, 1325.884
282.8903, 1311.469
283.3724, 1297.970
283.8545, 1282.916
284.3366, 1266.024
284.8187, 1250.465
285.3008, 1238.659
285.7830, 1230.306
286.2651, 1223.322
286.7472, 1217.776
287.2293, 1212.914
287.7114, 1207.219
288.1935, 1200.693
288.6757, 1194.459
289.1578, 1189.197
289.6399, 1184.774
290.1220, 1180.797
290.6041, 1177.206
291.0862, 1174.064
291.5684, 1171.421
292.0505, 1169.276
292.5326, 1167.730
293.0147, 1167.631
293.4968, 1168.192
293.9789, 1166.682
294.4611, 1162.807
294.9432, 1158.364
295.4253, 1155.356
295.9074, 1153.568
296.3895, 1152.109
296.8716, 1150.655
297.3538, 1149.260
297.8359, 1148.052
298.3180, 1147.031
298.8001, 1146.047
299.2822, 1145.086
299.7643, 1144.048
300.2465, 1142.644
300.7286, 1140.081
301.2107, 1137.563
301.6928, 1137.043
302.1749, 1138.417
302.6570, 1140.033
303.1392, 1140.955
303.6213, 1141.174
304.1034, 1140.586
304.5855, 1138.699
305.0676, 1136.543
305.5497, 1134.786
306.0319, 1133.519
306.5140, 1133.116
306.9961, 1134.726
307.4782, 1137.010
307.9603, 1138.317
308.4424, 1137.912
308.9246, 1137.072
309.4067, 1136.551
309.8888, 1136.340
310.3709, 1136.429
310.8530, 1137.225
311.3351, 1138.081
311.8173, 1138.355
312.2994, 1137.755
312.7815, 1137.177
313.2636, 1137.191
313.7457, 1137.602
314.2278, 1138.067
314.7100, 1138.206
315.1921, 1138.544
315.6742, 1139.629
316.1563, 1141.708
316.6384, 1143.351
317.1205, 1143.332
317.6027, 1142.676
318.0848, 1142.678
318.5669, 1144.311
319.0490, 1146.165
319.5311, 1147.590
320.0132, 1148.520
320.4954, 1149.769
320.9775, 1152.546
321.4596, 1155.246
321.9417, 1156.456
322.4238, 1153.698
322.9059, 1151.690
323.3881, 1152.179
323.8702, 1154.893
324.3523, 1156.438
324.8344, 1154.740
325.3165, 1152.789
325.7986, 1152.341
326.2808, 1155.761
326.7629, 1158.084
327.2450, 1158.485
327.7271, 1157.427
328.2092, 1156.722
328.6913, 1156.276
329.1735, 1156.285
329.6556, 1156.932
330.1377, 1159.112
330.6198, 1160.188
331.1019, 1159.623
331.5840, 1158.095
332.0662, 1156.728
332.5483, 1154.565
333.0304, 1153.965
333.5125, 1156.382
333.9946, 1162.992
334.4767, 1166.207
334.9589, 1164.249
335.4410, 1160.593
335.9231, 1159.890
336.4052, 1163.545
336.8873, 1166.461
337.3694, 1167.195
337.8516, 1165.899
338.3336, 1165.146
338.8158, 1165.185
339.2979, 1165.284
339.7800, 1164.437
340.2621, 1162.347
340.7442, 1161.723
341.2263, 1163.609
341.7085, 1167.024
342.1906, 1168.403
342.6727, 1167.501
343.1548, 1166.186
343.6369, 1165.691
344.1190, 1165.965
344.6012, 1166.337
345.0833, 1166.856
345.5654, 1167.173
346.0475, 1166.251
346.5296, 1164.191
347.0117, 1162.717
347.4939, 1163.098
347.9760, 1164.816
348.4581, 1166.519
348.9402, 1168.260
349.4223, 1169.286
349.9044, 1167.822
350.3866, 1164.731
350.8687, 1162.961
351.3508, 1164.937
351.8329, 1168.406
352.3150, 1169.833
352.7971, 1169.262
353.2793, 1168.084
353.7614, 1166.575
354.2435, 1165.337
354.7256, 1165.479
355.2077, 1168.364
355.6898, 1171.411
356.1720, 1172.116
356.6541, 1170.917
357.1362, 1169.735
357.6183, 1169.748
358.1004, 1170.224
358.5826, 1170.449
359.0647, 1170.093
359.5468, 1169.978
360.0289, 1170.742
360.5110, 1172.045
360.9931, 1173.245
361.4753, 1174.505
361.9574, 1175.255
362.4395, 1174.820
362.9216, 1172.827
363.4037, 1171.729
363.8858, 1173.533
364.3680, 1176.110
364.8501, 1177.224
365.3322, 1174.427
365.8143, 1172.166
366.2964, 1171.830
366.7785, 1173.400
367.2607, 1174.603
367.7428, 1174.568
368.2249, 1174.566
368.7070, 1175.395
369.1891, 1178.661
369.6712, 1180.601
370.1534, 1180.438
370.6355, 1178.846
371.1176, 1177.932
371.5997, 1177.841
372.0818, 1178.192
372.5639, 1178.945
373.0461, 1180.393
373.5282, 1181.114
374.0103, 1180.720
374.4924, 1179.934
374.9745, 1180.052
375.4566, 1181.581
375.9388, 1182.366
376.4209, 1181.380
376.9030, 1178.812
377.3851, 1177.950
377.8672, 1179.151
378.3493, 1180.974
378.8315, 1182.309
379.3136, 1183.195
379.7957, 1183.173
380.2778, 1181.968
380.7599, 1180.034
381.2420, 1178.089
381.7242, 1176.160
382.2063, 1175.022
382.6884, 1175.608
383.1705, 1177.446
383.6526, 1178.990
384.1347, 1180.095
384.6169, 1180.775
385.0990, 1180.692
385.5811, 1180.089
386.0632, 1179.802
386.5453, 1180.487
387.0274, 1181.586
387.5096, 1182.371
387.9917, 1182.836
388.4738, 1183.204
388.9559, 1183.803
389.4380, 1184.379
389.9201, 1184.548
390.4023, 1183.685
390.8844, 1183.001
391.3665, 1183.362
391.8486, 1184.606
392.3307, 1186.113
392.8128, 1188.168
393.2950, 1189.982
393.7771, 1190.931
394.2592, 1190.565
394.7413, 1190.217
395.2234, 1190.273
395.7055, 1190.596
396.1877, 1190.985
396.6698, 1190.767
397.1519, 1191.198
397.6340, 1193.057
398.1161, 1196.624
398.5982, 1199.275
399.0804, 1200.646
399.5625, 1201.186
400.0446, 1201.165
400.5267, 1199.630
401.0088, 1199.024
401.4909, 1200.031
401.9731, 1202.191
402.4552, 1203.392
402.9373, 1202.463
403.4194, 1202.505
403.9015, 1205.504
404.3836, 1212.746
404.8658, 1217.621
405.3479, 1219.357
405.8300, 1219.675
406.3121, 1221.309
406.7942, 1224.515
407.2763, 1227.068
407.7585, 1227.838
408.2406, 1227.291
408.7227, 1228.200
409.2048, 1230.655
409.6869, 1233.602
410.1690, 1236.494
410.6512, 1239.170
411.1333, 1240.828
411.6154, 1241.006
412.0975, 1240.695
412.5796, 1241.020
413.0617, 1242.066
413.5439, 1244.206
414.0260, 1248.737
414.5081, 1254.121
414.9902, 1258.197
415.4723, 1260.813
415.9544, 1262.459
416.4366, 1262.580
416.9187, 1262.174
417.4008, 1262.728
417.8829, 1265.465
418.3650, 1268.750
418.8471, 1271.340
419.3293, 1273.464
419.8114, 1276.680
420.2935, 1282.168
420.7756, 1288.643
421.2577, 1295.043
421.7398, 1300.781
422.2220, 1307.453
422.7041, 1315.932
423.1862, 1325.539
423.6683, 1335.065
424.1504, 1344.547
424.6325, 1353.901
425.1147, 1362.276
425.5968, 1369.302
426.0789, 1379.807
426.5610, 1395.996
427.0431, 1413.667
427.5252, 1429.048
428.0074, 1440.431
428.4895, 1453.555
428.9716, 1469.330
429.4537, 1486.948
429.9358, 1503.626
430.4179, 1519.000
430.9001, 1534.493
431.3822, 1550.717
431.8643, 1567.680
432.3464, 1584.418
432.8285, 1600.630
433.3106, 1617.600
433.7928, 1636.904
434.2749, 1658.448
434.7570, 1681.484
435.2391, 1705.870
435.7212, 1731.538
436.2033, 1758.362
436.6855, 1786.165
437.1676, 1815.438
437.6497, 1846.792
438.1318, 1879.713
438.6139, 1913.889
439.0960, 1949.851
439.5782, 1984.949
440.0603, 2018.178
440.5424, 2049.022
441.0245, 2076.039
441.5066, 2100.638
441.9887, 2119.939
442.4709, 2134.346
442.9530, 2143.506
443.4351, 2140.519
443.9172, 2119.987
444.3993, 2087.862
444.8814, 2048.583
445.3636, 1999.416
445.8457, 1947.524
446.3278, 1891.423
446.8099, 1833.502
447.2920, 1778.133
447.7741, 1724.566
448.2563, 1674.139
448.7384, 1628.002
449.2205, 1585.666
449.7026, 1547.756
450.1847, 1515.003
450.6668, 1486.303
451.1490, 1461.037
451.6311, 1439.450
452.1132, 1420.176
452.5953, 1402.868
453.0774, 1387.719
453.5595, 1374.735
454.0417, 1364.028
454.5238, 1353.943
455.0059, 1342.788
455.4880, 1331.215
455.9701, 1322.421
456.4522, 1316.746
456.9344, 1312.486
457.4165, 1308.351
457.8986, 1304.181
458.3807, 1299.618
458.8628, 1294.163
459.3449, 1288.637
459.8271, 1283.610
460.3092, 1279.183
460.7913, 1275.681
461.2734, 1273.735
461.7555, 1272.542
462.2376, 1271.596
462.7198, 1270.993
463.2019, 1269.877
463.6840, 1267.490
464.1661, 1264.482
464.6482, 1261.641
465.1303, 1258.784
465.6125, 1256.487
466.0946, 1255.477
466.5767, 1255.497
467.0588, 1254.299
467.5409, 1250.239
468.0230, 1246.238
468.5052, 1243.697
468.9873, 1243.575
469.4694, 1242.415
469.9515, 1239.281
470.4336, 1235.945
470.9157, 1235.330
471.3979, 1238.567
471.8800, 1240.680
472.3621, 1240.170
472.8442, 1237.572
473.3263, 1235.270
473.8084, 1233.270
474.2906, 1231.496
474.7727, 1229.629
475.2548, 1227.851
475.7369, 1227.203
476.2190, 1227.922
476.7011, 1229.200
477.1833, 1230.140
477.6654, 1230.859
478.1475, 1231.690
478.6296, 1233.231
479.1117, 1234.636
479.5938, 1234.841
480.0760, 1234.002
480.5581, 1233.160
481.0402, 1232.940
481.5223, 1232.952
482.0044, 1232.812
482.4865, 1232.247
482.9687, 1232.121
483.4508, 1233.209
483.9329, 1234.793
484.4150, 1235.828
484.8971, 1235.546
485.3792, 1235.321
485.8614, 1235.299
486.3435, 1235.499
486.8256, 1236.399
487.3077, 1238.608
487.7898, 1240.786
488.2719, 1242.106
488.7541, 1242.052
489.2362, 1242.792
489.7183, 1244.611
490.2004, 1246.865
490.6825, 1248.653
491.1646, 1249.950
491.6468, 1251.008
492.1289, 1251.825
492.6110, 1252.496
493.0931, 1253.438
493.5752, 1254.648
494.0573, 1255.711
494.5395, 1256.535
495.0216, 1256.967
495.5037, 1256.505
495.9858, 1254.941
496.4679, 1253.379
496.9500, 1252.759
497.4322, 1252.850
497.9143, 1253.279
498.3964, 1253.997
498.8785, 1254.936
499.3606, 1256.385
499.8427, 1258.157
500.3249, 1259.271
500.8070, 1259.047
501.2891, 1258.374
501.7712, 1257.612
502.2533, 1256.608
502.7354, 1256.061
503.2176, 1256.468
503.6997, 1257.118
504.1818, 1257.301
504.6639, 1256.890
505.1460, 1256.181
505.6281, 1255.068
506.1103, 1253.680
506.5924, 1252.579
507.0745, 1251.774
507.5566, 1251.175
508.0387, 1251.074
508.5208, 1251.386
509.0030, 1250.005
509.4851, 1246.581
509.9672, 1243.445
510.4493, 1243.808
510.9314, 1246.661
511.4135, 1248.465
511.8957, 1247.954
512.3778, 1246.726
512.8599, 1246.925
513.3420, 1248.006
513.8242, 1248.340
514.3063, 1246.034
514.7884, 1243.413
515.2705, 1242.460
515.7526, 1243.318
516.2347, 1244.157
516.7169, 1244.322
517.1990, 1244.122
517.6811, 1243.772
518.1632, 1242.942
518.6453, 1242.420
519.1274, 1242.746
519.6096, 1243.313
520.0917, 1242.951
520.5738, 1240.870
521.0559, 1239.122
521.5380, 1238.134
522.0201, 1237.906
522.5023, 1238.526
522.9844, 1240.134
523.4665, 1242.242
523.9486, 1244.944
524.4307, 1248.173
524.9128, 1249.859
525.3950, 1249.575
525.8771, 1248.630
526.3592, 1248.774
526.8413, 1249.729
527.3234, 1250.521
527.8055, 1250.950
528.2877, 1250.863
528.7698, 1249.607
529.2519, 1247.513
529.7340, 1245.959
530.2161, 1245.648
530.6982, 1246.233
531.1804, 1247.855
531.6625, 1250.825
532.1446, 1252.889
532.6267, 1252.225
533.1088, 1250.859
533.5909, 1250.668
534.0731, 1254.061
534.5552, 1255.953
535.0373, 1255.089
535.5194, 1252.645
536.0015, 1251.581
536.4836, 1252.412
536.9658, 1253.600
537.4479, 1254.735
537.9300, 1255.791
538.4121, 1256.416
538.8942, 1256.520
539.3763, 1256.483
539.8585, 1256.625
540.3406, 1256.899
540.8227, 1257.109
541.3048, 1257.252
541.7869, 1257.227
542.2690, 1256.810
542.7512, 1256.123
543.2333, 1255.473
543.7154, 1255.154
544.1975, 1254.789
544.6796, 1254.038
545.1617, 1252.960
545.6439, 1251.838
546.1260, 1250.886
546.6081, 1249.870
547.0902, 1248.346
547.5723, 1245.824
548.0544, 1244.789
548.5366, 1247.261
549.0187, 1250.422
549.5008, 1251.760
549.9829, 1250.102
550.4650, 1248.793
550.9471, 1248.314
551.4293, 1248.244
551.9114, 1247.278
552.3935, 1245.026
552.8756, 1243.848
553.3577, 1245.165
553.8398, 1248.287
554.3220, 1249.992
554.8041, 1250.256
555.2862, 1249.931
555.7683, 1249.274
556.2504, 1248.584
556.7325, 1248.636
557.2147, 1249.692
557.6968, 1250.586
558.1789, 1249.664
558.6610, 1248.105
559.1431, 1247.662
559.6252, 1250.104
560.1074, 1252.581
560.5895, 1253.744
561.0716, 1253.996
561.5537, 1254.682
562.0358, 1257.261
562.5179, 1259.149
563.0001, 1259.095
563.4822, 1256.830
563.9643, 1255.540
564.4464, 1255.236
564.9285, 1255.902
565.4106, 1258.025
565.8928, 1262.099
566.3749, 1264.237
566.8570, 1263.783
567.3391, 1262.166
567.8212, 1261.407
568.3033, 1261.429
568.7855, 1261.680
569.2676, 1261.931
569.7497, 1262.346
570.2318, 1263.390
570.7139, 1264.883
571.1960, 1266.128
571.6782, 1266.945
572.1603, 1267.166
572.6424, 1266.138
573.1245, 1263.662
573.6066, 1262.356
574.0887, 1264.361
574.5709, 1267.248
575.0530, 1269.113
575.5351, 1268.452
576.0172, 1268.673
576.4993, 1270.813
576.9814, 1273.445
577.4636, 1274.009
577.9457, 1271.496
578.4278, 1269.594
578.9099, 1269.188
579.3920, 1270.057
579.8741, 1271.830
580.3563, 1274.606
580.8384, 1276.786
581.3205, 1276.850
581.8026, 1275.606
582.2847, 1275.696
582.7668, 1277.224
583.2490, 1278.323
583.7311, 1276.475
584.2132, 1273.623
584.6953, 1272.406
585.1774, 1274.051
585.6595, 1275.966
586.1416, 1276.364
586.6237, 1276.291
587.1058, 1277.338
587.5880, 1282.311
