##NAMES=Brushite
##RRUFFID=R070554
##IDEAL CHEMISTRY=Ca(PO_3_OH)&#183;2H_2_O
##LOCALITY=Biogenic
##OWNER=RRUFF
##SOURCE=Henry J. Sun
##DESCRIPTION=Colorless platy crystals
##STATUS=The identification of this mineral has been confirmed by single-crystal X-ray diffraction.
##URL=rruff.info/R070554
162.9936, 10333.00
163.4757, 10364.85
163.9578, 10389.41
164.4400, 10430.68
164.9221, 10501.12
165.4042, 10594.80
165.8863, 10688.22
166.3684, 10799.64
166.8505, 10889.39
167.3327, 10943.56
167.8148, 10972.65
168.2969, 10987.61
168.7790, 10991.88
169.2611, 10991.73
169.7432, 11028.21
170.2254, 11154.30
170.7075, 11254.96
171.1896, 11291.41
171.6717, 11285.44
172.1538, 11277.46
172.6359, 11291.29
173.1181, 11323.72
173.6002, 11348.07
174.0823, 11371.49
174.5644, 11381.61
175.0465, 11388.25
175.5286, 11379.44
176.0108, 11324.63
176.4929, 11197.82
176.9750, 11010.63
177.4571, 10874.95
177.9392, 10849.52
178.4213, 10803.68
178.9035, 10669.10
179.3856, 10478.74
179.8677, 10316.06
180.3498, 10237.80
180.8319, 10235.53
181.3140, 10194.16
181.7962, 10068.71
182.2783, 9960.105
182.7604, 9909.947
183.2425, 9905.999
183.7246, 9912.402
184.2067, 9905.396
184.6889, 9886.994
185.1710, 9888.688
185.6531, 9947.368
186.1352, 9984.742
186.6173, 9956.905
187.0994, 9881.159
187.5816, 9805.732
188.0637, 9761.013
188.5458, 9745.769
189.0279, 9736.996
189.5100, 9719.952
189.9921, 9722.079
190.4743, 9758.722
190.9564, 9823.988
191.4385, 9904.735
191.9206, 9995.867
192.4027, 10095.46
192.8848, 10167.33
193.3670, 10195.62
193.8491, 10218.43
194.3312, 10250.19
194.8133, 10288.43
195.2954, 10323.99
195.7775, 10350.00
196.2597, 10367.31
196.7418, 10389.49
197.2239, 10402.50
197.7060, 10432.43
198.1881, 10493.93
198.6702, 10580.75
199.1524, 10677.61
199.6345, 10776.21
200.1166, 10876.23
200.5987, 10971.95
201.0808, 11059.65
201.5629, 11147.87
202.0451, 11239.72
202.5272, 11334.19
203.0093, 11430.25
203.4914, 11530.18
203.9735, 11630.49
204.4556, 11697.42
204.9378, 11714.84
205.4199, 11724.35
205.9020, 11758.09
206.3841, 11794.65
206.8662, 11784.32
207.3483, 11693.14
207.8305, 11533.73
208.3126, 11390.28
208.7947, 11280.19
209.2768, 11164.57
209.7589, 11042.20
210.2410, 10906.63
210.7232, 10738.47
211.2053, 10521.53
211.6874, 10271.90
212.1695, 10073.37
212.6516, 9923.439
213.1337, 9820.404
213.6159, 9808.288
214.0980, 9837.569
214.5801, 9825.496
215.0622, 9726.444
215.5443, 9562.749
216.0264, 9430.024
216.5086, 9334.579
216.9907, 9260.722
217.4728, 9223.928
217.9549, 9203.208
218.4370, 9163.920
218.9191, 9087.588
219.4013, 8993.993
219.8834, 8948.396
220.3655, 9020.217
220.8476, 9060.818
221.3297, 9030.667
221.8118, 8972.269
222.2940, 8946.662
222.7761, 8980.565
223.2582, 9037.466
223.7403, 9023.107
224.2224, 8820.373
224.7046, 8691.372
225.1867, 8691.714
225.6688, 8747.468
226.1509, 8787.210
226.6330, 8783.880
227.1151, 8754.217
227.5973, 8733.779
228.0794, 8748.847
228.5615, 8731.658
229.0436, 8641.545
229.5257, 8542.744
230.0078, 8494.576
230.4900, 8513.038
230.9721, 8566.178
231.4542, 8600.286
231.9363, 8599.908
232.4184, 8609.233
232.9005, 8635.744
233.3827, 8666.098
233.8648, 8696.216
234.3469, 8723.100
234.8290, 8738.422
235.3111, 8725.764
235.7932, 8664.235
236.2754, 8626.912
236.7575, 8617.894
237.2396, 8625.815
237.7217, 8655.838
238.2038, 8702.235
238.6859, 8741.516
239.1681, 8743.635
239.6502, 8697.477
240.1323, 8657.928
240.6144, 8631.573
241.0965, 8606.014
241.5786, 8559.428
242.0608, 8501.997
242.5429, 8474.663
243.0250, 8539.703
243.5071, 8712.115
243.9892, 8794.450
244.4713, 8680.056
244.9535, 8571.167
245.4356, 8558.736
245.9177, 8620.091
246.3998, 8676.491
246.8819, 8664.709
247.3640, 8591.082
247.8462, 8530.537
248.3283, 8479.930
248.8104, 8449.246
249.2925, 8454.744
249.7746, 8480.824
250.2567, 8496.212
250.7389, 8478.888
251.2210, 8437.796
251.7031, 8405.606
252.1852, 8387.156
252.6673, 8368.819
253.1494, 8332.517
253.6316, 8294.430
254.1137, 8283.928
254.5958, 8332.646
255.0779, 8398.866
255.5600, 8386.591
256.0421, 8261.965
256.5243, 8169.090
257.0064, 8219.388
257.4885, 8324.912
257.9706, 8384.935
258.4527, 8360.986
258.9348, 8301.643
259.4170, 8256.888
259.8991, 8226.275
260.3812, 8215.749
260.8633, 8243.400
261.3454, 8284.854
261.8275, 8311.083
262.3097, 8321.517
262.7918, 8310.186
263.2739, 8253.854
263.7560, 8161.336
264.2381, 8098.548
264.7202, 8096.448
265.2024, 8128.249
265.6845, 8157.359
266.1666, 8190.881
266.6487, 8197.117
267.1308, 8118.477
267.6129, 8000.000
268.0951, 7969.658
268.5772, 8084.309
269.0593, 8245.012
269.5414, 8296.356
270.0235, 8230.027
270.5056, 8182.449
270.9878, 8214.475
271.4699, 8275.805
271.9520, 8294.262
272.4341, 8253.925
272.9162, 8197.482
273.3983, 8173.854
273.8805, 8190.668
274.3626, 8194.835
274.8447, 8172.102
275.3268, 8143.401
275.8089, 8123.617
276.2910, 8114.636
276.7732, 8113.949
277.2553, 8119.000
277.7374, 8129.797
278.2195, 8152.848
278.7016, 8203.241
279.1837, 8249.933
279.6659, 8281.661
280.1480, 8297.121
280.6301, 8295.798
281.1122, 8275.960
281.5943, 8239.217
282.0764, 8203.784
282.5586, 8145.457
283.0407, 8115.122
283.5228, 8147.168
284.0049, 8210.189
284.4870, 8260.069
284.9691, 8274.892
285.4513, 8258.405
285.9334, 8219.117
286.4155, 8112.670
286.8976, 8047.931
287.3797, 8060.398
287.8618, 8103.074
288.3440, 8134.429
288.8261, 8140.491
289.3082, 8130.518
289.7903, 8117.155
290.2724, 8094.443
290.7545, 8084.580
291.2367, 8106.663
291.7188, 8128.364
292.2009, 8122.795
292.6830, 8090.145
293.1651, 8059.678
293.6472, 8073.093
294.1294, 8137.060
294.6115, 8157.720
295.0936, 8079.911
295.5757, 8008.887
296.0578, 8005.357
296.5399, 8057.290
297.0221, 8113.122
297.5042, 8141.892
297.9863, 8147.525
298.4684, 8146.351
298.9505, 8138.934
299.4326, 8123.054
299.9148, 8078.993
300.3969, 8026.940
300.8790, 8008.469
301.3611, 8059.098
301.8432, 8136.037
302.3253, 8181.400
302.8075, 8193.511
303.2896, 8191.864
303.7717, 8179.815
304.2538, 8162.129
304.7359, 8148.040
305.2180, 8134.507
305.7002, 8129.833
306.1823, 8144.362
306.6644, 8173.545
307.1465, 8199.602
307.6286, 8213.271
308.1107, 8223.241
308.5929, 8249.756
309.0750, 8300.555
309.5571, 8343.064
310.0392, 8367.766
310.5213, 8379.290
311.0034, 8376.865
311.4856, 8359.968
311.9677, 8350.644
312.4498, 8382.838
312.9319, 8484.888
313.4140, 8539.153
313.8961, 8510.116
314.3783, 8461.645
314.8604, 8439.271
315.3425, 8443.593
315.8246, 8446.963
316.3067, 8423.501
316.7888, 8371.242
317.2710, 8336.356
317.7531, 8341.042
318.2352, 8338.556
318.7173, 8302.931
319.1994, 8251.239
319.6815, 8215.684
320.1637, 8216.740
320.6458, 8243.791
321.1279, 8255.877
321.6100, 8234.981
322.0921, 8227.897
322.5742, 8256.635
323.0564, 8293.670
323.5385, 8310.342
324.0206, 8297.112
324.5027, 8272.177
324.9848, 8269.088
325.4669, 8298.685
325.9491, 8291.147
326.4312, 8187.142
326.9133, 8078.669
327.3954, 8021.787
327.8775, 8018.897
328.3596, 8040.541
328.8418, 8086.603
329.3239, 8144.509
329.8060, 8151.626
330.2881, 8082.524
330.7702, 8001.591
331.2523, 7956.835
331.7345, 7939.797
332.2166, 7927.280
332.6987, 7905.105
333.1808, 7887.866
333.6629, 7894.320
334.1451, 7924.669
334.6272, 7968.542
335.1093, 8028.475
335.5914, 8094.947
336.0735, 8135.558
336.5556, 8124.811
337.0378, 8118.550
337.5199, 8151.218
338.0020, 8205.870
338.4841, 8248.026
338.9662, 8264.896
339.4483, 8260.519
339.9305, 8239.871
340.4126, 8163.803
340.8947, 8142.154
341.3768, 8244.175
341.8589, 8362.452
342.3410, 8391.574
342.8232, 8321.500
343.3053, 8228.255
343.7874, 8194.978
344.2695, 8233.338
344.7516, 8265.401
345.2337, 8289.876
345.7159, 8309.554
346.1980, 8321.714
346.6801, 8329.883
347.1622, 8340.485
347.6443, 8357.239
348.1265, 8379.970
348.6086, 8408.328
349.0907, 8444.979
349.5728, 8482.432
350.0549, 8518.341
350.5370, 8553.939
351.0192, 8590.769
351.5013, 8629.190
351.9834, 8668.064
352.4655, 8712.321
352.9476, 8762.552
353.4297, 8785.309
353.9119, 8748.698
354.3940, 8707.128
354.8761, 8722.289
355.3582, 8793.870
355.8403, 8849.470
356.3224, 8838.371
356.8046, 8793.106
357.2867, 8771.960
357.7688, 8783.192
358.2509, 8807.613
358.7330, 8835.546
359.2151, 8865.183
359.6973, 8881.327
360.1794, 8866.400
360.6615, 8853.021
361.1436, 8870.926
361.6257, 8908.209
362.1078, 8923.716
362.5900, 8891.660
363.0721, 8833.267
363.5542, 8817.204
364.0363, 8874.778
364.5184, 8936.044
365.0005, 9005.535
365.4827, 9072.746
365.9648, 9128.309
366.4469, 9169.937
366.9290, 9198.849
367.4111, 9212.642
367.8932, 9202.170
368.3754, 9213.731
368.8575, 9273.380
369.3396, 9331.074
369.8217, 9355.200
370.3038, 9359.537
370.7859, 9384.206
371.2681, 9467.619
371.7502, 9584.538
372.2323, 9642.723
372.7144, 9615.890
373.1965, 9595.710
373.6786, 9626.772
374.1608, 9681.641
374.6429, 9733.547
375.1250, 9777.864
375.6071, 9814.710
376.0892, 9838.522
376.5714, 9852.668
377.0535, 9879.312
377.5356, 9931.932
378.0177, 9985.333
378.4998, 10005.63
378.9819, 9994.757
379.4641, 9967.570
379.9462, 9916.810
380.4283, 9857.943
380.9104, 9810.096
381.3925, 9773.007
381.8746, 9725.264
382.3568, 9648.053
382.8389, 9542.876
383.3210, 9451.788
383.8031, 9378.352
384.2852, 9311.890
384.7673, 9253.688
385.2495, 9199.498
385.7316, 9146.339
386.2137, 9093.029
386.6958, 9033.471
387.1779, 8948.853
387.6600, 8804.237
388.1422, 8719.512
388.6243, 8760.753
389.1064, 8811.273
389.5885, 8783.487
390.0706, 8808.438
390.5527, 8719.492
391.0349, 8767.618
391.5170, 8788.515
391.9991, 8700.638
392.4812, 8753.219
392.9633, 8749.511
393.4454, 8743.495
393.9276, 8815.848
394.4097, 8743.791
394.8918, 8814.899
395.3739, 8828.858
395.8560, 8868.973
396.3381, 8852.450
396.8203, 8853.423
397.3024, 8857.140
397.7845, 8873.877
398.2666, 8909.125
398.7487, 8976.240
399.2308, 9010.726
399.7130, 8971.994
400.1951, 8915.766
400.6772, 8889.038
401.1593, 8897.001
401.6414, 8926.671
402.1235, 8968.992
402.6057, 9023.893
403.0878, 9079.672
403.5699, 9145.628
404.0520, 9201.823
404.5341, 9244.361
405.0162, 9274.635
405.4984, 9291.804
405.9805, 9295.275
406.4626, 9295.368
406.9447, 9310.832
407.4268, 9346.189
407.9089, 9376.403
408.3911, 9403.316
408.8732, 9419.155
409.3553, 9410.281
409.8374, 9381.890
410.3195, 9364.041
410.8016, 9392.613
411.2838, 9438.483
411.7659, 9440.115
412.2480, 9392.033
412.7301, 9328.910
413.2122, 9259.399
413.6943, 9192.942
414.1765, 9155.149
414.6586, 9173.048
415.1407, 9183.354
415.6228, 9152.638
416.1049, 9097.922
416.5870, 9049.931
417.0692, 9018.067
417.5513, 8984.521
418.0334, 8919.627
418.5155, 8797.988
418.9976, 8730.353
419.4797, 8780.611
419.9619, 8816.898
420.4440, 8753.665
420.9261, 8620.993
421.4082, 8501.589
421.8903, 8447.719
422.3724, 8444.632
422.8546, 8448.995
423.3367, 8474.373
423.8188, 8475.088
424.3009, 8428.071
424.7830, 8359.296
425.2651, 8281.734
425.7473, 8197.372
426.2294, 8124.443
426.7115, 8079.510
427.1936, 8057.613
427.6757, 8050.260
428.1578, 8064.810
428.6400, 8061.923
429.1221, 7993.617
429.6042, 7872.505
430.0863, 7789.163
430.5684, 7784.553
431.0505, 7785.026
431.5327, 7735.947
432.0148, 7660.567
432.4969, 7615.553
432.9790, 7625.608
433.4611, 7668.647
433.9432, 7703.427
434.4254, 7739.435
434.9075, 7746.510
435.3896, 7716.552
435.8717, 7668.006
436.3538, 7602.944
436.8359, 7528.049
437.3181, 7458.575
437.8002, 7404.108
438.2823, 7364.576
438.7644, 7341.069
439.2465, 7341.640
439.7286, 7339.843
440.2108, 7304.419
440.6929, 7271.668
441.1750, 7291.948
441.6571, 7387.313
442.1392, 7467.996
442.6213, 7456.154
443.1035, 7380.952
443.5856, 7315.066
444.0677, 7269.772
444.5498, 7243.779
445.0319, 7237.844
445.5140, 7253.669
445.9962, 7276.884
446.4783, 7330.703
446.9604, 7368.747
447.4425, 7366.690
447.9246, 7333.009
448.4067, 7278.488
448.8889, 7207.590
449.3710, 7136.658
449.8531, 7103.083
450.3352, 7126.595
450.8173, 7142.289
451.2994, 7144.538
451.7816, 7141.875
452.2637, 7140.576
452.7458, 7138.902
453.2279, 7129.008
453.7100, 7101.281
454.1921, 7063.867
454.6743, 7032.821
455.1564, 7005.892
455.6385, 7000.178
456.1206, 7039.756
456.6027, 7095.937
457.0848, 7120.208
457.5670, 7104.265
458.0491, 7079.468
458.5312, 7048.398
459.0133, 7020.456
459.4954, 7015.752
459.9775, 7035.414
460.4597, 7051.590
460.9418, 7038.854
461.4239, 6996.998
461.9060, 6953.070
462.3881, 6868.653
462.8702, 6826.286
463.3524, 6882.876
463.8345, 6977.439
464.3166, 7034.852
464.7987, 7029.476
465.2808, 6992.127
465.7629, 6953.745
466.2451, 6911.606
466.7272, 6908.910
467.2093, 6979.845
467.6914, 7050.807
468.1735, 7069.257
468.6556, 7050.458
469.1378, 7037.779
469.6199, 7057.101
470.1020, 7078.028
470.5841, 7065.670
471.0662, 7027.422
471.5483, 6998.899
472.0305, 6996.644
472.5126, 7000.598
472.9947, 6973.619
473.4768, 6888.745
473.9589, 6838.711
474.4410, 6844.342
474.9232, 6867.649
475.4053, 6894.409
475.8874, 6917.907
476.3695, 6927.078
476.8516, 6912.238
477.3337, 6883.440
477.8159, 6875.727
478.2980, 6900.648
478.7801, 6917.963
479.2622, 6912.782
479.7443, 6900.505
480.2264, 6885.586
480.7086, 6869.807
481.1907, 6870.521
481.6728, 6902.933
482.1549, 6957.235
482.6370, 7026.462
483.1191, 7111.337
483.6013, 7169.602
484.0834, 7171.782
484.5655, 7128.730
485.0476, 7084.793
485.5297, 7022.556
486.0118, 6982.494
486.4940, 6986.448
486.9761, 7008.065
487.4582, 7016.091
487.9403, 7008.318
488.4224, 7011.294
488.9045, 7058.424
489.3867, 7147.056
489.8688, 7189.538
490.3509, 7147.015
490.8330, 7118.233
491.3151, 7145.846
491.7972, 7197.923
492.2794, 7177.744
492.7615, 7253.926
493.2436, 7301.336
493.7257, 7321.519
494.2078, 7232.927
494.6899, 7284.796
495.1721, 7280.375
495.6542, 7273.646
496.1363, 7345.283
496.6184, 7272.513
497.1005, 7342.907
497.5826, 7356.152
498.0648, 7395.555
498.5469, 7378.319
499.0290, 7378.576
499.5111, 7435.489
499.9932, 7461.031
500.4753, 7437.275
500.9575, 7478.340
501.4396, 7403.592
501.9217, 7430.470
502.4038, 7501.196
502.8859, 7480.287
503.3680, 7522.387
503.8502, 7540.491
504.3323, 7449.538
504.8144, 7548.243
505.2965, 7564.927
505.7786, 7497.394
506.2607, 7589.601
506.7429, 7533.679
507.2250, 7530.630
507.7071, 7567.370
508.1892, 7562.631
508.6713, 7623.290
509.1534, 7620.946
509.6356, 7508.934
510.1177, 7446.732
510.5998, 7475.396
511.0819, 7550.083
511.5641, 7598.543
512.0461, 7593.319
512.5283, 7564.766
513.0104, 7560.396
513.4925, 7584.812
513.9746, 7591.249
514.4567, 7561.035
514.9388, 7533.508
515.4210, 7529.151
515.9031, 7544.134
516.3852, 7572.005
516.8673, 7625.962
517.3494, 7672.372
517.8315, 7685.320
518.3137, 7669.650
518.7958, 7628.832
519.2779, 7560.701
519.7600, 7501.074
520.2421, 7497.542
520.7242, 7563.839
521.2064, 7606.582
521.6885, 7602.610
522.1706, 7604.177
522.6527, 7637.565
523.1348, 7686.197
523.6169, 7729.836
524.0991, 7761.749
524.5812, 7768.439
525.0633, 7718.329
525.5454, 7612.992
526.0275, 7532.605
526.5096, 7491.915
526.9918, 7465.080
527.4739, 7428.197
527.9560, 7389.044
528.4381, 7374.213
528.9202, 7429.217
529.4023, 7464.946
529.8845, 7404.562
530.3666, 7300.456
530.8487, 7247.114
531.3308, 7269.391
531.8129, 7322.864
532.2950, 7356.496
532.7772, 7367.720
533.2593, 7383.146
533.7414, 7411.914
534.2235, 7433.725
534.7056, 7440.352
535.1877, 7438.083
535.6699, 7433.939
536.1520, 7429.430
536.6341, 7427.859
537.1162, 7441.704
537.5983, 7461.621
538.0804, 7449.538
538.5626, 7395.983
539.0447, 7343.958
539.5268, 7331.438
540.0089, 7350.652
540.4910, 7339.419
540.9731, 7268.975
541.4553, 7207.935
541.9374, 7158.784
542.4195, 7134.298
542.9016, 7166.077
543.3837, 7248.468
543.8658, 7321.806
544.3480, 7330.293
544.8301, 7278.725
545.3122, 7197.388
545.7943, 7061.334
546.2764, 6956.126
546.7585, 6934.354
547.2407, 6951.888
547.7228, 6963.552
548.2049, 6966.007
548.6870, 6960.372
549.1691, 6951.651
549.6512, 6932.496
550.1334, 6889.826
550.6155, 6825.363
551.0976, 6751.298
551.5797, 6669.772
552.0618, 6594.457
552.5439, 6576.437
553.0261, 6669.324
553.5082, 6727.471
553.9903, 6724.613
554.4724, 6703.200
554.9545, 6696.429
555.4366, 6698.446
555.9188, 6674.373
556.4009, 6582.980
556.8830, 6472.027
557.3651, 6421.995
557.8472, 6429.125
558.3293, 6442.364
558.8115, 6445.104
559.2936, 6445.665
559.7757, 6455.920
560.2578, 6478.619
560.7399, 6500.766
561.2220, 6536.275
561.7042, 6557.122
562.1863, 6542.304
562.6684, 6504.243
563.1505, 6461.149
563.6326, 6420.498
564.1147, 6391.284
564.5969, 6397.458
565.0790, 6440.916
565.5611, 6444.193
566.0432, 6367.794
566.5253, 6309.880
567.0074, 6367.474
567.4896, 6491.260
567.9717, 6570.148
568.4538, 6579.646
568.9359, 6557.281
569.4180, 6487.936
569.9001, 6411.503
570.3823, 6391.458
570.8644, 6434.665
571.3465, 6490.734
571.8286, 6512.799
572.3107, 6505.115
572.7928, 6512.047
573.2750, 6541.668
573.7571, 6572.026
574.2392, 6587.929
574.7213, 6609.108
575.2034, 6661.063
575.6855, 6744.577
576.1677, 6816.275
576.6498, 6834.861
577.1319, 6837.615
577.6140, 6887.514
578.0961, 6976.423
578.5782, 7028.778
579.0604, 6999.964
579.5425, 6943.981
580.0246, 6973.989
580.5067, 7146.446
580.9888, 7278.328
581.4709, 7366.712
581.9531, 7423.647
582.4352, 7426.379
582.9173, 7406.229
583.3994, 7425.604
583.8815, 7519.334
584.3636, 7631.153
584.8458, 7707.887
585.3279, 7746.794
585.8100, 7724.293
586.2921, 7626.707
586.7742, 7512.433
587.2563, 7425.835
587.7385, 7366.207
588.2206, 7315.571
588.7027, 7296.983
589.1848, 7257.595
589.6669, 7173.102
590.1490, 7070.689
590.6312, 6971.263
591.1133, 6881.065
591.5954, 6803.277
592.0775, 6743.228
592.5597, 6696.084
593.0418, 6643.397
593.5239, 6582.731
594.0060, 6536.137
594.4882, 6524.950
594.9703, 6518.258
595.4524, 6453.184
595.9345, 6315.589
596.4166, 6244.771
596.8987, 6317.858
597.3809, 6410.218
597.8630, 6451.004
598.3451, 6449.635
598.8272, 6434.335
599.3093, 6416.900
599.7914, 6392.122
600.2736, 6340.637
600.7557, 6258.927
601.2378, 6227.488
601.7199, 6269.264
602.2020, 6325.418
602.6841, 6371.968
603.1663, 6407.242
603.6484, 6426.441
604.1305, 6424.244
604.6126, 6415.870
605.0947, 6404.218
605.5768, 6391.278
606.0590, 6382.938
606.5411, 6376.813
607.0232, 6359.916
607.5053, 6322.251
607.9874, 6270.118
608.4695, 6217.931
608.9517, 6155.679
609.4338, 6128.376
609.9159, 6175.558
610.3980, 6227.676
610.8801, 6227.299
611.3622, 6186.565
611.8444, 6160.389
612.3265, 6179.900
612.8086, 6203.639
613.2907, 6204.553
613.7728, 6190.375
614.2549, 6172.452
614.7371, 6154.515
615.2192, 6142.582
615.7013, 6145.465
616.1834, 6161.937
616.6655, 6159.663
617.1476, 6129.108
617.6298, 6097.103
618.1119, 6060.683
618.5940, 6032.459
619.0761, 6029.793
619.5582, 6053.407
620.0403, 6071.833
620.5225, 6068.455
621.0046, 6055.261
621.4867, 6047.917
621.9688, 6041.749
622.4509, 6013.162
622.9330, 5951.432
623.4152, 5889.418
623.8973, 5882.525
624.3794, 5945.305
624.8615, 5983.681
625.3436, 5974.557
625.8257, 5970.819
626.3079, 6014.120
626.7900, 6064.568
627.2721, 6057.372
627.7542, 5968.610
628.2363, 5893.639
628.7184, 5908.591
629.2006, 5956.776
629.6827, 5958.640
630.1648, 5914.806
630.6469, 5865.116
631.1290, 5829.675
631.6111, 5811.750
632.0933, 5824.111
632.5754, 5885.479
633.0575, 5924.224
633.5396, 5916.748
634.0217, 5908.420
634.5038, 5925.898
634.9860, 5956.808
635.4681, 5976.164
635.9502, 5980.080
636.4323, 5965.135
636.9144, 5908.896
637.3965, 5840.381
637.8787, 5810.607
638.3608, 5822.549
638.8429, 5840.576
639.3250, 5839.511
639.8071, 5825.453
640.2892, 5820.528
640.7714, 5825.527
641.2535, 5838.181
641.7356, 5883.317
642.2177, 5912.522
642.6998, 5875.961
643.1819, 5797.641
643.6641, 5757.980
644.1462, 5802.992
644.6283, 5863.334
645.1104, 5911.301
645.5925, 5935.568
646.0746, 5890.094
646.5568, 5778.905
647.0389, 5705.655
647.5210, 5771.901
648.0031, 5940.383
648.4852, 5997.522
648.9673, 5896.611
649.4495, 5803.218
649.9316, 5740.014
650.4137, 5704.957
650.8958, 5706.433
651.3779, 5738.188
651.8600, 5765.223
652.3422, 5774.568
652.8243, 5778.863
653.3064, 5776.964
653.7885, 5778.472
654.2706, 5811.588
654.7527, 5876.716
655.2349, 5924.807
655.7170, 5902.271
656.1991, 5824.011
656.6812, 5787.136
657.1633, 5807.194
657.6454, 5822.090
658.1276, 5822.195
658.6097, 5804.190
659.0918, 5746.413
659.5739, 5654.346
660.0560, 5615.439
660.5381, 5688.524
661.0203, 5776.682
661.5024, 5843.005
661.9845, 5883.170
662.4666, 5884.235
