##NAMES=Brushite
##RRUFFID=R070554
##IDEAL CHEMISTRY=Ca(PO_3_OH)&#183;2H_2_O
##LOCALITY=Biogenic
##OWNER=RRUFF
##SOURCE=Henry J. Sun
##DESCRIPTION=Colorless platy crystals
##STATUS=The identification of this mineral has been confirmed by single-crystal X-ray diffraction.
##URL=rruff.info/R070554
135.1555, 14810.59
135.6376, 15027.64
136.1197, 15247.53
136.6018, 15458.17
137.0839, 15650.76
137.5661, 15826.17
138.0482, 15983.32
138.5303, 16103.48
139.0124, 16193.74
139.4945, 16350.85
139.9766, 16588.01
140.4588, 16868.14
140.9409, 17156.31
141.4230, 17465.77
141.9051, 17732.70
142.3872, 17924.60
142.8693, 18021.88
143.3515, 18109.73
143.8336, 18195.92
144.3157, 18271.11
144.7978, 18265.42
145.2799, 18053.81
145.7620, 17818.26
146.2442, 17562.92
146.7263, 17244.85
147.2084, 16980.70
147.6905, 16794.60
148.1726, 16692.39
148.6548, 16576.24
149.1369, 16419.55
149.6190, 16261.81
150.1011, 16148.74
150.5832, 16125.94
151.0653, 16098.65
151.5475, 16043.05
152.0296, 15952.17
152.5117, 15848.41
152.9938, 15716.93
153.4759, 15572.04
153.9580, 15449.57
154.4402, 15370.24
154.9223, 15300.47
155.4044, 15224.65
155.8865, 15129.65
156.3686, 15040.09
156.8507, 14967.98
157.3329, 14912.23
157.8150, 14837.91
158.2971, 14712.97
158.7792, 14577.93
159.2613, 14470.27
159.7434, 14389.78
160.2256, 14342.87
160.7077, 14345.66
161.1898, 14417.59
161.6719, 14467.32
162.1540, 14449.54
162.6361, 14392.29
163.1183, 14348.32
163.6004, 14340.99
164.0825, 14349.20
164.5646, 14361.28
165.0467, 14380.26
165.5288, 14395.04
166.0110, 14383.09
166.4931, 14354.31
166.9752, 14359.96
167.4573, 14458.21
167.9394, 14591.85
168.4215, 14702.57
168.9037, 14745.72
169.3858, 14774.23
169.8679, 14817.08
170.3500, 14874.98
170.8321, 14945.40
171.3142, 15031.31
171.7964, 15128.27
172.2785, 15228.30
172.7606, 15365.26
173.2427, 15485.59
173.7248, 15528.67
174.2069, 15465.48
174.6891, 15383.01
175.1712, 15379.97
175.6533, 15431.57
176.1354, 15443.06
176.6175, 15320.92
177.0996, 15126.37
177.5818, 14954.10
178.0639, 14831.93
178.5460, 14735.56
179.0281, 14639.52
179.5102, 14543.19
179.9923, 14449.23
180.4745, 14365.77
180.9566, 14287.60
181.4387, 14200.59
181.9208, 14094.71
182.4029, 13977.64
182.8850, 13858.25
183.3672, 13734.72
183.8493, 13623.95
184.3314, 13558.84
184.8135, 13531.29
185.2956, 13500.58
185.7777, 13436.37
186.2599, 13351.59
186.7420, 13283.45
187.2241, 13241.10
187.7062, 13210.12
188.1883, 13156.05
188.6705, 13079.41
189.1526, 13026.27
189.6347, 13070.59
190.1168, 13186.71
190.5989, 13221.70
191.0810, 13104.64
191.5632, 12901.30
192.0453, 12795.58
192.5274, 12795.60
193.0095, 12845.50
193.4916, 12904.47
193.9737, 12970.97
194.4559, 13018.14
194.9380, 13024.50
195.4201, 12997.55
195.9022, 12998.34
196.3843, 13029.95
196.8664, 13081.43
197.3486, 13145.89
197.8307, 13225.24
198.3128, 13285.65
198.7949, 13292.42
199.2770, 13245.00
199.7591, 13240.85
200.2413, 13291.90
200.7234, 13382.91
201.2055, 13480.91
201.6876, 13587.25
202.1697, 13693.37
202.6518, 13794.43
203.1340, 13888.80
203.6161, 13986.29
204.0982, 14090.18
204.5803, 14198.28
205.0624, 14301.94
205.5445, 14405.42
206.0267, 14494.63
206.5088, 14554.76
206.9909, 14582.33
207.4730, 14599.90
207.9551, 14621.43
208.4372, 14647.68
208.9194, 14620.01
209.4015, 14526.82
209.8836, 14396.27
210.3657, 14268.69
210.8478, 14147.43
211.3299, 14017.62
211.8121, 13868.84
212.2942, 13693.72
212.7763, 13538.37
213.2584, 13408.80
213.7405, 13295.31
214.2226, 13172.97
214.7048, 13037.13
215.1869, 12901.41
215.6690, 12770.18
216.1511, 12641.07
216.6332, 12526.58
217.1153, 12423.70
217.5975, 12334.71
218.0796, 12282.73
218.5617, 12285.16
219.0438, 12293.23
219.5259, 12268.79
220.0080, 12202.01
220.4902, 12124.59
220.9723, 12028.44
221.4544, 11913.88
221.9365, 11863.90
222.4186, 11906.79
222.9007, 11981.89
223.3829, 12023.77
223.8650, 12025.60
224.3471, 12010.38
224.8292, 11980.93
225.3113, 11935.28
225.7934, 11890.04
226.2756, 11841.34
226.7577, 11797.04
227.2398, 11772.15
227.7219, 11774.16
228.2040, 11782.04
228.6861, 11788.81
229.1683, 11793.60
229.6504, 11800.24
230.1325, 11816.01
230.6146, 11831.18
231.0967, 11818.00
231.5789, 11757.84
232.0610, 11696.14
232.5431, 11654.43
233.0252, 11632.39
233.5073, 11632.27
233.9894, 11664.09
234.4716, 11720.04
234.9537, 11760.53
235.4358, 11786.05
235.9179, 11795.99
236.4000, 11786.98
236.8821, 11744.44
237.3643, 11711.74
237.8464, 11695.57
238.3285, 11695.53
238.8106, 11699.13
239.2927, 11706.44
239.7748, 11717.07
240.2570, 11732.72
240.7391, 11764.26
241.2212, 11780.67
241.7033, 11768.97
242.1854, 11723.12
242.6675, 11702.72
243.1497, 11723.27
243.6318, 11757.32
244.1139, 11765.64
244.5960, 11722.77
245.0781, 11698.77
245.5602, 11723.84
246.0424, 11823.72
246.5245, 11874.80
247.0066, 11856.18
247.4887, 11800.32
247.9708, 11766.64
248.4529, 11766.53
248.9351, 11770.20
249.4172, 11764.88
249.8993, 11741.71
250.3814, 11732.59
250.8635, 11750.08
251.3456, 11778.85
251.8278, 11770.30
252.3099, 11694.29
252.7920, 11626.22
253.2741, 11615.44
253.7562, 11715.89
254.2383, 11743.83
254.7205, 11654.77
255.2026, 11481.63
255.6847, 11384.65
256.1668, 11398.06
256.6489, 11439.34
257.1310, 11451.48
257.6132, 11412.74
258.0953, 11397.78
258.5774, 11425.77
259.0595, 11490.61
259.5416, 11529.47
260.0237, 11535.90
260.5059, 11525.42
260.9880, 11508.34
261.4701, 11479.33
261.9522, 11459.08
262.4343, 11455.71
262.9164, 11468.91
263.3986, 11467.35
263.8807, 11439.59
264.3628, 11411.91
264.8449, 11414.25
265.3270, 11454.26
265.8091, 11503.82
266.2913, 11560.96
266.7734, 11625.82
267.2555, 11676.34
267.7376, 11714.02
268.2197, 11733.82
268.7018, 11722.35
269.1840, 11665.82
269.6661, 11618.41
270.1482, 11601.63
270.6303, 11620.00
271.1124, 11630.71
271.5945, 11629.73
272.0767, 11626.47
272.5588, 11638.11
273.0409, 11668.99
273.5230, 11701.37
274.0051, 11730.63
274.4872, 11758.02
274.9694, 11773.46
275.4515, 11773.70
275.9336, 11766.13
276.4157, 11766.03
276.8978, 11774.97
277.3799, 11784.31
277.8621, 11787.21
278.3442, 11781.95
278.8263, 11787.13
279.3084, 11806.86
279.7905, 11833.38
280.2726, 11848.15
280.7548, 11849.15
281.2369, 11847.51
281.7190, 11849.08
282.2011, 11853.78
282.6832, 11862.67
283.1653, 11880.66
283.6475, 11898.54
284.1296, 11887.79
284.6117, 11845.19
285.0938, 11799.82
285.5759, 11768.46
286.0580, 11751.45
286.5402, 11754.38
287.0223, 11786.58
287.5044, 11832.99
287.9865, 11853.06
288.4686, 11845.63
288.9507, 11828.07
289.4329, 11812.91
289.9150, 11799.80
290.3971, 11783.80
290.8792, 11761.60
291.3614, 11737.37
291.8435, 11721.67
292.3256, 11714.67
292.8077, 11709.66
293.2898, 11696.90
293.7719, 11679.33
294.2541, 11673.89
294.7362, 11694.32
295.2183, 11723.68
295.7004, 11722.27
296.1825, 11689.51
296.6646, 11651.17
297.1468, 11623.09
297.6289, 11607.15
298.1110, 11612.32
298.5931, 11659.80
299.0752, 11719.65
299.5573, 11723.37
300.0395, 11670.26
300.5216, 11632.48
301.0037, 11705.97
301.4858, 11847.82
301.9679, 11952.32
302.4500, 11963.41
302.9322, 11923.59
303.4143, 11883.79
303.8964, 11843.70
304.3785, 11813.13
304.8606, 11805.24
305.3427, 11812.45
305.8249, 11819.58
306.3070, 11805.65
306.7891, 11796.27
307.2712, 11825.94
307.7533, 11895.84
308.2354, 11970.85
308.7176, 12033.21
309.1997, 12081.45
309.6818, 12112.00
310.1639, 12113.08
310.6460, 12102.22
311.1281, 12089.47
311.6103, 12074.40
312.0924, 12068.92
312.5745, 12090.55
313.0566, 12124.92
313.5387, 12150.85
314.0208, 12159.05
314.5030, 12157.32
314.9851, 12145.48
315.4672, 12122.31
315.9493, 12109.44
316.4314, 12125.83
316.9135, 12157.26
317.3957, 12185.55
317.8778, 12206.14
318.3599, 12220.40
318.8420, 12227.52
319.3241, 12226.46
319.8062, 12224.04
320.2884, 12214.80
320.7705, 12206.88
321.2526, 12210.50
321.7347, 12247.03
322.2168, 12278.47
322.6989, 12292.54
323.1811, 12288.22
323.6632, 12263.66
324.1453, 12180.88
324.6274, 12088.98
325.1095, 12047.66
325.5916, 12133.30
326.0738, 12209.70
326.5559, 12235.45
327.0380, 12197.96
327.5201, 12156.87
328.0022, 12094.48
328.4843, 12038.95
328.9665, 12023.80
329.4486, 12110.94
329.9307, 12178.87
330.4128, 12194.99
330.8949, 12140.71
331.3770, 12109.58
331.8592, 12115.34
332.3413, 12136.89
332.8234, 12149.69
333.3055, 12159.45
333.7876, 12150.89
334.2697, 12107.94
334.7519, 12014.68
335.2340, 11979.47
335.7161, 12021.19
336.1982, 12104.08
336.6803, 12189.33
337.1624, 12290.66
337.6446, 12363.67
338.1267, 12387.98
338.6088, 12358.23
339.0909, 12352.40
339.5730, 12375.47
340.0551, 12414.89
340.5373, 12458.57
341.0194, 12508.81
341.5015, 12555.03
341.9836, 12598.37
342.4657, 12637.78
342.9478, 12650.39
343.4300, 12627.88
343.9121, 12601.27
344.3942, 12603.95
344.8763, 12636.35
345.3584, 12693.14
345.8405, 12789.58
346.3227, 12911.57
346.8048, 12981.12
347.2869, 12990.63
347.7690, 12992.53
348.2511, 13053.13
348.7332, 13163.02
349.2154, 13258.19
349.6975, 13307.57
350.1796, 13330.43
350.6617, 13370.68
351.1438, 13428.78
351.6259, 13502.36
352.1081, 13591.15
352.5902, 13694.72
353.0723, 13811.08
353.5544, 13963.32
354.0365, 14112.98
354.5186, 14205.33
355.0008, 14241.08
355.4829, 14254.81
355.9650, 14263.68
356.4471, 14270.70
356.9292, 14280.71
357.4113, 14299.51
357.8935, 14319.29
358.3756, 14333.56
358.8577, 14343.06
359.3398, 14351.68
359.8219, 14363.67
360.3040, 14375.69
360.7862, 14384.43
361.2683, 14389.32
361.7504, 14390.18
362.2325, 14381.51
362.7146, 14365.56
363.1967, 14358.65
363.6789, 14359.43
364.1610, 14375.21
364.6431, 14411.59
365.1252, 14507.41
365.6073, 14582.35
366.0894, 14602.61
366.5716, 14578.75
367.0537, 14563.07
367.5358, 14575.35
368.0179, 14591.75
368.5000, 14599.43
368.9821, 14563.99
369.4643, 14559.25
369.9464, 14615.98
370.4285, 14714.00
370.9106, 14773.67
371.3927, 14767.11
371.8748, 14749.41
372.3570, 14742.66
372.8391, 14736.30
373.3212, 14763.96
373.8033, 14852.58
374.2855, 14970.67
374.7676, 15029.39
375.2497, 14988.04
375.7318, 14957.69
376.2139, 14995.42
376.6960, 15129.62
377.1782, 15226.57
377.6603, 15279.71
378.1424, 15300.86
378.6245, 15303.75
379.1066, 15279.81
379.5887, 15272.37
380.0709, 15313.68
380.5530, 15403.91
381.0351, 15452.81
381.5172, 15454.43
381.9993, 15426.42
382.4814, 15389.05
382.9636, 15342.63
383.4457, 15223.28
383.9278, 15218.30
384.4099, 15183.06
384.8920, 15119.18
385.3741, 14940.90
385.8563, 14910.33
386.3384, 14820.57
386.8205, 14728.38
387.3026, 14718.62
387.7847, 14556.98
388.2668, 14545.90
388.7490, 14517.44
389.2311, 14494.67
389.7132, 14457.43
390.1953, 14372.21
390.6774, 14262.34
391.1595, 14162.77
391.6417, 14067.93
392.1238, 14001.94
392.6059, 13990.96
393.0880, 14030.67
393.5701, 14082.06
394.0522, 14143.05
394.5344, 14197.32
395.0165, 14229.70
395.4986, 14210.05
395.9807, 14194.57
396.4628, 14198.15
396.9449, 14219.93
397.4271, 14257.10
397.9092, 14313.66
398.3913, 14381.40
398.8734, 14456.14
399.3555, 14552.89
399.8376, 14635.60
400.3198, 14705.51
400.8019, 14759.44
401.2840, 14787.57
401.7661, 14765.77
402.2482, 14742.06
402.7303, 14732.38
403.2125, 14728.89
403.6946, 14760.33
404.1767, 14844.43
404.6588, 14955.91
405.1409, 15044.05
405.6230, 15105.09
406.1052, 15154.07
406.5873, 15195.34
407.0694, 15228.80
407.5515, 15257.15
408.0336, 15280.33
408.5157, 15298.77
408.9979, 15305.25
409.4800, 15297.39
409.9621, 15312.38
410.4442, 15382.02
410.9263, 15486.60
411.4084, 15529.83
411.8906, 15506.04
412.3727, 15461.82
412.8548, 15443.81
413.3369, 15445.59
413.8190, 15442.46
414.3011, 15424.96
414.7833, 15400.14
415.2654, 15386.30
415.7475, 15381.16
416.2296, 15357.58
416.7117, 15262.97
417.1938, 15146.40
417.6760, 15080.85
418.1581, 15113.06
418.6402, 15159.00
419.1223, 15157.72
419.6044, 15117.16
420.0865, 15064.42
420.5687, 15010.54
421.0508, 14950.87
421.5329, 14880.60
422.0150, 14789.65
422.4971, 14706.59
422.9792, 14653.47
423.4614, 14613.67
423.9435, 14552.70
424.4256, 14439.64
424.9077, 14324.68
425.3898, 14222.97
425.8719, 14135.85
426.3541, 14064.20
426.8362, 14008.45
427.3183, 13967.60
427.8004, 13941.91
428.2825, 13955.82
428.7646, 13948.03
429.2468, 13898.72
429.7289, 13805.63
430.2110, 13730.35
430.6931, 13680.09
431.1752, 13636.80
431.6573, 13578.92
432.1395, 13499.25
432.6216, 13445.18
433.1037, 13436.22
433.5858, 13454.73
434.0679, 13431.81
434.5500, 13361.92
435.0322, 13291.61
435.5143, 13265.30
435.9964, 13272.75
436.4785, 13255.36
436.9606, 13195.70
437.4427, 13127.31
437.9249, 13104.41
438.4070, 13119.74
438.8891, 13136.77
439.3712, 13138.98
439.8533, 13128.31
440.3354, 13104.73
440.8176, 13066.19
441.2997, 13025.73
441.7818, 12988.43
442.2639, 12956.84
442.7460, 12935.81
443.2281, 12942.98
443.7103, 12948.85
444.1924, 12932.23
444.6745, 12891.57
445.1566, 12856.80
445.6387, 12842.68
446.1208, 12837.41
446.6030, 12830.46
447.0851, 12806.93
447.5672, 12795.27
448.0493, 12809.76
448.5314, 12846.47
449.0135, 12866.70
449.4957, 12873.95
449.9778, 12861.46
450.4599, 12820.76
450.9420, 12716.04
451.4241, 12658.07
451.9063, 12667.87
452.3884, 12716.74
452.8705, 12739.39
453.3526, 12734.52
453.8347, 12708.56
454.3168, 12650.96
454.7990, 12558.38
455.2811, 12515.07
455.7632, 12527.60
456.2453, 12567.27
456.7274, 12604.82
457.2096, 12639.58
457.6917, 12660.51
458.1738, 12656.82
458.6559, 12639.67
459.1380, 12632.48
459.6201, 12635.28
460.1023, 12644.17
460.5844, 12655.35
461.0665, 12670.62
461.5486, 12694.62
462.0307, 12738.82
462.5128, 12777.41
462.9950, 12787.00
463.4771, 12772.80
463.9592, 12751.15
464.4413, 12700.72
464.9234, 12664.74
465.4055, 12681.94
465.8877, 12786.66
466.3698, 12865.29
466.8519, 12860.32
467.3340, 12813.65
467.8161, 12787.96
468.2982, 12807.63
468.7804, 12834.84
469.2625, 12865.50
469.7446, 12901.95
470.2267, 12920.94
470.7088, 12916.55
471.1909, 12900.96
471.6731, 12882.46
472.1552, 12857.08
472.6373, 12840.54
473.1194, 12835.85
473.6015, 12841.65
474.0836, 12852.44
474.5658, 12867.88
475.0479, 12889.45
475.5300, 12923.72
476.0121, 12968.30
476.4942, 12997.82
476.9763, 13008.27
477.4585, 13007.18
477.9406, 12998.69
478.4227, 12985.54
478.9048, 12981.50
479.3869, 13001.58
479.8690, 13030.92
480.3512, 13044.49
480.8333, 13041.13
481.3154, 13046.48
481.7975, 13087.17
482.2796, 13145.49
482.7617, 13198.97
483.2439, 13245.03
483.7260, 13280.85
484.2081, 13292.90
484.6902, 13289.00
485.1723, 13306.52
485.6544, 13395.76
486.1366, 13480.41
486.6187, 13515.75
487.1008, 13442.96
487.5829, 13414.59
488.0650, 13466.10
488.5471, 13554.18
489.0293, 13604.00
489.5114, 13588.43
489.9935, 13580.04
490.4756, 13604.37
490.9577, 13662.26
491.4398, 13698.78
491.9220, 13706.22
492.4041, 13710.56
492.8862, 13737.67
493.3683, 13788.17
493.8504, 13845.09
494.3326, 13907.99
494.8147, 13973.14
495.2968, 14036.50
495.7789, 14097.61
496.2610, 14155.92
496.7431, 14207.83
497.2253, 14257.22
497.7074, 14314.05
498.1895, 14381.83
498.6716, 14445.58
499.1537, 14483.60
499.6358, 14510.83
500.1180, 14554.62
500.6001, 14643.86
501.0822, 14737.17
501.5643, 14819.91
502.0464, 14890.78
502.5285, 14930.65
503.0107, 14904.40
503.4928, 14862.38
503.9749, 14839.90
504.4570, 14864.05
504.9391, 14879.42
505.4212, 14873.16
505.9034, 14857.11
506.3855, 14869.76
506.8676, 14941.31
507.3497, 14990.52
507.8318, 14972.23
508.3139, 14873.38
508.7961, 14831.71
509.2782, 14859.10
509.7603, 14917.75
510.2424, 14965.57
510.7245, 15002.55
511.2066, 15035.57
511.6888, 15064.55
512.1709, 15091.66
512.6530, 15127.56
513.1351, 15170.17
513.6172, 15199.23
514.0994, 15193.42
514.5815, 15166.19
515.0636, 15135.34
515.5457, 15101.62
516.0278, 15070.37
516.5099, 15033.85
516.9921, 15003.63
517.4742, 15000.75
517.9563, 15093.46
518.4384, 15162.15
518.9205, 15131.98
519.4026, 14992.18
519.8848, 14901.05
520.3669, 14932.06
520.8490, 14993.35
521.3311, 15017.53
521.8132, 14963.54
522.2953, 14941.24
522.7775, 14969.66
523.2596, 15031.14
523.7417, 15070.37
524.2238, 15076.86
524.7059, 15092.06
525.1880, 15153.04
525.6702, 15257.13
526.1523, 15280.24
526.6344, 15209.97
527.1165, 15107.67
527.5986, 15045.14
528.0807, 15011.71
528.5629, 14964.52
529.0450, 14879.77
529.5271, 14786.53
530.0092, 14732.00
530.4913, 14708.32
530.9734, 14675.29
531.4556, 14593.66
531.9377, 14502.03
532.4198, 14432.88
532.9019, 14394.34
533.3840, 14371.52
533.8661, 14359.20
534.3483, 14359.68
534.8304, 14375.89
535.3125, 14445.80
535.7946, 14491.43
536.2767, 14475.78
536.7589, 14403.87
537.2410, 14386.17
537.7231, 14460.13
538.2052, 14539.11
538.6873, 14564.42
539.1694, 14520.52
539.6516, 14494.11
540.1337, 14494.63
540.6158, 14507.57
541.0979, 14508.67
541.5800, 14498.04
542.0621, 14484.12
542.5443, 14475.38
543.0264, 14464.98
543.5085, 14434.93
543.9906, 14385.66
544.4727, 14329.06
544.9548, 14260.33
545.4370, 14195.18
545.9191, 14158.78
546.4012, 14174.57
546.8833, 14187.61
547.3654, 14155.93
547.8475, 14098.23
548.3297, 14055.60
548.8118, 14058.40
549.2939, 14061.41
549.7760, 14044.13
550.2581, 14000.61
550.7402, 13961.41
551.2224, 13916.04
551.7045, 13883.36
552.1866, 13885.94
552.6687, 13953.85
553.1508, 13971.20
553.6329, 13906.78
554.1151, 13798.64
554.5972, 13745.24
555.0793, 13751.79
555.5614, 13759.89
556.0435, 13736.44
556.5256, 13690.84
557.0078, 13662.34
557.4899, 13653.68
557.9720, 13636.79
558.4541, 13571.55
558.9362, 13482.43
559.4183, 13414.72
559.9005, 13393.21
560.3826, 13379.21
560.8647, 13339.10
561.3468, 13284.54
561.8289, 13249.55
562.3110, 13264.08
562.7932, 13286.38
563.2753, 13300.08
563.7574, 13304.89
564.2395, 13295.59
564.7216, 13256.08
565.2037, 13213.43
565.6859, 13190.40
566.1680, 13184.92
566.6501, 13204.54
567.1322, 13258.40
567.6143, 13333.01
568.0964, 13390.66
568.5786, 13430.15
569.0607, 13455.88
569.5428, 13457.29
570.0249, 13444.57
570.5070, 13460.44
570.9891, 13507.43
571.4713, 13561.10
571.9534, 13599.62
572.4355, 13628.08
572.9176, 13654.59
573.3997, 13680.81
573.8818, 13707.20
574.3640, 13733.26
574.8461, 13760.06
575.3282, 13790.99
575.8103, 13832.85
576.2924, 13874.69
576.7745, 13909.98
577.2567, 13933.81
577.7388, 13971.27
578.2209, 14030.39
578.7030, 14097.61
579.1851, 14163.90
579.6672, 14231.87
580.1494, 14288.78
580.6315, 14327.30
581.1136, 14358.75
581.5957, 14411.94
582.0778, 14487.56
582.5599, 14565.12
583.0421, 14634.30
583.5242, 14697.83
584.0063, 14764.43
584.4884, 14834.45
584.9705, 14903.63
585.4526, 14961.33
585.9348, 15019.64
586.4169, 15099.58
586.8990, 15230.98
587.3811, 15342.62
587.8632, 15397.86
588.3453, 15407.11
588.8275, 15392.81
589.3096, 15368.06
589.7917, 15313.20
590.2738, 15208.58
590.7559, 15050.90
591.2380, 14919.13
591.7202, 14825.02
592.2023, 14742.32
592.6844, 14650.12
593.1665, 14547.07
593.6486, 14455.80
594.1307, 14378.51
594.6129, 14314.06
595.0950, 14261.28
595.5771, 14220.05
596.0592, 14188.40
596.5413, 14169.07
597.0234, 14157.07
597.5056, 14143.75
597.9877, 14129.74
598.4698, 14122.47
598.9519, 14127.98
599.4340, 14141.00
599.9161, 14156.49
600.3983, 14172.15
600.8804, 14193.17
601.3625, 14235.20
601.8446, 14278.88
602.3267, 14297.14
602.8088, 14265.54
603.2910, 14240.48
603.7731, 14237.16
604.2552, 14248.97
604.7373, 14234.57
605.2194, 14185.26
605.7015, 14138.37
606.1837, 14118.33
606.6658, 14122.67
607.1479, 14124.08
607.6300, 14121.80
608.1121, 14117.84
608.5942, 14112.96
609.0764, 14108.28
609.5585, 14108.41
610.0406, 14128.07
610.5227, 14134.36
611.0048, 14080.67
611.4869, 13991.21
611.9691, 13930.33
612.4512, 13952.46
612.9333, 13985.37
613.4154, 14002.09
613.8975, 14001.47
614.3796, 13975.64
614.8618, 13894.30
615.3439, 13815.95
615.8260, 13786.41
616.3081, 13825.46
616.7902, 13847.01
617.2723, 13843.05
617.7545, 13821.53
618.2366, 13790.44
618.7187, 13750.26
619.2008, 13721.50
619.6829, 13716.67
620.1650, 13725.71
620.6472, 13734.78
621.1293, 13743.17
621.6114, 13744.95
622.0935, 13728.39
622.5756, 13708.07
623.0577, 13699.35
623.5399, 13708.94
624.0220, 13712.96
624.5041, 13702.26
624.9862, 13681.86
625.4683, 13657.09
625.9504, 13614.23
626.4326, 13586.77
626.9147, 13584.08
627.3968, 13598.42
627.8789, 13604.94
628.3610, 13603.81
628.8431, 13595.01
629.3253, 13575.94
629.8074, 13548.65
630.2895, 13523.78
630.7716, 13501.28
631.2537, 13485.06
631.7358, 13485.84
632.2180, 13493.86
632.7001, 13490.48
633.1822, 13467.38
633.6643, 13443.54
634.1464, 13415.70
634.6285, 13398.05
