##NAMES=Buddingtonite
##RRUFFID=R061115
##IDEAL CHEMISTRY=(N^3-^H_4_)AlSi_3_O_8_
##LOCALITY=Sharon Heights, Menlo Park, Santa Clara County, California, USA
##OWNER=RRUFF
##SOURCE=Michael Scott
##DESCRIPTION=Grey fine-grained massive
##STATUS=The identification of this mineral has been confirmed by X-ray diffraction.
##URL=rruff.info/R061115
151.9381, 18527.49
152.4202, 18479.92
152.9024, 18512.78
153.3845, 18555.02
153.8666, 18572.83
154.3487, 18536.12
154.8308, 18503.50
155.3129, 18480.88
155.7950, 18468.55
156.2772, 18467.87
156.7593, 18497.69
157.2414, 18530.72
157.7235, 18546.58
158.2056, 18520.51
158.6877, 18496.73
159.1699, 18491.21
159.6520, 18505.14
160.1341, 18518.12
160.6162, 18516.66
161.0983, 18512.95
161.5804, 18520.64
162.0626, 18558.11
162.5447, 18597.20
163.0268, 18625.22
163.5089, 18640.67
163.9910, 18647.39
164.4731, 18636.31
164.9553, 18618.39
165.4374, 18612.03
165.9195, 18642.90
166.4016, 18677.25
166.8837, 18685.30
167.3658, 18650.95
167.8480, 18623.41
168.3301, 18645.40
168.8122, 18700.89
169.2943, 18747.47
169.7764, 18760.88
170.2585, 18753.29
170.7407, 18734.39
171.2228, 18694.99
171.7049, 18662.84
172.1870, 18664.84
172.6691, 18697.11
173.1512, 18739.58
173.6334, 18792.35
174.1155, 18845.00
174.5976, 18879.87
175.0797, 18883.22
175.5618, 18875.60
176.0439, 18882.38
176.5260, 18902.73
177.0082, 18920.82
177.4903, 18921.73
177.9724, 18910.82
178.4545, 18900.35
178.9366, 18891.63
179.4187, 18886.74
179.9009, 18892.11
180.3830, 18908.21
180.8651, 18923.92
181.3472, 18922.11
181.8293, 18908.54
182.3114, 18905.17
182.7936, 18933.77
183.2757, 18978.03
183.7578, 18995.52
184.2399, 18981.91
184.7220, 18959.84
185.2041, 18954.59
185.6863, 18965.17
186.1684, 18985.05
186.6505, 19022.79
187.1326, 19069.83
187.6147, 19090.29
188.0968, 19078.02
188.5790, 19052.18
189.0611, 19040.01
189.5432, 19041.73
190.0253, 19051.03
190.5074, 19067.53
190.9895, 19090.28
191.4717, 19113.55
191.9538, 19140.29
192.4359, 19163.07
192.9180, 19159.04
193.4001, 19125.28
193.8822, 19098.39
194.3644, 19108.97
194.8465, 19155.50
195.3286, 19192.06
195.8107, 19211.25
196.2928, 19217.10
196.7749, 19217.05
197.2570, 19208.19
197.7392, 19206.49
198.2213, 19234.58
198.7034, 19296.06
199.1855, 19327.99
199.6676, 19310.07
200.1497, 19256.96
200.6319, 19235.87
201.1140, 19254.91
201.5961, 19280.74
202.0782, 19279.79
202.5603, 19247.12
203.0424, 19225.02
203.5246, 19226.06
204.0067, 19247.41
204.4888, 19260.90
204.9709, 19263.28
205.4530, 19266.08
205.9352, 19287.62
206.4173, 19337.57
206.8994, 19364.59
207.3815, 19343.15
207.8636, 19274.83
208.3457, 19252.29
208.8279, 19288.51
209.3100, 19349.33
209.7921, 19392.55
210.2742, 19411.76
210.7563, 19431.55
211.2384, 19456.29
211.7206, 19485.35
212.2027, 19528.95
212.6848, 19599.06
213.1669, 19669.57
213.6490, 19695.54
214.1311, 19656.69
214.6133, 19624.81
215.0954, 19626.49
215.5775, 19668.68
216.0596, 19701.74
216.5417, 19722.93
217.0238, 19737.37
217.5059, 19753.88
217.9881, 19773.35
218.4702, 19794.10
218.9523, 19820.59
219.4344, 19862.30
219.9165, 19871.72
220.3986, 19833.75
220.8808, 19773.39
221.3629, 19739.78
221.8450, 19738.65
222.3271, 19754.74
222.8092, 19787.49
223.2913, 19853.05
223.7735, 19886.95
224.2556, 19864.42
224.7377, 19819.21
225.2198, 19845.96
225.7019, 20003.47
226.1840, 20138.71
226.6662, 20172.42
227.1483, 20031.75
227.6304, 19959.97
228.1125, 19982.51
228.5946, 20069.27
229.0767, 20135.28
229.5589, 20175.04
230.0410, 20200.74
230.5231, 20217.74
231.0052, 20224.06
231.4873, 20225.83
231.9694, 20223.33
232.4516, 20216.89
232.9337, 20206.29
233.4158, 20187.95
233.8979, 20171.49
234.3800, 20160.92
234.8621, 20150.46
235.3443, 20161.08
235.8264, 20204.05
236.3085, 20270.39
236.7906, 20320.70
237.2727, 20350.77
237.7548, 20370.40
238.2369, 20382.32
238.7191, 20372.40
239.2012, 20383.58
239.6833, 20431.49
240.1654, 20504.54
240.6475, 20538.19
241.1296, 20496.65
241.6118, 20458.62
242.0939, 20478.63
242.5760, 20604.76
243.0581, 20687.68
243.5402, 20700.01
244.0223, 20654.37
244.5045, 20629.97
244.9866, 20642.54
245.4687, 20657.45
245.9508, 20648.80
246.4329, 20592.46
246.9150, 20566.96
247.3972, 20591.91
247.8793, 20658.89
248.3614, 20709.88
248.8435, 20740.94
249.3256, 20762.33
249.8077, 20778.29
250.2899, 20779.93
250.7720, 20796.60
251.2541, 20840.44
251.7362, 20904.68
252.2183, 20941.50
252.7004, 20941.19
253.1826, 20924.12
253.6647, 20899.35
254.1468, 20849.93
254.6289, 20831.38
255.1110, 20863.36
255.5931, 20936.59
256.0753, 20973.30
256.5574, 20958.45
257.0395, 20930.87
257.5216, 20919.24
258.0037, 20929.38
258.4858, 20942.60
258.9680, 20958.41
259.4501, 20976.65
259.9322, 20992.55
260.4143, 21006.23
260.8964, 21018.70
261.3785, 21030.37
261.8607, 21041.13
262.3428, 21053.61
262.8249, 21072.47
263.3070, 21094.40
263.7891, 21096.78
264.2712, 21073.39
264.7534, 21041.42
265.2355, 21005.82
265.7176, 20952.34
266.1997, 20945.21
266.6818, 21009.77
267.1639, 21129.17
267.6461, 21205.72
268.1282, 21226.28
268.6103, 21231.68
269.0924, 21254.06
269.5745, 21300.31
270.0566, 21331.11
270.5387, 21335.51
271.0208, 21320.72
271.5030, 21321.21
271.9851, 21338.81
272.4672, 21366.28
272.9493, 21405.75
273.4314, 21462.82
273.9135, 21491.59
274.3957, 21474.90
274.8778, 21428.47
275.3599, 21415.54
275.8420, 21443.82
276.3241, 21478.63
276.8062, 21493.40
277.2884, 21486.02
277.7705, 21484.94
278.2526, 21495.27
278.7347, 21514.19
279.2168, 21533.49
279.6989, 21554.16
280.1811, 21574.08
280.6632, 21595.63
281.1453, 21619.33
281.6274, 21628.10
282.1095, 21616.04
282.5916, 21591.93
283.0738, 21571.35
283.5559, 21552.37
284.0380, 21553.21
284.5201, 21599.59
285.0022, 21686.95
285.4843, 21747.71
285.9665, 21766.61
286.4486, 21763.86
286.9307, 21783.66
287.4128, 21826.05
287.8949, 21868.41
288.3770, 21892.83
288.8592, 21902.67
289.3413, 21919.82
289.8234, 21950.30
290.3055, 21981.65
290.7876, 21988.60
291.2697, 21972.71
291.7519, 21955.05
292.2340, 21947.35
292.7161, 21948.40
293.1982, 21954.90
293.6803, 21968.81
294.1624, 21982.69
294.6446, 21977.62
295.1267, 21958.28
295.6088, 21953.21
296.0909, 21994.13
296.5730, 22059.99
297.0551, 22101.57
297.5373, 22111.31
298.0194, 22109.31
298.5015, 22120.98
298.9836, 22141.77
299.4657, 22155.05
299.9478, 22145.92
300.4300, 22125.28
300.9121, 22111.35
301.3942, 22106.46
301.8763, 22101.40
302.3584, 22072.05
302.8405, 22033.44
303.3227, 22024.13
303.8048, 22092.72
304.2869, 22185.70
304.7690, 22240.83
305.2511, 22252.89
305.7332, 22248.75
306.2154, 22241.12
306.6975, 22233.25
307.1796, 22230.73
307.6617, 22243.01
308.1438, 22257.62
308.6259, 22261.26
309.1081, 22253.46
309.5901, 22250.45
310.0723, 22267.45
310.5544, 22294.81
311.0365, 22319.49
311.5186, 22333.34
312.0007, 22346.03
312.4828, 22362.95
312.9650, 22384.05
313.4471, 22408.23
313.9292, 22440.02
314.4113, 22471.89
314.8934, 22496.26
315.3755, 22502.88
315.8577, 22507.88
316.3398, 22521.33
316.8219, 22540.95
317.3040, 22551.56
317.7861, 22536.32
318.2682, 22515.61
318.7504, 22504.63
319.2325, 22511.17
319.7146, 22523.11
320.1967, 22540.31
320.6788, 22561.39
321.1609, 22579.82
321.6431, 22599.85
322.1252, 22613.39
322.6073, 22614.34
323.0894, 22572.95
323.5715, 22559.49
324.0536, 22606.47
324.5358, 22691.90
325.0179, 22751.79
325.5000, 22768.45
325.9821, 22766.30
326.4642, 22753.53
326.9464, 22717.70
327.4285, 22692.81
327.9106, 22673.89
328.3927, 22666.87
328.8748, 22685.50
329.3569, 22775.52
329.8391, 22841.38
330.3212, 22843.38
330.8033, 22742.20
331.2854, 22697.34
331.7675, 22743.72
332.2496, 22828.83
332.7318, 22872.08
333.2139, 22849.62
333.6960, 22826.31
334.1781, 22818.88
334.6602, 22828.84
335.1423, 22841.79
335.6245, 22861.45
336.1066, 22879.21
336.5887, 22883.66
337.0708, 22870.75
337.5529, 22855.48
338.0350, 22834.13
338.5172, 22809.66
338.9993, 22829.59
339.4814, 22910.29
339.9635, 22996.68
340.4456, 23036.76
340.9277, 23027.17
341.4099, 23010.35
341.8920, 22992.71
342.3741, 22974.69
342.8562, 22952.77
343.3383, 22925.00
343.8204, 22908.06
344.3026, 22916.23
344.7847, 22947.60
345.2668, 22989.52
345.7489, 23044.52
346.2310, 23100.84
346.7131, 23131.56
347.1953, 23137.43
347.6774, 23139.15
348.1595, 23151.85
348.6416, 23170.24
349.1237, 23181.21
349.6058, 23183.72
350.0880, 23177.33
350.5700, 23153.83
351.0522, 23118.83
351.5343, 23092.76
352.0164, 23094.58
352.4985, 23109.58
352.9806, 23111.19
353.4627, 23095.57
353.9449, 23091.70
354.4270, 23146.29
354.9091, 23228.90
355.3912, 23284.82
355.8733, 23259.89
356.3554, 23218.34
356.8376, 23214.27
357.3197, 23247.87
357.8018, 23288.45
358.2839, 23317.50
358.7660, 23343.18
359.2481, 23374.44
359.7303, 23419.85
360.2124, 23465.41
360.6945, 23506.42
361.1766, 23542.59
361.6587, 23574.79
362.1408, 23607.53
362.6230, 23632.91
363.1051, 23643.88
363.5872, 23617.63
364.0693, 23606.76
364.5514, 23639.41
365.0335, 23698.07
365.5157, 23735.91
365.9978, 23733.56
366.4799, 23718.03
366.9620, 23695.30
367.4441, 23645.04
367.9262, 23632.56
368.4084, 23699.29
368.8905, 23796.18
369.3726, 23846.71
369.8547, 23815.17
370.3368, 23780.77
370.8189, 23763.55
371.3011, 23766.70
371.7832, 23768.68
372.2653, 23766.77
372.7474, 23766.55
373.2295, 23775.86
373.7116, 23801.91
374.1938, 23819.38
374.6759, 23819.58
375.1580, 23805.53
375.6401, 23803.89
376.1222, 23816.95
376.6043, 23837.78
377.0865, 23863.53
377.5686, 23894.82
378.0507, 23923.30
378.5328, 23948.00
379.0149, 23968.87
379.4970, 23982.09
379.9792, 23986.49
380.4613, 23996.24
380.9434, 24027.13
381.4255, 24073.49
381.9076, 24095.17
382.3897, 24080.70
382.8719, 24067.16
383.3540, 24125.09
383.8361, 24238.44
384.3182, 24324.58
384.8003, 24323.14
385.2824, 24274.12
385.7646, 24240.72
386.2467, 24223.65
386.7288, 24228.47
387.2109, 24274.73
387.6930, 24345.12
388.1751, 24406.80
388.6573, 24450.26
389.1394, 24479.84
389.6215, 24494.09
390.1036, 24495.07
390.5857, 24494.99
391.0678, 24499.61
391.5499, 24507.10
392.0320, 24515.74
392.5142, 24524.58
392.9963, 24534.96
393.4784, 24556.31
393.9605, 24580.08
394.4426, 24585.32
394.9247, 24536.81
395.4069, 24490.75
395.8890, 24477.55
396.3711, 24514.78
396.8532, 24543.10
397.3353, 24554.09
397.8174, 24551.44
398.2996, 24539.97
398.7817, 24499.54
399.2638, 24472.31
399.7459, 24469.32
400.2280, 24492.51
400.7101, 24517.96
401.1923, 24555.74
401.6744, 24586.90
402.1565, 24594.17
402.6386, 24562.06
403.1207, 24542.16
403.6028, 24545.52
404.0850, 24564.78
404.5671, 24567.34
405.0492, 24545.90
405.5313, 24528.21
406.0134, 24527.31
406.4955, 24542.84
406.9777, 24584.59
407.4598, 24662.50
407.9419, 24747.90
408.4240, 24790.15
408.9061, 24789.50
409.3882, 24777.57
409.8704, 24760.93
410.3525, 24742.88
410.8346, 24735.17
411.3167, 24737.62
411.7988, 24749.80
412.2809, 24780.63
412.7631, 24821.45
413.2452, 24849.76
413.7273, 24857.60
414.2094, 24851.54
414.6915, 24833.00
415.1736, 24805.28
415.6558, 24782.23
416.1379, 24779.14
416.6200, 24783.67
417.1021, 24779.45
417.5842, 24754.40
418.0663, 24746.12
418.5485, 24795.41
419.0306, 24875.21
419.5127, 24934.85
419.9948, 24942.59
420.4769, 24936.15
420.9590, 24925.87
421.4412, 24909.36
421.9233, 24913.12
422.4054, 24959.82
422.8875, 25020.04
423.3696, 25067.81
423.8517, 25096.23
424.3339, 25114.30
424.8160, 25114.25
425.2981, 25100.63
425.7802, 25107.42
426.2623, 25159.63
426.7444, 25204.98
427.2266, 25215.11
427.7087, 25171.28
428.1908, 25140.63
428.6729, 25127.40
429.1550, 25125.49
429.6371, 25124.29
430.1193, 25124.76
430.6014, 25124.58
431.0835, 25120.10
431.5656, 25112.97
432.0477, 25123.97
432.5298, 25156.72
433.0119, 25192.27
433.4940, 25205.94
433.9762, 25201.97
434.4583, 25212.32
434.9404, 25251.57
435.4225, 25299.96
435.9046, 25322.39
436.3867, 25320.63
436.8689, 25310.58
437.3510, 25287.63
437.8331, 25267.07
438.3152, 25275.06
438.7973, 25318.87
439.2794, 25371.50
439.7616, 25405.32
440.2437, 25432.94
440.7258, 25477.21
441.2079, 25598.30
441.6900, 25696.84
442.1721, 25694.88
442.6543, 25593.46
443.1364, 25508.49
443.6185, 25476.33
444.1006, 25482.36
444.5827, 25515.51
445.0648, 25629.24
445.5470, 25704.14
446.0291, 25713.32
446.5112, 25670.79
446.9933, 25619.66
447.4754, 25546.75
447.9576, 25482.05
448.4397, 25431.99
448.9218, 25393.32
449.4039, 25389.91
449.8860, 25440.66
450.3681, 25508.34
450.8503, 25546.55
451.3324, 25544.43
451.8145, 25552.15
452.2966, 25585.33
452.7787, 25635.63
453.2608, 25661.74
453.7430, 25660.44
454.2251, 25653.57
454.7072, 25651.31
455.1893, 25654.74
455.6714, 25677.65
456.1535, 25727.40
456.6357, 25777.70
457.1178, 25787.52
457.5999, 25765.90
458.0820, 25747.10
458.5641, 25749.20
459.0462, 25763.17
459.5284, 25781.48
460.0105, 25803.76
460.4926, 25821.75
460.9747, 25824.85
461.4568, 25822.91
461.9389, 25826.31
462.4211, 25837.09
462.9032, 25855.01
463.3853, 25884.61
463.8674, 25921.46
464.3495, 25953.81
464.8316, 25980.22
465.3138, 25998.90
465.7959, 26005.26
466.2780, 25990.94
466.7601, 25990.88
467.2422, 26021.45
467.7243, 26059.45
468.2065, 26081.10
468.6886, 26071.21
469.1707, 26071.55
469.6528, 26090.24
470.1349, 26124.79
470.6170, 26163.73
471.0992, 26213.70
471.5813, 26253.21
472.0634, 26264.59
472.5455, 26246.42
473.0276, 26236.83
473.5097, 26237.69
473.9918, 26246.80
474.4739, 26266.05
474.9561, 26293.57
475.4382, 26312.24
475.9203, 26307.09
476.4024, 26292.77
476.8845, 26294.28
477.3666, 26311.41
477.8488, 26344.64
478.3309, 26427.36
478.8130, 26515.39
479.2951, 26536.89
479.7772, 26452.48
480.2593, 26366.59
480.7415, 26346.90
481.2236, 26374.74
481.7057, 26415.09
482.1878, 26482.25
482.6699, 26535.00
483.1520, 26543.55
483.6342, 26504.67
484.1163, 26483.25
484.5984, 26512.79
485.0805, 26551.70
485.5626, 26569.42
486.0447, 26546.89
486.5269, 26530.69
487.0090, 26522.87
487.4911, 26522.64
487.9732, 26529.03
488.4553, 26546.77
488.9374, 26560.78
489.4196, 26561.10
489.9017, 26546.92
490.3838, 26558.07
490.8659, 26601.93
491.3480, 26646.46
491.8301, 26650.61
492.3123, 26618.97
492.7944, 26603.74
493.2765, 26618.34
493.7586, 26649.49
494.2407, 26680.11
494.7228, 26709.49
495.2050, 26734.36
495.6871, 26753.59
496.1692, 26767.60
496.6513, 26772.95
497.1334, 26769.10
497.6155, 26772.02
498.0977, 26802.30
498.5798, 26841.92
499.0619, 26870.71
499.5440, 26869.63
500.0261, 26869.53
500.5082, 26883.64
500.9904, 26907.13
501.4725, 26923.57
501.9546, 26924.44
502.4367, 26921.31
502.9188, 26914.47
503.4009, 26896.23
503.8831, 26901.52
504.3652, 26941.53
504.8473, 26994.28
505.3294, 27040.76
505.8115, 27084.90
506.2936, 27109.00
506.7758, 27104.45
507.2579, 27081.78
507.7400, 27075.18
508.2221, 27086.64
508.7042, 27100.71
509.1863, 27110.89
509.6685, 27117.18
510.1506, 27115.64
510.6327, 27104.88
511.1148, 27096.53
511.5969, 27101.27
512.0790, 27116.99
512.5612, 27140.18
513.0433, 27176.01
513.5254, 27210.29
514.0075, 27225.85
514.4896, 27228.08
514.9717, 27236.14
515.4539, 27264.66
515.9360, 27297.55
516.4181, 27326.30
516.9002, 27350.43
517.3823, 27370.11
517.8644, 27387.05
518.3466, 27399.94
518.8287, 27407.19
519.3108, 27404.51
519.7929, 27402.79
520.2750, 27400.65
520.7571, 27400.01
521.2393, 27408.50
521.7214, 27426.89
522.2035, 27450.49
522.6856, 27481.19
523.1677, 27518.64
523.6498, 27532.50
524.1320, 27516.99
524.6141, 27496.33
525.0962, 27504.25
525.5783, 27532.98
526.0604, 27543.24
526.5425, 27521.07
527.0247, 27484.06
527.5068, 27451.86
527.9889, 27424.89
528.4710, 27403.43
528.9531, 27394.21
529.4352, 27388.11
529.9174, 27377.44
530.3995, 27362.23
530.8816, 27347.02
531.3637, 27335.96
531.8458, 27325.57
532.3279, 27312.54
532.8101, 27281.38
533.2922, 27265.53
533.7743, 27275.14
534.2564, 27302.76
534.7385, 27329.88
535.2206, 27354.36
535.7027, 27380.01
536.1848, 27407.06
536.6669, 27435.30
537.1490, 27467.22
537.6312, 27505.77
538.1133, 27540.78
538.5954, 27564.39
539.0775, 27576.77
539.5596, 27577.22
540.0417, 27560.63
540.5239, 27545.45
541.0060, 27570.07
541.4881, 27624.29
541.9702, 27665.91
542.4523, 27661.47
542.9344, 27642.54
543.4166, 27637.01
543.8987, 27645.94
544.3808, 27679.08
544.8629, 27775.63
545.3450, 27877.61
545.8271, 27933.72
546.3093, 27915.63
546.7914, 27898.74
547.2735, 27906.13
547.7556, 27924.66
548.2377, 27936.54
548.7198, 27942.67
549.2020, 27938.41
549.6841, 27916.85
550.1662, 27882.67
550.6483, 27865.89
551.1304, 27872.81
551.6125, 27884.19
552.0947, 27887.40
552.5768, 27882.16
553.0589, 27900.96
553.5410, 27951.57
554.0231, 27999.36
554.5052, 27998.85
554.9874, 27959.77
555.4695, 27919.56
555.9516, 27884.52
556.4337, 27857.86
556.9158, 27837.56
557.3979, 27827.87
557.8801, 27842.45
558.3622, 27919.19
558.8443, 27999.42
559.3264, 28033.61
559.8085, 28016.37
560.2906, 28012.06
560.7728, 28059.24
561.2549, 28116.51
561.7370, 28153.19
562.2191, 28152.17
562.7012, 28148.13
563.1833, 28140.42
563.6655, 28129.80
564.1476, 28114.42
564.6297, 28084.90
565.1118, 28075.10
565.5939, 28100.31
566.0760, 28152.98
566.5582, 28188.98
567.0403, 28208.20
567.5224, 28217.95
568.0045, 28218.81
568.4866, 28214.75
568.9688, 28221.84
569.4509, 28244.61
569.9330, 28260.15
570.4151, 28237.06
570.8972, 28194.44
571.3793, 28162.79
571.8615, 28152.45
572.3436, 28156.50
572.8257, 28176.74
573.3078, 28209.04
573.7899, 28242.21
574.2720, 28285.13
574.7542, 28316.27
575.2363, 28318.10
575.7184, 28282.71
576.2005, 28275.85
576.6826, 28317.13
577.1647, 28364.83
577.6469, 28387.88
578.1290, 28379.09
578.6111, 28372.10
579.0932, 28364.96
579.5753, 28367.33
580.0574, 28406.28
580.5396, 28478.13
581.0217, 28531.88
581.5038, 28542.52
581.9859, 28527.68
582.4680, 28506.48
582.9501, 28483.15
583.4323, 28481.67
583.9144, 28546.39
584.3965, 28623.64
584.8786, 28658.59
585.3607, 28640.07
585.8428, 28620.49
586.3250, 28621.63
586.8071, 28632.71
587.2892, 28643.83
587.7713, 28665.98
588.2534, 28672.15
588.7355, 28647.60
589.2177, 28609.46
589.6998, 28596.30
590.1819, 28615.78
590.6640, 28639.69
591.1461, 28656.95
591.6282, 28669.66
592.1104, 28703.42
592.5925, 28761.41
593.0746, 28806.81
593.5567, 28802.79
594.0388, 28764.03
594.5209, 28731.23
595.0031, 28707.23
595.4852, 28696.16
595.9673, 28718.86
596.4494, 28753.10
596.9315, 28763.95
597.4136, 28722.42
597.8958, 28678.63
598.3779, 28662.79
598.8600, 28663.22
599.3421, 28649.71
599.8242, 28581.89
600.3063, 28534.87
600.7885, 28542.73
601.2706, 28606.48
601.7527, 28640.65
602.2348, 28627.80
602.7169, 28614.18
603.1990, 28635.40
603.6812, 28696.37
604.1633, 28734.01
604.6454, 28741.74
605.1275, 28737.61
605.6096, 28737.65
606.0917, 28743.75
606.5739, 28767.28
607.0560, 28823.46
607.5381, 28879.92
608.0202, 28889.54
608.5023, 28867.89
608.9844, 28861.36
609.4666, 28917.57
609.9487, 28973.27
610.4308, 28983.07
610.9129, 28945.16
611.3950, 28924.89
611.8771, 28962.83
612.3593, 29001.28
612.8414, 29004.91
613.3235, 28949.69
613.8056, 28928.41
614.2877, 28956.30
614.7698, 29000.85
615.2520, 29021.86
615.7341, 29018.21
616.2162, 29014.20
616.6983, 29014.97
617.1804, 29019.17
617.6625, 29020.68
618.1446, 29021.89
618.6267, 29033.65
619.1088, 29074.21
619.5909, 29120.11
620.0731, 29137.51
620.5552, 29129.47
621.0373, 29137.68
621.5194, 29200.69
622.0015, 29272.96
622.4836, 29321.92
622.9658, 29333.10
623.4479, 29347.45
623.9300, 29379.93
624.4121, 29409.00
624.8942, 29410.70
625.3763, 29367.11
625.8585, 29344.86
626.3406, 29356.89
626.8227, 29388.61
627.3048, 29415.08
627.7869, 29437.13
628.2690, 29444.82
628.7512, 29433.14
629.2333, 29407.95
629.7154, 29380.88
630.1975, 29352.15
630.6796, 29315.01
631.1617, 29252.16
631.6439, 29189.49
632.1260, 29156.37
632.6081, 29161.00
633.0902, 29156.26
633.5723, 29125.21
634.0544, 29077.39
634.5366, 29019.40
635.0187, 28927.38
635.5008, 28858.96
635.9829, 28822.46
636.4650, 28801.77
636.9471, 28766.70
637.4293, 28708.35
637.9114, 28668.77
638.3935, 28659.62
638.8756, 28671.81
639.3577, 28679.65
639.8398, 28684.23
640.3220, 28705.11
640.8041, 28768.47
641.2862, 28846.10
641.7683, 28900.49
642.2504, 28930.43
642.7325, 28954.01
643.2147, 28981.97
643.6968, 29007.31
644.1789, 29022.28
644.6610, 29019.59
645.1431, 29025.26
645.6252, 29053.70
646.1074, 29087.06
646.5895, 29109.91
647.0716, 29121.99
647.5537, 29122.24
648.0358, 29102.71
648.5179, 29080.37
649.0001, 29092.34
649.4822, 29138.61
649.9643, 29195.57
