##NAMES=Buddingtonite
##RRUFFID=R061115
##IDEAL CHEMISTRY=(N^3-^H_4_)AlSi_3_O_8_
##LOCALITY=Sharon Heights, Menlo Park, Santa Clara County, California, USA
##OWNER=RRUFF
##SOURCE=Michael Scott
##DESCRIPTION=Grey fine-grained massive
##STATUS=The identification of this mineral has been confirmed by X-ray diffraction.
##URL=rruff.info/R061115
193.6272, 83302.83
194.1093, 83472.87
194.5914, 83628.59
195.0736, 83743.30
195.5557, 83825.75
196.0378, 83937.70
196.5199, 84102.59
197.0020, 84288.86
197.4841, 84475.95
197.9663, 84662.59
198.4484, 84827.92
198.9305, 84954.72
199.4126, 85046.75
199.8947, 85127.07
200.3768, 85185.24
200.8590, 85249.77
201.3411, 85342.76
201.8232, 85460.84
202.3053, 85584.37
202.7874, 85709.45
203.2695, 85832.31
203.7517, 85932.70
204.2338, 85993.52
204.7159, 86053.90
205.1980, 86184.80
205.6801, 86349.88
206.1622, 86425.04
206.6444, 86250.13
207.1265, 85912.69
207.6086, 85763.34
208.0907, 85907.26
208.5728, 86081.26
209.0549, 86110.38
209.5371, 86047.85
210.0192, 86011.91
210.5013, 86096.68
210.9834, 86248.88
211.4655, 86291.54
211.9476, 86141.80
212.4298, 86055.86
212.9119, 86238.42
213.3940, 86561.76
213.8761, 86815.45
214.3582, 86883.67
214.8403, 86840.77
215.3225, 86837.68
215.8046, 86880.29
216.2867, 86948.27
216.7688, 87043.40
217.2509, 87153.68
217.7330, 87266.00
218.2152, 87376.95
218.6973, 87485.98
219.1794, 87597.08
219.6615, 87715.55
220.1436, 87815.30
220.6257, 87869.85
221.1079, 87905.91
221.5900, 87948.52
222.0721, 88006.35
222.5542, 88066.88
223.0363, 88120.43
223.5184, 88170.76
224.0006, 88190.12
224.4827, 88121.46
224.9648, 88043.02
225.4469, 88028.60
225.9290, 88098.23
226.4111, 88187.36
226.8933, 88223.66
227.3754, 88204.24
227.8575, 88200.72
228.3396, 88244.39
228.8217, 88301.03
229.3038, 88344.38
229.7859, 88371.94
230.2681, 88392.09
230.7502, 88399.62
231.2323, 88397.64
231.7144, 88432.94
232.1965, 88550.07
232.6786, 88667.56
233.1608, 88714.59
233.6429, 88696.37
234.1250, 88676.64
234.6071, 88693.15
235.0892, 88741.80
235.5714, 88806.41
236.0535, 88901.44
236.5356, 88986.91
237.0177, 89020.88
237.4998, 89018.91
237.9819, 89035.75
238.4641, 89130.10
238.9462, 89261.01
239.4283, 89310.35
239.9104, 89235.27
240.3925, 89172.71
240.8746, 89254.33
241.3568, 89413.42
241.8389, 89519.48
242.3210, 89485.45
242.8031, 89391.78
243.2852, 89372.04
243.7673, 89442.90
244.2495, 89509.38
244.7316, 89492.57
245.2137, 89442.86
245.6958, 89439.54
246.1779, 89529.93
246.6600, 89634.77
247.1422, 89659.45
247.6243, 89602.05
248.1064, 89557.85
248.5885, 89572.12
249.0706, 89623.03
249.5527, 89679.87
250.0349, 89750.16
250.5170, 89802.98
250.9991, 89801.59
251.4812, 89755.81
251.9633, 89725.39
252.4454, 89725.15
252.9276, 89755.94
253.4097, 89826.84
253.8918, 89948.62
254.3739, 90044.02
254.8560, 90050.61
255.3381, 90002.28
255.8203, 89986.41
256.3024, 90027.62
256.7845, 90093.20
257.2666, 90142.69
257.7487, 90176.89
258.2308, 90223.27
258.7130, 90293.45
259.1951, 90379.14
259.6772, 90487.48
260.1593, 90627.07
260.6414, 90723.97
261.1235, 90678.07
261.6057, 90507.74
262.0878, 90397.09
262.5699, 90403.55
263.0520, 90453.98
263.5341, 90494.78
264.0162, 90522.40
264.4984, 90536.81
264.9805, 90530.55
265.4626, 90510.63
265.9447, 90516.86
266.4268, 90586.18
266.9089, 90644.80
267.3911, 90643.74
267.8732, 90598.91
268.3553, 90557.29
268.8374, 90538.97
269.3195, 90543.03
269.8016, 90572.27
270.2838, 90660.61
270.7659, 90717.01
271.2480, 90691.13
271.7301, 90625.39
272.2122, 90584.59
272.6943, 90591.13
273.1765, 90625.16
273.6586, 90654.71
274.1407, 90684.07
274.6228, 90698.01
275.1049, 90673.52
275.5870, 90646.15
276.0692, 90647.31
276.5513, 90682.58
277.0334, 90741.16
277.5155, 90814.46
277.9976, 90908.31
278.4797, 90989.19
278.9619, 91053.61
279.4440, 91109.92
279.9261, 91154.22
280.4082, 91192.78
280.8903, 91247.30
281.3724, 91341.71
281.8546, 91471.76
282.3367, 91523.23
282.8188, 91416.74
283.3009, 91323.63
283.7830, 91272.07
284.2651, 91263.90
284.7473, 91305.59
285.2294, 91402.62
285.7115, 91532.17
286.1936, 91624.77
286.6757, 91675.13
287.1578, 91689.27
287.6400, 91649.81
288.1221, 91586.99
288.6042, 91524.86
289.0863, 91470.94
289.5684, 91420.94
290.0505, 91365.33
290.5327, 91293.35
291.0148, 91246.23
291.4969, 91245.95
291.9790, 91250.94
292.4611, 91235.38
292.9432, 91201.66
293.4254, 91172.32
293.9075, 91174.23
294.3896, 91207.98
294.8717, 91208.87
295.3538, 91128.41
295.8359, 91071.05
296.3181, 91096.06
296.8002, 91167.52
297.2823, 91216.48
297.7644, 91197.98
298.2465, 91139.30
298.7286, 91116.14
299.2108, 91139.02
299.6929, 91173.01
300.1750, 91214.23
300.6571, 91256.13
301.1392, 91288.72
301.6213, 91306.96
302.1035, 91328.57
302.5855, 91382.75
303.0677, 91471.88
303.5498, 91543.72
304.0319, 91586.27
304.5140, 91603.65
304.9961, 91593.59
305.4782, 91556.45
305.9604, 91522.59
306.4425, 91517.60
306.9246, 91531.13
307.4067, 91525.84
307.8888, 91485.37
308.3709, 91453.98
308.8531, 91490.20
309.3352, 91571.87
309.8173, 91626.95
310.2994, 91619.51
310.7815, 91585.41
311.2636, 91568.89
311.7458, 91570.63
312.2279, 91557.88
312.7100, 91508.34
313.1921, 91428.50
313.6742, 91347.16
314.1563, 91242.52
314.6385, 91164.09
315.1206, 91153.63
315.6027, 91187.77
316.0848, 91210.58
316.5669, 91201.37
317.0490, 91170.44
317.5312, 91132.82
318.0133, 91075.33
318.4954, 91044.96
318.9775, 91073.17
319.4596, 91117.24
319.9417, 91129.56
320.4239, 91104.86
320.9060, 91077.81
321.3881, 91085.20
321.8702, 91132.67
322.3523, 91175.63
322.8344, 91219.47
323.3166, 91254.23
323.7987, 91270.96
324.2808, 91274.81
324.7629, 91273.81
325.2450, 91270.41
325.7271, 91271.77
326.2093, 91313.58
326.6914, 91478.67
327.1735, 91578.18
327.6556, 91540.27
328.1377, 91456.29
328.6198, 91428.85
329.1020, 91486.89
329.5841, 91561.50
330.0662, 91536.88
330.5483, 91364.27
331.0304, 91247.02
331.5125, 91212.13
331.9947, 91216.23
332.4768, 91261.38
332.9589, 91332.52
333.4410, 91391.48
333.9231, 91412.05
334.4052, 91395.36
334.8874, 91340.02
335.3695, 91207.55
335.8516, 91103.57
336.3337, 91080.86
336.8158, 91107.55
337.2979, 91143.64
337.7801, 91180.74
338.2622, 91209.59
338.7443, 91220.32
339.2264, 91213.18
339.7085, 91179.43
340.1906, 91086.29
340.6728, 90990.57
341.1549, 90965.86
341.6370, 91022.05
342.1191, 91066.06
342.6012, 91020.69
343.0833, 90928.97
343.5655, 90901.29
344.0476, 90967.68
344.5297, 91040.55
345.0118, 91020.41
345.4939, 90921.26
345.9760, 90874.27
346.4582, 90951.52
346.9403, 91039.89
347.4224, 91041.34
347.9045, 90971.10
348.3866, 90907.14
348.8687, 90887.80
349.3509, 90911.19
349.8330, 90976.42
350.3151, 91155.01
350.7972, 91272.96
351.2793, 91268.88
351.7614, 91201.97
352.2436, 91125.84
352.7257, 91058.88
353.2078, 91018.86
353.6899, 91037.77
354.1720, 91151.95
354.6541, 91193.55
355.1363, 91105.75
355.6184, 91012.62
356.1005, 90987.03
356.5826, 91008.09
357.0647, 91007.33
357.5468, 90933.30
358.0290, 90805.29
358.5111, 90722.83
358.9932, 90694.13
359.4753, 90702.86
359.9574, 90782.65
360.4395, 90873.79
360.9217, 90924.01
361.4038, 90917.94
361.8859, 90863.11
362.3680, 90739.87
362.8501, 90539.32
363.3322, 90416.73
363.8144, 90434.08
364.2965, 90491.67
364.7786, 90536.46
365.2607, 90566.62
365.7428, 90581.09
366.2249, 90566.91
366.7071, 90540.28
367.1892, 90536.12
367.6713, 90558.46
368.1534, 90573.71
368.6355, 90555.85
369.1176, 90521.58
369.5998, 90505.73
370.0819, 90514.13
370.5640, 90533.48
371.0461, 90567.23
371.5282, 90606.07
372.0103, 90625.05
372.4925, 90615.02
372.9746, 90595.03
373.4567, 90591.23
373.9388, 90609.95
374.4209, 90615.28
374.9030, 90598.09
375.3852, 90573.24
375.8673, 90539.96
376.3494, 90505.89
376.8315, 90497.55
377.3136, 90538.32
377.7957, 90614.50
378.2779, 90644.91
378.7600, 90597.50
379.2421, 90538.66
379.7242, 90446.98
380.2063, 90360.66
380.6884, 90334.52
381.1706, 90376.70
381.6527, 90425.97
382.1348, 90393.45
382.6169, 90258.04
383.0990, 90141.01
383.5811, 90025.16
384.0633, 89948.05
384.5454, 89948.51
385.0275, 90000.31
385.5096, 90043.95
385.9917, 90044.16
386.4738, 90018.61
386.9560, 90001.64
387.4381, 89992.01
387.9202, 89998.04
388.4023, 90036.67
388.8844, 90084.78
389.3665, 90121.08
389.8487, 90144.97
390.3308, 90149.06
390.8129, 90107.30
391.2950, 90044.61
391.7771, 90029.20
392.2592, 90080.67
392.7414, 90132.91
393.2235, 90119.63
393.7056, 90044.01
394.1877, 89987.77
394.6698, 89955.13
395.1519, 89941.09
395.6341, 89945.89
396.1162, 89966.97
396.5983, 90005.96
397.0804, 90066.91
397.5625, 90128.09
398.0446, 90139.14
398.5268, 90060.43
399.0089, 89991.89
399.4910, 89931.41
399.9731, 89882.56
400.4552, 89862.85
400.9373, 89862.81
401.4194, 89841.13
401.9016, 89751.67
402.3837, 89604.45
402.8658, 89531.44
403.3479, 89607.81
403.8300, 89653.43
404.3121, 89603.21
404.7943, 89510.06
405.2764, 89429.81
405.7585, 89379.40
406.2406, 89350.40
406.7227, 89337.20
407.2048, 89339.52
407.6870, 89343.39
408.1691, 89349.36
408.6512, 89352.59
409.1333, 89345.75
409.6154, 89332.01
410.0975, 89324.55
410.5797, 89346.88
411.0618, 89365.60
411.5439, 89326.62
412.0260, 89237.75
412.5081, 89178.34
412.9902, 89194.98
413.4724, 89257.45
413.9545, 89285.36
414.4366, 89259.43
414.9187, 89249.02
415.4008, 89284.91
415.8829, 89332.13
416.3651, 89354.77
416.8472, 89348.63
417.3293, 89332.40
417.8114, 89325.80
418.2935, 89329.10
418.7756, 89296.91
419.2578, 89175.55
419.7399, 89079.03
420.2220, 89044.45
420.7041, 89042.32
421.1862, 89031.77
421.6683, 88998.73
422.1505, 88968.27
422.6326, 88998.24
423.1147, 89108.76
423.5968, 89122.43
424.0789, 88922.53
424.5610, 88732.20
425.0432, 88700.26
425.5253, 88782.65
426.0074, 88847.69
426.4895, 88831.58
426.9716, 88770.59
427.4537, 88703.69
427.9359, 88631.19
428.4180, 88583.38
428.9001, 88580.07
429.3822, 88600.34
429.8643, 88607.11
430.3464, 88598.02
430.8286, 88588.43
431.3107, 88590.08
431.7928, 88588.71
432.2749, 88565.12
432.7570, 88519.72
433.2391, 88470.98
433.7213, 88431.90
434.2034, 88402.09
434.6855, 88379.34
435.1676, 88368.11
435.6497, 88358.67
436.1318, 88365.40
436.6140, 88365.23
437.0961, 88321.07
437.5782, 88229.71
438.0603, 88140.00
438.5424, 88124.51
439.0245, 88193.59
439.5067, 88204.54
439.9888, 88096.57
440.4709, 88009.33
440.9530, 88030.19
441.4351, 88103.97
441.9172, 88130.28
442.3994, 88055.13
442.8815, 87962.55
443.3636, 87971.65
443.8457, 88065.30
444.3278, 88084.73
444.8099, 87955.91
445.2921, 87797.56
445.7742, 87769.52
446.2563, 87864.59
446.7384, 87932.44
447.2205, 87951.79
447.7026, 87931.05
448.1848, 87841.83
448.6669, 87712.16
449.1490, 87636.70
449.6311, 87669.70
450.1132, 87766.21
450.5953, 87809.10
451.0775, 87762.22
451.5596, 87713.24
452.0417, 87644.19
452.5238, 87587.29
453.0059, 87573.25
453.4880, 87594.98
453.9702, 87620.52
454.4523, 87631.05
454.9344, 87623.19
455.4165, 87571.84
455.8986, 87444.40
456.3807, 87354.05
456.8629, 87394.41
457.3450, 87457.24
457.8271, 87437.46
458.3092, 87317.51
458.7913, 87200.48
459.2734, 87155.94
459.7556, 87159.89
460.2377, 87164.87
460.7198, 87166.33
461.2019, 87166.81
461.6840, 87172.73
462.1661, 87178.72
462.6483, 87158.92
463.1304, 87078.05
463.6125, 87016.30
464.0946, 86994.43
464.5767, 87004.84
465.0588, 87052.86
465.5410, 87133.62
466.0231, 87207.59
466.5052, 87228.88
466.9873, 87193.22
467.4694, 87163.65
467.9515, 87171.48
468.4337, 87147.98
468.9158, 87043.66
469.3979, 86911.41
469.8800, 86821.50
470.3621, 86797.02
470.8442, 86801.02
471.3264, 86795.40
471.8085, 86780.48
472.2906, 86759.23
472.7727, 86729.76
473.2548, 86698.54
473.7369, 86686.14
474.2191, 86678.12
474.7012, 86628.42
475.1833, 86463.48
475.6654, 86320.87
476.1475, 86333.30
476.6296, 86434.23
477.1118, 86452.34
477.5939, 86328.66
478.0760, 86173.16
478.5581, 86144.31
479.0402, 86298.48
479.5223, 86337.60
480.0045, 86150.65
480.4866, 85982.10
480.9687, 85942.08
481.4508, 85986.71
481.9329, 86030.38
482.4150, 86035.06
482.8972, 86026.49
483.3793, 86063.70
483.8614, 86163.46
484.3435, 86182.89
484.8256, 86034.68
485.3077, 85885.47
485.7899, 85845.63
486.2720, 85889.77
486.7541, 85940.16
487.2362, 85962.97
487.7183, 85987.44
488.2004, 86078.34
488.6826, 86206.23
489.1647, 86224.26
489.6468, 86063.16
490.1289, 85848.15
490.6110, 85756.48
491.0931, 85830.33
491.5753, 85873.96
492.0574, 85882.26
492.5395, 85866.03
493.0216, 85811.04
493.5037, 85738.66
493.9858, 85695.95
494.4680, 85706.20
494.9501, 85729.48
495.4322, 85678.32
495.9143, 85522.20
496.3964, 85417.43
496.8785, 85426.84
497.3607, 85440.54
497.8428, 85399.54
498.3249, 85318.28
498.8070, 85236.20
499.2891, 85160.38
499.7712, 85103.10
500.2533, 85080.98
500.7354, 85091.27
501.2176, 85125.63
501.6997, 85192.67
502.1818, 85252.27
502.6639, 85248.34
503.1460, 85168.16
503.6281, 85106.76
504.1103, 85065.20
504.5924, 85043.84
505.0745, 85044.07
505.5566, 85064.52
506.0387, 85116.18
506.5208, 85202.92
507.0030, 85282.52
507.4851, 85269.03
507.9672, 85124.80
508.4493, 85041.50
508.9314, 85042.41
509.4135, 85087.08
509.8957, 85209.80
510.3778, 85354.42
510.8599, 85407.96
511.3420, 85306.11
511.8241, 85155.16
512.3063, 85048.72
512.7884, 84985.47
513.2705, 84966.07
513.7526, 84997.23
514.2347, 85047.43
514.7169, 85097.98
515.1990, 85147.81
515.6811, 85139.33
516.1632, 85023.81
516.6453, 84905.92
517.1274, 84824.03
517.6096, 84766.25
518.0917, 84713.78
518.5738, 84660.88
519.0559, 84611.23
519.5380, 84569.81
520.0201, 84537.16
520.5023, 84506.89
520.9844, 84479.27
521.4665, 84453.87
521.9486, 84452.19
522.4307, 84443.94
522.9128, 84372.42
523.3950, 84208.29
523.8771, 84070.62
524.3592, 84083.56
524.8413, 84184.44
525.3234, 84213.30
525.8055, 84145.39
526.2877, 84079.02
526.7698, 84093.87
527.2519, 84172.53
527.7340, 84196.27
528.2161, 84131.12
528.6982, 84064.45
529.1804, 84004.40
529.6625, 83952.27
530.1446, 83913.18
530.6267, 83884.82
531.1088, 83855.24
531.5909, 83811.18
532.0731, 83759.29
532.5552, 83736.25
533.0373, 83759.25
533.5194, 83763.80
534.0015, 83722.13
534.4836, 83658.20
534.9658, 83580.05
535.4479, 83489.52
535.9300, 83430.14
536.4121, 83444.37
536.8942, 83485.05
537.3763, 83505.87
537.8585, 83503.78
538.3406, 83470.91
538.8227, 83397.72
539.3048, 83312.71
539.7869, 83279.98
540.2690, 83355.73
540.7512, 83355.91
541.2333, 83193.22
541.7154, 83046.98
542.1975, 83027.72
542.6796, 83092.91
543.1617, 83149.55
543.6439, 83155.09
544.1260, 83123.20
544.6081, 83050.66
545.0902, 82939.31
545.5723, 82902.36
546.0544, 82984.55
546.5366, 83093.59
547.0187, 83182.65
547.5008, 83240.16
547.9829, 83216.66
548.4650, 83017.33
548.9471, 82835.16
549.4292, 82789.41
549.9113, 82806.63
550.3934, 82770.45
550.8755, 82659.09
551.3577, 82543.20
551.8398, 82494.25
552.3219, 82509.48
552.8040, 82515.73
553.2861, 82500.65
553.7682, 82496.11
554.2504, 82522.45
554.7325, 82552.58
555.2146, 82560.39
555.6967, 82543.21
556.1788, 82520.91
556.6609, 82490.95
557.1431, 82470.63
557.6252, 82513.38
558.1073, 82615.35
558.5894, 82667.02
559.0715, 82607.84
559.5536, 82486.91
560.0358, 82395.15
560.5179, 82339.63
561.0000, 82297.88
561.4821, 82278.05
561.9642, 82263.76
562.4464, 82253.23
562.9285, 82239.83
563.4106, 82211.18
563.8927, 82161.19
564.3748, 82101.41
564.8569, 82051.13
565.3391, 82011.11
565.8212, 81957.99
566.3033, 81878.36
566.7854, 81805.78
567.2675, 81763.50
567.7496, 81745.09
568.2318, 81742.30
568.7139, 81774.63
569.1960, 81786.85
569.6781, 81730.83
570.1602, 81650.17
570.6423, 81606.70
571.1245, 81606.20
571.6066, 81609.23
572.0887, 81583.00
572.5708, 81535.09
573.0529, 81506.56
573.5350, 81499.35
574.0172, 81508.16
574.4993, 81559.88
574.9814, 81604.23
575.4635, 81606.33
575.9456, 81568.41
576.4277, 81512.12
576.9099, 81420.07
577.3920, 81340.90
577.8741, 81355.46
578.3562, 81442.72
578.8383, 81506.23
579.3204, 81517.36
579.8026, 81488.73
580.2847, 81427.78
580.7668, 81327.30
581.2489, 81257.91
581.7310, 81239.45
582.2131, 81223.85
582.6953, 81206.87
583.1774, 81180.77
583.6595, 81125.79
584.1416, 81043.24
584.6237, 80975.24
585.1058, 80968.66
585.5880, 81010.36
586.0701, 81058.78
586.5522, 81121.05
587.0343, 81143.74
587.5164, 81099.80
587.9985, 81007.29
588.4807, 80878.58
588.9628, 80696.25
589.4449, 80577.34
589.9270, 80587.62
590.4091, 80623.91
590.8912, 80628.18
591.3734, 80602.79
591.8555, 80564.05
592.3376, 80518.84
592.8197, 80466.07
593.3018, 80394.88
593.7839, 80300.42
594.2661, 80249.70
594.7482, 80263.57
595.2303, 80287.63
595.7124, 80305.86
596.1945, 80312.80
596.6766, 80297.45
597.1588, 80254.82
597.6409, 80203.52
598.1230, 80133.87
598.6051, 80071.16
599.0872, 80064.32
599.5693, 80100.48
600.0515, 80098.05
600.5336, 80003.77
601.0157, 79871.27
601.4978, 79839.21
601.9799, 79963.63
602.4620, 80035.99
602.9442, 79999.62
603.4263, 79957.81
603.9084, 79961.58
604.3905, 79991.55
604.8726, 80007.04
605.3547, 79995.70
605.8369, 79968.05
606.3190, 79941.06
606.8011, 79901.33
607.2832, 79794.69
607.7653, 79620.49
608.2474, 79496.59
608.7296, 79517.96
609.2117, 79641.45
609.6938, 79687.38
610.1759, 79603.91
610.6580, 79526.68
611.1401, 79463.45
611.6223, 79405.52
612.1044, 79339.27
612.5865, 79274.24
613.0686, 79238.35
613.5507, 79251.73
614.0328, 79279.68
614.5150, 79293.23
614.9971, 79288.73
615.4792, 79234.12
615.9613, 79116.03
616.4434, 79032.27
616.9255, 79082.34
617.4077, 79236.45
617.8898, 79282.89
618.3719, 79084.91
618.8540, 78967.08
619.3361, 79019.07
619.8182, 79106.92
620.3004, 79144.33
620.7825, 79123.97
621.2646, 79061.69
621.7467, 78949.95
622.2288, 78834.44
622.7109, 78793.75
623.1931, 78819.52
623.6752, 78842.08
624.1573, 78848.39
624.6394, 78846.70
625.1215, 78844.58
625.6036, 78841.13
626.0858, 78827.05
626.5679, 78810.72
627.0500, 78773.92
627.5321, 78696.48
628.0142, 78609.80
628.4963, 78535.49
628.9785, 78477.66
629.4606, 78437.33
629.9427, 78416.24
630.4248, 78410.32
630.9069, 78423.68
631.3890, 78454.37
631.8712, 78443.82
632.3533, 78364.15
632.8354, 78286.08
633.3175, 78281.34
633.7996, 78339.18
634.2817, 78352.77
634.7639, 78297.69
635.2460, 78232.25
635.7281, 78171.31
636.2102, 78104.40
636.6923, 78003.38
637.1744, 77882.45
637.6566, 77800.26
638.1387, 77801.64
638.6208, 77847.49
639.1029, 77860.52
639.5850, 77840.97
640.0671, 77829.30
640.5493, 77842.34
641.0314, 77840.35
641.5135, 77781.84
641.9956, 77675.17
642.4777, 77588.92
642.9598, 77521.25
643.4420, 77476.20
643.9241, 77472.70
644.4062, 77479.09
644.8883, 77463.03
645.3704, 77428.49
645.8525, 77401.68
646.3347, 77397.88
646.8168, 77413.36
647.2989, 77464.78
647.7810, 77549.06
648.2631, 77536.56
648.7452, 77374.60
649.2274, 77205.80
649.7095, 77141.45
650.1916, 77164.08
650.6737, 77172.54
651.1558, 77139.12
651.6379, 77132.55
652.1201, 77226.21
652.6022, 77301.69
653.0843, 77223.97
653.5664, 77038.91
654.0485, 76906.44
654.5306, 76917.51
655.0128, 76996.10
655.4949, 77038.47
655.9770, 77044.55
656.4591, 76995.41
656.9412, 76866.41
657.4233, 76784.03
657.9055, 76870.26
658.3876, 77060.11
658.8697, 77109.23
659.3518, 76938.79
659.8339, 76785.58
660.3160, 76667.49
660.7982, 76576.14
661.2803, 76518.65
661.7624, 76480.96
662.2445, 76434.70
662.7266, 76366.73
663.2087, 76296.20
663.6909, 76242.86
664.1730, 76206.16
664.6551, 76185.63
665.1372, 76182.55
665.6193, 76179.88
666.1014, 76162.17
666.5836, 76145.92
667.0657, 76175.13
667.5478, 76302.48
668.0299, 76353.65
668.5120, 76270.22
668.9941, 76173.93
669.4763, 76127.70
669.9584, 76104.02
670.4405, 76043.73
670.9226, 75929.06
671.4047, 75829.23
671.8868, 75821.44
672.3690, 75867.16
672.8511, 75869.80
673.3332, 75830.06
673.8153, 75829.46
674.2974, 75913.21
674.7795, 76017.72
675.2617, 76040.13
675.7438, 75963.39
676.2259, 75890.46
676.7080, 75798.69
677.1901, 75737.61
677.6722, 75733.02
678.1544, 75758.22
678.6365, 75804.40
679.1186, 75862.52
679.6007, 75870.90
680.0828, 75741.10
680.5649, 75577.53
681.0471, 75532.85
681.5292, 75568.80
682.0113, 75544.04
682.4934, 75415.98
682.9755, 75262.26
683.4576, 75162.66
683.9398, 75116.59
684.4219, 75117.55
684.9040, 75207.67
685.3861, 75266.63
685.8682, 75244.13
686.3503, 75203.95
686.8325, 75202.59
687.3146, 75227.37
687.7967, 75210.28
688.2788, 75090.46
688.7609, 74971.97
689.2430, 74929.80
689.7252, 74929.33
690.2073, 74918.29
690.6894, 74890.15
691.1715, 74871.40
691.6536, 74884.64
