##NAMES=Bultfonteinite
##RRUFFID=R050088
##IDEAL CHEMISTRY=Ca_2_[SiO_3_(OH)]F&#183;H_2_O
##LOCALITY=N'Chwaning II mine, Kuruman, South Africa
##OWNER=RRUFF
##SOURCE=Rock Currier
##DESCRIPTION=Sprays of acicular white crystals associated with olmiite, R050144
##STATUS=The identification of this mineral is confirmed by single-crystal X-ray diffraction and chemical analysis.
##URL=rruff.info/R050088
##MEASURED CHEMISTRY=Ca_1.96_[Si_0.97_O_3_(OH)_1.00_]F_1.00_&#183;0.61H_2_O; OH estimated by charge balance; H_2_O by difference
139.7984, 449.4367
140.2805, 462.7074
140.7626, 470.2623
141.2447, 478.4118
141.7268, 490.0027
142.2089, 505.9503
142.6911, 516.6224
143.1732, 517.7279
143.6553, 516.5495
144.1374, 528.1315
144.6195, 559.7916
145.1016, 591.9013
145.5838, 616.3047
146.0659, 629.3437
146.5480, 642.6172
147.0301, 656.5152
147.5122, 670.7264
147.9943, 684.7067
148.4765, 699.5492
148.9586, 712.9644
149.4407, 724.0307
149.9228, 733.2627
150.4049, 739.3054
150.8870, 740.3106
151.3692, 736.3536
151.8513, 735.0327
152.3334, 738.1128
152.8155, 742.8889
153.2976, 747.3932
153.7797, 743.4082
154.2619, 747.2308
154.7440, 766.5383
155.2261, 805.6320
155.7082, 833.6154
156.1903, 838.5936
156.6724, 833.1778
157.1546, 832.1581
157.6367, 847.1588
158.1188, 859.3284
158.6009, 861.8265
159.0830, 851.9914
159.5652, 838.2944
160.0473, 820.5419
160.5294, 800.3071
161.0115, 780.9481
161.4936, 765.8437
161.9757, 750.1198
162.4579, 730.4788
162.9400, 702.6546
163.4221, 677.0867
163.9042, 657.1121
164.3863, 642.5839
164.8684, 632.9714
165.3506, 631.2872
165.8327, 632.9560
166.3148, 634.3472
166.7969, 634.7245
167.2790, 634.3015
167.7611, 631.2175
168.2433, 626.1517
168.7254, 624.9744
169.2075, 634.6216
169.6896, 648.9979
170.1717, 660.9141
170.6538, 667.7991
171.1360, 671.1542
171.6181, 669.1225
172.1002, 661.3881
172.5823, 658.3200
173.0644, 670.6397
173.5465, 692.6631
174.0287, 714.4067
174.5108, 732.4764
174.9929, 747.4070
175.4750, 759.4485
175.9571, 768.2832
176.4392, 776.1952
176.9214, 785.4327
177.4035, 795.4172
177.8856, 804.6827
178.3677, 810.0039
178.8498, 814.6378
179.3319, 824.3994
179.8141, 841.1180
180.2962, 860.2276
180.7783, 879.7328
181.2604, 898.2471
181.7425, 910.3999
182.2246, 907.6022
182.7068, 895.7256
183.1889, 888.3429
183.6710, 888.1518
184.1531, 893.2447
184.6352, 903.2868
185.1173, 917.9779
185.5995, 930.2019
186.0816, 931.5699
186.5637, 925.1069
187.0458, 922.2217
187.5279, 927.0037
188.0100, 936.1980
188.4922, 941.9078
188.9743, 943.9526
189.4564, 945.9338
189.9385, 952.7443
190.4206, 963.5037
190.9027, 971.3203
191.3849, 973.1456
191.8670, 970.5077
192.3491, 968.7195
192.8312, 967.6399
193.3133, 968.0365
193.7955, 971.3198
194.2776, 977.4396
194.7597, 983.9185
195.2418, 990.5547
195.7239, 997.0611
196.2060, 1001.821
196.6882, 1005.313
197.1703, 1005.712
197.6524, 998.6927
198.1345, 983.8432
198.6166, 969.2860
199.0987, 960.3118
199.5809, 956.9297
200.0630, 947.1784
200.5451, 928.8223
201.0272, 907.3792
201.5093, 893.3718
201.9914, 888.1856
202.4736, 883.6036
202.9557, 874.4861
203.4378, 860.1693
203.9199, 849.2886
204.4020, 842.5488
204.8841, 839.2384
205.3663, 838.5950
205.8484, 841.7532
206.3305, 843.6896
206.8126, 840.2532
207.2947, 830.0359
207.7768, 823.4006
208.2590, 822.0466
208.7411, 824.6141
209.2232, 826.8432
209.7053, 829.3180
210.1874, 830.0347
210.6695, 826.9442
211.1517, 818.8533
211.6338, 812.0309
212.1159, 807.2996
212.5980, 804.4849
213.0801, 802.9725
213.5622, 803.6900
214.0444, 803.9842
214.5265, 801.9263
215.0086, 797.5126
215.4907, 790.6165
215.9728, 780.7790
216.4549, 768.1757
216.9371, 754.5253
217.4192, 738.3708
217.9013, 723.4984
218.3834, 715.6295
218.8655, 720.3807
219.3476, 716.3023
219.8298, 693.8882
220.3119, 653.0092
220.7940, 631.6049
221.2761, 637.2736
221.7582, 653.7227
222.2403, 663.6959
222.7225, 665.1641
223.2046, 664.2881
223.6867, 661.6801
224.1688, 656.9782
224.6509, 654.6438
225.1330, 655.7124
225.6152, 658.1533
226.0973, 659.2309
226.5794, 658.0757
227.0615, 657.3051
227.5436, 657.5501
228.0257, 658.8430
228.5079, 661.1464
228.9900, 665.2979
229.4721, 669.8517
229.9542, 672.0777
230.4363, 668.8220
230.9185, 669.0972
231.4006, 677.4927
231.8827, 697.8455
232.3648, 709.3918
232.8469, 707.9469
233.3290, 700.2406
233.8112, 697.5278
234.2933, 700.2167
234.7754, 707.3339
235.2575, 720.5493
235.7396, 745.0201
236.2217, 757.6858
236.7039, 750.2031
237.1860, 734.8245
237.6681, 737.6124
238.1502, 771.2568
238.6323, 803.0336
239.1144, 821.0394
239.5966, 820.7525
240.0787, 818.0734
240.5608, 811.3667
241.0429, 802.8675
241.5250, 798.0651
242.0071, 800.2489
242.4893, 801.1259
242.9714, 797.1526
243.4535, 786.4630
243.9356, 774.8701
244.4177, 760.9145
244.8998, 746.4222
245.3820, 736.3344
245.8641, 732.0920
246.3462, 730.1294
246.8283, 729.3553
247.3104, 731.3687
247.7925, 730.3036
248.2747, 723.0688
248.7568, 713.3804
249.2389, 712.4908
249.7210, 725.1146
250.2031, 739.3983
250.6852, 749.8586
251.1674, 755.3732
251.6495, 759.2235
252.1316, 759.9316
252.6137, 759.2731
253.0958, 763.4839
253.5779, 775.9536
254.0601, 788.0672
254.5422, 794.1105
255.0243, 789.0192
255.5064, 791.6892
255.9885, 807.5930
256.4706, 831.0093
256.9528, 842.4680
257.4349, 836.9295
257.9170, 827.7379
258.3991, 821.0255
258.8812, 815.7643
259.3633, 816.5568
259.8455, 826.1957
260.3276, 841.6246
260.8097, 851.5768
261.2918, 853.8201
261.7739, 854.8327
262.2560, 857.7551
262.7382, 862.0922
263.2203, 870.2436
263.7024, 883.5235
264.1845, 900.4673
264.6666, 917.0162
265.1487, 933.8848
265.6309, 948.5831
266.1130, 957.9816
266.5951, 959.1182
267.0772, 966.5423
267.5593, 982.9459
268.0414, 1005.823
268.5236, 1027.138
269.0057, 1048.428
269.4878, 1064.895
269.9699, 1072.525
270.4520, 1069.078
270.9341, 1066.627
271.4163, 1065.850
271.8984, 1066.837
272.3805, 1070.928
272.8626, 1079.848
273.3447, 1086.891
273.8268, 1086.587
274.3090, 1077.431
274.7911, 1071.876
275.2732, 1072.578
275.7553, 1076.537
276.2374, 1075.655
276.7195, 1069.484
277.2017, 1060.153
277.6838, 1047.433
278.1659, 1030.766
278.6480, 1017.488
279.1301, 1007.866
279.6122, 1002.388
280.0944, 1004.564
280.5765, 1016.268
281.0586, 1024.899
281.5407, 1020.233
282.0229, 1002.134
282.5050, 988.6588
282.9871, 981.9691
283.4692, 979.9412
283.9513, 979.1613
284.4334, 979.9021
284.9156, 978.6942
285.3977, 970.9349
285.8798, 957.4951
286.3619, 950.7319
286.8440, 952.9808
287.3261, 960.2083
287.8083, 965.8853
288.2904, 970.0142
288.7725, 972.3115
289.2546, 971.5670
289.7367, 968.4254
290.2188, 967.5717
290.7010, 970.7913
291.1831, 973.1895
291.6652, 964.5380
292.1473, 945.5674
292.6294, 927.6132
293.1115, 918.5732
293.5937, 915.8392
294.0758, 909.5855
294.5579, 897.9268
295.0400, 885.9629
295.5221, 882.5436
296.0042, 886.1544
296.4864, 888.0121
296.9685, 881.2363
297.4506, 869.4290
297.9327, 860.9308
298.4148, 856.3139
298.8969, 854.7645
299.3791, 857.4133
299.8612, 862.9304
300.3433, 866.6396
300.8254, 863.3281
301.3075, 857.4117
301.7896, 857.0237
302.2718, 863.2941
302.7539, 870.5767
303.2360, 873.1359
303.7181, 872.3290
304.2002, 871.4726
304.6823, 870.9589
305.1645, 871.7831
305.6466, 875.3087
306.1287, 881.7122
306.6108, 889.7524
307.0929, 899.3323
307.5750, 909.7579
308.0572, 920.1696
308.5393, 930.2515
309.0214, 939.9528
309.5035, 949.0372
309.9856, 957.4327
310.4677, 966.2797
310.9499, 977.8144
311.4320, 989.9758
311.9141, 1000.115
312.3962, 1004.276
312.8783, 1008.451
313.3604, 1017.119
313.8426, 1030.142
314.3247, 1043.324
314.8068, 1052.796
315.2889, 1061.745
315.7710, 1073.578
316.2531, 1093.930
316.7353, 1113.488
317.2174, 1129.658
317.6995, 1142.128
318.1816, 1148.392
318.6637, 1140.720
319.1458, 1129.860
319.6280, 1124.440
320.1101, 1131.489
320.5922, 1139.328
321.0743, 1147.387
321.5564, 1154.599
322.0385, 1155.112
322.5207, 1139.108
323.0028, 1121.115
323.4849, 1110.268
323.9670, 1111.990
324.4491, 1115.987
324.9312, 1124.739
325.4134, 1135.661
325.8955, 1139.029
326.3776, 1125.161
326.8597, 1109.861
327.3418, 1100.493
327.8239, 1103.368
328.3061, 1104.039
328.7882, 1101.137
329.2703, 1095.771
329.7524, 1090.730
330.2345, 1085.457
330.7166, 1081.043
331.1988, 1077.370
331.6809, 1072.261
332.1630, 1073.474
332.6451, 1086.579
333.1272, 1104.032
333.6093, 1111.074
334.0915, 1101.420
334.5736, 1091.202
335.0557, 1084.839
335.5378, 1082.080
336.0199, 1085.662
336.5020, 1100.081
336.9842, 1116.528
337.4663, 1121.289
337.9484, 1108.808
338.4305, 1099.958
338.9126, 1102.466
339.3947, 1116.432
339.8769, 1123.047
340.3590, 1119.786
340.8411, 1114.419
341.3232, 1116.902
341.8053, 1128.683
342.2874, 1136.646
342.7696, 1135.550
343.2517, 1127.816
343.7338, 1126.708
344.2159, 1132.954
344.6980, 1141.779
345.1801, 1150.811
345.6623, 1159.675
346.1444, 1163.351
346.6265, 1158.732
347.1086, 1150.057
347.5907, 1146.795
348.0728, 1148.985
348.5550, 1154.153
349.0371, 1162.808
349.5192, 1173.251
350.0013, 1179.127
350.4834, 1177.274
350.9655, 1174.499
351.4477, 1185.061
351.9298, 1205.657
352.4119, 1219.124
352.8940, 1205.459
353.3762, 1180.358
353.8583, 1169.801
354.3404, 1178.400
354.8225, 1196.221
355.3046, 1220.200
355.7867, 1246.563
356.2689, 1266.244
356.7510, 1269.375
357.2331, 1266.838
357.7152, 1267.452
358.1973, 1271.761
358.6794, 1280.457
359.1616, 1297.303
359.6437, 1318.070
360.1258, 1336.842
360.6079, 1351.169
361.0900, 1363.033
361.5721, 1373.876
362.0543, 1383.701
362.5364, 1390.363
363.0185, 1388.127
363.5006, 1384.581
363.9827, 1386.539
364.4648, 1404.630
364.9470, 1419.226
365.4291, 1423.866
365.9112, 1419.591
366.3933, 1414.579
366.8754, 1408.441
367.3575, 1403.274
367.8397, 1400.364
368.3218, 1404.973
368.8039, 1405.433
369.2860, 1399.256
369.7681, 1388.271
370.2502, 1377.834
370.7324, 1369.522
371.2145, 1360.120
371.6966, 1348.102
372.1787, 1331.547
372.6608, 1317.726
373.1429, 1310.250
373.6251, 1303.561
374.1072, 1286.393
374.5893, 1250.043
375.0714, 1220.817
375.5535, 1209.421
376.0356, 1217.369
376.5178, 1219.816
376.9999, 1215.244
377.4820, 1207.723
377.9641, 1201.718
378.4462, 1197.315
378.9283, 1193.854
379.4105, 1192.238
379.8926, 1191.369
380.3747, 1184.858
380.8568, 1171.667
381.3389, 1158.943
381.8210, 1153.614
382.3032, 1154.820
382.7853, 1155.124
383.2674, 1153.201
383.7495, 1149.658
384.2316, 1145.639
384.7137, 1141.078
385.1959, 1135.816
385.6780, 1129.030
386.1601, 1121.525
386.6422, 1115.481
387.1243, 1111.470
387.6064, 1107.508
388.0886, 1099.832
388.5707, 1090.238
389.0528, 1083.583
389.5349, 1083.557
390.0170, 1086.869
390.4991, 1093.692
390.9813, 1104.670
391.4634, 1107.243
391.9455, 1083.034
392.4276, 1048.556
392.9097, 1024.786
393.3918, 1030.949
393.8740, 1039.002
394.3561, 1035.148
394.8382, 1020.361
395.3203, 1005.556
395.8024, 992.4493
396.2845, 982.2320
396.7667, 975.7883
397.2488, 974.1224
397.7309, 975.1730
398.2130, 984.1690
398.6951, 996.5621
399.1772, 998.0035
399.6594, 973.5606
400.1415, 949.4812
400.6236, 935.2795
401.1057, 934.0165
401.5878, 935.7751
402.0699, 944.6284
402.5521, 954.5169
403.0342, 956.1937
403.5163, 945.9832
403.9984, 933.9182
404.4805, 921.4590
404.9626, 908.6423
405.4448, 899.6905
405.9269, 895.5234
406.4090, 893.5333
406.8911, 891.4874
407.3732, 889.3876
407.8553, 887.2955
408.3375, 885.6767
408.8196, 883.8152
409.3017, 878.5142
409.7838, 869.3824
410.2659, 861.1916
410.7480, 858.9730
411.2302, 861.1736
411.7123, 859.1080
412.1944, 850.5323
412.6765, 841.2679
413.1586, 841.5739
413.6407, 849.0344
414.1229, 853.0472
414.6050, 844.0268
415.0871, 829.8759
415.5692, 823.7209
416.0513, 826.2957
416.5334, 829.2402
417.0156, 823.6615
417.4977, 814.6547
417.9798, 809.9149
418.4619, 815.1699
418.9440, 822.9549
419.4261, 830.5088
419.9083, 837.2240
420.3904, 840.4003
420.8725, 834.6614
421.3546, 827.4145
421.8367, 824.2488
422.3188, 829.1600
422.8010, 832.9713
423.2831, 833.9042
423.7652, 832.1650
424.2473, 828.3091
424.7295, 819.3513
425.2116, 811.0802
425.6937, 805.4257
426.1758, 803.0347
426.6579, 800.9173
427.1400, 798.6628
427.6222, 796.9437
428.1043, 796.4630
428.5864, 797.6426
429.0685, 799.0820
429.5506, 799.7616
430.0327, 800.2289
430.5149, 806.0338
430.9970, 820.1054
431.4791, 832.4168
431.9612, 833.9426
432.4433, 823.7775
432.9254, 818.4545
433.4076, 820.0675
433.8897, 826.3082
434.3718, 835.8605
434.8539, 848.4654
435.3360, 855.0564
435.8181, 845.4409
436.3003, 826.5611
436.7824, 818.5425
437.2645, 822.4305
437.7466, 830.0551
438.2287, 834.1875
438.7108, 836.0285
439.1930, 838.2888
439.6751, 842.6361
440.1572, 847.0192
440.6393, 850.1688
441.1214, 851.8788
441.6035, 851.1337
442.0857, 846.3236
442.5678, 839.3842
443.0499, 831.3442
443.5320, 821.2094
444.0141, 813.1707
444.4962, 808.5175
444.9784, 807.1089
445.4605, 808.7080
445.9426, 820.2636
446.4247, 828.2719
446.9068, 825.1339
447.3889, 807.9629
447.8711, 800.0121
448.3532, 809.4993
448.8353, 824.1633
449.3174, 835.3961
449.7995, 843.6982
450.2816, 847.4214
450.7638, 844.1768
451.2459, 836.2700
451.7280, 832.9161
452.2101, 835.2209
452.6922, 839.4065
453.1743, 845.1348
453.6565, 853.1145
454.1386, 853.5135
454.6207, 843.8182
455.1028, 831.8646
455.5849, 829.7839
456.0670, 836.9792
456.5492, 843.0990
457.0313, 843.6636
457.5134, 841.0701
457.9955, 841.2438
458.4776, 844.0877
458.9597, 846.9394
459.4419, 847.3772
459.9240, 846.4637
460.4061, 846.3242
460.8882, 848.1696
461.3703, 849.0313
461.8524, 843.1533
462.3346, 834.1389
462.8167, 830.5012
463.2988, 843.4541
463.7809, 857.6353
464.2630, 861.5011
464.7451, 852.9736
465.2273, 848.4333
465.7094, 861.3376
466.1915, 876.9753
466.6736, 882.2375
467.1557, 859.2891
467.6378, 843.1775
468.1200, 842.9113
468.6021, 854.7687
469.0842, 862.1719
469.5663, 863.4765
470.0484, 862.2318
470.5305, 859.3799
471.0127, 853.8386
471.4948, 850.3611
471.9769, 849.1005
472.4590, 849.6624
472.9411, 852.2171
473.4232, 857.2994
473.9054, 860.7549
474.3875, 860.7032
474.8696, 858.2615
475.3517, 857.6711
475.8338, 858.9348
476.3159, 861.7695
476.7981, 865.0759
477.2802, 869.7073
477.7623, 879.3306
478.2444, 895.9067
478.7265, 913.1289
479.2086, 924.4409
479.6908, 930.6042
480.1729, 933.3455
480.6550, 927.0107
481.1371, 922.0408
481.6192, 930.0209
482.1013, 950.7493
482.5835, 968.9628
483.0656, 972.3002
483.5477, 972.1004
484.0298, 978.0902
484.5119, 1000.204
484.9940, 1018.271
485.4762, 1025.001
485.9583, 1024.516
486.4404, 1027.424
486.9225, 1034.285
487.4046, 1045.219
487.8867, 1061.741
488.3689, 1085.521
488.8510, 1104.998
489.3331, 1118.425
489.8152, 1129.844
490.2973, 1143.421
490.7794, 1159.820
491.2616, 1175.216
491.7437, 1188.884
492.2258, 1201.234
492.7079, 1213.386
493.1900, 1225.280
493.6722, 1236.186
494.1543, 1244.724
494.6364, 1251.774
495.1185, 1260.810
495.6006, 1272.112
496.0828, 1282.954
496.5649, 1290.578
497.0470, 1295.597
497.5291, 1299.265
498.0112, 1304.512
498.4933, 1306.023
498.9755, 1295.755
499.4576, 1276.845
499.9397, 1261.738
500.4218, 1260.914
500.9039, 1262.387
501.3860, 1258.358
501.8682, 1246.403
502.3503, 1233.491
502.8324, 1221.346
503.3145, 1209.018
503.7966, 1195.420
504.2787, 1179.184
504.7609, 1163.038
505.2430, 1147.134
505.7251, 1131.607
506.2072, 1116.801
506.6893, 1102.601
507.1714, 1089.475
507.6536, 1077.579
508.1357, 1066.983
508.6178, 1057.514
509.0999, 1049.509
509.5820, 1041.989
510.0641, 1032.955
510.5463, 1022.628
511.0284, 1014.452
511.5105, 1010.713
511.9926, 1008.724
512.4747, 1001.911
512.9568, 991.0347
513.4390, 982.4664
513.9211, 982.7194
514.4032, 986.9235
514.8853, 989.6500
515.3674, 990.4962
515.8495, 988.2592
516.3317, 978.3159
516.8138, 965.8632
517.2959, 958.0878
517.7780, 961.3777
518.2601, 965.5882
518.7422, 967.3359
519.2244, 966.8250
519.7065, 966.7471
520.1886, 964.7032
520.6707, 965.5113
521.1528, 972.4856
521.6349, 991.3281
522.1171, 1000.838
522.5992, 996.2833
523.0813, 987.1129
523.5634, 986.7855
524.0455, 997.1184
524.5276, 1006.717
525.0098, 1013.111
525.4919, 1016.506
525.9740, 1015.284
526.4561, 1009.221
526.9382, 1007.860
527.4203, 1024.457
527.9025, 1049.898
528.3846, 1059.684
528.8667, 1049.383
529.3488, 1037.854
529.8309, 1041.882
530.3130, 1056.814
530.7952, 1075.246
531.2773, 1100.418
531.7594, 1122.622
532.2415, 1135.687
532.7236, 1140.958
533.2057, 1143.649
533.6879, 1140.711
534.1700, 1139.428
534.6521, 1144.229
535.1342, 1158.818
535.6163, 1169.945
536.0984, 1175.821
536.5806, 1179.153
537.0627, 1182.661
537.5448, 1186.822
538.0269, 1190.392
538.5090, 1194.289
538.9911, 1196.977
539.4733, 1192.314
539.9554, 1179.465
540.4375, 1165.028
540.9196, 1152.434
541.4017, 1141.198
541.8839, 1130.332
542.3660, 1120.001
542.8481, 1107.718
543.3302, 1087.957
543.8123, 1064.665
544.2944, 1045.990
544.7766, 1037.144
545.2587, 1028.842
545.7408, 1012.996
546.2229, 992.1287
546.7050, 972.1047
547.1871, 952.6926
547.6693, 936.9454
548.1514, 928.8824
548.6335, 929.8752
549.1156, 925.5748
549.5977, 905.7629
550.0798, 885.4082
550.5620, 875.3825
551.0441, 883.8234
551.5262, 886.2714
552.0083, 879.9898
552.4904, 868.5052
552.9725, 857.8484
553.4547, 847.6208
553.9368, 840.4836
554.4189, 838.7525
554.9010, 840.6652
555.3831, 838.6226
555.8652, 832.5372
556.3474, 826.9973
556.8295, 828.4196
557.3116, 832.5170
557.7937, 828.6534
558.2758, 813.1642
558.7579, 799.3207
559.2401, 803.1445
559.7222, 815.1382
560.2043, 820.5922
560.6864, 803.8459
561.1685, 789.1989
561.6506, 791.0050
562.1328, 805.7088
562.6149, 813.7094
563.0970, 802.4651
563.5791, 791.6281
564.0612, 790.1221
564.5433, 801.6426
565.0255, 808.2064
565.5076, 807.7910
565.9897, 804.7401
566.4718, 803.8398
566.9539, 805.8330
567.4360, 804.7167
567.9182, 797.9906
568.4003, 789.6563
568.8824, 790.7584
569.3645, 800.2809
569.8466, 805.8351
570.3287, 796.2664
570.8109, 780.2372
571.2930, 772.7543
571.7751, 773.6932
572.2572, 776.6422
572.7393, 777.3192
573.2214, 777.6298
573.7036, 780.0171
574.1857, 786.8310
574.6678, 791.4203
575.1499, 790.2745
575.6320, 785.6769
576.1141, 780.9376
576.5963, 776.3155
577.0784, 771.8665
577.5605, 767.1608
578.0426, 762.5317
578.5247, 759.7496
579.0068, 758.8841
579.4890, 759.7756
579.9711, 763.6403
580.4532, 770.8573
580.9353, 772.8894
581.4174, 768.9382
581.8995, 763.0968
582.3817, 757.2131
582.8638, 752.7496
583.3459, 756.7124
583.8280, 775.2651
584.3101, 794.1566
584.7922, 794.0623
585.2744, 780.9895
585.7565, 770.4097
586.2386, 770.8896
586.7207, 775.0444
587.2028, 779.9301
587.6849, 785.2340
588.1671, 788.2131
588.6492, 785.9428
589.1313, 782.6635
589.6134, 781.1353
590.0955, 783.2604
590.5776, 782.8927
591.0598, 778.5070
591.5419, 772.9977
592.0240, 770.3294
592.5061, 771.0342
592.9882, 772.0993
593.4703, 773.3958
593.9525, 774.1584
594.4346, 770.5974
594.9167, 763.2324
595.3988, 759.3694
595.8809, 768.6930
596.3630, 782.1501
596.8452, 782.8032
597.3273, 770.2584
597.8094, 758.3227
598.2915, 756.0200
598.7736, 758.9803
599.2557, 763.4169
599.7379, 769.8461
600.2200, 774.8544
600.7021, 777.1237
601.1843, 777.4484
601.6664, 777.1444
602.1485, 778.0883
602.6306, 775.6750
603.1127, 766.3432
603.5948, 752.7155
604.0770, 749.7787
604.5591, 760.7953
605.0412, 771.8181
605.5233, 773.9858
606.0054, 768.6755
606.4875, 768.6916
606.9697, 774.5442
607.4518, 780.6182
607.9339, 780.6318
608.4160, 777.0326
608.8981, 774.5810
609.3802, 773.9310
609.8624, 775.4342
610.3445, 782.3077
610.8266, 790.9668
611.3087, 795.5390
611.7908, 791.1442
612.2729, 785.1175
612.7551, 778.6276
613.2372, 772.1621
613.7193, 768.6730
614.2014, 768.5909
614.6835, 771.1292
615.1656, 777.6368
615.6478, 789.3354
616.1299, 791.5176
616.6120, 780.6218
617.0941, 769.4530
617.5762, 772.7493
618.0583, 788.3444
618.5405, 797.3961
619.0226, 796.2386
619.5047, 790.3563
619.9868, 784.2836
620.4689, 778.8484
620.9510, 775.8274
621.4332, 777.1633
621.9153, 780.1329
622.3974, 784.5756
622.8795, 789.6107
623.3616, 791.7082
623.8438, 785.9189
624.3259, 780.2095
624.8080, 778.3687
625.2901, 780.9687
625.7722, 784.4404
626.2543, 789.8671
626.7365, 794.8186
627.2186, 797.7123
627.7007, 798.6173
628.1828, 795.8348
628.6649, 787.4444
629.1470, 779.7618
629.6292, 785.6963
630.1113, 801.9971
630.5934, 811.3834
631.0755, 804.1419
631.5576, 792.2253
632.0397, 790.8322
632.5219, 797.2372
633.0040, 802.9744
