##NAMES=Bultfonteinite
##RRUFFID=R050088
##IDEAL CHEMISTRY=Ca_2_[SiO_3_(OH)]F&#183;H_2_O
##LOCALITY=N'Chwaning II mine, Kuruman, South Africa
##OWNER=RRUFF
##SOURCE=Rock Currier
##DESCRIPTION=Sprays of acicular white crystals associated with olmiite, R050144
##STATUS=The identification of this mineral is confirmed by single-crystal X-ray diffraction and chemical analysis.
##URL=rruff.info/R050088
##MEASURED CHEMISTRY=Ca_1.96_[Si_0.97_O_3_(OH)_1.00_]F_1.00_&#183;0.61H_2_O; OH estimated by charge balance; H_2_O by difference
125.8503, 760.7334
126.3325, 811.0525
126.8146, 857.7503
127.2967, 905.3018
127.7788, 955.9575
128.2609, 1008.368
128.7430, 1054.971
129.2252, 1089.039
129.7073, 1125.260
130.1894, 1168.226
130.6715, 1214.473
131.1536, 1260.197
131.6357, 1303.946
132.1179, 1344.404
132.6000, 1371.030
133.0821, 1379.371
133.5642, 1377.061
134.0463, 1360.147
134.5284, 1333.572
135.0106, 1304.715
135.4927, 1278.501
135.9748, 1254.835
136.4569, 1231.890
136.9390, 1207.335
137.4211, 1185.787
137.9033, 1168.422
138.3854, 1155.180
138.8675, 1145.710
139.3496, 1140.114
139.8317, 1138.446
140.3138, 1136.483
140.7960, 1123.162
141.2781, 1119.685
141.7602, 1138.723
142.2423, 1177.030
142.7244, 1221.255
143.2065, 1261.143
143.6887, 1296.645
144.1708, 1341.987
144.6529, 1398.568
145.1350, 1462.201
145.6171, 1536.155
146.0992, 1617.903
146.5814, 1694.697
147.0635, 1756.936
147.5456, 1803.011
148.0277, 1841.569
148.5098, 1871.408
148.9919, 1894.844
149.4741, 1914.887
149.9562, 1931.510
150.4383, 1940.213
150.9204, 1937.896
151.4025, 1923.349
151.8846, 1897.262
152.3668, 1855.160
152.8489, 1804.184
153.3310, 1748.082
153.8131, 1687.018
154.2952, 1626.279
154.7773, 1565.865
155.2595, 1508.361
155.7416, 1465.629
156.2237, 1446.868
156.7058, 1440.248
157.1879, 1432.618
157.6700, 1422.947
158.1522, 1415.338
158.6343, 1415.973
159.1164, 1421.447
159.5985, 1423.353
160.0806, 1418.476
160.5627, 1409.261
161.0449, 1399.576
161.5270, 1390.189
162.0091, 1377.891
162.4912, 1358.005
162.9733, 1333.691
163.4554, 1309.969
163.9376, 1288.493
164.4197, 1268.807
164.9018, 1251.162
165.3839, 1236.968
165.8660, 1220.892
166.3481, 1197.140
166.8303, 1169.515
167.3124, 1144.554
167.7945, 1127.464
168.2766, 1113.805
168.7587, 1090.656
169.2408, 1049.255
169.7230, 1018.714
170.2051, 1024.020
170.6872, 1047.906
171.1693, 1063.243
171.6514, 1053.259
172.1335, 1028.610
172.6157, 1016.833
173.0978, 1023.819
173.5799, 1032.276
174.0620, 1034.482
174.5441, 1033.077
175.0262, 1031.747
175.5084, 1032.575
175.9905, 1034.462
176.4726, 1033.734
176.9547, 1027.428
177.4368, 1024.182
177.9189, 1027.207
178.4010, 1034.757
178.8832, 1044.797
179.3653, 1056.909
179.8474, 1070.474
180.3295, 1084.319
180.8116, 1100.630
181.2937, 1112.959
181.7759, 1119.825
182.2580, 1122.229
182.7401, 1120.049
183.2222, 1111.645
183.7043, 1101.166
184.1864, 1102.068
184.6686, 1124.487
185.1507, 1140.470
185.6328, 1139.369
186.1149, 1130.002
186.5970, 1122.878
187.0791, 1123.356
187.5613, 1127.455
188.0434, 1124.008
188.5255, 1107.829
189.0076, 1092.771
189.4897, 1082.479
189.9718, 1074.484
190.4540, 1065.977
190.9361, 1055.719
191.4182, 1044.839
191.9003, 1036.006
192.3824, 1029.396
192.8645, 1024.787
193.3467, 1022.089
193.8288, 1020.962
194.3109, 1021.677
194.7930, 1024.387
195.2751, 1027.595
195.7572, 1028.427
196.2394, 1028.027
196.7215, 1022.478
197.2036, 1007.257
197.6857, 989.8005
198.1678, 977.9625
198.6499, 974.1506
199.1321, 972.4721
199.6142, 961.2438
200.0963, 934.0675
200.5784, 909.7740
201.0605, 887.2778
201.5426, 869.2336
202.0248, 859.8782
202.5069, 859.7145
202.9890, 863.0740
203.4711, 860.2801
203.9532, 846.8505
204.4353, 837.4024
204.9175, 836.0552
205.3996, 835.8729
205.8817, 832.0970
206.3638, 823.8336
206.8459, 813.5029
207.3280, 803.8420
207.8102, 793.9836
208.2923, 787.4698
208.7744, 787.1489
209.2565, 787.5379
209.7386, 785.7905
210.2207, 781.4470
210.7029, 775.4847
211.1850, 768.7006
211.6671, 760.5601
212.1492, 753.7482
212.6313, 749.1789
213.1134, 745.0843
213.5956, 740.5841
214.0777, 735.7277
214.5598, 731.3123
215.0419, 728.9454
215.5240, 729.8378
216.0061, 724.4985
216.4883, 702.6049
216.9704, 684.0869
217.4525, 679.6777
217.9346, 685.9285
218.4167, 691.5119
218.8988, 686.5157
219.3810, 670.5748
219.8631, 657.3133
220.3452, 648.3826
220.8273, 640.7109
221.3094, 633.4487
221.7915, 626.8456
222.2737, 621.5385
222.7558, 618.0215
223.2379, 616.2081
223.7200, 615.5350
224.2021, 619.9016
224.6842, 620.9766
225.1664, 615.8912
225.6485, 606.6811
226.1306, 595.6555
226.6127, 583.6888
227.0948, 572.0313
227.5770, 566.1160
228.0591, 569.8047
228.5412, 574.5554
229.0233, 579.8224
229.5054, 584.9369
229.9875, 589.2410
230.4697, 592.4356
230.9518, 594.7078
231.4339, 596.1823
231.9160, 594.5509
232.3981, 596.3813
232.8802, 605.0295
233.3624, 615.5502
233.8445, 623.9654
234.3266, 628.8989
234.8087, 631.3580
235.2908, 632.3765
235.7729, 629.8588
236.2551, 631.0864
236.7372, 637.5845
237.2193, 646.8484
237.7014, 658.4379
238.1835, 671.7714
238.6656, 684.7918
239.1478, 695.8578
239.6299, 706.1121
240.1120, 709.9251
240.5941, 700.1348
241.0762, 689.5657
241.5583, 686.0065
242.0405, 688.5659
242.5226, 689.7421
243.0047, 680.9460
243.4868, 660.9690
243.9689, 645.3954
244.4510, 638.1235
244.9332, 631.7634
245.4153, 623.4423
245.8974, 613.7247
246.3795, 604.4779
246.8616, 596.3192
247.3437, 589.5382
247.8259, 587.6583
248.3080, 596.3111
248.7901, 602.3249
249.2722, 597.7966
249.7543, 588.3958
250.2364, 583.6743
250.7186, 589.7164
251.2007, 602.6584
251.6828, 610.9410
252.1649, 611.5294
252.6470, 613.6805
253.1291, 622.1935
253.6113, 632.8718
254.0934, 640.9838
254.5755, 644.5140
255.0576, 646.0773
255.5397, 649.7922
256.0219, 656.0506
256.5040, 662.9669
256.9861, 673.4095
257.4682, 682.3026
257.9503, 685.5081
258.4324, 682.0602
258.9146, 674.9464
259.3967, 665.7045
259.8788, 654.0986
260.3609, 645.6677
260.8430, 642.6985
261.3251, 642.3391
261.8073, 640.8234
262.2894, 638.5260
262.7715, 641.3810
263.2536, 658.3206
263.7357, 686.0200
264.2178, 703.3546
264.7000, 701.1362
265.1821, 699.1902
265.6642, 713.9763
266.1463, 741.2744
266.6284, 767.1707
267.1105, 785.4608
267.5927, 797.8712
268.0748, 806.6976
268.5569, 810.4003
269.0390, 815.6985
269.5211, 831.3066
270.0032, 851.3474
270.4854, 865.4792
270.9675, 868.6075
271.4496, 866.7305
271.9317, 865.3384
272.4138, 864.3901
272.8959, 865.6768
273.3781, 871.4929
273.8602, 879.5400
274.3423, 885.1672
274.8244, 887.0106
275.3065, 888.5407
275.7886, 892.8701
276.2708, 899.0835
276.7529, 903.8624
277.2350, 906.9337
277.7171, 906.6404
278.1992, 898.7020
278.6813, 881.0204
279.1635, 866.9573
279.6456, 864.3740
280.1277, 867.8796
280.6098, 868.8919
281.0919, 865.7010
281.5740, 858.7460
282.0562, 846.3502
282.5383, 827.6794
283.0204, 815.1176
283.5025, 812.6953
283.9846, 815.3211
284.4667, 819.2886
284.9489, 824.0477
285.4310, 829.4529
285.9131, 836.1909
286.3952, 843.9457
286.8773, 846.2538
287.3594, 838.2272
287.8416, 830.0286
288.3237, 825.7762
288.8058, 825.2654
289.2879, 827.4846
289.7700, 832.0049
290.2521, 838.5927
290.7343, 846.2866
291.2164, 864.8755
291.6985, 872.5876
292.1806, 858.3363
292.6627, 834.1725
293.1448, 815.1224
293.6270, 806.4385
294.1091, 802.9824
294.5912, 795.8637
295.0733, 783.6055
295.5554, 769.9707
296.0375, 751.4744
296.5197, 734.2706
297.0018, 721.7177
297.4839, 714.7252
297.9660, 714.0921
298.4481, 722.0386
298.9302, 740.9382
299.4124, 751.7909
299.8945, 748.8727
300.3766, 743.9076
300.8587, 737.6889
301.3408, 732.5952
301.8229, 732.6812
302.3050, 741.1166
302.7871, 756.3236
303.2693, 770.6782
303.7514, 787.2172
304.2335, 797.8264
304.7156, 796.2993
305.1977, 790.6691
305.6798, 789.1628
306.1620, 794.8171
306.6441, 805.5795
307.1262, 818.4386
307.6083, 833.4426
308.0904, 850.1987
308.5725, 871.8062
309.0547, 892.9163
309.5368, 909.9139
310.0189, 922.6370
310.5010, 933.4580
310.9831, 943.8336
311.4652, 953.8628
311.9474, 964.8331
312.4295, 978.7973
312.9116, 990.6364
313.3937, 995.9111
313.8758, 996.7542
314.3579, 998.6665
314.8401, 1005.342
315.3222, 1014.070
315.8043, 1019.869
316.2864, 1022.305
316.7685, 1024.365
317.2506, 1028.442
317.7328, 1032.793
318.2149, 1034.288
318.6970, 1031.175
319.1791, 1027.583
319.6612, 1028.281
320.1433, 1031.705
320.6255, 1030.774
321.1076, 1022.854
321.5897, 1009.910
322.0718, 992.8609
322.5539, 970.1984
323.0360, 952.9738
323.5182, 949.1451
324.0003, 950.3822
324.4824, 945.4409
324.9645, 932.4277
325.4466, 917.0516
325.9287, 903.9114
326.4109, 893.2091
326.8930, 886.8426
327.3751, 888.9062
327.8572, 891.3437
328.3393, 889.3707
328.8214, 883.8887
329.3036, 878.0061
329.7857, 873.2956
330.2678, 869.9638
330.7499, 869.1197
331.2320, 873.9697
331.7141, 877.3401
332.1963, 878.6284
332.6784, 878.0247
333.1605, 875.2325
333.6426, 870.3255
334.1247, 864.5923
334.6068, 859.4374
335.0890, 853.2513
335.5711, 852.4053
336.0532, 862.6353
336.5353, 872.4882
337.0174, 875.3517
337.4995, 872.2733
337.9817, 868.7059
338.4638, 869.5861
338.9459, 873.9354
339.4280, 871.8333
339.9101, 853.0822
340.3922, 843.4801
340.8744, 857.7568
341.3565, 881.7616
341.8386, 897.3999
342.3207, 897.3992
342.8028, 889.4716
343.2849, 884.1404
343.7671, 881.5472
344.2492, 880.6320
344.7313, 882.7798
345.2134, 885.2535
345.6955, 885.7274
346.1776, 884.1274
346.6598, 882.2842
347.1419, 880.9810
347.6240, 880.3176
348.1061, 880.6896
348.5882, 882.3217
349.0703, 884.4402
349.5525, 887.1258
350.0346, 889.9019
350.5167, 891.1565
350.9988, 889.9606
351.4809, 887.6532
351.9630, 883.5904
352.4452, 878.6715
352.9273, 878.2615
353.4094, 886.3711
353.8915, 898.8363
354.3736, 904.1636
354.8557, 899.2883
355.3379, 895.4547
355.8200, 895.7604
356.3021, 898.1290
356.7842, 899.8618
357.2663, 900.4680
357.7484, 901.7706
358.2306, 906.0184
358.7127, 913.9835
359.1948, 920.7048
359.6769, 922.3401
360.1590, 926.6435
360.6411, 939.4918
361.1233, 957.6509
361.6054, 973.6400
362.0875, 982.8789
362.5696, 987.5732
363.0517, 996.2429
363.5338, 1014.230
364.0160, 1027.437
364.4981, 1031.893
364.9802, 1032.927
365.4623, 1035.534
365.9444, 1040.526
366.4265, 1044.270
366.9087, 1041.791
367.3908, 1032.605
367.8729, 1024.831
368.3550, 1018.507
368.8371, 1014.094
369.3192, 1012.290
369.8014, 1012.371
370.2835, 1012.790
370.7656, 1013.749
371.2477, 1013.875
371.7298, 1011.271
372.2119, 1006.058
372.6941, 997.0398
373.1762, 983.0574
373.6583, 965.0452
374.1404, 942.8448
374.6225, 913.1684
375.1046, 891.1855
375.5868, 892.6951
376.0689, 906.2812
376.5510, 906.8375
377.0331, 887.8766
377.5152, 866.7479
377.9973, 862.1448
378.4795, 876.2692
378.9616, 885.0717
379.4437, 887.5325
379.9258, 885.2671
380.4079, 875.6374
380.8900, 861.7132
381.3722, 852.0189
381.8543, 851.6443
382.3364, 856.9326
382.8185, 856.6664
383.3006, 841.3179
383.7827, 832.9926
384.2649, 840.7971
384.7470, 850.1098
385.2291, 846.6271
385.7112, 829.6052
386.1933, 811.1553
386.6754, 804.7495
387.1576, 811.2454
387.6397, 813.8487
388.1218, 812.6818
388.6039, 806.9150
389.0860, 792.5876
389.5681, 774.5569
390.0503, 760.4030
390.5324, 753.4669
391.0145, 751.0237
391.4966, 750.9904
391.9787, 754.3753
392.4608, 749.9899
392.9430, 728.9343
393.4251, 704.1537
393.9072, 688.6280
394.3893, 682.3795
394.8714, 676.4238
395.3535, 663.5234
395.8357, 649.0791
396.3178, 643.7814
396.7999, 649.0693
397.2820, 654.3766
397.7641, 652.5335
398.2462, 644.3750
398.7284, 636.0311
399.2105, 624.9106
399.6926, 616.5536
400.1747, 617.4373
400.6568, 621.5135
401.1389, 617.1184
401.6211, 600.3259
402.1032, 579.6585
402.5853, 567.7017
403.0674, 567.9267
403.5495, 566.8776
404.0316, 563.4288
404.5138, 559.9243
404.9959, 557.8300
405.4780, 556.6989
405.9601, 555.4373
406.4422, 553.5251
406.9243, 550.5878
407.4065, 544.6727
407.8886, 532.4804
408.3707, 524.2296
408.8528, 525.2113
409.3349, 528.3387
409.8170, 527.7330
410.2992, 522.6346
410.7813, 517.1323
411.2634, 514.8615
411.7455, 515.2530
412.2276, 516.0931
412.7097, 518.4801
413.1919, 518.3118
413.6740, 508.9805
414.1561, 495.2786
414.6382, 487.3860
415.1203, 491.4304
415.6024, 496.5248
416.0846, 493.4128
416.5667, 484.6849
417.0488, 479.1065
417.5309, 480.3619
418.0130, 483.1810
418.4951, 478.9920
418.9773, 464.2866
419.4594, 454.6953
419.9415, 454.1705
420.4236, 456.1684
420.9057, 457.9470
421.3878, 458.4788
421.8700, 455.6321
422.3521, 447.4134
422.8342, 436.0577
423.3163, 431.4601
423.7984, 439.1681
424.2805, 445.1843
424.7627, 448.3051
425.2448, 449.1707
425.7269, 448.3828
426.2090, 445.9882
426.6911, 441.5009
427.1732, 431.1609
427.6554, 416.1851
428.1375, 413.8484
428.6196, 431.6209
429.1017, 447.6916
429.5838, 448.6124
430.0659, 441.3597
430.5481, 435.7050
431.0302, 433.9735
431.5123, 434.2044
431.9944, 436.1694
432.4765, 438.9886
432.9586, 438.8435
433.4408, 433.9898
433.9229, 428.5980
434.4050, 428.1808
434.8871, 433.4336
435.3692, 436.2627
435.8513, 435.0367
436.3335, 432.3522
436.8156, 427.9228
437.2977, 423.3214
437.7798, 422.2932
438.2619, 426.9189
438.7440, 435.2364
439.2262, 442.5684
439.7083, 450.9964
440.1904, 454.3454
440.6725, 449.6396
441.1546, 442.9055
441.6367, 437.9250
442.1189, 434.6626
442.6010, 430.8111
443.0831, 423.9364
443.5652, 415.4220
444.0473, 410.8573
444.5294, 411.2001
445.0116, 412.8112
445.4937, 414.3026
445.9758, 416.4601
446.4579, 421.3821
446.9400, 430.0721
447.4221, 435.3831
447.9043, 429.5922
448.3864, 417.9612
448.8685, 411.4723
449.3506, 411.6916
449.8327, 415.1487
450.3148, 420.0908
450.7970, 426.1709
451.2791, 430.1190
451.7612, 431.5693
452.2433, 431.5115
452.7254, 429.0565
453.2076, 425.7138
453.6897, 422.9698
454.1718, 421.4264
454.6539, 416.6071
455.1360, 424.1344
455.6181, 428.5482
456.1003, 430.0158
456.5824, 419.7128
457.0645, 424.6090
457.5466, 423.4141
458.0287, 421.9693
458.5108, 429.0048
458.9930, 420.4138
459.4751, 427.3148
459.9572, 428.0316
460.4393, 431.5788
460.9214, 428.9971
461.4035, 428.3085
461.8857, 433.7507
462.3678, 435.7982
462.8499, 432.5110
463.3320, 436.2381
463.8141, 427.4330
464.2962, 429.6250
464.7784, 436.5620
465.2605, 433.5829
465.7426, 437.4221
466.2247, 438.6645
466.7068, 428.1059
467.1889, 438.0704
467.6711, 439.1595
468.1532, 431.1352
468.6353, 440.3965
469.1174, 433.6285
469.5995, 432.5820
470.0816, 435.8413
470.5638, 434.6121
471.0459, 440.4596
471.5280, 439.2724
472.0101, 443.8863
472.4922, 452.2111
472.9743, 456.7220
473.4565, 450.9804
473.9386, 444.3237
474.4207, 443.0584
474.9028, 447.1808
475.3849, 452.1509
475.8670, 454.6419
476.3492, 456.6070
476.8313, 462.4192
477.3134, 472.1998
477.7955, 480.4700
478.2776, 484.6987
478.7597, 485.5064
479.2419, 483.9637
479.7240, 479.1325
480.2061, 474.7552
480.6882, 469.9004
481.1703, 466.9023
481.6524, 467.7873
482.1346, 472.7110
482.6167, 481.4140
483.0988, 494.4179
483.5809, 510.3050
484.0630, 521.4152
484.5451, 526.0461
485.0273, 528.3832
485.5094, 525.8363
485.9915, 523.7745
486.4736, 526.9828
486.9557, 535.6567
487.4378, 545.8195
487.9200, 553.8614
488.4021, 561.0318
488.8842, 571.4910
489.3663, 585.6959
489.8484, 600.9302
490.3305, 618.1971
490.8127, 634.1939
491.2948, 642.0514
491.7769, 638.7604
492.2590, 636.2513
492.7411, 638.1028
493.2232, 643.0601
493.7054, 651.1270
494.1875, 661.5121
494.6696, 670.5605
495.1517, 675.1985
495.6338, 676.2828
496.1159, 679.5994
496.5981, 688.5861
497.0802, 694.9059
497.5623, 698.3141
498.0444, 698.5254
498.5265, 694.6077
499.0086, 686.8942
499.4908, 677.5121
499.9729, 667.7049
500.4550, 657.6330
500.9371, 647.6796
501.4192, 637.3800
501.9013, 629.1168
502.3835, 623.8994
502.8656, 621.4725
503.3477, 622.7791
503.8298, 630.2575
504.3119, 631.1051
504.7940, 616.3640
505.2762, 594.8488
505.7583, 573.9385
506.2404, 555.5092
506.7225, 544.9036
507.2046, 547.0112
507.6867, 557.7867
508.1689, 559.4442
508.6510, 544.2384
509.1331, 530.8624
509.6152, 519.0637
510.0973, 510.2965
510.5794, 506.8574
511.0616, 507.9046
511.5437, 509.8233
512.0258, 510.9104
512.5079, 510.4430
512.9901, 504.5269
513.4722, 491.4339
513.9543, 484.0766
514.4364, 490.7353
514.9185, 502.1438
515.4006, 506.7486
515.8828, 504.3838
516.3649, 498.3625
516.8470, 483.6576
517.3291, 470.1708
517.8112, 469.0962
518.2933, 478.2629
518.7755, 487.3640
519.2576, 491.1053
519.7397, 490.6494
520.2218, 488.5021
520.7039, 482.8081
521.1860, 478.9810
521.6682, 477.9973
522.1503, 477.7318
522.6324, 477.0898
523.1145, 476.2127
523.5966, 475.3958
524.0787, 474.1494
524.5609, 474.4518
525.0430, 482.3474
525.5251, 497.7407
526.0072, 503.8771
526.4893, 491.3845
526.9714, 477.2506
527.4536, 482.6376
527.9357, 504.8982
528.4178, 521.9016
528.8999, 526.2354
529.3820, 528.8127
529.8641, 536.2820
530.3463, 546.6447
530.8284, 555.3134
531.3105, 560.8066
531.7926, 565.6598
532.2747, 573.8824
532.7568, 586.6874
533.2390, 595.4460
533.7211, 597.0085
534.2032, 597.9951
534.6853, 600.0251
535.1674, 602.8287
535.6495, 606.0452
536.1317, 609.6241
536.6138, 613.2244
537.0959, 617.0001
537.5780, 620.5551
538.0601, 622.8194
538.5422, 623.7803
539.0244, 622.4471
539.5065, 617.5059
539.9886, 609.6859
540.4707, 602.8355
540.9528, 598.4926
541.4349, 592.8275
541.9171, 584.4670
542.3992, 574.8425
542.8813, 565.2502
543.3634, 555.7985
543.8455, 545.9000
544.3276, 535.0350
544.8098, 523.3719
545.2919, 511.9000
545.7740, 501.4237
546.2561, 488.8792
546.7382, 468.0381
547.2203, 449.1028
547.7025, 442.6415
548.1846, 447.6265
548.6666, 449.1539
549.1487, 439.4089
549.6309, 423.9383
550.1130, 405.4420
550.5951, 385.7978
551.0772, 373.2162
551.5593, 371.4225
552.0414, 375.3199
552.5236, 377.0002
553.0057, 376.5488
553.4878, 373.4050
553.9699, 365.7205
554.4520, 357.7137
554.9341, 348.1195
555.4163, 340.2281
555.8984, 340.8285
556.3805, 352.7033
556.8626, 365.0502
557.3447, 363.4255
557.8268, 349.5894
558.3090, 336.8250
558.7911, 324.8424
559.2732, 319.0110
559.7553, 327.1974
560.2374, 343.8385
560.7195, 350.7578
561.2017, 342.6383
561.6838, 333.9285
562.1659, 327.9792
562.6480, 324.3686
563.1301, 323.9879
563.6122, 325.9429
564.0944, 326.4155
564.5765, 322.3522
565.0586, 315.0882
565.5407, 309.8563
566.0228, 307.2777
566.5049, 305.1709
566.9871, 303.8891
567.4692, 302.3728
567.9513, 298.9855
568.4334, 294.4665
568.9155, 292.1690
569.3976, 294.6038
569.8798, 298.8811
570.3619, 302.9273
570.8440, 306.4500
571.3261, 308.1032
571.8082, 307.3397
572.2903, 305.9896
572.7725, 306.3804
573.2546, 308.8304
573.7367, 310.0034
574.2188, 309.5622
574.7009, 308.3294
575.1830, 305.3605
575.6652, 302.3059
576.1473, 301.9217
576.6294, 304.4168
577.1115, 305.5728
577.5936, 299.2702
578.0757, 288.5896
578.5579, 284.4106
579.0400, 287.4276
579.5221, 292.6607
580.0042, 300.0642
580.4863, 306.4260
580.9684, 303.3349
581.4506, 286.9655
581.9327, 278.5399
582.4148, 288.5970
582.8969, 300.6033
583.3790, 303.2006
583.8611, 299.0216
584.3433, 295.2447
584.8254, 295.1422
585.3075, 297.5413
585.7896, 302.1462
586.2717, 309.6636
586.7538, 310.0435
587.2360, 297.9843
587.7181, 286.6956
588.2002, 284.8111
588.6823, 288.3264
589.1644, 291.2424
589.6465, 293.0964
590.1287, 293.4560
590.6108, 292.0753
591.0929, 289.1010
591.5750, 283.5553
592.0571, 276.1436
592.5392, 270.1599
593.0214, 267.7023
593.5035, 268.5526
593.9856, 272.7157
594.4677, 283.3306
594.9498, 289.7365
595.4319, 289.2556
595.9141, 285.8568
596.3962, 278.9400
596.8783, 270.6826
597.3604, 266.2157
597.8425, 268.4278
598.3246, 273.0966
598.8068, 277.4879
599.2889, 281.2780
599.7710, 283.4494
600.2531, 283.8102
600.7352, 283.4211
601.2173, 283.0594
601.6995, 282.7585
602.1816, 282.7804
602.6637, 282.6560
603.1458, 283.5609
603.6279, 287.8853
604.1100, 291.4442
604.5922, 290.0852
605.0743, 284.7332
605.5564, 280.1186
606.0385, 278.9899
606.5206, 279.9897
607.0027, 281.1331
607.4849, 282.5159
607.9670, 285.1351
608.4491, 289.5666
608.9312, 294.1589
609.4133, 297.7713
609.8954, 300.3840
610.3776, 299.4045
610.8597, 291.1568
611.3418, 284.3393
611.8239, 280.5573
612.3060, 279.4035
612.7881, 281.8141
613.2703, 286.9164
613.7524, 290.8804
614.2345, 290.4974
614.7166, 287.1905
615.1987, 284.2638
615.6808, 281.7284
616.1630, 279.1421
616.6451, 275.8784
617.1272, 273.4271
617.6093, 273.5497
618.0914, 276.3148
618.5735, 280.1201
619.0557, 287.0612
