##NAMES=Bunsenite
##RRUFFID=R080121
##IDEAL CHEMISTRY=Ni^2+^O
##LOCALITY=Johanngeorgenstadt, Saxony, Germany
##OWNER=RRUFF
##SOURCE=William W. Pinch
##DESCRIPTION=Dark green octahedra
##STATUS=The identification of this mineral has been confirmed by single-crystal X-ray diffraction.
##URL=rruff.info/R080121
##MEASURED CHEMISTRY=Ni_1.00_O
91.00781, 7.728952
91.48993, 7.824455
91.97205, 7.862880
92.45416, 7.840457
92.93628, 7.761633
93.41840, 7.599044
93.90051, 7.283149
94.38263, 6.994533
94.86475, 7.109840
95.34686, 7.625015
95.82898, 8.151965
96.31110, 8.299644
96.79321, 8.114354
97.27533, 8.093438
97.75745, 8.397223
98.23956, 8.941672
98.72168, 9.350752
99.20380, 9.583491
99.68591, 9.796398
100.1680, 10.12930
100.6501, 10.56771
101.1323, 11.19024
101.6144, 12.08301
102.0965, 13.28230
102.5786, 14.27886
103.0607, 14.97076
103.5428, 15.55722
104.0250, 16.39796
104.5071, 17.59656
104.9892, 18.86412
105.4713, 20.09421
105.9534, 21.28930
106.4355, 22.43684
106.9177, 23.54767
107.3998, 24.61136
107.8819, 25.63155
108.3640, 26.53244
108.8461, 27.43877
109.3282, 28.42157
109.8104, 29.47159
110.2925, 30.58500
110.7746, 31.80598
111.2567, 33.10871
111.7388, 34.34258
112.2209, 35.30890
112.7031, 36.28543
113.1852, 37.47625
113.6673, 38.97308
114.1494, 40.62641
114.6315, 42.46191
115.1136, 44.50120
115.5958, 46.49897
116.0779, 48.54747
116.5600, 50.46553
117.0421, 52.04350
117.5242, 52.92403
118.0063, 53.67484
118.4885, 54.53685
118.9706, 55.50016
119.4527, 56.75523
119.9348, 58.58603
120.4169, 60.76961
120.8990, 62.92908
121.3812, 65.09734
121.8633, 67.03799
122.3454, 68.51575
122.8275, 69.50864
123.3096, 70.03751
123.7917, 69.81674
124.2739, 69.04066
124.7560, 68.42253
125.2381, 68.39439
125.7202, 68.83257
126.2023, 69.55334
126.6844, 70.61055
127.1666, 71.81718
127.6487, 72.96127
128.1308, 74.04543
128.6129, 75.03238
129.0950, 75.84341
129.5771, 76.52700
130.0593, 77.27055
130.5414, 78.18731
131.0235, 79.16972
131.5056, 79.76663
131.9877, 79.64256
132.4698, 79.20515
132.9520, 79.45167
133.4341, 80.33585
133.9162, 80.97350
134.3983, 80.88102
134.8804, 80.20652
135.3625, 80.08076
135.8447, 80.55547
136.3268, 81.41544
136.8089, 82.48818
137.2910, 83.84469
137.7731, 85.03206
138.2552, 86.05961
138.7374, 87.03461
139.2195, 86.87149
139.7016, 85.20541
140.1837, 82.76583
140.6658, 81.07222
141.1479, 80.24023
141.6301, 79.80701
142.1122, 79.58112
142.5943, 79.60447
143.0764, 79.71328
143.5585, 79.94124
144.0406, 80.24429
144.5228, 80.48680
145.0049, 80.69957
145.4870, 80.81339
145.9691, 80.78181
146.4512, 80.51031
146.9333, 80.24678
147.4155, 79.96086
147.8976, 79.66847
148.3797, 79.54774
148.8618, 79.74706
149.3439, 80.01011
149.8260, 80.17146
150.3082, 80.08219
150.7903, 80.05788
151.2724, 80.16895
151.7545, 80.41939
152.2366, 80.57910
152.7188, 80.47984
153.2009, 80.36256
153.6830, 80.42183
154.1651, 81.15913
154.6472, 81.60071
155.1293, 81.42226
155.6115, 80.54136
156.0936, 79.69719
156.5757, 78.91531
157.0578, 78.26211
157.5399, 77.82252
158.0220, 77.75260
158.5042, 77.78098
158.9863, 77.81168
159.4684, 77.82820
159.9505, 77.89294
160.4326, 78.07623
160.9147, 78.31277
161.3969, 78.50474
161.8790, 78.65507
162.3611, 78.72778
162.8432, 78.69740
163.3253, 78.54829
163.8074, 78.33575
164.2896, 78.04147
164.7717, 77.69962
165.2538, 77.37951
165.7359, 77.01139
166.2180, 76.73089
166.7001, 76.67168
167.1823, 76.94701
167.6644, 77.23992
168.1465, 77.27978
168.6286, 77.16277
169.1107, 77.16079
169.5928, 77.64009
170.0750, 78.21977
170.5571, 78.50155
171.0392, 78.32167
171.5213, 77.94612
172.0034, 77.50086
172.4855, 77.01295
172.9677, 76.61122
173.4498, 76.41631
173.9319, 76.34520
174.4140, 76.28439
174.8961, 76.21947
175.3782, 76.13570
175.8604, 75.98711
176.3425, 75.78348
176.8246, 75.61313
177.3067, 75.57497
177.7888, 75.61449
178.2709, 75.62467
178.7531, 75.59011
179.2352, 75.49754
179.7173, 75.25636
180.1994, 74.87411
180.6815, 74.57824
181.1636, 74.71323
181.6458, 75.12348
182.1279, 75.32817
182.6100, 75.01149
183.0921, 74.46204
183.5742, 74.29743
184.0563, 74.53333
184.5385, 74.88544
185.0206, 75.11496
185.5027, 75.23105
185.9848, 75.26816
186.4669, 75.24379
186.9490, 75.14926
187.4312, 74.91097
187.9133, 74.51070
188.3954, 74.11394
188.8775, 73.88125
189.3596, 73.81245
189.8417, 73.91671
190.3239, 74.30351
190.8060, 74.89590
191.2881, 75.27696
191.7702, 75.42369
192.2523, 75.44027
192.7344, 75.43448
193.2166, 75.40704
193.6987, 75.37626
194.1808, 75.36671
194.6629, 75.37204
195.1450, 75.28509
195.6271, 75.07143
196.1093, 74.85335
196.5914, 74.80207
197.0735, 74.92170
197.5556, 75.14906
198.0377, 75.50288
198.5198, 75.98710
199.0020, 76.36916
199.4841, 76.61935
199.9662, 76.81890
200.4483, 77.13672
200.9304, 77.60424
201.4125, 77.99619
201.8947, 78.14466
202.3768, 78.01400
202.8589, 78.11609
203.3410, 78.51646
203.8231, 79.06922
204.3052, 79.49736
204.7874, 79.78175
205.2695, 80.03628
205.7516, 80.33644
206.2337, 80.70948
206.7158, 80.94767
207.1979, 81.04749
207.6801, 81.01415
208.1622, 80.79458
208.6443, 80.28452
209.1264, 79.90506
209.6085, 79.94991
210.0906, 80.59570
210.5728, 80.82780
211.0549, 80.51084
211.5370, 79.85917
212.0191, 79.33630
212.5012, 78.92742
212.9833, 78.67326
213.4655, 78.64899
213.9476, 78.96249
214.4297, 79.09583
214.9118, 78.98144
215.3939, 78.71230
215.8760, 78.49738
216.3581, 78.31496
216.8403, 78.23450
217.3224, 78.32460
217.8045, 78.68198
218.2866, 78.90562
218.7687, 78.95187
219.2508, 78.86997
219.7330, 78.82446
220.2151, 78.93633
220.6972, 78.85810
221.1793, 78.34026
221.6614, 77.06343
222.1435, 76.21400
222.6257, 75.94419
223.1078, 76.07019
223.5899, 76.06960
224.0720, 75.85123
224.5541, 75.65370
225.0362, 75.63586
225.5184, 76.02161
226.0005, 76.00284
226.4826, 75.34776
226.9647, 74.33981
227.4468, 73.79655
227.9289, 74.03837
228.4111, 74.26232
228.8932, 74.06381
229.3753, 73.17834
229.8574, 72.50756
230.3395, 72.11906
230.8216, 71.94548
231.3038, 71.82072
231.7859, 71.83883
232.2680, 71.76714
232.7501, 71.45858
233.2322, 70.68077
233.7143, 70.20452
234.1965, 70.16727
234.6786, 70.40273
235.1607, 70.44900
235.6428, 70.24805
236.1249, 69.93999
236.6070, 69.55791
237.0892, 68.98260
237.5713, 68.61075
238.0534, 68.56702
238.5355, 68.69349
239.0176, 68.55762
239.4997, 67.93077
239.9819, 67.36708
240.4640, 67.16099
240.9461, 67.63053
241.4282, 67.67458
241.9103, 67.06334
242.3924, 66.10029
242.8746, 65.53652
243.3567, 65.62110
243.8388, 65.72803
244.3209, 65.60508
244.8030, 65.17534
245.2851, 64.72908
245.7673, 64.28242
246.2494, 63.81386
246.7315, 63.24713
247.2136, 62.42657
247.6957, 61.75636
248.1778, 61.43022
248.6600, 61.60543
249.1421, 61.66210
249.6242, 61.60485
250.1063, 61.42790
250.5884, 61.08795
251.0705, 60.43756
251.5527, 59.87501
252.0348, 59.59697
252.5169, 59.74242
252.9990, 59.63073
253.4811, 59.10251
253.9632, 58.41828
254.4454, 58.06466
254.9275, 58.19452
255.4096, 58.35697
255.8917, 58.39981
256.3738, 58.29142
256.8560, 58.20430
257.3381, 58.13165
257.8202, 58.08538
258.3023, 58.10687
258.7844, 58.27560
259.2665, 58.33813
259.7487, 58.19261
260.2308, 57.80571
260.7129, 57.42154
261.1950, 56.96935
261.6771, 56.59625
262.1592, 56.56259
262.6414, 57.04637
263.1235, 57.41349
263.6056, 57.42537
264.0877, 57.04499
264.5698, 56.88879
265.0519, 57.03772
265.5341, 57.29962
266.0162, 57.48633
266.4983, 57.63484
266.9804, 57.57179
267.4625, 57.13900
267.9446, 56.35106
268.4268, 56.01434
268.9089, 56.30198
269.3910, 56.74594
269.8731, 56.83181
270.3552, 56.44912
270.8373, 56.16024
271.3195, 56.13964
271.8016, 56.34643
272.2837, 56.31023
272.7658, 55.93459
273.2479, 55.53068
273.7300, 55.41737
274.2122, 55.65171
274.6943, 55.81446
275.1764, 55.78596
275.6585, 55.62053
276.1406, 55.62896
276.6227, 55.85794
277.1049, 56.10833
277.5870, 56.26534
278.0691, 56.34058
278.5512, 56.15649
279.0333, 55.57357
279.5154, 54.76892
279.9976, 54.36944
280.4797, 54.42989
280.9618, 54.60968
281.4439, 54.69559
281.9260, 54.68620
282.4081, 54.61996
282.8903, 54.48487
283.3724, 54.31334
283.8545, 54.17847
284.3366, 54.08101
284.8187, 54.01117
285.3008, 53.96787
285.7830, 53.94966
286.2651, 53.94013
286.7472, 53.93204
287.2293, 53.94249
287.7114, 54.04319
288.1935, 54.23259
288.6757, 54.34953
289.1578, 54.20665
289.6399, 53.87976
290.1220, 53.82338
290.6041, 54.13084
291.0862, 54.48541
291.5684, 54.34928
292.0505, 53.77554
292.5326, 53.27466
293.0147, 53.15464
293.4968, 53.30005
293.9789, 53.37902
294.4611, 53.38511
294.9432, 53.30984
295.4253, 53.07214
295.9074, 52.71792
296.3895, 52.44973
296.8716, 52.38614
297.3538, 52.45670
297.8359, 52.52546
298.3180, 52.59283
298.8001, 52.66444
299.2822, 52.77237
299.7643, 52.89225
300.2465, 52.95910
300.7286, 52.94314
301.2107, 52.86715
301.6928, 52.72121
302.1749, 52.51393
302.6570, 52.35692
303.1392, 52.38580
303.6213, 52.51975
304.1034, 52.62594
304.5855, 52.69720
305.0676, 52.69067
305.5497, 52.41827
306.0319, 51.96228
306.5140, 51.73730
306.9961, 52.35064
307.4782, 53.22663
307.9603, 53.65372
308.4424, 53.31023
308.9246, 52.77214
309.4067, 52.39463
309.8888, 52.16790
310.3709, 52.06005
310.8530, 52.14166
311.3351, 52.28864
311.8173, 52.41112
312.2994, 52.51406
312.7815, 52.53539
313.2636, 52.41053
313.7457, 52.18220
314.2278, 51.92426
314.7100, 51.48621
315.1921, 51.16394
315.6742, 51.13240
316.1563, 50.65839
316.6384, 51.53238
317.1205, 52.03094
317.6027, 52.17423
318.0848, 50.89821
318.5669, 51.45494
319.0490, 51.27719
319.5311, 51.06932
320.0132, 51.88400
320.4954, 50.81443
320.9775, 51.61290
321.4596, 50.95868
321.9417, 50.71322
322.4238, 51.41807
322.9059, 52.01968
323.3881, 52.27964
323.8702, 52.20809
324.3523, 52.01972
324.8344, 51.45628
325.3165, 50.97448
325.7986, 50.83859
326.2808, 51.67751
326.7629, 52.14734
327.2450, 51.86409
327.7271, 51.06980
328.2092, 50.72050
328.6913, 51.17685
329.1735, 51.76830
329.6556, 52.25413
330.1377, 52.65872
330.6198, 52.90852
331.1019, 52.96508
331.5840, 52.87707
332.0662, 52.72364
332.5483, 52.41376
333.0304, 52.16911
333.5125, 52.10076
333.9946, 52.27414
334.4767, 52.24486
334.9589, 51.86361
335.4410, 51.42560
335.9231, 51.33465
336.4052, 51.72937
336.8873, 52.11199
337.3694, 52.37258
337.8516, 52.51443
338.3336, 52.58052
338.8158, 52.54010
339.2979, 52.49158
339.7800, 52.47778
340.2621, 52.47053
340.7442, 52.75401
341.2263, 53.54319
341.7085, 54.57212
342.1906, 54.73000
342.6727, 53.86283
343.1548, 53.09819
343.6369, 53.46686
344.1190, 54.86489
344.6012, 55.56771
345.0833, 55.24593
345.5654, 54.42778
346.0475, 53.98256
346.5296, 53.89687
347.0117, 53.95348
347.4939, 54.08838
347.9760, 54.27746
348.4581, 54.43610
348.9402, 54.55134
349.4223, 54.68583
349.9044, 55.00702
350.3866, 55.43164
350.8687, 55.67783
351.3508, 55.48116
351.8329, 55.10535
352.3150, 54.96968
352.7971, 55.06882
353.2793, 55.22294
353.7614, 55.32053
354.2435, 55.37468
354.7256, 55.40319
355.2077, 55.38522
355.6898, 55.37585
356.1720, 55.45368
356.6541, 55.59374
357.1362, 55.68925
357.6183, 55.55290
358.1004, 55.41183
358.5826, 55.48959
359.0647, 55.89213
359.5468, 56.34958
360.0289, 56.75077
360.5110, 57.10273
360.9931, 57.42025
361.4753, 57.77675
361.9574, 58.04248
362.4395, 58.10731
362.9216, 57.92290
363.4037, 57.79234
363.8858, 57.80439
364.3680, 57.91660
364.8501, 58.08501
365.3322, 58.47063
365.8143, 58.73700
366.2964, 58.67911
366.7785, 58.31062
367.2607, 58.22584
367.7428, 58.74847
368.2249, 59.39268
368.7070, 59.86823
369.1891, 60.11749
369.6712, 60.26226
370.1534, 60.23029
370.6355, 60.09367
371.1176, 60.08121
371.5997, 60.25477
372.0818, 60.47069
372.5639, 60.67446
373.0461, 60.85876
373.5282, 61.05608
374.0103, 61.27879
374.4924, 61.50483
374.9745, 61.70715
375.4566, 61.90015
375.9388, 62.02421
376.4209, 62.03068
376.9030, 61.93270
377.3851, 61.94281
377.8672, 62.08250
378.3493, 62.26632
378.8315, 62.42107
379.3136, 62.54905
379.7957, 62.64838
380.2778, 62.69918
380.7599, 62.74358
381.2420, 62.91463
381.7242, 63.20937
382.2063, 63.48731
382.6884, 63.59927
383.1705, 63.60918
383.6526, 63.75100
384.1347, 64.06319
384.6169, 64.43413
385.0990, 64.75153
385.5811, 65.01329
386.0632, 65.19903
386.5453, 65.23978
387.0274, 65.22661
387.5096, 65.29725
387.9917, 65.45213
388.4738, 65.58627
388.9559, 65.58454
389.4380, 65.52156
389.9201, 65.49389
390.4023, 65.52534
390.8844, 65.61116
391.3665, 65.78922
391.8486, 66.03213
392.3307, 66.23170
392.8128, 66.31062
393.2950, 66.34449
393.7771, 66.36700
394.2592, 66.34381
394.7413, 66.41280
395.2234, 66.77166
395.7055, 67.21869
396.1877, 67.44251
396.6698, 67.12882
397.1519, 66.81588
397.6340, 66.67066
398.1161, 66.71688
398.5982, 66.77849
399.0804, 66.92129
399.5625, 67.03011
400.0446, 67.01380
400.5267, 66.68566
401.0088, 66.51470
401.4909, 66.62650
401.9731, 66.93447
402.4552, 67.05765
402.9373, 66.83056
403.4194, 66.69043
403.9015, 66.92901
404.3836, 67.75001
404.8658, 68.07706
405.3479, 67.71225
405.8300, 67.11565
406.3121, 67.02833
406.7942, 67.53324
407.2763, 67.94857
407.7585, 67.97236
408.2406, 67.71419
408.7227, 67.88094
409.2048, 68.52604
409.6869, 69.13586
410.1690, 69.15681
410.6512, 68.70898
411.1333, 68.37786
411.6154, 68.28426
412.0975, 68.33496
412.5796, 68.44053
413.0617, 68.58410
413.5439, 68.68301
414.0260, 68.69001
414.5081, 68.62550
414.9902, 68.52339
415.4723, 68.38881
415.9544, 68.19201
416.4366, 67.75998
416.9187, 67.28288
417.4008, 67.04601
417.8829, 67.41846
418.3650, 67.83398
418.8471, 67.96960
419.3293, 67.85291
419.8114, 67.66706
420.2935, 67.53975
420.7756, 67.33701
421.2577, 66.93398
421.7398, 66.07555
422.2220, 65.46430
422.7041, 65.37749
423.1862, 65.61272
423.6683, 65.80211
424.1504, 65.99587
424.6325, 66.04586
425.1147, 65.84256
425.5968, 65.33305
426.0789, 65.03468
426.5610, 65.04277
427.0431, 65.17480
427.5252, 65.27920
428.0074, 65.30467
428.4895, 65.44168
428.9716, 65.80572
429.4537, 66.26033
429.9358, 66.29499
430.4179, 65.77320
430.9001, 65.31257
431.3822, 65.31756
431.8643, 65.79892
432.3464, 65.97900
432.8285, 65.80766
433.3106, 65.49341
433.7928, 65.27132
434.2749, 65.13513
434.7570, 65.03400
435.2391, 64.96186
435.7212, 64.90791
436.2033, 64.84231
436.6855, 64.76937
437.1676, 64.72346
437.6497, 64.71456
438.1318, 64.75345
438.6139, 64.89202
439.0960, 65.18355
439.5782, 65.40898
440.0603, 65.29143
440.5424, 64.98673
441.0245, 64.78834
441.5066, 64.98059
441.9887, 65.18235
442.4709, 65.07928
442.9530, 64.68254
443.4351, 64.48245
443.9172, 64.07236
444.3993, 64.92819
444.8814, 65.40858
445.3636, 65.53370
445.8457, 64.23952
446.3278, 64.77808
446.8099, 64.58215
447.2920, 64.35612
447.7741, 65.15263
448.2563, 64.06487
448.7384, 64.84517
449.2205, 64.87978
449.7026, 65.25567
450.1847, 64.96837
450.6668, 65.26785
451.1490, 65.29782
451.6311, 64.95609
452.1132, 64.75056
452.5953, 64.78349
453.0774, 64.97638
453.5595, 65.11033
454.0417, 65.17542
454.5238, 65.27793
455.0059, 65.55308
455.4880, 65.93789
455.9701, 66.06291
456.4522, 65.88142
456.9344, 65.67207
457.4165, 65.73977
457.8986, 66.02160
458.3807, 66.35686
458.8628, 66.80167
459.3449, 67.15877
459.8271, 67.03545
460.3092, 66.56712
460.7913, 66.33168
461.2734, 66.92523
461.7555, 67.74154
462.2376, 68.26563
462.7198, 68.37769
463.2019, 68.40412
463.6840, 68.40395
464.1661, 68.43099
464.6482, 68.55032
465.1303, 68.86730
465.6125, 69.18446
466.0946, 69.42765
466.5767, 69.61072
467.0588, 69.85351
467.5409, 70.24649
468.0230, 70.62935
468.5052, 70.91909
468.9873, 71.03265
469.4694, 71.27261
469.9515, 71.71737
470.4336, 72.22050
470.9157, 72.57799
471.3979, 72.76054
471.8800, 72.88307
472.3621, 72.92988
472.8442, 72.94373
473.3263, 73.14580
473.8084, 73.54930
474.2906, 74.03682
474.7727, 74.55033
475.2548, 75.08157
475.7369, 75.59912
476.2190, 76.10661
476.7011, 76.57555
477.1833, 76.97121
477.6654, 77.30566
478.1475, 77.61193
478.6296, 77.86076
479.1117, 78.11814
479.5938, 78.46972
480.0760, 78.90389
480.5581, 79.32896
481.0402, 79.68218
481.5223, 80.01549
482.0044, 80.35870
482.4865, 80.68420
482.9687, 81.10144
483.4508, 81.66786
483.9329, 82.34532
484.4150, 83.07053
484.8971, 84.00070
485.3792, 84.80620
485.8614, 85.41071
486.3435, 85.82320
486.8256, 86.11181
487.3077, 86.12549
487.7898, 86.18893
488.2719, 86.49217
488.7541, 87.10555
489.2362, 87.72495
489.7183, 88.37922
490.2004, 88.99947
490.6825, 89.42487
491.1646, 89.62023
491.6468, 90.00967
492.1289, 90.79749
492.6110, 91.82665
493.0931, 92.70307
493.5752, 93.43032
494.0573, 94.05728
494.5395, 94.60466
495.0216, 95.08449
495.5037, 95.51982
495.9858, 95.89388
496.4679, 96.28881
496.9500, 96.70609
497.4322, 97.20308
497.9143, 97.86789
498.3964, 98.90041
498.8785, 99.96404
499.3606, 100.8464
499.8427, 101.5912
500.3249, 102.3416
500.8070, 103.1080
501.2891, 103.9348
501.7712, 104.8911
502.2533, 106.1323
502.7354, 107.0696
503.2176, 107.4125
503.6997, 107.5520
504.1818, 107.8716
504.6639, 108.4026
505.1460, 109.0627
505.6281, 109.8917
506.1103, 110.8347
506.5924, 111.6327
507.0745, 112.2430
507.5566, 112.8533
508.0387, 113.5853
508.5208, 114.4283
509.0030, 115.1578
509.4851, 115.7568
509.9672, 116.3381
510.4493, 117.0622
510.9314, 117.8767
511.4135, 118.5925
511.8957, 119.1148
512.3778, 119.5929
512.8599, 120.2229
513.3420, 120.9559
513.8242, 121.6420
514.3063, 122.1592
514.7884, 122.6439
515.2705, 123.1727
515.7526, 123.7485
516.2347, 124.4274
516.7169, 125.4280
517.1990, 126.4227
517.6811, 127.1541
518.1632, 127.2588
518.6453, 127.5319
519.1274, 128.0972
519.6096, 128.8730
520.0917, 129.7205
520.5738, 130.7138
521.0559, 131.6474
521.5380, 132.4608
522.0201, 133.1598
522.5023, 133.8418
522.9844, 134.5130
523.4665, 135.1597
523.9486, 135.7652
524.4307, 136.3343
524.9128, 136.8977
525.3950, 137.4431
525.8771, 138.0163
526.3592, 138.6970
526.8413, 139.4558
527.3234, 140.2155
527.8055, 140.9621
528.2877, 141.6677
528.7698, 142.2937
529.2519, 142.8475
529.7340, 143.3895
530.2161, 144.0180
530.6982, 144.6018
531.1804, 144.9813
531.6625, 145.0650
532.1446, 145.3587
532.6267, 146.2853
533.1088, 147.3730
533.5909, 148.1724
534.0731, 148.2984
534.5552, 148.5568
535.0373, 149.1421
535.5194, 149.8786
536.0015, 150.3272
536.4836, 150.3438
536.9658, 150.3560
537.4479, 150.5083
537.9300, 150.7926
538.4121, 151.0989
538.8942, 151.4427
539.3763, 151.7263
539.8585, 151.8913
540.3406, 151.9306
540.8227, 151.7425
541.3048, 151.2399
541.7869, 150.7709
542.2690, 150.9060
542.7512, 151.4210
543.2333, 151.7526
543.7154, 151.5699
544.1975, 151.1912
544.6796, 150.9333
545.1617, 150.7263
545.6439, 150.2696
546.1260, 149.1458
546.6081, 147.9464
547.0902, 147.0247
547.5723, 146.4887
548.0544, 145.9796
548.5366, 145.4835
549.0187, 144.9685
549.5008, 144.4158
549.9829, 143.9075
550.4650, 143.1962
550.9471, 142.1505
551.4293, 140.9523
551.9114, 140.0528
552.3935, 139.5334
552.8756, 138.9233
553.3577, 138.0313
553.8398, 136.9041
554.3220, 135.6967
554.8041, 134.3988
555.2862, 133.1996
555.7683, 132.3692
556.2504, 131.7110
556.7325, 130.7675
557.2147, 129.4333
557.6968, 128.0664
558.1789, 127.0028
558.6610, 126.0867
559.1431, 125.0995
559.6252, 123.8883
560.1074, 122.6688
560.5895, 121.4996
561.0716, 120.3808
561.5537, 119.3393
562.0358, 118.5207
562.5179, 117.6280
563.0001, 116.5073
563.4822, 115.1238
563.9643, 113.9687
564.4464, 113.1956
564.9285, 112.4342
565.4106, 111.3030
565.8928, 109.6778
566.3749, 108.5563
566.8570, 108.1368
567.3391, 107.9479
567.8212, 107.2198
568.3033, 106.0201
568.7855, 104.8831
569.2676, 103.9200
569.7497, 103.1758
570.2318, 102.8374
570.7139, 102.8158
571.1960, 102.6933
571.6782, 102.1173
572.1603, 101.4135
572.6424, 100.9151
573.1245, 100.6702
573.6066, 100.2208
574.0887, 99.06364
574.5709, 97.82364
575.0530, 96.98328
575.5351, 96.97832
576.0172, 96.82746
576.4993, 96.47269
576.9814, 95.97442
577.4636, 95.44488
577.9457, 94.92846
578.4278, 94.23826
578.9099, 93.22047
579.3920, 92.04344
579.8741, 91.44437
580.3563, 91.46909
580.8384, 91.48872
581.3205, 91.10928
581.8026, 90.43215
582.2847, 89.72916
582.7668, 89.00395
583.2490, 88.33318
583.7311, 87.76920
584.2132, 87.30421
584.6953, 86.93828
585.1774, 86.72149
585.6595, 86.49229
586.1416, 86.16622
586.6237, 85.77605
587.1058, 85.36620
587.5880, 84.98048
588.0701, 84.54060
588.5522, 83.99499
589.0343, 83.37145
