##NAMES=Burangaite
##RRUFFID=R070408
##IDEAL CHEMISTRY=NaFe^2+^Al_5_(PO_4_)_4_(OH)_6_&#183;2H_2_O
##LOCALITY=Buranga pegmatite, Gatumba District, Gisenyi Province, Rwanda
##OWNER=RRUFF
##SOURCE=Michael Scott
##DESCRIPTION=Blue to blue-green prismatic, co-type specimen. This is the piece used by Selway et al (1997) to determine structure.
##STATUS=The identification of this mineral has been confirmed by single-crystal X-ray diffraction.
##URL=rruff.info/R070408
146.0895, 1980.403
146.5716, 2059.912
147.0537, 2152.672
147.5358, 2258.065
148.0179, 2346.431
148.5001, 2409.649
148.9822, 2462.243
149.4643, 2514.336
149.9464, 2566.771
150.4285, 2615.423
150.9106, 2658.085
151.3928, 2693.743
151.8749, 2721.552
152.3570, 2743.506
152.8391, 2756.252
153.3212, 2755.207
153.8033, 2739.802
154.2855, 2717.109
154.7676, 2690.079
155.2497, 2659.518
155.7318, 2629.326
156.2139, 2593.360
156.6960, 2561.373
157.1782, 2543.687
157.6603, 2540.844
158.1424, 2551.761
158.6245, 2580.921
159.1066, 2623.903
159.5887, 2672.147
160.0709, 2725.949
160.5530, 2782.844
161.0351, 2838.525
161.5172, 2892.027
161.9993, 2946.665
162.4814, 3004.218
162.9636, 3064.283
163.4457, 3128.218
163.9278, 3199.634
164.4099, 3273.997
164.8920, 3342.780
165.3741, 3405.540
165.8563, 3463.353
166.3384, 3516.140
166.8205, 3564.807
167.3026, 3610.522
167.7847, 3656.222
168.2668, 3698.668
168.7490, 3731.987
169.2311, 3757.848
169.7132, 3769.947
170.1953, 3770.951
170.6774, 3757.118
171.1595, 3718.479
171.6417, 3639.115
172.1238, 3536.715
172.6059, 3456.973
173.0880, 3409.540
173.5701, 3366.172
174.0522, 3304.675
174.5344, 3239.742
175.0165, 3195.133
175.4986, 3187.215
175.9807, 3203.775
176.4628, 3212.177
176.9449, 3212.188
177.4271, 3203.279
177.9092, 3185.690
178.3913, 3160.651
178.8734, 3129.687
179.3555, 3093.166
179.8376, 3051.094
180.3197, 3002.111
180.8019, 2941.253
181.2840, 2882.165
181.7661, 2831.301
182.2482, 2783.680
182.7303, 2732.158
183.2124, 2671.365
183.6946, 2607.432
184.1767, 2559.383
184.6588, 2538.569
185.1409, 2514.782
185.6230, 2472.902
186.1051, 2426.630
186.5873, 2391.913
187.0694, 2376.869
187.5515, 2375.666
188.0336, 2372.993
188.5157, 2368.232
188.9978, 2362.961
189.4800, 2356.634
189.9621, 2350.463
190.4442, 2344.479
190.9263, 2338.353
191.4084, 2334.958
191.8905, 2342.681
192.3727, 2371.401
192.8548, 2393.743
193.3369, 2403.775
193.8190, 2407.091
194.3011, 2408.377
194.7832, 2409.447
195.2654, 2410.460
195.7475, 2411.812
196.2296, 2413.968
196.7117, 2415.575
197.1938, 2414.705
197.6759, 2414.219
198.1581, 2417.169
198.6402, 2424.503
199.1223, 2433.794
199.6044, 2440.304
200.0865, 2441.773
200.5686, 2445.001
201.0508, 2450.267
201.5329, 2457.335
202.0150, 2465.908
202.4971, 2475.966
202.9792, 2487.738
203.4613, 2501.792
203.9435, 2518.944
204.4256, 2536.626
204.9077, 2560.933
205.3898, 2581.561
205.8719, 2587.309
206.3540, 2577.860
206.8362, 2566.443
207.3183, 2573.532
207.8004, 2611.362
208.2825, 2636.180
208.7646, 2640.405
209.2467, 2639.042
209.7289, 2639.497
210.2110, 2643.151
210.6931, 2647.952
211.1752, 2652.301
211.6573, 2657.611
212.1395, 2656.854
212.6216, 2644.062
213.1037, 2630.756
213.5858, 2623.468
214.0679, 2621.583
214.5500, 2619.698
215.0322, 2611.945
215.5143, 2596.992
215.9964, 2585.186
216.4785, 2577.270
216.9606, 2571.693
217.4427, 2568.038
217.9249, 2566.279
218.4070, 2566.816
218.8891, 2570.725
219.3712, 2578.217
219.8533, 2581.359
220.3354, 2574.612
220.8176, 2568.692
221.2997, 2565.051
221.7818, 2564.498
222.2639, 2568.747
222.7460, 2580.106
223.2281, 2597.356
223.7103, 2606.268
224.1924, 2595.983
224.6745, 2588.795
225.1566, 2593.369
225.6387, 2603.162
226.1208, 2607.553
226.6030, 2599.809
227.0851, 2583.487
227.5672, 2573.657
228.0493, 2575.346
228.5314, 2577.227
229.0135, 2580.261
229.4957, 2581.406
229.9778, 2576.361
230.4599, 2563.004
230.9420, 2544.977
231.4241, 2530.797
231.9062, 2520.113
232.3884, 2514.763
232.8705, 2521.735
233.3526, 2529.661
233.8347, 2527.162
234.3168, 2510.771
234.7989, 2488.327
235.2811, 2473.563
235.7632, 2469.926
236.2453, 2465.924
236.7274, 2460.868
237.2095, 2454.941
237.6916, 2445.940
238.1738, 2434.446
238.6559, 2426.097
239.1380, 2429.994
239.6201, 2451.207
240.1022, 2465.837
240.5843, 2467.885
241.0665, 2467.422
241.5486, 2469.020
242.0307, 2472.849
242.5128, 2476.456
242.9949, 2476.559
243.4770, 2472.534
243.9592, 2472.692
244.4413, 2482.484
244.9234, 2491.493
245.4055, 2493.629
245.8876, 2491.509
246.3697, 2492.332
246.8519, 2502.361
247.3340, 2520.391
247.8161, 2534.706
248.2982, 2541.599
248.7803, 2549.733
249.2624, 2565.926
249.7446, 2584.709
250.2267, 2595.745
250.7088, 2590.369
251.1909, 2577.196
251.6730, 2582.886
252.1551, 2617.823
252.6373, 2650.920
253.1194, 2668.451
253.6015, 2680.609
254.0836, 2698.116
254.5657, 2724.953
255.0478, 2757.954
255.5300, 2792.911
256.0121, 2830.071
256.4942, 2867.948
256.9763, 2905.138
257.4584, 2943.437
257.9406, 2986.065
258.4227, 3033.843
258.9048, 3080.764
259.3869, 3124.819
259.8690, 3166.660
260.3511, 3190.640
260.8333, 3186.025
261.3154, 3168.071
261.7975, 3147.628
262.2796, 3125.127
262.7617, 3097.578
263.2438, 3059.008
263.7260, 3011.868
264.2081, 2970.366
264.6902, 2934.419
265.1723, 2907.404
265.6544, 2896.727
266.1365, 2897.246
266.6187, 2891.857
267.1008, 2867.862
267.5829, 2833.337
268.0650, 2805.274
268.5471, 2785.123
269.0292, 2768.090
269.5114, 2750.310
269.9935, 2733.570
270.4756, 2721.644
270.9577, 2717.658
271.4398, 2717.125
271.9219, 2716.292
272.4041, 2715.222
272.8862, 2710.821
273.3683, 2698.085
273.8504, 2682.726
274.3325, 2675.943
274.8146, 2682.359
275.2968, 2689.894
275.7789, 2690.938
276.2610, 2686.421
276.7431, 2679.842
277.2252, 2671.756
277.7073, 2662.997
278.1895, 2654.729
278.6716, 2646.795
279.1537, 2639.829
279.6358, 2633.312
280.1179, 2628.103
280.6000, 2626.296
281.0822, 2628.674
281.5643, 2632.457
282.0464, 2634.761
282.5285, 2635.587
283.0106, 2634.796
283.4927, 2630.140
283.9749, 2625.263
284.4570, 2623.826
284.9391, 2625.955
285.4212, 2628.728
285.9033, 2629.378
286.3854, 2628.093
286.8676, 2630.515
287.3497, 2639.259
287.8318, 2648.802
288.3139, 2660.207
288.7960, 2670.641
289.2781, 2671.805
289.7603, 2657.806
290.2424, 2633.254
290.7245, 2617.887
291.2066, 2620.720
291.6887, 2620.896
292.1708, 2609.534
292.6530, 2595.886
293.1351, 2592.720
293.6172, 2604.376
294.0993, 2623.755
294.5814, 2638.574
295.0635, 2648.550
295.5457, 2653.664
296.0278, 2653.656
296.5099, 2649.401
296.9920, 2635.615
297.4741, 2615.238
297.9562, 2602.761
298.4384, 2615.457
298.9205, 2658.731
299.4026, 2689.786
299.8847, 2698.888
300.3668, 2705.899
300.8489, 2717.948
301.3311, 2733.279
301.8131, 2746.025
302.2953, 2751.370
302.7774, 2752.073
303.2595, 2763.280
303.7416, 2797.379
304.2237, 2823.597
304.7058, 2826.752
305.1880, 2823.483
305.6701, 2832.859
306.1522, 2862.199
306.6343, 2900.855
307.1164, 2931.255
307.5985, 2950.704
308.0807, 2971.500
308.5628, 2999.980
309.0449, 3027.412
309.5270, 3045.768
310.0091, 3055.405
310.4912, 3066.648
310.9734, 3089.466
311.4555, 3122.876
311.9376, 3155.215
312.4197, 3182.449
312.9018, 3213.437
313.3839, 3260.288
313.8661, 3315.548
314.3482, 3358.926
314.8303, 3379.468
315.3124, 3383.401
315.7945, 3380.785
316.2766, 3371.586
316.7588, 3355.719
317.2409, 3326.140
317.7230, 3292.235
318.2051, 3270.166
318.6872, 3266.186
319.1693, 3266.828
319.6515, 3265.476
320.1336, 3261.324
320.6157, 3247.619
321.0978, 3215.660
321.5799, 3183.476
322.0620, 3184.938
322.5442, 3225.044
323.0263, 3258.033
323.5084, 3265.897
323.9905, 3261.730
324.4726, 3261.271
324.9547, 3267.193
325.4369, 3277.246
325.9190, 3290.570
326.4011, 3307.641
326.8832, 3319.287
327.3653, 3320.709
327.8474, 3321.386
328.3296, 3325.187
328.8117, 3332.573
329.2938, 3344.335
329.7759, 3361.540
330.2580, 3382.533
330.7401, 3399.249
331.2223, 3408.916
331.7044, 3417.788
332.1865, 3426.151
332.6686, 3434.220
333.1507, 3440.780
333.6328, 3445.884
334.1150, 3453.334
334.5971, 3470.236
335.0792, 3503.388
335.5613, 3527.135
336.0434, 3539.901
336.5255, 3545.932
337.0077, 3542.696
337.4898, 3533.725
337.9719, 3528.342
338.4540, 3535.873
338.9361, 3553.911
339.4182, 3559.253
339.9004, 3536.530
340.3825, 3524.134
340.8646, 3540.404
341.3467, 3569.581
341.8288, 3592.031
342.3109, 3600.264
342.7931, 3600.360
343.2752, 3599.294
343.7573, 3596.233
344.2394, 3598.351
344.7215, 3613.135
345.2036, 3629.174
345.6858, 3638.064
346.1679, 3639.365
346.6500, 3636.085
347.1321, 3624.765
347.6142, 3610.372
348.0963, 3608.345
348.5785, 3623.190
349.0606, 3641.118
349.5427, 3650.750
350.0248, 3654.722
350.5069, 3660.665
350.9890, 3676.038
351.4712, 3689.033
351.9533, 3684.863
352.4354, 3667.526
352.9175, 3658.860
353.3996, 3671.021
353.8817, 3696.013
354.3639, 3713.120
354.8460, 3720.374
355.3281, 3725.947
355.8102, 3740.481
356.2923, 3750.280
356.7744, 3731.406
357.2566, 3680.796
357.7387, 3628.248
358.2208, 3608.510
358.7029, 3629.486
359.1850, 3640.092
359.6671, 3637.235
360.1493, 3628.836
360.6314, 3612.454
361.1135, 3593.526
361.5956, 3583.171
362.0777, 3588.628
362.5598, 3604.952
363.0420, 3612.988
363.5241, 3598.743
364.0062, 3599.450
364.4883, 3622.581
364.9704, 3658.526
365.4525, 3704.899
365.9347, 3758.808
366.4168, 3808.208
366.8989, 3836.316
367.3810, 3841.821
367.8631, 3851.488
368.3452, 3868.788
368.8274, 3887.641
369.3095, 3904.309
369.7916, 3920.044
370.2737, 3938.272
370.7558, 3963.867
371.2379, 3990.222
371.7201, 4007.531
372.2022, 4016.044
372.6843, 4012.317
373.1664, 3987.365
373.6485, 3953.368
374.1306, 3931.731
374.6128, 3928.939
375.0949, 3917.406
375.5770, 3873.493
376.0591, 3812.426
376.5412, 3765.438
377.0233, 3739.649
377.5055, 3722.029
377.9876, 3699.943
378.4697, 3672.858
378.9518, 3647.772
379.4339, 3620.815
379.9160, 3599.508
380.3982, 3593.495
380.8803, 3597.489
381.3624, 3596.541
381.8445, 3582.089
382.3266, 3558.878
382.8087, 3540.927
383.2909, 3528.374
383.7730, 3521.986
384.2551, 3524.142
384.7372, 3530.795
385.2193, 3539.369
385.7014, 3549.074
386.1836, 3560.159
386.6657, 3575.247
387.1478, 3595.276
387.6299, 3599.576
388.1120, 3570.927
388.5941, 3545.991
389.0763, 3541.754
389.5584, 3547.755
390.0405, 3546.957
390.5226, 3531.249
391.0047, 3508.072
391.4868, 3488.913
391.9690, 3474.377
392.4511, 3459.274
392.9332, 3446.796
393.4153, 3428.681
393.8974, 3393.517
394.3795, 3341.488
394.8617, 3296.030
395.3438, 3273.755
395.8259, 3263.608
396.3080, 3246.506
396.7901, 3220.497
397.2722, 3194.758
397.7544, 3176.954
398.2365, 3164.844
398.7186, 3146.149
399.2007, 3109.499
399.6828, 3079.275
400.1649, 3071.363
400.6471, 3074.633
401.1292, 3069.950
401.6113, 3050.937
402.0934, 3025.479
402.5755, 3005.144
403.0576, 2992.945
403.5398, 2976.885
404.0219, 2954.981
404.5040, 2931.483
404.9861, 2907.358
405.4682, 2883.390
405.9503, 2861.220
406.4325, 2842.177
406.9146, 2825.010
407.3967, 2804.610
407.8788, 2775.776
408.3609, 2754.745
408.8430, 2750.549
409.3252, 2750.700
409.8073, 2745.685
410.2894, 2734.029
410.7715, 2720.157
411.2536, 2706.970
411.7357, 2694.561
412.2179, 2683.982
412.7000, 2675.746
413.1821, 2668.376
413.6642, 2661.938
414.1463, 2655.576
414.6284, 2647.158
415.1106, 2631.352
415.5927, 2619.365
416.0748, 2624.364
416.5569, 2640.477
417.0390, 2647.836
417.5211, 2638.121
418.0033, 2622.949
418.4854, 2619.319
418.9675, 2629.887
419.4496, 2644.504
419.9317, 2671.836
420.4138, 2695.690
420.8960, 2702.770
421.3781, 2696.174
421.8602, 2688.275
422.3423, 2687.173
422.8244, 2690.678
423.3065, 2688.912
423.7887, 2674.438
424.2708, 2666.476
424.7529, 2665.923
425.2350, 2672.655
425.7171, 2691.823
426.1992, 2721.453
426.6814, 2746.511
427.1635, 2747.274
427.6456, 2726.725
428.1277, 2722.294
428.6098, 2742.452
429.0919, 2762.532
429.5741, 2769.766
430.0562, 2768.921
430.5383, 2765.148
431.0204, 2756.118
431.5025, 2752.057
431.9846, 2765.498
432.4668, 2791.644
432.9489, 2813.816
433.4310, 2828.026
433.9131, 2836.123
434.3952, 2838.120
434.8773, 2832.957
435.3595, 2833.783
435.8416, 2848.162
436.3237, 2862.534
436.8058, 2867.774
437.2879, 2866.138
437.7701, 2864.498
438.2522, 2866.369
438.7343, 2870.335
439.2164, 2872.948
439.6985, 2874.904
440.1806, 2874.027
440.6628, 2874.499
441.1449, 2869.156
441.6270, 2846.982
442.1091, 2813.046
442.5912, 2786.413
443.0733, 2784.662
443.5555, 2800.257
444.0376, 2803.333
444.5197, 2789.993
445.0018, 2774.986
445.4839, 2760.255
445.9660, 2748.485
446.4482, 2745.193
446.9303, 2752.733
447.4124, 2755.474
447.8945, 2734.396
448.3766, 2703.572
448.8587, 2695.322
449.3409, 2715.093
449.8230, 2740.530
450.3051, 2755.501
450.7872, 2760.580
451.2693, 2764.555
451.7514, 2763.807
452.2336, 2766.209
452.7157, 2778.484
453.1978, 2793.968
453.6799, 2801.158
454.1620, 2797.435
454.6441, 2792.907
455.1263, 2800.571
455.6084, 2821.765
456.0905, 2847.475
456.5726, 2886.973
457.0547, 2921.238
457.5368, 2942.642
458.0190, 2955.355
458.5011, 2964.237
458.9832, 2969.771
459.4653, 2979.928
459.9474, 3012.469
460.4295, 3067.818
460.9117, 3107.009
461.3938, 3115.522
461.8759, 3115.250
462.3580, 3128.147
462.8401, 3150.902
463.3222, 3165.397
463.8044, 3161.807
464.2865, 3151.829
464.7686, 3144.818
465.2507, 3140.324
465.7328, 3136.732
466.2149, 3134.252
466.6971, 3128.999
467.1792, 3112.692
467.6613, 3075.021
468.1434, 3048.119
468.6255, 3037.974
469.1076, 3033.107
469.5898, 3027.884
470.0719, 3021.776
470.5540, 3015.215
471.0361, 3007.764
471.5182, 3001.857
472.0003, 3006.379
472.4825, 3027.274
472.9646, 3042.280
473.4467, 3041.499
473.9288, 3036.849
474.4109, 3033.931
474.8930, 3033.703
475.3752, 3037.882
475.8573, 3050.890
476.3394, 3067.558
476.8215, 3078.110
477.3036, 3082.252
477.7857, 3088.276
478.2679, 3102.219
478.7500, 3119.074
479.2321, 3124.315
479.7142, 3107.475
480.1963, 3106.198
480.6784, 3144.479
481.1606, 3190.069
481.6427, 3210.231
482.1248, 3206.019
482.6069, 3201.591
483.0890, 3215.260
483.5711, 3243.639
484.0533, 3268.510
484.5354, 3290.132
485.0175, 3307.461
485.4996, 3314.972
485.9817, 3322.469
486.4638, 3339.489
486.9460, 3366.062
487.4281, 3392.250
487.9102, 3409.694
488.3923, 3420.841
488.8744, 3432.718
489.3565, 3445.294
489.8387, 3458.651
490.3208, 3470.123
490.8029, 3484.108
491.2850, 3510.989
491.7671, 3559.048
492.2492, 3596.146
492.7314, 3603.663
493.2135, 3598.644
493.6956, 3597.431
494.1777, 3602.891
494.6598, 3614.871
495.1419, 3633.813
495.6241, 3658.809
496.1062, 3684.639
496.5883, 3713.422
497.0704, 3739.792
497.5525, 3763.820
498.0346, 3785.080
498.5168, 3802.843
498.9989, 3817.231
499.4810, 3829.109
499.9631, 3834.508
500.4452, 3838.153
500.9273, 3862.572
501.4095, 3914.882
501.8916, 3957.864
502.3737, 3972.425
502.8558, 3969.532
503.3379, 3966.100
503.8200, 3961.282
504.3022, 3960.809
504.7843, 3968.769
505.2664, 3981.099
505.7485, 3996.099
506.2306, 4012.065
506.7127, 4020.866
507.1949, 4015.917
507.6770, 4001.198
508.1591, 3994.205
508.6412, 4000.775
509.1233, 4006.886
509.6054, 4012.115
510.0876, 4016.386
510.5697, 4020.104
511.0518, 4022.939
511.5339, 4023.810
512.0161, 4022.519
512.4982, 4018.351
512.9803, 4007.154
513.4624, 3987.026
513.9445, 3971.094
514.4266, 3958.590
514.9088, 3957.827
515.3909, 3983.947
515.8730, 4039.888
516.3551, 4084.378
516.8372, 4100.727
517.3193, 4103.444
517.8015, 4100.259
518.2836, 4094.825
518.7657, 4098.262
519.2478, 4117.685
519.7299, 4143.905
520.2120, 4154.459
520.6942, 4139.176
521.1763, 4127.350
521.6584, 4128.372
522.1405, 4123.816
522.6226, 4101.368
523.1047, 4065.027
523.5869, 4025.984
524.0690, 3988.404
524.5511, 3954.420
525.0332, 3934.354
525.5153, 3927.988
525.9974, 3897.480
526.4796, 3822.477
526.9617, 3739.086
527.4438, 3691.019
527.9259, 3673.233
528.4080, 3643.923
528.8901, 3587.303
529.3723, 3527.410
529.8544, 3473.122
530.3365, 3426.720
530.8186, 3394.839
531.3007, 3379.152
531.7828, 3368.889
532.2650, 3348.585
532.7471, 3315.722
533.2292, 3287.980
533.7113, 3265.923
534.1934, 3248.661
534.6755, 3237.318
535.1577, 3229.987
535.6398, 3226.176
536.1219, 3226.606
536.6040, 3221.970
537.0861, 3195.054
537.5682, 3155.814
538.0504, 3141.424
538.5325, 3159.574
539.0146, 3176.364
539.4967, 3164.132
539.9788, 3130.994
540.4609, 3117.892
540.9431, 3147.971
541.4252, 3163.963
541.9073, 3139.320
542.3894, 3105.164
542.8715, 3092.157
543.3536, 3101.907
543.8358, 3117.201
544.3179, 3125.608
544.8000, 3127.236
545.2821, 3122.099
545.7642, 3108.925
546.2463, 3092.450
546.7285, 3070.556
547.2106, 3048.249
547.6927, 3031.076
548.1748, 3018.411
548.6569, 3001.335
549.1390, 2971.344
549.6211, 2938.415
550.1032, 2913.068
550.5853, 2894.583
551.0674, 2880.996
551.5496, 2872.473
552.0317, 2862.516
552.5138, 2839.358
552.9959, 2795.859
553.4780, 2763.190
553.9601, 2748.402
554.4423, 2735.098
554.9244, 2720.434
555.4065, 2701.741
555.8886, 2673.545
556.3707, 2633.391
556.8528, 2592.762
557.3350, 2564.781
557.8171, 2548.691
558.2992, 2541.049
558.7813, 2546.033
559.2634, 2544.821
559.7455, 2519.310
560.2277, 2478.638
560.7098, 2453.136
561.1919, 2451.588
561.6740, 2450.070
562.1561, 2438.613
562.6382, 2425.035
563.1204, 2417.965
563.6025, 2417.721
564.0846, 2419.823
564.5667, 2421.759
565.0488, 2422.115
565.5309, 2415.043
566.0131, 2398.530
566.4952, 2379.666
566.9773, 2352.417
567.4594, 2329.070
567.9415, 2318.889
568.4236, 2320.206
568.9058, 2323.818
569.3879, 2326.556
569.8700, 2329.284
570.3521, 2334.432
570.8342, 2340.519
571.3163, 2342.301
571.7985, 2338.055
572.2806, 2330.055
572.7627, 2320.231
573.2448, 2307.817
573.7269, 2300.690
574.2090, 2297.760
574.6912, 2301.038
575.1733, 2316.511
575.6554, 2335.596
576.1375, 2348.822
576.6196, 2354.214
577.1017, 2356.726
577.5839, 2358.631
578.0660, 2361.282
578.5481, 2371.549
579.0302, 2390.915
579.5123, 2404.785
579.9944, 2403.539
580.4766, 2395.489
580.9587, 2398.702
581.4408, 2418.032
581.9229, 2426.789
582.4050, 2407.375
582.8871, 2388.866
583.3693, 2394.406
583.8514, 2415.794
584.3335, 2432.540
584.8156, 2435.177
585.2977, 2431.322
585.7798, 2432.891
586.2620, 2440.375
586.7441, 2447.945
587.2262, 2457.186
587.7083, 2463.488
588.1904, 2463.720
588.6725, 2459.466
589.1547, 2452.221
589.6368, 2440.174
590.1189, 2430.442
590.6010, 2429.789
591.0831, 2431.550
591.5652, 2425.003
592.0474, 2411.065
592.5295, 2400.608
593.0116, 2400.999
593.4937, 2409.607
593.9758, 2419.153
594.4579, 2432.366
594.9401, 2439.909
595.4222, 2431.219
595.9043, 2425.610
596.3864, 2431.354
596.8685, 2448.002
597.3506, 2474.926
597.8328, 2518.856
598.3149, 2559.131
598.7970, 2573.607
599.2791, 2570.240
599.7612, 2566.312
600.2433, 2565.110
600.7255, 2575.138
601.2076, 2607.031
601.6897, 2656.375
602.1718, 2686.990
602.6539, 2681.778
603.1360, 2680.535
603.6182, 2684.419
604.1003, 2694.655
604.5824, 2717.804
605.0645, 2749.305
605.5466, 2772.815
606.0287, 2778.036
606.5109, 2771.664
606.9930, 2759.231
607.4751, 2742.365
607.9572, 2735.814
608.4393, 2745.273
608.9214, 2757.753
609.4036, 2759.817
609.8857, 2751.402
610.3678, 2746.917
610.8499, 2746.169
611.3320, 2749.161
611.8141, 2761.559
612.2963, 2774.160
612.7784, 2774.122
613.2605, 2762.763
613.7426, 2755.923
614.2247, 2767.439
614.7068, 2790.389
615.1890, 2809.774
615.6711, 2825.783
616.1532, 2832.123
616.6353, 2821.692
617.1174, 2810.537
617.5995, 2821.427
618.0817, 2854.932
618.5638, 2869.844
619.0459, 2853.093
619.5280, 2830.828
620.0101, 2805.664
620.4922, 2784.335
620.9744, 2776.297
621.4565, 2782.151
621.9386, 2793.140
622.4207, 2804.030
622.9028, 2812.650
623.3849, 2807.158
623.8671, 2783.942
624.3492, 2767.998
624.8313, 2769.000
625.3134, 2778.003
625.7955, 2786.475
626.2776, 2794.436
626.7598, 2798.425
627.2419, 2792.336
627.7240, 2788.226
628.2061, 2795.199
628.6882, 2806.781
629.1703, 2812.857
629.6525, 2811.437
630.1346, 2808.123
630.6167, 2807.479
631.0988, 2809.804
631.5809, 2818.974
632.0630, 2838.982
632.5452, 2849.610
633.0273, 2837.548
633.5094, 2820.447
633.9915, 2819.311
634.4736, 2833.186
634.9557, 2844.464
635.4379, 2855.334
635.9200, 2856.760
636.4021, 2835.250
636.8842, 2804.058
637.3663, 2784.595
637.8484, 2781.328
638.3306, 2782.740
638.8127, 2778.842
639.2948, 2769.406
639.7769, 2752.423
640.2590, 2726.233
640.7411, 2697.890
641.2233, 2666.379
