##NAMES=Burbankite
##RRUFFID=R050646
##IDEAL CHEMISTRY=(Na,Ca)_3_(Sr,Ba,Ce)_3_(CO_3_)_5_
##LOCALITY=Cerro Sapo, Cochabamba Department, Bolivia
##OWNER=RRUFF
##SOURCE=Marcus Origlieri
##DESCRIPTION=Brown prismatic crystals associated with blue sodalite, R060405, and dolomite
##STATUS=The identification of this mineral has been confirmed by X-ray diffraction and chemical analysis
##URL=rruff.info/R050646
##MEASURED CHEMISTRY=gray: (Na_2.03_Ca_0.97_)_Σ=3_(Sr_3.14_Ba_0.18_Ce_0.17_[box]_0.15_Th_0.10_Nd_0.08_La_0.08_)_Σ=3_(CO_3_)_5_ ; light-gray: (Na_1.97_Ca_1.03_)_Σ=3_(Sr_1.87_[box]_0.40_Ba_0.37_Ce_0.14_Th_0.11_Nd_0.06_La_0.05_)_Σ=3_(CO_3_)_5_ ; C estimated by stoichiometry
89.78156, 0.0000000E+00
90.26367, 69.77914
90.74579, 69.44102
91.22791, 69.54479
91.71002, 70.05037
92.19214, 70.61198
92.67426, 70.81621
93.15638, 70.83960
93.63850, 71.15350
94.12061, 72.11381
94.60273, 73.41837
95.08485, 74.45589
95.56696, 75.23521
96.04908, 75.62486
96.53120, 75.08113
97.01331, 73.68071
97.49543, 72.78751
97.97755, 73.54015
98.45966, 75.78260
98.94178, 76.51716
99.42390, 75.34609
99.90602, 73.20911
100.3881, 71.75636
100.8703, 71.00608
101.3524, 70.87346
101.8345, 71.52859
102.3166, 73.27418
102.7987, 74.45009
103.2808, 74.76600
103.7630, 74.43422
104.2451, 74.37191
104.7272, 74.67013
105.2093, 75.11707
105.6914, 75.62976
106.1735, 76.47428
106.6557, 76.88963
107.1378, 76.40040
107.6199, 74.94265
108.1020, 74.70940
108.5841, 76.89522
109.0662, 79.67925
109.5484, 81.45573
110.0305, 80.58552
110.5126, 80.35493
110.9947, 81.59841
111.4768, 84.76717
111.9590, 87.40334
112.4411, 88.49096
112.9232, 89.13553
113.4053, 90.72585
113.8874, 94.22796
114.3695, 98.14309
114.8517, 101.8555
115.3338, 105.1075
115.8159, 108.6128
116.2980, 112.0778
116.7801, 115.9585
117.2622, 121.1857
117.7444, 128.4101
118.2265, 136.9538
118.7086, 146.3578
119.1907, 156.7045
119.6728, 167.7977
120.1549, 179.6222
120.6371, 192.1465
121.1192, 205.2996
121.6013, 218.9178
122.0834, 233.0615
122.5655, 247.7647
123.0476, 263.3886
123.5298, 279.2694
124.0119, 294.7578
124.4940, 309.8839
124.9761, 325.1417
125.4582, 341.5217
125.9404, 358.2072
126.4225, 373.4430
126.9046, 385.4597
127.3867, 395.9412
127.8688, 407.4555
128.3509, 420.0313
128.8331, 433.3618
129.3152, 446.4473
129.7973, 459.7555
130.2794, 475.2361
130.7615, 494.4152
131.2436, 516.5860
131.7258, 539.3243
132.2079, 562.6916
132.6900, 586.1799
133.1721, 608.8243
133.6542, 630.5105
134.1364, 652.5450
134.6185, 676.3184
135.1006, 701.8228
135.5827, 726.0780
136.0648, 749.1569
136.5469, 770.8136
137.0291, 790.2854
137.5112, 807.1998
137.9933, 822.9392
138.4754, 838.5685
138.9575, 854.0584
139.4396, 868.8523
139.9218, 882.9617
140.4039, 896.2528
140.8860, 907.4147
141.3681, 915.3472
141.8502, 922.9770
142.3323, 932.3849
142.8145, 944.2079
143.2966, 956.4242
143.7787, 968.2523
144.2608, 979.8384
144.7429, 993.6884
145.2250, 1011.173
145.7072, 1029.864
146.1893, 1047.556
146.6714, 1063.726
147.1535, 1079.605
147.6356, 1094.837
148.1178, 1108.942
148.5999, 1125.295
149.0820, 1145.774
149.5641, 1167.658
150.0462, 1187.546
150.5283, 1203.337
151.0105, 1215.465
151.4926, 1224.572
151.9747, 1230.576
152.4568, 1234.637
152.9389, 1235.747
153.4210, 1235.193
153.9032, 1234.770
154.3853, 1235.748
154.8674, 1235.943
155.3495, 1234.385
155.8316, 1229.822
156.3137, 1226.283
156.7959, 1224.831
157.2780, 1224.729
157.7601, 1224.621
158.2422, 1223.610
158.7243, 1222.909
159.2065, 1223.214
159.6886, 1225.472
160.1707, 1227.180
160.6528, 1227.031
161.1349, 1225.692
161.6170, 1224.955
162.0992, 1226.158
162.5813, 1227.724
163.0634, 1228.649
163.5455, 1228.780
164.0276, 1228.146
164.5097, 1226.167
164.9919, 1223.235
165.4740, 1220.888
165.9561, 1219.801
166.4382, 1219.672
166.9203, 1220.289
167.4024, 1222.821
167.8846, 1224.843
168.3667, 1223.995
168.8488, 1220.795
169.3309, 1218.591
169.8130, 1220.720
170.2952, 1224.629
170.7773, 1227.130
171.2594, 1226.552
171.7415, 1224.635
172.2236, 1222.435
172.7057, 1219.977
173.1879, 1217.852
173.6700, 1216.563
174.1521, 1215.870
174.6342, 1215.370
175.1163, 1215.156
175.5984, 1214.899
176.0806, 1214.361
176.5627, 1213.542
177.0448, 1212.121
177.5269, 1209.309
178.0090, 1205.649
178.4911, 1202.347
178.9733, 1200.503
179.4554, 1199.200
179.9375, 1196.897
180.4196, 1193.551
180.9017, 1189.753
181.3838, 1186.005
181.8660, 1182.332
182.3481, 1178.642
182.8302, 1174.857
183.3123, 1171.086
183.7944, 1167.588
184.2766, 1164.369
184.7587, 1161.349
185.2408, 1158.504
185.7229, 1155.812
186.2050, 1152.924
186.6871, 1149.420
187.1693, 1145.519
187.6514, 1142.295
188.1335, 1139.800
188.6156, 1137.721
189.0977, 1135.587
189.5798, 1133.401
190.0620, 1131.287
190.5441, 1129.439
191.0262, 1127.746
191.5083, 1125.418
191.9904, 1122.121
192.4725, 1118.714
192.9547, 1116.846
193.4368, 1116.547
193.9189, 1116.376
194.4010, 1115.347
194.8831, 1113.558
195.3652, 1112.443
195.8474, 1112.120
196.3295, 1112.485
196.8116, 1113.633
197.2937, 1115.682
197.7758, 1117.409
198.2579, 1117.689
198.7401, 1116.464
199.2222, 1116.373
199.7043, 1117.844
200.1864, 1120.239
200.6685, 1122.108
201.1507, 1123.320
201.6328, 1124.518
202.1149, 1126.062
202.5970, 1127.965
203.0791, 1130.018
203.5612, 1132.149
204.0434, 1134.437
204.5255, 1137.299
205.0076, 1141.031
205.4897, 1144.350
205.9718, 1146.233
206.4539, 1146.372
206.9361, 1147.012
207.4182, 1148.474
207.9003, 1150.519
208.3824, 1152.339
208.8645, 1153.742
209.3466, 1155.456
209.8288, 1158.378
210.3109, 1163.198
210.7930, 1166.001
211.2751, 1165.528
211.7572, 1163.024
212.2393, 1163.308
212.7215, 1167.274
213.2036, 1172.026
213.6857, 1175.808
214.1678, 1178.459
214.6499, 1180.705
215.1320, 1182.717
215.6142, 1184.370
216.0963, 1185.001
216.5784, 1184.233
217.0605, 1183.154
217.5426, 1182.193
218.0247, 1180.831
218.5069, 1181.318
218.9890, 1184.840
219.4711, 1190.416
219.9532, 1193.174
220.4353, 1191.782
220.9175, 1189.828
221.3996, 1189.667
221.8817, 1192.146
222.3638, 1194.277
222.8459, 1195.971
223.3280, 1197.135
223.8102, 1197.091
224.2923, 1195.333
224.7744, 1193.133
225.2565, 1191.498
225.7386, 1191.356
226.2207, 1189.499
226.7029, 1185.459
227.1850, 1179.434
227.6671, 1172.530
228.1492, 1164.199
228.6313, 1155.766
229.1134, 1147.958
229.5956, 1140.464
230.0777, 1134.263
230.5598, 1130.133
231.0419, 1127.445
231.5240, 1122.769
232.0062, 1114.688
232.4883, 1106.574
232.9704, 1100.635
233.4525, 1098.297
233.9346, 1095.013
234.4167, 1090.146
234.8989, 1084.059
235.3810, 1078.437
235.8631, 1073.241
236.3452, 1068.449
236.8273, 1064.049
237.3094, 1060.328
237.7916, 1056.303
238.2737, 1051.517
238.7558, 1046.327
239.2379, 1042.269
239.7200, 1040.013
240.2021, 1037.959
240.6843, 1035.114
241.1664, 1030.686
241.6485, 1027.309
242.1306, 1025.916
242.6127, 1025.657
243.0948, 1023.148
243.5770, 1016.874
244.0591, 1010.476
244.5412, 1006.062
245.0233, 1005.093
245.5054, 1002.870
245.9876, 999.2813
246.4697, 994.3688
246.9518, 987.7573
247.4339, 977.6781
247.9160, 968.5065
248.3981, 962.6719
248.8803, 961.8427
249.3624, 960.1851
249.8445, 957.1187
250.3266, 953.2601
250.8087, 950.4319
251.2908, 949.4483
251.7730, 948.1797
252.2551, 945.4613
252.7372, 940.1569
253.2193, 936.3094
253.7014, 934.4893
254.1835, 933.8934
254.6657, 932.7432
255.1478, 930.8868
255.6299, 928.7412
256.1120, 926.3979
256.5941, 923.7563
257.0763, 921.2668
257.5584, 918.7279
258.0405, 916.4557
258.5226, 915.3681
259.0047, 916.4074
259.4868, 916.6730
259.9690, 914.7396
260.4511, 909.8759
260.9332, 906.2289
261.4153, 904.1061
261.8974, 902.8845
262.3795, 901.6203
262.8617, 900.3752
263.3438, 898.8879
263.8259, 896.8373
264.3080, 894.0133
264.7901, 892.4048
265.2722, 892.7409
265.7544, 893.4191
266.2365, 891.8095
266.7186, 887.0070
267.2007, 882.7314
267.6828, 880.4720
268.1649, 880.3787
268.6471, 878.9940
269.1292, 875.7535
269.6113, 872.0781
270.0934, 869.9086
270.5755, 869.6975
271.0576, 869.1849
271.5398, 867.7540
272.0219, 865.4113
272.5040, 862.7383
272.9861, 859.6371
273.4682, 856.4902
273.9503, 853.6963
274.4325, 851.3234
274.9146, 849.0108
275.3967, 846.7719
275.8788, 844.5322
276.3610, 841.7729
276.8431, 838.3767
277.3252, 834.9003
277.8073, 832.0599
278.2894, 829.9668
278.7715, 827.1998
279.2537, 823.0504
279.7358, 818.1017
280.2179, 815.2037
280.7000, 814.8802
281.1821, 814.2362
281.6642, 810.0021
282.1464, 802.1465
282.6285, 796.7125
283.1106, 795.4045
283.5927, 796.5188
284.0748, 795.2893
284.5569, 791.4818
285.0391, 787.2985
285.5212, 784.0988
286.0033, 781.8333
286.4854, 780.0928
286.9675, 778.9326
287.4496, 778.0836
287.9318, 777.1678
288.4139, 776.1754
288.8960, 774.7857
289.3781, 772.3367
289.8602, 769.1576
290.3423, 767.0805
290.8245, 766.5178
291.3066, 766.4598
291.7887, 765.6760
292.2708, 764.1428
292.7529, 761.5359
293.2350, 757.0555
293.7172, 751.3220
294.1993, 746.4379
294.6814, 742.5671
295.1635, 739.0950
295.6456, 735.2358
296.1277, 731.1052
296.6099, 727.2555
297.0920, 724.0585
297.5741, 721.3390
298.0562, 718.8870
298.5383, 716.7330
299.0204, 714.6600
299.5026, 712.4923
299.9847, 710.2589
300.4668, 707.9557
300.9489, 705.5487
301.4311, 703.1381
301.9132, 701.0252
302.3953, 699.1807
302.8774, 697.2354
303.3595, 694.6768
303.8416, 691.8349
304.3238, 689.1876
304.8059, 686.7264
305.2880, 684.7574
305.7701, 683.9859
306.2522, 684.2160
306.7343, 684.3074
307.2165, 683.2886
307.6986, 681.7566
308.1807, 680.5062
308.6628, 679.9594
309.1449, 679.3259
309.6270, 677.5696
310.1092, 675.0923
310.5913, 673.2552
311.0734, 673.3239
311.5555, 674.0651
312.0376, 674.4880
312.5197, 674.4791
313.0019, 673.9492
313.4840, 672.5803
313.9661, 670.6559
314.4482, 668.7487
314.9303, 667.0609
315.4124, 665.5038
315.8946, 663.9424
316.3767, 662.2595
316.8588, 661.1033
317.3409, 661.5999
317.8230, 662.5549
318.3051, 662.3937
318.7873, 659.3378
319.2694, 656.2102
319.7515, 654.1537
320.2336, 653.2832
320.7157, 652.7985
321.1978, 653.1350
321.6800, 653.4594
322.1621, 653.0159
322.6442, 650.8161
323.1263, 648.6896
323.6084, 647.0756
324.0905, 645.9545
324.5727, 644.8871
325.0548, 643.5245
325.5369, 642.3970
326.0190, 641.8318
326.5012, 642.3685
326.9833, 642.8816
327.4654, 643.4962
327.9475, 644.0862
328.4296, 644.1103
328.9117, 642.3864
329.3939, 641.1436
329.8760, 641.4695
330.3581, 645.4172
330.8402, 647.0481
331.3223, 644.8235
331.8044, 640.6992
332.2866, 638.7253
332.7687, 640.2447
333.2508, 641.9527
333.7329, 642.8703
334.2150, 642.9011
334.6971, 642.5000
335.1793, 641.3944
335.6614, 640.1170
336.1435, 639.3434
336.6256, 639.1050
337.1077, 639.3463
337.5898, 640.2768
338.0720, 641.8557
338.5541, 642.7336
339.0362, 642.8107
339.5183, 642.4824
340.0004, 641.9902
340.4825, 641.2733
340.9647, 640.9049
341.4468, 641.1328
341.9289, 641.6985
342.4110, 641.6806
342.8931, 640.9940
343.3752, 640.2354
343.8574, 639.7145
344.3395, 639.4252
344.8216, 639.4726
345.3037, 639.8221
345.7858, 640.5636
346.2679, 642.3746
346.7501, 645.1469
347.2322, 647.0007
347.7143, 646.3303
348.1964, 643.9158
348.6785, 642.3500
349.1607, 641.8017
349.6428, 641.5615
350.1249, 640.9579
350.6070, 640.0236
351.0891, 638.8184
351.5713, 636.9354
352.0534, 635.0315
352.5355, 634.2490
353.0176, 634.5660
353.4997, 635.0028
353.9818, 634.7072
354.4640, 634.0580
354.9461, 633.7020
355.4282, 634.2907
355.9103, 634.6426
356.3924, 633.0022
356.8745, 629.9818
357.3567, 628.0303
357.8388, 629.9301
358.3209, 632.7048
358.8030, 633.6041
359.2851, 631.5070
359.7672, 629.2045
360.2494, 628.3131
360.7315, 628.2441
361.2136, 627.9242
361.6957, 626.3834
362.1778, 624.9420
362.6599, 624.4327
363.1421, 625.0673
363.6242, 625.4189
364.1063, 624.7995
364.5884, 623.7827
365.0705, 622.9606
365.5526, 622.6282
366.0348, 622.3087
366.5169, 621.8604
366.9990, 621.2910
367.4811, 620.8181
367.9632, 620.4824
368.4453, 620.2291
368.9275, 620.0391
369.4096, 620.3238
369.8917, 620.0867
370.3738, 618.7576
370.8559, 616.9116
371.3380, 616.2122
371.8202, 617.3463
372.3023, 618.7068
372.7844, 619.9429
373.2665, 621.4693
373.7487, 621.0670
374.2308, 618.0006
374.7129, 613.7516
375.1950, 609.8993
375.6771, 605.9318
376.1592, 604.1130
376.6414, 605.7643
377.1235, 610.4083
377.6056, 613.0928
378.0877, 613.4742
378.5698, 613.1205
379.0519, 613.5756
379.5341, 614.8492
380.0162, 615.1483
380.4983, 613.8082
380.9804, 611.7585
381.4625, 611.3139
381.9446, 612.4346
382.4268, 613.6783
382.9089, 614.1605
383.3910, 614.0594
383.8731, 613.9805
384.3552, 613.9854
384.8373, 613.9232
385.3195, 613.3907
385.8016, 612.6068
386.2837, 612.2158
386.7658, 613.0182
387.2479, 614.1213
387.7300, 614.3322
388.2122, 613.6725
388.6943, 612.8000
389.1764, 611.8502
389.6585, 611.0901
390.1406, 610.9064
390.6227, 611.6002
391.1049, 612.6114
391.5870, 613.8739
392.0691, 615.2083
392.5512, 616.0753
393.0333, 615.8369
393.5154, 615.3243
393.9976, 615.0150
394.4797, 614.9485
394.9618, 615.1817
395.4439, 615.9581
395.9260, 616.9828
396.4081, 617.8602
396.8903, 618.2850
397.3724, 618.7902
397.8545, 619.7590
398.3366, 621.2385
398.8188, 621.9904
399.3009, 620.9528
399.7830, 619.8104
400.2651, 619.6508
400.7472, 621.3931
401.2293, 622.7164
401.7115, 623.2048
402.1936, 623.2275
402.6757, 624.0508
403.1578, 626.4775
403.6399, 628.3035
404.1220, 628.1882
404.6042, 625.4886
405.0863, 624.7585
405.5684, 626.5746
406.0505, 629.4351
406.5326, 631.5207
407.0147, 632.8068
407.4969, 633.5410
407.9790, 633.7787
408.4611, 633.5347
408.9432, 632.6214
409.4253, 630.9645
409.9074, 629.5060
410.3896, 629.2623
410.8717, 629.9242
411.3538, 630.0105
411.8359, 629.1403
412.3180, 628.0438
412.8001, 628.1096
413.2823, 628.9672
413.7644, 629.1353
414.2465, 626.8633
414.7286, 623.8726
415.2107, 622.7142
415.6928, 623.5612
416.1750, 624.4167
416.6571, 623.5793
417.1392, 621.8800
417.6213, 620.4295
418.1034, 620.0408
418.5855, 619.5388
419.0677, 617.5545
419.5498, 614.6866
420.0319, 613.2518
420.5140, 616.1623
420.9961, 619.3809
421.4782, 620.3168
421.9604, 617.8061
422.4425, 615.2011
422.9246, 612.4506
423.4067, 610.2482
423.8889, 609.5180
424.3710, 612.0856
424.8531, 614.3687
425.3352, 615.5182
425.8173, 615.5353
426.2994, 615.5836
426.7816, 615.9298
427.2637, 616.0346
427.7458, 615.4648
428.2279, 613.7638
428.7100, 612.4644
429.1921, 611.6735
429.6743, 611.3358
430.1564, 611.5156
430.6385, 612.4276
431.1206, 613.0218
431.6027, 612.6873
432.0848, 611.4784
432.5670, 610.7620
433.0491, 610.5847
433.5312, 610.7115
434.0133, 611.0027
434.4954, 611.4248
434.9775, 611.7974
435.4597, 612.2604
435.9418, 612.4279
436.4239, 611.0624
436.9060, 608.4730
437.3881, 606.5569
437.8702, 606.8620
438.3524, 608.4581
438.8345, 610.1442
439.3166, 611.8283
439.7987, 613.3254
440.2808, 614.7647
440.7629, 615.8653
441.2451, 616.1808
441.7272, 614.9807
442.2093, 613.4465
442.6914, 611.7161
443.1735, 609.9750
443.6556, 609.3676
444.1378, 611.7931
444.6199, 614.4898
445.1020, 615.6427
445.5841, 614.1570
446.0662, 612.7830
446.5483, 611.8549
447.0305, 611.2723
447.5126, 610.8529
447.9947, 610.2717
448.4768, 610.2480
448.9590, 611.0362
449.4411, 612.6462
449.9232, 614.4612
450.4053, 616.9635
450.8874, 618.9835
451.3695, 619.3741
451.8517, 617.5944
452.3338, 616.6097
452.8159, 616.8821
453.2980, 617.8424
453.7801, 618.3438
454.2622, 618.3497
454.7444, 618.3399
455.2265, 618.6121
455.7086, 619.0574
456.1907, 619.1398
456.6728, 618.8390
457.1549, 618.4915
457.6371, 618.2039
458.1192, 618.1115
458.6013, 618.6281
459.0834, 620.1266
459.5655, 621.7582
460.0476, 622.6698
460.5298, 622.9661
461.0119, 622.9193
461.4940, 622.1488
461.9761, 621.4537
462.4582, 621.6393
462.9403, 622.8436
463.4225, 623.8490
463.9046, 623.9551
464.3867, 623.6686
464.8688, 623.4677
465.3509, 623.8338
465.8330, 623.8851
466.3152, 623.1960
466.7973, 622.0049
467.2794, 621.1649
467.7615, 620.5417
468.2436, 620.4617
468.7257, 621.2516
469.2079, 623.2772
469.6900, 624.3700
470.1721, 624.0153
470.6542, 623.2718
471.1363, 623.3031
471.6184, 624.3293
472.1006, 625.2751
472.5827, 626.0309
473.0648, 626.5374
473.5469, 626.4161
474.0291, 625.5953
474.5112, 625.0130
474.9933, 625.7019
475.4754, 627.1889
475.9575, 626.9540
476.4396, 624.6595
476.9218, 622.5952
477.4039, 623.7119
477.8860, 626.9285
478.3681, 629.7763
478.8502, 631.6211
479.3323, 632.5833
479.8145, 632.2421
480.2966, 630.9588
480.7787, 630.0941
481.2608, 631.0250
481.7429, 632.1271
482.2250, 631.9504
482.7072, 629.9676
483.1893, 628.8598
483.6714, 630.8688
484.1535, 633.6329
484.6356, 634.7750
485.1177, 631.6221
485.5999, 629.4797
486.0820, 630.0333
486.5641, 632.3954
487.0462, 633.1573
487.5283, 630.7269
488.0104, 628.8623
488.4926, 629.3290
488.9747, 632.6775
489.4568, 634.7732
489.9389, 635.3417
490.4210, 635.1215
490.9031, 634.6061
491.3853, 633.7203
491.8674, 633.7486
492.3495, 635.1738
492.8316, 637.3838
493.3137, 639.3033
493.7958, 640.9080
494.2780, 641.8506
494.7601, 641.2707
495.2422, 640.0440
495.7243, 639.8782
496.2064, 640.8709
496.6885, 642.3362
497.1707, 644.4662
497.6528, 646.5155
498.1349, 647.4219
498.6170, 646.3549
499.0992, 644.8744
499.5813, 643.3634
500.0634, 642.0623
500.5455, 641.5389
501.0276, 642.6998
501.5097, 644.0273
501.9919, 644.9218
502.4740, 645.2833
502.9561, 645.5995
503.4382, 645.9957
503.9203, 646.3031
504.4024, 646.4199
504.8846, 646.3952
505.3667, 646.0436
505.8488, 645.1311
506.3309, 644.0314
506.8130, 643.5623
507.2951, 643.7944
507.7773, 644.3589
508.2594, 645.2202
508.7415, 646.3117
509.2236, 647.3962
509.7057, 648.5010
510.1878, 649.2693
510.6700, 649.3051
511.1521, 648.7686
511.6342, 647.7682
512.1163, 645.9176
512.5984, 645.1186
513.0806, 648.6234
513.5627, 654.6343
514.0448, 659.3931
514.5269, 661.6818
515.0090, 661.8027
515.4911, 658.5786
515.9733, 652.6575
516.4554, 648.3386
516.9375, 648.0397
517.4196, 649.2357
517.9017, 650.5209
518.3839, 651.7229
518.8660, 653.0108
519.3481, 655.0935
519.8302, 656.9354
520.3123, 657.3010
520.7944, 655.1893
521.2766, 653.4576
521.7587, 652.6423
522.2408, 652.5253
522.7229, 652.1580
523.2050, 651.4284
523.6871, 650.9086
524.1693, 651.0312
524.6514, 651.7344
525.1335, 652.0847
525.6156, 652.0176
526.0977, 652.0517
526.5798, 653.1164
527.0620, 654.7432
527.5441, 655.3731
528.0262, 654.1944
528.5083, 652.8009
528.9904, 653.0775
529.4725, 654.4849
529.9547, 655.7259
530.4368, 655.2779
530.9189, 655.1316
531.4010, 657.1612
531.8831, 661.3643
532.3652, 664.4083
532.8474, 664.4730
533.3295, 663.5824
533.8116, 662.9671
534.2937, 662.4854
534.7758, 662.8348
535.2579, 665.1272
535.7401, 667.7248
536.2222, 668.0331
536.7043, 664.8760
537.1864, 662.2001
537.6685, 660.7798
538.1506, 660.4999
538.6328, 660.9863
539.1149, 662.3246
539.5970, 663.9797
540.0791, 666.0322
540.5612, 668.2317
541.0433, 668.9249
541.5255, 667.9056
542.0076, 666.8100
542.4897, 667.4826
542.9718, 669.2177
543.4539, 670.6219
543.9360, 671.2548
544.4182, 671.5018
544.9003, 671.3359
545.3824, 670.9929
545.8645, 671.0048
546.3466, 671.6555
546.8287, 672.6348
547.3109, 673.8849
547.7930, 675.3905
548.2751, 676.8811
548.7572, 678.9774
549.2393, 680.5223
549.7214, 680.8308
550.2036, 679.2519
550.6857, 677.8619
551.1678, 676.4576
551.6499, 675.4639
552.1320, 675.6461
552.6141, 677.1979
553.0963, 678.7559
553.5784, 680.1891
554.0605, 681.2804
554.5426, 681.2393
555.0247, 680.1218
555.5068, 678.9033
555.9890, 677.7689
556.4711, 677.0505
556.9532, 677.5939
557.4353, 679.4202
557.9174, 681.4003
558.3995, 683.1057
558.8817, 684.2950
559.3638, 684.6101
559.8459, 683.5789
560.3281, 682.4482
560.8102, 681.3145
561.2923, 680.4916
561.7744, 680.4875
562.2565, 681.6877
562.7386, 683.4338
563.2208, 686.2460
563.7029, 689.7523
564.1850, 691.2943
564.6671, 689.8331
565.1492, 688.2387
565.6313, 688.0034
566.1135, 689.2581
566.5956, 690.0981
567.0777, 690.4480
567.5598, 690.6238
568.0419, 690.8262
568.5240, 691.0988
569.0062, 691.7816
569.4883, 693.0969
569.9704, 694.4443
570.4525, 694.7918
570.9346, 694.5374
571.4167, 694.6868
571.8989, 695.3503
572.3810, 696.8693
572.8631, 700.3114
573.3452, 705.2243
573.8273, 708.8567
574.3094, 709.9053
574.7916, 709.5722
575.2737, 708.2161
575.7558, 705.2643
576.2379, 703.2358
576.7200, 702.2533
577.2021, 702.1603
577.6843, 703.0305
578.1664, 705.4410
578.6485, 706.9731
579.1306, 707.1047
