##NAMES=Burkeite
##RRUFFID=R060112
##IDEAL CHEMISTRY=Na_4_(S^6+^O_4_)(CO_3_)
##LOCALITY=Searles Lake, near Trona, San Bernardino County, California, USA
##OWNER=RRUFF
##SOURCE=University of Arizona Mineral Museum
##DESCRIPTION=Tan colored nodule covered with white thenardite powder
##STATUS=The identification of this mineral has been confirmed by X-ray diffraction and chemical analysis
##URL=rruff.info/R060112
##MEASURED CHEMISTRY=Na_4.00_S_1.00_O_4_CO_3_ ; C not measured but estimated by difference.
89.78156, 0.0000000E+00
90.26367, 59.55397
90.74579, 59.76210
91.22791, 59.64079
91.71002, 59.23351
92.19214, 58.92613
92.67426, 59.05516
93.15638, 59.53261
93.63850, 60.13445
94.12061, 60.95186
94.60273, 61.80629
95.08485, 62.22055
95.56696, 62.15051
96.04908, 61.91345
96.53120, 61.90503
97.01331, 62.11103
97.49543, 62.24000
97.97755, 62.03547
98.45966, 61.53408
98.94178, 61.41155
99.42390, 61.71971
99.90602, 62.34113
100.3881, 63.05188
100.8703, 63.83232
101.3524, 64.79599
101.8345, 66.04194
102.3166, 67.59863
102.7987, 69.39239
103.2808, 71.87218
103.7630, 74.57292
104.2451, 75.11749
104.7272, 72.19810
105.2093, 68.85693
105.6914, 67.09103
106.1735, 67.79581
106.6557, 68.57250
107.1378, 69.09868
107.6199, 69.36433
108.1020, 69.88166
108.5841, 70.54839
109.0662, 71.52640
109.5484, 72.96758
110.0305, 74.67738
110.5126, 77.05698
110.9947, 80.25923
111.4768, 84.43749
111.9590, 88.86194
112.4411, 93.34283
112.9232, 98.10124
113.4053, 103.2876
113.8874, 108.6081
114.3695, 114.6659
114.8517, 121.6187
115.3338, 129.4506
115.8159, 138.2390
116.2980, 147.7464
116.7801, 158.3068
117.2622, 170.5175
117.7444, 184.7320
118.2265, 200.6912
118.7086, 218.0218
119.1907, 236.1340
119.6728, 256.7149
120.1549, 280.7536
120.6371, 308.0965
121.1192, 338.2509
121.6013, 371.0065
122.0834, 406.1182
122.5655, 443.3001
123.0476, 483.9771
123.5298, 525.3684
124.0119, 564.9360
124.4940, 602.7681
124.9761, 640.2717
125.4582, 679.2156
125.9404, 718.3721
126.4225, 754.9821
126.9046, 787.0595
127.3867, 816.2133
127.8688, 844.2677
128.3509, 871.0469
128.8331, 898.4402
129.3152, 927.7712
129.7973, 959.3492
130.2794, 993.8755
130.7615, 1031.296
131.2436, 1071.897
131.7258, 1116.479
132.2079, 1165.378
132.6900, 1217.361
133.1721, 1271.121
133.6542, 1326.439
134.1364, 1382.736
134.6185, 1440.909
135.1006, 1501.075
135.5827, 1559.522
136.0648, 1616.563
136.5469, 1671.710
137.0291, 1724.176
137.5112, 1773.788
137.9933, 1819.992
138.4754, 1862.652
138.9575, 1901.130
139.4396, 1937.833
139.9218, 1972.930
140.4039, 2006.269
140.8860, 2035.877
141.3681, 2060.034
141.8502, 2083.175
142.3323, 2108.204
142.8145, 2136.335
143.2966, 2163.924
143.7787, 2189.049
144.2608, 2212.049
144.7429, 2240.025
145.2250, 2275.181
145.7072, 2313.693
146.1893, 2352.118
146.6714, 2389.664
147.1535, 2428.180
147.6356, 2467.260
148.1178, 2506.289
148.5999, 2549.011
149.0820, 2596.664
149.5641, 2647.354
150.0462, 2698.435
150.5283, 2751.209
151.0105, 2802.427
151.4926, 2825.677
151.9747, 2842.319
152.4568, 2857.716
152.9389, 2872.707
153.4210, 2886.400
153.9032, 2897.743
154.3853, 2907.103
154.8674, 2913.646
155.3495, 2916.795
155.8316, 2915.438
156.3137, 2913.485
156.7959, 2910.659
157.2780, 2907.648
157.7601, 2905.790
158.2422, 2905.836
158.7243, 2906.619
159.2065, 2907.556
159.6886, 2908.481
160.1707, 2909.542
160.6528, 2909.394
161.1349, 2909.145
161.6170, 2911.842
162.0992, 2921.940
162.5813, 2933.225
163.0634, 2941.374
163.5455, 2942.600
164.0276, 2944.400
164.5097, 2950.654
164.9919, 2960.455
165.4740, 2970.320
165.9561, 2979.447
166.4382, 2987.481
166.9203, 2994.166
167.4024, 2998.508
167.8846, 3002.472
168.3667, 3007.219
168.8488, 3012.696
169.3309, 3018.530
169.8130, 3025.077
170.2952, 3031.688
170.7773, 3037.443
171.2594, 3040.872
171.7415, 3044.209
172.2236, 3049.642
172.7057, 3057.020
173.1879, 3064.581
173.6700, 3071.932
174.1521, 3078.438
174.6342, 3083.093
175.1163, 3084.411
175.5984, 3084.218
176.0806, 3084.684
176.5627, 3085.803
177.0448, 3086.676
177.5269, 3086.751
178.0090, 3086.001
178.4911, 3084.355
178.9733, 3081.352
179.4554, 3077.620
179.9375, 3073.617
180.4196, 3069.265
180.9017, 3066.038
181.3838, 3066.773
181.8660, 3070.362
182.3481, 3072.798
182.8302, 3071.394
183.3123, 3067.686
183.7944, 3065.436
184.2766, 3065.043
184.7587, 3064.682
185.2408, 3061.617
185.7229, 3056.312
186.2050, 3051.311
186.6871, 3048.204
187.1693, 3046.448
187.6514, 3044.263
188.1335, 3041.469
188.6156, 3038.359
189.0977, 3035.282
189.5798, 3032.204
190.0620, 3028.933
190.5441, 3024.446
191.0262, 3019.182
191.5083, 3016.827
191.9904, 3018.258
192.4725, 3020.865
192.9547, 3019.811
193.4368, 3014.984
193.9189, 3010.146
194.4010, 3007.495
194.8831, 3006.916
195.3652, 3006.126
195.8474, 3004.651
196.3295, 3003.481
196.8116, 3005.065
197.2937, 3009.681
197.7758, 3014.375
198.2579, 3017.973
198.7401, 3020.502
199.2222, 3020.040
199.7043, 3015.479
200.1864, 3008.923
200.6685, 3005.373
201.1507, 3005.301
201.6328, 3005.969
202.1149, 3005.774
202.5970, 3004.613
203.0791, 3003.437
203.5612, 3002.163
204.0434, 3001.063
204.5255, 3001.231
205.0076, 3003.146
205.4897, 3004.762
205.9718, 3004.634
206.4539, 3002.450
206.9361, 3000.488
207.4182, 2998.776
207.9003, 2997.530
208.3824, 2997.697
208.8645, 2999.958
209.3466, 3001.917
209.8288, 3001.418
210.3109, 2997.246
210.7930, 2996.191
211.2751, 2999.879
211.7572, 3006.836
212.2393, 3011.880
212.7215, 3014.740
213.2036, 3016.160
213.6857, 3016.073
214.1678, 3013.492
214.6499, 3012.825
215.1320, 3015.195
215.6142, 3019.672
216.0963, 3022.039
216.5784, 3021.375
217.0605, 3020.310
217.5426, 3020.522
218.0247, 3022.341
218.5069, 3024.491
218.9890, 3027.103
219.4711, 3029.981
219.9532, 3032.257
220.4353, 3033.984
220.9175, 3035.110
221.3996, 3035.365
221.8817, 3033.958
222.3638, 3033.927
222.8459, 3036.294
223.3280, 3040.361
223.8102, 3042.171
224.2923, 3040.404
224.7744, 3038.415
225.2565, 3038.418
225.7386, 3041.316
226.2207, 3043.910
226.7029, 3045.804
227.1850, 3047.130
227.6671, 3048.554
228.1492, 3050.183
228.6313, 3051.748
229.1134, 3053.272
229.5956, 3055.531
230.0777, 3055.955
230.5598, 3053.508
231.0419, 3048.993
231.5240, 3046.206
232.0062, 3045.413
232.4883, 3046.055
232.9704, 3047.894
233.4525, 3051.228
233.9346, 3055.252
234.4167, 3060.519
234.8989, 3066.507
235.3810, 3070.735
235.8631, 3072.894
236.3452, 3073.699
236.8273, 3073.379
237.3094, 3071.111
237.7916, 3069.360
238.2737, 3068.246
238.7558, 3067.692
239.2379, 3067.392
239.7200, 3067.093
240.2021, 3067.331
240.6843, 3068.549
241.1664, 3071.593
241.6485, 3073.790
242.1306, 3075.023
242.6127, 3075.371
243.0948, 3074.945
243.5770, 3073.313
244.0591, 3071.636
244.5412, 3070.409
245.0233, 3069.210
245.5054, 3069.597
245.9876, 3072.149
246.4697, 3076.298
246.9518, 3080.545
247.4339, 3086.066
247.9160, 3089.961
248.3981, 3090.266
248.8803, 3084.281
249.3624, 3081.169
249.8445, 3081.944
250.3266, 3085.403
250.8087, 3088.311
251.2908, 3090.130
251.7730, 3092.092
252.2551, 3094.838
252.7372, 3098.998
253.2193, 3102.218
253.7014, 3104.147
254.1835, 3105.241
254.6657, 3106.539
255.1478, 3108.221
255.6299, 3109.810
256.1120, 3111.204
256.5941, 3112.546
257.0763, 3113.195
257.5584, 3112.738
258.0405, 3111.907
258.5226, 3112.256
259.0047, 3114.392
259.4868, 3116.511
259.9690, 3117.813
260.4511, 3117.991
260.9332, 3118.736
261.4153, 3119.944
261.8974, 3121.812
262.3795, 3124.942
262.8617, 3130.205
263.3438, 3134.650
263.8259, 3137.019
264.3080, 3136.879
264.7901, 3137.617
265.2722, 3139.530
265.7544, 3141.927
266.2365, 3143.673
266.7186, 3144.399
267.2007, 3145.605
267.6828, 3148.220
268.1649, 3152.481
268.6471, 3154.324
269.1292, 3153.103
269.6113, 3150.573
270.0934, 3148.607
270.5755, 3147.001
271.0576, 3146.789
271.5398, 3148.687
272.0219, 3152.630
272.5040, 3155.607
272.9861, 3157.487
273.4682, 3158.625
273.9503, 3159.057
274.4325, 3158.501
274.9146, 3158.842
275.3967, 3160.899
275.8788, 3164.350
276.3610, 3166.217
276.8431, 3165.944
277.3252, 3165.722
277.8073, 3168.054
278.2894, 3173.260
278.7715, 3177.513
279.2537, 3179.969
279.7358, 3180.990
280.2179, 3182.093
280.7000, 3183.398
281.1821, 3184.404
281.6642, 3184.369
282.1464, 3183.294
282.6285, 3183.081
283.1106, 3184.160
283.5927, 3186.175
284.0748, 3188.182
284.5569, 3190.143
285.0391, 3192.231
285.5212, 3194.317
286.0033, 3196.434
286.4854, 3199.670
286.9675, 3204.559
287.4496, 3209.909
287.9318, 3213.205
288.4139, 3214.427
288.8960, 3215.135
289.3781, 3216.081
289.8602, 3217.293
290.3423, 3219.054
290.8245, 3221.637
291.3066, 3224.255
291.7887, 3225.371
292.2708, 3225.169
292.7529, 3225.108
293.2350, 3226.245
293.7172, 3228.188
294.1993, 3229.585
294.6814, 3230.306
295.1635, 3230.851
295.6456, 3231.244
296.1277, 3231.754
296.6099, 3233.626
297.0920, 3238.728
297.5741, 3245.253
298.0562, 3249.435
298.5383, 3251.067
299.0204, 3251.774
299.5026, 3252.669
299.9847, 3253.847
300.4668, 3255.608
300.9489, 3258.491
301.4311, 3261.819
301.9132, 3264.901
302.3953, 3267.757
302.8774, 3269.698
303.3595, 3269.187
303.8416, 3267.560
304.3238, 3267.203
304.8059, 3269.584
305.2880, 3272.892
305.7701, 3275.247
306.2522, 3276.805
306.7343, 3278.405
307.2165, 3280.636
307.6986, 3283.212
308.1807, 3285.745
308.6628, 3287.994
309.1449, 3290.395
309.6270, 3292.349
310.1092, 3294.497
310.5913, 3298.915
311.0734, 3310.819
311.5555, 3323.275
312.0376, 3329.458
312.5197, 3326.248
313.0019, 3321.833
313.4840, 3320.230
313.9661, 3320.741
314.4482, 3321.916
314.9303, 3324.239
315.4124, 3326.292
315.8946, 3326.769
316.3767, 3325.051
316.8588, 3324.337
317.3409, 3327.270
317.8230, 3331.675
318.3051, 3334.663
318.7873, 3333.535
319.2694, 3332.478
319.7515, 3333.453
320.2336, 3336.712
320.7157, 3339.848
321.1978, 3341.698
321.6800, 3343.301
322.1621, 3345.583
322.6442, 3349.967
323.1263, 3353.722
323.6084, 3355.712
324.0905, 3356.078
324.5727, 3357.235
325.0548, 3360.223
325.5369, 3363.674
326.0190, 3366.769
326.5012, 3369.726
326.9833, 3372.075
327.4654, 3373.406
327.9475, 3374.025
328.4296, 3375.078
328.9117, 3376.375
329.3939, 3378.274
329.8760, 3381.024
330.3581, 3385.587
330.8402, 3389.090
331.3223, 3390.786
331.8044, 3391.554
332.2866, 3393.269
332.7687, 3396.552
333.2508, 3399.676
333.7329, 3402.085
334.2150, 3403.664
334.6971, 3404.886
335.1793, 3405.700
335.6614, 3406.231
336.1435, 3406.510
336.6256, 3406.256
337.1077, 3406.788
337.5898, 3408.880
338.0720, 3412.487
338.5541, 3414.686
339.0362, 3415.200
339.5183, 3415.250
340.0004, 3416.117
340.4825, 3418.074
340.9647, 3419.152
341.4468, 3418.388
341.9289, 3416.865
342.4110, 3418.664
342.8931, 3424.204
343.3752, 3429.974
343.8574, 3432.897
344.3395, 3433.207
344.8216, 3435.158
345.3037, 3439.498
345.7858, 3444.780
346.2679, 3448.438
346.7501, 3450.549
347.2322, 3452.465
347.7143, 3454.762
348.1964, 3457.411
348.6785, 3460.619
349.1607, 3464.574
349.6428, 3468.228
350.1249, 3470.528
350.6070, 3471.638
351.0891, 3472.057
351.5713, 3471.626
352.0534, 3470.840
352.5355, 3470.055
353.0176, 3469.345
353.4997, 3469.624
353.9818, 3473.013
354.4640, 3477.574
354.9461, 3480.256
355.4282, 3479.365
355.9103, 3477.351
356.3924, 3475.625
356.8745, 3474.401
357.3567, 3474.509
357.8388, 3478.498
358.3209, 3482.879
358.8030, 3484.023
359.2851, 3479.673
359.7672, 3476.488
360.2494, 3479.304
360.7315, 3485.683
361.2136, 3491.065
361.6957, 3492.677
362.1778, 3493.761
362.6599, 3495.988
363.1421, 3499.631
363.6242, 3503.167
364.1063, 3506.683
364.5884, 3509.609
365.0705, 3511.333
365.5526, 3508.741
366.0348, 3507.995
366.5169, 3511.635
366.9990, 3519.323
367.4811, 3525.245
367.9632, 3528.063
368.4453, 3529.498
368.9275, 3530.458
369.4096, 3529.572
369.8917, 3530.163
370.3738, 3533.505
370.8559, 3538.333
371.3380, 3540.957
371.8202, 3539.873
372.3023, 3538.668
372.7844, 3538.684
373.2665, 3540.141
373.7487, 3542.050
374.2308, 3544.868
374.7129, 3547.708
375.1950, 3549.299
375.6771, 3549.288
376.1592, 3549.227
376.6414, 3549.591
377.1235, 3550.322
377.6056, 3550.626
378.0877, 3550.380
378.5698, 3550.211
379.0519, 3550.738
379.5341, 3551.977
380.0162, 3553.300
380.4983, 3554.636
380.9804, 3555.960
381.4625, 3556.934
381.9446, 3557.580
382.4268, 3558.718
382.9089, 3561.430
383.3910, 3565.070
383.8731, 3567.416
384.3552, 3568.065
384.8373, 3568.406
385.3195, 3570.411
385.8016, 3573.487
386.2837, 3575.941
386.7658, 3575.875
387.2479, 3575.301
387.7300, 3577.120
388.2122, 3581.246
388.6943, 3585.578
389.1764, 3588.844
389.6585, 3591.292
390.1406, 3593.050
390.6227, 3593.490
391.1049, 3594.202
391.5870, 3596.753
392.0691, 3600.509
392.5512, 3603.569
393.0333, 3604.580
393.5154, 3604.954
393.9976, 3605.446
394.4797, 3606.027
394.9618, 3607.207
395.4439, 3609.636
395.9260, 3612.632
396.4081, 3615.275
396.8903, 3617.204
397.3724, 3618.990
397.8545, 3620.662
398.3366, 3622.216
398.8188, 3624.242
399.3009, 3627.715
399.7830, 3631.052
400.2651, 3633.207
400.7472, 3632.979
401.2293, 3633.330
401.7115, 3634.407
402.1936, 3636.130
402.6757, 3638.332
403.1578, 3641.209
403.6399, 3644.210
404.1220, 3647.218
404.6042, 3650.390
405.0863, 3652.548
405.5684, 3653.359
406.0505, 3653.631
406.5326, 3654.407
407.0147, 3655.760
407.4969, 3657.131
407.9790, 3658.189
408.4611, 3659.230
408.9432, 3661.782
409.4253, 3666.016
409.9074, 3670.074
410.3896, 3672.388
410.8717, 3673.281
411.3538, 3674.011
411.8359, 3674.603
412.3180, 3675.493
412.8001, 3677.395
413.2823, 3680.134
413.7644, 3683.151
414.2465, 3686.636
414.7286, 3689.979
415.2107, 3692.136
415.6928, 3692.992
416.1750, 3693.943
416.6571, 3696.857
417.1392, 3700.246
417.6213, 3702.136
418.1034, 3700.267
418.5855, 3698.411
419.0677, 3698.609
419.5498, 3700.622
420.0319, 3703.524
420.5140, 3708.626
420.9961, 3713.352
421.4782, 3715.879
421.9604, 3714.948
422.4425, 3714.567
422.9246, 3715.874
423.4067, 3718.139
423.8889, 3720.384
424.3710, 3723.140
424.8531, 3725.169
425.3352, 3725.612
425.8173, 3724.456
426.2994, 3724.878
426.7816, 3727.244
427.2637, 3730.823
427.7458, 3735.481
428.2279, 3742.653
428.7100, 3747.317
429.1921, 3748.211
429.6743, 3747.010
430.1564, 3747.826
430.6385, 3751.292
431.1206, 3754.303
431.6027, 3754.890
432.0848, 3753.265
432.5670, 3754.711
433.0491, 3759.790
433.5312, 3765.712
434.0133, 3769.179
434.4954, 3770.656
434.9775, 3773.301
435.4597, 3778.246
435.9418, 3784.357
436.4239, 3789.304
436.9060, 3793.314
437.3881, 3798.070
437.8702, 3806.046
438.3524, 3814.877
438.8345, 3820.470
439.3166, 3821.846
439.7987, 3823.532
440.2808, 3829.568
440.7629, 3838.175
441.2451, 3846.532
441.7272, 3853.629
442.2093, 3860.046
442.6914, 3865.313
443.1735, 3869.777
443.6556, 3875.646
444.1378, 3885.320
444.6199, 3895.658
445.1020, 3904.541
445.5841, 3910.562
446.0662, 3917.374
446.5483, 3926.196
447.0305, 3936.023
447.5126, 3945.202
447.9947, 3953.227
448.4768, 3961.070
448.9590, 3968.833
449.4411, 3976.459
449.9232, 3984.554
450.4053, 3993.910
450.8874, 4002.590
451.3695, 4009.186
451.8517, 4013.675
452.3338, 4016.140
452.8159, 4016.548
453.2980, 4014.850
453.7801, 4010.560
454.2622, 4003.591
454.7444, 3995.600
455.2265, 3986.839
455.7086, 3977.627
456.1907, 3969.824
456.6728, 3963.427
457.1549, 3957.606
457.6371, 3951.663
458.1192, 3945.612
458.6013, 3939.226
459.0834, 3932.324
459.5655, 3925.441
460.0476, 3918.519
460.5298, 3911.979
461.0119, 3907.399
461.4940, 3907.193
461.9761, 3908.045
462.4582, 3906.943
462.9403, 3903.435
463.4225, 3900.975
463.9046, 3902.334
464.3867, 3904.953
464.8688, 3906.382
465.3509, 3905.078
465.8330, 3903.696
466.3152, 3902.529
466.7973, 3901.671
467.2794, 3901.403
467.7615, 3900.156
468.2436, 3901.105
468.7257, 3906.141
469.2079, 3916.733
469.6900, 3924.176
470.1721, 3927.147
470.6542, 3928.297
471.1363, 3930.372
471.6184, 3933.639
472.1006, 3936.723
472.5827, 3939.409
473.0648, 3941.743
473.5469, 3944.016
474.0291, 3946.295
474.5112, 3947.871
474.9933, 3947.764
475.4754, 3946.514
475.9575, 3946.296
476.4396, 3947.182
476.9218, 3949.222
477.4039, 3953.530
477.8860, 3959.001
478.3681, 3962.990
478.8502, 3964.234
479.3323, 3964.122
479.8145, 3963.250
480.2966, 3961.934
480.7787, 3961.433
481.2608, 3963.818
481.7429, 3966.170
482.2250, 3966.128
482.7072, 3962.973
483.1893, 3960.002
483.6714, 3958.639
484.1535, 3957.912
484.6356, 3956.850
485.1177, 3955.489
485.5999, 3953.659
486.0820, 3950.905
486.5641, 3947.667
487.0462, 3945.339
487.5283, 3943.712
488.0104, 3943.448
488.4926, 3945.532
488.9747, 3950.832
489.4568, 3952.414
489.9389, 3948.631
490.4210, 3944.085
490.9031, 3944.486
491.3853, 3950.151
491.8674, 3954.926
492.3495, 3957.359
492.8316, 3958.335
493.3137, 3959.613
493.7958, 3961.153
494.2780, 3962.781
494.7601, 3964.190
495.2422, 3965.621
495.7243, 3967.773
496.2064, 3970.728
496.6885, 3973.295
497.1707, 3974.052
497.6528, 3974.019
498.1349, 3974.623
498.6170, 3976.677
499.0992, 3978.850
499.5813, 3980.544
500.0634, 3981.818
500.5455, 3982.853
501.0276, 3982.710
501.5097, 3983.228
501.9919, 3985.674
502.4740, 3990.586
502.9561, 3994.062
503.4382, 3995.052
503.9203, 3995.110
504.4024, 3995.223
504.8846, 3995.266
505.3667, 3995.704
505.8488, 3996.841
506.3309, 3998.242
506.8130, 3998.771
507.2951, 3998.135
507.7773, 3998.017
508.2594, 3999.260
508.7415, 4001.589
509.2236, 4003.425
509.7057, 4004.748
510.1878, 4005.943
510.6700, 4007.177
511.1521, 4008.552
511.6342, 4010.692
512.1163, 4014.067
512.5984, 4016.829
513.0806, 4015.729
513.5627, 4012.595
514.0448, 4011.245
514.5269, 4015.219
515.0090, 4019.968
515.4911, 4022.333
515.9733, 4022.578
516.4554, 4022.815
516.9375, 4023.583
517.4196, 4024.737
517.9017, 4026.372
518.3839, 4029.157
518.8660, 4030.717
519.3481, 4029.277
519.8302, 4027.171
520.3123, 4027.023
520.7944, 4030.402
521.2766, 4032.957
521.7587, 4033.995
522.2408, 4033.815
522.7229, 4033.162
523.2050, 4031.693
523.6871, 4031.305
524.1693, 4033.716
524.6514, 4038.615
525.1335, 4041.811
525.6156, 4043.112
526.0977, 4044.162
526.5798, 4046.758
527.0620, 4050.475
527.5441, 4054.096
528.0262, 4057.465
528.5083, 4060.254
528.9904, 4061.327
529.4725, 4061.406
529.9547, 4062.315
530.4368, 4066.036
530.9189, 4069.892
531.4010, 4071.304
531.8831, 4070.279
532.3652, 4071.156
532.8474, 4077.761
533.3295, 4085.037
533.8116, 4089.923
534.2937, 4091.806
534.7758, 4091.569
535.2579, 4087.626
535.7401, 4082.465
536.2222, 4079.836
536.7043, 4080.659
537.1864, 4082.036
537.6685, 4083.704
538.1506, 4085.516
538.6328, 4085.970
539.1149, 4084.670
539.5970, 4084.846
540.0791, 4089.950
540.5612, 4098.592
541.0433, 4103.347
541.5255, 4103.624
542.0076, 4103.031
542.4897, 4105.112
542.9718, 4108.880
543.4539, 4112.464
543.9360, 4115.396
544.4182, 4117.708
544.9003, 4118.898
545.3824, 4119.392
545.8645, 4120.181
546.3466, 4121.664
546.8287, 4123.462
547.3109, 4125.230
547.7930, 4126.922
548.2751, 4129.424
548.7572, 4134.245
549.2393, 4138.849
549.7214, 4141.949
550.2036, 4143.457
550.6857, 4143.626
551.1678, 4141.773
551.6499, 4139.377
552.1320, 4138.790
552.6141, 4140.437
553.0963, 4141.215
553.5784, 4139.961
554.0605, 4137.828
554.5426, 4137.981
555.0247, 4140.331
555.5068, 4143.064
555.9890, 4144.773
556.4711, 4146.224
556.9532, 4148.980
557.4353, 4153.072
557.9174, 4157.192
558.3995, 4161.521
558.8817, 4164.733
559.3638, 4164.839
559.8459, 4159.033
560.3281, 4154.848
560.8102, 4156.542
561.2923, 4161.521
561.7744, 4165.710
562.2565, 4168.681
562.7386, 4170.436
563.2208, 4170.309
563.7029, 4168.740
564.1850, 4168.825
564.6671, 4171.451
565.1492, 4174.204
565.6313, 4175.819
566.1135, 4176.171
566.5956, 4176.844
567.0777, 4177.729
567.5598, 4179.284
568.0419, 4182.578
568.5240, 4187.133
569.0062, 4190.705
569.4883, 4192.714
569.9704, 4193.785
570.4525, 4194.466
570.9346, 4194.817
571.4167, 4194.951
571.8989, 4193.869
572.3810, 4193.490
572.8631, 4195.515
573.3452, 4199.656
573.8273, 4203.940
574.3094, 4208.753
574.7916, 4212.626
575.2737, 4214.431
575.7558, 4213.027
576.2379, 4212.908
576.7200, 4214.968
577.2021, 4217.660
577.6843, 4219.384
578.1664, 4219.159
578.6485, 4221.001
579.1306, 4226.122
579.6127, 4232.567
580.0948, 4236.728
580.5770, 4238.580
581.0591, 4238.920
581.5412, 4236.871
582.0233, 4234.157
582.5054, 4235.256
582.9875, 4239.688
583.4697, 4243.939
