##NAMES=Burkeite
##RRUFFID=R060112
##IDEAL CHEMISTRY=Na_4_(S^6+^O_4_)(CO_3_)
##LOCALITY=Searles Lake, near Trona, San Bernardino County, California, USA
##OWNER=RRUFF
##SOURCE=University of Arizona Mineral Museum
##DESCRIPTION=Tan colored nodule covered with white thenardite powder
##STATUS=The identification of this mineral has been confirmed by X-ray diffraction and chemical analysis
##URL=rruff.info/R060112
##MEASURED CHEMISTRY=Na_4.00_S_1.00_O_4_CO_3_ ; C not measured but estimated by difference.
92.02539, 352.6667
92.50751, 351.4666
92.98962, 353.4535
93.47174, 354.9611
93.95386, 357.2094
94.43597, 358.8103
94.91809, 359.7744
95.40021, 360.4179
95.88232, 360.4025
96.36444, 359.6744
96.84656, 358.3832
97.32867, 356.8490
97.81078, 355.1051
98.29290, 353.1359
98.77502, 350.7440
99.25713, 347.4533
99.73925, 343.4949
100.2214, 338.6053
100.7035, 333.5874
101.1856, 328.6171
101.6677, 323.7469
102.1498, 319.0901
102.6320, 314.7780
103.1141, 310.7464
103.5962, 307.2567
104.0783, 304.4619
104.5604, 302.0733
105.0425, 299.8105
105.5247, 297.5692
106.0068, 295.4023
106.4889, 293.3214
106.9710, 291.2523
107.4531, 289.3839
107.9352, 287.7843
108.4173, 286.4376
108.8995, 285.2975
109.3816, 284.5047
109.8637, 283.7857
110.3458, 282.8154
110.8279, 281.4961
111.3100, 280.1319
111.7922, 279.0770
112.2743, 278.3824
112.7564, 277.8583
113.2385, 277.4799
113.7206, 277.2092
114.2027, 277.0313
114.6849, 276.9445
115.1670, 276.9296
115.6491, 276.9289
116.1312, 277.0617
116.6133, 277.0516
117.0954, 276.9041
117.5776, 276.5816
118.0597, 275.9602
118.5418, 274.8916
119.0239, 273.3559
119.5060, 272.6238
119.9881, 273.0560
120.4703, 273.7585
120.9524, 274.5060
121.4345, 275.2310
121.9166, 275.8627
122.3987, 276.3329
122.8808, 276.6076
123.3630, 276.7688
123.8451, 276.7697
124.3272, 276.6792
124.8093, 276.5323
125.2914, 276.3202
125.7735, 276.1302
126.2557, 276.0858
126.7378, 276.1572
127.2199, 276.2524
127.7020, 276.3688
128.1841, 276.4881
128.6662, 276.5126
129.1483, 276.2513
129.6305, 276.1333
130.1126, 276.6014
130.5947, 277.5925
131.0768, 278.5135
131.5589, 278.6881
132.0410, 277.9702
132.5232, 277.7115
133.0053, 278.6832
133.4874, 279.7603
133.9695, 280.2868
134.4516, 280.1676
134.9337, 279.8589
135.4159, 280.1014
135.8980, 281.3612
136.3801, 282.3065
136.8622, 282.6476
137.3443, 282.8169
137.8264, 283.2252
138.3086, 284.0225
138.7907, 285.0006
139.2728, 285.5692
139.7549, 285.4505
140.2370, 285.2157
140.7191, 284.8907
141.2013, 284.4769
141.6834, 283.9554
142.1655, 283.3072
142.6476, 282.5637
143.1297, 281.8756
143.6118, 280.9863
144.0939, 280.3908
144.5761, 280.4706
145.0582, 281.0988
145.5403, 281.6866
146.0224, 281.8643
146.5045, 281.7416
146.9866, 281.7043
147.4688, 281.6875
147.9509, 281.8263
148.4330, 282.3769
148.9151, 283.4277
149.3972, 284.3378
149.8793, 284.5106
150.3615, 284.3472
150.8436, 284.2941
151.3257, 284.3864
151.8078, 284.7458
152.2899, 285.7894
152.7720, 288.1360
153.2542, 290.0692
153.7363, 290.8827
154.2184, 290.9200
154.7005, 290.7003
155.1826, 290.5430
155.6647, 290.4165
156.1469, 289.9868
156.6290, 289.0112
157.1111, 287.9334
157.5932, 286.7265
158.0753, 285.4973
158.5574, 284.4272
159.0396, 283.6596
159.5217, 283.2001
160.0038, 283.0251
160.4859, 283.4912
160.9680, 283.8827
161.4501, 283.7206
161.9323, 283.1136
162.4144, 282.6122
162.8965, 282.8064
163.3786, 283.9096
163.8607, 284.8917
164.3428, 285.8668
164.8250, 286.6594
165.3071, 286.9833
165.7892, 286.8293
166.2713, 286.6723
166.7534, 287.1154
167.2355, 288.2451
167.7177, 289.3891
168.1998, 290.7589
168.6819, 292.0146
169.1640, 292.6214
169.6461, 292.3784
170.1282, 291.8237
170.6104, 291.5933
171.0925, 291.6451
171.5746, 291.7076
172.0567, 291.5617
172.5388, 291.3324
173.0209, 291.4804
173.5031, 292.4499
173.9852, 293.2862
174.4673, 293.0478
174.9494, 291.8371
175.4315, 290.6124
175.9136, 290.0569
176.3958, 290.1502
176.8779, 290.3772
177.3600, 291.1157
177.8421, 291.5655
178.3242, 291.1064
178.8063, 289.7861
179.2885, 288.2827
179.7706, 287.3477
180.2527, 287.1622
180.7348, 286.7483
181.2169, 285.4847
181.6990, 284.3868
182.1812, 284.2238
182.6633, 285.0100
183.1454, 286.0005
183.6275, 286.1076
184.1096, 284.8195
184.5917, 283.6826
185.0738, 282.8634
185.5560, 282.0698
186.0381, 281.0934
186.5202, 279.8853
187.0023, 278.5490
187.4844, 277.2686
187.9665, 276.0915
188.4487, 274.8917
188.9308, 273.5576
189.4129, 272.2629
189.8950, 271.2815
190.3771, 270.6992
190.8592, 270.1806
191.3414, 269.0264
191.8235, 266.7394
192.3056, 264.7654
192.7877, 263.2798
193.2698, 262.1912
193.7519, 261.4626
194.2341, 261.1349
194.7162, 260.9662
195.1983, 260.4081
195.6804, 259.3572
196.1625, 258.3941
196.6446, 257.8170
197.1268, 257.4533
197.6089, 256.8824
198.0910, 255.8996
198.5731, 254.7492
199.0552, 253.8177
199.5373, 253.1141
200.0195, 252.4860
200.5016, 251.7621
200.9837, 251.0031
201.4658, 250.5567
201.9479, 250.6964
202.4300, 251.0351
202.9122, 251.0759
203.3943, 250.7728
203.8764, 250.5376
204.3585, 250.9309
204.8406, 251.9473
205.3227, 252.3470
205.8048, 251.3536
206.2870, 249.9568
206.7691, 248.7710
207.2512, 247.8750
207.7333, 247.2107
208.2154, 246.7361
208.6975, 246.4557
209.1797, 246.3410
209.6618, 246.6950
210.1439, 247.0066
210.6260, 246.8980
211.1081, 246.3375
211.5902, 245.6900
212.0724, 245.4695
212.5545, 245.8676
213.0366, 246.1142
213.5187, 246.1383
214.0008, 246.0227
214.4829, 245.7231
214.9651, 245.2708
215.4472, 244.8417
215.9293, 244.7380
216.4114, 245.2611
216.8935, 245.4769
217.3756, 245.0335
217.8578, 244.5767
218.3399, 244.6194
218.8220, 245.2413
219.3041, 246.0879
219.7862, 246.6334
220.2683, 246.8490
220.7505, 246.7449
221.2326, 246.1965
221.7147, 245.4460
222.1968, 244.6290
222.6789, 243.7943
223.1610, 242.9726
223.6432, 242.1860
224.1253, 241.2629
224.6074, 240.8213
225.0895, 241.3254
225.5716, 242.0459
226.0537, 242.3326
226.5358, 242.0336
227.0180, 241.4121
227.5001, 240.8249
227.9822, 240.3320
228.4643, 239.6600
228.9464, 238.4237
229.4285, 237.1703
229.9107, 236.6145
230.3928, 236.9329
230.8749, 237.4980
231.3570, 237.4613
231.8391, 236.7564
232.3212, 236.2304
232.8034, 236.2693
233.2855, 236.4613
233.7676, 236.1669
234.2497, 235.1939
234.7318, 234.2028
235.2139, 234.0985
235.6961, 234.7587
236.1782, 235.2463
236.6603, 235.2049
237.1424, 234.8876
237.6245, 234.7077
238.1066, 234.7629
238.5888, 234.7892
239.0709, 234.4509
239.5530, 233.8579
240.0351, 233.3430
240.5172, 232.9714
240.9993, 232.7577
241.4815, 232.7763
241.9636, 233.1090
242.4457, 233.4702
242.9278, 233.6725
243.4099, 233.7506
243.8920, 233.7560
244.3742, 233.7861
244.8563, 233.7462
245.3384, 233.3522
245.8205, 232.4251
246.3026, 231.5488
246.7847, 230.9781
247.2668, 230.6763
247.7490, 230.6472
248.2311, 231.0767
248.7132, 231.6911
249.1953, 231.7501
249.6774, 230.9424
250.1595, 230.2053
250.6417, 229.9723
251.1238, 230.0235
251.6059, 230.1075
252.0880, 230.1391
252.5701, 230.0993
253.0522, 229.9386
253.5344, 229.6454
254.0165, 229.2424
254.4986, 228.7365
254.9807, 228.1479
255.4628, 227.4367
255.9449, 226.5533
256.4271, 225.6709
256.9092, 225.2034
257.3913, 225.3004
257.8734, 225.5714
258.3555, 226.3011
258.8376, 226.9621
259.3198, 226.9274
259.8019, 225.9422
260.2840, 224.5352
260.7661, 223.8625
261.2482, 224.4592
261.7303, 224.7859
262.2125, 224.3535
262.6946, 223.7945
263.1767, 223.7222
263.6588, 224.3062
264.1409, 225.1284
264.6230, 225.4561
265.1052, 225.1090
265.5873, 224.5628
266.0694, 223.3112
266.5515, 222.2431
267.0336, 222.2743
267.5157, 223.4932
267.9979, 225.0023
268.4800, 225.4151
268.9621, 224.0506
269.4442, 223.0260
269.9263, 222.4472
270.4084, 222.0586
270.8906, 221.7958
271.3727, 221.5990
271.8548, 221.3232
272.3369, 220.7366
272.8190, 219.5936
273.3011, 219.0103
273.7833, 219.2956
274.2654, 219.7660
274.7475, 220.1426
275.2296, 220.3558
275.7117, 220.3888
276.1938, 220.2077
276.6760, 219.7720
277.1581, 219.3634
277.6402, 218.7643
278.1223, 218.3782
278.6044, 218.5395
279.0865, 219.1193
279.5686, 219.6859
280.0508, 219.8903
280.5329, 219.7246
281.0150, 219.5415
281.4971, 219.1909
281.9792, 218.9718
282.4613, 218.1915
282.9435, 219.0536
283.4256, 219.4759
283.9077, 219.4819
284.3898, 217.8249
284.8719, 218.3153
285.3540, 217.9452
285.8362, 217.5397
286.3183, 218.3324
286.8004, 216.9172
287.2825, 217.6909
287.7646, 217.5909
288.2467, 217.8907
288.7289, 217.3246
289.2110, 217.0260
289.6931, 217.5935
290.1752, 217.6815
290.6573, 217.0157
291.1394, 217.3410
291.6216, 215.8956
292.1037, 216.0039
292.5858, 216.7827
293.0679, 216.1605
293.5500, 216.5015
294.0321, 216.4758
294.5143, 214.7826
294.9964, 215.9891
295.4785, 215.7704
295.9606, 216.3365
296.4427, 216.1811
296.9248, 214.9349
297.4070, 214.0709
297.8891, 213.8266
298.3712, 213.8714
298.8533, 213.9284
299.3354, 213.9529
299.8175, 214.0575
300.2997, 214.4284
300.7818, 215.1458
301.2639, 215.3662
301.7460, 214.6679
302.2281, 213.8132
302.7102, 213.2172
303.1924, 212.9302
303.6745, 212.9520
304.1566, 213.3798
304.6387, 214.1688
305.1208, 214.5352
305.6029, 214.2368
306.0851, 213.7993
306.5672, 213.3854
307.0493, 213.0322
307.5314, 212.8317
308.0135, 212.8598
308.4956, 213.0625
308.9778, 213.2061
309.4599, 213.4377
309.9420, 213.4511
310.4241, 212.9791
310.9062, 212.2335
311.3883, 211.6157
311.8705, 211.2876
312.3526, 211.1837
312.8347, 211.1931
313.3168, 211.3555
313.7989, 211.5154
314.2810, 211.6897
314.7632, 211.8291
315.2453, 211.8593
315.7274, 211.7578
316.2095, 211.5804
316.6916, 211.3880
317.1737, 211.1692
317.6559, 210.9899
318.1380, 210.8553
318.6201, 210.7627
319.1022, 210.7658
319.5843, 210.8573
320.0664, 210.8574
320.5485, 210.5500
321.0306, 209.9053
321.5128, 209.5032
321.9949, 209.3990
322.4770, 209.4781
322.9591, 209.7178
323.4412, 210.0911
323.9233, 210.5279
324.4055, 211.0062
324.8876, 211.5028
325.3697, 211.8439
325.8518, 212.0198
326.3339, 212.0818
326.8160, 212.0041
327.2982, 211.8280
327.7803, 211.6706
328.2624, 211.6118
328.7445, 211.5380
329.2266, 211.0917
329.7087, 209.9268
330.1909, 209.0621
330.6730, 208.7502
331.1551, 208.8223
331.6372, 209.1664
332.1193, 209.7563
332.6014, 210.3384
333.0836, 210.5295
333.5657, 210.1616
334.0478, 209.8667
334.5299, 209.7347
335.0120, 209.6377
335.4941, 209.4589
335.9763, 209.1910
336.4584, 208.9131
336.9405, 208.6976
337.4226, 208.5489
337.9047, 208.4280
338.3868, 208.2252
338.8690, 208.1445
339.3511, 208.3448
339.8332, 208.7666
340.3153, 209.2814
340.7974, 209.8702
341.2795, 210.4400
341.7617, 210.3294
342.2438, 208.6151
342.7259, 207.4125
343.2080, 207.6168
343.6901, 208.5252
344.1722, 209.0549
344.6544, 208.7526
345.1365, 207.9994
345.6186, 207.5866
346.1007, 207.9134
346.5828, 207.9839
347.0649, 207.5825
347.5471, 207.0459
348.0292, 206.6091
348.5113, 206.3425
348.9934, 206.2668
349.4755, 206.4295
349.9576, 206.9036
350.4398, 207.3288
350.9219, 207.8543
351.4040, 208.2080
351.8861, 208.1370
352.3682, 207.7416
352.8503, 207.3489
353.3325, 207.2202
353.8146, 207.3284
354.2967, 207.2486
354.7788, 206.6934
355.2609, 206.2771
355.7430, 206.1971
356.2252, 206.3160
356.7073, 206.4534
357.1894, 206.5254
357.6715, 206.5324
358.1536, 206.4765
358.6357, 206.3582
359.1179, 206.1670
359.5999, 205.9324
360.0821, 205.6158
360.5642, 205.0545
361.0463, 204.2812
361.5284, 203.6554
362.0105, 203.7066
362.4926, 204.7314
362.9748, 205.2822
363.4569, 205.1424
363.9390, 204.7695
364.4211, 204.1737
364.9032, 203.4900
365.3853, 202.9707
365.8675, 202.7922
366.3496, 202.9482
366.8317, 203.4033
367.3138, 204.5782
367.7959, 205.5150
368.2780, 205.9825
368.7602, 206.1136
369.2423, 206.0540
369.7244, 205.8623
370.2065, 205.5677
370.6886, 205.2263
371.1707, 204.8463
371.6529, 204.3924
372.1350, 203.6394
372.6171, 202.9697
373.0992, 202.7262
373.5813, 202.9126
374.0634, 203.1412
374.5456, 202.8233
375.0277, 201.8987
375.5098, 201.8049
375.9919, 203.6888
376.4740, 205.1709
376.9561, 204.8486
377.4383, 203.2984
377.9204, 201.9019
378.4025, 201.5235
378.8846, 201.7915
379.3667, 201.5973
379.8488, 200.6767
380.3310, 199.9824
380.8131, 200.0258
381.2952, 200.4280
381.7773, 200.8904
382.2594, 201.3782
382.7415, 201.7268
383.2237, 201.6802
383.7058, 201.2411
384.1879, 200.8577
384.6700, 200.6263
385.1521, 200.5038
385.6342, 200.5044
386.1164, 200.6104
386.5985, 200.5972
387.0806, 200.2193
387.5627, 199.6448
388.0448, 199.2622
388.5269, 199.1070
389.0091, 199.1352
389.4912, 199.5556
389.9733, 200.1363
390.4554, 200.3172
390.9375, 199.6216
391.4196, 198.8200
391.9018, 198.6987
392.3839, 199.1835
392.8660, 199.5803
393.3481, 199.5221
393.8302, 199.2641
394.3123, 199.3208
394.7945, 199.7685
395.2766, 200.2403
395.7587, 200.7383
396.2408, 201.1307
396.7229, 201.1108
397.2050, 200.5783
397.6872, 199.9224
398.1693, 199.5548
398.6514, 199.5043
399.1335, 199.5064
399.6156, 199.6792
400.0977, 199.7961
400.5798, 199.6544
401.0620, 199.2935
401.5441, 198.9095
402.0262, 198.6152
402.5083, 198.4006
402.9904, 198.2266
403.4725, 197.9006
403.9547, 197.8417
404.4368, 198.3918
404.9189, 199.1539
405.4010, 199.5782
405.8831, 199.5044
406.3652, 199.2671
406.8474, 199.3914
407.3295, 200.1634
407.8116, 200.4382
408.2937, 200.0024
408.7758, 199.3266
409.2579, 198.4413
409.7401, 197.5201
410.2222, 196.9375
410.7043, 196.9935
411.1864, 197.6194
411.6685, 198.2102
412.1506, 199.0401
412.6328, 199.4653
413.1149, 199.1595
413.5970, 198.5147
414.0791, 197.8679
414.5612, 197.3528
415.0433, 197.0706
415.5255, 197.3026
416.0076, 198.3369
416.4897, 198.8877
416.9718, 198.3841
417.4539, 197.7939
417.9360, 197.6089
418.4182, 197.7551
418.9003, 197.8348
419.3824, 197.4392
419.8645, 196.7573
420.3466, 196.7139
420.8287, 197.6707
421.3109, 198.5121
421.7930, 198.6962
422.2751, 198.5672
422.7572, 198.4884
423.2393, 198.5643
423.7214, 198.6790
424.2036, 198.6749
424.6857, 198.5606
425.1678, 198.5926
425.6499, 199.0029
426.1320, 199.3491
426.6141, 199.1416
427.0963, 198.4554
427.5784, 197.8647
428.0605, 197.6018
428.5426, 197.5841
429.0247, 197.6990
429.5068, 197.9428
429.9890, 198.3030
430.4711, 198.7687
430.9532, 199.3594
431.4353, 200.1089
431.9174, 201.3272
432.3995, 202.2446
432.8817, 202.1363
433.3638, 201.4778
433.8459, 201.3295
434.3280, 202.0542
434.8101, 203.1352
435.2922, 203.8499
435.7744, 204.0591
436.2565, 204.4548
436.7386, 204.6692
437.2207, 205.3856
437.7028, 207.5661
438.1849, 210.8276
438.6671, 213.6944
439.1492, 215.1643
439.6313, 215.4274
440.1134, 215.5522
440.5955, 215.3798
441.0776, 215.2655
441.5598, 215.1537
442.0418, 215.1675
442.5240, 215.4555
443.0061, 216.0446
443.4882, 216.8228
443.9703, 217.6493
444.4524, 218.5269
444.9345, 219.4568
445.4167, 220.0771
445.8988, 221.1127
446.3809, 223.2317
446.8630, 225.9150
447.3451, 228.1855
447.8272, 229.4281
448.3094, 230.0122
448.7915, 230.9065
449.2736, 232.3143
449.7557, 233.4417
450.2378, 233.7958
450.7199, 233.9998
451.2021, 234.6437
451.6842, 235.7430
452.1663, 236.5567
452.6484, 236.4159
453.1305, 235.4788
453.6126, 234.4679
454.0948, 233.5229
454.5769, 232.2885
455.0590, 230.1492
455.5411, 227.5999
456.0232, 225.5437
456.5053, 224.4440
456.9875, 223.5399
457.4696, 222.1703
457.9517, 220.4329
458.4338, 218.7727
458.9159, 217.3829
459.3980, 216.0339
459.8802, 214.2072
460.3623, 211.7880
460.8444, 209.9897
461.3265, 209.5625
461.8086, 209.4877
462.2907, 208.6956
462.7729, 207.2580
463.2550, 206.1306
463.7371, 206.0301
464.2192, 206.7345
464.7013, 206.9555
465.1834, 206.0131
465.6656, 205.4861
466.1477, 205.9854
466.6298, 206.8137
467.1119, 207.1106
467.5940, 206.7288
468.0761, 206.2979
468.5583, 206.6247
469.0404, 207.8841
469.5225, 208.7885
470.0046, 209.0770
470.4867, 209.2729
470.9688, 209.5890
471.4510, 209.9022
471.9331, 209.9506
472.4152, 209.5862
472.8973, 209.0561
473.3794, 208.8498
473.8615, 209.0452
474.3437, 209.2331
474.8258, 209.5291
475.3079, 209.6265
475.7900, 209.2250
476.2721, 208.3976
476.7542, 207.5661
477.2364, 206.9871
477.7185, 206.5888
478.2006, 206.2861
478.6827, 206.1393
479.1648, 205.7223
479.6469, 204.6526
480.1291, 203.2376
480.6112, 202.0143
481.0933, 200.9790
481.5754, 200.2153
482.0575, 199.9769
482.5396, 199.9928
483.0217, 199.7527
483.5038, 199.1518
483.9860, 198.3836
484.4681, 197.5906
484.9502, 196.7749
485.4323, 196.0617
485.9144, 195.4616
486.3965, 194.9444
486.8787, 194.6097
487.3608, 194.3247
487.8429, 193.8081
488.3250, 192.9460
488.8071, 191.9700
489.2892, 191.3009
489.7714, 191.0479
490.2535, 190.8355
490.7356, 190.7050
491.2177, 190.5699
491.6998, 190.3104
492.1819, 190.0094
492.6641, 189.9073
493.1462, 190.2104
493.6283, 190.6967
494.1104, 190.6762
494.5925, 189.9656
495.0746, 189.2474
495.5568, 188.4514
496.0389, 187.8699
496.5210, 187.8456
497.0031, 188.3504
497.4852, 188.8615
497.9673, 189.0809
498.4495, 189.0220
498.9316, 188.6307
499.4137, 187.8172
499.8958, 187.0902
500.3779, 186.8451
500.8600, 186.8435
501.3422, 186.5397
501.8243, 185.6543
502.3064, 185.0152
502.7885, 185.2405
503.2706, 185.9360
503.7527, 186.4063
504.2349, 186.5004
504.7170, 186.4262
505.1991, 186.3948
505.6812, 186.4136
506.1633, 186.2261
506.6454, 185.5111
507.1276, 184.9695
507.6097, 184.9342
508.0918, 185.2169
508.5739, 185.5696
509.0560, 185.8907
509.5381, 186.1246
510.0203, 186.1690
510.5024, 185.9734
510.9845, 185.7627
511.4666, 185.5774
511.9487, 185.3372
512.4308, 184.9559
512.9130, 184.5007
513.3951, 184.0922
513.8772, 183.7830
514.3593, 183.5731
514.8414, 183.4640
515.3235, 183.4570
515.8057, 183.5413
516.2878, 183.7819
516.7699, 184.0483
517.2520, 184.2489
517.7341, 184.3812
518.2162, 184.4448
518.6984, 184.6044
519.1805, 184.6004
519.6626, 183.8145
520.1447, 182.3333
520.6268, 181.4172
521.1089, 181.8160
521.5911, 182.9637
522.0732, 183.5971
522.5553, 183.7024
523.0374, 183.4943
523.5195, 182.4983
524.0016, 181.5581
524.4838, 181.6706
524.9659, 182.6833
525.4480, 183.5160
525.9301, 183.3611
526.4122, 182.4229
526.8943, 181.7451
527.3765, 181.5534
527.8586, 181.3192
528.3407, 180.8591
528.8228, 180.4341
529.3049, 180.2534
529.7870, 180.3395
530.2692, 180.5968
530.7513, 181.0168
531.2334, 181.5449
531.7155, 181.8482
532.1976, 181.8677
532.6797, 181.7976
533.1619, 181.6273
533.6440, 181.4542
534.1261, 181.3786
534.6082, 181.4195
535.0903, 181.5268
535.5724, 181.7293
536.0546, 181.9628
536.5367, 182.0952
537.0188, 182.1098
537.5009, 182.0291
537.9830, 181.8474
538.4651, 181.5806
538.9473, 181.3333
539.4294, 181.1002
539.9115, 180.8887
540.3936, 180.7844
540.8757, 180.6621
541.3578, 180.2229
541.8400, 179.4781
542.3221, 178.9607
542.8042, 179.3192
543.2863, 180.5791
543.7684, 181.1142
544.2505, 180.1004
544.7326, 179.3275
545.2147, 179.0911
545.6968, 179.2851
546.1790, 179.9966
546.6611, 181.1821
547.1432, 182.1644
547.6253, 182.0506
548.1074, 180.9456
548.5895, 180.0565
549.0717, 179.4593
549.5538, 179.0205
550.0359, 178.6555
550.5180, 178.4026
551.0001, 178.3998
551.4822, 178.8520
551.9644, 179.1062
552.4465, 178.3955
552.9286, 177.2632
553.4107, 176.9416
553.8928, 177.6829
554.3749, 178.6346
554.8571, 179.0557
555.3392, 178.9578
555.8213, 178.8431
556.3034, 178.7735
556.7855, 178.6151
557.2676, 178.1685
557.7498, 177.6919
558.2319, 177.4879
558.7140, 177.6260
559.1961, 177.9939
559.6782, 178.5305
560.1603, 179.2380
560.6425, 179.6935
561.1246, 179.8657
561.6067, 179.8040
562.0888, 179.4145
562.5709, 178.8875
563.0530, 178.4120
563.5352, 178.0328
564.0173, 177.7499
564.4994, 177.6416
564.9815, 177.6337
565.4636, 177.4623
565.9457, 177.0786
566.4279, 176.6432
566.9100, 176.1763
567.3921, 175.7626
567.8742, 175.6491
568.3563, 175.9266
568.8384, 176.3463
569.3206, 177.1272
569.8027, 177.8516
570.2848, 177.8464
570.7669, 177.1083
571.2490, 176.3921
571.7311, 176.4046
572.2133, 177.0447
572.6954, 177.1897
573.1775, 176.2051
573.6596, 175.5953
574.1417, 175.5670
574.6238, 175.9594
575.1060, 176.9198
575.5881, 178.2950
576.0702, 179.2934
576.5523, 179.1113
577.0344, 178.0406
577.5165, 177.0902
577.9987, 176.2223
578.4808, 175.6662
578.9629, 175.7879
579.4450, 176.1050
579.9271, 175.8548
580.4092, 174.9134
580.8914, 174.2111
581.3735, 174.2584
581.8556, 174.6218
582.3377, 174.8886
582.8198, 175.0161
583.3019, 174.9971
583.7841, 174.7969
584.2662, 174.5213
584.7483, 174.4682
585.2304, 174.8615
585.7125, 175.1106
586.1946, 175.1244
