##NAMES=Bustamite
##RRUFFID=R040014
##IDEAL CHEMISTRY=CaMn^2+^Si_2_O_6_
##LOCALITY=Broken Hill, New South Wales, Australia
##OWNER=RRUFF
##SOURCE=University of Arizona Mineral Museum
##DESCRIPTION=Orange fragment
##STATUS=The identification of this mineral has been confirmed by X-ray diffraction and chemical analysis
##URL=rruff.info/R040014
##MEASURED CHEMISTRY=(Ca_0.90_Mn_0.10_)_Σ=1_(Mn^2+^_0.78_Fe^2+^_0.19_Fe^3+^_0.02_Mg_0.01_)_Σ=1_(Si_1.98_Fe^3+^_0.02_)_Σ=2_O_6_
117.6655, 311.5142
118.1476, 341.5291
118.6297, 373.6891
119.1118, 406.4301
119.5940, 439.0713
120.0761, 472.0529
120.5582, 505.3344
121.0403, 538.5552
121.5224, 574.4133
122.0045, 613.5512
122.4867, 656.3747
122.9688, 703.4052
123.4509, 757.7697
123.9330, 815.3705
124.4151, 871.7360
124.8972, 926.3019
125.3794, 979.5104
125.8615, 1028.652
126.3436, 1075.019
126.8257, 1127.241
127.3078, 1193.998
127.7899, 1270.954
128.2721, 1348.109
128.7542, 1422.765
129.2363, 1496.615
129.7184, 1573.729
130.2005, 1654.462
130.6826, 1738.316
131.1647, 1829.113
131.6469, 1925.408
132.1290, 2017.300
132.6111, 2099.618
133.0932, 2173.919
133.5753, 2247.004
134.0574, 2320.255
134.5396, 2388.968
135.0217, 2447.440
135.5038, 2495.968
135.9859, 2534.600
136.4680, 2560.474
136.9501, 2573.091
137.4323, 2587.077
137.9144, 2606.544
138.3965, 2625.013
138.8786, 2622.106
139.3607, 2591.926
139.8428, 2557.482
140.3250, 2532.430
140.8071, 2517.942
141.2892, 2510.170
141.7713, 2511.225
142.2534, 2519.871
142.7355, 2521.600
143.2177, 2508.220
143.6998, 2497.635
144.1819, 2507.340
144.6640, 2547.338
145.1461, 2589.784
145.6283, 2628.231
146.1104, 2660.032
146.5925, 2701.773
147.0746, 2755.454
147.5567, 2817.489
148.0388, 2882.208
148.5210, 2956.879
149.0031, 3026.255
149.4852, 3083.894
149.9673, 3119.751
150.4494, 3164.737
150.9315, 3232.552
151.4136, 3310.310
151.8958, 3365.324
152.3779, 3384.790
152.8600, 3391.135
153.3421, 3393.277
153.8242, 3403.061
154.3063, 3396.275
154.7885, 3369.687
155.2706, 3324.364
155.7527, 3265.236
156.2348, 3191.091
156.7169, 3104.270
157.1990, 3006.911
157.6812, 2889.495
158.1633, 2770.541
158.6454, 2654.589
159.1275, 2543.145
159.6096, 2429.713
160.0917, 2306.770
160.5739, 2183.490
161.0560, 2069.593
161.5381, 1976.635
162.0202, 1886.987
162.5023, 1789.830
162.9844, 1682.718
163.4666, 1583.212
163.9487, 1499.077
164.4308, 1427.837
164.9129, 1365.334
165.3950, 1308.940
165.8771, 1261.304
166.3593, 1226.422
166.8414, 1209.600
167.3235, 1193.777
167.8056, 1164.513
168.2877, 1127.229
168.7698, 1096.513
169.2519, 1085.129
169.7341, 1082.232
170.2162, 1076.560
170.6983, 1063.180
171.1804, 1049.599
171.6625, 1041.147
172.1446, 1037.557
172.6268, 1037.358
173.1089, 1041.314
173.5910, 1047.700
174.0731, 1054.218
174.5552, 1063.556
175.0373, 1070.360
175.5195, 1066.793
176.0016, 1053.124
176.4837, 1036.665
176.9658, 1022.819
177.4479, 1010.880
177.9300, 999.4371
178.4122, 988.4395
178.8943, 977.4093
179.3764, 965.9572
179.8585, 954.2892
180.3406, 940.9142
180.8227, 922.5838
181.3049, 900.7244
181.7870, 880.1236
182.2691, 863.3334
182.7512, 849.6908
183.2333, 837.4493
183.7154, 826.1759
184.1976, 817.5532
184.6797, 817.2088
185.1618, 823.8976
185.6439, 826.6420
186.1260, 812.3148
186.6081, 786.9009
187.0903, 775.7207
187.5724, 785.2264
188.0545, 804.4864
188.5366, 813.6357
189.0187, 812.5482
189.5008, 810.4828
189.9829, 814.9006
190.4651, 824.8827
190.9472, 833.7381
191.4293, 840.3824
191.9114, 844.9672
192.3935, 847.6724
192.8756, 848.3085
193.3578, 848.4720
193.8399, 850.8239
194.3220, 855.2743
194.8041, 855.3564
195.2862, 847.4725
195.7683, 834.0852
196.2505, 827.9329
196.7326, 830.7175
197.2147, 834.3656
197.6968, 828.8853
198.1789, 813.5976
198.6610, 799.8090
199.1432, 791.2690
199.6253, 787.6484
200.1074, 784.5133
200.5895, 781.9045
201.0716, 779.6082
201.5537, 777.4482
202.0359, 775.4713
202.5180, 773.1987
203.0001, 769.8746
203.4822, 765.2432
203.9643, 762.9615
204.4464, 763.1039
204.9286, 765.4691
205.4107, 770.2551
205.8928, 778.1251
206.3749, 786.0560
206.8570, 792.9091
207.3391, 798.6270
207.8212, 803.1152
208.3034, 804.9457
208.7855, 806.6902
209.2676, 815.5610
209.7497, 834.8287
210.2318, 852.6257
210.7139, 861.1172
211.1961, 856.3463
211.6782, 859.1346
212.1603, 873.2600
212.6424, 894.6529
213.1245, 909.6863
213.6066, 915.3385
214.0888, 920.5988
214.5709, 930.9005
215.0530, 947.4482
215.5351, 965.4914
216.0172, 985.1372
216.4993, 1005.925
216.9815, 1026.329
217.4636, 1044.952
217.9457, 1065.010
218.4278, 1089.379
218.9099, 1119.919
219.3920, 1149.163
219.8742, 1176.208
220.3563, 1200.790
220.8384, 1224.414
221.3205, 1244.622
221.8026, 1266.975
222.2847, 1295.517
222.7669, 1330.653
223.2490, 1372.003
223.7311, 1421.428
224.2132, 1479.492
224.6953, 1531.440
225.1774, 1575.365
225.6596, 1616.364
226.1417, 1659.961
226.6238, 1706.594
227.1059, 1754.187
227.5880, 1802.846
228.0701, 1852.352
228.5522, 1902.196
229.0344, 1950.839
229.5165, 2000.927
229.9986, 2057.423
230.4807, 2126.404
230.9628, 2189.634
231.4449, 2240.963
231.9271, 2278.707
232.4092, 2317.640
232.8913, 2359.148
233.3734, 2401.514
233.8555, 2442.549
234.3376, 2482.281
234.8198, 2521.423
235.3019, 2559.794
235.7840, 2596.620
236.2661, 2636.082
236.7482, 2677.938
237.2303, 2721.995
237.7125, 2768.644
238.1946, 2822.772
238.6767, 2871.433
239.1588, 2910.816
239.6409, 2939.218
240.1230, 2963.267
240.6052, 2981.082
241.0873, 2995.353
241.5694, 3011.400
242.0515, 3033.680
242.5336, 3050.643
243.0157, 3058.117
243.4979, 3054.575
243.9800, 3045.755
244.4621, 3031.924
244.9442, 3012.512
245.4263, 2986.491
245.9084, 2955.462
246.3905, 2914.993
246.8727, 2861.079
247.3548, 2784.934
247.8369, 2719.688
248.3190, 2675.150
248.8011, 2638.205
249.2832, 2575.553
249.7654, 2474.080
250.2475, 2369.509
250.7296, 2275.291
251.2117, 2190.062
251.6938, 2119.594
252.1759, 2069.024
252.6581, 2032.066
253.1402, 1990.729
253.6223, 1945.159
254.1044, 1894.892
254.5865, 1838.701
255.0686, 1770.802
255.5508, 1710.841
256.0329, 1659.117
256.5150, 1615.501
256.9971, 1580.284
257.4792, 1557.301
257.9613, 1535.400
258.4435, 1508.517
258.9256, 1473.783
259.4077, 1441.167
259.8898, 1409.572
260.3719, 1380.439
260.8540, 1358.310
261.3362, 1345.080
261.8183, 1334.881
262.3004, 1324.442
262.7825, 1313.132
263.2646, 1303.835
263.7467, 1296.843
264.2289, 1291.940
264.7110, 1289.225
265.1931, 1290.071
265.6752, 1290.198
266.1573, 1285.047
266.6394, 1270.364
267.1216, 1267.901
267.6037, 1283.325
268.0858, 1310.014
268.5679, 1327.037
269.0500, 1330.021
269.5321, 1333.748
270.0143, 1348.124
270.4964, 1376.068
270.9785, 1399.902
271.4606, 1417.576
271.9427, 1431.023
272.4248, 1445.490
272.9070, 1460.487
273.3891, 1478.073
273.8712, 1500.231
274.3533, 1527.533
274.8354, 1554.035
275.3175, 1577.966
275.7997, 1601.482
276.2818, 1631.686
276.7639, 1670.224
277.2460, 1708.637
277.7281, 1741.495
278.2102, 1768.415
278.6924, 1794.575
279.1745, 1819.914
279.6566, 1845.158
280.1387, 1869.505
280.6208, 1891.327
281.1029, 1921.964
281.5851, 1980.857
282.0672, 2068.008
282.5493, 2116.513
283.0314, 2111.562
283.5135, 2075.598
283.9956, 2054.598
284.4778, 2048.982
284.9599, 2053.896
285.4420, 2068.721
285.9241, 2092.846
286.4062, 2119.084
286.8883, 2146.965
287.3705, 2175.888
287.8526, 2205.051
288.3347, 2234.470
288.8168, 2262.846
289.2989, 2288.415
289.7810, 2311.798
290.2632, 2335.656
290.7453, 2359.724
291.2274, 2384.825
291.7095, 2410.896
292.1916, 2438.178
292.6737, 2470.321
293.1558, 2510.191
293.6379, 2556.395
294.1201, 2604.389
294.6022, 2652.949
295.0843, 2706.131
295.5664, 2770.566
296.0485, 2846.052
296.5306, 2928.274
297.0128, 3017.030
297.4949, 3111.436
297.9770, 3206.615
298.4591, 3299.754
298.9412, 3405.680
299.4233, 3543.767
299.9055, 3710.726
300.3876, 3889.075
300.8697, 4067.553
301.3518, 4251.405
301.8339, 4451.790
302.3160, 4671.421
302.7982, 4901.247
303.2803, 5128.480
303.7624, 5358.837
304.2445, 5614.669
304.7266, 5922.685
305.2087, 6250.538
305.6909, 6567.033
306.1730, 6864.589
306.6551, 7167.752
307.1372, 7495.178
307.6193, 7841.252
308.1014, 8188.445
308.5836, 8527.396
309.0657, 8865.715
309.5478, 9215.724
310.0299, 9578.488
310.5120, 9929.877
310.9941, 10258.24
311.4763, 10559.71
311.9584, 10833.02
312.4405, 11071.64
312.9226, 11283.89
313.4047, 11485.96
313.8868, 11682.72
314.3690, 11813.77
314.8511, 11842.95
315.3332, 11791.92
315.8153, 11685.94
316.2974, 11523.06
316.7795, 11314.28
317.2617, 11061.01
317.7438, 10763.24
318.2259, 10439.01
318.7080, 10099.67
319.1901, 9734.716
319.6722, 9334.788
320.1544, 8848.338
320.6365, 8372.518
321.1186, 7945.685
321.6007, 7564.005
322.0828, 7196.432
322.5649, 6835.933
323.0471, 6486.646
323.5292, 6151.462
324.0113, 5823.320
324.4934, 5516.126
324.9755, 5235.994
325.4576, 4982.697
325.9398, 4745.592
326.4219, 4522.800
326.9040, 4316.770
327.3861, 4128.827
327.8682, 3967.959
328.3503, 3814.697
328.8325, 3664.152
329.3146, 3521.432
329.7967, 3396.216
330.2788, 3299.066
330.7609, 3209.256
331.2430, 3117.012
331.7251, 3017.814
332.2072, 2925.836
332.6894, 2841.197
333.1715, 2763.192
333.6536, 2693.848
334.1357, 2637.838
334.6178, 2581.499
335.0999, 2518.089
335.5821, 2444.696
336.0642, 2375.619
336.5463, 2310.887
337.0284, 2250.189
337.5105, 2193.545
337.9926, 2143.119
338.4748, 2090.817
338.9569, 2033.270
339.4390, 1970.686
339.9211, 1905.451
340.4032, 1836.567
340.8853, 1767.582
341.3675, 1704.519
341.8496, 1646.286
342.3317, 1596.785
342.8138, 1561.180
343.2959, 1536.925
343.7780, 1498.955
344.2602, 1444.616
344.7423, 1389.516
345.2244, 1354.417
345.7065, 1337.662
346.1886, 1318.552
346.6707, 1289.473
347.1529, 1254.491
347.6350, 1226.051
348.1171, 1204.390
348.5992, 1183.012
349.0813, 1154.250
349.5634, 1121.203
350.0456, 1092.497
350.5277, 1072.424
351.0098, 1055.721
351.4919, 1033.595
351.9740, 1006.860
352.4561, 981.2658
352.9383, 958.4814
353.4204, 940.0770
353.9025, 929.8649
354.3846, 931.9827
354.8667, 935.5173
355.3488, 930.0480
355.8310, 917.5545
356.3131, 903.7249
356.7952, 891.3215
357.2773, 879.4803
357.7594, 866.7466
358.2415, 852.1494
358.7237, 839.3507
359.2058, 830.3841
359.6879, 824.7410
360.1700, 821.5134
360.6521, 820.6802
361.1342, 821.8747
361.6164, 826.4286
362.0985, 835.5546
362.5806, 840.6087
363.0627, 836.3419
363.5448, 827.0845
364.0269, 817.8895
364.5091, 806.5176
364.9912, 798.6968
365.4733, 797.5620
365.9554, 803.4420
366.4375, 808.7510
366.9196, 809.6193
367.4018, 811.0394
367.8839, 816.8785
368.3660, 832.8320
368.8481, 847.0978
369.3302, 857.1397
369.8123, 863.7524
370.2944, 872.9677
370.7766, 885.7076
371.2587, 900.2117
371.7408, 915.7450
372.2229, 933.0148
372.7050, 949.3019
373.1871, 962.7897
373.6693, 975.4792
374.1514, 994.9995
374.6335, 1025.484
375.1156, 1054.386
375.5977, 1073.744
376.0798, 1079.348
376.5620, 1097.157
377.0441, 1130.419
377.5262, 1171.941
378.0083, 1209.375
378.4904, 1242.106
378.9725, 1277.836
379.4547, 1319.633
379.9368, 1367.044
380.4189, 1421.219
380.9010, 1483.015
381.3831, 1546.157
381.8652, 1599.459
382.3474, 1645.342
382.8295, 1695.126
383.3116, 1751.922
383.7937, 1815.503
384.2758, 1889.279
384.7579, 1973.099
385.2401, 2057.899
385.7222, 2136.635
386.2043, 2212.469
386.6864, 2292.292
387.1685, 2378.673
387.6506, 2469.381
388.1328, 2565.902
388.6149, 2666.957
389.0970, 2762.176
389.5791, 2844.035
390.0612, 2919.346
390.5433, 2994.465
391.0255, 3071.971
391.5076, 3144.066
391.9897, 3211.413
392.4718, 3270.281
392.9539, 3314.731
393.4360, 3340.732
393.9182, 3352.728
394.4003, 3352.161
394.8824, 3338.797
395.3645, 3315.606
395.8466, 3279.237
396.3287, 3235.218
396.8109, 3188.829
397.2930, 3141.747
397.7751, 3092.098
398.2572, 3038.193
398.7393, 2980.178
399.2214, 2923.716
399.7036, 2863.451
400.1857, 2808.851
400.6678, 2766.008
401.1499, 2746.220
401.6320, 2719.866
402.1141, 2684.422
402.5963, 2641.696
403.0784, 2596.256
403.5605, 2545.267
404.0426, 2496.917
404.5247, 2458.474
405.0068, 2435.607
405.4890, 2391.986
405.9711, 2321.405
406.4532, 2238.740
406.9353, 2163.834
407.4174, 2097.004
407.8995, 2035.326
408.3816, 1980.220
408.8637, 1929.854
409.3459, 1871.762
409.8280, 1804.768
410.3101, 1736.761
410.7922, 1675.811
411.2743, 1620.934
411.7564, 1568.955
412.2386, 1518.479
412.7207, 1470.966
413.2028, 1430.068
413.6849, 1394.638
414.1670, 1359.720
414.6491, 1319.572
415.1313, 1278.389
415.6134, 1241.810
416.0955, 1211.545
416.5776, 1183.126
417.0597, 1151.083
417.5418, 1118.330
418.0240, 1090.221
418.5061, 1076.368
418.9882, 1062.908
419.4703, 1037.477
419.9524, 997.4155
420.4345, 967.3387
420.9167, 968.2064
421.3988, 978.6855
421.8809, 977.3318
422.3630, 946.0847
422.8451, 916.3616
423.3272, 896.3571
423.8094, 885.3333
424.2915, 874.0874
424.7736, 856.9199
425.2557, 843.2513
425.7378, 838.3344
426.2199, 854.1436
426.7021, 858.6422
427.1842, 844.9784
427.6663, 822.2538
428.1484, 811.2726
428.6305, 818.1788
429.1126, 824.1573
429.5948, 822.1030
430.0769, 811.4609
430.5590, 801.4558
431.0411, 791.1487
431.5232, 783.6469
432.0053, 783.9885
432.4875, 792.4971
432.9696, 800.1835
433.4517, 804.5839
433.9338, 806.7252
434.4159, 809.7296
434.8980, 813.6092
435.3802, 816.6072
435.8623, 816.9424
436.3444, 815.3768
436.8265, 813.7549
437.3086, 812.1754
437.7907, 811.1060
438.2729, 811.6643
438.7550, 813.2343
439.2371, 814.1289
439.7192, 814.8957
440.2013, 813.7101
440.6834, 806.2138
441.1656, 791.6129
441.6477, 782.3812
442.1298, 790.9337
442.6119, 806.4594
443.0940, 817.3124
443.5761, 803.5246
444.0583, 801.0848
444.5403, 840.1441
445.0225, 908.7023
445.5046, 941.0645
445.9867, 888.8066
446.4688, 824.0736
446.9509, 783.0260
447.4330, 777.5710
447.9152, 778.0392
448.3973, 788.4222
448.8794, 803.2264
449.3615, 813.4720
449.8436, 815.5097
450.3257, 819.5166
450.8079, 828.6035
451.2900, 842.8809
451.7721, 856.3713
452.2542, 867.4000
452.7363, 881.0065
453.2184, 904.0380
453.7006, 937.0593
454.1827, 965.2430
454.6648, 984.2117
455.1469, 998.5165
455.6290, 1018.806
456.1111, 1044.868
456.5933, 1070.115
457.0754, 1089.480
457.5575, 1104.891
458.0396, 1120.470
458.5217, 1136.986
459.0038, 1151.650
459.4860, 1162.566
459.9681, 1169.686
460.4502, 1172.671
460.9323, 1168.814
461.4144, 1162.777
461.8965, 1159.683
462.3787, 1158.639
462.8608, 1152.396
463.3429, 1136.199
463.8250, 1114.059
464.3071, 1088.307
464.7892, 1055.174
465.2714, 1025.808
465.7535, 1005.473
466.2356, 990.3780
466.7177, 973.3866
467.1998, 953.0364
467.6819, 931.2834
468.1641, 907.2803
468.6462, 879.9940
469.1283, 857.9211
469.6104, 843.2072
470.0925, 831.2521
470.5746, 818.5714
471.0568, 806.2647
471.5389, 788.9835
472.0210, 762.5416
472.5031, 732.3132
472.9852, 717.0236
473.4673, 718.0609
473.9495, 722.6500
474.4316, 724.0458
474.9137, 722.8227
475.3958, 722.5793
475.8779, 723.6982
476.3600, 724.6841
476.8422, 722.0831
477.3243, 717.6601
477.8064, 716.8677
478.2885, 724.5221
478.7706, 734.5085
479.2527, 739.8615
479.7349, 741.1506
480.2170, 741.7948
480.6991, 744.0585
481.1812, 746.4857
481.6633, 747.1981
482.1454, 744.1138
482.6275, 743.6471
483.1096, 752.0584
483.5918, 764.0111
484.0739, 771.0851
484.5560, 765.7750
485.0381, 760.6036
485.5202, 759.4584
486.0023, 762.7656
486.4845, 765.5451
486.9666, 767.2478
487.4487, 768.9449
487.9308, 771.8101
488.4129, 778.0782
488.8951, 779.7032
489.3772, 773.8877
489.8593, 764.9789
490.3414, 762.7083
490.8235, 767.4852
491.3056, 776.6090
491.7878, 790.4608
492.2699, 808.2705
492.7520, 823.3121
493.2341, 835.2496
493.7162, 846.8076
494.1983, 860.1589
494.6805, 875.1821
495.1626, 891.4277
495.6447, 910.1105
496.1268, 928.0643
496.6089, 938.7527
497.0910, 945.3283
497.5732, 958.2242
498.0553, 983.5221
498.5374, 1017.088
499.0195, 1057.745
499.5016, 1106.199
499.9837, 1152.979
500.4659, 1188.237
500.9480, 1221.550
501.4301, 1262.450
501.9122, 1318.631
502.3943, 1375.729
502.8764, 1429.414
503.3586, 1481.356
503.8407, 1538.788
504.3228, 1604.657
504.8049, 1672.290
505.2870, 1738.425
505.7691, 1801.374
506.2513, 1870.052
506.7334, 1945.410
507.2155, 2024.264
507.6976, 2102.588
508.1797, 2180.171
508.6618, 2261.103
509.1440, 2349.521
509.6261, 2439.289
510.1082, 2512.935
510.5903, 2571.256
511.0724, 2627.530
511.5545, 2691.212
512.0366, 2758.474
512.5187, 2827.638
513.0009, 2901.207
513.4830, 2960.626
513.9651, 2986.979
514.4472, 2990.051
514.9293, 2984.458
515.4114, 2985.022
515.8936, 2969.210
516.3757, 2924.099
516.8578, 2852.589
517.3399, 2767.385
517.8220, 2665.499
518.3041, 2555.900
518.7863, 2441.758
519.2684, 2319.895
519.7505, 2201.378
520.2326, 2087.700
520.7147, 1977.265
521.1968, 1869.255
521.6790, 1759.778
522.1611, 1661.098
522.6432, 1576.884
523.1253, 1504.719
523.6074, 1435.334
524.0895, 1368.472
524.5717, 1307.668
525.0538, 1257.862
525.5359, 1217.244
526.0180, 1172.854
526.5001, 1122.942
526.9822, 1074.708
527.4644, 1035.390
527.9465, 1003.357
528.4286, 974.4222
528.9107, 946.9842
529.3928, 921.8298
529.8749, 900.5262
530.3571, 882.3719
530.8392, 865.5388
531.3213, 849.3700
531.8034, 833.9203
532.2855, 818.6799
532.7676, 803.1655
533.2498, 789.5347
533.7319, 780.0827
534.2140, 771.7968
534.6961, 761.1981
535.1782, 744.3009
535.6603, 730.9600
536.1425, 721.9161
536.6246, 717.0804
537.1067, 717.2385
537.5888, 725.2961
538.0709, 730.3548
538.5530, 725.7950
539.0352, 711.8444
539.5173, 700.4646
539.9994, 691.8256
540.4815, 685.7131
540.9636, 683.4585
541.4457, 683.8615
541.9279, 682.2071
542.4100, 675.8914
542.8921, 669.4799
543.3742, 668.9800
543.8563, 673.0853
544.3384, 678.0048
544.8206, 684.6064
545.3027, 689.2407
545.7848, 687.5812
546.2669, 678.9225
546.7490, 672.9065
547.2311, 672.4558
547.7133, 676.2863
548.1954, 683.4152
548.6775, 704.5777
549.1596, 714.8352
549.6417, 706.7961
550.1238, 689.2288
550.6060, 679.9919
551.0881, 680.9401
551.5702, 686.5696
552.0523, 697.3940
552.5344, 712.4126
553.0165, 719.2509
553.4987, 716.5680
553.9808, 712.7551
554.4629, 714.1573
554.9450, 720.1744
555.4271, 728.6644
555.9092, 739.9186
556.3914, 751.2442
556.8735, 757.3633
557.3556, 761.0344
557.8377, 768.3524
558.3198, 781.7499
558.8019, 799.9816
559.2841, 825.2200
559.7662, 855.6951
560.2483, 882.2250
560.7304, 896.2926
561.2125, 909.0414
561.6946, 926.6683
562.1768, 950.4920
562.6589, 977.2152
563.1410, 1006.745
563.6231, 1038.606
564.1052, 1072.775
564.5873, 1110.035
565.0695, 1147.586
565.5516, 1183.680
566.0337, 1220.808
566.5158, 1269.030
566.9979, 1330.630
567.4800, 1387.904
567.9622, 1424.112
568.4443, 1447.900
568.9264, 1494.984
569.4085, 1567.021
569.8906, 1640.255
570.3727, 1695.495
570.8549, 1737.875
571.3370, 1777.157
571.8191, 1814.000
572.3012, 1850.668
572.7833, 1889.587
573.2654, 1929.046
573.7476, 1965.008
574.2297, 1998.865
574.7118, 2027.047
575.1939, 2049.209
575.6760, 2065.515
576.1581, 2071.302
576.6403, 2066.578
577.1223, 2051.658
577.6044, 2026.142
578.0865, 1987.836
578.5687, 1945.201
579.0508, 1898.670
579.5329, 1848.108
580.0150, 1791.284
580.4971, 1728.525
580.9792, 1667.191
581.4614, 1610.663
581.9435, 1554.546
582.4256, 1489.439
582.9077, 1417.655
583.3898, 1351.755
583.8719, 1301.508
584.3541, 1259.417
584.8362, 1217.766
585.3183, 1176.203
585.8004, 1137.322
586.2825, 1102.842
586.7646, 1071.455
587.2468, 1041.549
587.7289, 1010.210
588.2110, 984.3520
588.6931, 966.9769
589.1752, 954.8774
589.6573, 943.2471
590.1395, 931.3337
590.6216, 921.8068
591.1037, 917.7275
591.5858, 916.6395
592.0679, 900.9427
592.5500, 867.5752
593.0322, 839.2705
593.5143, 836.7117
593.9964, 852.3773
594.4785, 854.4388
594.9606, 839.9355
595.4427, 823.3000
595.9249, 818.7693
596.4070, 821.0651
596.8891, 821.1418
597.3712, 812.8560
597.8533, 807.3727
598.3354, 815.4153
598.8176, 830.7633
599.2997, 840.2881
599.7818, 831.7409
600.2639, 825.0527
600.7460, 828.6809
601.2281, 842.7891
601.7103, 851.7188
602.1924, 852.8658
602.6745, 852.4684
603.1566, 853.9584
603.6387, 857.6143
604.1208, 861.2648
604.6030, 864.5334
605.0851, 868.7643
605.5672, 876.9529
606.0493, 888.2662
606.5314, 896.3791
607.0135, 897.7903
607.4957, 898.5670
607.9778, 907.3770
608.4599, 922.1357
608.9420, 936.9614
609.4241, 947.5712
609.9063, 958.0981
610.3884, 971.1376
610.8705, 986.8901
611.3526, 1003.648
611.8347, 1022.906
612.3168, 1041.786
