##NAMES=Bustamite
##RRUFFID=R040014
##IDEAL CHEMISTRY=CaMn^2+^Si_2_O_6_
##LOCALITY=Broken Hill, New South Wales, Australia
##OWNER=RRUFF
##SOURCE=University of Arizona Mineral Museum
##DESCRIPTION=Orange fragment
##STATUS=The identification of this mineral has been confirmed by X-ray diffraction and chemical analysis
##URL=rruff.info/R040014
##MEASURED CHEMISTRY=(Ca_0.90_Mn_0.10_)_Σ=1_(Mn^2+^_0.78_Fe^2+^_0.19_Fe^3+^_0.02_Mg_0.01_)_Σ=1_(Si_1.98_Fe^3+^_0.02_)_Σ=2_O_6_
122.0102, 302.1040
122.4924, 318.7167
122.9745, 335.5461
123.4566, 353.5722
123.9387, 373.9766
124.4208, 397.3677
124.9029, 422.5218
125.3851, 447.0491
125.8672, 469.9955
126.3493, 497.3117
126.8314, 535.7098
127.3135, 578.6772
127.7956, 619.9665
128.2778, 655.2158
128.7599, 689.9355
129.2420, 734.6068
129.7241, 792.4102
130.2062, 852.7764
130.6884, 913.4407
131.1705, 973.4375
131.6526, 1032.155
132.1347, 1090.574
132.6168, 1146.836
133.0989, 1194.484
133.5811, 1234.761
134.0632, 1262.921
134.5453, 1273.609
135.0274, 1273.524
135.5095, 1273.263
135.9916, 1279.908
136.4738, 1292.046
136.9559, 1298.849
137.4380, 1297.693
137.9201, 1293.293
138.4022, 1283.412
138.8843, 1271.417
139.3665, 1263.468
139.8486, 1264.998
140.3307, 1276.036
140.8128, 1285.300
141.2949, 1283.886
141.7770, 1289.021
142.2592, 1307.450
142.7413, 1337.062
143.2234, 1371.916
143.7055, 1407.072
144.1876, 1442.348
144.6697, 1478.992
145.1519, 1512.694
145.6340, 1551.397
146.1161, 1601.586
146.5982, 1660.870
147.0803, 1720.428
147.5624, 1770.725
148.0446, 1807.019
148.5267, 1856.003
149.0088, 1931.626
149.4909, 2005.620
149.9730, 2064.714
150.4551, 2107.916
150.9372, 2142.048
151.4194, 2175.151
151.9015, 2209.247
152.3836, 2233.668
152.8657, 2258.175
153.3478, 2268.091
153.8299, 2250.230
154.3121, 2204.983
154.7942, 2145.539
155.2763, 2088.106
155.7584, 2035.026
156.2405, 1975.997
156.7226, 1905.806
157.2048, 1833.753
157.6869, 1767.498
158.1690, 1708.326
158.6511, 1649.591
159.1332, 1582.676
159.6153, 1500.325
160.0975, 1426.771
160.5796, 1365.297
161.0617, 1310.219
161.5438, 1256.174
162.0259, 1202.201
162.5080, 1150.806
162.9902, 1105.729
163.4723, 1068.450
163.9544, 1035.396
164.4365, 1008.554
164.9186, 985.0309
165.4007, 961.8434
165.8829, 938.1495
166.3650, 915.7274
166.8471, 897.2072
167.3292, 882.1791
167.8113, 872.6180
168.2934, 874.0699
168.7756, 879.0967
169.2577, 878.5576
169.7398, 869.7847
170.2219, 857.3987
170.7040, 848.0965
171.1861, 841.8838
171.6683, 838.3431
172.1504, 839.2662
172.6325, 842.2972
173.1146, 844.6961
173.5967, 845.8248
174.0788, 845.5433
174.5610, 843.4117
175.0431, 839.4764
175.5252, 834.1539
176.0073, 827.0345
176.4894, 818.6843
176.9715, 810.0854
177.4537, 801.6569
177.9358, 792.4049
178.4179, 780.4018
178.9000, 765.4822
179.3821, 749.9186
179.8642, 733.6312
180.3464, 717.1535
180.8285, 700.8311
181.3106, 684.3731
181.7927, 669.3436
182.2748, 659.5796
182.7569, 655.8314
183.2391, 650.0009
183.7212, 636.4222
184.2033, 619.8730
184.6854, 609.2366
185.1675, 607.6580
185.6496, 610.0132
186.1318, 608.7417
186.6139, 603.6460
187.0960, 599.0826
187.5781, 595.0903
188.0602, 592.7098
188.5423, 595.3004
189.0245, 605.4175
189.5066, 615.9236
189.9887, 614.3198
190.4708, 600.2009
190.9529, 589.6347
191.4350, 589.3967
191.9172, 595.8239
192.3993, 603.2213
192.8814, 611.0807
193.3635, 617.4784
193.8456, 619.5803
194.3277, 617.7771
194.8099, 613.7905
195.2920, 606.3409
195.7741, 597.4015
196.2562, 590.4789
196.7383, 586.3903
197.2204, 584.0255
197.7026, 583.2746
198.1847, 584.1758
198.6668, 582.4934
199.1489, 573.7020
199.6310, 562.2216
200.1131, 555.7251
200.5953, 556.1349
201.0774, 559.9236
201.5595, 565.1935
202.0416, 571.8616
202.5237, 574.2221
203.0058, 566.1366
203.4880, 554.0209
203.9701, 548.5025
204.4522, 552.0602
204.9343, 558.6954
205.4164, 562.6850
205.8985, 564.3611
206.3807, 564.8736
206.8628, 562.8507
207.3449, 560.4039
207.8270, 560.5975
208.3091, 563.9855
208.7912, 569.0955
209.2734, 575.0408
209.7555, 581.7368
210.2376, 588.4219
210.7197, 596.2640
211.2018, 603.4627
211.6839, 606.7018
212.1661, 605.2134
212.6482, 604.0087
213.1303, 607.7506
213.6124, 615.8666
214.0945, 624.7932
214.5766, 634.1786
215.0588, 644.0460
215.5409, 653.7010
216.0230, 662.9984
216.5051, 674.3896
216.9872, 691.5054
217.4693, 712.9632
217.9515, 730.5131
218.4336, 739.5173
218.9157, 746.7415
219.3978, 757.7766
219.8799, 772.8348
220.3620, 790.4144
220.8442, 810.3419
221.3263, 832.2627
221.8084, 853.6748
222.2905, 873.8303
222.7726, 893.9066
223.2547, 913.5732
223.7369, 933.2630
224.2190, 956.9042
224.7011, 988.3113
225.1832, 1025.813
225.6653, 1060.840
226.1474, 1091.310
226.6296, 1121.255
227.1117, 1154.845
227.5938, 1190.541
228.0759, 1220.810
228.5580, 1238.574
229.0401, 1249.447
229.5223, 1273.021
230.0044, 1317.482
230.4865, 1363.674
230.9686, 1404.636
231.4507, 1440.814
231.9328, 1473.284
232.4150, 1501.762
232.8971, 1527.478
233.3792, 1554.562
233.8613, 1585.176
234.3434, 1613.554
234.8255, 1634.192
235.3077, 1651.521
235.7898, 1675.150
236.2719, 1709.697
236.7540, 1749.634
237.2361, 1783.714
237.7182, 1811.396
238.2004, 1835.334
238.6825, 1852.250
239.1646, 1866.776
239.6467, 1885.323
240.1288, 1910.077
240.6109, 1938.367
241.0931, 1967.232
241.5752, 2001.562
242.0573, 2024.111
242.5394, 2025.593
243.0215, 2018.780
243.5036, 2018.058
243.9858, 2026.346
244.4679, 2034.419
244.9500, 2030.843
245.4321, 2012.453
245.9142, 1988.097
246.3963, 1952.767
246.8785, 1915.210
247.3606, 1883.556
247.8427, 1857.970
248.3248, 1830.448
248.8069, 1791.991
249.2890, 1739.380
249.7712, 1694.472
250.2533, 1667.144
250.7354, 1637.946
251.2175, 1593.767
251.6996, 1537.353
252.1817, 1480.954
252.6639, 1434.810
253.1460, 1399.289
253.6281, 1364.918
254.1102, 1332.202
254.5923, 1300.102
255.0744, 1269.142
255.5566, 1238.405
256.0387, 1205.992
256.5208, 1170.563
257.0029, 1132.725
257.4850, 1097.406
257.9671, 1064.044
258.4492, 1034.123
258.9314, 1005.847
259.4135, 981.8903
259.8956, 967.7589
260.3777, 966.7049
260.8598, 972.5058
261.3419, 965.8846
261.8241, 932.7739
262.3062, 907.5831
262.7883, 897.8456
263.2704, 894.8765
263.7525, 891.2609
264.2346, 884.3519
264.7168, 875.0615
265.1989, 863.9800
265.6810, 847.3534
266.1631, 837.8897
266.6452, 840.6802
267.1273, 846.9562
267.6095, 850.8873
268.0916, 851.5591
268.5737, 852.0396
269.0558, 856.1511
269.5379, 864.6948
270.0201, 872.9989
270.5022, 879.8705
270.9843, 887.3542
271.4664, 897.1253
271.9485, 908.6547
272.4306, 919.6079
272.9128, 926.3297
273.3949, 929.2860
273.8770, 938.3542
274.3591, 957.4810
274.8412, 978.1067
275.3233, 997.9251
275.8055, 1016.087
276.2876, 1030.642
276.7697, 1037.277
277.2518, 1040.535
277.7339, 1055.579
278.2160, 1088.862
278.6982, 1118.627
279.1803, 1130.431
279.6624, 1133.484
280.1445, 1140.191
280.6266, 1156.497
281.1087, 1175.388
281.5909, 1185.809
282.0730, 1186.524
282.5551, 1190.981
283.0372, 1208.325
283.5193, 1230.751
284.0014, 1248.208
284.4836, 1259.031
284.9657, 1266.956
285.4478, 1273.369
285.9299, 1278.785
286.4120, 1286.042
286.8941, 1296.697
287.3763, 1308.708
287.8584, 1319.075
288.3405, 1327.686
288.8226, 1336.218
289.3047, 1344.081
289.7868, 1352.559
290.2690, 1365.159
290.7511, 1383.384
291.2332, 1401.689
291.7153, 1412.359
292.1974, 1415.031
292.6795, 1421.236
293.1617, 1434.397
293.6438, 1450.551
294.1259, 1464.806
294.6080, 1477.132
295.0901, 1492.727
295.5722, 1515.291
296.0544, 1545.154
296.5365, 1582.255
297.0186, 1630.522
297.5007, 1681.289
297.9828, 1729.001
298.4649, 1775.795
298.9471, 1828.021
299.4292, 1890.229
299.9113, 1960.312
300.3934, 2029.484
300.8755, 2084.487
301.3576, 2155.056
301.8398, 2252.208
302.3219, 2364.794
302.8040, 2478.518
303.2861, 2588.177
303.7682, 2699.439
304.2503, 2823.740
304.7325, 2964.012
305.2146, 3113.443
305.6967, 3271.786
306.1788, 3437.615
306.6609, 3611.140
307.1430, 3792.162
307.6252, 3982.202
308.1073, 4182.839
308.5894, 4396.365
309.0715, 4610.503
309.5536, 4833.009
310.0357, 5051.016
310.5179, 5262.515
311.0000, 5466.563
311.4821, 5663.336
311.9642, 5855.401
312.4463, 6040.823
312.9284, 6210.040
313.4106, 6372.765
313.8927, 6499.211
314.3748, 6582.638
314.8569, 6629.625
315.3390, 6647.906
315.8211, 6641.517
316.3033, 6604.451
316.7854, 6526.719
317.2675, 6407.224
317.7496, 6256.386
318.2317, 6067.638
318.7138, 5852.519
319.1960, 5618.699
319.6781, 5364.314
320.1602, 5108.689
320.6423, 4864.634
321.1244, 4629.981
321.6065, 4398.356
322.0887, 4168.537
322.5708, 3942.268
323.0529, 3716.080
323.5350, 3490.489
324.0171, 3286.705
324.4992, 3120.722
324.9814, 2974.610
325.4635, 2824.236
325.9456, 2666.666
326.4277, 2524.745
326.9098, 2418.796
327.3919, 2346.363
327.8741, 2267.469
328.3562, 2170.555
328.8383, 2078.925
329.3204, 2006.158
329.8025, 1947.711
330.2846, 1891.424
330.7668, 1831.548
331.2489, 1771.145
331.7310, 1719.936
332.2131, 1684.040
332.6952, 1649.454
333.1773, 1615.091
333.6595, 1581.839
334.1416, 1552.486
334.6237, 1526.984
335.1058, 1500.958
335.5879, 1468.057
336.0700, 1424.888
336.5522, 1386.176
337.0343, 1353.983
337.5164, 1323.795
337.9985, 1296.379
338.4806, 1269.507
338.9627, 1237.506
339.4449, 1194.596
339.9270, 1143.188
340.4091, 1101.667
340.8912, 1077.309
341.3733, 1052.480
341.8554, 1020.236
342.3376, 985.5837
342.8197, 954.8265
343.3018, 930.7797
343.7839, 909.9652
344.2660, 886.2662
344.7481, 858.5403
345.2303, 836.1899
345.7124, 826.6454
346.1945, 819.6667
346.6766, 805.4096
347.1587, 783.3284
347.6408, 763.2798
348.1230, 754.7206
348.6051, 753.0576
349.0872, 744.0979
349.5693, 724.4282
350.0514, 702.2944
350.5335, 683.3952
351.0157, 667.5963
351.4978, 655.4332
351.9799, 651.0357
352.4620, 647.2586
352.9441, 637.3964
353.4262, 622.1045
353.9084, 606.1281
354.3905, 591.2139
354.8726, 577.9849
355.3547, 569.6404
355.8368, 570.5186
356.3189, 569.2601
356.8011, 561.0242
357.2832, 550.1356
357.7653, 542.1959
358.2474, 538.8394
358.7295, 537.8559
359.2116, 536.3475
359.6938, 534.6769
360.1759, 531.2580
360.6580, 523.8534
361.1401, 516.9602
361.6222, 513.3117
362.1043, 512.4374
362.5865, 512.2968
363.0686, 511.5058
363.5507, 510.0703
364.0328, 507.9333
364.5149, 503.7128
364.9970, 500.8896
365.4792, 501.9026
365.9613, 503.9109
366.4434, 502.6762
366.9255, 496.3621
367.4076, 490.2608
367.8897, 493.6345
368.3719, 507.7601
368.8540, 515.6652
369.3361, 508.3391
369.8182, 499.1997
370.3003, 498.8921
370.7824, 507.0895
371.2646, 517.6103
371.7467, 529.0039
372.2288, 540.0809
372.7109, 548.0425
373.1930, 552.3411
373.6751, 556.0428
374.1573, 560.6237
374.6394, 566.3712
375.1215, 573.9181
375.6036, 586.5309
376.0857, 597.7698
376.5678, 599.7251
377.0500, 597.5446
377.5321, 605.4932
378.0142, 630.3151
378.4963, 662.7524
378.9784, 684.7667
379.4605, 686.8744
379.9427, 695.8581
380.4248, 716.8708
380.9069, 741.4157
381.3890, 762.6509
381.8711, 780.4542
382.3532, 799.9943
382.8354, 826.6143
383.3175, 860.2902
383.7996, 890.3408
384.2817, 907.6337
384.7638, 931.9068
385.2459, 971.3426
385.7281, 1019.125
386.2102, 1066.306
386.6923, 1109.457
387.1744, 1150.168
387.6565, 1190.892
388.1386, 1231.528
388.6208, 1272.960
389.1029, 1317.773
389.5850, 1361.071
390.0671, 1397.196
390.5492, 1426.626
391.0313, 1458.397
391.5135, 1503.178
391.9956, 1552.816
392.4777, 1588.652
392.9598, 1608.247
393.4419, 1621.827
393.9240, 1636.571
394.4062, 1650.442
394.8883, 1656.624
395.3704, 1649.855
395.8525, 1640.679
396.3346, 1638.988
396.8167, 1638.592
397.2989, 1623.036
397.7810, 1585.176
398.2631, 1539.394
398.7452, 1509.857
399.2273, 1507.253
399.7094, 1497.135
400.1916, 1471.768
400.6737, 1445.459
401.1558, 1428.030
401.6379, 1418.593
402.1200, 1410.658
402.6021, 1399.607
403.0843, 1385.508
403.5664, 1369.112
404.0485, 1351.719
404.5306, 1329.621
405.0127, 1297.775
405.4948, 1263.451
405.9770, 1236.112
406.4591, 1218.541
406.9412, 1200.263
407.4233, 1167.462
407.9054, 1120.243
408.3875, 1075.792
408.8697, 1034.155
409.3518, 999.0985
409.8339, 977.6076
410.3160, 965.7026
410.7981, 948.3191
411.2802, 916.9880
411.7624, 879.7192
412.2445, 842.6024
412.7266, 806.5036
413.2087, 776.1945
413.6908, 754.9312
414.1729, 740.5336
414.6551, 727.5423
415.1372, 718.9771
415.6193, 706.1039
416.1014, 681.5214
416.5835, 655.0067
417.0656, 638.1505
417.5478, 632.1526
418.0299, 629.0258
418.5120, 620.8911
418.9941, 607.4612
419.4762, 593.4858
419.9583, 575.8351
420.4405, 561.1180
420.9226, 552.1402
421.4047, 546.7443
421.8868, 542.1102
422.3689, 537.1458
422.8510, 531.5814
423.3332, 524.2182
423.8153, 514.3055
424.2974, 507.5454
424.7795, 507.0085
425.2616, 507.9846
425.7437, 503.3861
426.2259, 495.2830
426.7080, 497.1179
427.1901, 525.5246
427.6722, 563.0352
428.1543, 583.5512
428.6364, 586.2584
429.1186, 582.9332
429.6007, 580.4828
430.0828, 576.0992
430.5649, 560.6270
431.0470, 524.7023
431.5291, 494.9483
432.0113, 479.4539
432.4934, 473.5207
432.9755, 473.6694
433.4576, 478.4057
433.9397, 483.7626
434.4218, 485.0954
434.9040, 481.5615
435.3861, 482.3896
435.8682, 494.5847
436.3503, 503.4922
436.8324, 502.4621
437.3145, 496.3675
437.7967, 492.8032
438.2788, 495.0766
438.7609, 499.6405
439.2430, 500.1793
439.7251, 495.7958
440.2072, 494.6692
440.6894, 501.0202
441.1715, 507.9723
441.6536, 509.6021
442.1357, 506.8766
442.6178, 505.5980
443.0999, 511.5907
443.5821, 518.4345
444.0642, 517.0474
444.5463, 507.7515
445.0284, 497.3550
445.5105, 488.6272
445.9926, 481.6266
446.4748, 476.8092
446.9569, 474.9637
447.4390, 473.3189
447.9211, 470.5952
448.4032, 468.3892
448.8853, 468.3498
449.3675, 470.5583
449.8496, 474.0320
450.3317, 478.0682
450.8138, 482.6295
451.2959, 486.1344
451.7780, 486.8521
452.2602, 488.8107
452.7423, 492.5389
453.2244, 498.0241
453.7065, 505.3207
454.1886, 514.4279
454.6707, 524.9946
455.1529, 536.8495
455.6350, 549.9174
456.1171, 563.4380
456.5992, 577.5343
457.0813, 591.6307
457.5634, 608.3934
458.0455, 625.3679
458.5276, 634.0832
459.0098, 623.2927
459.4919, 612.4371
459.9740, 617.9814
460.4561, 634.6333
460.9382, 648.1144
461.4203, 653.4097
461.9025, 652.2780
462.3846, 647.1532
462.8667, 636.1234
463.3488, 625.8875
463.8309, 618.2835
464.3130, 609.7468
464.7952, 596.7813
465.2773, 581.2932
465.7594, 568.6158
466.2415, 562.4375
466.7236, 559.4194
467.2057, 550.6583
467.6879, 534.8051
468.1700, 517.5391
468.6521, 497.2352
469.1342, 478.1260
469.6163, 462.6939
470.0984, 451.1585
470.5806, 443.2055
471.0627, 442.1776
471.5448, 443.2940
472.0269, 436.7109
472.5090, 422.1619
472.9911, 411.5713
473.4733, 412.7697
473.9554, 421.5888
474.4375, 425.0168
474.9196, 422.1628
475.4017, 416.7937
475.8839, 404.2592
476.3660, 392.7713
476.8481, 392.3505
477.3302, 402.6248
477.8123, 413.8525
478.2944, 417.2765
478.7766, 413.6783
479.2587, 412.8346
479.7408, 416.0147
480.2229, 420.1507
480.7050, 425.6008
481.1871, 430.9730
481.6693, 435.1018
482.1514, 437.7342
482.6335, 438.5377
483.1156, 436.1033
483.5977, 431.4775
484.0798, 428.8414
484.5620, 429.1012
485.0441, 429.0152
485.5262, 425.6334
486.0083, 420.0039
486.4904, 416.8517
486.9725, 418.1890
487.4547, 419.6209
487.9368, 418.7758
488.4189, 417.2718
488.9010, 417.5681
489.3831, 420.1980
489.8652, 423.8265
490.3474, 427.0837
490.8295, 429.9672
491.3116, 432.2822
491.7937, 432.5676
492.2758, 433.9361
492.7579, 438.9253
493.2401, 444.7243
493.7222, 447.0988
494.2043, 444.4326
494.6864, 441.3504
495.1685, 442.7438
495.6506, 448.3239
496.1328, 456.1851
496.6149, 467.0480
497.0970, 478.0043
497.5791, 486.4134
498.0612, 492.9641
498.5433, 500.2811
499.0255, 507.3504
499.5076, 516.6187
499.9897, 530.2953
500.4718, 546.7632
500.9539, 562.9127
501.4360, 577.8647
501.9182, 593.6671
502.4003, 612.7909
502.8824, 635.4702
503.3645, 660.0823
503.8466, 691.5049
504.3287, 719.4596
504.8109, 735.7615
505.2930, 748.4116
505.7751, 768.8293
506.2572, 801.0374
506.7393, 840.8096
507.2214, 885.0557
507.7036, 933.2540
508.1857, 979.3876
508.6678, 1023.247
509.1499, 1063.139
509.6320, 1093.851
510.1141, 1118.351
510.5963, 1150.818
511.0784, 1200.704
511.5605, 1249.957
512.0426, 1291.637
512.5247, 1326.604
513.0068, 1357.266
513.4890, 1384.147
513.9711, 1404.511
514.4532, 1415.034
514.9353, 1415.486
515.4174, 1407.900
515.8995, 1390.975
516.3817, 1366.620
516.8638, 1334.201
517.3459, 1295.111
517.8280, 1250.992
518.3101, 1201.936
518.7922, 1150.092
519.2744, 1096.251
519.7565, 1041.106
520.2386, 985.9338
520.7207, 930.2047
521.2028, 878.0869
521.6849, 833.2242
522.1671, 795.5583
522.6492, 760.8101
523.1313, 730.0512
523.6134, 701.1177
524.0955, 672.4763
524.5776, 645.6682
525.0598, 623.2321
525.5419, 605.3936
526.0240, 589.1904
526.5061, 571.4333
526.9882, 552.1334
527.4703, 533.9454
527.9525, 516.0672
528.4346, 500.4558
528.9167, 488.3145
529.3988, 478.1544
529.8809, 468.5076
530.3630, 459.1235
530.8452, 450.2858
531.3273, 442.3828
531.8094, 435.1837
532.2915, 428.3574
532.7736, 421.8713
533.2557, 414.7726
533.7379, 405.5676
534.2200, 395.6274
534.7021, 390.8567
535.1842, 396.0676
535.6663, 399.3469
536.1484, 398.2460
536.6306, 395.5958
537.1127, 393.4020
537.5948, 392.0157
538.0769, 391.2731
538.5590, 391.2808
539.0411, 391.6132
539.5233, 390.5886
540.0054, 387.8273
540.4875, 385.0818
540.9696, 382.4361
541.4517, 380.4133
541.9338, 379.7958
542.4160, 380.5780
542.8981, 381.0669
543.3802, 380.9427
543.8623, 380.0218
544.3444, 376.8982
544.8265, 372.5491
545.3087, 370.8102
545.7908, 373.6161
546.2729, 379.1400
546.7550, 384.1984
547.2371, 390.8191
547.7192, 391.8376
548.2014, 379.7259
548.6835, 369.9521
549.1656, 371.8596
549.6477, 381.1536
550.1298, 388.2534
550.6119, 388.3957
551.0941, 386.6588
551.5762, 390.1437
552.0583, 398.1546
552.5404, 404.9484
553.0225, 409.3752
553.5046, 412.5954
553.9868, 415.1878
554.4689, 417.2398
554.9510, 420.1838
555.4331, 424.5769
555.9152, 429.2175
556.3973, 433.0535
556.8795, 437.1507
557.3616, 443.1325
557.8437, 451.2291
558.3258, 459.9916
558.8079, 467.6272
559.2900, 474.3251
559.7722, 484.3283
560.2543, 500.2570
560.7364, 514.1025
561.2185, 518.3577
561.7006, 521.4281
562.1827, 532.5797
562.6649, 553.4476
563.1470, 575.3379
563.6291, 592.7996
564.1112, 609.8929
564.5933, 632.3191
565.0754, 659.8740
565.5576, 688.3600
566.0397, 715.3861
566.5218, 741.9675
567.0039, 770.2515
567.4860, 796.7551
567.9681, 831.7236
568.4503, 880.9926
568.9324, 932.3432
569.4145, 979.6670
569.8966, 1023.540
570.3787, 1066.758
570.8608, 1111.141
571.3430, 1154.155
571.8251, 1189.566
572.3072, 1219.151
572.7893, 1256.273
573.2714, 1306.366
573.7535, 1353.443
574.2357, 1379.472
574.7178, 1384.954
575.1999, 1400.390
575.6820, 1443.175
576.1641, 1474.302
576.6462, 1481.542
577.1284, 1471.318
577.6105, 1448.351
578.0926, 1415.193
578.5747, 1376.978
579.0568, 1337.604
579.5389, 1297.155
580.0211, 1255.865
580.5032, 1213.947
580.9853, 1170.519
581.4674, 1125.772
581.9495, 1078.542
582.4316, 1024.853
582.9138, 963.2452
583.3959, 910.9377
583.8780, 876.9344
584.3601, 850.7137
584.8422, 826.4019
585.3243, 802.4824
585.8065, 776.4382
586.2886, 747.0341
586.7707, 716.1998
587.2528, 686.5777
587.7349, 656.7080
588.2170, 634.0122
588.6992, 623.0363
589.1813, 613.8450
589.6634, 602.2717
590.1455, 589.4770
590.6276, 577.4656
591.1097, 566.8956
591.5919, 556.5676
592.0740, 544.0566
592.5561, 531.8536
593.0382, 524.6877
593.5203, 522.9679
594.0024, 523.8975
594.4846, 526.0034
594.9667, 528.6429
595.4488, 529.1619
595.9309, 526.7598
596.4130, 523.4766
596.8951, 517.6057
597.3773, 512.5597
597.8594, 510.6576
598.3415, 511.5294
598.8236, 513.6742
599.3057, 517.4359
599.7878, 520.4778
600.2700, 518.3895
600.7521, 512.5551
601.2342, 509.8702
601.7163, 512.2333
602.1984, 516.2917
602.6805, 518.1533
603.1627, 517.7806
603.6448, 523.0104
604.1269, 542.0376
604.6090, 555.8146
605.0911, 557.3903
605.5732, 553.8482
606.0554, 550.9982
606.5375, 550.2953
607.0196, 551.8904
607.5017, 557.0906
607.9838, 564.0916
608.4659, 568.0245
608.9481, 568.7640
609.4302, 570.1212
609.9123, 572.6208
610.3944, 577.7247
610.8765, 588.9122
611.3586, 608.1497
611.8408, 620.7201
612.3229, 618.7386
612.8050, 618.2788
613.2871, 627.6253
613.7692, 642.5350
614.2513, 657.2576
614.7335, 669.9421
615.2156, 680.5219
615.6977, 687.0424
616.1798, 690.8009
616.6619, 701.8236
