##NAMES=Butlerite
##RRUFFID=R110160
##IDEAL CHEMISTRY=Fe^3+^S^6+^O_4_(OH)&#183;2H_2_O
##LOCALITY=United Verde mine, Jerome, Arizona
##OWNER=RRUFF
##SOURCE=George Rossman, California Institute of Technology
##DESCRIPTION=Orange translucent grains
##STATUS=The identification of this mineral has been confirmed by single-crystal X-ray diffraction.
##URL=rruff.info/R110160
177.7553, 852.7945
178.2374, 861.5086
178.7195, 868.6583
179.2017, 875.2534
179.6838, 881.7439
180.1659, 888.8930
180.6480, 896.8556
181.1301, 904.5917
181.6122, 910.9931
182.0944, 916.4219
182.5765, 921.8622
183.0586, 927.8220
183.5407, 934.0959
184.0228, 940.8231
184.5049, 948.1015
184.9871, 954.9308
185.4692, 959.3908
185.9513, 961.9625
186.4334, 965.0247
186.9155, 969.7028
187.3976, 975.7361
187.8798, 982.6039
188.3619, 990.4029
188.8440, 998.4036
189.3261, 1005.168
189.8082, 1010.860
190.2903, 1016.939
190.7725, 1024.000
191.2546, 1032.105
191.7367, 1041.124
192.2188, 1051.156
192.7009, 1061.867
193.1830, 1072.565
193.6652, 1083.204
194.1473, 1094.062
194.6294, 1104.872
195.1115, 1115.717
195.5936, 1127.969
196.0757, 1141.961
196.5579, 1156.916
197.0400, 1171.324
197.5221, 1185.123
198.0042, 1199.017
198.4863, 1213.522
198.9684, 1228.583
199.4506, 1244.084
199.9327, 1259.862
200.4148, 1276.044
200.8969, 1292.875
201.3790, 1310.660
201.8611, 1328.375
202.3433, 1345.087
202.8254, 1360.600
203.3075, 1377.815
203.7896, 1397.300
204.2717, 1418.077
204.7538, 1437.024
205.2360, 1453.420
205.7181, 1470.559
206.2002, 1490.808
206.6823, 1514.721
207.1644, 1537.841
207.6465, 1559.531
208.1287, 1580.279
208.6108, 1602.314
209.0929, 1625.947
209.5750, 1650.050
210.0571, 1673.877
210.5392, 1697.708
211.0214, 1720.544
211.5035, 1742.258
211.9856, 1762.910
212.4677, 1783.382
212.9498, 1803.818
213.4319, 1823.977
213.9140, 1844.121
214.3962, 1864.656
214.8783, 1884.001
215.3604, 1901.895
215.8425, 1918.525
216.3246, 1933.779
216.8067, 1947.663
217.2889, 1960.424
217.7710, 1972.334
218.2531, 1983.464
218.7352, 1993.545
219.2173, 2002.568
219.6994, 2010.591
220.1816, 2017.558
220.6637, 2023.531
221.1458, 2028.446
221.6279, 2032.382
222.1100, 2035.882
222.5921, 2036.910
223.0743, 2034.651
223.5564, 2029.797
224.0385, 2025.460
224.5206, 2022.182
225.0027, 2018.806
225.4848, 2014.623
225.9670, 2009.440
226.4491, 2004.163
226.9312, 1999.088
227.4133, 1994.041
227.8954, 1987.654
228.3775, 1979.332
228.8597, 1970.754
229.3418, 1963.100
229.8239, 1956.977
230.3060, 1950.310
230.7881, 1942.638
231.2702, 1934.217
231.7524, 1926.725
232.2345, 1920.711
232.7166, 1914.875
233.1987, 1908.612
233.6808, 1902.088
234.1629, 1894.599
234.6451, 1885.353
235.1272, 1874.990
235.6093, 1866.446
236.0914, 1861.313
236.5735, 1855.827
237.0556, 1847.800
237.5378, 1836.107
238.0199, 1824.400
238.5020, 1812.941
238.9841, 1801.617
239.4662, 1790.509
239.9483, 1780.593
240.4305, 1769.660
240.9126, 1756.227
241.3947, 1738.823
241.8768, 1722.342
242.3589, 1707.769
242.8410, 1694.306
243.3232, 1678.664
243.8053, 1660.188
244.2874, 1640.473
244.7695, 1620.481
245.2516, 1600.177
245.7337, 1579.266
246.2159, 1557.533
246.6980, 1535.065
247.1801, 1512.669
247.6622, 1490.199
248.1443, 1467.630
248.6264, 1445.127
249.1086, 1422.346
249.5907, 1400.166
250.0728, 1378.946
250.5549, 1358.256
251.0370, 1336.806
251.5191, 1313.798
252.0013, 1291.298
252.4834, 1270.013
252.9655, 1250.570
253.4476, 1231.317
253.9297, 1212.178
254.4118, 1193.322
254.8940, 1174.528
255.3761, 1155.187
255.8582, 1136.893
256.3403, 1120.621
256.8224, 1107.125
257.3046, 1093.241
257.7867, 1079.006
258.2688, 1064.458
258.7509, 1049.533
259.2330, 1033.726
259.7151, 1018.856
260.1973, 1005.695
260.6794, 994.8677
261.1615, 984.0226
261.6436, 973.3063
262.1257, 962.5883
262.6078, 951.5580
263.0900, 939.9877
263.5721, 928.9344
264.0542, 918.9490
264.5363, 910.0362
265.0184, 901.5674
265.5005, 893.6198
265.9827, 885.8962
266.4648, 877.7222
266.9469, 868.9160
267.4290, 860.3577
267.9111, 852.2101
268.3932, 844.5082
268.8754, 837.1339
269.3575, 830.1371
269.8396, 823.3646
270.3217, 816.7667
270.8038, 810.3997
271.2859, 803.9775
271.7681, 797.3604
272.2502, 790.5865
272.7323, 784.3069
273.2144, 778.8102
273.6965, 773.4275
274.1786, 767.3378
274.6608, 760.2706
275.1429, 753.6873
275.6250, 748.0168
276.1071, 743.1782
276.5892, 738.3494
277.0714, 733.6112
277.5535, 728.8751
278.0356, 724.0678
278.5177, 719.1793
278.9998, 714.2721
279.4819, 709.3137
279.9641, 704.3334
280.4462, 699.6547
280.9283, 695.2587
281.4104, 691.1764
281.8925, 687.5414
282.3746, 684.3678
282.8568, 680.8812
283.3389, 676.8005
283.8210, 672.4766
284.3031, 668.9610
284.7852, 666.3292
285.2673, 663.9092
285.7495, 661.1529
286.2316, 658.1111
286.7137, 655.3639
287.1958, 653.0696
287.6779, 650.9932
288.1600, 648.5417
288.6422, 645.7027
289.1243, 643.0421
289.6064, 641.0968
290.0885, 639.7032
290.5706, 638.1278
291.0527, 636.2557
291.5349, 634.2540
292.0170, 632.4169
292.4991, 630.7289
292.9812, 628.9388
293.4633, 626.8073
293.9454, 624.4637
294.4276, 622.3789
294.9097, 620.6309
295.3918, 619.0035
295.8739, 617.0869
296.3560, 615.0125
296.8381, 613.3023
297.3203, 612.6409
297.8024, 612.4597
298.2845, 611.3996
298.7666, 609.3494
299.2487, 607.2758
299.7308, 606.4353
300.2130, 606.3846
300.6951, 605.8568
301.1772, 603.9329
301.6593, 601.4486
302.1414, 599.4926
302.6235, 598.0756
303.1057, 597.0403
303.5878, 596.4940
304.0699, 596.2269
304.5520, 595.8649
305.0341, 595.2560
305.5162, 594.5338
305.9984, 593.7946
306.4805, 593.0510
306.9626, 592.3348
307.4447, 591.7430
307.9268, 591.1747
308.4089, 590.4855
308.8911, 589.5271
309.3732, 588.6122
309.8553, 587.9244
310.3374, 587.4739
310.8195, 587.2855
311.3016, 587.6669
311.7838, 588.1670
312.2659, 588.3143
312.7480, 587.8068
313.2301, 587.4386
313.7122, 587.6469
314.1943, 588.3333
314.6765, 589.2911
315.1586, 591.0427
315.6407, 592.6049
316.1228, 593.1933
316.6049, 592.4354
317.0870, 591.8777
317.5692, 592.3882
318.0513, 593.4759
318.5334, 594.4531
319.0155, 595.0935
319.4976, 595.5836
319.9797, 595.7870
320.4619, 595.6277
320.9440, 596.0830
321.4261, 597.9874
321.9082, 600.3937
322.3903, 602.3986
322.8724, 603.7572
323.3546, 604.7350
323.8367, 605.0181
324.3188, 604.6640
324.8009, 605.1165
325.2830, 607.2814
325.7651, 609.9110
326.2473, 612.1979
326.7294, 613.6682
327.2115, 615.2811
327.6936, 617.2184
328.1757, 619.4105
328.6578, 621.5499
329.1400, 623.6779
329.6221, 625.7426
330.1042, 627.7057
330.5863, 629.1298
331.0684, 631.1967
331.5505, 633.9733
332.0327, 637.3563
332.5148, 641.1314
332.9969, 645.5668
333.4790, 650.0010
333.9611, 654.1829
334.4432, 657.9006
334.9254, 662.2027
335.4075, 667.4119
335.8896, 672.8457
336.3717, 677.4431
336.8538, 680.6678
337.3359, 684.2126
337.8180, 688.4404
338.3001, 693.3290
338.7823, 699.0032
339.2644, 705.6824
339.7465, 712.6224
340.2286, 719.0351
340.7107, 724.7452
341.1928, 730.7220
341.6750, 736.9049
342.1571, 743.5111
342.6392, 751.1409
343.1213, 759.9869
343.6034, 769.2137
344.0855, 778.2606
344.5677, 787.0843
345.0498, 796.4972
345.5319, 806.5166
346.0140, 817.1846
346.4961, 828.8121
346.9782, 841.3160
347.4604, 853.9472
347.9425, 865.3991
348.4246, 876.4777
348.9067, 889.9476
349.3888, 906.1794
349.8709, 923.6991
350.3531, 940.9669
350.8352, 958.0699
351.3173, 975.2552
351.7994, 992.7070
352.2815, 1010.425
352.7636, 1028.330
353.2458, 1046.414
353.7279, 1065.311
354.2100, 1085.974
354.6921, 1107.738
355.1742, 1129.365
355.6563, 1150.538
356.1385, 1171.651
356.6206, 1193.276
357.1027, 1215.386
357.5848, 1237.244
358.0669, 1258.022
358.5490, 1278.772
359.0312, 1300.574
359.5133, 1324.406
359.9954, 1348.141
360.4775, 1370.812
360.9596, 1392.646
361.4417, 1413.737
361.9239, 1433.801
362.4060, 1453.650
362.8881, 1473.526
363.3702, 1493.311
363.8523, 1513.971
364.3344, 1536.987
364.8166, 1560.645
365.2987, 1583.176
365.7808, 1603.102
366.2629, 1622.325
366.7450, 1641.114
367.2271, 1659.486
367.7093, 1677.825
368.1914, 1696.095
368.6735, 1714.375
369.1556, 1732.857
369.6377, 1751.784
370.1198, 1770.047
370.6020, 1787.086
371.0841, 1803.327
371.5662, 1820.451
372.0483, 1838.753
372.5304, 1857.287
373.0125, 1875.743
373.4947, 1894.049
373.9768, 1911.986
374.4589, 1929.300
374.9410, 1946.649
375.4231, 1964.956
375.9052, 1984.757
376.3874, 2004.444
376.8695, 2023.122
377.3516, 2041.113
377.8337, 2060.343
378.3158, 2081.235
378.7979, 2103.005
379.2801, 2124.473
379.7622, 2145.790
380.2443, 2167.978
380.7264, 2191.380
381.2085, 2215.980
381.6906, 2242.261
382.1728, 2270.113
382.6549, 2298.601
383.1370, 2326.705
383.6191, 2354.738
384.1012, 2382.521
384.5833, 2409.919
385.0655, 2438.388
385.5476, 2470.077
386.0297, 2504.633
386.5118, 2539.169
386.9939, 2572.135
387.4760, 2604.703
387.9582, 2639.144
388.4403, 2675.830
388.9224, 2712.266
389.4045, 2745.983
389.8866, 2777.985
390.3687, 2809.892
390.8509, 2841.383
391.3330, 2873.417
391.8151, 2907.966
392.2972, 2944.198
392.7793, 2979.236
393.2614, 3011.494
393.7436, 3041.954
394.2257, 3072.044
394.7078, 3102.067
395.1899, 3130.906
395.6720, 3158.676
396.1541, 3184.878
396.6363, 3208.731
397.1184, 3229.672
397.6005, 3248.536
398.0826, 3265.695
398.5647, 3281.238
399.0468, 3294.363
399.5290, 3305.936
400.0111, 3314.497
400.4932, 3318.891
400.9753, 3316.962
401.4574, 3313.841
401.9395, 3310.822
402.4217, 3307.178
402.9038, 3299.397
403.3859, 3286.859
403.8680, 3271.128
404.3501, 3252.848
404.8322, 3232.284
405.3144, 3208.847
405.7965, 3182.845
406.2786, 3153.942
406.7607, 3121.594
407.2428, 3085.617
407.7249, 3046.876
408.2071, 3005.418
408.6892, 2961.504
409.1713, 2918.212
409.6534, 2875.616
410.1355, 2832.034
410.6176, 2785.849
411.0998, 2737.113
411.5819, 2686.999
412.0640, 2635.013
412.5461, 2582.804
413.0282, 2532.364
413.5103, 2483.531
413.9925, 2434.319
414.4746, 2382.017
414.9567, 2328.502
415.4388, 2277.766
415.9209, 2229.879
416.4030, 2182.814
416.8852, 2133.301
417.3673, 2083.198
417.8494, 2035.373
418.3315, 1991.830
418.8136, 1949.799
419.2957, 1906.556
419.7779, 1862.820
420.2600, 1820.540
420.7421, 1781.629
421.2242, 1744.138
421.7063, 1707.585
422.1884, 1670.761
422.6706, 1635.731
423.1527, 1602.638
423.6348, 1571.470
424.1169, 1542.046
424.5990, 1514.458
425.0811, 1488.069
425.5633, 1462.648
426.0454, 1438.087
426.5275, 1414.824
427.0096, 1392.519
427.4917, 1371.485
427.9738, 1351.982
428.4560, 1334.586
428.9381, 1317.546
429.4202, 1300.661
429.9023, 1284.216
430.3844, 1268.058
430.8665, 1251.864
431.3487, 1237.171
431.8308, 1225.020
432.3129, 1215.559
432.7950, 1206.464
433.2771, 1197.594
433.7592, 1189.554
434.2414, 1183.109
434.7235, 1178.201
435.2056, 1173.974
435.6877, 1169.840
436.1698, 1166.466
436.6519, 1165.387
437.1341, 1166.569
437.6162, 1168.985
438.0983, 1172.307
438.5804, 1176.267
439.0625, 1180.153
439.5446, 1183.513
440.0268, 1187.950
440.5089, 1194.837
440.9910, 1203.893
441.4731, 1214.402
441.9552, 1227.223
442.4373, 1240.539
442.9195, 1252.912
443.4016, 1264.351
443.8837, 1277.010
444.3658, 1292.117
444.8479, 1308.647
445.3300, 1325.615
445.8122, 1342.829
446.2943, 1360.637
446.7764, 1379.099
447.2585, 1398.263
447.7406, 1418.258
448.2227, 1440.544
448.7049, 1462.229
449.1870, 1482.378
449.6691, 1500.328
450.1512, 1519.847
450.6333, 1541.479
451.1154, 1563.861
451.5976, 1585.523
452.0797, 1605.675
452.5618, 1627.150
453.0439, 1650.627
453.5260, 1675.517
454.0081, 1701.205
454.4903, 1727.679
454.9724, 1755.768
455.4545, 1786.106
455.9366, 1818.479
456.4187, 1853.625
456.9008, 1891.360
457.3830, 1931.451
457.8651, 1971.841
458.3472, 2013.614
458.8293, 2058.517
459.3114, 2108.630
459.7935, 2161.055
460.2757, 2213.218
460.7578, 2265.090
461.2399, 2317.731
461.7220, 2372.302
462.2041, 2427.751
462.6862, 2482.898
463.1684, 2537.814
463.6505, 2590.734
464.1326, 2641.591
464.6147, 2689.022
465.0968, 2732.082
465.5789, 2771.910
466.0611, 2804.694
466.5432, 2829.755
467.0253, 2846.979
467.5074, 2856.815
467.9895, 2859.333
468.4716, 2854.402
468.9538, 2841.887
469.4359, 2821.457
469.9180, 2794.594
470.4001, 2760.687
470.8822, 2720.409
471.3643, 2674.322
471.8465, 2621.821
472.3286, 2564.876
472.8107, 2502.404
473.2928, 2436.271
473.7749, 2372.179
474.2570, 2310.658
474.7392, 2250.036
475.2213, 2188.686
475.7034, 2126.947
476.1855, 2067.006
476.6676, 2009.027
477.1497, 1952.953
477.6319, 1899.038
478.1140, 1847.369
478.5961, 1799.006
479.0782, 1756.786
479.5603, 1716.656
480.0424, 1672.986
480.5246, 1626.213
481.0067, 1581.531
481.4888, 1542.905
481.9709, 1507.373
482.4530, 1472.411
482.9352, 1437.086
483.4173, 1403.392
483.8994, 1372.367
484.3815, 1343.270
484.8636, 1315.300
485.3457, 1288.291
485.8279, 1262.438
486.3100, 1237.936
486.7921, 1214.734
487.2742, 1192.396
487.7563, 1170.699
488.2384, 1149.878
488.7206, 1130.289
489.2027, 1112.382
489.6848, 1094.668
490.1669, 1076.777
490.6490, 1059.471
491.1311, 1043.842
491.6133, 1030.259
492.0954, 1016.649
492.5775, 1001.925
493.0596, 986.8004
493.5417, 974.0275
494.0238, 963.6693
494.5060, 953.8304
494.9881, 942.9704
495.4702, 931.6102
495.9523, 920.6508
496.4344, 910.1893
496.9165, 900.4901
497.3987, 892.0950
497.8808, 884.5927
498.3629, 877.3791
498.8450, 870.3873
499.3271, 863.4374
499.8092, 856.5217
500.2914, 849.5663
500.7735, 842.7195
501.2556, 835.2801
501.7377, 828.3809
502.2198, 822.8457
502.7019, 819.3344
503.1841, 815.5779
503.6662, 810.8297
504.1483, 805.8896
504.6304, 801.7473
505.1125, 798.8895
505.5946, 796.1164
506.0768, 793.1589
506.5589, 790.1185
507.0410, 787.3811
507.5231, 784.8193
508.0052, 782.8964
508.4873, 782.1146
508.9695, 782.4919
509.4516, 782.0486
509.9337, 780.5099
510.4158, 779.2159
510.8979, 780.0751
511.3800, 782.6371
511.8622, 784.8437
512.3443, 786.0355
512.8264, 786.7897
513.3085, 787.5802
513.7906, 788.5359
514.2728, 790.1142
514.7549, 792.8587
515.2370, 796.1610
515.7191, 799.5256
516.2012, 802.9284
516.6833, 806.5199
517.1655, 809.7073
517.6476, 813.5112
518.1297, 818.8264
518.6118, 827.4907
519.0939, 835.6262
519.5760, 841.7421
520.0582, 846.9545
520.5403, 854.1000
521.0224, 864.0361
521.5045, 874.5988
521.9866, 885.3650
522.4688, 896.3728
522.9509, 906.9070
523.4330, 916.5723
523.9151, 926.7913
524.3972, 939.0609
524.8793, 953.3772
525.3615, 966.7885
525.8436, 978.7294
526.3257, 990.7797
526.8078, 1005.323
527.2899, 1022.018
527.7720, 1039.132
528.2542, 1056.414
528.7363, 1073.170
529.2184, 1088.162
529.7005, 1101.616
530.1826, 1115.509
530.6647, 1131.639
531.1469, 1148.328
531.6290, 1164.406
532.1111, 1179.567
532.5932, 1194.398
533.0753, 1209.318
533.5574, 1224.006
534.0396, 1237.880
534.5217, 1251.441
535.0038, 1263.664
535.4859, 1274.593
535.9680, 1284.188
536.4501, 1292.410
536.9323, 1299.216
537.4144, 1304.718
537.8965, 1308.850
538.3786, 1311.590
538.8607, 1313.421
539.3428, 1314.476
539.8250, 1314.109
540.3071, 1311.812
540.7892, 1307.611
541.2713, 1301.280
541.7534, 1292.696
542.2355, 1282.270
542.7177, 1270.582
543.1998, 1257.479
543.6819, 1242.766
544.1640, 1226.204
544.6461, 1208.333
545.1282, 1189.324
545.6104, 1169.305
546.0925, 1148.580
546.5746, 1126.955
547.0567, 1105.023
547.5388, 1083.008
548.0209, 1061.128
548.5031, 1038.772
548.9852, 1015.304
549.4673, 991.3718
549.9494, 967.5897
550.4315, 943.4987
550.9136, 920.2885
551.3958, 898.0596
551.8779, 876.6982
552.3600, 856.4463
552.8421, 837.4476
553.3242, 818.6373
553.8063, 799.2693
554.2885, 779.5861
554.7706, 761.6966
555.2527, 745.7045
555.7348, 730.4434
556.2169, 714.4701
556.6990, 698.5217
557.1812, 684.1998
557.6633, 671.9323
558.1454, 660.6953
558.6275, 649.7102
559.1096, 639.0787
559.5917, 628.7283
560.0739, 618.6892
560.5560, 609.0352
561.0381, 599.6589
561.5202, 590.7143
562.0023, 582.4925
562.4844, 575.2411
562.9666, 568.5501
563.4487, 562.4193
563.9308, 556.9919
564.4129, 551.3597
564.8950, 545.2071
565.3771, 539.1841
565.8593, 533.7542
566.3414, 528.9469
566.8235, 524.5455
567.3056, 520.5211
567.7877, 516.8235
568.2698, 513.4106
568.7520, 510.2447
569.2341, 507.1612
569.7162, 504.1276
570.1983, 501.0983
570.6804, 497.6515
571.1625, 493.9339
571.6447, 490.8181
572.1268, 489.4464
572.6089, 488.6245
573.0910, 487.0897
573.5731, 484.5599
574.0552, 482.3569
574.5374, 481.3413
575.0195, 480.7837
575.5016, 479.9944
575.9837, 478.2846
576.4658, 477.0211
576.9479, 476.5591
577.4301, 476.5389
577.9122, 476.2002
578.3943, 475.1100
578.8764, 474.5345
579.3585, 474.8854
579.8406, 476.0491
580.3228, 477.3505
580.8049, 478.8266
581.2870, 480.1838
581.7691, 481.0678
582.2512, 481.6558
582.7333, 482.6818
583.2155, 484.2163
583.6975, 486.0321
584.1796, 487.8303
584.6617, 489.8291
585.1439, 492.4044
585.6260, 495.7403
586.1081, 499.5453
586.5902, 504.0042
587.0723, 508.7904
587.5544, 513.1815
588.0366, 516.3229
588.5187, 519.7935
589.0008, 523.8824
589.4829, 528.6508
589.9650, 534.5886
590.4471, 542.4470
590.9293, 550.4914
591.4114, 557.5969
591.8935, 563.4553
592.3756, 570.9501
592.8577, 580.5228
593.3398, 590.5825
593.8220, 599.4724
594.3041, 607.3685
594.7862, 615.6258
595.2683, 624.5258
595.7504, 633.8488
596.2325, 643.6216
596.7147, 653.7596
597.1968, 663.8461
597.6789, 674.4033
598.1610, 684.3899
598.6431, 693.3381
599.1252, 701.1398
599.6074, 707.4881
600.0895, 712.4686
600.5716, 715.8852
601.0537, 717.7341
601.5358, 718.0417
602.0179, 716.2549
602.5001, 712.0414
602.9822, 706.0532
603.4643, 698.6397
603.9464, 689.4876
604.4285, 679.9158
604.9106, 669.9619
605.3928, 659.5368
605.8749, 648.0989
606.3570, 635.6800
606.8391, 623.3786
607.3212, 611.4922
607.8033, 599.9577
608.2855, 588.4005
608.7676, 577.0129
609.2497, 566.0753
609.7318, 556.2004
610.2139, 546.6171
610.6960, 536.5723
611.1782, 526.0798
611.6603, 516.5424
612.1424, 508.9842
612.6245, 502.0416
613.1066, 494.8478
613.5887, 486.8621
614.0709, 479.6250
614.5530, 473.4497
615.0351, 467.6786
615.5172, 461.3815
615.9993, 454.1841
616.4814, 447.9787
616.9636, 443.1913
617.4457, 439.2955
617.9278, 435.2387
618.4099, 431.0562
618.8920, 427.1493
619.3741, 423.7065
619.8563, 420.5566
620.3384, 417.6353
620.8205, 414.8813
621.3026, 412.0017
621.7847, 408.4522
622.2668, 404.9644
622.7490, 402.2818
623.2311, 400.5318
623.7132, 398.6346
624.1953, 396.0771
624.6774, 393.4423
625.1595, 391.1542
625.6417, 389.5271
626.1238, 387.6170
626.6059, 385.2115
627.0880, 382.7943
627.5701, 381.0883
628.0522, 380.1691
628.5344, 379.2565
629.0165, 378.1877
629.4986, 377.0359
629.9807, 375.9539
630.4628, 374.9165
630.9449, 373.8334
631.4271, 372.2919
631.9092, 370.8970
632.3913, 370.6303
632.8734, 371.2722
633.3555, 371.4771
633.8376, 370.0063
634.3198, 368.3262
634.8019, 367.3877
635.2840, 367.4660
635.7661, 367.2939
636.2482, 366.6056
636.7303, 365.7389
637.2125, 364.8885
637.6946, 363.9884
638.1767, 363.3519
638.6588, 363.1193
639.1409, 362.9404
639.6230, 362.1065
640.1052, 360.6929
640.5873, 359.9616
641.0694, 360.4906
641.5515, 361.4211
642.0336, 361.4038
642.5157, 360.7024
642.9979, 360.0831
643.4800, 359.4168
643.9621, 359.3908
644.4442, 361.3000
644.9263, 364.6444
645.4084, 366.5003
645.8906, 364.5266
646.3727, 362.0580
646.8548, 360.5815
647.3369, 360.1969
647.8190, 360.2145
648.3011, 360.8729
648.7833, 361.5778
649.2654, 361.9522
649.7475, 362.0068
650.2296, 361.4473
650.7117, 360.0907
651.1938, 358.7657
651.6760, 358.6859
652.1581, 359.5103
652.6402, 360.1608
653.1223, 360.2389
653.6044, 360.3016
654.0865, 360.9576
654.5687, 361.9509
655.0508, 362.7921
655.5329, 363.4006
656.0150, 363.7294
656.4971, 363.4479
656.9792, 362.7674
657.4614, 362.8029
657.9435, 364.3060
658.4256, 365.5167
658.9077, 365.7568
659.3898, 365.0746
659.8719, 364.6636
660.3541, 364.5239
660.8362, 364.6496
661.3183, 365.2666
661.8004, 366.1746
662.2825, 366.5331
662.7646, 366.2725
663.2468, 365.8954
663.7289, 366.0336
664.2110, 366.2515
664.6931, 365.8770
665.1752, 364.4372
665.6573, 363.2767
666.1395, 363.1156
666.6216, 363.5073
667.1037, 363.9013
667.5858, 364.4020
668.0679, 364.6617
668.5500, 364.5990
669.0322, 364.3018
669.5143, 363.9402
669.9964, 363.4927
670.4785, 363.0578
670.9606, 362.6277
671.4427, 362.2516
671.9249, 361.9079
672.4070, 361.6530
672.8891, 361.9876
673.3712, 364.4503
673.8533, 366.9231
674.3354, 366.3176
674.8176, 362.8888
675.2997, 359.9547
