##NAMES=Butlerite
##RRUFFID=R110160
##IDEAL CHEMISTRY=Fe^3+^S^6+^O_4_(OH)&#183;2H_2_O
##LOCALITY=United Verde mine, Jerome, Arizona
##OWNER=RRUFF
##SOURCE=George Rossman, California Institute of Technology
##DESCRIPTION=Orange translucent grains
##STATUS=The identification of this mineral has been confirmed by single-crystal X-ray diffraction.
##URL=rruff.info/R110160
193.3301, 574.6837
193.8123, 577.0547
194.2944, 579.1256
194.7765, 580.4333
195.2586, 581.3142
195.7407, 581.8970
196.2228, 582.1638
196.7050, 583.0638
197.1871, 585.5931
197.6692, 589.6749
198.1513, 593.5380
198.6334, 596.4519
199.1155, 599.3970
199.5977, 602.9623
200.0798, 607.2047
200.5619, 611.9215
201.0440, 617.0027
201.5261, 622.5189
202.0082, 628.1550
202.4904, 633.7258
202.9725, 639.5596
203.4546, 645.8549
203.9367, 652.6385
204.4188, 659.8475
204.9009, 667.3483
205.3831, 675.0457
205.8652, 683.3395
206.3473, 692.9453
206.8294, 702.5543
207.3115, 711.2394
207.7936, 718.9102
208.2758, 726.2714
208.7579, 734.2562
209.2400, 743.1721
209.7221, 752.0530
210.2042, 760.7070
210.6863, 769.4217
211.1685, 778.5762
211.6506, 788.1766
212.1327, 797.7776
212.6148, 806.7977
213.0969, 814.8173
213.5790, 822.9172
214.0612, 831.7858
214.5433, 840.2924
215.0254, 847.5996
215.5075, 853.4669
215.9896, 858.3851
216.4717, 862.9219
216.9539, 866.8698
217.4360, 870.9545
217.9181, 876.0305
218.4002, 880.8398
218.8823, 884.0203
219.3644, 885.2245
219.8466, 885.4415
220.3287, 885.9883
220.8108, 887.0322
221.2929, 887.4623
221.7750, 887.1780
222.2571, 886.1845
222.7393, 884.3176
223.2214, 881.4655
223.7035, 878.2446
224.1856, 875.5499
224.6677, 873.3548
225.1498, 870.6517
225.6320, 867.2073
226.1141, 863.0925
226.5962, 858.2972
227.0783, 852.6617
227.5604, 846.7849
228.0425, 841.1158
228.5247, 835.6642
229.0068, 830.3948
229.4889, 825.5745
229.9710, 820.9490
230.4531, 815.8624
230.9352, 810.1303
231.4174, 804.2233
231.8995, 798.4438
232.3816, 792.7883
232.8637, 787.2833
233.3458, 782.1046
233.8279, 777.1005
234.3101, 771.5408
234.7922, 764.8889
235.2743, 758.6779
235.7564, 753.9343
236.2385, 750.2022
236.7206, 746.5687
237.2028, 742.7415
237.6849, 738.6412
238.1670, 733.8753
238.6491, 728.4994
239.1312, 722.2467
239.6133, 714.6699
240.0955, 706.3167
240.5776, 697.9685
241.0597, 690.0813
241.5418, 682.5922
242.0239, 675.4149
242.5060, 668.8659
242.9882, 662.1567
243.4703, 655.1555
243.9524, 647.8281
244.4345, 640.0888
244.9166, 631.8679
245.3987, 623.2233
245.8809, 614.6115
246.3630, 606.2784
246.8451, 597.6292
247.3272, 588.2476
247.8093, 578.5721
248.2914, 569.2581
248.7736, 560.6700
249.2557, 552.5977
249.7378, 544.2728
250.2199, 535.1737
250.7020, 526.4368
251.1841, 518.5328
251.6663, 510.9977
252.1484, 503.2441
252.6305, 494.9315
253.1126, 486.4538
253.5947, 478.8585
254.0768, 473.2295
254.5590, 467.3312
255.0411, 460.6485
255.5232, 453.7692
256.0053, 447.2703
256.4874, 441.4204
256.9695, 436.0915
257.4517, 430.9842
257.9338, 426.0522
258.4159, 421.4214
258.8980, 417.1447
259.3801, 413.1345
259.8622, 409.2975
260.3444, 405.5999
260.8265, 401.9917
261.3086, 398.3714
261.7907, 394.3344
262.2728, 390.9551
262.7549, 388.7972
263.2371, 387.0171
263.7192, 384.8485
264.2013, 382.0727
264.6834, 378.8606
265.1655, 375.3885
265.6476, 371.3517
266.1298, 367.8919
266.6119, 365.2347
267.0940, 363.0365
267.5761, 361.1988
268.0582, 359.6577
268.5403, 357.9491
269.0225, 355.4087
269.5046, 351.7238
269.9867, 348.7276
270.4688, 346.8961
270.9509, 345.5097
271.4330, 344.0416
271.9152, 342.4154
272.3973, 340.6641
272.8794, 338.8032
273.3615, 336.8161
273.8436, 334.8636
274.3257, 332.7778
274.8079, 330.8332
275.2900, 329.3813
275.7721, 328.3960
276.2542, 327.4140
276.7363, 326.0961
277.2184, 324.4500
277.7006, 322.7465
278.1827, 320.5544
278.6648, 318.6602
279.1469, 317.9069
279.6290, 318.1512
280.1111, 318.2024
280.5933, 317.2614
281.0754, 315.6021
281.5575, 314.2944
282.0396, 313.4407
282.5217, 312.8091
283.0038, 312.4430
283.4860, 312.2561
283.9681, 311.7665
284.4502, 310.6737
284.9323, 309.1992
285.4144, 307.8028
285.8965, 306.4010
286.3787, 305.2588
286.8608, 304.8089
287.3429, 304.8098
287.8250, 304.3120
288.3071, 302.8183
288.7892, 300.9433
289.2714, 299.5981
289.7535, 298.8283
290.2356, 298.1127
290.7177, 297.4192
291.1998, 296.6035
291.6819, 295.1861
292.1641, 292.8701
292.6462, 290.2901
293.1283, 288.0732
293.6104, 286.1870
294.0925, 284.5237
294.5746, 283.2017
295.0568, 282.0545
295.5389, 280.7179
296.0210, 279.0883
296.5031, 277.4579
296.9852, 276.1831
297.4673, 275.1253
297.9495, 273.8727
298.4316, 272.0866
298.9137, 270.1148
299.3958, 268.4970
299.8779, 267.2913
300.3600, 266.2166
300.8422, 265.2390
301.3243, 264.2470
301.8064, 263.0266
302.2885, 261.3545
302.7706, 259.5899
303.2527, 258.1509
303.7349, 257.0494
304.2170, 256.0162
304.6991, 254.8236
305.1812, 253.6916
305.6633, 252.9695
306.1454, 252.8450
306.6276, 252.7814
307.1097, 252.2923
307.5918, 251.4007
308.0739, 250.4663
308.5560, 249.5343
309.0381, 248.6883
309.5203, 248.0640
310.0024, 247.6892
310.4845, 247.2470
310.9666, 246.4847
311.4487, 245.4574
311.9308, 244.4150
312.4130, 243.3236
312.8951, 242.3645
313.3772, 241.7269
313.8593, 241.3714
314.3414, 241.0877
314.8235, 240.8659
315.3057, 240.6344
315.7878, 240.1917
316.2699, 239.4844
316.7520, 238.6540
317.2341, 237.5611
317.7162, 236.4165
318.1984, 235.7465
318.6805, 236.1629
319.1626, 236.9726
319.6447, 236.9068
320.1268, 235.7396
320.6089, 234.8458
321.0911, 235.5430
321.5732, 236.8504
322.0553, 237.3481
322.5374, 236.4425
323.0195, 235.1673
323.5016, 234.5893
323.9838, 234.7093
324.4659, 234.9127
324.9480, 235.0099
325.4301, 235.0468
325.9122, 235.0726
326.3943, 235.0831
326.8765, 235.1173
327.3586, 235.2208
327.8407, 235.3798
328.3228, 235.5107
328.8049, 235.5750
329.2870, 235.6326
329.7692, 235.7326
330.2513, 235.8729
330.7334, 236.0586
331.2155, 236.2491
331.6976, 236.4897
332.1797, 236.9061
332.6619, 237.5468
333.1440, 238.2637
333.6261, 239.0967
334.1082, 239.9323
334.5903, 240.4407
335.0724, 240.1809
335.5546, 239.7070
336.0367, 239.7554
336.5188, 240.3629
337.0009, 241.1377
337.4830, 241.9490
337.9651, 242.7587
338.4473, 243.4901
338.9294, 244.1125
339.4115, 244.6913
339.8936, 245.2903
340.3757, 245.9006
340.8578, 246.4050
341.3400, 246.6407
341.8221, 246.8847
342.3042, 247.5493
342.7863, 248.6806
343.2684, 249.9330
343.7505, 251.2026
344.2327, 252.4668
344.7148, 253.6400
345.1969, 254.6607
345.6790, 255.7027
346.1611, 257.0296
346.6432, 258.5922
347.1254, 260.1053
347.6075, 261.4091
348.0896, 262.6636
348.5717, 264.0716
349.0538, 265.6620
349.5359, 267.2313
350.0181, 268.5374
350.5002, 269.7032
350.9823, 271.2393
351.4644, 273.2785
351.9465, 275.5977
352.4286, 278.2250
352.9108, 281.0674
353.3929, 283.7190
353.8750, 285.9214
354.3571, 287.8521
354.8392, 289.9676
355.3214, 292.3318
355.8035, 294.6959
356.2856, 296.9446
356.7677, 299.1307
357.2498, 301.3402
357.7319, 303.5987
358.2141, 305.8900
358.6962, 308.1797
359.1783, 310.4188
359.6604, 312.9726
360.1425, 316.1200
360.6246, 319.4703
361.1068, 322.7079
361.5889, 325.8092
362.0710, 328.7276
362.5531, 331.4161
363.0352, 333.8759
363.5173, 336.2453
363.9995, 338.2137
364.4816, 340.4148
364.9637, 343.2056
365.4458, 346.4687
365.9279, 349.9532
366.4100, 353.5744
366.8922, 357.2132
367.3743, 360.4045
367.8564, 362.7446
368.3385, 365.2442
368.8206, 368.0324
369.3027, 371.0467
369.7849, 374.2420
370.2670, 377.5850
370.7491, 381.0265
371.2312, 384.5565
371.7133, 388.3924
372.1954, 391.4794
372.6776, 392.9498
373.1597, 394.4424
373.6418, 397.0502
374.1239, 400.6861
374.6060, 404.5918
375.0881, 408.2264
375.5703, 411.5838
376.0524, 414.9224
376.5345, 417.9452
377.0166, 421.3065
377.4987, 425.6828
377.9808, 430.3691
378.4630, 434.2774
378.9451, 436.9020
379.4272, 438.7818
379.9093, 441.1599
380.3914, 444.1045
380.8735, 447.5346
381.3557, 451.6677
381.8378, 456.0593
382.3199, 460.4536
382.8020, 464.7980
383.2841, 469.1031
383.7662, 473.3593
384.2484, 477.5760
384.7305, 481.7783
385.2126, 485.7536
385.6947, 489.9432
386.1768, 494.5045
386.6589, 499.3914
387.1411, 504.5854
387.6232, 510.2003
388.1053, 515.9661
388.5874, 520.7875
389.0695, 524.0650
389.5516, 527.4982
390.0338, 531.2352
390.5159, 535.4290
390.9980, 540.4732
391.4801, 546.4680
391.9622, 552.4781
392.4443, 557.1844
392.9265, 560.3948
393.4086, 564.1204
393.8907, 568.9880
394.3728, 574.0873
394.8549, 579.0285
395.3370, 583.7609
395.8192, 588.1922
396.3013, 592.4555
396.7834, 596.3765
397.2655, 599.1588
397.7476, 600.3475
398.2297, 601.5657
398.7119, 603.9093
399.1940, 606.7207
399.6761, 609.2252
400.1582, 611.3243
400.6403, 612.8515
401.1224, 613.6785
401.6046, 613.8055
402.0867, 613.0822
402.5688, 611.0980
403.0509, 608.6146
403.5330, 606.6269
404.0151, 605.1502
404.4973, 603.4728
404.9794, 601.2908
405.4615, 598.7051
405.9436, 595.9708
406.4257, 593.1805
406.9078, 589.8815
407.3900, 585.6608
407.8721, 580.5811
408.3542, 575.0958
408.8363, 569.1296
409.3184, 562.8795
409.8005, 556.4943
410.2827, 549.9586
410.7648, 543.2650
411.2469, 536.3701
411.7290, 529.4077
412.2111, 522.7087
412.6932, 516.3000
413.1754, 510.0485
413.6575, 504.0333
414.1396, 498.1191
414.6217, 492.0820
415.1038, 485.9161
415.5859, 479.8476
416.0681, 474.1597
416.5502, 468.9265
417.0323, 463.2079
417.5144, 456.3600
417.9965, 449.7791
418.4786, 443.8351
418.9608, 438.6043
419.4429, 434.1691
419.9250, 430.6007
420.4071, 427.6649
420.8892, 424.7349
421.3713, 422.0821
421.8535, 419.0141
422.3356, 415.0313
422.8177, 410.9785
423.2998, 407.5117
423.7819, 404.7006
424.2640, 402.2299
424.7462, 399.7279
425.2283, 397.1422
425.7104, 395.1646
426.1925, 394.3761
426.6746, 393.6030
427.1567, 392.1860
427.6389, 390.6359
428.1210, 389.8173
428.6031, 390.1962
429.0852, 391.2863
429.5673, 392.0631
430.0494, 392.3418
430.5316, 392.9789
431.0137, 394.0376
431.4958, 395.6442
431.9779, 398.0976
432.4600, 401.3486
432.9421, 404.7610
433.4243, 407.6941
433.9064, 410.3538
434.3885, 413.6655
434.8706, 417.7723
435.3527, 422.3345
435.8348, 427.1968
436.3170, 432.3616
436.7991, 437.9369
437.2812, 443.8695
437.7633, 450.2997
438.2454, 457.3743
438.7275, 465.0932
439.2097, 473.2649
439.6918, 481.7511
440.1739, 490.7145
440.6560, 500.4102
441.1381, 510.8355
441.6202, 521.7333
442.1024, 533.3633
442.5845, 545.2274
443.0666, 556.5244
443.5487, 567.2552
444.0308, 578.1954
444.5129, 590.0281
444.9951, 602.5878
445.4772, 614.7719
445.9593, 626.7254
446.4414, 638.1287
446.9235, 649.0593
447.4056, 659.3279
447.8878, 668.6272
448.3699, 676.8610
448.8520, 684.3085
449.3341, 691.5035
449.8162, 698.8131
450.2983, 704.6113
450.7805, 708.1355
451.2626, 711.0890
451.7447, 714.4330
452.2268, 717.9835
452.7089, 720.9718
453.1910, 722.7939
453.6732, 723.8033
454.1553, 725.4901
454.6374, 728.2431
455.1195, 731.0457
455.6016, 733.2410
456.0837, 735.7016
456.5659, 738.9798
457.0480, 743.2634
457.5301, 748.6329
458.0122, 755.1157
458.4943, 762.7402
458.9764, 771.7842
459.4586, 782.8574
459.9407, 794.5009
460.4228, 805.6440
460.9049, 816.7704
461.3870, 828.8257
461.8691, 842.3558
462.3513, 856.5709
462.8334, 870.7708
463.3155, 884.9238
463.7976, 898.2968
464.2797, 911.0890
464.7618, 922.4042
465.2440, 931.2982
465.7261, 937.8700
466.2082, 942.6232
466.6903, 946.0898
467.1724, 947.6715
467.6545, 946.5834
468.1367, 942.7960
468.6188, 936.8154
469.1009, 929.0213
469.5830, 919.3060
470.0651, 906.9255
470.5472, 890.9563
471.0294, 874.0339
471.5115, 856.9236
471.9936, 839.2167
472.4757, 820.0830
472.9578, 799.4241
473.4399, 778.0418
473.9221, 756.8557
474.4042, 735.8943
474.8863, 715.0127
475.3684, 693.5289
475.8505, 672.6443
476.3326, 652.6314
476.8148, 633.6120
477.2969, 615.8232
477.7790, 599.5074
478.2611, 584.2552
478.7432, 569.4375
479.2253, 555.0984
479.7075, 541.2514
480.1896, 527.8646
480.6717, 515.0699
481.1538, 503.0477
481.6359, 491.7532
482.1180, 480.8671
482.6002, 469.9681
483.0823, 459.4214
483.5644, 450.3570
484.0465, 443.2724
484.5286, 435.9922
485.0107, 427.0391
485.4929, 417.6660
485.9750, 409.3093
486.4571, 402.2612
486.9392, 395.7513
487.4213, 389.3840
487.9034, 383.2058
488.3856, 377.4372
488.8677, 372.1046
489.3498, 366.8903
489.8319, 361.4460
490.3140, 355.8370
490.7961, 350.8447
491.2783, 346.6413
491.7604, 342.8194
492.2425, 339.2354
492.7246, 335.8752
493.2067, 332.7929
493.6888, 330.0197
494.1710, 327.2571
494.6531, 324.0140
495.1352, 319.8636
495.6173, 316.6373
496.0994, 314.8797
496.5815, 313.3753
497.0637, 311.7642
497.5458, 309.9341
498.0279, 307.7251
498.5100, 305.0030
498.9921, 302.0620
499.4742, 299.5824
499.9564, 297.6182
500.4385, 296.0033
500.9206, 294.8797
501.4027, 293.9500
501.8848, 293.1184
502.3669, 292.3421
502.8491, 291.5430
503.3312, 290.6694
503.8133, 289.7342
504.2954, 288.7923
504.7775, 287.8701
505.2596, 286.8095
505.7418, 285.1675
506.2239, 283.5763
506.7060, 283.0137
507.1881, 283.7640
507.6702, 284.5610
508.1523, 284.8671
508.6345, 284.7799
509.1166, 284.2416
509.5987, 283.2401
510.0808, 282.6001
510.5629, 283.1234
511.0450, 284.6816
511.5272, 285.7208
512.0093, 285.8719
512.4914, 286.0216
512.9735, 286.2846
513.4556, 286.7529
513.9377, 287.5554
514.4199, 288.7147
514.9020, 290.1546
515.3841, 291.7923
515.8662, 293.6577
516.3483, 295.5002
516.8304, 297.4438
517.3126, 299.2227
517.7947, 300.3883
518.2768, 301.4492
518.7589, 303.1627
519.2410, 305.8412
519.7231, 309.0501
520.2053, 312.2907
520.6874, 315.5705
521.1695, 318.6183
521.6516, 321.0516
522.1337, 323.7005
522.6158, 327.1120
523.0980, 331.1543
523.5801, 335.4901
524.0622, 340.1977
524.5443, 344.9365
525.0264, 349.1465
525.5085, 352.9857
525.9907, 357.1386
526.4728, 361.8232
526.9549, 367.0418
527.4370, 372.9069
527.9191, 379.5702
528.4012, 386.2056
528.8834, 392.6805
529.3655, 399.1543
529.8476, 405.7592
530.3297, 412.4731
530.8118, 419.1100
531.2939, 425.5654
531.7761, 431.9507
532.2582, 438.5892
532.7403, 445.8832
533.2224, 452.6440
533.7045, 458.6025
534.1866, 464.2812
534.6688, 470.2400
535.1509, 476.2440
535.6330, 481.5072
536.1151, 485.3930
536.5972, 488.3567
537.0793, 491.8752
537.5615, 496.3262
538.0436, 499.7062
538.5257, 500.9419
539.0078, 501.1720
539.4899, 501.4471
539.9720, 501.7776
540.4542, 501.4917
540.9363, 500.3713
541.4184, 498.3947
541.9005, 495.4482
542.3826, 491.5491
542.8647, 487.0238
543.3469, 482.0119
543.8290, 476.4758
544.3111, 470.1855
544.7932, 462.9088
545.2753, 455.6172
545.7574, 448.3763
546.2396, 441.1719
546.7217, 434.2631
547.2038, 427.4448
547.6859, 420.0624
548.1680, 411.5726
548.6501, 402.2221
549.1323, 393.0552
549.6144, 383.9362
550.0965, 375.3408
550.5786, 367.5385
551.0607, 359.9942
551.5428, 352.3152
552.0250, 344.5108
552.5071, 336.9043
552.9892, 329.6996
553.4713, 322.8561
553.9534, 316.1110
554.4355, 309.4121
554.9177, 303.1134
555.3998, 297.4036
555.8819, 292.1387
556.3640, 287.0370
556.8461, 282.0857
557.3282, 277.4105
557.8104, 273.0180
558.2925, 268.9210
558.7746, 265.2036
559.2567, 261.8210
559.7388, 258.6884
560.2209, 255.7685
560.7031, 252.9896
561.1852, 250.1152
561.6673, 246.8132
562.1494, 243.8517
562.6315, 241.5672
563.1136, 239.3714
563.5958, 236.7551
564.0779, 233.7886
564.5600, 230.9389
565.0421, 228.5113
565.5242, 226.4668
566.0063, 224.6706
566.4885, 223.1123
566.9706, 221.8580
567.4527, 221.1724
567.9348, 220.6289
568.4169, 219.9518
568.8990, 219.1429
569.3812, 218.3266
569.8633, 217.6506
570.3454, 216.9702
570.8275, 215.9631
571.3096, 214.6673
571.7917, 213.6254
572.2739, 213.0934
572.7560, 212.8780
573.2381, 212.6728
573.7202, 212.5190
574.2023, 212.2181
574.6844, 211.4982
575.1666, 210.8451
575.6487, 210.6357
576.1308, 210.7746
576.6129, 210.9809
577.0950, 211.1135
577.5771, 211.1729
578.0593, 211.1030
578.5414, 210.7007
579.0235, 210.7249
579.5056, 211.3855
579.9877, 212.3291
580.4698, 213.6728
580.9520, 215.1644
581.4341, 216.2719
581.9162, 216.6688
582.3983, 216.7639
582.8804, 216.9816
583.3625, 217.3396
583.8447, 218.0452
584.3268, 219.1986
584.8089, 220.5880
585.2910, 222.0200
585.7731, 223.4972
586.2552, 225.0335
586.7374, 226.6147
587.2195, 228.2736
587.7016, 229.8982
588.1837, 231.6398
588.6658, 233.8131
589.1479, 236.4974
589.6301, 239.3920
590.1122, 242.1087
590.5943, 244.5835
591.0764, 247.4895
591.5585, 250.8212
592.0406, 254.6466
592.5228, 259.2217
593.0049, 264.1855
593.4870, 269.0732
593.9691, 273.7913
594.4512, 278.6041
594.9333, 283.8208
595.4155, 289.3830
595.8976, 294.9822
596.3797, 300.5792
596.8618, 306.3001
597.3439, 312.3666
597.8260, 318.5203
598.3082, 324.1742
598.7903, 329.3946
599.2724, 333.9535
599.7545, 337.5890
600.2366, 340.6493
600.7188, 343.6528
601.2009, 346.5153
601.6830, 348.6708
602.1651, 349.8335
602.6472, 349.8056
603.1293, 347.7062
603.6115, 342.0925
604.0936, 337.0212
604.5757, 333.4780
605.0578, 329.8965
605.5399, 325.2257
606.0220, 319.6590
606.5042, 313.9897
606.9863, 308.6461
607.4684, 303.5084
607.9505, 298.3149
608.4326, 293.0640
608.9147, 288.0475
609.3969, 283.3029
609.8790, 278.8876
610.3611, 275.0739
610.8432, 271.7770
611.3253, 268.1123
611.8074, 263.6397
612.2896, 259.1401
612.7717, 254.9736
613.2538, 251.0721
613.7359, 247.2283
614.2180, 243.3963
614.7001, 239.8864
615.1823, 237.1045
615.6644, 235.0928
616.1465, 232.9239
616.6286, 230.7260
617.1107, 228.1782
617.5928, 224.8689
618.0750, 221.3988
618.5571, 218.3713
619.0392, 215.9077
619.5213, 213.7382
620.0034, 211.7367
620.4855, 209.8696
620.9677, 208.0382
621.4498, 206.2412
621.9319, 204.5574
622.4140, 203.0631
622.8961, 201.6700
623.3782, 200.1705
623.8604, 198.5212
624.3425, 196.9231
624.8246, 195.4652
625.3067, 194.0167
625.7888, 192.4447
626.2709, 190.8101
626.7531, 189.2619
627.2352, 187.8834
627.7173, 186.5636
628.1994, 185.0459
628.6815, 183.2188
629.1636, 181.8024
629.6458, 181.1120
630.1279, 180.4937
630.6100, 179.5805
631.0921, 178.5148
631.5742, 177.5444
632.0563, 176.7249
632.5385, 176.0254
633.0206, 175.5671
633.5027, 175.1789
633.9848, 174.4783
634.4669, 173.4153
634.9490, 172.2420
635.4312, 171.0898
635.9133, 170.0044
636.3954, 169.1916
636.8775, 169.0003
637.3596, 168.6251
637.8417, 167.8935
638.3239, 167.0940
638.8060, 166.3272
639.2881, 165.6734
639.7702, 165.3226
640.2523, 165.4671
640.7344, 165.7701
641.2166, 165.5395
641.6987, 164.7502
642.1808, 163.9514
642.6629, 163.1795
643.1450, 162.5309
643.6271, 162.2361
644.1093, 162.1662
644.5914, 161.8324
645.0735, 160.8088
645.5556, 159.9234
646.0377, 159.7051
646.5198, 159.8020
647.0020, 159.7444
647.4841, 159.4335
647.9662, 158.9629
648.4483, 158.3773
648.9304, 157.7261
649.4125, 157.3699
649.8947, 157.5619
650.3768, 157.5752
650.8589, 157.1665
651.3410, 156.6402
651.8231, 156.2102
652.3052, 155.8652
652.7874, 155.4512
653.2695, 154.8014
653.7516, 154.1295
654.2337, 153.6647
654.7158, 153.4040
655.1979, 153.4122
655.6801, 153.7597
656.1622, 154.0628
656.6443, 153.8449
657.1264, 153.0636
657.6085, 152.5947
658.0906, 152.5941
658.5728, 152.6641
659.0549, 152.9077
659.5370, 153.0576
660.0191, 152.7590
660.5012, 152.0222
660.9833, 151.2508
661.4655, 150.7720
661.9476, 150.5100
662.4297, 150.2439
662.9118, 149.9669
663.3939, 149.7491
663.8760, 149.6482
664.3582, 149.5737
664.8403, 149.4652
665.3224, 149.3201
665.8045, 148.9857
666.2866, 148.0972
666.7687, 147.3692
667.2509, 147.4091
667.7330, 147.8091
668.2151, 147.8749
668.6972, 147.4371
669.1793, 146.8354
669.6614, 146.4054
670.1436, 146.1376
670.6257, 145.8999
671.1078, 145.7339
671.5899, 145.5102
672.0720, 145.0892
672.5541, 144.6664
673.0363, 144.4767
673.5184, 144.4896
674.0005, 144.3104
674.4826, 143.5073
674.9647, 142.6434
675.4468, 142.4962
675.9290, 142.7643
676.4111, 142.3745
676.8932, 140.9793
677.3753, 139.5152
677.8574, 139.1516
678.3395, 139.9488
678.8217, 140.2818
679.3038, 139.7984
679.7859, 139.2817
680.2680, 138.8119
680.7501, 138.4023
681.2322, 138.0841
681.7144, 137.8473
682.1965, 137.6082
682.6786, 137.2399
683.1607, 136.8904
683.6428, 136.9675
684.1249, 137.3853
684.6071, 137.3220
685.0892, 136.4274
685.5713, 135.3452
686.0534, 134.8072
686.5355, 134.8519
687.0176, 134.8231
687.4998, 134.8057
687.9819, 134.6164
688.4640, 134.1361
688.9461, 133.5083
689.4282, 132.7555
689.9103, 131.9649
690.3925, 131.4459
690.8746, 131.6003
