##NAMES=Bystrite
##RRUFFID=R060642
##IDEAL CHEMISTRY=(Na,K)_7_Ca(Si_6_Al_6_)O_24_(S_3_)^2-^_1.5_&#183;H_2_O
##LOCALITY=Malaya Bystvaya, Lapis Deposit, Baikal, Russia
##OWNER=RRUFF
##SOURCE=Michael Scott
##DESCRIPTION=Yellowish-brown granular associated with blue lazurite and white calcite
##STATUS=The identification of this mineral has been confirmed only by single crystal X-ray diffraction.
##URL=rruff.info/R060642
9.059570e+001, 1.717410e+003
9.107782e+001, 1.684864e+003
9.155994e+001, 1.673375e+003
9.204205e+001, 1.697993e+003
9.252417e+001, 1.733482e+003
9.300629e+001, 1.771762e+003
9.348840e+001, 1.800612e+003
9.397052e+001, 1.808204e+003
9.445264e+001, 1.790148e+003
9.493475e+001, 1.770125e+003
9.541687e+001, 1.749483e+003
9.589898e+001, 1.729958e+003
9.638110e+001, 1.711104e+003
9.686321e+001, 1.692173e+003
9.734533e+001, 1.671641e+003
9.782745e+001, 1.647150e+003
9.830956e+001, 1.626401e+003
9.879168e+001, 1.610656e+003
9.927380e+001, 1.596458e+003
9.975591e+001, 1.582798e+003
1.002380e+002, 1.569522e+003
1.007201e+002, 1.556818e+003
1.012023e+002, 1.544635e+003
1.016844e+002, 1.533067e+003
1.021665e+002, 1.522205e+003
1.026486e+002, 1.511537e+003
1.031307e+002, 1.501569e+003
1.036128e+002, 1.492871e+003
1.040950e+002, 1.485390e+003
1.045771e+002, 1.478664e+003
1.050592e+002, 1.471966e+003
1.055413e+002, 1.465364e+003
1.060234e+002, 1.459164e+003
1.065055e+002, 1.452944e+003
1.069877e+002, 1.447032e+003
1.074698e+002, 1.443226e+003
1.079519e+002, 1.444130e+003
1.084340e+002, 1.443735e+003
1.089161e+002, 1.438976e+003
1.093982e+002, 1.430844e+003
1.098804e+002, 1.421953e+003
1.103625e+002, 1.414404e+003
1.108446e+002, 1.408275e+003
1.113267e+002, 1.403195e+003
1.118088e+002, 1.399642e+003
1.122909e+002, 1.396604e+003
1.127731e+002, 1.393596e+003
1.132552e+002, 1.390568e+003
1.137373e+002, 1.387775e+003
1.142194e+002, 1.385606e+003
1.147015e+002, 1.384204e+003
1.151836e+002, 1.383288e+003
1.156658e+002, 1.384010e+003
1.161479e+002, 1.384685e+003
1.166300e+002, 1.383312e+003
1.171121e+002, 1.379082e+003
1.175942e+002, 1.373403e+003
1.180763e+002, 1.369725e+003
1.185584e+002, 1.368780e+003
1.190406e+002, 1.367745e+003
1.195227e+002, 1.365322e+003
1.200048e+002, 1.362101e+003
1.204869e+002, 1.359778e+003
1.209690e+002, 1.359438e+003
1.214511e+002, 1.360252e+003
1.219333e+002, 1.360305e+003
1.224154e+002, 1.359229e+003
1.228975e+002, 1.357997e+003
1.233796e+002, 1.357774e+003
1.238617e+002, 1.358758e+003
1.243438e+002, 1.358979e+003
1.248260e+002, 1.356894e+003
1.253081e+002, 1.353736e+003
1.257902e+002, 1.350250e+003
1.262723e+002, 1.346330e+003
1.267544e+002, 1.342703e+003
1.272365e+002, 1.341288e+003
1.277187e+002, 1.343612e+003
1.282008e+002, 1.345700e+003
1.286829e+002, 1.346108e+003
1.291650e+002, 1.345644e+003
1.296471e+002, 1.345430e+003
1.301292e+002, 1.346255e+003
1.306114e+002, 1.348013e+003
1.310935e+002, 1.349072e+003
1.315756e+002, 1.348902e+003
1.320577e+002, 1.348519e+003
1.325398e+002, 1.347947e+003
1.330219e+002, 1.347336e+003
1.335041e+002, 1.346919e+003
1.339862e+002, 1.346889e+003
1.344683e+002, 1.347281e+003
1.349504e+002, 1.347979e+003
1.354325e+002, 1.349235e+003
1.359146e+002, 1.350534e+003
1.363968e+002, 1.351444e+003
1.368789e+002, 1.351976e+003
1.373610e+002, 1.352596e+003
1.378431e+002, 1.353814e+003
1.383252e+002, 1.355735e+003
1.388073e+002, 1.357968e+003
1.392895e+002, 1.360538e+003
1.397716e+002, 1.363394e+003
1.402537e+002, 1.366834e+003
1.407358e+002, 1.371166e+003
1.412179e+002, 1.375052e+003
1.417000e+002, 1.376075e+003
1.421821e+002, 1.374500e+003
1.426643e+002, 1.373433e+003
1.431464e+002, 1.374157e+003
1.436285e+002, 1.376412e+003
1.441106e+002, 1.379307e+003
1.445927e+002, 1.382906e+003
1.450748e+002, 1.386867e+003
1.455570e+002, 1.390594e+003
1.460391e+002, 1.394092e+003
1.465212e+002, 1.398245e+003
1.470033e+002, 1.403985e+003
1.474854e+002, 1.411463e+003
1.479675e+002, 1.419148e+003
1.484497e+002, 1.426922e+003
1.489318e+002, 1.434805e+003
1.494139e+002, 1.443197e+003
1.498960e+002, 1.452064e+003
1.503781e+002, 1.460552e+003
1.508602e+002, 1.467072e+003
1.513424e+002, 1.470424e+003
1.518245e+002, 1.474505e+003
1.523066e+002, 1.480010e+003
1.527887e+002, 1.486074e+003
1.532708e+002, 1.492472e+003
1.537529e+002, 1.499021e+003
1.542351e+002, 1.505117e+003
1.547172e+002, 1.509221e+003
1.551993e+002, 1.510538e+003
1.556814e+002, 1.510408e+003
1.561635e+002, 1.509193e+003
1.566456e+002, 1.506529e+003
1.571278e+002, 1.501718e+003
1.576099e+002, 1.494325e+003
1.580920e+002, 1.484926e+003
1.585741e+002, 1.475892e+003
1.590562e+002, 1.466437e+003
1.595383e+002, 1.458102e+003
1.600205e+002, 1.451522e+003
1.605026e+002, 1.446389e+003
1.609847e+002, 1.441914e+003
1.614668e+002, 1.437553e+003
1.619489e+002, 1.433680e+003
1.624310e+002, 1.431592e+003
1.629131e+002, 1.431854e+003
1.633953e+002, 1.433147e+003
1.638774e+002, 1.434835e+003
1.643595e+002, 1.436931e+003
1.648416e+002, 1.439525e+003
1.653237e+002, 1.442650e+003
1.658058e+002, 1.446407e+003
1.662880e+002, 1.450960e+003
1.667701e+002, 1.457219e+003
1.672522e+002, 1.463607e+003
1.677343e+002, 1.467985e+003
1.682164e+002, 1.469888e+003
1.686985e+002, 1.471954e+003
1.691807e+002, 1.475980e+003
1.696628e+002, 1.481009e+003
1.701449e+002, 1.486038e+003
1.706270e+002, 1.490838e+003
1.711091e+002, 1.495303e+003
1.715912e+002, 1.499173e+003
1.720734e+002, 1.502369e+003
1.725555e+002, 1.505034e+003
1.730376e+002, 1.507395e+003
1.735197e+002, 1.509371e+003
1.740018e+002, 1.510745e+003
1.744839e+002, 1.511139e+003
1.749661e+002, 1.510854e+003
1.754482e+002, 1.511743e+003
1.759303e+002, 1.514690e+003
1.764124e+002, 1.517974e+003
1.768945e+002, 1.520872e+003
1.773766e+002, 1.523771e+003
1.778588e+002, 1.527363e+003
1.783409e+002, 1.532210e+003
1.788230e+002, 1.538333e+003
1.793051e+002, 1.544673e+003
1.797872e+002, 1.551096e+003
1.802693e+002, 1.557865e+003
1.807515e+002, 1.564849e+003
1.812336e+002, 1.572215e+003
1.817157e+002, 1.580316e+003
1.821978e+002, 1.589572e+003
1.826799e+002, 1.600165e+003
1.831620e+002, 1.609997e+003
1.836441e+002, 1.619077e+003
1.841263e+002, 1.627579e+003
1.846084e+002, 1.635711e+003
1.850905e+002, 1.643381e+003
1.855726e+002, 1.650166e+003
1.860547e+002, 1.655573e+003
1.865368e+002, 1.659382e+003
1.870190e+002, 1.662905e+003
1.875011e+002, 1.667442e+003
1.879832e+002, 1.670815e+003
1.884653e+002, 1.671384e+003
1.889474e+002, 1.668990e+003
1.894296e+002, 1.664530e+003
1.899117e+002, 1.658466e+003
1.903938e+002, 1.650797e+003
1.908759e+002, 1.642472e+003
1.913580e+002, 1.633862e+003
1.918401e+002, 1.624558e+003
1.923223e+002, 1.614067e+003
1.928044e+002, 1.602294e+003
1.932865e+002, 1.589432e+003
1.937686e+002, 1.575736e+003
1.942507e+002, 1.561169e+003
1.947328e+002, 1.544920e+003
1.952150e+002, 1.525574e+003
1.956971e+002, 1.504500e+003
1.961792e+002, 1.484449e+003
1.966613e+002, 1.466076e+003
1.971434e+002, 1.447743e+003
1.976255e+002, 1.427856e+003
1.981077e+002, 1.406896e+003
1.985898e+002, 1.386523e+003
1.990719e+002, 1.367534e+003
1.995540e+002, 1.349716e+003
2.000361e+002, 1.332430e+003
2.005182e+002, 1.315842e+003
2.010004e+002, 1.299490e+003
2.014825e+002, 1.283304e+003
2.019646e+002, 1.267205e+003
2.024467e+002, 1.251184e+003
2.029288e+002, 1.235172e+003
2.034109e+002, 1.219162e+003
2.038930e+002, 1.203517e+003
2.043752e+002, 1.188422e+003
2.048573e+002, 1.173642e+003
2.053394e+002, 1.159086e+003
2.058215e+002, 1.144839e+003
2.063036e+002, 1.130982e+003
2.067857e+002, 1.117662e+003
2.072679e+002, 1.104887e+003
2.077500e+002, 1.092503e+003
2.082321e+002, 1.080208e+003
2.087142e+002, 1.068603e+003
2.091963e+002, 1.057825e+003
2.096784e+002, 1.047944e+003
2.101606e+002, 1.039053e+003
2.106427e+002, 1.031260e+003
2.111248e+002, 1.024657e+003
2.116069e+002, 1.018735e+003
2.120890e+002, 1.013089e+003
2.125711e+002, 1.008407e+003
2.130533e+002, 1.004929e+003
2.135354e+002, 1.002669e+003
2.140175e+002, 1.001552e+003
2.144996e+002, 1.001605e+003
2.149817e+002, 1.003005e+003
2.154638e+002, 1.004446e+003
2.159460e+002, 1.006461e+003
2.164281e+002, 1.008059e+003
2.169102e+002, 1.008073e+003
2.173923e+002, 1.006928e+003
2.178744e+002, 1.006325e+003
2.183565e+002, 1.007630e+003
2.188387e+002, 1.010966e+003
2.193208e+002, 1.017049e+003
2.198029e+002, 1.030951e+003
2.202850e+002, 1.043236e+003
2.207671e+002, 1.050029e+003
2.212492e+002, 1.050463e+003
2.217314e+002, 1.042706e+003
2.222135e+002, 1.023677e+003
2.226956e+002, 9.923323e+002
2.231777e+002, 9.634435e+002
2.236598e+002, 9.367267e+002
2.241419e+002, 9.125449e+002
2.246240e+002, 8.910748e+002
2.251062e+002, 8.723158e+002
2.255883e+002, 8.568512e+002
2.260704e+002, 8.457875e+002
2.265525e+002, 8.390309e+002
2.270346e+002, 8.332766e+002
2.275167e+002, 8.283305e+002
2.279989e+002, 8.243399e+002
2.284810e+002, 8.218329e+002
2.289631e+002, 8.208748e+002
2.294452e+002, 8.201669e+002
2.299273e+002, 8.187213e+002
2.304094e+002, 8.168153e+002
2.308916e+002, 8.152151e+002
2.313737e+002, 8.139291e+002
2.318558e+002, 8.130733e+002
2.323379e+002, 8.130824e+002
2.328200e+002, 8.141307e+002
2.333021e+002, 8.148041e+002
2.337843e+002, 8.134499e+002
2.342664e+002, 8.112621e+002
2.347485e+002, 8.101298e+002
2.352306e+002, 8.110015e+002
2.357127e+002, 8.127281e+002
2.361948e+002, 8.137900e+002
2.366770e+002, 8.140881e+002
2.371591e+002, 8.141474e+002
2.376412e+002, 8.136095e+002
2.381233e+002, 8.131797e+002
2.386054e+002, 8.138688e+002
2.390875e+002, 8.164174e+002
2.395697e+002, 8.195956e+002
2.400518e+002, 8.211967e+002
2.405339e+002, 8.205901e+002
2.410160e+002, 8.204598e+002
2.414981e+002, 8.219984e+002
2.419802e+002, 8.244283e+002
2.424624e+002, 8.271306e+002
2.429445e+002, 8.299075e+002
2.434266e+002, 8.328102e+002
2.439087e+002, 8.360048e+002
2.443908e+002, 8.396761e+002
2.448729e+002, 8.431038e+002
2.453550e+002, 8.458777e+002
2.458372e+002, 8.484384e+002
2.463193e+002, 8.512132e+002
2.468014e+002, 8.543663e+002
2.472835e+002, 8.575626e+002
2.477656e+002, 8.602973e+002
2.482477e+002, 8.625379e+002
2.487299e+002, 8.643162e+002
2.492120e+002, 8.656078e+002
2.496941e+002, 8.665284e+002
2.501762e+002, 8.670367e+002
2.506583e+002, 8.671404e+002
2.511404e+002, 8.671108e+002
2.516226e+002, 8.674005e+002
2.521047e+002, 8.680966e+002
2.525868e+002, 8.689467e+002
2.530689e+002, 8.711119e+002
2.535510e+002, 8.726652e+002
2.540331e+002, 8.717568e+002
2.545153e+002, 8.681092e+002
2.549974e+002, 8.634647e+002
2.554795e+002, 8.605348e+002
2.559616e+002, 8.603676e+002
2.564437e+002, 8.597343e+002
2.569258e+002, 8.590098e+002
2.574080e+002, 8.576087e+002
2.578901e+002, 8.551755e+002
2.583722e+002, 8.516337e+002
2.588543e+002, 8.470724e+002
2.593364e+002, 8.414650e+002
2.598185e+002, 8.341224e+002
2.603007e+002, 8.274696e+002
2.607828e+002, 8.217987e+002
2.612649e+002, 8.163735e+002
2.617470e+002, 8.107585e+002
2.622291e+002, 8.048899e+002
2.627112e+002, 7.990557e+002
2.631934e+002, 7.935875e+002
2.636755e+002, 7.886875e+002
2.641576e+002, 7.833864e+002
2.646397e+002, 7.769311e+002
2.651218e+002, 7.707865e+002
2.656039e+002, 7.658395e+002
2.660861e+002, 7.620743e+002
2.665682e+002, 7.589089e+002
2.670503e+002, 7.558168e+002
2.675324e+002, 7.528105e+002
2.680145e+002, 7.498595e+002
2.684966e+002, 7.466649e+002
2.689788e+002, 7.437737e+002
2.694609e+002, 7.416381e+002
2.699430e+002, 7.401160e+002
2.704251e+002, 7.387063e+002
2.709072e+002, 7.370472e+002
2.713893e+002, 7.351564e+002
2.718715e+002, 7.327071e+002
2.723536e+002, 7.297668e+002
2.728357e+002, 7.263505e+002
2.733178e+002, 7.222692e+002
2.737999e+002, 7.176942e+002
2.742820e+002, 7.131194e+002
2.747642e+002, 7.089437e+002
2.752463e+002, 7.050676e+002
2.757284e+002, 7.002988e+002
2.762105e+002, 6.936679e+002
2.766926e+002, 6.873942e+002
2.771747e+002, 6.823315e+002
2.776568e+002, 6.781657e+002
2.781389e+002, 6.741613e+002
2.786211e+002, 6.698945e+002
2.791032e+002, 6.655186e+002
2.795853e+002, 6.616968e+002
2.800674e+002, 6.583679e+002
2.805495e+002, 6.555092e+002
2.810316e+002, 6.533566e+002
2.815138e+002, 6.516448e+002
2.819959e+002, 6.499248e+002
2.824780e+002, 6.480160e+002
2.829601e+002, 6.459629e+002
2.834422e+002, 6.438912e+002
2.839243e+002, 6.416642e+002
2.844065e+002, 6.396569e+002
2.848886e+002, 6.379609e+002
2.853707e+002, 6.365282e+002
2.858528e+002, 6.353807e+002
2.863349e+002, 6.345616e+002
2.868170e+002, 6.337928e+002
2.872992e+002, 6.324836e+002
2.877813e+002, 6.303361e+002
2.882634e+002, 6.287118e+002
2.887455e+002, 6.283630e+002
2.892276e+002, 6.284407e+002
2.897097e+002, 6.277786e+002
2.901919e+002, 6.260848e+002
2.906740e+002, 6.242377e+002
2.911561e+002, 6.233972e+002
2.916382e+002, 6.237379e+002
2.921203e+002, 6.237399e+002
2.926024e+002, 6.228439e+002
2.930846e+002, 6.217750e+002
2.935667e+002, 6.213738e+002
2.940488e+002, 6.217323e+002
2.945309e+002, 6.220774e+002
2.950130e+002, 6.216121e+002
2.954951e+002, 6.203207e+002
2.959773e+002, 6.193959e+002
2.964594e+002, 6.189945e+002
2.969415e+002, 6.188862e+002
2.974236e+002, 6.189016e+002
2.979057e+002, 6.190342e+002
2.983878e+002, 6.193994e+002
2.988700e+002, 6.202634e+002
2.993521e+002, 6.214291e+002
2.998342e+002, 6.218301e+002
3.003163e+002, 6.208677e+002
3.007984e+002, 6.196998e+002
3.012805e+002, 6.190003e+002
3.017627e+002, 6.186844e+002
3.022448e+002, 6.183141e+002
3.027269e+002, 6.176304e+002
3.032090e+002, 6.167573e+002
3.036911e+002, 6.160660e+002
3.041732e+002, 6.155882e+002
3.046554e+002, 6.152151e+002
3.051375e+002, 6.149307e+002
3.056196e+002, 6.147203e+002
3.061017e+002, 6.145573e+002
3.065838e+002, 6.144544e+002
3.070659e+002, 6.143607e+002
3.075481e+002, 6.141859e+002
3.080302e+002, 6.139520e+002
3.085123e+002, 6.136166e+002
3.089944e+002, 6.131225e+002
3.094765e+002, 6.125287e+002
3.099586e+002, 6.118801e+002
3.104408e+002, 6.111485e+002
3.109229e+002, 6.105349e+002
3.114050e+002, 6.102842e+002
3.118871e+002, 6.103563e+002
3.123692e+002, 6.108719e+002
3.128513e+002, 6.125605e+002
3.133335e+002, 6.143774e+002
3.138156e+002, 6.149163e+002
3.142977e+002, 6.139359e+002
3.147798e+002, 6.125789e+002
3.152619e+002, 6.118008e+002
3.157440e+002, 6.115916e+002
3.162262e+002, 6.115419e+002
3.167083e+002, 6.115943e+002
3.171904e+002, 6.118112e+002
3.176725e+002, 6.124071e+002
3.181546e+002, 6.133388e+002
3.186367e+002, 6.140488e+002
3.191188e+002, 6.141000e+002
3.196010e+002, 6.136121e+002
3.200831e+002, 6.132923e+002
3.205652e+002, 6.125631e+002
3.210473e+002, 6.125543e+002
3.215294e+002, 6.147101e+002
3.220115e+002, 6.183131e+002
3.224937e+002, 6.207226e+002
3.229758e+002, 6.204307e+002
3.234579e+002, 6.185020e+002
3.239400e+002, 6.177158e+002
3.244221e+002, 6.185915e+002
3.249042e+002, 6.192604e+002
3.253864e+002, 6.187023e+002
3.258685e+002, 6.175411e+002
3.263506e+002, 6.170255e+002
3.268327e+002, 6.176232e+002
3.273148e+002, 6.186936e+002
3.277969e+002, 6.193007e+002
3.282791e+002, 6.194537e+002
3.287612e+002, 6.192998e+002
3.292433e+002, 6.186359e+002
3.297254e+002, 6.177835e+002
3.302075e+002, 6.171165e+002
3.306896e+002, 6.166996e+002
3.311718e+002, 6.163625e+002
3.316539e+002, 6.158593e+002
3.321360e+002, 6.151778e+002
3.326181e+002, 6.149914e+002
3.331002e+002, 6.161827e+002
3.335823e+002, 6.172230e+002
3.340645e+002, 6.164586e+002
3.345466e+002, 6.141468e+002
3.350287e+002, 6.125176e+002
3.355108e+002, 6.133938e+002
3.359929e+002, 6.163124e+002
3.364750e+002, 6.177004e+002
3.369572e+002, 6.162443e+002
3.374393e+002, 6.148363e+002
3.379214e+002, 6.149167e+002
3.384035e+002, 6.159796e+002
3.388856e+002, 6.167661e+002
3.393677e+002, 6.166573e+002
3.398499e+002, 6.159999e+002
3.403320e+002, 6.157328e+002
3.408141e+002, 6.160380e+002
3.412962e+002, 6.163304e+002
3.417783e+002, 6.165313e+002
3.422604e+002, 6.166475e+002
3.427426e+002, 6.166445e+002
3.432247e+002, 6.165125e+002
3.437068e+002, 6.163777e+002
3.441889e+002, 6.164042e+002
3.446710e+002, 6.166114e+002
3.451531e+002, 6.170023e+002
3.456353e+002, 6.178506e+002
3.461174e+002, 6.186945e+002
3.465995e+002, 6.191671e+002
3.470816e+002, 6.192507e+002
3.475637e+002, 6.191509e+002
3.480458e+002, 6.190190e+002
3.485280e+002, 6.188497e+002
3.490101e+002, 6.188225e+002
3.494922e+002, 6.192054e+002
3.499743e+002, 6.194424e+002
3.504564e+002, 6.189893e+002
3.509385e+002, 6.181953e+002
3.514207e+002, 6.179073e+002
3.519028e+002, 6.186625e+002
3.523849e+002, 6.202052e+002
3.528670e+002, 6.214525e+002
3.533491e+002, 6.224433e+002
3.538312e+002, 6.230953e+002
3.543134e+002, 6.231359e+002
3.547955e+002, 6.229349e+002
3.552776e+002, 6.229633e+002
3.557597e+002, 6.233776e+002
3.562418e+002, 6.239026e+002
3.567239e+002, 6.240242e+002
3.572061e+002, 6.231570e+002
3.576882e+002, 6.231373e+002
3.581703e+002, 6.249735e+002
3.586524e+002, 6.268217e+002
3.591345e+002, 6.273185e+002
3.596166e+002, 6.264361e+002
3.600987e+002, 6.250570e+002
3.605808e+002, 6.239896e+002
3.610630e+002, 6.232365e+002
3.615451e+002, 6.227682e+002
3.620272e+002, 6.228929e+002
3.625093e+002, 6.229612e+002
3.629914e+002, 6.226317e+002
3.634735e+002, 6.220950e+002
3.639557e+002, 6.217437e+002
3.644378e+002, 6.218239e+002
3.649199e+002, 6.222452e+002
3.654020e+002, 6.226536e+002
3.658841e+002, 6.235416e+002
3.663662e+002, 6.236763e+002
3.668484e+002, 6.221257e+002
3.673305e+002, 6.201998e+002
3.678126e+002, 6.192309e+002
3.682947e+002, 6.196275e+002
3.687768e+002, 6.207255e+002
3.692589e+002, 6.216470e+002
3.697411e+002, 6.226495e+002
3.702232e+002, 6.227109e+002
3.707053e+002, 6.206080e+002
3.711874e+002, 6.186116e+002
3.716695e+002, 6.179090e+002
3.721516e+002, 6.184929e+002
3.726338e+002, 6.196730e+002
3.731159e+002, 6.210059e+002
3.735980e+002, 6.224717e+002
3.740801e+002, 6.235076e+002
3.745622e+002, 6.240732e+002
3.750443e+002, 6.241884e+002
3.755265e+002, 6.233818e+002
3.760086e+002, 6.222649e+002
3.764907e+002, 6.218585e+002
3.769728e+002, 6.227955e+002
3.774549e+002, 6.243849e+002
3.779370e+002, 6.250287e+002
3.784192e+002, 6.243854e+002
3.789013e+002, 6.237582e+002
3.793834e+002, 6.233644e+002
3.798655e+002, 6.232116e+002
3.803476e+002, 6.233681e+002
3.808297e+002, 6.238448e+002
3.813119e+002, 6.244799e+002
3.817940e+002, 6.251090e+002
3.822761e+002, 6.257365e+002
3.827582e+002, 6.265008e+002
3.832403e+002, 6.276137e+002
3.837224e+002, 6.286320e+002
3.842046e+002, 6.292773e+002
3.846867e+002, 6.295944e+002
3.851688e+002, 6.297678e+002
3.856509e+002, 6.295845e+002
3.861330e+002, 6.293749e+002
3.866151e+002, 6.300934e+002
3.870973e+002, 6.320485e+002
3.875794e+002, 6.337985e+002
3.880615e+002, 6.341712e+002
3.885436e+002, 6.339104e+002
3.890257e+002, 6.340751e+002
3.895078e+002, 6.350098e+002
3.899900e+002, 6.361320e+002
3.904721e+002, 6.369954e+002
3.909542e+002, 6.376107e+002
3.914363e+002, 6.380453e+002
3.919184e+002, 6.383044e+002
3.924005e+002, 6.383997e+002
3.928827e+002, 6.383527e+002
3.933648e+002, 6.381671e+002
3.938469e+002, 6.378982e+002
3.943290e+002, 6.375368e+002
3.948111e+002, 6.371207e+002
3.952932e+002, 6.367344e+002
3.957754e+002, 6.363974e+002
3.962575e+002, 6.360025e+002
3.967396e+002, 6.354096e+002
3.972217e+002, 6.346467e+002
3.977038e+002, 6.340115e+002
3.981859e+002, 6.335841e+002
3.986681e+002, 6.332258e+002
3.991501e+002, 6.328113e+002
3.996323e+002, 6.323777e+002
4.001144e+002, 6.320789e+002
4.005965e+002, 6.320114e+002
4.010786e+002, 6.320919e+002
4.015607e+002, 6.320642e+002
4.020428e+002, 6.316462e+002
4.025250e+002, 6.316101e+002
4.030071e+002, 6.324050e+002
4.034892e+002, 6.335031e+002
4.039713e+002, 6.342299e+002
4.044534e+002, 6.344484e+002
4.049355e+002, 6.345988e+002
4.054177e+002, 6.351838e+002
4.058998e+002, 6.362557e+002
4.063819e+002, 6.375607e+002
4.068640e+002, 6.394163e+002
4.073461e+002, 6.411703e+002
4.078282e+002, 6.422615e+002
4.083104e+002, 6.429792e+002
4.087925e+002, 6.440799e+002
4.092746e+002, 6.460720e+002
4.097567e+002, 6.487737e+002
4.102388e+002, 6.513676e+002
4.107209e+002, 6.535554e+002
4.112031e+002, 6.560298e+002
4.116852e+002, 6.591243e+002
4.121673e+002, 6.623743e+002
4.126494e+002, 6.651974e+002
4.131315e+002, 6.675057e+002
4.136136e+002, 6.698798e+002
4.140958e+002, 6.732220e+002
4.145779e+002, 6.779359e+002
4.150600e+002, 6.820602e+002
4.155421e+002, 6.847411e+002
