##NAMES=Bystrite
##RRUFFID=R060642
##IDEAL CHEMISTRY=(Na,K)_7_Ca(Si_6_Al_6_)O_24_(S_3_)^2-^_1.5_&#183;H_2_O
##LOCALITY=Malaya Bystvaya, Lapis Deposit, Baikal, Russia
##OWNER=RRUFF
##SOURCE=Michael Scott
##DESCRIPTION=Yellowish-brown granular associated with blue lazurite and white calcite
##STATUS=The identification of this mineral has been confirmed only by single crystal X-ray diffraction.
##URL=rruff.info/R060642
114.772, 8513.949
115.254, 9001.719
115.736, 9502.205
116.218, 10013.370
116.700, 10525.390
117.182, 11044.070
117.664, 11557.270
118.147, 12063.920
118.629, 12571.770
119.111, 13052.330
119.593, 13480.030
120.075, 13868.170
120.557, 14236.540
121.039, 14598.100
121.521, 14941.530
122.004, 15260.260
122.486, 15558.990
122.968, 15819.840
123.450, 16009.580
123.932, 16142.030
124.414, 16259.390
124.896, 16366.060
125.378, 16480.410
125.860, 16633.250
126.343, 16852.359
126.825, 17099.939
127.307, 17351.961
127.789, 17606.131
128.271, 17798.490
128.753, 17809.061
129.235, 17688.430
129.717, 17624.061
130.200, 17707.391
130.682, 17905.869
131.164, 18117.561
131.646, 18345.461
132.128, 18581.930
132.610, 18822.359
133.092, 19066.510
133.574, 19311.340
134.057, 19552.840
134.539, 19791.721
135.021, 20024.830
135.503, 20247.520
135.985, 20469.211
136.467, 20719.961
136.949, 21008.539
137.431, 21296.779
137.913, 21565.770
138.396, 21817.711
138.878, 22043.539
139.360, 22245.150
139.842, 22423.230
140.324, 22561.400
140.806, 22645.500
141.288, 22718.730
141.770, 22829.711
142.253, 23004.500
142.735, 23156.180
143.217, 23257.449
143.699, 23297.641
144.181, 23367.750
144.663, 23468.141
145.145, 23597.430
145.627, 23753.631
146.109, 23957.420
146.592, 24160.119
147.074, 24346.051
147.556, 24495.221
148.038, 24664.480
148.520, 24861.711
149.002, 25075.600
149.484, 25279.080
149.966, 25449.619
150.449, 25624.930
150.931, 25822.141
151.413, 26080.449
151.895, 26314.891
152.377, 26510.420
152.859, 26675.131
153.341, 26855.910
153.823, 27089.340
154.305, 27325.420
154.788, 27533.311
155.270, 27662.779
155.752, 27813.920
156.234, 28011.570
156.716, 28256.211
157.198, 28512.119
157.680, 28767.039
158.162, 29033.711
158.645, 29325.590
159.127, 29678.320
159.609, 30027.900
160.091, 30340.391
160.573, 30597.250
161.055, 30874.260
161.537, 31202.279
162.019, 31564.961
162.501, 31939.240
162.984, 32315.051
163.466, 32697.961
163.948, 33106.910
164.430, 33573.770
164.912, 33981.539
165.394, 34237.352
165.876, 34383.371
166.358, 34528.230
166.840, 34725.371
167.323, 34946.488
167.805, 35169.699
168.287, 35402.711
168.769, 35622.551
169.251, 35812.441
169.733, 35978.191
170.215, 36144.449
170.697, 36318.090
171.180, 36504.480
171.662, 36711.602
172.144, 36952.449
172.626, 37205.031
173.108, 37447.609
173.590, 37681.078
174.072, 37926.031
174.554, 38171.781
175.036, 38439.230
175.519, 38765.801
176.001, 39212.281
176.483, 39709.039
176.965, 40153.551
177.447, 40541.809
177.929, 40936.910
178.411, 41408.172
178.893, 41943.789
179.376, 42496.309
179.858, 43050.629
180.340, 43614.191
180.822, 44190.859
181.304, 44796.320
181.786, 45388.941
182.268, 45928.289
182.750, 46419.250
183.232, 46875.070
183.715, 47328.109
184.197, 47755.660
184.679, 48076.359
185.161, 48229.211
185.643, 48362.180
186.125, 48831.500
186.607, 49619.738
187.089, 50251.750
187.572, 50370.078
188.054, 50033.109
188.536, 49520.980
189.018, 48821.621
189.500, 48024.730
189.982, 47325.020
190.464, 46722.352
190.946, 46134.441
191.428, 45498.160
191.911, 44815.789
192.393, 44074.781
192.875, 43253.719
193.357, 42377.488
193.839, 41541.961
194.321, 40759.359
194.803, 39971.520
195.285, 39116.809
195.768, 38193.789
196.250, 37287.109
196.732, 36425.219
197.214, 35594.680
197.696, 34786.090
198.178, 33998.871
198.660, 33222.641
199.142, 32440.881
199.624, 31654.561
200.107, 30880.439
200.589, 30123.180
201.071, 29379.270
201.553, 28691.020
202.035, 28065.910
202.517, 27473.570
202.999, 26860.580
203.481, 26216.420
203.964, 25596.109
204.446, 25028.020
204.928, 24518.240
205.410, 24003.650
205.892, 23481.061
206.374, 22962.090
206.856, 22475.480
207.338, 22023.891
207.820, 21595.869
208.303, 21187.051
208.785, 20798.289
209.267, 20423.061
209.749, 20066.490
210.231, 19728.279
210.713, 19416.760
211.195, 19135.801
211.677, 18874.961
212.160, 18627.230
212.642, 18393.609
213.124, 18179.840
213.606, 17989.051
214.088, 17819.740
214.570, 17672.480
215.052, 17558.939
215.534, 17448.119
216.016, 17313.029
216.499, 17135.410
216.981, 16989.410
217.463, 16884.240
217.945, 16817.279
218.427, 16684.742
218.909, 16552.207
219.391, 16419.672
219.873, 16287.109
220.355, 16154.574
220.838, 16022.038
221.320, 15889.502
221.802, 15756.966
222.284, 15624.430
222.766, 15438.570
223.248, 15282.480
223.730, 15140.910
224.212, 15011.220
224.695, 14906.800
225.177, 14838.810
225.659, 14807.810
226.141, 14761.400
226.623, 14681.370
227.105, 14604.120
227.587, 14570.280
228.069, 14606.200
228.551, 14632.680
229.034, 14626.870
229.516, 14583.230
229.998, 14565.860
230.480, 14590.630
230.962, 14626.610
231.444, 14635.920
231.926, 14601.010
232.408, 14570.180
232.891, 14551.760
233.373, 14543.840
233.855, 14548.017
234.337, 14580.646
234.819, 14606.365
235.301, 14625.551
235.783, 14618.629
236.265, 14645.419
236.747, 14658.702
237.230, 14671.429
237.712, 14702.963
238.194, 14699.839
238.676, 14729.230
239.158, 14756.590
239.640, 14825.970
240.122, 14907.410
240.604, 14990.700
241.087, 15070.820
241.569, 15173.190
242.051, 15310.440
242.533, 15461.810
243.015, 15587.630
243.497, 15666.610
243.979, 15753.580
244.461, 15871.150
244.943, 16035.520
245.426, 16176.610
245.908, 16280.530
246.390, 16366.280
246.872, 16475.150
247.354, 16625.320
247.836, 16768.609
248.318, 16887.789
248.800, 16976.439
249.283, 17057.400
249.765, 17126.820
250.247, 17190.061
250.729, 17264.930
251.211, 17492.990
251.693, 17690.791
252.175, 17840.941
252.657, 17943.439
253.139, 17998.285
253.622, 18005.477
254.104, 17965.010
254.586, 17876.893
255.068, 17741.125
255.550, 17557.703
256.032, 17344.510
256.514, 17202.910
256.996, 17060.910
257.478, 16921.221
257.961, 16780.061
258.443, 16630.631
258.925, 16468.010
259.407, 16305.430
259.889, 16150.460
260.371, 16003.410
260.853, 15855.890
261.335, 15701.410
261.818, 15548.640
262.300, 15430.620
262.782, 15359.760
263.264, 15292.870
263.746, 15204.340
264.228, 15082.300
264.710, 14982.790
265.192, 14911.150
265.674, 14861.150
266.157, 14821.780
266.639, 14798.330
267.121, 14773.150
267.603, 14739.850
268.085, 14699.910
268.567, 14643.750
269.049, 14565.340
269.531, 14474.310
270.013, 14398.380
270.496, 14348.120
270.978, 14283.120
271.460, 14183.070
271.942, 14044.280
272.424, 13886.180
272.906, 13706.980
273.388, 13511.350
273.871, 13308.020
274.353, 13093.330
274.835, 12892.130
275.317, 12722.450
275.799, 12586.260
276.281, 12446.180
276.763, 12296.210
277.245, 12146.010
277.727, 12017.150
278.210, 11909.710
278.692, 11814.730
279.174, 11727.470
279.656, 11647.880
280.138, 11572.960
280.620, 11501.110
281.102, 11435.590
281.584, 11383.010
282.066, 11343.450
282.549, 11313.980
283.031, 11297.910
283.513, 11294.210
283.995, 11279.090
284.477, 11247.410
284.959, 11211.930
285.441, 11200.270
285.923, 11213.470
286.405, 11219.890
286.888, 11198.170
287.370, 11152.550
287.852, 11110.400
288.334, 11070.150
288.816, 11041.470
289.298, 11048.450
289.780, 11088.950
290.263, 11125.590
290.745, 11135.650
291.227, 11124.920
291.709, 11116.030
292.191, 11110.070
292.673, 11105.960
293.155, 11100.580
293.637, 11094.750
294.119, 11094.620
294.602, 11114.950
295.084, 11143.140
295.566, 11138.930
296.048, 11095.490
296.530, 11048.320
297.012, 11044.850
297.494, 11076.140
297.976, 11105.760
298.458, 11112.380
298.941, 11106.890
299.423, 11107.090
299.905, 11113.660
300.387, 11126.480
300.869, 11148.420
301.351, 11176.620
301.833, 11203.770
302.315, 11224.380
302.797, 11241.770
303.280, 11259.730
303.762, 11278.160
304.244, 11295.770
304.726, 11310.250
305.208, 11322.820
305.690, 11336.280
306.172, 11349.550
306.654, 11365.230
307.137, 11391.240
307.619, 11427.600
308.101, 11455.560
308.583, 11455.030
309.065, 11439.780
309.547, 11429.380
310.029, 11438.600
310.511, 11450.870
310.993, 11452.870
311.476, 11445.280
311.958, 11440.350
312.440, 11442.870
312.922, 11452.690
313.404, 11469.580
313.886, 11505.340
314.368, 11537.910
314.850, 11553.710
315.333, 11554.520
315.815, 11554.660
316.297, 11559.160
316.779, 11566.470
317.261, 11575.330
317.743, 11587.010
318.225, 11598.870
318.707, 11612.520
319.190, 11626.790
319.672, 11634.990
320.154, 11621.820
320.636, 11610.290
321.118, 11615.320
321.600, 11651.960
322.082, 11690.160
322.564, 11723.490
323.046, 11753.130
323.529, 11782.990
324.011, 11819.310
324.493, 11851.510
324.975, 11874.570
325.457, 11887.610
325.939, 11891.670
326.421, 11870.760
326.903, 11839.670
327.385, 11836.720
327.868, 11898.750
328.350, 11958.660
328.832, 11988.810
329.314, 11947.990
329.796, 11961.140
330.278, 11944.764
330.760, 11974.871
331.242, 11993.695
331.724, 12001.842
332.207, 11967.333
332.689, 11987.907
333.171, 11986.405
333.653, 11983.998
334.135, 12012.323
334.617, 11984.019
335.099, 12011.856
335.582, 12013.180
336.064, 12009.130
336.546, 12012.030
337.028, 12022.290
337.510, 12033.060
337.992, 12043.510
338.474, 12055.490
338.956, 12072.930
339.438, 12098.590
339.921, 12115.660
340.403, 12115.850
340.885, 12102.570
341.367, 12103.270
341.849, 12120.460
342.331, 12143.020
342.813, 12159.290
343.295, 12169.570
343.777, 12185.220
344.260, 12212.840
344.742, 12245.520
345.224, 12259.110
345.706, 12252.450
346.188, 12248.670
346.670, 12271.590
347.152, 12315.120
347.634, 12348.440
348.116, 12360.320
348.599, 12368.610
349.081, 12408.350
349.563, 12475.900
350.045, 12541.760
350.527, 12584.070
351.009, 12610.670
351.491, 12636.850
351.973, 12663.110
352.456, 12692.220
352.938, 12730.050
353.420, 12773.550
353.902, 12813.630
354.384, 12849.880
354.866, 12878.540
355.348, 12894.840
355.830, 12897.740
356.312, 12895.100
356.795, 12882.690
357.277, 12870.550
357.759, 12875.140
358.241, 12928.850
358.723, 12983.840
359.205, 12998.860
359.687, 12971.390
360.169, 12957.820
360.652, 13002.950
361.134, 13069.920
361.616, 13120.110
362.098, 13122.910
362.580, 13124.300
363.062, 13145.940
363.544, 13184.990
364.026, 13212.420
364.509, 13202.490
364.991, 13188.430
365.473, 13192.420
365.955, 13241.280
366.437, 13282.410
366.919, 13296.160
367.401, 13293.240
367.883, 13315.460
368.365, 13398.130
368.848, 13481.390
369.330, 13539.160
369.812, 13556.030
370.294, 13574.930
370.776, 13592.850
371.258, 13613.490
371.740, 13646.250
372.222, 13705.000
372.704, 13754.610
373.187, 13774.140
373.669, 13748.240
374.151, 13775.590
374.633, 13884.140
375.115, 14013.710
375.597, 14081.630
376.079, 14068.670
376.561, 14060.100
377.043, 14079.620
377.526, 14124.670
378.008, 14170.920
378.490, 14218.240
378.972, 14266.820
379.454, 14317.910
379.936, 14372.100
380.418, 14424.500
380.901, 14476.910
381.383, 14525.900
381.865, 14559.140
382.347, 14576.570
382.829, 14598.190
383.311, 14636.510
383.793, 14690.660
384.275, 14758.100
384.757, 14842.730
385.240, 14931.910
385.722, 15003.690
386.204, 15064.060
386.686, 15133.700
387.168, 15231.730
387.650, 15342.950
388.132, 15450.830
388.614, 15554.980
389.096, 15641.720
389.579, 15682.600
390.061, 15699.250
390.543, 15728.250
391.025, 15799.740
391.507, 15877.730
391.989, 15940.930
392.471, 15988.900
392.953, 16028.820
393.435, 16045.630
393.918, 16064.960
394.400, 16110.140
394.882, 16219.610
395.364, 16322.430
395.846, 16391.020
396.328, 16434.330
396.810, 16490.619
397.292, 16576.250
397.775, 16670.500
398.257, 16763.631
398.739, 16855.711
399.221, 16942.381
399.703, 17000.740
400.185, 17056.430
400.667, 17162.439
401.149, 17356.689
401.632, 17552.770
402.114, 17720.461
402.596, 17849.920
403.078, 18005.730
403.560, 18200.039
404.042, 18409.961
404.524, 18602.850
405.006, 18770.680
405.488, 18952.990
405.971, 19155.820
406.453, 19381.400
406.935, 19643.721
407.417, 19953.420
407.899, 20265.779
408.381, 20537.740
408.863, 20772.279
409.345, 21034.930
409.828, 21334.070
410.310, 21664.801
410.792, 22021.949
411.274, 22405.820
411.756, 22781.461
412.238, 23116.410
412.720, 23434.350
413.202, 23783.301
413.684, 24170.660
414.167, 24581.230
414.649, 24992.891
415.131, 25409.760
415.613, 25835.391
416.095, 26262.711
416.577, 26701.391
417.059, 27139.490
417.541, 27582.510
418.023, 28073.721
418.506, 28661.289
418.988, 29297.100
419.470, 29945.039
419.952, 30640.510
420.434, 31283.801
420.916, 31846.061
421.398, 32328.109
421.880, 32711.160
422.362, 32923.320
422.845, 33092.980
423.327, 33279.590
423.809, 33469.621
424.291, 33716.059
424.773, 34068.691
425.255, 34470.340
425.737, 34833.469
426.220, 35103.352
426.702, 35413.422
427.184, 35806.020
427.666, 36290.160
428.148, 36744.309
428.630, 37132.219
429.112, 37537.141
429.594, 38046.199
430.076, 38684.219
430.559, 39315.910
431.041, 39905.750
431.523, 40490.520
432.005, 41170.051
432.487, 41949.789
432.969, 42781.719
433.451, 43637.828
433.933, 44520.469
434.415, 45444.781
434.898, 46396.109
435.380, 47403.828
435.862, 48496.750
436.344, 49665.949
436.826, 50873.770
437.308, 52129.941
437.790, 53409.980
438.272, 54644.852
438.754, 55842.762
439.237, 57070.270
439.719, 58411.051
440.201, 59798.109
440.683, 61146.629
441.165, 62417.621
441.647, 63664.441
442.129, 64964.629
442.612, 66259.523
443.094, 67452.523
443.576, 68529.109
444.058, 69471.023
444.540, 70270.477
445.022, 70929.062
445.504, 71439.156
445.986, 71800.930
446.468, 72008.578
446.951, 72057.633
447.433, 71967.641
447.915, 71696.531
448.397, 71227.031
448.879, 70561.594
449.361, 69754.727
449.843, 68808.680
450.325, 67730.141
450.807, 66508.820
451.290, 65151.270
451.772, 63669.219
452.254, 62058.641
452.736, 60327.000
453.218, 58448.141
453.700, 56407.898
454.182, 54254.289
454.664, 51984.672
455.147, 49619.789
455.629, 47204.480
456.111, 44721.840
456.593, 42245.250
457.075, 39761.422
457.557, 37311.969
458.039, 34993.539
458.521, 32822.750
459.003, 30811.189
459.486, 29019.910
459.968, 27443.391
460.450, 26011.471
460.932, 24706.789
461.414, 23527.721
461.896, 22487.449
462.378, 21604.420
462.860, 20844.699
463.342, 20254.090
463.825, 19770.131
464.307, 19310.449
464.789, 18817.410
465.271, 18373.990
465.753, 18019.650
466.235, 17760.250
466.717, 17528.359
467.199, 17316.711
467.681, 17128.260
468.164, 16965.600
468.646, 16852.551
469.128, 16724.811
469.610, 16565.619
470.092, 16394.381
470.574, 16263.210
471.056, 16177.760
471.539, 16115.820
472.021, 16080.810
472.503, 16073.170
472.985, 16026.130
473.467, 15938.340
473.949, 15814.560
474.431, 15645.070
474.913, 15435.570
475.395, 15244.690
475.878, 15086.010
476.360, 14954.710
476.842, 14839.470
477.324, 14742.020
477.806, 14675.010
478.288, 14667.120
478.770, 14685.730
479.252, 14685.320
479.734, 14658.290
480.217, 14630.380
480.699, 14610.900
481.181, 14604.390
481.663, 14617.570
482.145, 14668.770
482.627, 14724.330
483.109, 14765.530
483.591, 14794.460
484.073, 14834.900
484.556, 14898.610
485.038, 14969.560
485.520, 15037.940
486.002, 15085.080
486.484, 15158.100
486.966, 15271.050
487.448, 15404.010
487.931, 15523.370
488.413, 15615.610
488.895, 15720.640
489.377, 15855.620
489.859, 16017.640
490.341, 16155.710
490.823, 16262.880
491.305, 16375.080
491.787, 16519.811
492.270, 16695.869
492.752, 16904.221
493.234, 17153.170
493.716, 17419.221
494.198, 17655.551
494.680, 17871.240
495.162, 18116.779
495.644, 18439.619
496.126, 18794.980
496.609, 19108.670
497.091, 19383.410
497.573, 19667.439
498.055, 20013.539
498.537, 20385.100
499.019, 20741.789
499.501, 21065.029
499.983, 21389.250
500.466, 21739.689
500.948, 22104.359
501.430, 22456.830
501.912, 22798.080
502.394, 23120.221
502.876, 23416.260
503.358, 23684.949
503.840, 23949.910
504.322, 24223.020
504.805, 24482.029
505.287, 24709.359
505.769, 24911.221
506.251, 25059.490
506.733, 25158.779
507.215, 25196.830
507.697, 25133.369
508.179, 24963.779
508.661, 24722.551
509.144, 24427.160
509.626, 24075.641
510.108, 23652.369
510.590, 23155.961
511.072, 22602.529
511.554, 21993.820
512.036, 21340.980
512.518, 20664.141
513.000, 19939.619
513.483, 19235.289
513.965, 18602.189
514.447, 18033.820
514.929, 17510.500
515.411, 17035.480
515.893, 16592.170
516.375, 16168.500
516.857, 15759.550
517.340, 15384.330
517.822, 15030.730
518.304, 14717.970
518.786, 14463.470
519.268, 14308.430
519.750, 14165.000
520.232, 14025.140
520.714, 13891.630
521.196, 13774.040
521.679, 13677.670
522.161, 13588.710
522.643, 13500.040
523.125, 13410.470
523.607, 13345.480
524.089, 13310.090
524.571, 13282.839
525.054, 13296.475
525.536, 13300.188
526.018, 13294.508
526.500, 13251.309
526.982, 13256.560
527.464, 13242.391
527.946, 13227.428
528.428, 13239.497
528.910, 13201.756
529.393, 13213.396
529.875, 13205.323
530.357, 13192.680
530.839, 13206.760
531.321, 13218.320
531.803, 13223.660
532.285, 13219.020
532.767, 13183.990
533.250, 13162.810
533.732, 13173.280
534.214, 13204.400
534.696, 13226.140
535.178, 13237.530
535.660, 13240.100
536.142, 13228.380
536.624, 13199.680
537.106, 13199.320
537.589, 13234.150
538.071, 13283.680
538.553, 13334.750
539.035, 13388.290
539.517, 13429.870
539.999, 13456.770
540.481, 13472.280
540.963, 13477.280
541.445, 13504.826
541.928, 13526.905
542.410, 13543.801
542.892, 13540.003
543.374, 13562.930
543.856, 13575.143
544.338, 13586.919
544.820, 13613.603
545.302, 13612.815
545.784, 13639.261
546.267, 13652.850
546.749, 13631.250
547.231, 13608.660
547.713, 13587.130
548.195, 13569.830
548.677, 13572.630
549.159, 13562.700
549.641, 13526.300
550.124, 13466.970
550.606, 13427.680
551.088, 13415.070
551.570, 13410.740
552.052, 13405.930
552.534, 13401.210
553.016, 13390.340
553.498, 13371.330
553.981, 13350.810
554.463, 13341.570
554.945, 13340.550
555.427, 13326.740
555.909, 13284.350
556.391, 13236.150
556.873, 13216.250
557.355, 13221.050
557.838, 13235.720
558.320, 13261.110
558.802, 13286.590
559.284, 13303.800
559.766, 13311.820
560.248, 13313.420
560.730, 13303.410
561.212, 13290.730
561.694, 13283.290
562.177, 13282.110
562.659, 13286.670
563.141, 13301.190
563.623, 13320.490
564.105, 13330.470
564.587, 13322.120
565.069, 13321.740
565.551, 13341.150
566.033, 13378.660
566.516, 13405.510
566.998, 13419.380
567.480, 13433.030
567.962, 13464.240
568.444, 13506.820
568.926, 13529.520
569.408, 13525.670
569.890, 13510.770
570.372, 13496.950
570.855, 13485.920
571.337, 13481.830
571.819, 13490.690
572.301, 13503.450
572.783, 13517.500
573.265, 13531.420
573.747, 13538.660
574.229, 13536.040
574.711, 13526.490
575.194, 13511.360
575.676, 13490.800
576.158, 13463.720
576.640, 13416.750
577.122, 13374.670
577.604, 13367.450
578.086, 13419.190
578.568, 13433.970
579.051, 13387.220
579.533, 13306.640
580.015, 13258.640
580.497, 13244.220
580.979, 13243.520
581.461, 13255.020
581.943, 13272.260
582.425, 13278.850
582.907, 13274.870
583.390, 13263.580
583.872, 13239.210
584.354, 13212.300
584.836, 13196.910
585.318, 13198.750
585.800, 13202.200
586.282, 13199.580
586.765, 13193.510
587.247, 13187.750
587.729, 13177.760
588.211, 13174.090
588.693, 13186.520
589.175, 13209.350
589.657, 13212.400
590.139, 13174.690
590.621, 13152.490
591.104, 13181.980
591.586, 13269.460
592.068, 13298.680
592.550, 13257.880
593.032, 13204.450
593.514, 13199.590
593.996, 13234.020
594.478, 13266.660
594.960, 13293.220
595.443, 13306.920
595.925, 13287.190
596.407, 13247.820
596.889, 13221.660
597.371, 13239.850
597.853, 13261.610
598.335, 13254.590
598.817, 13223.780
599.299, 13208.730
599.782, 13238.860
600.264, 13274.030
600.746, 13286.740
601.228, 13253.660
601.710, 13271.020
602.192, 13268.359
602.674, 13308.508
603.156, 13338.264
603.638, 13358.188
604.121, 13338.831
604.603, 13370.196
605.085, 13381.234
605.567, 13391.439
606.049, 13429.944
606.531, 13435.170
607.013, 13443.990
607.495, 13473.010
607.978, 13477.480
608.460, 13461.190
608.942, 13455.650
609.424, 13496.930
609.906, 13546.210
610.388, 13570.180
610.870, 13556.970
