##NAMES=Cabalzarite
##RRUFFID=R060658
##IDEAL CHEMISTRY=CaMg_2_(As^5+^O_4_)_2_&#183;2H_2_O
##LOCALITY=Falotta, Switzerland
##OWNER=RRUFF
##SOURCE=Michael Scott
##DESCRIPTION=Orange bleb
##STATUS=The identification of this mineral has been confirmed by single-crystal X-ray diffraction.
##URL=rruff.info/R060658
9.059570e+001, 1.538374e+003
9.107782e+001, 1.530904e+003
9.155994e+001, 1.528323e+003
9.204205e+001, 1.534398e+003
9.252417e+001, 1.542799e+003
9.300629e+001, 1.551507e+003
9.348840e+001, 1.551770e+003
9.397052e+001, 1.534069e+003
9.445264e+001, 1.495904e+003
9.493475e+001, 1.457482e+003
9.541687e+001, 1.420887e+003
9.589898e+001, 1.386866e+003
9.638110e+001, 1.355394e+003
9.686321e+001, 1.326290e+003
9.734533e+001, 1.298463e+003
9.782745e+001, 1.269663e+003
9.830956e+001, 1.244920e+003
9.879168e+001, 1.224925e+003
9.927380e+001, 1.207013e+003
9.975591e+001, 1.190840e+003
1.002380e+002, 1.175884e+003
1.007201e+002, 1.161291e+003
1.012023e+002, 1.146489e+003
1.016844e+002, 1.131539e+003
1.021665e+002, 1.116942e+003
1.026486e+002, 1.101823e+003
1.031307e+002, 1.087325e+003
1.036128e+002, 1.074330e+003
1.040950e+002, 1.062598e+003
1.045771e+002, 1.052762e+003
1.050592e+002, 1.046453e+003
1.055413e+002, 1.041832e+003
1.060234e+002, 1.036231e+003
1.065055e+002, 1.027175e+003
1.069877e+002, 1.015933e+003
1.074698e+002, 1.008171e+003
1.079519e+002, 1.007511e+003
1.084340e+002, 1.005832e+003
1.089161e+002, 9.999043e+002
1.093982e+002, 9.902772e+002
1.098804e+002, 9.786342e+002
1.103625e+002, 9.657678e+002
1.108446e+002, 9.509788e+002
1.113267e+002, 9.389291e+002
1.118088e+002, 9.306215e+002
1.122909e+002, 9.238798e+002
1.127731e+002, 9.181252e+002
1.132552e+002, 9.130961e+002
1.137373e+002, 9.084691e+002
1.142194e+002, 9.038283e+002
1.147015e+002, 8.988369e+002
1.151836e+002, 8.944355e+002
1.156658e+002, 8.913568e+002
1.161479e+002, 8.884940e+002
1.166300e+002, 8.846282e+002
1.171121e+002, 8.792740e+002
1.175942e+002, 8.731122e+002
1.180763e+002, 8.677976e+002
1.185584e+002, 8.635674e+002
1.190406e+002, 8.594171e+002
1.195227e+002, 8.549246e+002
1.200048e+002, 8.502716e+002
1.204869e+002, 8.459091e+002
1.209690e+002, 8.420200e+002
1.214511e+002, 8.386385e+002
1.219333e+002, 8.356122e+002
1.224154e+002, 8.329612e+002
1.228975e+002, 8.306082e+002
1.233796e+002, 8.287880e+002
1.238617e+002, 8.276170e+002
1.243438e+002, 8.259080e+002
1.248260e+002, 8.229122e+002
1.253081e+002, 8.191326e+002
1.257902e+002, 8.146809e+002
1.262723e+002, 8.092634e+002
1.267544e+002, 8.036537e+002
1.272365e+002, 7.997794e+002
1.277187e+002, 7.986119e+002
1.282008e+002, 7.976670e+002
1.286829e+002, 7.962194e+002
1.291650e+002, 7.944787e+002
1.296471e+002, 7.927938e+002
1.301292e+002, 7.914571e+002
1.306114e+002, 7.904025e+002
1.310935e+002, 7.885983e+002
1.315756e+002, 7.852641e+002
1.320577e+002, 7.818790e+002
1.325398e+002, 7.787438e+002
1.330219e+002, 7.758557e+002
1.335041e+002, 7.730911e+002
1.339862e+002, 7.703020e+002
1.344683e+002, 7.674094e+002
1.349504e+002, 7.650724e+002
1.354325e+002, 7.637672e+002
1.359146e+002, 7.625206e+002
1.363968e+002, 7.605470e+002
1.368789e+002, 7.578637e+002
1.373610e+002, 7.553152e+002
1.378431e+002, 7.539040e+002
1.383252e+002, 7.538464e+002
1.388073e+002, 7.541213e+002
1.392895e+002, 7.549940e+002
1.397716e+002, 7.560467e+002
1.402537e+002, 7.568923e+002
1.407358e+002, 7.575002e+002
1.412179e+002, 7.576656e+002
1.417000e+002, 7.570076e+002
1.421821e+002, 7.556276e+002
1.426643e+002, 7.539159e+002
1.431464e+002, 7.517261e+002
1.436285e+002, 7.492598e+002
1.441106e+002, 7.472166e+002
1.445927e+002, 7.457390e+002
1.450748e+002, 7.448239e+002
1.455570e+002, 7.443643e+002
1.460391e+002, 7.443592e+002
1.465212e+002, 7.447044e+002
1.470033e+002, 7.453896e+002
1.474854e+002, 7.464467e+002
1.479675e+002, 7.475424e+002
1.484497e+002, 7.491166e+002
1.489318e+002, 7.503876e+002
1.494139e+002, 7.506100e+002
1.498960e+002, 7.496933e+002
1.503781e+002, 7.485564e+002
1.508602e+002, 7.486046e+002
1.513424e+002, 7.503487e+002
1.518245e+002, 7.522576e+002
1.523066e+002, 7.541650e+002
1.527887e+002, 7.561472e+002
1.532708e+002, 7.583398e+002
1.537529e+002, 7.607727e+002
1.542351e+002, 7.633074e+002
1.547172e+002, 7.655658e+002
1.551993e+002, 7.664094e+002
1.556814e+002, 7.684183e+002
1.561635e+002, 7.726446e+002
1.566456e+002, 7.778129e+002
1.571278e+002, 7.823895e+002
1.576099e+002, 7.856025e+002
1.580920e+002, 7.877408e+002
1.585741e+002, 7.899894e+002
1.590562e+002, 7.927487e+002
1.595383e+002, 7.951625e+002
1.600205e+002, 7.966617e+002
1.605026e+002, 7.976178e+002
1.609847e+002, 7.989219e+002
1.614668e+002, 8.011389e+002
1.619489e+002, 8.040690e+002
1.624310e+002, 8.066669e+002
1.629131e+002, 8.087421e+002
1.633953e+002, 8.106923e+002
1.638774e+002, 8.127169e+002
1.643595e+002, 8.148115e+002
1.648416e+002, 8.168830e+002
1.653237e+002, 8.188456e+002
1.658058e+002, 8.207560e+002
1.662880e+002, 8.227590e+002
1.667701e+002, 8.250580e+002
1.672522e+002, 8.273195e+002
1.677343e+002, 8.289617e+002
1.682164e+002, 8.297762e+002
1.686985e+002, 8.309535e+002
1.691807e+002, 8.333300e+002
1.696628e+002, 8.364355e+002
1.701449e+002, 8.398269e+002
1.706270e+002, 8.433737e+002
1.711091e+002, 8.470701e+002
1.715912e+002, 8.509938e+002
1.720734e+002, 8.554852e+002
1.725555e+002, 8.595395e+002
1.730376e+002, 8.625645e+002
1.735197e+002, 8.650545e+002
1.740018e+002, 8.678926e+002
1.744839e+002, 8.719793e+002
1.749661e+002, 8.767902e+002
1.754482e+002, 8.789884e+002
1.759303e+002, 8.767507e+002
1.764124e+002, 8.736328e+002
1.768945e+002, 8.705616e+002
1.773766e+002, 8.673395e+002
1.778588e+002, 8.636693e+002
1.783409e+002, 8.594935e+002
1.788230e+002, 8.548125e+002
1.793051e+002, 8.475425e+002
1.797872e+002, 8.357147e+002
1.802693e+002, 8.232517e+002
1.807515e+002, 8.110577e+002
1.812336e+002, 7.991649e+002
1.817157e+002, 7.873433e+002
1.821978e+002, 7.753030e+002
1.826799e+002, 7.629220e+002
1.831620e+002, 7.516967e+002
1.836441e+002, 7.417611e+002
1.841263e+002, 7.325452e+002
1.846084e+002, 7.239719e+002
1.850905e+002, 7.159548e+002
1.855726e+002, 7.082662e+002
1.860547e+002, 7.007238e+002
1.865368e+002, 6.933342e+002
1.870190e+002, 6.864297e+002
1.875011e+002, 6.800145e+002
1.879832e+002, 6.741064e+002
1.884653e+002, 6.688620e+002
1.889474e+002, 6.642955e+002
1.894296e+002, 6.599562e+002
1.899117e+002, 6.552616e+002
1.903938e+002, 6.502832e+002
1.908759e+002, 6.461910e+002
1.913580e+002, 6.435855e+002
1.918401e+002, 6.417352e+002
1.923223e+002, 6.399197e+002
1.928044e+002, 6.380888e+002
1.932865e+002, 6.361142e+002
1.937686e+002, 6.336908e+002
1.942507e+002, 6.309656e+002
1.947328e+002, 6.284203e+002
1.952150e+002, 6.260515e+002
1.956971e+002, 6.239737e+002
1.961792e+002, 6.224332e+002
1.966613e+002, 6.215284e+002
1.971434e+002, 6.210170e+002
1.976255e+002, 6.208900e+002
1.981077e+002, 6.210017e+002
1.985898e+002, 6.209827e+002
1.990719e+002, 6.206448e+002
1.995540e+002, 6.200181e+002
2.000361e+002, 6.191598e+002
2.005182e+002, 6.176495e+002
2.010004e+002, 6.165352e+002
2.014825e+002, 6.164667e+002
2.019646e+002, 6.171912e+002
2.024467e+002, 6.180845e+002
2.029288e+002, 6.187477e+002
2.034109e+002, 6.191971e+002
2.038930e+002, 6.196436e+002
2.043752e+002, 6.197880e+002
2.048573e+002, 6.202825e+002
2.053394e+002, 6.215427e+002
2.058215e+002, 6.233620e+002
2.063036e+002, 6.252440e+002
2.067857e+002, 6.267426e+002
2.072679e+002, 6.278264e+002
2.077500e+002, 6.291594e+002
2.082321e+002, 6.307382e+002
2.087142e+002, 6.325927e+002
2.091963e+002, 6.348791e+002
2.096784e+002, 6.374788e+002
2.101606e+002, 6.400792e+002
2.106427e+002, 6.423289e+002
2.111248e+002, 6.440824e+002
2.116069e+002, 6.466769e+002
2.120890e+002, 6.510027e+002
2.125711e+002, 6.552468e+002
2.130533e+002, 6.586614e+002
2.135354e+002, 6.613191e+002
2.140175e+002, 6.637383e+002
2.144996e+002, 6.663523e+002
2.149817e+002, 6.691596e+002
2.154638e+002, 6.722610e+002
2.159460e+002, 6.759766e+002
2.164281e+002, 6.796442e+002
2.169102e+002, 6.829050e+002
2.173923e+002, 6.857850e+002
2.178744e+002, 6.886098e+002
2.183565e+002, 6.916708e+002
2.188387e+002, 6.950103e+002
2.193208e+002, 6.981647e+002
2.198029e+002, 7.009207e+002
2.202850e+002, 7.036991e+002
2.207671e+002, 7.067500e+002
2.212492e+002, 7.100812e+002
2.217314e+002, 7.135908e+002
2.222135e+002, 7.172724e+002
2.226956e+002, 7.211210e+002
2.231777e+002, 7.245707e+002
2.236598e+002, 7.272842e+002
2.241419e+002, 7.298556e+002
2.246240e+002, 7.328905e+002
2.251062e+002, 7.363849e+002
2.255883e+002, 7.395478e+002
2.260704e+002, 7.416039e+002
2.265525e+002, 7.426545e+002
2.270346e+002, 7.438948e+002
2.275167e+002, 7.455591e+002
2.279989e+002, 7.473389e+002
2.284810e+002, 7.489131e+002
2.289631e+002, 7.502595e+002
2.294452e+002, 7.516325e+002
2.299273e+002, 7.534831e+002
2.304094e+002, 7.554811e+002
2.308916e+002, 7.567155e+002
2.313737e+002, 7.567487e+002
2.318558e+002, 7.561018e+002
2.323379e+002, 7.553221e+002
2.328200e+002, 7.544208e+002
2.333021e+002, 7.533069e+002
2.337843e+002, 7.519880e+002
2.342664e+002, 7.503848e+002
2.347485e+002, 7.483036e+002
2.352306e+002, 7.455897e+002
2.357127e+002, 7.424628e+002
2.361948e+002, 7.392909e+002
2.366770e+002, 7.361661e+002
2.371591e+002, 7.325199e+002
2.376412e+002, 7.277133e+002
2.381233e+002, 7.223085e+002
2.386054e+002, 7.168225e+002
2.390875e+002, 7.114211e+002
2.395697e+002, 7.059904e+002
2.400518e+002, 7.002707e+002
2.405339e+002, 6.940268e+002
2.410160e+002, 6.881839e+002
2.414981e+002, 6.834730e+002
2.419802e+002, 6.791573e+002
2.424624e+002, 6.746005e+002
2.429445e+002, 6.696198e+002
2.434266e+002, 6.642517e+002
2.439087e+002, 6.583645e+002
2.443908e+002, 6.515329e+002
2.448729e+002, 6.453905e+002
2.453550e+002, 6.409296e+002
2.458372e+002, 6.370220e+002
2.463193e+002, 6.327162e+002
2.468014e+002, 6.276703e+002
2.472835e+002, 6.222821e+002
2.477656e+002, 6.171577e+002
2.482477e+002, 6.124235e+002
2.487299e+002, 6.076844e+002
2.492120e+002, 6.025020e+002
2.496941e+002, 5.975094e+002
2.501762e+002, 5.933273e+002
2.506583e+002, 5.901183e+002
2.511404e+002, 5.873884e+002
2.516226e+002, 5.842328e+002
2.521047e+002, 5.803115e+002
2.525868e+002, 5.767928e+002
2.530689e+002, 5.738304e+002
2.535510e+002, 5.712036e+002
2.540331e+002, 5.687138e+002
2.545153e+002, 5.663312e+002
2.549974e+002, 5.641931e+002
2.554795e+002, 5.625976e+002
2.559616e+002, 5.620833e+002
2.564437e+002, 5.609373e+002
2.569258e+002, 5.584410e+002
2.574080e+002, 5.559197e+002
2.578901e+002, 5.544662e+002
2.583722e+002, 5.541616e+002
2.588543e+002, 5.540394e+002
2.593364e+002, 5.527021e+002
2.598185e+002, 5.493607e+002
2.603007e+002, 5.467955e+002
2.607828e+002, 5.448256e+002
2.612649e+002, 5.435525e+002
2.617470e+002, 5.434812e+002
2.622291e+002, 5.444089e+002
2.627112e+002, 5.453044e+002
2.631934e+002, 5.449203e+002
2.636755e+002, 5.427693e+002
2.641576e+002, 5.410656e+002
2.646397e+002, 5.398925e+002
2.651218e+002, 5.389977e+002
2.656039e+002, 5.383535e+002
2.660861e+002, 5.378948e+002
2.665682e+002, 5.374534e+002
2.670503e+002, 5.368332e+002
2.675324e+002, 5.359506e+002
2.680145e+002, 5.354810e+002
2.684966e+002, 5.357212e+002
2.689788e+002, 5.360135e+002
2.694609e+002, 5.360658e+002
2.699430e+002, 5.358792e+002
2.704251e+002, 5.355703e+002
2.709072e+002, 5.352081e+002
2.713893e+002, 5.347874e+002
2.718715e+002, 5.345635e+002
2.723536e+002, 5.346876e+002
2.728357e+002, 5.348149e+002
2.733178e+002, 5.347535e+002
2.737999e+002, 5.345660e+002
2.742820e+002, 5.344374e+002
2.747642e+002, 5.344881e+002
2.752463e+002, 5.347108e+002
2.757284e+002, 5.350317e+002
2.762105e+002, 5.359316e+002
2.766926e+002, 5.364008e+002
2.771747e+002, 5.356876e+002
2.776568e+002, 5.342753e+002
2.781389e+002, 5.333115e+002
2.786211e+002, 5.334979e+002
2.791032e+002, 5.344887e+002
2.795853e+002, 5.347749e+002
2.800674e+002, 5.336812e+002
2.805495e+002, 5.328280e+002
2.810316e+002, 5.329895e+002
2.815138e+002, 5.336220e+002
2.819959e+002, 5.336945e+002
2.824780e+002, 5.327128e+002
2.829601e+002, 5.310982e+002
2.834422e+002, 5.299743e+002
2.839243e+002, 5.297394e+002
2.844065e+002, 5.291710e+002
2.848886e+002, 5.277556e+002
2.853707e+002, 5.259286e+002
2.858528e+002, 5.242897e+002
2.863349e+002, 5.230234e+002
2.868170e+002, 5.220602e+002
2.872992e+002, 5.213642e+002
2.877813e+002, 5.211046e+002
2.882634e+002, 5.205353e+002
2.887455e+002, 5.194530e+002
2.892276e+002, 5.180358e+002
2.897097e+002, 5.163809e+002
2.901919e+002, 5.144926e+002
2.906740e+002, 5.126934e+002
2.911561e+002, 5.113218e+002
2.916382e+002, 5.103864e+002
2.921203e+002, 5.099654e+002
2.926024e+002, 5.106674e+002
2.930846e+002, 5.115514e+002
2.935667e+002, 5.116172e+002
2.940488e+002, 5.107453e+002
2.945309e+002, 5.096139e+002
2.950130e+002, 5.087413e+002
2.954951e+002, 5.081623e+002
2.959773e+002, 5.079428e+002
2.964594e+002, 5.083797e+002
2.969415e+002, 5.089623e+002
2.974236e+002, 5.092125e+002
2.979057e+002, 5.091493e+002
2.983878e+002, 5.092714e+002
2.988700e+002, 5.100799e+002
2.993521e+002, 5.113824e+002
2.998342e+002, 5.120099e+002
3.003163e+002, 5.111082e+002
3.007984e+002, 5.103138e+002
3.012805e+002, 5.108357e+002
3.017627e+002, 5.123982e+002
3.022448e+002, 5.136884e+002
3.027269e+002, 5.139399e+002
3.032090e+002, 5.135089e+002
3.036911e+002, 5.134832e+002
3.041732e+002, 5.138179e+002
3.046554e+002, 5.145602e+002
3.051375e+002, 5.160740e+002
3.056196e+002, 5.180401e+002
3.061017e+002, 5.195973e+002
3.065838e+002, 5.203636e+002
3.070659e+002, 5.206832e+002
3.075481e+002, 5.211607e+002
3.080302e+002, 5.217662e+002
3.085123e+002, 5.225579e+002
3.089944e+002, 5.236885e+002
3.094765e+002, 5.249907e+002
3.099586e+002, 5.260988e+002
3.104408e+002, 5.268613e+002
3.109229e+002, 5.276523e+002
3.114050e+002, 5.291060e+002
3.118871e+002, 5.312563e+002
3.123692e+002, 5.330859e+002
3.128513e+002, 5.340817e+002
3.133335e+002, 5.347932e+002
3.138156e+002, 5.358856e+002
3.142977e+002, 5.374561e+002
3.147798e+002, 5.392203e+002
3.152619e+002, 5.410141e+002
3.157440e+002, 5.428175e+002
3.162262e+002, 5.443864e+002
3.167083e+002, 5.455423e+002
3.171904e+002, 5.465660e+002
3.176725e+002, 5.475529e+002
3.181546e+002, 5.485450e+002
3.186367e+002, 5.499070e+002
3.191188e+002, 5.521628e+002
3.196010e+002, 5.549493e+002
3.200831e+002, 5.566761e+002
3.205652e+002, 5.562500e+002
3.210473e+002, 5.558936e+002
3.215294e+002, 5.572937e+002
3.220115e+002, 5.598992e+002
3.224937e+002, 5.616472e+002
3.229758e+002, 5.613073e+002
3.234579e+002, 5.598366e+002
3.239400e+002, 5.597535e+002
3.244221e+002, 5.616576e+002
3.249042e+002, 5.633762e+002
3.253864e+002, 5.641407e+002
3.258685e+002, 5.642052e+002
3.263506e+002, 5.640360e+002
3.268327e+002, 5.637698e+002
3.273148e+002, 5.633391e+002
3.277969e+002, 5.625753e+002
3.282791e+002, 5.614395e+002
3.287612e+002, 5.603086e+002
3.292433e+002, 5.592591e+002
3.297254e+002, 5.582511e+002
3.302075e+002, 5.571500e+002
3.306896e+002, 5.559322e+002
3.311718e+002, 5.549564e+002
3.316539e+002, 5.548277e+002
3.321360e+002, 5.556224e+002
3.326181e+002, 5.552491e+002
3.331002e+002, 5.525438e+002
3.335823e+002, 5.494871e+002
3.340645e+002, 5.472974e+002
3.345466e+002, 5.460714e+002
3.350287e+002, 5.457222e+002
3.355108e+002, 5.464877e+002
3.359929e+002, 5.480895e+002
3.364750e+002, 5.485273e+002
3.369572e+002, 5.466348e+002
3.374393e+002, 5.449417e+002
3.379214e+002, 5.447236e+002
3.384035e+002, 5.455208e+002
3.388856e+002, 5.461735e+002
3.393677e+002, 5.460919e+002
3.398499e+002, 5.456560e+002
3.403320e+002, 5.459348e+002
3.408141e+002, 5.471788e+002
3.412962e+002, 5.485414e+002
3.417783e+002, 5.496821e+002
3.422604e+002, 5.509199e+002
3.427426e+002, 5.528190e+002
3.432247e+002, 5.555350e+002
3.437068e+002, 5.584400e+002
3.441889e+002, 5.606053e+002
3.446710e+002, 5.615906e+002
3.451531e+002, 5.631320e+002
3.456353e+002, 5.654569e+002
3.461174e+002, 5.681811e+002
3.465995e+002, 5.711415e+002
3.470816e+002, 5.742474e+002
3.475637e+002, 5.773509e+002
3.480458e+002, 5.802900e+002
3.485280e+002, 5.830685e+002
3.490101e+002, 5.857444e+002
3.494922e+002, 5.882668e+002
3.499743e+002, 5.907589e+002
3.504564e+002, 5.934704e+002
3.509385e+002, 5.961804e+002
3.514207e+002, 5.983116e+002
3.519028e+002, 5.994427e+002
3.523849e+002, 5.998970e+002
3.528670e+002, 6.010870e+002
3.533491e+002, 6.040524e+002
3.538312e+002, 6.064605e+002
3.543134e+002, 6.077999e+002
3.547955e+002, 6.085270e+002
3.552776e+002, 6.092725e+002
3.557597e+002, 6.102383e+002
3.562418e+002, 6.109923e+002
3.567239e+002, 6.107287e+002
3.572061e+002, 6.084973e+002
3.576882e+002, 6.071951e+002
3.581703e+002, 6.075197e+002
3.586524e+002, 6.081536e+002
3.591345e+002, 6.083030e+002
3.596166e+002, 6.078486e+002
3.600987e+002, 6.070127e+002
3.605808e+002, 6.059870e+002
3.610630e+002, 6.047575e+002
3.615451e+002, 6.034416e+002
3.620272e+002, 6.017428e+002
3.625093e+002, 6.002678e+002
3.629914e+002, 5.994250e+002
3.634735e+002, 5.989377e+002
3.639557e+002, 5.982567e+002
3.644378e+002, 5.970212e+002
3.649199e+002, 5.954153e+002
3.654020e+002, 5.942213e+002
3.658841e+002, 5.936428e+002
3.663662e+002, 5.932488e+002
3.668484e+002, 5.931033e+002
3.673305e+002, 5.930525e+002
3.678126e+002, 5.929909e+002
3.682947e+002, 5.928750e+002
3.687768e+002, 5.926543e+002
3.692589e+002, 5.920914e+002
3.697411e+002, 5.906926e+002
3.702232e+002, 5.903531e+002
3.707053e+002, 5.920579e+002
3.711874e+002, 5.939874e+002
3.716695e+002, 5.950397e+002
3.721516e+002, 5.953271e+002
3.726338e+002, 5.958182e+002
3.731159e+002, 5.975137e+002
3.735980e+002, 6.003563e+002
3.740801e+002, 6.025258e+002
3.745622e+002, 6.034078e+002
3.750443e+002, 6.043397e+002
3.755265e+002, 6.059049e+002
3.760086e+002, 6.077775e+002
3.764907e+002, 6.094312e+002
3.769728e+002, 6.106110e+002
3.774549e+002, 6.114521e+002
3.779370e+002, 6.121627e+002
3.784192e+002, 6.125515e+002
3.789013e+002, 6.133651e+002
3.793834e+002, 6.152051e+002
3.798655e+002, 6.173060e+002
3.803476e+002, 6.191014e+002
3.808297e+002, 6.204794e+002
3.813119e+002, 6.216764e+002
3.817940e+002, 6.229285e+002
3.822761e+002, 6.242361e+002
3.827582e+002, 6.253845e+002
3.832403e+002, 6.261758e+002
3.837224e+002, 6.270128e+002
3.842046e+002, 6.284134e+002
3.846867e+002, 6.301463e+002
3.851688e+002, 6.314103e+002
3.856509e+002, 6.314935e+002
3.861330e+002, 6.308454e+002
3.866151e+002, 6.304706e+002
3.870973e+002, 6.304139e+002
3.875794e+002, 6.304678e+002
3.880615e+002, 6.307098e+002
3.885436e+002, 6.309289e+002
3.890257e+002, 6.307996e+002
3.895078e+002, 6.302050e+002
3.899900e+002, 6.293417e+002
3.904721e+002, 6.282747e+002
3.909542e+002, 6.270330e+002
3.914363e+002, 6.259200e+002
3.919184e+002, 6.251292e+002
3.924005e+002, 6.243876e+002
3.928827e+002, 6.232549e+002
3.933648e+002, 6.216977e+002
3.938469e+002, 6.202725e+002
3.943290e+002, 6.195604e+002
3.948111e+002, 6.190065e+002
3.952932e+002, 6.176789e+002
3.957754e+002, 6.153986e+002
3.962575e+002, 6.127318e+002
3.967396e+002, 6.099144e+002
3.972217e+002, 6.070496e+002
3.977038e+002, 6.049268e+002
3.981859e+002, 6.044219e+002
3.986681e+002, 6.039122e+002
3.991501e+002, 6.022943e+002
3.996323e+002, 5.997455e+002
4.001144e+002, 5.968968e+002
4.005965e+002, 5.939474e+002
4.010786e+002, 5.910850e+002
4.015607e+002, 5.889807e+002
4.020428e+002, 5.881636e+002
4.025250e+002, 5.870381e+002
4.030071e+002, 5.849919e+002
4.034892e+002, 5.826426e+002
4.039713e+002, 5.807516e+002
4.044534e+002, 5.794835e+002
4.049355e+002, 5.784019e+002
4.054177e+002, 5.769764e+002
4.058998e+002, 5.750894e+002
4.063819e+002, 5.735071e+002
4.068640e+002, 5.722942e+002
4.073461e+002, 5.712872e+002
4.078282e+002, 5.704325e+002
4.083104e+002, 5.697150e+002
4.087925e+002, 5.691286e+002
4.092746e+002, 5.686688e+002
4.097567e+002, 5.683217e+002
4.102388e+002, 5.680028e+002
4.107209e+002, 5.673890e+002
4.112031e+002, 5.672618e+002
4.116852e+002, 5.682346e+002
4.121673e+002, 5.694130e+002
4.126494e+002, 5.697169e+002
4.131315e+002, 5.689675e+002
4.136136e+002, 5.681575e+002
4.140958e+002, 5.687778e+002
4.145779e+002, 5.713770e+002
4.150600e+002, 5.732141e+002
4.155421e+002, 5.731364e+002
4.160242e+002, 5.733514e+002
4.165063e+002, 5.749240e+002
4.169885e+002, 5.775093e+002
