##NAMES=Cabalzarite
##RRUFFID=R060658
##IDEAL CHEMISTRY=CaMg_2_(As^5+^O_4_)_2_&#183;2H_2_O
##LOCALITY=Falotta, Switzerland
##OWNER=RRUFF
##SOURCE=Michael Scott
##DESCRIPTION=Orange bleb
##STATUS=The identification of this mineral has been confirmed by single-crystal X-ray diffraction.
##URL=rruff.info/R060658
135.022, 2732.221
135.504, 2791.500
135.986, 2849.078
136.469, 2868.850
136.951, 2894.410
137.433, 2918.563
137.915, 2941.386
138.397, 2958.892
138.879, 2983.264
139.361, 3004.889
139.844, 3026.397
140.326, 3051.735
140.808, 3070.014
141.290, 3094.915
141.772, 3120.452
142.254, 3151.311
142.736, 3181.648
143.218, 3209.626
143.700, 3236.019
144.182, 3251.940
144.665, 3288.767
145.147, 3320.525
145.629, 3347.475
146.111, 3355.239
146.593, 3387.777
147.075, 3410.388
147.557, 3432.591
148.040, 3468.622
148.522, 3479.177
149.004, 3514.983
149.486, 3538.863
149.968, 3564.476
150.450, 3596.634
150.932, 3639.606
151.414, 3685.646
151.896, 3735.245
152.378, 3793.060
152.861, 3841.349
153.343, 3869.661
153.825, 3890.329
154.307, 3920.946
154.789, 3942.022
155.271, 3976.598
155.753, 4007.897
156.235, 4036.095
156.718, 4056.410
157.200, 4065.341
157.682, 4085.706
158.164, 4102.893
158.646, 4101.098
159.128, 4102.019
159.610, 4118.749
160.092, 4170.877
160.574, 4220.862
161.057, 4255.887
161.539, 4277.713
162.021, 4297.466
162.503, 4303.887
162.985, 4316.244
163.467, 4325.552
163.949, 4361.636
164.431, 4391.221
164.913, 4414.655
165.396, 4413.519
165.878, 4444.115
166.360, 4461.991
166.842, 4479.346
167.324, 4514.403
167.806, 4528.641
168.288, 4526.355
168.770, 4544.103
169.253, 4556.987
169.735, 4565.270
170.217, 4555.169
170.699, 4568.807
171.181, 4575.125
171.663, 4584.528
172.145, 4581.777
172.627, 4580.936
173.109, 4549.001
173.592, 4532.595
174.074, 4512.420
174.556, 4488.672
175.038, 4450.680
175.520, 4431.089
176.002, 4404.123
176.484, 4376.854
176.966, 4359.853
177.449, 4323.928
177.931, 4305.757
178.413, 4267.826
178.895, 4229.938
179.377, 4178.527
179.859, 4116.464
180.341, 4052.032
180.823, 3984.211
181.305, 3916.963
181.788, 3858.552
182.270, 3808.725
182.752, 3766.523
183.234, 3735.013
183.716, 3711.863
184.198, 3688.264
184.680, 3660.225
185.162, 3628.920
185.645, 3596.044
186.127, 3561.969
186.609, 3525.941
187.091, 3482.390
187.573, 3433.012
188.055, 3393.544
188.537, 3378.863
189.019, 3383.697
189.501, 3381.209
189.984, 3367.856
190.466, 3349.915
190.948, 3338.974
191.430, 3335.117
191.912, 3332.705
192.394, 3326.903
192.876, 3318.444
193.358, 3315.112
193.840, 3320.136
194.323, 3328.863
194.805, 3329.622
195.287, 3321.844
195.769, 3309.987
196.251, 3293.206
196.733, 3271.288
197.215, 3261.915
197.697, 3271.493
198.180, 3295.531
198.662, 3316.138
199.144, 3333.392
199.626, 3347.086
200.108, 3356.691
200.590, 3361.893
201.072, 3364.681
201.554, 3362.229
202.036, 3356.083
202.519, 3366.325
203.001, 3397.772
203.483, 3434.950
203.965, 3457.100
204.447, 3460.142
204.929, 3467.401
205.411, 3487.502
205.893, 3520.955
206.376, 3551.812
206.858, 3580.626
207.340, 3605.881
207.822, 3623.279
208.304, 3629.426
208.786, 3639.051
209.268, 3660.547
209.750, 3697.431
210.232, 3721.750
210.715, 3727.331
211.197, 3726.066
211.679, 3743.216
212.161, 3785.419
212.643, 3830.701
213.125, 3868.347
213.607, 3895.362
214.089, 3926.877
214.572, 3962.304
215.054, 4002.790
215.536, 4055.853
216.018, 4131.616
216.500, 4200.400
216.982, 4243.806
217.464, 4250.365
217.946, 4263.429
218.428, 4284.191
218.911, 4313.315
219.393, 4353.847
219.875, 4409.687
220.357, 4471.142
220.839, 4533.498
221.321, 4601.366
221.803, 4657.573
222.285, 4696.352
222.768, 4720.936
223.250, 4755.488
223.732, 4806.707
224.214, 4859.759
224.696, 4903.414
225.178, 4931.819
225.660, 4963.370
226.142, 5001.743
226.624, 5046.916
227.107, 5089.106
227.589, 5127.552
228.071, 5163.705
228.553, 5198.098
229.035, 5230.619
229.517, 5260.381
229.999, 5274.592
230.481, 5270.449
230.964, 5253.278
231.446, 5236.106
231.928, 5218.935
232.410, 5201.763
232.892, 5184.588
233.374, 5167.417
233.856, 5150.245
234.338, 5133.074
234.820, 5115.902
235.303, 5098.730
235.785, 5081.556
236.267, 5064.384
236.749, 5033.489
237.231, 4995.713
237.713, 4939.880
238.195, 4861.717
238.677, 4788.154
239.160, 4718.680
239.642, 4654.203
240.124, 4596.053
240.606, 4544.610
241.088, 4498.804
241.570, 4456.717
242.052, 4415.101
242.534, 4363.643
243.016, 4338.837
243.499, 4307.562
243.981, 4270.164
244.463, 4208.299
244.945, 4178.026
245.427, 4135.095
245.909, 4091.646
246.391, 4065.818
246.873, 4007.518
247.355, 3981.404
247.838, 3942.446
248.320, 3909.370
248.802, 3863.558
249.284, 3821.343
249.766, 3802.361
250.248, 3770.326
250.730, 3715.831
251.212, 3652.076
251.695, 3612.413
252.177, 3612.572
252.659, 3610.655
253.141, 3585.779
253.623, 3520.107
254.105, 3478.896
254.587, 3471.412
255.069, 3484.942
255.551, 3486.094
256.034, 3468.437
256.516, 3449.690
256.998, 3437.954
257.480, 3435.358
257.962, 3435.100
258.444, 3441.390
258.926, 3448.438
259.408, 3434.545
259.891, 3380.761
260.373, 3340.711
260.855, 3334.099
261.337, 3347.221
261.819, 3355.552
262.301, 3359.352
262.783, 3345.042
263.265, 3354.115
263.747, 3353.818
264.229, 3353.137
264.712, 3365.502
265.194, 3353.826
265.676, 3365.984
266.158, 3368.628
266.640, 3375.626
267.122, 3373.196
267.604, 3373.677
268.086, 3383.591
268.569, 3388.282
269.051, 3379.973
269.533, 3384.979
270.015, 3405.616
270.497, 3435.404
270.979, 3450.977
271.461, 3447.126
271.943, 3444.211
272.426, 3457.977
272.908, 3492.882
273.390, 3515.895
273.872, 3519.538
274.354, 3511.930
274.836, 3518.413
275.318, 3542.492
275.800, 3567.502
276.282, 3580.423
276.765, 3579.312
277.247, 3585.957
277.729, 3605.782
278.211, 3632.010
278.693, 3645.361
279.175, 3644.210
279.657, 3637.752
280.139, 3627.744
280.621, 3613.666
281.104, 3610.385
281.586, 3591.919
282.068, 3598.212
282.550, 3598.494
283.032, 3593.090
283.514, 3564.965
283.996, 3566.179
284.478, 3555.636
284.961, 3544.610
285.443, 3549.953
285.925, 3525.132
286.407, 3530.217
286.889, 3521.177
287.371, 3518.131
287.853, 3507.741
288.335, 3491.314
288.818, 3479.012
289.300, 3473.330
289.782, 3470.426
290.264, 3463.924
290.746, 3453.817
291.228, 3440.874
291.710, 3420.938
292.192, 3397.474
292.674, 3385.050
293.156, 3387.626
293.639, 3397.504
294.121, 3402.272
294.603, 3402.541
295.085, 3403.632
295.567, 3410.500
296.049, 3420.870
296.531, 3429.047
297.013, 3434.610
297.496, 3437.519
297.978, 3433.163
298.460, 3424.135
298.942, 3422.860
299.424, 3444.965
299.906, 3478.539
300.388, 3500.192
300.870, 3504.126
301.353, 3504.108
301.835, 3506.713
302.317, 3515.730
302.799, 3518.070
303.281, 3545.525
303.763, 3566.885
304.245, 3582.476
304.727, 3575.019
305.209, 3597.322
305.691, 3607.698
306.174, 3623.980
306.656, 3641.591
307.138, 3674.746
307.620, 3712.776
308.102, 3745.798
308.584, 3773.396
309.066, 3794.929
309.548, 3805.244
310.031, 3809.627
310.513, 3818.467
310.995, 3842.178
311.477, 3868.715
311.959, 3886.355
312.441, 3891.914
312.923, 3903.266
313.405, 3936.222
313.888, 3980.688
314.370, 4020.596
314.852, 4046.558
315.334, 4069.613
315.816, 4098.649
316.298, 4135.740
316.780, 4164.036
317.262, 4166.701
317.744, 4159.739
318.227, 4162.259
318.709, 4186.175
319.191, 4215.356
319.673, 4246.439
320.155, 4279.686
320.637, 4306.446
321.119, 4322.020
321.601, 4330.942
322.083, 4337.572
322.566, 4341.278
323.048, 4344.029
323.530, 4343.564
324.012, 4339.606
324.494, 4343.658
324.976, 4365.447
325.458, 4391.459
325.940, 4411.262
326.422, 4421.906
326.905, 4428.085
327.387, 4431.915
327.869, 4433.044
328.351, 4424.320
328.833, 4395.002
329.315, 4363.396
329.797, 4340.886
330.280, 4332.380
330.762, 4326.520
331.244, 4323.478
331.726, 4322.821
332.208, 4321.387
332.690, 4316.803
333.172, 4314.244
333.654, 4317.211
334.136, 4329.788
334.618, 4338.727
335.101, 4339.804
335.583, 4337.605
336.065, 4348.897
336.547, 4380.438
337.029, 4412.103
337.511, 4430.657
337.993, 4430.576
338.475, 4441.143
338.958, 4463.889
339.440, 4497.089
339.922, 4537.531
340.404, 4586.455
340.886, 4638.451
341.368, 4695.396
341.850, 4757.425
342.332, 4802.156
342.815, 4821.612
343.297, 4838.109
343.779, 4894.239
344.261, 4991.683
344.743, 5077.544
345.225, 5121.719
345.707, 5132.374
346.189, 5159.084
346.671, 5203.451
347.154, 5254.901
347.636, 5303.628
348.118, 5349.451
348.600, 5392.455
349.082, 5429.577
349.564, 5464.838
350.046, 5510.322
350.528, 5566.248
351.010, 5620.017
351.493, 5661.517
351.975, 5691.834
352.457, 5713.773
352.939, 5724.094
353.421, 5729.494
353.903, 5738.427
354.385, 5750.415
354.867, 5760.882
355.349, 5773.308
355.832, 5780.509
356.314, 5771.307
356.796, 5730.529
357.278, 5689.762
357.760, 5675.550
358.242, 5682.236
358.724, 5686.930
359.207, 5681.202
359.689, 5666.712
360.171, 5642.454
360.653, 5600.011
361.135, 5564.519
361.617, 5551.406
362.099, 5553.303
362.581, 5553.736
363.063, 5542.332
363.546, 5531.631
364.028, 5518.367
364.510, 5519.113
364.992, 5516.457
365.474, 5510.585
365.956, 5491.856
366.438, 5489.729
366.920, 5480.948
367.402, 5471.895
367.885, 5472.102
368.367, 5455.243
368.849, 5455.305
369.331, 5448.613
369.813, 5445.012
370.295, 5433.334
370.777, 5431.412
371.259, 5437.967
371.741, 5445.729
372.224, 5454.752
372.706, 5472.521
373.188, 5509.750
373.670, 5541.933
374.152, 5545.449
374.634, 5505.145
375.116, 5481.358
375.598, 5485.510
376.081, 5510.558
376.563, 5532.089
377.045, 5552.258
377.527, 5562.267
378.009, 5549.664
378.491, 5512.790
378.973, 5495.162
379.455, 5504.571
379.938, 5528.315
380.420, 5543.892
380.902, 5551.522
381.384, 5553.967
381.866, 5548.898
382.348, 5539.167
382.830, 5540.475
383.312, 5556.185
383.794, 5568.891
384.276, 5547.225
384.759, 5501.203
385.241, 5469.717
385.723, 5482.386
386.205, 5514.444
386.687, 5529.489
387.169, 5527.408
387.651, 5514.637
388.134, 5487.977
388.616, 5455.602
389.098, 5429.943
389.580, 5418.556
390.062, 5411.995
390.544, 5407.146
391.026, 5402.418
391.508, 5390.261
391.990, 5353.111
392.473, 5314.703
392.955, 5296.336
393.437, 5318.804
393.919, 5334.162
394.401, 5316.198
394.883, 5277.356
395.365, 5245.517
395.847, 5232.761
396.329, 5225.268
396.812, 5218.395
397.294, 5213.450
397.776, 5203.648
398.258, 5184.862
398.740, 5161.579
399.222, 5139.812
399.704, 5115.790
400.186, 5097.583
400.668, 5090.549
401.151, 5096.449
401.633, 5088.907
402.115, 5055.957
402.597, 5021.346
403.079, 5005.977
403.561, 5018.661
404.043, 5028.879
404.525, 5031.179
405.008, 5027.946
405.490, 5029.999
405.972, 5038.614
406.454, 5048.857
406.936, 5056.798
407.418, 5062.159
407.900, 5073.310
408.382, 5093.417
408.865, 5114.949
409.347, 5123.135
409.829, 5118.211
410.311, 5111.469
410.793, 5107.589
411.275, 5106.264
411.757, 5103.678
412.239, 5098.497
412.721, 5102.534
413.203, 5136.954
413.686, 5191.243
414.168, 5237.269
414.650, 5256.229
415.132, 5267.812
415.614, 5293.984
416.096, 5333.313
416.578, 5376.014
417.060, 5417.185
417.543, 5457.431
418.025, 5496.481
418.507, 5536.456
418.989, 5572.743
419.471, 5599.409
419.953, 5620.341
420.435, 5646.472
420.917, 5683.455
421.400, 5725.326
421.882, 5770.027
422.364, 5819.368
422.846, 5865.168
423.328, 5905.285
423.810, 5941.796
424.292, 5977.503
424.774, 6018.252
425.256, 6052.829
425.738, 6078.610
426.221, 6095.465
426.703, 6108.295
427.185, 6112.330
427.667, 6117.301
428.149, 6133.845
428.631, 6174.640
429.113, 6191.545
429.595, 6172.998
430.078, 6129.534
430.560, 6096.720
431.042, 6077.584
431.524, 6055.920
432.006, 6023.404
432.488, 5980.130
432.970, 5931.143
433.452, 5876.487
433.935, 5816.367
434.417, 5750.139
434.899, 5678.682
435.381, 5606.955
435.863, 5538.534
436.345, 5471.358
436.827, 5397.224
437.309, 5316.506
437.791, 5243.771
438.274, 5196.644
438.756, 5164.727
439.238, 5131.422
439.720, 5088.259
440.202, 5048.580
440.684, 5024.717
441.166, 5013.323
441.648, 5004.122
442.130, 5002.524
442.613, 4994.149
443.095, 4966.411
443.577, 4911.463
444.059, 4859.928
444.541, 4822.423
445.023, 4793.551
445.505, 4766.157
445.987, 4738.120
446.470, 4713.120
446.952, 4694.923
447.434, 4683.902
447.916, 4664.971
448.398, 4626.900
448.880, 4590.904
449.362, 4571.432
449.844, 4577.113
450.327, 4580.604
450.809, 4577.680
451.291, 4572.609
451.773, 4578.881
452.255, 4601.180
452.737, 4618.894
453.219, 4620.875
453.701, 4607.015
454.183, 4595.316
454.665, 4585.266
455.148, 4578.455
455.630, 4579.641
456.112, 4587.292
456.594, 4590.157
457.076, 4583.105
457.558, 4570.545
458.040, 4557.943
458.522, 4545.891
459.005, 4538.937
459.487, 4548.206
459.969, 4561.965
460.451, 4561.605
460.933, 4537.319
461.415, 4516.522
461.897, 4529.585
462.379, 4559.510
462.862, 4575.358
463.344, 4547.797
463.826, 4516.724
464.308, 4501.929
464.790, 4505.336
465.272, 4514.095
465.754, 4538.052
466.236, 4558.766
466.718, 4561.459
467.201, 4521.676
467.683, 4491.338
468.165, 4476.882
468.647, 4474.847
469.129, 4472.404
469.611, 4464.954
470.093, 4463.826
470.575, 4476.720
471.057, 4508.553
471.540, 4527.923
472.022, 4533.663
472.504, 4528.749
472.986, 4513.350
473.468, 4486.271
473.950, 4464.895
474.432, 4455.581
474.914, 4454.446
475.397, 4449.858
475.879, 4441.940
476.361, 4435.167
476.843, 4435.104
477.325, 4438.649
477.807, 4437.357
478.289, 4427.991
478.771, 4420.767
479.254, 4431.047
479.736, 4451.109
480.218, 4464.080
480.700, 4454.151
481.182, 4440.254
481.664, 4435.711
482.146, 4440.715
482.628, 4447.016
483.110, 4455.309
483.592, 4460.993
484.075, 4460.312
484.557, 4437.678
485.039, 4426.201
485.521, 4436.393
486.003, 4461.262
486.485, 4480.776
486.967, 4491.540
487.449, 4501.279
487.931, 4512.697
488.414, 4526.229
488.896, 4529.968
489.378, 4520.039
489.860, 4547.412
490.342, 4565.731
490.824, 4575.482
491.306, 4551.003
491.789, 4570.725
492.271, 4572.732
492.753, 4574.014
493.235, 4590.203
493.717, 4610.896
494.199, 4639.684
494.681, 4671.418
495.163, 4694.204
495.645, 4706.272
496.128, 4713.834
496.610, 4714.277
497.092, 4715.239
497.574, 4730.140
498.056, 4771.681
498.538, 4822.409
499.020, 4875.894
499.502, 4931.040
499.984, 4979.759
500.467, 5013.388
500.949, 5044.429
501.431, 5080.213
501.913, 5124.384
502.395, 5168.505
502.877, 5211.022
503.359, 5253.282
503.841, 5295.762
504.323, 5331.734
504.806, 5377.725
505.288, 5437.516
505.770, 5509.880
506.252, 5588.904
506.734, 5674.220
507.216, 5766.188
507.698, 5863.895
508.181, 5967.267
508.663, 6080.976
509.145, 6209.856
509.627, 6338.279
510.109, 6429.908
510.591, 6484.387
511.073, 6566.349
511.555, 6641.626
512.037, 6710.598
512.519, 6754.353
513.002, 6830.667
513.484, 6893.954
513.966, 6963.666
514.448, 7037.496
514.930, 7116.694
515.412, 7188.132
515.894, 7266.942
516.376, 7363.795
516.859, 7472.382
517.341, 7580.634
517.823, 7684.376
518.305, 7789.303
518.787, 7897.682
519.269, 8010.145
519.751, 8121.276
520.233, 8234.240
520.716, 8343.863
521.198, 8446.198
521.680, 8541.925
522.162, 8630.393
522.644, 8710.331
523.126, 8783.419
523.608, 8851.790
524.090, 8915.761
524.572, 8974.519
525.055, 9026.081
525.537, 9072.900
526.019, 9130.621
526.501, 9198.629
526.983, 9254.067
527.465, 9270.303
527.947, 9262.590
528.429, 9259.217
528.911, 9266.426
529.394, 9274.809
529.876, 9284.666
530.358, 9289.485
530.840, 9277.697
531.322, 9235.545
531.804, 9184.193
532.286, 9133.026
532.768, 9082.950
533.250, 9026.223
533.733, 8962.892
534.215, 8891.936
534.697, 8812.922
535.179, 8718.640
535.661, 8629.096
536.143, 8546.724
536.625, 8467.170
537.107, 8354.307
537.589, 8237.967
538.072, 8142.857
538.554, 8042.626
539.036, 7937.496
539.518, 7812.849
540.000, 7713.404
540.482, 7603.873
540.964, 7493.887
541.446, 7398.003
541.929, 7276.195
542.411, 7180.074
542.893, 7073.699
543.375, 6972.031
543.857, 6860.160
544.339, 6751.468
544.821, 6652.928
545.303, 6548.760
545.786, 6430.583
546.268, 6280.547
546.750, 6154.081
547.232, 6073.959
547.714, 5995.117
548.196, 5891.422
548.678, 5747.362
549.160, 5618.363
549.643, 5512.124
550.125, 5417.021
550.607, 5321.879
551.089, 5225.713
551.571, 5129.220
552.053, 5030.241
552.535, 4932.219
553.017, 4843.406
553.499, 4763.911
553.982, 4690.037
554.464, 4619.513
554.946, 4552.384
555.428, 4491.159
555.910, 4436.230
556.392, 4378.852
556.874, 4304.337
557.356, 4222.639
557.838, 4151.351
558.321, 4099.073
558.803, 4051.552
559.285, 3997.207
559.767, 3939.700
560.249, 3888.078
560.731, 3858.456
561.213, 3822.883
561.695, 3761.623
562.177, 3670.172
562.660, 3603.461
563.142, 3581.908
563.624, 3571.104
564.106, 3550.206
564.588, 3514.721
565.070, 3482.130
565.552, 3453.710
566.034, 3427.473
566.516, 3401.980
566.999, 3377.765
567.481, 3343.718
567.963, 3288.424
568.445, 3267.910
568.927, 3264.173
569.409, 3256.364
569.891, 3244.697
570.373, 3217.639
570.856, 3210.460
571.338, 3195.314
571.820, 3179.841
572.302, 3175.462
572.784, 3150.638
573.266, 3146.083
573.748, 3133.437
574.230, 3124.494
574.713, 3107.533
575.195, 3093.051
575.677, 3086.583
576.159, 3075.679
576.641, 3057.796
577.123, 3049.088
577.605, 3027.642
578.087, 3010.567
578.570, 2999.735
579.052, 2998.425
579.534, 2995.197
580.016, 2974.150
580.498, 2937.398
580.980, 2919.449
581.462, 2929.542
581.944, 2947.922
582.426, 2946.042
582.909, 2928.904
583.391, 2912.611
583.873, 2899.833
584.355, 2894.556
584.837, 2888.495
585.319, 2902.706
585.801, 2911.997
586.283, 2916.631
586.765, 2902.662
587.248, 2912.716
587.730, 2913.142
588.212, 2913.173
588.694, 2926.607
589.176, 2915.344
589.658, 2928.565
590.140, 2932.014
590.622, 2939.935
591.104, 2938.169
591.587, 2939.396
592.069, 2950.311
592.551, 2955.862
593.033, 2952.982
593.515, 2961.187
593.997, 2949.586
594.479, 2955.365
594.961, 2968.643
595.443, 2962.919
595.926, 2970.179
596.408, 2970.929
596.890, 2972.085
597.372, 2975.630
597.854, 2977.137
598.336, 2975.661
598.818, 2970.115
599.300, 2959.153
599.783, 2933.407
600.265, 2911.990
600.747, 2898.593
601.229, 2892.824
601.711, 2895.298
602.193, 2914.349
602.675, 2927.844
603.157, 2923.838
603.640, 2901.764
604.122, 2894.158
604.604, 2905.441
605.086, 2913.812
605.568, 2892.961
606.050, 2850.180
606.532, 2819.922
607.014, 2810.962
607.497, 2806.285
607.979, 2785.748
608.461, 2755.518
608.943, 2728.557
609.425, 2709.084
609.907, 2695.214
610.389, 2687.781
610.871, 2685.609
611.353, 2682.952
611.836, 2683.995
612.318, 2679.165
612.800, 2662.760
613.282, 2632.901
613.764, 2603.517
614.246, 2573.115
614.728, 2545.526
615.210, 2525.712
615.692, 2515.178
616.175, 2499.590
616.657, 2475.958
617.139, 2449.702
617.621, 2429.903
618.103, 2415.405
618.585, 2400.052
619.067, 2378.093
619.549, 2357.016
620.031, 2351.428
620.514, 2356.453
620.996, 2351.893
621.478, 2315.594
621.960, 2274.748
622.442, 2246.104
622.924, 2232.555
623.406, 2224.090
623.888, 2230.561
624.370, 2233.371
624.853, 2217.887
625.335, 2168.850
625.817, 2136.257
626.299, 2127.295
626.781, 2129.428
627.263, 2123.193
627.745, 2108.396
628.227, 2088.994
628.710, 2062.257
629.192, 2035.368
629.674, 2025.130
630.156, 2029.473
630.638, 2036.221
631.120, 2044.797
631.602, 2048.195
632.084, 2036.167
632.567, 2007.892
633.049, 1981.806
633.531, 1965.943
634.013, 1955.335
634.495, 1946.582
634.977, 1939.237
635.459, 1933.735
635.941, 1931.604
636.424, 1930.186
636.906, 1925.732
637.388, 1917.123
637.870, 1909.508
638.352, 1904.080
638.834, 1899.961
639.316, 1894.783
639.798, 1888.561
640.280, 1882.158
640.763, 1872.921
641.245, 1865.016
641.727, 1869.166
642.209, 1883.962
642.691, 1893.519
643.173, 1889.169
643.655, 1874.905
644.137, 1849.703
644.619, 1805.618
645.102, 1778.632
645.584, 1790.957
646.066, 1816.522
646.548, 1830.432
647.030, 1828.827
647.512, 1822.280
647.994, 1809.480
648.476, 1793.920
648.958, 1781.315
649.441, 1771.568
649.923, 1767.509
650.405, 1773.555
650.887, 1783.453
651.369, 1782.906
651.851, 1773.169
652.333, 1762.841
652.815, 1764.252
653.297, 1763.172
653.780, 1753.640
654.262, 1761.548
654.744, 1765.223
655.226, 1764.892
655.708, 1748.556
656.190, 1752.887
656.672, 1748.936
657.154, 1744.645
657.636, 1751.885
658.119, 1737.876
658.601, 1744.933
659.083, 1743.581
659.565, 1746.078
660.047, 1738.520
660.529, 1734.522
661.011, 1734.680
661.494, 1737.716
