##NAMES=Cacoxenite
##RRUFFID=R070141
##IDEAL CHEMISTRY=Fe^3+^_24_AlO_6_(PO_4_)_17_(OH)_12_&#183;75H_2_O
##LOCALITY=Rotl√§ufchen Mine, Waldgirmes, Wetzlar, Hesse, Germany
##OWNER=RRUFF
##SOURCE=Michael Scott
##DESCRIPTION=Radial aggregates of brownish yellow acicular crystals
##STATUS=The identification of this mineral has been confirmed by single-crystal X-ray diffraction.
##URL=rruff.info/R070141
153.5564, 685.2641
154.0385, 679.1290
154.5206, 674.1157
155.0028, 674.9285
155.4849, 677.8088
155.9670, 676.4128
156.4491, 661.2110
156.9312, 647.5338
157.4133, 642.8390
157.8955, 654.0066
158.3776, 664.4875
158.8597, 670.8737
159.3418, 673.3997
159.8239, 672.9641
160.3060, 667.7099
160.7882, 660.8221
161.2703, 654.4749
161.7524, 647.8110
162.2345, 643.1534
162.7166, 643.2565
163.1987, 647.4745
163.6808, 649.5242
164.1630, 642.9104
164.6451, 633.7520
165.1272, 628.6250
165.6093, 636.7845
166.0914, 644.7747
166.5735, 642.3942
167.0557, 628.6380
167.5378, 615.0990
168.0199, 608.8548
168.5020, 607.9301
168.9841, 609.1133
169.4662, 613.7045
169.9484, 618.2844
170.4305, 619.0743
170.9126, 614.7941
171.3947, 610.2322
171.8768, 609.8053
172.3589, 612.4357
172.8411, 615.1201
173.3232, 616.4443
173.8053, 616.7545
174.2874, 616.2534
174.7695, 614.4178
175.2516, 612.8349
175.7338, 613.6349
176.2159, 616.5024
176.6980, 619.5401
177.1801, 621.6769
177.6622, 623.0526
178.1443, 623.9177
178.6264, 624.3076
179.1086, 624.2596
179.5907, 622.7413
180.0728, 619.8342
180.5549, 618.8896
181.0370, 624.2503
181.5191, 634.2482
182.0013, 643.7443
182.4834, 651.3443
182.9655, 657.1254
183.4476, 660.8037
183.9297, 662.0894
184.4118, 663.2611
184.8940, 667.3650
185.3761, 673.9733
185.8582, 680.0996
186.3403, 683.5121
186.8224, 685.2161
187.3046, 689.8034
187.7867, 698.0511
188.2688, 707.2187
188.7509, 712.9227
189.2330, 715.2743
189.7151, 717.6275
190.1973, 721.4446
190.6794, 726.7077
191.1615, 733.9740
191.6436, 744.4349
192.1257, 755.2623
192.6078, 759.0143
193.0900, 755.0919
193.5721, 752.5643
194.0542, 759.4576
194.5363, 775.3797
195.0184, 787.2332
195.5005, 792.7155
195.9826, 793.3407
196.4648, 793.4218
196.9469, 793.0867
197.4290, 791.5872
197.9111, 787.9910
198.3932, 782.1730
198.8753, 776.0747
199.3575, 770.0123
199.8396, 763.9584
200.3217, 757.3091
200.8038, 749.5854
201.2859, 742.8597
201.7680, 739.3275
202.2502, 739.2676
202.7323, 740.6369
203.2144, 743.5363
203.6965, 747.8157
204.1786, 750.9182
204.6607, 753.4061
205.1429, 753.6282
205.6250, 746.7330
206.1071, 729.0104
206.5892, 719.5938
207.0713, 727.2287
207.5534, 753.5513
208.0356, 773.1323
208.5177, 784.6133
208.9998, 790.9650
209.4819, 796.9653
209.9640, 803.1876
210.4461, 807.4141
210.9282, 807.3903
211.4104, 801.0286
211.8925, 801.1093
212.3746, 809.9887
212.8567, 823.6953
213.3388, 833.7965
213.8209, 839.0277
214.3031, 843.6492
214.7852, 849.6604
215.2673, 857.5883
215.7494, 865.0462
216.2315, 872.0802
216.7136, 878.5862
217.1958, 883.7592
217.6779, 885.7638
218.1600, 889.7927
218.6421, 899.5169
219.1242, 918.4118
219.6063, 934.0392
220.0885, 945.8824
220.5706, 953.9391
221.0527, 957.7393
221.5348, 954.3298
222.0169, 951.0750
222.4990, 953.7617
222.9812, 967.4559
223.4633, 974.7991
223.9454, 970.9371
224.4275, 957.8383
224.9096, 952.8568
225.3917, 959.8894
225.8739, 970.0031
226.3560, 976.6221
226.8381, 979.0601
227.3202, 979.3972
227.8023, 976.8865
228.2844, 971.7283
228.7665, 969.5496
229.2487, 972.5808
229.7308, 976.2419
230.2129, 976.5080
230.6950, 972.2216
231.1771, 966.5736
231.6592, 958.9122
232.1414, 949.0064
232.6235, 943.6927
233.1056, 945.0088
233.5877, 949.0629
234.0698, 951.8045
234.5519, 952.6268
235.0341, 953.2159
235.5162, 953.9161
235.9983, 954.7527
236.4804, 955.4810
236.9625, 956.2507
237.4446, 956.7924
237.9268, 956.4219
238.4089, 953.0237
238.8910, 952.3132
239.3731, 956.3203
239.8552, 966.0842
240.3373, 975.1938
240.8195, 984.5400
241.3016, 992.6162
241.7837, 997.4799
242.2658, 999.0032
242.7479, 997.4207
243.2300, 991.5068
243.7122, 978.8516
244.1943, 972.1120
244.6764, 974.1896
245.1585, 980.4984
245.6406, 983.2901
246.1227, 979.9174
246.6048, 977.3677
247.0870, 977.9547
247.5691, 982.3321
248.0512, 987.9673
248.5333, 996.4651
249.0154, 1005.422
249.4975, 1009.861
249.9797, 1006.664
250.4618, 1004.257
250.9439, 1006.170
251.4260, 1014.520
251.9081, 1020.899
252.3902, 1024.230
252.8724, 1026.125
253.3545, 1031.201
253.8366, 1044.313
254.3187, 1052.073
254.8008, 1046.759
255.2829, 1019.421
255.7651, 1003.836
256.2472, 1003.692
256.7293, 1013.658
257.2114, 1021.482
257.6935, 1027.843
258.1756, 1030.814
258.6577, 1028.527
259.1399, 1017.972
259.6220, 1011.491
260.1041, 1012.400
260.5862, 1016.189
261.0683, 1009.659
261.5504, 988.0058
262.0326, 965.7163
262.5147, 949.9589
262.9968, 943.0245
263.4789, 935.1565
263.9610, 924.9811
264.4431, 914.1549
264.9253, 908.7921
265.4074, 912.2552
265.8895, 913.6165
266.3716, 905.2785
266.8537, 883.1953
267.3358, 868.2358
267.8180, 863.3929
268.3001, 865.2057
268.7822, 863.9601
269.2643, 858.7765
269.7464, 852.7612
270.2285, 847.6682
270.7107, 843.9194
271.1928, 838.5038
271.6749, 829.6783
272.1570, 820.0106
272.6391, 818.8901
273.1212, 829.5602
273.6034, 838.2097
274.0855, 834.1738
274.5676, 814.9636
275.0497, 803.5506
275.5318, 803.3031
276.0139, 810.5820
276.4961, 816.3351
276.9782, 820.4507
277.4603, 823.5273
277.9424, 825.1903
278.4245, 825.2817
278.9066, 828.0471
279.3888, 835.6647
279.8709, 844.3317
280.3530, 842.3155
280.8351, 827.7831
281.3172, 814.2990
281.7993, 812.4064
282.2815, 821.7905
282.7636, 826.9820
283.2457, 825.4729
283.7278, 820.3807
284.2099, 818.3781
284.6920, 819.6160
285.1741, 822.0103
285.6563, 824.6599
286.1384, 827.5105
286.6205, 830.0079
287.1026, 832.4793
287.5847, 833.9688
288.0668, 832.1347
288.5490, 826.9819
289.0311, 821.1823
289.5132, 814.0009
289.9953, 806.8896
290.4774, 807.3802
290.9595, 818.0308
291.4417, 832.8417
291.9238, 843.2513
292.4059, 849.2180
292.8880, 851.3417
293.3701, 849.9373
293.8522, 844.9235
294.3344, 833.4073
294.8165, 811.5317
295.2986, 792.2575
295.7807, 800.9595
296.2628, 832.7728
296.7449, 859.5119
297.2271, 858.5337
297.7092, 840.9418
298.1913, 829.4891
298.6734, 827.1246
299.1555, 830.0916
299.6376, 837.4091
300.1198, 847.4005
300.6019, 853.7229
301.0840, 847.8632
301.5661, 837.4064
302.0482, 835.3112
302.5303, 844.5629
303.0125, 855.2101
303.4946, 855.1470
303.9767, 848.3257
304.4588, 845.4741
304.9409, 857.3003
305.4230, 873.8027
305.9052, 884.2065
306.3873, 886.9094
306.8694, 886.0120
307.3515, 880.4290
307.8336, 873.6378
308.3157, 872.5424
308.7979, 887.4217
309.2800, 905.3521
309.7621, 914.4634
310.2442, 912.6613
310.7263, 909.7714
311.2084, 913.7272
311.6906, 920.4015
312.1727, 923.1974
312.6548, 912.8436
313.1369, 902.4023
313.6190, 902.6068
314.1011, 915.5112
314.5833, 925.2669
315.0654, 918.9874
315.5475, 906.6600
316.0296, 900.9355
316.5117, 913.3152
316.9938, 927.2217
317.4760, 934.5874
317.9580, 934.4632
318.4402, 935.1075
318.9223, 941.6789
319.4044, 949.3788
319.8865, 953.3010
320.3686, 948.6671
320.8507, 943.4772
321.3329, 939.2393
321.8150, 936.0431
322.2971, 935.8440
322.7792, 942.3055
323.2613, 950.2762
323.7434, 955.5433
324.2256, 958.9370
324.7077, 958.0806
325.1898, 949.2562
325.6719, 932.8156
326.1540, 922.9669
326.6361, 926.1705
327.1183, 932.6863
327.6004, 936.2357
328.0825, 934.5477
328.5646, 932.6182
329.0467, 931.5068
329.5288, 930.8270
330.0110, 927.4712
330.4931, 919.6680
330.9752, 910.8409
331.4573, 902.6438
331.9394, 892.7893
332.4215, 887.8984
332.9037, 890.8479
333.3858, 899.1210
333.8679, 902.4266
334.3500, 897.0663
334.8321, 892.6971
335.3142, 895.2963
335.7964, 908.4890
336.2785, 917.3102
336.7606, 920.1052
337.2427, 918.9362
337.7248, 919.2551
338.2069, 921.9190
338.6891, 923.4531
339.1712, 921.0229
339.6533, 913.7964
340.1354, 911.0109
340.6175, 913.8688
341.0996, 919.6632
341.5818, 924.6540
342.0639, 929.0504
342.5460, 930.4758
343.0281, 925.6176
343.5102, 915.4258
343.9923, 911.4970
344.4745, 915.3037
344.9566, 920.4848
345.4387, 916.2776
345.9208, 904.0101
346.4029, 895.9563
346.8850, 900.9409
347.3672, 913.5729
347.8493, 917.9761
348.3314, 913.8527
348.8135, 905.2812
349.2956, 892.4782
349.7777, 878.0309
350.2599, 869.6531
350.7419, 872.5582
351.2241, 881.3228
351.7062, 889.8265
352.1883, 897.8512
352.6704, 902.3151
353.1525, 898.8546
353.6346, 890.4969
354.1168, 882.0558
354.5989, 875.2696
355.0810, 868.4859
355.5631, 858.4403
356.0452, 846.3444
356.5273, 838.0620
357.0095, 839.9569
357.4916, 846.0452
357.9737, 850.4479
358.4558, 851.3071
358.9379, 851.3555
359.4200, 852.3433
359.9022, 853.6910
360.3843, 853.8716
360.8664, 851.0619
361.3485, 847.7121
361.8306, 845.4203
362.3127, 844.9168
362.7949, 844.1252
363.2770, 839.8530
363.7591, 835.2692
364.2412, 835.6988
364.7233, 849.1527
365.2054, 861.8570
365.6876, 868.0206
366.1697, 865.2729
366.6518, 864.0818
367.1339, 865.2864
367.6160, 868.5814
368.0981, 873.6791
368.5803, 882.7139
369.0624, 891.2048
369.5445, 899.0107
370.0266, 906.3069
370.5087, 909.6884
370.9908, 907.2366
371.4730, 902.5735
371.9551, 898.5746
372.4372, 895.4021
372.9193, 892.5089
373.4014, 889.6024
373.8835, 886.8835
374.3657, 885.7658
374.8478, 886.9030
375.3299, 888.2761
375.8120, 887.6588
376.2941, 884.1039
376.7762, 885.1749
377.2584, 893.5012
377.7405, 905.1332
378.2226, 909.6249
378.7047, 906.4783
379.1868, 901.2413
379.6689, 895.5462
380.1511, 889.8145
380.6332, 888.9581
381.1153, 895.0068
381.5974, 900.7202
382.0795, 892.1265
382.5616, 871.5674
383.0438, 855.0740
383.5259, 853.6616
384.0080, 860.7791
384.4901, 861.8251
384.9722, 856.2861
385.4543, 848.8373
385.9364, 841.5837
386.4185, 835.6362
386.9007, 833.3812
387.3828, 839.5203
387.8649, 846.8962
388.3470, 847.1253
388.8291, 841.0208
389.3112, 835.5118
389.7934, 837.6545
390.2755, 841.7415
390.7576, 841.4309
391.2397, 830.8665
391.7218, 821.4193
392.2039, 820.2411
392.6861, 825.1965
393.1682, 829.6613
393.6503, 832.8424
394.1324, 833.5356
394.6145, 829.9166
395.0966, 817.5408
395.5788, 810.4786
396.0609, 817.6377
396.5430, 831.1251
397.0251, 837.6456
397.5072, 824.9163
397.9893, 814.8795
398.4715, 815.7704
398.9536, 831.3092
399.4357, 840.0423
399.9178, 838.0355
400.3999, 831.7245
400.8820, 826.9503
401.3642, 822.0029
401.8463, 821.8826
402.3284, 829.8742
402.8105, 844.8035
403.2926, 851.9150
403.7747, 847.7653
404.2569, 842.1260
404.7390, 842.6422
405.2211, 850.7426
405.7032, 857.2266
406.1853, 860.6238
406.6674, 862.5367
407.1496, 867.9135
407.6317, 877.3618
408.1138, 884.5278
408.5959, 885.8239
409.0780, 881.7165
409.5602, 873.3436
410.0423, 859.3600
410.5244, 847.1990
411.0065, 849.2473
411.4886, 862.6638
411.9707, 874.4411
412.4529, 878.9629
412.9350, 878.4018
413.4171, 874.1088
413.8992, 866.1447
414.3813, 861.0779
414.8634, 867.4341
415.3456, 879.1620
415.8277, 887.0919
416.3098, 886.4623
416.7919, 883.6219
417.2740, 884.0947
417.7561, 886.5729
418.2382, 885.7788
418.7203, 874.0565
419.2025, 861.3989
419.6846, 855.4001
420.1667, 860.2103
420.6488, 864.9670
421.1309, 865.6976
421.6130, 864.3475
422.0952, 864.4236
422.5773, 865.7199
423.0594, 869.3483
423.5415, 877.9999
424.0236, 894.6204
424.5057, 901.5911
424.9879, 889.3924
425.4700, 873.3065
425.9521, 867.4360
426.4342, 879.3627
426.9163, 888.4521
427.3984, 891.0225
427.8806, 888.0540
428.3627, 885.8140
428.8448, 883.7621
429.3269, 883.5798
429.8090, 886.9280
430.2911, 894.3188
430.7733, 901.9249
431.2554, 911.0549
431.7375, 917.8774
432.2196, 912.6533
432.7017, 895.0773
433.1838, 879.0539
433.6660, 872.6987
434.1481, 873.4528
434.6302, 871.7412
435.1123, 867.1131
435.5944, 863.5126
436.0765, 865.9792
436.5587, 872.6792
437.0408, 879.2994
437.5229, 887.0370
438.0050, 891.4009
438.4871, 883.7933
438.9692, 866.5615
439.4514, 852.6764
439.9335, 853.0836
440.4156, 859.1002
440.8977, 862.3752
441.3798, 859.7422
441.8619, 857.5428
442.3441, 859.9913
442.8262, 864.7879
443.3083, 867.6618
443.7904, 866.2581
444.2725, 863.5726
444.7546, 861.1926
445.2368, 859.7509
445.7189, 855.4222
446.2010, 843.4632
446.6831, 830.7595
447.1652, 823.5361
447.6473, 827.8864
448.1295, 828.8278
448.6116, 822.4318
449.0937, 810.6982
449.5758, 804.9567
450.0579, 806.4597
450.5400, 811.5602
451.0221, 820.6155
451.5042, 835.8427
451.9864, 839.8224
452.4685, 828.3621
452.9506, 811.2728
453.4327, 806.5005
453.9148, 814.2427
454.3969, 818.7581
454.8791, 811.6147
455.3612, 796.6417
455.8433, 785.4198
456.3254, 778.0434
456.8075, 774.3912
457.2896, 776.3094
457.7718, 781.8646
458.2539, 787.1338
458.7360, 792.1823
459.2181, 795.0021
459.7002, 792.2181
460.1823, 785.2122
460.6645, 778.4993
461.1466, 772.9209
461.6287, 769.6265
462.1108, 770.3148
462.5929, 776.1016
463.0750, 781.2416
463.5572, 783.2756
464.0393, 783.4303
464.5214, 783.1063
465.0035, 781.8790
465.4856, 780.9935
465.9677, 780.7298
466.4499, 781.0912
466.9320, 781.9594
467.4141, 785.2455
467.8962, 787.3372
468.3783, 785.8283
468.8604, 777.0364
469.3426, 772.5590
469.8247, 773.4846
470.3068, 778.1119
470.7889, 783.6572
471.2710, 790.7094
471.7531, 796.3956
472.2353, 798.9855
472.7174, 798.9195
473.1995, 801.3228
473.6816, 806.7153
474.1637, 811.4766
474.6458, 810.8054
475.1280, 805.9169
475.6101, 802.8203
476.0922, 803.5749
476.5743, 805.5898
477.0564, 803.4580
477.5385, 798.6278
478.0207, 797.3767
478.5028, 809.1273
478.9849, 823.2383
479.4670, 826.9499
479.9491, 817.6397
480.4312, 808.8256
480.9134, 808.4124
481.3955, 813.1645
481.8776, 819.2903
482.3597, 829.7006
482.8418, 837.1003
483.3239, 836.6867
483.8060, 829.8202
484.2881, 826.6901
484.7703, 836.5234
485.2524, 844.3609
485.7345, 842.0917
486.2166, 818.9559
486.6987, 808.6125
487.1808, 817.8287
487.6630, 835.3847
488.1451, 843.4152
488.6272, 838.7040
489.1093, 833.4314
489.5914, 831.7267
490.0735, 832.5719
490.5557, 826.8094
491.0378, 813.2929
491.5199, 799.6819
492.0020, 791.1481
492.4841, 787.7039
492.9662, 791.4459
493.4484, 806.0781
493.9305, 818.8502
494.4126, 805.9293
494.8947, 774.6140
495.3768, 750.2689
495.8589, 750.9455
496.3411, 761.5705
496.8232, 767.9905
497.3053, 769.7044
497.7874, 767.7073
498.2695, 761.0522
498.7516, 751.7084
499.2338, 741.1129
499.7159, 725.4394
500.1980, 714.3281
500.6801, 713.8696
501.1622, 720.2893
501.6443, 724.1689
502.1265, 723.1224
502.6086, 720.2999
503.0907, 716.3972
503.5728, 711.1551
504.0549, 705.9999
504.5370, 700.1473
505.0192, 695.2601
505.5013, 693.1172
505.9834, 694.3010
506.4655, 696.3683
506.9476, 700.4319
507.4297, 703.9680
507.9119, 697.7951
508.3940, 681.2238
508.8761, 667.1892
509.3582, 665.3070
509.8403, 671.5513
510.3224, 672.7050
510.8046, 667.9606
511.2867, 662.4432
511.7688, 662.0014
512.2509, 664.1091
512.7330, 663.9214
513.2151, 658.7259
513.6973, 652.2064
514.1794, 646.0628
514.6615, 640.6495
515.1436, 637.1096
515.6257, 638.1522
516.1078, 639.5127
516.5900, 637.9280
517.0721, 631.5090
517.5542, 628.7430
518.0363, 636.5760
518.5184, 645.9525
519.0005, 647.4667
519.4827, 631.9681
519.9648, 622.8140
520.4469, 625.7217
520.9290, 636.8100
521.4111, 640.8271
521.8932, 635.8553
522.3754, 629.0646
522.8575, 624.0123
523.3396, 620.6791
523.8217, 616.3140
524.3038, 610.4611
524.7859, 605.2531
525.2681, 602.3359
525.7502, 601.8448
526.2323, 604.8575
526.7144, 613.9428
527.1965, 623.7137
527.6786, 626.3405
528.1608, 623.2274
528.6429, 619.7108
529.1250, 619.3655
529.6071, 619.5790
530.0892, 617.6041
530.5714, 612.6229
531.0535, 609.4432
531.5356, 611.7104
532.0176, 616.0146
532.4998, 618.9821
532.9819, 618.8037
533.4640, 618.7001
533.9461, 620.0398
534.4282, 621.8967
534.9103, 620.8472
535.3925, 614.5903
535.8746, 608.9620
536.3567, 606.1763
536.8388, 606.3660
537.3209, 608.0892
537.8030, 611.8542
538.2852, 615.8079
538.7673, 617.9736
539.2494, 618.4354
539.7315, 618.6210
540.2136, 618.6667
540.6957, 618.8262
541.1779, 619.8986
541.6600, 621.5813
542.1421, 622.6182
542.6242, 619.1027
543.1063, 616.3963
543.5884, 623.0215
544.0706, 639.4451
544.5527, 651.5506
545.0348, 645.4882
545.5169, 634.5143
545.9990, 630.7875
546.4811, 644.2767
546.9633, 655.2466
547.4454, 656.9002
547.9275, 653.2649
548.4096, 654.1021
548.8917, 665.4895
549.3738, 673.5905
549.8560, 673.3516
550.3381, 664.7255
550.8202, 660.8716
551.3023, 662.6204
551.7844, 667.2861
552.2665, 674.6769
552.7487, 684.7630
553.2308, 687.9805
553.7129, 681.0094
554.1950, 673.2201
554.6771, 681.5073
555.1592, 702.2047
555.6414, 719.3909
556.1235, 724.6560
556.6056, 724.0997
557.0877, 722.3745
557.5698, 720.0825
558.0519, 721.0421
558.5341, 730.8802
559.0162, 742.7690
559.4983, 751.6227
559.9804, 757.1497
560.4625, 758.6738
560.9446, 751.2079
561.4268, 741.4392
561.9089, 737.4897
562.3910, 741.2354
562.8731, 748.9397
563.3552, 761.4094
563.8373, 777.4973
564.3195, 792.8714
564.8016, 807.7089
565.2837, 821.0038
565.7658, 832.2017
566.2479, 841.3562
566.7300, 848.5410
567.2122, 853.8120
567.6943, 856.5324
568.1764, 854.6234
568.6585, 849.4984
569.1406, 845.7509
569.6227, 845.4774
570.1049, 844.9335
570.5870, 835.9090
571.0691, 823.3573
571.5512, 819.0671
572.0333, 839.1661
572.5154, 860.3268
572.9976, 869.2892
573.4797, 865.5078
573.9618, 857.8622
574.4439, 843.3273
574.9260, 829.1382
575.4081, 820.0919
575.8903, 818.9305
576.3724, 817.3260
576.8545, 814.0057
577.3366, 811.2538
577.8187, 814.5131
578.3008, 826.5233
578.7830, 831.1794
579.2651, 822.2735
579.7472, 804.3209
580.2293, 789.7653
580.7114, 778.6698
581.1935, 771.8073
581.6757, 774.0596
582.1578, 779.8030
582.6399, 776.7111
583.1220, 763.3045
583.6041, 751.7603
584.0862, 755.0095
584.5684, 764.0073
585.0505, 768.0330
585.5326, 762.0364
586.0147, 753.4131
586.4968, 739.6531
586.9789, 725.2011
587.4611, 720.0506
587.9432, 739.6124
588.4253, 753.0085
588.9074, 751.1198
589.3895, 734.1757
589.8716, 720.1969
590.3538, 709.4245
590.8359, 701.0684
591.3180, 693.9838
591.8001, 688.1677
592.2822, 687.7592
592.7643, 694.1538
593.2465, 701.8225
593.7286, 703.7616
594.2107, 701.0353
594.6928, 697.0152
595.1749, 690.3966
595.6570, 685.7804
596.1392, 691.2172
596.6213, 703.2543
597.1034, 710.3638
597.5854, 702.0825
598.0676, 691.5434
598.5497, 686.1254
599.0318, 686.8063
599.5139, 688.0170
599.9960, 688.9660
600.4781, 690.1124
600.9603, 692.0922
601.4424, 697.2099
601.9245, 697.4090
602.4066, 689.5306
602.8887, 679.7454
603.3708, 679.6796
603.8530, 690.2038
604.3351, 698.1287
604.8172, 698.3186
605.2993, 694.1959
605.7814, 694.4066
606.2635, 698.2476
606.7457, 700.4291
607.2278, 695.5849
607.7099, 688.2131
608.1920, 684.0703
608.6741, 683.7948
609.1563, 682.7325
609.6384, 672.8716
610.1205, 664.0044
610.6026, 665.1293
611.0847, 690.3367
611.5668, 708.2738
612.0490, 710.6489
612.5311, 705.0596
613.0132, 703.6324
613.4953, 709.1262
613.9774, 713.0287
614.4595, 713.0735
614.9417, 709.9564
615.4238, 706.2482
615.9059, 701.6902
616.3880, 699.0661
616.8701, 703.6548
617.3522, 711.4585
617.8344, 708.6012
618.3165, 694.1586
618.7986, 678.9061
619.2807, 670.1547
619.7628, 666.9592
620.2449, 669.1363
620.7271, 681.3259
621.2092, 689.6845
621.6913, 683.7814
622.1734, 670.8876
622.6555, 663.2065
623.1376, 666.6479
623.6198, 671.5056
624.1019, 678.0638
624.5840, 685.1367
625.0661, 683.8719
625.5482, 669.5045
626.0303, 658.1494
626.5125, 659.7406
626.9946, 673.5176
627.4767, 682.8851
627.9588, 687.8364
628.4409, 688.4199
628.9230, 682.7540
629.4052, 672.9460
629.8873, 662.6353
630.3694, 650.9269
630.8515, 643.7870
631.3336, 651.5400
631.8157, 665.8232
632.2979, 673.2269
632.7800, 659.7852
633.2621, 648.3571
633.7442, 647.5964
634.2263, 655.8419
634.7084, 664.7603
635.1906, 678.3678
635.6727, 686.7111
636.1548, 684.3073
636.6369, 670.6519
637.1190, 664.9706
637.6011, 669.7518
638.0833, 673.8813
638.5654, 665.1365
639.0475, 646.7296
639.5296, 635.3868
640.0117, 633.6935
640.4938, 635.6832
640.9760, 635.2107
641.4581, 633.8591
641.9402, 634.5430
642.4223, 640.2922
642.9044, 645.8489
643.3865, 648.8863
643.8687, 649.6829
644.3508, 649.0364
644.8329, 643.5303
645.3150, 640.4821
645.7971, 644.1791
646.2792, 654.1732
646.7614, 655.0605
647.2435, 642.7651
647.7256, 629.8758
648.2077, 625.6282
648.6898, 629.8109
649.1719, 625.4307
649.6541, 610.3548
650.1362, 597.2553
