##NAMES=Cafarsite
##RRUFFID=R080118
##IDEAL CHEMISTRY=(Ca,Na,[box])_19_Ti^4+^_8_Fe^3+^_4_Fe^2+^_4_(As^3+^O_3_)_28_F
##LOCALITY=Monte Cervandone, Val Devero, Piedmont, Italy
##OWNER=RRUFF
##SOURCE=Renato and Adriana Pagano
##DESCRIPTION=Dark reddish-brown pseudocubic crystals associated with black clinochlore and white orthoclase
##STATUS=The identification of this mineral has been confirmed by single-crystal X-ray diffraction.
##URL=rruff.info/R080118
92.52344, 361.8281
93.00555, 357.9200
93.48767, 358.5401
93.96979, 372.2015
94.45190, 386.2849
94.93402, 399.3021
95.41614, 406.1064
95.89825, 408.6379
96.38037, 410.2323
96.86249, 410.9308
97.34460, 411.0630
97.82672, 411.3065
98.30884, 411.1816
98.79095, 410.4588
99.27307, 408.8388
99.75519, 406.6882
100.2373, 405.7138
100.7194, 405.8028
101.2015, 404.8925
101.6837, 402.5259
102.1658, 399.4836
102.6479, 396.3182
103.1300, 393.0360
103.6121, 389.4299
104.0942, 385.1048
104.5764, 380.2928
105.0585, 375.3765
105.5406, 370.4172
106.0227, 365.3858
106.5048, 360.2871
106.9869, 355.1180
107.4691, 349.6121
107.9512, 343.3949
108.4333, 336.7070
108.9154, 330.1832
109.3975, 324.2680
109.8796, 318.9440
110.3618, 314.2480
110.8439, 310.5247
111.3260, 307.0875
111.8081, 303.6558
112.2902, 300.2095
112.7723, 296.8781
113.2544, 293.8154
113.7366, 290.7550
114.2187, 288.6274
114.7008, 287.9717
115.1829, 287.8776
115.6650, 287.5043
116.1471, 286.5454
116.6293, 285.3323
117.1114, 284.6771
117.5935, 284.7999
118.0756, 284.9532
118.5577, 285.0110
119.0398, 284.9729
119.5220, 284.8338
120.0041, 284.5722
120.4862, 284.2088
120.9683, 283.7953
121.4504, 283.2328
121.9325, 282.7745
122.4147, 282.7774
122.8968, 283.2982
123.3789, 283.5686
123.8610, 282.8568
124.3431, 281.7950
124.8252, 280.9799
125.3074, 280.6552
125.7895, 280.5999
126.2716, 280.3204
126.7537, 279.5804
127.2358, 279.0518
127.7179, 279.0423
128.2001, 279.3082
128.6822, 279.5123
129.1643, 279.4159
129.6464, 279.0612
130.1285, 278.9940
130.6107, 279.6641
131.0928, 280.2125
131.5749, 280.3748
132.0570, 280.2383
132.5391, 280.0542
133.0212, 280.0620
133.5034, 280.3303
133.9855, 280.2883
134.4676, 279.3607
134.9497, 278.6421
135.4318, 279.0950
135.9139, 280.6678
136.3960, 282.1815
136.8782, 282.1709
137.3603, 280.2328
137.8424, 278.8052
138.3245, 278.1608
138.8066, 278.0427
139.2887, 278.2483
139.7709, 278.7893
140.2530, 279.4379
140.7351, 279.8747
141.2172, 280.1171
141.6993, 280.4369
142.1814, 280.8416
142.6636, 281.3854
143.1457, 282.3149
143.6278, 283.8765
144.1099, 285.6420
144.5920, 287.3153
145.0741, 288.8773
145.5563, 290.2706
146.0384, 291.3164
146.5205, 291.9374
147.0026, 292.8588
147.4847, 294.2610
147.9668, 295.9855
148.4490, 298.0052
148.9311, 300.2989
149.4132, 302.8380
149.8953, 305.5462
150.3774, 308.3252
150.8595, 311.5715
151.3417, 315.3736
151.8238, 319.4972
152.3059, 323.7721
152.7880, 328.1028
153.2701, 332.5510
153.7522, 337.2077
154.2344, 341.5209
154.7165, 346.7488
155.1986, 353.7617
155.6807, 361.5032
156.1628, 368.5081
156.6449, 373.9448
157.1271, 378.3969
157.6092, 384.3045
158.0913, 392.5985
158.5734, 401.0211
159.0555, 408.9514
159.5376, 416.5157
160.0198, 424.0759
160.5019, 431.8669
160.9840, 439.7733
161.4661, 447.2963
161.9482, 454.0289
162.4303, 460.8254
162.9125, 468.2887
163.3946, 476.3930
163.8767, 484.5989
164.3588, 492.6700
164.8409, 500.5616
165.3230, 508.2411
165.8052, 515.4388
166.2873, 522.6287
166.7694, 530.4127
167.2515, 539.0267
167.7336, 547.5311
168.2157, 555.2162
168.6979, 562.6252
169.1800, 570.4973
169.6621, 579.2919
170.1442, 588.6494
170.6263, 597.4943
171.1084, 605.0678
171.5906, 613.3836
172.0727, 623.8238
172.5548, 635.1711
173.0369, 645.6712
173.5190, 654.0846
174.0011, 660.7365
174.4833, 668.3630
174.9654, 677.8695
175.4475, 687.6116
175.9296, 697.5475
176.4117, 707.4404
176.8938, 717.1220
177.3760, 726.5202
177.8581, 735.6580
178.3402, 743.5203
178.8223, 749.1871
179.3044, 754.6324
179.7865, 760.4650
180.2687, 766.6589
180.7508, 772.9009
181.2329, 778.9033
181.7150, 784.6679
182.1971, 790.3447
182.6792, 795.3762
183.1614, 800.7682
183.6435, 807.3034
184.1256, 814.9194
184.6077, 822.7526
185.0898, 829.9109
185.5719, 836.3641
186.0541, 843.7645
186.5362, 852.6469
187.0183, 862.1896
187.5004, 872.0398
187.9825, 882.2548
188.4646, 891.5775
188.9468, 898.4650
189.4289, 903.3513
189.9110, 907.9323
190.3931, 913.3386
190.8752, 918.4191
191.3573, 921.4417
191.8395, 922.1571
192.3216, 921.0730
192.8037, 918.5278
193.2858, 914.6573
193.7679, 909.3714
194.2500, 902.1886
194.7322, 893.5303
195.2143, 884.6154
195.6964, 875.5632
196.1785, 866.0917
196.6606, 856.0540
197.1427, 845.5369
197.6249, 834.8283
198.1070, 824.1502
198.5891, 813.4620
199.0712, 802.3064
199.5533, 789.8192
200.0354, 777.8184
200.5176, 767.4952
200.9997, 758.2828
201.4818, 748.9215
201.9639, 738.4246
202.4460, 726.7605
202.9281, 715.2334
203.4103, 704.1530
203.8924, 693.0109
204.3745, 681.5524
204.8566, 669.8640
205.3387, 658.4098
205.8208, 647.5571
206.3030, 637.2770
206.7851, 627.5395
207.2672, 618.8982
207.7493, 610.2110
208.2314, 600.9597
208.7135, 591.2720
209.1957, 581.6223
209.6778, 572.3664
210.1599, 563.4632
210.6420, 555.6692
211.1241, 550.2241
211.6062, 544.6121
212.0884, 537.0250
212.5705, 527.7825
213.0526, 518.7782
213.5347, 511.6910
214.0168, 506.8033
214.4989, 502.0532
214.9811, 497.5898
215.4632, 493.1241
215.9453, 488.3460
216.4274, 483.2733
216.9095, 478.3224
217.3916, 473.7296
217.8737, 469.5762
218.3559, 466.3062
218.8380, 464.9580
219.3201, 463.8081
219.8022, 461.0546
220.2843, 456.5678
220.7664, 452.1761
221.2486, 449.4876
221.7307, 448.1703
222.2128, 446.8278
222.6949, 445.0949
223.1770, 443.3339
223.6591, 441.9461
224.1413, 440.9542
224.6234, 440.2291
225.1055, 439.7498
225.5876, 439.4760
226.0697, 439.3837
226.5518, 439.5903
227.0340, 439.9097
227.5161, 440.0893
227.9982, 440.1284
228.4803, 440.0171
228.9624, 439.6419
229.4445, 439.1394
229.9267, 438.6872
230.4088, 438.4096
230.8909, 438.1727
231.3730, 437.7372
231.8551, 437.0999
232.3372, 436.2627
232.8194, 435.1874
233.3015, 433.9445
233.7836, 432.6973
234.2657, 431.6729
234.7478, 430.4318
235.2299, 427.8127
235.7121, 422.9997
236.1942, 418.3956
236.6763, 414.9078
237.1584, 411.8834
237.6405, 408.6226
238.1227, 404.7987
238.6048, 400.6090
239.0869, 396.5225
239.5690, 392.3633
240.0511, 388.6393
240.5332, 385.6151
241.0154, 382.9201
241.4975, 380.1692
241.9796, 377.1911
242.4617, 374.2198
242.9438, 371.9211
243.4259, 370.8425
243.9081, 369.5960
244.3902, 367.7426
244.8723, 365.8044
245.3544, 364.2651
245.8365, 363.3076
246.3186, 362.8055
246.8008, 362.4713
247.2829, 362.4015
247.7650, 362.3817
248.2471, 362.4228
248.7292, 362.4916
249.2113, 362.5467
249.6935, 362.5760
250.1756, 362.6147
250.6577, 362.7324
251.1398, 362.9517
251.6219, 363.2260
252.1040, 363.5966
252.5862, 363.9933
253.0683, 364.3297
253.5504, 364.5857
254.0325, 364.8522
254.5146, 365.2981
254.9967, 366.2167
255.4789, 366.7344
255.9610, 366.4486
256.4431, 365.9998
256.9252, 365.9596
257.4073, 366.4585
257.8894, 367.2257
258.3716, 367.9185
258.8537, 368.5389
259.3358, 369.0459
259.8179, 369.4977
260.3000, 369.8069
260.7821, 369.8629
261.2643, 369.6548
261.7464, 369.3045
262.2285, 368.8911
262.7106, 368.3579
263.1927, 368.1531
263.6748, 368.6030
264.1570, 369.1783
264.6391, 369.4479
265.1212, 369.3649
265.6033, 369.0815
266.0854, 368.6073
266.5675, 367.4434
267.0497, 368.2549
267.5318, 368.6770
268.0139, 368.7304
268.4960, 367.3110
268.9781, 367.7934
269.4602, 367.5137
269.9424, 367.2027
270.4245, 367.9527
270.9066, 366.7476
271.3887, 367.4808
271.8708, 367.4403
272.3529, 367.7540
272.8351, 367.3007
273.3172, 367.4025
273.7993, 368.2944
274.2814, 369.4846
274.7635, 370.5500
275.2456, 371.5215
275.7278, 372.3208
276.2099, 372.8354
276.6920, 373.0919
277.1741, 373.2674
277.6562, 373.2764
278.1383, 373.3897
278.6205, 374.1251
279.1026, 375.8108
279.5847, 377.4225
280.0668, 378.2120
280.5489, 378.2932
281.0310, 378.3226
281.5132, 378.5323
281.9953, 378.7823
282.4774, 378.9250
282.9595, 378.9813
283.4416, 378.8207
283.9237, 378.3598
284.4059, 377.6161
284.8880, 376.5996
285.3701, 375.1316
285.8522, 373.6449
286.3343, 372.6916
286.8164, 372.2409
287.2986, 371.6349
287.7807, 370.4363
288.2628, 368.7939
288.7449, 367.2484
289.2270, 366.0056
289.7091, 364.6055
290.1913, 362.4818
290.6734, 359.8414
291.1555, 357.3753
291.6376, 355.5558
292.1197, 354.1394
292.6018, 352.4981
293.0840, 350.5283
293.5661, 348.5403
294.0482, 346.7629
294.5303, 345.1165
295.0124, 343.4373
295.4945, 341.7023
295.9767, 339.8931
296.4588, 337.8869
296.9409, 335.5533
297.4230, 333.4723
297.9051, 332.2087
298.3872, 331.2778
298.8694, 330.1062
299.3515, 328.4659
299.8336, 326.6371
300.3157, 325.0388
300.7978, 323.7341
301.2799, 322.2111
301.7621, 319.8304
302.2442, 317.3658
302.7263, 315.5355
303.2084, 314.5141
303.6905, 313.8424
304.1726, 313.1177
304.6548, 312.3421
305.1369, 311.4835
305.6190, 310.4241
306.1011, 309.3639
306.5832, 308.4142
307.0653, 307.5894
307.5475, 306.9507
308.0296, 306.7327
308.5117, 306.8734
308.9938, 306.5717
309.4759, 305.4702
309.9580, 304.1857
310.4402, 303.0480
310.9223, 302.0754
311.4044, 301.3026
311.8865, 300.7821
312.3686, 300.4909
312.8507, 300.4008
313.3329, 300.8137
313.8150, 300.8748
314.2971, 299.8234
314.7792, 298.1673
315.2613, 296.8673
315.7434, 296.5760
316.2256, 296.7602
316.7077, 296.1655
317.1898, 294.4516
317.6719, 292.8873
318.1540, 292.2648
318.6361, 291.9943
319.1183, 291.3877
319.6004, 290.1286
320.0825, 288.7788
320.5646, 288.2650
321.0467, 288.7799
321.5288, 288.8951
322.0110, 287.7101
322.4931, 286.2072
322.9752, 285.1756
323.4573, 284.7483
323.9394, 284.4331
324.4215, 283.7380
324.9037, 282.6769
325.3858, 281.6855
325.8679, 280.4843
326.3500, 279.7992
326.8321, 280.7053
327.3142, 282.8559
327.7964, 284.1781
328.2785, 282.5128
328.7606, 278.6199
329.2427, 276.3398
329.7248, 276.6892
330.2069, 277.2742
330.6891, 276.7257
331.1712, 275.3295
331.6533, 273.6253
332.1354, 271.6633
332.6175, 269.6427
333.0996, 268.0360
333.5818, 266.9759
334.0639, 265.8748
334.5460, 264.3673
335.0281, 262.6798
335.5102, 261.0267
335.9923, 259.4042
336.4745, 257.9412
336.9566, 257.0953
337.4387, 256.9592
337.9208, 255.9034
338.4029, 252.9345
338.8850, 249.0672
339.3671, 245.1648
339.8492, 241.2523
340.3314, 237.6475
340.8135, 234.7255
341.2956, 232.3639
341.7777, 229.9504
342.2598, 227.3467
342.7419, 224.7098
343.2241, 222.2493
343.7062, 219.9038
344.1883, 217.3940
344.6704, 214.4173
345.1525, 211.2085
345.6346, 208.2946
346.1168, 205.7613
346.5989, 203.3440
347.0810, 200.8971
347.5631, 198.4450
348.0452, 196.0076
348.5273, 193.5726
349.0095, 191.1718
349.4916, 188.7404
349.9737, 186.2796
350.4558, 184.1696
350.9379, 182.6997
351.4200, 181.6651
351.9022, 180.8238
352.3843, 180.4173
352.8664, 179.5113
353.3485, 177.1318
353.8306, 173.6464
354.3127, 170.4895
354.7949, 168.0167
355.2770, 166.0623
355.7591, 164.4913
356.2412, 163.2932
356.7233, 162.0927
357.2054, 160.7225
357.6876, 159.2768
358.1697, 157.9218
358.6518, 156.6916
359.1339, 155.4482
359.6160, 153.9803
360.0981, 152.3666
360.5803, 151.0823
361.0624, 150.4175
361.5445, 149.9324
362.0266, 149.2903
362.5087, 148.5005
362.9908, 147.7168
363.4730, 147.0588
363.9551, 146.4415
364.4372, 145.5746
364.9193, 144.1848
365.4014, 143.0187
365.8835, 142.5019
366.3657, 142.4176
366.8478, 142.3625
367.3299, 142.2243
367.8120, 141.9914
368.2941, 141.6060
368.7762, 141.0147
369.2584, 140.5183
369.7405, 140.1949
370.2226, 139.9648
370.7047, 139.7872
371.1868, 139.6456
371.6689, 139.4590
372.1511, 139.1180
372.6332, 138.6151
373.1153, 138.3597
373.5974, 138.6109
374.0795, 138.8287
374.5616, 138.6631
375.0438, 138.2482
375.5259, 137.9599
376.0080, 138.0189
376.4901, 138.3152
376.9722, 138.4605
377.4543, 138.3343
377.9365, 138.2146
378.4186, 138.0562
378.9007, 137.9497
379.3828, 138.0527
379.8649, 138.3919
380.3470, 138.7674
380.8292, 138.8837
381.3113, 138.5957
381.7934, 138.4811
382.2755, 138.6811
382.7576, 138.9077
383.2397, 139.0246
383.7219, 139.0218
384.2040, 138.9195
384.6861, 138.7150
385.1682, 138.4235
385.6503, 138.2879
386.1324, 138.6278
386.6146, 138.7712
387.0967, 138.2711
387.5788, 137.6199
388.0609, 137.5694
388.5430, 138.4335
389.0251, 139.6451
389.5073, 140.0053
389.9894, 138.9683
390.4715, 138.2039
390.9536, 138.0740
391.4357, 137.9959
391.9178, 137.5323
392.4000, 136.6925
392.8821, 135.8362
393.3642, 135.3027
393.8463, 135.0978
394.3284, 134.9983
394.8105, 135.0918
395.2927, 135.1941
395.7748, 135.3411
396.2569, 135.4371
396.7390, 135.2971
397.2211, 134.7741
397.7032, 134.0807
398.1854, 133.7462
398.6675, 133.9364
399.1496, 133.9792
399.6317, 133.5353
400.1138, 132.9637
400.5959, 132.4733
401.0781, 132.1064
401.5602, 131.9292
402.0423, 132.1465
402.5244, 132.7027
403.0065, 132.9401
403.4886, 132.5790
403.9708, 132.1815
404.4529, 132.0719
404.9350, 132.2270
405.4171, 132.6083
405.8992, 133.3936
406.3813, 134.2954
406.8635, 134.7792
407.3456, 134.7863
407.8277, 134.9295
408.3098, 135.6302
408.7919, 136.6047
409.2740, 137.3701
409.7562, 137.8720
410.2383, 138.2438
410.7204, 138.3184
411.2025, 138.3123
411.6846, 139.0344
412.1667, 140.9283
412.6489, 142.9153
413.1310, 143.4150
413.6131, 142.4814
414.0952, 142.0330
414.5773, 142.6358
415.0594, 143.7028
415.5416, 144.8143
416.0237, 145.9147
416.5058, 146.9257
416.9879, 147.8137
417.4700, 148.5614
417.9521, 149.0836
418.4343, 149.0280
418.9164, 149.2038
419.3985, 149.9664
419.8806, 151.0544
420.3627, 152.0961
420.8448, 152.9741
421.3270, 153.7694
421.8091, 154.6028
422.2912, 155.4919
422.7733, 156.3572
423.2554, 157.2210
423.7375, 158.0411
424.2197, 158.6998
424.7018, 159.2707
425.1839, 159.9961
425.6660, 161.0821
426.1481, 162.4401
426.6302, 163.4857
427.1124, 163.7899
427.5945, 164.2920
428.0766, 165.2139
428.5587, 166.3264
429.0408, 167.4065
429.5229, 168.3843
430.0051, 169.3462
430.4872, 170.5080
430.9693, 172.0377
431.4514, 173.0476
431.9335, 172.9837
432.4156, 172.8528
432.8978, 173.0126
433.3799, 173.4328
433.8620, 173.9551
434.3441, 174.4929
434.8262, 175.0532
435.3083, 175.6922
435.7905, 176.4956
436.2726, 177.1317
436.7547, 177.4675
437.2368, 177.5897
437.7189, 177.5406
438.2010, 177.3252
438.6832, 176.9782
439.1653, 176.4796
439.6474, 175.8583
440.1295, 175.2253
440.6116, 174.5008
441.0938, 173.9619
441.5759, 173.9776
442.0580, 174.3885
442.5401, 174.7314
443.0222, 175.1240
443.5043, 175.2211
443.9865, 174.5014
444.4686, 173.0527
444.9507, 171.6301
445.4328, 170.5659
445.9149, 169.7652
446.3970, 169.0188
446.8792, 168.3133
447.3613, 167.6853
447.8434, 167.1799
448.3255, 166.7419
448.8076, 166.2817
449.2897, 165.7882
449.7719, 165.3773
450.2540, 165.2000
450.7361, 165.2775
451.2182, 165.0522
451.7003, 164.4153
452.1824, 163.6481
452.6646, 162.6717
453.1467, 161.6697
453.6288, 160.9734
454.1109, 160.7270
454.5930, 160.7245
455.0751, 160.5453
455.5573, 160.0385
456.0394, 159.6485
456.5215, 159.6271
457.0036, 159.4903
457.4857, 158.8188
457.9678, 157.7378
458.4500, 156.7258
458.9321, 156.1592
459.4142, 155.9663
459.8963, 155.7233
460.3784, 155.4222
460.8605, 155.0825
461.3427, 154.7047
461.8248, 154.2964
462.3069, 153.8606
462.7890, 153.3985
463.2711, 152.9164
463.7532, 152.3311
464.2354, 151.6673
464.7175, 151.3770
465.1996, 151.7405
465.6817, 152.1208
466.1638, 152.0125
466.6459, 151.5707
467.1281, 151.1601
467.6102, 150.6946
468.0923, 150.4983
468.5744, 151.2314
469.0565, 152.7706
469.5386, 153.7643
470.0208, 153.5298
470.5029, 152.6695
470.9850, 152.1861
471.4671, 152.0629
471.9492, 152.2043
472.4313, 152.7001
472.9135, 153.3828
473.3956, 154.0930
473.8777, 154.8093
474.3598, 155.5689
474.8419, 156.4138
475.3240, 157.3282
475.8062, 158.1282
476.2883, 158.5075
476.7704, 159.1691
477.2525, 160.4531
477.7346, 162.0094
478.2167, 163.3412
478.6989, 164.3500
479.1810, 165.4148
479.6631, 167.0954
480.1452, 169.5554
480.6273, 171.7386
481.1094, 173.2809
481.5916, 174.9065
482.0737, 176.9262
482.5558, 179.1779
483.0379, 181.3694
483.5200, 183.3703
484.0021, 185.2450
484.4843, 187.0866
484.9664, 188.8685
485.4485, 190.7768
485.9306, 192.9717
486.4127, 195.2020
486.8948, 197.2295
487.3770, 199.1100
487.8591, 201.1399
488.3412, 203.4924
488.8233, 206.0992
489.3054, 208.9528
489.7875, 212.0904
490.2697, 214.9119
490.7518, 216.8263
491.2339, 218.3700
491.7160, 220.7009
492.1981, 224.1066
492.6802, 227.4172
493.1624, 229.9683
493.6445, 232.1609
494.1266, 234.5529
494.6087, 237.2520
495.0908, 240.1613
495.5729, 243.2802
496.0551, 246.5934
496.5372, 249.5928
497.0193, 252.1286
497.5014, 254.5707
497.9835, 257.0879
498.4656, 259.5697
498.9478, 261.8750
499.4299, 263.9547
499.9120, 265.8324
500.3941, 267.4966
500.8762, 268.8781
501.3583, 270.3655
501.8405, 272.2253
502.3226, 273.9142
502.8047, 275.1653
503.2868, 276.1125
503.7689, 277.0555
504.2510, 278.1984
504.7331, 279.1935
505.2152, 279.2975
505.6974, 278.3594
506.1795, 277.4496
506.6616, 276.5419
507.1437, 275.9862
507.6258, 276.5016
508.1079, 277.7793
508.5901, 278.1599
509.0722, 276.1827
509.5543, 273.1745
510.0364, 271.0543
510.5185, 269.8288
511.0006, 268.7528
511.4828, 267.5385
511.9649, 266.2195
512.4470, 264.9101
512.9291, 263.6945
513.4113, 262.2179
513.8934, 260.0611
514.3755, 257.8058
514.8576, 256.1344
515.3397, 255.0496
515.8218, 254.0906
516.3040, 252.9315
516.7861, 251.5798
517.2682, 250.1116
517.7503, 248.3780
518.2324, 246.7150
518.7145, 245.1039
519.1967, 243.5918
519.6788, 242.1583
520.1609, 240.8331
520.6430, 239.7726
521.1251, 239.2566
521.6072, 239.2528
522.0894, 238.7086
522.5715, 237.3039
523.0536, 235.8500
523.5357, 234.5558
524.0178, 233.4001
524.4999, 232.4107
524.9821, 231.6120
525.4642, 230.7761
525.9463, 229.6518
526.4284, 228.3030
526.9105, 226.9658
527.3926, 225.6648
527.8748, 224.4311
528.3569, 223.3855
528.8390, 222.4334
529.3211, 221.2274
529.8032, 219.6201
530.2853, 217.8876
530.7675, 216.1982
531.2496, 214.4925
531.7317, 212.5775
532.2138, 210.3837
532.6959, 208.2558
533.1780, 206.6891
533.6602, 205.8530
534.1423, 204.4884
534.6244, 202.1162
535.1065, 199.8144
535.5886, 198.0972
536.0707, 196.6871
536.5529, 195.1047
537.0350, 193.1743
537.5171, 191.1244
537.9992, 189.3675
538.4813, 187.9751
538.9634, 186.5090
539.4456, 184.6869
539.9277, 183.1046
540.4098, 182.2125
540.8919, 181.7376
541.3740, 181.1111
541.8561, 180.0463
542.3383, 178.8833
542.8204, 178.1401
543.3025, 177.7518
543.7846, 177.0168
544.2667, 175.5683
544.7488, 174.1087
545.2310, 173.5557
545.7131, 173.7965
546.1952, 173.8365
546.6773, 173.2519
547.1594, 172.6803
547.6415, 172.5697
548.1237, 172.8043
548.6058, 173.0432
549.0879, 173.1446
549.5700, 173.2703
550.0521, 173.6899
550.5342, 174.4651
551.0164, 175.3607
551.4985, 176.7106
551.9806, 177.8191
552.4627, 177.9829
552.9448, 177.7568
553.4269, 178.2679
553.9091, 180.0893
554.3912, 182.4753
554.8733, 184.1074
555.3554, 184.8806
555.8375, 185.6475
556.3196, 186.4465
556.8018, 187.3438
557.2839, 188.2158
557.7660, 189.1994
558.2481, 190.6983
558.7302, 193.1287
559.2123, 195.8005
559.6945, 197.9858
560.1766, 199.7837
560.6587, 201.5856
561.1408, 203.4842
561.6229, 205.5286
562.1050, 207.8450
562.5872, 210.4873
563.0693, 212.9754
563.5514, 215.0173
564.0335, 217.1849
564.5156, 219.9180
564.9977, 222.9392
565.4799, 225.6546
565.9620, 227.8315
566.4441, 229.9572
566.9262, 232.8682
567.4083, 236.8082
567.8904, 240.5415
568.3726, 243.9923
568.8547, 247.2953
569.3368, 250.4050
569.8189, 253.4213
570.3010, 256.4935
570.7831, 259.7271
571.2653, 262.9256
571.7474, 265.7715
572.2295, 268.3278
572.7116, 271.2234
573.1937, 274.5943
573.6758, 278.1961
574.1580, 281.9780
574.6401, 285.8455
575.1222, 289.4378
575.6043, 292.7162
576.0864, 295.7184
576.5685, 298.2152
577.0507, 300.4922
577.5328, 303.0758
578.0149, 306.0826
578.4970, 309.1522
578.9791, 311.8718
579.4612, 314.2184
579.9434, 316.8144
580.4255, 320.1036
580.9076, 323.1205
581.3897, 325.6495
581.8718, 327.8642
582.3539, 329.9187
582.8361, 331.8718
583.3182, 333.7349
583.8003, 335.6217
584.2824, 337.4804
584.7645, 338.8507
585.2466, 339.6016
585.7288, 340.2403
586.2108, 340.9140
586.6929, 341.6711
587.1750, 342.6232
587.6572, 343.8540
