##NAMES=Cafarsite
##RRUFFID=R080118
##IDEAL CHEMISTRY=(Ca,Na,[box])_19_Ti^4+^_8_Fe^3+^_4_Fe^2+^_4_(As^3+^O_3_)_28_F
##LOCALITY=Monte Cervandone, Val Devero, Piedmont, Italy
##OWNER=RRUFF
##SOURCE=Renato and Adriana Pagano
##DESCRIPTION=Dark reddish-brown pseudocubic crystals associated with black clinochlore and white orthoclase
##STATUS=The identification of this mineral has been confirmed by single-crystal X-ray diffraction.
##URL=rruff.info/R080118
92.35352, 14.69127
92.83563, 14.91123
93.31775, 15.00540
93.79987, 14.77645
94.28198, 14.39571
94.76410, 14.38729
95.24622, 14.93882
95.72833, 15.82752
96.21045, 16.58000
96.69257, 17.19153
97.17468, 17.80152
97.65680, 18.48868
98.13892, 19.25654
98.62103, 20.18392
99.10315, 21.28947
99.58527, 22.56574
100.0674, 23.89271
100.5495, 25.22615
101.0316, 26.68310
101.5137, 28.35401
101.9958, 30.22646
102.4780, 32.39620
102.9601, 34.91086
103.4422, 37.80384
103.9243, 40.79297
104.4064, 43.82830
104.8885, 47.00652
105.3707, 50.56885
105.8528, 54.45111
106.3349, 58.76725
106.8170, 63.55822
107.2991, 69.02679
107.7813, 74.58733
108.2634, 80.19409
108.7455, 85.91422
109.2276, 91.76128
109.7097, 97.89329
110.1918, 104.0936
110.6740, 110.2823
111.1561, 116.7401
111.6382, 122.8690
112.1203, 128.3811
112.6024, 133.4428
113.0845, 138.7497
113.5667, 144.1473
114.0488, 149.9488
114.5309, 156.4323
115.0130, 164.1074
115.4951, 171.9887
115.9772, 179.7574
116.4594, 187.4846
116.9415, 195.5123
117.4236, 204.0079
117.9057, 212.8661
118.3878, 221.9347
118.8699, 231.5579
119.3521, 241.1842
119.8342, 250.6583
120.3163, 259.9746
120.7984, 269.0592
121.2805, 277.5306
121.7626, 285.7607
122.2448, 294.3850
122.7269, 305.1837
123.2090, 315.8045
123.6911, 323.6769
124.1732, 328.1702
124.6553, 331.4223
125.1375, 334.8232
125.6196, 338.4631
126.1017, 342.6268
126.5838, 347.4123
127.0659, 352.8541
127.5480, 359.2200
128.0302, 366.9163
128.5123, 374.8550
128.9944, 381.3324
129.4765, 386.4852
129.9586, 391.5905
130.4407, 397.6483
130.9229, 404.4540
131.4050, 411.1837
131.8871, 417.4063
132.3692, 423.5316
132.8513, 430.2592
133.3334, 436.8950
133.8156, 442.2275
134.2977, 447.1287
134.7798, 453.0880
135.2619, 458.5667
135.7440, 463.1059
136.2261, 466.8973
136.7083, 471.2740
137.1904, 476.4041
137.6725, 481.6714
138.1546, 486.6275
138.6367, 491.3606
139.1188, 495.5259
139.6010, 499.0772
140.0831, 502.0112
140.5652, 504.4183
141.0473, 506.0800
141.5294, 507.5587
142.0115, 509.6297
142.4937, 512.6299
142.9758, 515.4240
143.4579, 517.5280
143.9400, 518.5919
144.4221, 520.5905
144.9042, 523.9088
145.3864, 527.9010
145.8685, 531.3979
146.3506, 534.1777
146.8327, 536.7863
147.3148, 539.3083
147.7969, 541.2142
148.2791, 544.2028
148.7612, 549.0045
149.2433, 554.7968
149.7254, 559.7477
150.2075, 562.0600
150.6896, 565.0767
151.1718, 570.0457
151.6539, 578.7383
152.1360, 586.7892
152.6181, 593.4821
153.1002, 599.3856
153.5823, 606.1647
154.0645, 614.5917
154.5466, 623.5040
155.0287, 632.3653
155.5108, 642.0616
155.9929, 650.7323
156.4750, 657.0443
156.9572, 661.7422
157.4393, 667.7489
157.9214, 677.0851
158.4035, 687.1231
158.8856, 696.2492
159.3677, 702.9352
159.8499, 709.8931
160.3320, 718.1033
160.8141, 727.3305
161.2962, 736.2176
161.7783, 743.9189
162.2604, 751.1837
162.7426, 758.6306
163.2247, 767.1141
163.7068, 775.2420
164.1889, 782.0657
164.6710, 787.6371
165.1531, 793.5841
165.6353, 800.8128
166.1174, 808.7772
166.5995, 816.8886
167.0816, 824.9561
167.5637, 833.0752
168.0458, 841.3728
168.5280, 849.7722
169.0101, 858.1888
169.4922, 866.2914
169.9743, 874.3370
170.4564, 882.6398
170.9385, 891.6414
171.4207, 900.7657
171.9028, 909.5589
172.3849, 917.9606
172.8670, 926.0986
173.3491, 934.4302
173.8312, 942.6248
174.3134, 950.0749
174.7955, 955.9587
175.2776, 961.1265
175.7597, 966.4365
176.2418, 971.9632
176.7239, 977.7317
177.2061, 984.3351
177.6882, 991.4208
178.1703, 997.8938
178.6524, 1003.205
179.1345, 1007.660
179.6166, 1011.320
180.0988, 1014.001
180.5809, 1017.081
181.0630, 1022.561
181.5451, 1029.987
182.0272, 1037.296
182.5093, 1042.377
182.9915, 1046.671
183.4736, 1053.992
183.9557, 1065.141
184.4378, 1077.523
184.9199, 1088.096
185.4020, 1096.846
185.8842, 1105.084
186.3663, 1113.128
186.8484, 1121.136
187.3305, 1129.628
187.8126, 1139.029
188.2947, 1148.165
188.7769, 1155.062
189.2590, 1159.797
189.7411, 1163.844
190.2232, 1168.351
190.7053, 1173.065
191.1874, 1176.450
191.6696, 1178.356
192.1517, 1179.037
192.6338, 1179.019
193.1159, 1178.320
193.5980, 1176.595
194.0801, 1173.256
194.5623, 1168.438
195.0444, 1163.914
195.5265, 1160.069
196.0086, 1156.300
196.4907, 1151.264
196.9728, 1144.866
197.4550, 1137.949
197.9371, 1131.117
198.4192, 1124.382
198.9013, 1116.855
199.3834, 1108.346
199.8655, 1099.156
200.3477, 1089.872
200.8298, 1080.561
201.3119, 1070.927
201.7940, 1060.320
202.2761, 1048.551
202.7582, 1038.218
203.2404, 1030.208
203.7225, 1023.302
204.2046, 1013.828
204.6867, 1001.185
205.1688, 988.0266
205.6509, 976.1891
206.1331, 965.8343
206.6152, 955.3094
207.0973, 944.3506
207.5794, 933.1957
208.0615, 922.6223
208.5436, 912.7632
209.0258, 903.0837
209.5079, 893.2319
209.9900, 883.0849
210.4721, 873.4866
210.9542, 864.4862
211.4363, 856.0754
211.9185, 848.4058
212.4006, 841.8476
212.8827, 835.1442
213.3648, 827.4840
213.8469, 818.2990
214.3290, 809.9242
214.8112, 802.5847
215.2933, 796.1848
215.7754, 790.1331
216.2575, 784.3447
216.7396, 779.0314
217.2217, 774.4713
217.7038, 770.9947
218.1860, 767.2745
218.6681, 763.1611
219.1502, 758.7770
219.6323, 754.6261
220.1144, 750.8485
220.5965, 747.1407
221.0787, 743.2920
221.5608, 739.0557
222.0429, 735.4128
222.5250, 732.5554
223.0071, 730.3362
223.4892, 728.3160
223.9714, 726.4638
224.4535, 724.8487
224.9356, 723.5692
225.4177, 722.9476
225.8998, 721.8923
226.3819, 720.2164
226.8641, 718.0801
227.3462, 716.0735
227.8283, 714.1808
228.3104, 712.4323
228.7925, 710.8851
229.2746, 709.6237
229.7568, 708.3224
230.2389, 707.0291
230.7210, 705.6599
231.2031, 704.0057
231.6852, 702.0717
232.1673, 699.8423
232.6495, 697.2873
233.1316, 694.2352
233.6137, 691.2187
234.0958, 688.1664
234.5779, 685.2097
235.0600, 682.8660
235.5422, 681.7148
236.0243, 680.3045
236.5064, 677.8668
236.9885, 673.6070
237.4706, 670.0850
237.9527, 667.4542
238.4349, 665.5656
238.9170, 664.1484
239.3991, 663.4952
239.8812, 662.8707
240.3633, 661.8658
240.8454, 659.9802
241.3276, 659.0129
241.8097, 659.4415
242.2918, 660.6237
242.7739, 661.1425
243.2560, 660.6992
243.7381, 660.0551
244.2203, 659.4521
244.7024, 658.8175
245.1845, 658.4311
245.6666, 658.2827
246.1487, 658.3904
246.6308, 658.8506
247.1130, 659.9919
247.5951, 660.9400
248.0772, 661.2314
248.5593, 660.4589
249.0414, 660.6165
249.5235, 662.3926
250.0057, 664.6569
250.4878, 665.4252
250.9699, 663.7004
251.4520, 662.2429
251.9341, 661.9822
252.4162, 663.1442
252.8984, 664.4267
253.3805, 666.1439
253.8626, 667.7444
254.3447, 668.3533
254.8268, 667.6861
255.3089, 666.6169
255.7911, 665.2236
256.2732, 663.3799
256.7553, 662.2258
257.2374, 661.8363
257.7195, 662.0677
258.2017, 662.9391
258.6838, 665.0967
259.1659, 666.4255
259.6480, 666.2345
260.1301, 664.4659
260.6122, 662.8153
261.0944, 661.1580
261.5765, 659.7725
262.0586, 659.0330
262.5407, 659.2031
263.0228, 659.3116
263.5049, 659.1796
263.9871, 658.8114
264.4692, 658.2208
264.9513, 657.2175
265.4334, 656.2938
265.9155, 655.8731
266.3976, 655.9929
266.8798, 656.5608
267.3619, 657.7996
267.8440, 659.5547
268.3261, 660.3060
268.8082, 659.5689
269.2903, 658.8398
269.7725, 659.6180
270.2546, 662.4207
270.7367, 664.2217
271.2188, 664.2807
271.7009, 663.0607
272.1830, 662.5111
272.6652, 662.7477
273.1473, 663.3434
273.6294, 664.0740
274.1115, 664.9633
274.5936, 665.8382
275.0757, 666.7211
275.5579, 667.5528
276.0400, 668.1219
276.5221, 668.3891
277.0042, 668.5299
277.4863, 668.5941
277.9684, 668.5645
278.4506, 668.6411
278.9327, 668.8201
279.4148, 669.1357
279.8969, 669.8555
280.3790, 671.1033
280.8611, 671.9208
281.3433, 671.6584
281.8254, 670.3259
282.3075, 669.0982
282.7896, 668.0365
283.2717, 667.0334
283.7538, 665.9780
284.2360, 664.8797
284.7181, 663.5672
285.2002, 661.8994
285.6823, 659.9141
286.1644, 657.9171
286.6465, 655.9131
287.1287, 653.9373
287.6108, 651.9339
288.0929, 649.9188
288.5750, 648.2795
289.0571, 647.3701
289.5392, 646.9495
290.0214, 646.1114
290.5035, 644.8492
290.9856, 643.2801
291.4677, 641.4537
291.9498, 639.3907
292.4319, 637.2760
292.9141, 635.1429
293.3962, 632.9937
293.8783, 630.8236
294.3604, 628.6462
294.8425, 626.4672
295.3246, 623.9774
295.8068, 621.4167
296.2889, 619.7339
296.7710, 619.5511
297.2531, 619.8605
297.7352, 618.7463
298.2173, 616.3787
298.6995, 614.1619
299.1816, 613.3290
299.6637, 613.3695
300.1458, 613.2556
300.6279, 612.7936
301.1100, 612.1113
301.5922, 611.0735
302.0743, 609.8419
302.5564, 609.0947
303.0385, 609.7359
303.5206, 610.9256
304.0027, 611.4062
304.4849, 610.9000
304.9670, 610.1179
305.4491, 609.5653
305.9312, 609.2519
306.4133, 609.2021
306.8954, 609.8236
307.3776, 610.5181
307.8597, 610.5904
308.3418, 609.9603
308.8239, 609.2589
309.3060, 608.9240
309.7881, 608.8394
310.2703, 608.8260
310.7524, 609.0855
311.2345, 609.1979
311.7166, 608.6783
312.1987, 607.5523
312.6808, 606.6243
313.1630, 606.6996
313.6451, 607.0646
314.1272, 606.9432
314.6093, 605.2467
315.0914, 603.7784
315.5735, 603.7756
316.0557, 604.9359
316.5378, 605.6768
317.0199, 605.1767
317.5020, 604.0866
317.9841, 602.8143
318.4662, 601.1246
318.9484, 599.7977
319.4305, 599.4532
319.9126, 599.7076
320.3947, 599.5500
320.8768, 598.2981
321.3589, 596.8605
321.8411, 595.6964
322.3232, 595.0037
322.8053, 594.2707
323.2874, 593.5544
323.7695, 592.7106
324.2516, 591.5114
324.7338, 589.4110
325.2159, 587.4166
325.6980, 585.9639
326.1801, 585.2825
326.6622, 584.1560
327.1443, 582.2713
327.6265, 580.0006
328.1086, 577.7059
328.5907, 575.2784
329.0728, 572.9949
329.5549, 570.9543
330.0370, 569.1536
330.5192, 567.3054
331.0013, 565.5434
331.4834, 563.6135
331.9655, 561.3284
332.4476, 558.6766
332.9297, 555.6520
333.4119, 552.0975
333.8940, 548.1586
334.3761, 544.5367
334.8582, 541.4413
335.3403, 538.4426
335.8224, 535.3547
336.3046, 532.1680
336.7867, 528.9071
337.2688, 525.6624
337.7509, 522.2501
338.2330, 518.0822
338.7151, 512.9133
339.1973, 507.8600
339.6794, 503.4163
340.1615, 499.6688
340.6436, 495.4845
341.1257, 490.7938
341.6078, 485.9395
342.0899, 481.3707
342.5721, 477.1964
343.0542, 472.9635
343.5363, 468.4867
344.0184, 463.9083
344.5005, 459.8636
344.9826, 456.4705
345.4648, 453.0074
345.9469, 448.6230
346.4290, 443.4269
346.9111, 438.7976
347.3932, 435.0301
347.8753, 431.8376
348.3575, 428.9545
348.8396, 426.3484
349.3217, 423.5576
349.8038, 420.0628
350.2859, 416.1759
350.7680, 412.7172
351.2502, 409.8498
351.7323, 407.1417
352.2144, 404.0540
352.6965, 400.6935
353.1786, 397.4740
353.6607, 394.8392
354.1429, 392.3535
354.6250, 389.3027
355.1071, 385.6392
355.5892, 382.2351
356.0713, 379.8993
356.5534, 378.2354
357.0356, 376.6584
357.5177, 375.1331
357.9998, 373.4676
358.4819, 371.3832
358.9640, 368.9746
359.4461, 366.8242
359.9283, 365.5478
360.4104, 364.4891
360.8925, 363.0458
361.3746, 360.7121
361.8567, 358.6105
362.3388, 357.4257
362.8210, 356.8149
363.3031, 355.9751
363.7852, 354.5706
364.2673, 352.9449
364.7494, 351.1516
365.2315, 349.0439
365.7137, 347.3285
366.1958, 346.5406
366.6779, 346.0966
367.1600, 345.3027
367.6421, 343.2177
368.1242, 341.6728
368.6064, 341.5114
369.0885, 342.8504
369.5706, 342.9164
370.0527, 340.5151
370.5348, 337.7719
371.0169, 336.0467
371.4991, 335.8671
371.9812, 335.8693
372.4633, 336.1481
372.9454, 336.5445
373.4275, 336.4229
373.9096, 335.4125
374.3918, 334.5328
374.8739, 334.3410
375.3560, 335.0477
375.8381, 335.4941
376.3202, 335.6790
376.8023, 335.5983
377.2845, 335.1402
377.7666, 334.2130
378.2487, 333.4170
378.7308, 332.9861
379.2129, 332.8640
379.6950, 332.7429
380.1772, 332.6216
380.6593, 332.4919
381.1414, 332.2625
381.6235, 331.9677
382.1056, 331.9526
382.5877, 332.3899
383.0699, 333.0052
383.5520, 333.2773
384.0341, 333.2315
384.5162, 333.0928
384.9983, 332.9281
385.4804, 332.7842
385.9626, 332.8566
386.4447, 333.2352
386.9268, 333.4440
387.4089, 332.7192
387.8910, 331.4406
388.3731, 330.4809
388.8553, 330.6458
389.3374, 331.0406
389.8195, 330.6146
390.3016, 329.4274
390.7837, 328.5248
391.2658, 329.0247
391.7480, 329.9606
392.2301, 330.2907
392.7122, 329.2387
393.1943, 328.2178
393.6764, 328.1232
394.1585, 328.6241
394.6407, 328.7785
395.1228, 327.7652
395.6049, 326.7261
396.0870, 326.2885
396.5691, 326.7520
397.0512, 327.0916
397.5334, 326.9227
398.0155, 326.5861
398.4976, 326.5096
398.9797, 326.8954
399.4618, 327.3664
399.9439, 327.9174
400.4261, 328.5435
400.9082, 328.9657
401.3903, 328.8934
401.8724, 328.8831
402.3545, 329.3161
402.8366, 330.4213
403.3188, 331.4683
403.8009, 332.4687
404.2830, 333.3644
404.7651, 333.9029
405.2472, 333.8496
405.7293, 334.1069
406.2115, 335.2572
406.6936, 337.3358
407.1757, 338.6586
407.6578, 339.0749
408.1399, 339.1558
408.6220, 339.5024
409.1042, 340.1137
409.5863, 340.9014
410.0684, 341.8920
410.5505, 343.0047
411.0326, 344.0393
411.5147, 345.0089
411.9969, 346.1446
412.4790, 348.0451
412.9611, 350.2255
413.4432, 351.2415
413.9253, 350.6193
414.4074, 349.9841
414.8896, 351.2739
415.3717, 353.9143
415.8538, 356.5561
416.3359, 358.7870
416.8180, 360.5641
417.3001, 361.5420
417.7823, 361.7680
418.2644, 362.2459
418.7465, 363.9196
419.2286, 365.9707
419.7107, 367.5414
420.1928, 367.7286
420.6750, 368.3432
421.1571, 370.4133
421.6392, 373.4642
422.1213, 376.2188
422.6034, 378.8430
423.0855, 380.6650
423.5677, 381.0634
424.0498, 379.2681
424.5319, 378.6744
425.0140, 380.5815
425.4961, 383.3253
425.9782, 385.2147
426.4604, 385.4676
426.9425, 386.0389
427.4246, 387.3807
427.9067, 389.3477
428.3888, 390.7895
428.8709, 391.4924
429.3531, 392.0477
429.8352, 392.7320
430.3173, 393.4969
430.7994, 394.6900
431.2815, 396.5499
431.7636, 398.4555
432.2458, 399.1941
432.7279, 398.6848
433.2100, 398.3058
433.6921, 398.7080
434.1742, 399.5824
434.6563, 399.7570
435.1385, 399.2192
435.6206, 398.4312
436.1027, 397.6918
436.5848, 397.0107
437.0669, 396.4913
437.5490, 396.2882
438.0312, 395.9184
438.5133, 394.6569
438.9954, 392.7577
439.4775, 390.9176
439.9596, 389.3483
440.4417, 388.1005
440.9239, 387.3261
441.4060, 387.0369
441.8881, 386.7878
442.3702, 386.4401
442.8523, 385.9627
443.3344, 385.3082
443.8166, 383.9856
444.2987, 383.0416
444.7808, 383.5136
445.2629, 384.6978
445.7450, 384.5353
446.2271, 380.4784
446.7093, 376.8561
447.1914, 375.6909
447.6735, 378.2676
448.1556, 379.2016
448.6377, 377.3560
449.1198, 374.6249
449.6020, 372.9233
450.0841, 372.7769
450.5662, 372.6415
451.0483, 372.3252
451.5304, 371.8455
452.0125, 371.2682
452.4947, 370.5558
452.9768, 369.8478
453.4589, 369.1718
453.9410, 368.5184
454.4231, 368.1511
454.9052, 368.1574
455.3874, 368.1497
455.8695, 367.5493
456.3516, 366.4254
456.8337, 365.3194
457.3158, 364.3599
457.7979, 363.5444
458.2801, 362.9599
458.7622, 362.5695
459.2443, 362.0785
459.7264, 361.2522
460.2085, 360.2299
460.6906, 359.1493
461.1728, 357.9918
461.6549, 356.9926
462.1370, 356.5148
462.6191, 356.2810
463.1012, 355.8944
463.5833, 354.7641
464.0655, 353.8593
464.5476, 353.8729
465.0297, 354.6677
465.5118, 355.0550
465.9939, 354.3662
466.4760, 353.4260
466.9582, 352.6861
467.4403, 352.3217
467.9224, 351.8819
468.4045, 351.2144
468.8866, 350.5259
469.3687, 350.0955
469.8509, 349.9292
470.3330, 350.0460
470.8151, 350.5691
471.2972, 351.4391
471.7793, 351.9618
472.2614, 352.0319
472.7436, 352.0652
473.2257, 352.2709
473.7078, 352.6492
474.1899, 353.5144
474.6720, 355.0269
475.1541, 356.6643
475.6363, 357.5750
476.1184, 357.8603
476.6005, 358.1565
477.0826, 358.4694
477.5647, 359.0922
478.0468, 360.8131
478.5290, 363.5105
479.0111, 366.0816
479.4932, 367.4897
479.9753, 368.4473
480.4574, 369.8380
480.9395, 371.9442
481.4217, 374.0934
481.9038, 375.8604
482.3859, 377.3794
482.8680, 378.8222
483.3501, 379.6303
483.8322, 380.9644
484.3144, 383.6783
484.7965, 387.6171
485.2786, 390.8315
485.7607, 392.1101
486.2428, 393.2766
486.7249, 395.2687
487.2071, 398.5233
487.6892, 401.6364
488.1713, 404.7217
488.6534, 407.5874
489.1355, 409.8771
489.6176, 411.2751
490.0998, 413.1215
490.5819, 415.9223
491.0640, 419.4614
491.5461, 422.5104
492.0282, 425.0410
492.5103, 427.4748
492.9925, 429.9926
493.4746, 432.6480
493.9567, 435.5698
494.4388, 438.8581
494.9209, 442.1305
495.4030, 444.9443
495.8852, 447.4117
496.3673, 449.9054
496.8494, 452.5605
497.3315, 455.2521
497.8136, 457.8284
498.2957, 460.3330
498.7779, 462.8571
499.2600, 465.7780
499.7421, 468.5395
500.2242, 470.6685
500.7063, 471.9862
501.1884, 473.3485
501.6706, 475.1003
502.1527, 476.9872
502.6348, 478.7242
503.1169, 480.2194
503.5990, 481.6461
504.0811, 483.0674
504.5633, 484.4346
505.0454, 485.6316
505.5275, 486.8405
506.0096, 487.5150
506.4917, 487.1741
506.9738, 485.6501
507.4560, 485.3004
507.9381, 486.4884
508.4202, 487.8634
508.9023, 487.8460
509.3844, 486.5294
509.8665, 485.5705
510.3487, 485.3375
510.8308, 485.4873
511.3129, 485.5274
511.7950, 485.4688
512.2772, 485.3539
512.7593, 485.3314
513.2414, 485.2000
513.7235, 484.5116
514.2056, 483.3004
514.6877, 482.3906
515.1699, 482.7864
515.6520, 483.4723
516.1341, 483.4700
516.6162, 482.2469
517.0983, 480.9342
517.5804, 479.8970
518.0626, 478.9953
518.5447, 478.0029
519.0268, 476.8135
519.5089, 475.5911
519.9910, 474.3257
520.4731, 473.0254
520.9553, 471.9575
521.4374, 471.4427
521.9195, 470.7070
522.4016, 469.1029
522.8837, 466.2979
523.3658, 464.6849
523.8480, 464.7186
524.3301, 465.0332
524.8122, 463.5991
525.2943, 460.5418
525.7764, 457.6540
526.2585, 455.3569
526.7407, 453.5836
527.2228, 452.3236
527.7049, 451.5039
528.1870, 450.7291
528.6691, 450.0742
529.1512, 449.1549
529.6334, 447.3453
530.1155, 444.5561
530.5976, 441.7777
531.0797, 439.3223
531.5618, 437.2567
532.0439, 435.7070
532.5261, 435.1708
533.0082, 434.4403
533.4903, 432.9550
533.9724, 431.0768
534.4545, 429.5513
534.9366, 428.9650
535.4188, 428.1523
535.9009, 426.7817
536.3830, 424.8727
536.8651, 423.1086
537.3472, 421.4746
537.8293, 420.0366
538.3115, 418.9160
538.7936, 418.1490
539.2757, 417.2439
539.7578, 416.0887
540.2399, 415.0755
540.7220, 414.9271
541.2042, 415.4766
541.6863, 415.7192
542.1684, 415.1251
542.6505, 414.3296
543.1326, 414.3107
543.6147, 414.9027
544.0969, 415.4863
544.5790, 415.5917
545.0611, 415.5914
545.5432, 415.7996
546.0253, 416.2474
546.5074, 416.7256
546.9896, 416.8587
547.4717, 417.1450
547.9538, 418.0043
548.4359, 420.2627
548.9180, 422.0640
549.4001, 422.8360
549.8823, 423.2140
550.3644, 424.3112
550.8465, 426.5853
551.3286, 428.7516
551.8107, 430.4942
552.2928, 431.8673
552.7750, 433.0790
553.2571, 434.0326
553.7392, 435.3290
554.2213, 437.6336
554.7034, 440.7061
555.1855, 443.2196
555.6677, 445.0625
556.1498, 446.6982
556.6319, 448.3079
557.1140, 450.0846
557.5961, 452.4823
558.0782, 455.9251
558.5604, 459.5347
559.0425, 462.5005
559.5246, 465.0697
560.0067, 467.7778
560.4888, 470.9212
560.9709, 474.1550
561.4531, 477.3149
561.9352, 480.4063
562.4173, 483.4316
562.8994, 486.2746
563.3815, 489.1484
563.8636, 492.1833
564.3458, 495.3565
564.8279, 498.7548
565.3100, 502.5833
565.7921, 506.4308
566.2742, 509.7302
566.7563, 512.4757
567.2385, 514.8676
567.7206, 516.7474
568.2027, 518.5319
568.6848, 521.1193
569.1669, 524.4540
569.6490, 527.8668
570.1312, 531.1464
570.6133, 534.2662
571.0954, 537.1072
571.5775, 539.7115
572.0596, 542.1965
572.5417, 544.4818
573.0239, 546.8130
573.5060, 549.3678
573.9881, 552.2268
574.4702, 555.2440
574.9523, 558.9563
575.4344, 562.6367
575.9166, 565.3165
576.3987, 566.1553
576.8808, 567.0995
577.3629, 568.3568
577.8450, 569.8726
578.3271, 571.5323
578.8093, 573.4244
579.2914, 575.1797
579.7735, 576.7374
580.2556, 578.0261
580.7377, 578.3829
581.2198, 577.6942
581.7020, 577.2098
582.1841, 578.3436
582.6662, 580.4212
583.1483, 581.8262
583.6304, 582.2600
584.1125, 582.3593
584.5947, 582.8889
585.0768, 583.3976
585.5589, 583.2078
586.0410, 581.3048
586.5231, 579.5679
587.0052, 579.1146
587.4873, 579.4676
