##NAMES=Cafetite
##RRUFFID=R060872
##IDEAL CHEMISTRY=CaTi^4+^_2_O_5_&#183;H_2_O
##LOCALITY=Magnet Cove, Arkansas, USA
##OWNER=RRUFF
##SOURCE=Michael Scott
##DESCRIPTION=Pale brown colored pseudohexagonal plates, associated with pectolite and albite.
##STATUS=The identification of this mineral has been confirmed by single-crystal X-ray diffraction.
##URL=rruff.info/R060872
179.3814, 5367.881
179.8635, 5383.254
180.3457, 5411.287
180.8278, 5421.163
181.3099, 5408.316
181.7920, 5397.876
182.2741, 5410.882
182.7562, 5436.498
183.2384, 5459.370
183.7205, 5480.185
184.2026, 5493.033
184.6847, 5485.840
185.1668, 5454.181
185.6489, 5420.408
186.1311, 5395.640
186.6132, 5377.776
187.0953, 5366.021
187.5774, 5368.443
188.0595, 5371.525
188.5416, 5350.190
189.0238, 5297.230
189.5059, 5247.681
189.9880, 5226.135
190.4701, 5219.603
190.9522, 5211.595
191.4343, 5193.864
191.9165, 5174.507
192.3986, 5164.378
192.8807, 5163.100
193.3628, 5172.675
193.8449, 5198.040
194.3270, 5234.243
194.8092, 5277.049
195.2913, 5328.350
195.7734, 5383.172
196.2555, 5433.635
196.7376, 5478.931
197.2197, 5523.966
197.7019, 5570.390
198.1840, 5618.496
198.6661, 5668.986
199.1482, 5724.823
199.6303, 5780.416
200.1124, 5828.650
200.5946, 5869.939
201.0767, 5902.557
201.5588, 5922.792
202.0409, 5934.277
202.5230, 5939.901
203.0051, 5940.950
203.4873, 5935.458
203.9694, 5919.834
204.4515, 5893.074
204.9336, 5861.569
205.4157, 5822.899
205.8978, 5782.707
206.3800, 5748.102
206.8621, 5722.500
207.3442, 5698.919
207.8263, 5668.007
208.3084, 5628.656
208.7905, 5591.189
209.2727, 5561.541
209.7548, 5535.347
210.2369, 5508.420
210.7190, 5480.292
211.2011, 5450.986
211.6832, 5419.556
212.1654, 5385.831
212.6475, 5354.414
213.1296, 5323.842
213.6117, 5299.001
214.0938, 5285.170
214.5759, 5283.947
215.0581, 5290.912
215.5402, 5303.723
216.0223, 5322.388
216.5044, 5342.501
216.9865, 5362.019
217.4686, 5383.364
217.9508, 5408.337
218.4329, 5436.827
218.9150, 5470.362
219.3971, 5506.140
219.8792, 5545.408
220.3613, 5603.228
220.8435, 5693.707
221.3256, 5796.601
221.8077, 5890.397
222.2898, 5974.574
222.7719, 6053.964
223.2540, 6129.987
223.7362, 6203.274
224.2183, 6277.294
224.7004, 6354.828
225.1825, 6429.973
225.6646, 6492.257
226.1467, 6541.260
226.6289, 6597.276
227.1110, 6685.461
227.5931, 6791.776
228.0752, 6864.903
228.5573, 6881.434
229.0394, 6884.624
229.5216, 6919.786
230.0037, 6984.103
230.4858, 7051.328
230.9679, 7111.797
231.4500, 7166.769
231.9321, 7218.458
232.4143, 7266.423
232.8964, 7312.904
233.3785, 7355.926
233.8606, 7397.048
234.3427, 7449.910
234.8248, 7526.381
235.3070, 7615.107
235.7891, 7697.603
236.2712, 7771.646
236.7533, 7844.465
237.2354, 7918.113
237.7175, 7994.504
238.1997, 8083.337
238.6818, 8195.115
239.1639, 8316.543
239.6460, 8436.402
240.1281, 8554.799
240.6102, 8664.519
241.0924, 8755.915
241.5745, 8833.037
242.0566, 8916.225
242.5387, 9019.376
243.0208, 9120.231
243.5029, 9200.062
243.9851, 9259.652
244.4672, 9312.501
244.9493, 9367.964
245.4314, 9422.402
245.9135, 9462.746
246.3956, 9475.712
246.8778, 9487.567
247.3599, 9514.046
247.8420, 9552.094
248.3241, 9591.646
248.8062, 9631.430
249.2883, 9665.830
249.7705, 9675.926
250.2526, 9648.343
250.7347, 9617.813
251.2168, 9599.717
251.6989, 9587.115
252.1810, 9564.027
252.6632, 9522.032
253.1453, 9470.481
253.6274, 9434.091
254.1095, 9434.807
254.5916, 9410.472
255.0737, 9345.443
255.5559, 9250.130
256.0380, 9132.350
256.5201, 8993.935
257.0022, 8848.283
257.4843, 8716.832
257.9665, 8612.292
258.4486, 8498.837
258.9307, 8368.184
259.4128, 8232.543
259.8949, 8103.736
260.3770, 7983.558
260.8592, 7864.621
261.3413, 7734.631
261.8234, 7581.520
262.3055, 7461.506
262.7876, 7393.584
263.2697, 7339.127
263.7519, 7275.726
264.2340, 7202.384
264.7161, 7128.962
265.1982, 7064.430
265.6803, 7008.552
266.1624, 6962.426
266.6446, 6923.497
267.1267, 6895.116
267.6088, 6885.273
268.0909, 6887.427
268.5730, 6885.544
269.0551, 6865.996
269.5373, 6832.774
270.0194, 6828.094
270.5015, 6885.328
270.9836, 6937.969
271.4657, 6967.173
271.9478, 6986.998
272.4300, 7018.385
272.9121, 7072.609
273.3942, 7142.784
273.8763, 7210.312
274.3584, 7274.992
274.8405, 7335.915
275.3227, 7385.224
275.8048, 7434.610
276.2869, 7499.074
276.7690, 7582.986
277.2511, 7671.289
277.7332, 7738.433
278.2154, 7777.244
278.6975, 7816.096
279.1796, 7850.994
279.6617, 7892.314
280.1438, 7951.321
280.6259, 8027.906
281.1081, 8105.745
281.5902, 8175.438
282.0723, 8238.477
282.5544, 8268.902
283.0365, 8234.038
283.5186, 8195.309
284.0008, 8190.413
284.4829, 8213.304
284.9650, 8234.008
285.4471, 8234.268
285.9292, 8216.157
286.4113, 8188.108
286.8935, 8147.963
287.3756, 8101.760
287.8577, 8049.227
288.3398, 7993.892
288.8219, 7942.877
289.3040, 7902.056
289.7862, 7865.444
290.2683, 7824.175
290.7504, 7778.466
291.2325, 7728.120
291.7146, 7670.220
292.1967, 7608.479
292.6789, 7547.600
293.1610, 7484.007
293.6431, 7428.506
294.1252, 7391.467
294.6073, 7371.207
295.0894, 7357.749
295.5716, 7349.272
296.0537, 7343.607
296.5358, 7336.260
297.0179, 7325.951
297.5000, 7317.487
297.9821, 7314.811
298.4643, 7314.851
298.9464, 7310.668
299.4285, 7299.528
299.9106, 7288.345
300.3927, 7288.465
300.8748, 7303.873
301.3570, 7310.270
301.8391, 7302.225
302.3212, 7285.964
302.8033, 7266.098
303.2854, 7243.344
303.7675, 7218.227
304.2497, 7192.247
304.7318, 7166.070
305.2139, 7125.946
305.6960, 7066.820
306.1781, 7000.925
306.6602, 6927.444
307.1424, 6851.564
307.6245, 6783.367
308.1066, 6729.618
308.5887, 6688.195
309.0708, 6646.966
309.5529, 6618.247
310.0351, 6575.025
310.5172, 6505.695
310.9993, 6423.598
311.4814, 6341.190
311.9635, 6263.826
312.4456, 6194.122
312.9278, 6139.015
313.4099, 6112.048
313.8920, 6071.361
314.3741, 6009.582
314.8562, 5939.590
315.3383, 5862.971
315.8205, 5783.550
316.3026, 5714.117
316.7847, 5671.865
317.2668, 5660.045
317.7489, 5641.501
318.2310, 5608.864
318.7132, 5577.106
319.1953, 5556.696
319.6774, 5542.697
320.1595, 5521.281
320.6416, 5478.649
321.1237, 5424.469
321.6059, 5388.865
322.0880, 5377.305
322.5701, 5369.357
323.0522, 5359.696
323.5343, 5346.257
324.0164, 5324.432
324.4986, 5288.877
324.9807, 5252.231
325.4628, 5228.050
325.9449, 5215.848
326.4270, 5207.855
326.9091, 5206.058
327.3913, 5202.545
327.8734, 5184.634
328.3555, 5149.181
328.8376, 5115.938
329.3197, 5096.796
329.8018, 5085.250
330.2840, 5070.397
330.7661, 5050.561
331.2482, 5023.941
331.7303, 4986.273
332.2124, 4936.276
332.6945, 4889.755
333.1767, 4847.950
333.6588, 4809.893
334.1409, 4776.952
334.6230, 4747.863
335.1051, 4716.498
335.5872, 4677.339
336.0694, 4631.788
336.5515, 4593.891
337.0336, 4566.664
337.5157, 4542.502
337.9978, 4522.250
338.4799, 4503.086
338.9621, 4479.329
339.4442, 4448.585
339.9263, 4416.639
340.4084, 4396.235
340.8905, 4394.075
341.3727, 4391.837
341.8548, 4385.302
342.3369, 4381.119
342.8190, 4385.367
343.3011, 4397.792
343.7832, 4412.063
344.2654, 4421.323
344.7475, 4425.060
345.2296, 4431.777
345.7117, 4439.426
346.1938, 4452.958
346.6759, 4479.728
347.1581, 4513.069
347.6402, 4539.460
348.1223, 4550.039
348.6044, 4551.518
349.0865, 4557.616
349.5686, 4568.593
350.0508, 4583.375
350.5329, 4604.214
351.0150, 4627.559
351.4971, 4650.439
351.9792, 4673.100
352.4613, 4692.357
352.9435, 4704.927
353.4256, 4711.831
353.9077, 4716.763
354.3898, 4719.743
354.8719, 4722.643
355.3540, 4728.246
355.8362, 4736.376
356.3183, 4744.075
356.8004, 4755.604
357.2825, 4763.403
357.7646, 4757.214
358.2467, 4737.354
358.7289, 4715.797
359.2110, 4702.208
359.6931, 4695.392
360.1752, 4678.074
360.6573, 4640.042
361.1394, 4604.958
361.6216, 4583.641
362.1037, 4569.432
362.5858, 4551.644
363.0679, 4525.811
363.5500, 4494.003
364.0321, 4459.734
364.5143, 4416.243
364.9964, 4382.266
365.4785, 4363.844
365.9606, 4348.970
366.4427, 4329.333
366.9248, 4304.689
367.4070, 4280.353
367.8891, 4261.890
368.3712, 4249.097
368.8533, 4234.834
369.3354, 4222.578
369.8175, 4203.441
370.2997, 4167.761
370.7818, 4125.215
371.2639, 4092.125
371.7460, 4077.718
372.2281, 4070.637
372.7102, 4051.169
373.1924, 4017.421
373.6745, 3992.475
374.1566, 3992.499
374.6387, 3997.628
375.1208, 3981.257
375.6029, 3939.158
376.0851, 3905.874
376.5672, 3906.885
377.0493, 3926.964
377.5314, 3937.024
378.0135, 3932.147
378.4956, 3921.029
378.9778, 3908.661
379.4599, 3895.580
379.9420, 3891.417
380.4241, 3903.743
380.9062, 3918.117
381.3883, 3925.792
381.8705, 3928.847
382.3526, 3934.271
382.8347, 3946.046
383.3168, 3960.633
383.7989, 3967.814
384.2810, 3953.256
384.7632, 3950.678
385.2453, 3972.312
385.7274, 3998.273
386.2095, 4011.207
386.6916, 4009.254
387.1737, 4003.081
387.6559, 4003.408
388.1380, 4010.538
388.6201, 4019.509
389.1022, 4028.731
389.5843, 4041.995
390.0664, 4064.103
390.5486, 4090.390
391.0307, 4111.993
391.5128, 4123.264
391.9949, 4131.498
392.4770, 4151.043
392.9591, 4183.639
393.4413, 4211.488
393.9234, 4229.374
394.4055, 4239.301
394.8876, 4239.680
395.3697, 4228.682
395.8518, 4228.872
396.3340, 4261.804
396.8161, 4310.544
397.2982, 4343.501
397.7803, 4355.722
398.2624, 4364.657
398.7445, 4385.742
399.2267, 4418.157
399.7088, 4441.392
400.1909, 4446.091
400.6730, 4451.724
401.1551, 4463.231
401.6372, 4482.371
402.1194, 4515.339
402.6015, 4565.190
403.0836, 4621.086
403.5657, 4659.651
404.0478, 4665.725
404.5299, 4682.293
405.0121, 4713.211
405.4942, 4750.211
405.9763, 4788.262
406.4584, 4827.567
406.9405, 4870.423
407.4226, 4918.686
407.9048, 4972.277
408.3869, 5031.912
408.8690, 5104.669
409.3511, 5170.266
409.8332, 5213.059
410.3153, 5248.789
410.7975, 5295.346
411.2796, 5357.842
411.7617, 5429.539
412.2438, 5502.976
412.7259, 5579.343
413.2080, 5669.137
413.6902, 5780.308
414.1723, 5893.187
414.6544, 5983.958
415.1365, 6055.280
415.6186, 6124.071
416.1007, 6194.313
416.5829, 6262.835
417.0650, 6321.710
417.5471, 6374.984
418.0292, 6442.641
418.5113, 6539.554
418.9934, 6652.982
419.4756, 6739.067
419.9577, 6770.964
420.4398, 6809.950
420.9219, 6868.123
421.4040, 6928.873
421.8861, 6979.287
422.3683, 7016.715
422.8504, 7043.669
423.3325, 7062.840
423.8146, 7074.234
424.2967, 7076.027
424.7788, 7067.727
425.2610, 7049.341
425.7431, 7011.377
426.2252, 6966.927
426.7073, 6938.536
427.1894, 6939.573
427.6715, 6942.511
428.1537, 6912.448
428.6358, 6850.307
429.1179, 6777.578
429.6000, 6689.790
430.0821, 6606.925
430.5642, 6554.792
431.0464, 6531.339
431.5285, 6507.547
432.0106, 6480.506
432.4927, 6446.359
432.9748, 6392.935
433.4569, 6325.176
433.9391, 6271.387
434.4212, 6250.732
434.9033, 6254.097
435.3854, 6245.871
435.8675, 6205.933
436.3496, 6180.766
436.8318, 6186.142
437.3139, 6200.135
437.7960, 6202.566
438.2781, 6190.567
438.7602, 6174.770
439.2423, 6164.956
439.7245, 6161.124
440.2066, 6164.070
440.6887, 6178.487
441.1708, 6193.519
441.6529, 6208.145
442.1350, 6220.086
442.6172, 6226.192
443.0993, 6225.390
443.5814, 6218.627
444.0635, 6204.936
444.5456, 6185.125
445.0277, 6167.130
445.5099, 6155.362
445.9920, 6140.823
446.4741, 6107.253
446.9562, 6056.605
447.4383, 6021.022
447.9204, 6028.432
448.4026, 6033.862
448.8847, 5996.774
449.3668, 5926.998
449.8489, 5861.462
450.3310, 5818.938
450.8131, 5791.817
451.2953, 5760.362
451.7774, 5728.542
452.2595, 5685.419
452.7416, 5619.433
453.2237, 5552.324
453.7059, 5496.469
454.1880, 5453.533
454.6701, 5420.052
455.1522, 5395.812
455.6343, 5378.155
456.1165, 5353.851
456.5986, 5320.108
457.0807, 5285.833
457.5628, 5256.337
458.0449, 5226.710
458.5270, 5189.878
459.0092, 5143.013
459.4913, 5100.074
459.9734, 5070.953
460.4555, 5052.240
460.9376, 5038.646
461.4197, 5030.148
461.9019, 5018.546
462.3840, 4997.490
462.8661, 4966.913
463.3482, 4930.768
463.8303, 4879.376
464.3124, 4834.134
464.7946, 4803.047
465.2767, 4782.567
465.7588, 4770.492
466.2409, 4765.273
466.7230, 4759.615
467.2051, 4742.610
467.6873, 4711.774
468.1694, 4681.657
468.6515, 4652.331
469.1336, 4623.789
469.6157, 4593.588
470.0978, 4564.510
470.5800, 4541.161
471.0621, 4525.699
471.5442, 4516.211
472.0263, 4515.838
472.5084, 4523.370
472.9905, 4513.007
473.4727, 4469.670
473.9548, 4419.312
474.4369, 4398.030
474.9190, 4403.876
475.4011, 4399.643
475.8832, 4364.026
476.3654, 4328.116
476.8475, 4316.589
477.3296, 4325.333
477.8117, 4339.556
478.2938, 4352.704
478.7759, 4361.994
479.2581, 4360.083
479.7402, 4339.019
480.2223, 4320.632
480.7044, 4303.472
481.1865, 4290.316
481.6686, 4284.929
482.1508, 4285.466
482.6329, 4286.253
483.1150, 4284.674
483.5971, 4279.818
484.0792, 4267.784
484.5613, 4247.019
485.0435, 4227.726
485.5256, 4211.231
486.0077, 4199.879
486.4898, 4197.822
486.9719, 4206.443
487.4540, 4211.578
487.9362, 4210.289
488.4183, 4201.250
488.9004, 4178.553
489.3825, 4144.206
489.8646, 4112.444
490.3467, 4092.326
490.8289, 4081.662
491.3110, 4071.214
491.7931, 4067.013
492.2752, 4054.564
492.7573, 4029.885
493.2394, 3999.188
493.7216, 3964.446
494.2037, 3927.762
494.6858, 3894.909
495.1679, 3871.391
495.6500, 3855.299
496.1321, 3838.905
496.6143, 3823.435
497.0964, 3803.970
497.5785, 3774.187
498.0606, 3741.783
498.5427, 3717.131
499.0248, 3702.542
499.5070, 3686.966
499.9891, 3666.044
500.4712, 3640.715
500.9533, 3610.349
501.4354, 3575.613
501.9175, 3542.786
502.3997, 3516.393
502.8818, 3495.813
503.3639, 3477.578
503.8460, 3460.586
504.3281, 3447.639
504.8102, 3444.734
505.2924, 3442.275
505.7745, 3431.501
506.2566, 3411.788
506.7387, 3388.970
507.2208, 3366.799
507.7029, 3345.755
508.1851, 3329.043
508.6672, 3319.282
509.1493, 3305.699
509.6314, 3276.406
510.1135, 3244.719
510.5956, 3231.243
511.0778, 3242.576
511.5599, 3246.381
512.0420, 3221.628
512.5241, 3183.885
513.0062, 3151.692
513.4883, 3127.399
513.9705, 3108.705
514.4526, 3094.368
514.9347, 3084.287
515.4168, 3078.248
515.8989, 3083.340
516.3810, 3082.914
516.8632, 3073.446
517.3453, 3059.892
517.8274, 3046.698
518.3095, 3033.886
518.7916, 3017.491
519.2737, 2992.446
519.7559, 2962.086
520.2380, 2935.528
520.7201, 2911.432
521.2022, 2899.192
521.6843, 2912.206
522.1664, 2932.742
522.6486, 2932.555
523.1307, 2907.570
523.6128, 2883.769
524.0949, 2869.338
524.5770, 2860.105
525.0591, 2853.282
525.5413, 2847.980
526.0234, 2842.544
526.5055, 2835.975
526.9876, 2828.418
527.4697, 2820.150
527.9518, 2811.136
528.4340, 2801.605
528.9161, 2786.510
529.3982, 2775.158
529.8803, 2777.223
530.3624, 2789.292
530.8445, 2797.652
531.3267, 2793.257
531.8088, 2781.375
532.2909, 2771.098
532.7730, 2762.386
533.2551, 2751.995
533.7372, 2738.175
534.2194, 2723.222
534.7015, 2710.456
535.1836, 2699.956
535.6657, 2690.255
536.1478, 2679.249
536.6299, 2670.734
537.1121, 2666.723
537.5942, 2667.125
538.0763, 2672.309
538.5584, 2682.509
539.0405, 2694.624
539.5226, 2703.588
540.0048, 2709.634
540.4869, 2711.284
540.9690, 2706.198
541.4511, 2699.051
541.9332, 2692.454
542.4153, 2685.668
542.8975, 2676.545
543.3796, 2662.135
543.8617, 2649.316
544.3438, 2647.023
544.8259, 2650.963
545.3080, 2646.758
545.7902, 2630.423
546.2723, 2615.426
546.7544, 2617.050
547.2365, 2636.388
547.7186, 2643.350
548.2007, 2628.663
548.6829, 2614.142
549.1650, 2601.276
549.6471, 2593.068
550.1292, 2594.137
550.6113, 2604.808
551.0934, 2618.229
551.5756, 2630.619
552.0577, 2640.706
552.5398, 2639.048
553.0219, 2621.922
553.5040, 2606.082
553.9861, 2598.565
554.4683, 2598.207
554.9504, 2602.250
555.4325, 2612.437
555.9146, 2621.694
556.3967, 2629.500
556.8788, 2634.274
557.3610, 2633.899
557.8431, 2628.818
558.3252, 2620.468
558.8073, 2609.062
559.2894, 2597.401
559.7715, 2594.684
560.2537, 2604.957
560.7358, 2614.218
561.2179, 2614.975
561.7000, 2619.494
562.1821, 2642.441
562.6642, 2676.411
563.1464, 2695.052
563.6285, 2676.504
564.1106, 2648.746
564.5927, 2641.546
565.0748, 2651.198
565.5569, 2666.826
566.0391, 2687.134
566.5212, 2699.702
567.0033, 2685.906
567.4854, 2639.111
567.9675, 2618.724
568.4496, 2648.058
568.9318, 2673.049
569.4139, 2670.053
569.8960, 2657.375
570.3781, 2660.672
570.8602, 2685.964
571.3423, 2713.835
571.8245, 2721.053
572.3066, 2713.013
572.7887, 2719.697
573.2708, 2746.486
573.7529, 2766.867
574.2350, 2761.655
574.7172, 2744.019
575.1993, 2744.362
575.6814, 2769.589
576.1635, 2792.710
576.6456, 2805.857
577.1277, 2815.896
577.6099, 2829.053
578.0920, 2844.609
578.5741, 2857.346
579.0562, 2863.578
579.5383, 2868.254
580.0204, 2885.113
580.5026, 2918.847
580.9847, 2943.739
581.4668, 2949.717
581.9489, 2953.851
582.4310, 2968.155
582.9131, 2989.814
583.3953, 3009.924
583.8774, 3024.821
584.3595, 3039.292
584.8416, 3055.057
585.3237, 3073.098
585.8058, 3097.195
586.2880, 3127.601
586.7701, 3156.783
587.2522, 3176.191
587.7343, 3186.642
588.2164, 3205.806
588.6985, 3240.468
589.1807, 3274.056
589.6628, 3303.111
590.1449, 3330.213
590.6270, 3355.983
591.1091, 3381.216
591.5912, 3410.693
592.0734, 3452.618
592.5555, 3497.653
593.0376, 3530.948
593.5197, 3553.831
594.0018, 3577.846
594.4839, 3608.759
594.9661, 3637.690
595.4482, 3647.818
595.9303, 3627.346
596.4124, 3633.362
596.8945, 3689.054
597.3766, 3742.448
597.8588, 3772.754
598.3409, 3788.979
598.8230, 3805.558
599.3051, 3827.138
599.7872, 3845.444
600.2693, 3845.552
600.7515, 3834.810
601.2336, 3845.040
601.7157, 3881.072
602.1978, 3916.724
602.6799, 3938.702
603.1620, 3949.417
603.6442, 3954.248
604.1263, 3948.076
604.6084, 3947.617
605.0905, 3960.371
605.5726, 3974.261
606.0547, 3979.654
606.5369, 3979.246
607.0190, 3982.613
607.5011, 3995.315
607.9832, 4009.460
608.4653, 4007.573
608.9474, 3989.927
609.4296, 3989.291
609.9117, 4015.427
610.3938, 4046.104
610.8759, 4066.861
611.3580, 4078.885
611.8401, 4088.246
612.3223, 4088.476
612.8044, 4095.564
613.2865, 4121.368
613.7686, 4151.563
614.2507, 4170.195
614.7328, 4177.699
615.2150, 4186.287
615.6971, 4205.542
616.1792, 4229.747
616.6613, 4241.106
617.1434, 4236.557
617.6255, 4238.184
618.1077, 4255.892
618.5898, 4273.627
619.0719, 4272.535
619.5540, 4257.940
620.0361, 4253.683
620.5182, 4271.910
621.0004, 4291.967
621.4825, 4309.137
621.9646, 4319.694
622.4467, 4315.615
622.9288, 4297.217
623.4109, 4275.594
623.8931, 4259.687
624.3752, 4249.226
624.8573, 4243.655
625.3394, 4245.369
625.8215, 4244.889
626.3036, 4245.523
626.7858, 4237.549
627.2679, 4207.797
627.7500, 4159.004
628.2321, 4117.416
628.7142, 4088.676
629.1964, 4070.189
629.6785, 4069.271
630.1606, 4074.729
630.6427, 4063.591
631.1248, 4031.401
631.6069, 3997.344
632.0891, 3982.805
632.5712, 3985.739
633.0533, 3982.419
633.5354, 3973.390
634.0175, 3956.479
634.4996, 3920.974
634.9818, 3884.547
635.4639, 3865.481
635.9460, 3863.802
636.4281, 3860.417
636.9102, 3845.652
637.3923, 3830.336
637.8745, 3825.904
638.3566, 3826.524
638.8387, 3819.238
639.3208, 3800.251
639.8029, 3775.917
640.2850, 3753.156
640.7672, 3731.873
641.2493, 3711.609
641.7314, 3689.782
642.2135, 3674.093
642.6956, 3667.565
643.1777, 3668.304
643.6599, 3681.160
644.1420, 3706.448
644.6241, 3712.931
645.1062, 3669.714
645.5883, 3622.573
646.0704, 3612.019
646.5526, 3624.301
647.0347, 3627.822
647.5168, 3612.315
647.9989, 3588.532
648.4810, 3567.854
648.9631, 3550.270
649.4453, 3539.490
649.9274, 3538.546
650.4095, 3537.457
650.8916, 3533.967
651.3737, 3527.784
651.8558, 3517.351
652.3380, 3502.420
652.8201, 3490.121
653.3022, 3480.694
653.7843, 3476.316
654.2664, 3482.750
654.7485, 3494.502
655.2307, 3501.045
655.7128, 3499.073
656.1949, 3492.479
656.6770, 3485.220
657.1591, 3477.302
657.6412, 3467.673
658.1234, 3453.239
658.6055, 3446.729
659.0876, 3459.800
659.5697, 3477.252
660.0518, 3481.156
660.5339, 3471.439
661.0161, 3454.162
661.4982, 3413.805
661.9803, 3383.287
662.4624, 3397.503
662.9445, 3429.712
663.4266, 3430.507
663.9088, 3389.754
664.3909, 3345.587
664.8730, 3340.250
665.3551, 3365.774
665.8372, 3379.750
666.3193, 3381.499
666.8015, 3374.608
667.2836, 3355.880
667.7657, 3334.112
668.2478, 3320.734
668.7299, 3315.864
669.2120, 3310.777
669.6942, 3310.420
670.1763, 3303.341
670.6584, 3271.906
671.1405, 3237.457
671.6226, 3232.075
672.1047, 3258.049
672.5869, 3284.655
673.0690, 3285.142
673.5511, 3267.629
674.0332, 3252.493
674.5153, 3239.720
674.9974, 3227.584
675.4796, 3215.341
675.9617, 3204.329
676.4438, 3196.370
