##NAMES=Cafetite
##RRUFFID=R060872
##IDEAL CHEMISTRY=CaTi^4+^_2_O_5_&#183;H_2_O
##LOCALITY=Magnet Cove, Arkansas, USA
##OWNER=RRUFF
##SOURCE=Michael Scott
##DESCRIPTION=Pale brown colored pseudohexagonal plates, associated with pectolite and albite.
##STATUS=The identification of this mineral has been confirmed by single-crystal X-ray diffraction.
##URL=rruff.info/R060872
193.8405, 5226.780
194.3226, 5221.646
194.8047, 5240.515
195.2868, 5282.476
195.7689, 5319.102
196.2511, 5345.690
196.7332, 5368.150
197.2153, 5401.698
197.6974, 5447.621
198.1795, 5497.796
198.6616, 5550.553
199.1438, 5607.252
199.6259, 5650.444
200.1080, 5674.776
200.5901, 5685.355
201.0722, 5698.581
201.5543, 5713.869
202.0364, 5733.822
202.5186, 5766.688
203.0007, 5816.727
203.4828, 5845.594
203.9649, 5839.946
204.4470, 5806.171
204.9291, 5788.726
205.4113, 5794.000
205.8934, 5799.068
206.3755, 5780.496
206.8576, 5733.247
207.3397, 5684.687
207.8218, 5639.278
208.3040, 5597.188
208.7861, 5560.457
209.2682, 5529.862
209.7503, 5504.364
210.2324, 5483.596
210.7145, 5468.823
211.1967, 5456.272
211.6788, 5446.684
212.1609, 5440.504
212.6430, 5428.185
213.1251, 5407.940
213.6072, 5384.371
214.0894, 5361.294
214.5715, 5335.658
215.0536, 5318.306
215.5357, 5311.896
216.0178, 5316.194
216.4999, 5331.996
216.9820, 5360.396
217.4642, 5398.592
217.9463, 5445.004
218.4284, 5503.762
218.9105, 5559.683
219.3926, 5604.967
219.8747, 5633.664
220.3569, 5677.850
220.8390, 5742.700
221.3211, 5819.368
221.8032, 5895.682
222.2853, 5969.838
222.7674, 6046.292
223.2496, 6127.834
223.7317, 6220.627
224.2138, 6300.021
224.6959, 6360.610
225.1780, 6411.172
225.6601, 6472.486
226.1423, 6548.189
226.6244, 6627.783
227.1065, 6708.495
227.5886, 6798.159
228.0707, 6869.395
228.5528, 6915.593
229.0350, 6945.698
229.5171, 6982.861
229.9992, 7034.728
230.4813, 7082.616
230.9634, 7114.578
231.4455, 7110.726
231.9276, 7138.336
232.4098, 7214.356
232.8919, 7319.936
233.3740, 7392.211
233.8561, 7407.542
234.3382, 7424.780
234.8203, 7474.220
235.3025, 7575.442
235.7846, 7666.697
236.2667, 7743.061
236.7488, 7808.969
237.2309, 7876.027
237.7130, 7936.980
238.1952, 8008.073
238.6773, 8100.831
239.1594, 8234.235
239.6415, 8348.172
240.1236, 8432.552
240.6057, 8495.415
241.0879, 8572.060
241.5700, 8663.751
242.0521, 8766.421
242.5342, 8881.930
243.0163, 9030.885
243.4984, 9148.380
243.9806, 9220.286
244.4627, 9255.918
244.9448, 9300.729
245.4269, 9362.360
245.9090, 9422.611
246.3911, 9471.155
246.8732, 9503.861
247.3554, 9533.063
247.8375, 9563.292
248.3196, 9591.125
248.8017, 9598.683
249.2838, 9579.787
249.7659, 9548.883
250.2481, 9513.324
250.7302, 9469.718
251.2123, 9430.973
251.6944, 9404.802
252.1765, 9386.441
252.6586, 9344.942
253.1408, 9269.374
253.6229, 9186.832
254.1050, 9116.334
254.5871, 9072.649
255.0692, 9007.616
255.5513, 8911.346
256.0334, 8789.717
256.5156, 8669.772
256.9977, 8550.613
257.4798, 8433.366
257.9619, 8318.990
258.4440, 8206.893
258.9261, 8095.489
259.4083, 7982.722
259.8904, 7868.897
260.3725, 7759.516
260.8546, 7651.529
261.3367, 7550.484
261.8188, 7460.922
262.3010, 7384.728
262.7831, 7311.535
263.2652, 7237.933
263.7473, 7166.232
264.2294, 7105.955
264.7115, 7062.089
265.1937, 7021.278
265.6758, 6970.512
266.1579, 6901.466
266.6400, 6856.591
267.1221, 6847.463
267.6042, 6865.892
268.0864, 6875.628
268.5685, 6874.675
269.0506, 6869.992
269.5327, 6862.129
270.0148, 6846.002
270.4969, 6851.261
270.9791, 6885.653
271.4612, 6942.962
271.9433, 6997.163
272.4254, 7046.446
272.9075, 7097.665
273.3896, 7156.052
273.8718, 7222.265
274.3539, 7288.154
274.8360, 7353.818
275.3181, 7418.603
275.8002, 7481.097
276.2823, 7540.943
276.7645, 7599.203
277.2466, 7657.726
277.7287, 7716.726
278.2108, 7772.751
278.6929, 7827.355
279.1750, 7877.510
279.6572, 7911.290
280.1393, 7925.380
280.6214, 7940.255
281.1035, 7971.167
281.5856, 8018.252
282.0677, 8065.667
282.5499, 8117.105
283.0320, 8161.745
283.5141, 8167.241
283.9962, 8129.823
284.4783, 8090.159
284.9604, 8079.958
285.4425, 8096.665
285.9247, 8095.914
286.4068, 8070.350
286.8889, 8031.156
287.3710, 8000.390
287.8531, 7978.257
288.3352, 7952.997
288.8174, 7913.521
289.2995, 7862.938
289.7816, 7820.882
290.2637, 7791.508
290.7458, 7767.709
291.2279, 7740.526
291.7101, 7709.817
292.1922, 7674.147
292.6743, 7626.397
293.1564, 7572.214
293.6385, 7533.648
294.1206, 7515.489
294.6028, 7505.082
295.0849, 7484.969
295.5670, 7456.825
296.0491, 7429.836
296.5312, 7408.557
297.0133, 7392.534
297.4955, 7381.558
297.9776, 7376.543
298.4597, 7374.215
298.9418, 7375.560
299.4239, 7377.896
299.9060, 7371.555
300.3882, 7342.254
300.8703, 7303.522
301.3524, 7279.777
301.8345, 7273.606
302.3166, 7270.641
302.7987, 7256.790
303.2809, 7235.095
303.7630, 7212.792
304.2451, 7204.376
304.7272, 7191.629
305.2093, 7144.762
305.6914, 7059.361
306.1736, 6978.599
306.6557, 6948.111
307.1378, 6943.797
307.6199, 6923.271
308.1020, 6856.526
308.5841, 6774.157
309.0663, 6703.029
309.5484, 6642.959
310.0305, 6581.965
310.5126, 6506.387
310.9947, 6426.032
311.4768, 6354.348
311.9590, 6304.509
312.4411, 6258.151
312.9232, 6203.833
313.4053, 6141.839
313.8874, 6081.171
314.3695, 6028.872
314.8517, 5977.923
315.3337, 5921.358
315.8159, 5841.695
316.2980, 5770.563
316.7801, 5726.774
317.2622, 5706.293
317.7443, 5681.266
318.2264, 5637.809
318.7086, 5587.814
319.1907, 5539.518
319.6728, 5485.015
320.1549, 5444.076
320.6370, 5432.175
321.1191, 5441.163
321.6013, 5439.539
322.0834, 5415.042
322.5655, 5380.717
323.0476, 5343.221
323.5297, 5302.809
324.0118, 5259.944
324.4940, 5207.872
324.9761, 5152.615
325.4582, 5110.544
325.9403, 5101.301
326.4224, 5091.042
326.9045, 5064.650
327.3867, 5003.938
327.8688, 4958.948
328.3509, 4942.952
328.8330, 4941.486
329.3151, 4927.738
329.7972, 4887.817
330.2794, 4850.731
330.7615, 4828.383
331.2436, 4832.460
331.7257, 4812.344
332.2078, 4751.006
332.6899, 4675.052
333.1721, 4623.394
333.6542, 4611.594
334.1363, 4598.379
334.6184, 4570.397
335.1005, 4525.389
335.5826, 4495.824
336.0648, 4491.323
336.5469, 4490.705
337.0290, 4467.623
337.5111, 4411.425
337.9932, 4364.617
338.4753, 4338.976
338.9575, 4332.122
339.4396, 4320.299
339.9217, 4301.633
340.4038, 4282.253
340.8859, 4266.951
341.3680, 4255.934
341.8502, 4248.292
342.3323, 4244.645
342.8144, 4244.080
343.2965, 4242.365
343.7786, 4238.764
344.2607, 4240.230
344.7429, 4255.566
345.2250, 4283.188
345.7071, 4305.143
346.1892, 4317.859
346.6713, 4326.176
347.1534, 4339.149
347.6355, 4356.563
348.1176, 4375.490
348.5998, 4396.868
349.0819, 4418.433
349.5640, 4431.523
350.0461, 4432.631
350.5282, 4434.500
351.0103, 4457.635
351.4925, 4496.097
351.9746, 4529.992
352.4567, 4548.755
352.9388, 4556.393
353.4209, 4555.920
353.9030, 4546.704
354.3852, 4538.302
354.8673, 4539.444
355.3494, 4547.273
355.8315, 4556.561
356.3136, 4571.631
356.7957, 4583.195
357.2779, 4581.640
357.7600, 4567.206
358.2421, 4550.351
358.7242, 4538.346
359.2063, 4526.759
359.6884, 4510.875
360.1706, 4490.226
360.6527, 4463.891
361.1348, 4426.906
361.6169, 4381.580
362.0990, 4341.867
362.5811, 4315.901
363.0633, 4295.034
363.5454, 4274.081
364.0275, 4256.761
364.5096, 4232.244
364.9917, 4186.693
365.4738, 4131.105
365.9560, 4094.173
366.4381, 4108.662
366.9202, 4120.687
367.4023, 4106.566
367.8844, 4048.925
368.3665, 4000.394
368.8487, 3966.154
369.3308, 3941.464
369.8129, 3919.752
370.2950, 3902.605
370.7771, 3886.607
371.2592, 3870.993
371.7414, 3855.881
372.2235, 3840.875
372.7056, 3824.166
373.1877, 3809.036
373.6698, 3798.849
374.1519, 3793.492
374.6341, 3793.816
375.1162, 3803.901
375.5983, 3821.178
376.0804, 3820.894
376.5625, 3796.426
377.0446, 3770.453
377.5267, 3763.084
378.0089, 3776.697
378.4910, 3784.201
378.9731, 3778.848
379.4552, 3768.913
379.9373, 3777.472
380.4194, 3805.908
380.9016, 3834.835
381.3837, 3856.110
381.8658, 3869.162
382.3479, 3867.740
382.8300, 3848.195
383.3121, 3825.615
383.7943, 3817.863
384.2764, 3824.431
384.7585, 3843.179
385.2406, 3886.431
385.7227, 3937.665
386.2048, 3961.651
386.6870, 3956.905
387.1691, 3947.954
387.6512, 3954.398
388.1333, 3971.676
388.6154, 3992.327
389.0975, 4017.302
389.5797, 4041.209
390.0618, 4053.908
390.5439, 4058.445
391.0260, 4072.655
391.5081, 4124.164
391.9902, 4181.100
392.4724, 4213.988
392.9545, 4200.497
393.4366, 4187.317
393.9187, 4195.910
394.4008, 4220.102
394.8829, 4245.361
395.3651, 4267.040
395.8472, 4288.689
396.3293, 4311.696
396.8114, 4335.852
397.2935, 4362.460
397.7756, 4392.487
398.2578, 4424.664
398.7399, 4457.750
399.2220, 4500.545
399.7041, 4534.448
400.1862, 4549.635
400.6683, 4543.860
401.1505, 4557.327
401.6326, 4601.417
402.1147, 4654.268
402.5968, 4699.035
403.0789, 4730.920
403.5610, 4765.886
404.0432, 4806.691
404.5253, 4851.900
405.0074, 4894.216
405.4895, 4930.723
405.9716, 4972.778
406.4537, 5031.143
406.9359, 5108.084
407.4180, 5170.361
407.9001, 5212.944
408.3822, 5247.285
408.8643, 5290.282
409.3464, 5341.919
409.8285, 5403.145
410.3106, 5480.007
410.7928, 5566.253
411.2749, 5639.754
411.7570, 5699.687
412.2391, 5760.047
412.7212, 5836.215
413.2033, 5924.688
413.6855, 6015.668
414.1676, 6111.287
414.6497, 6202.601
415.1318, 6272.055
415.6139, 6324.024
416.0960, 6378.189
416.5782, 6450.848
417.0603, 6531.121
417.5424, 6607.315
418.0245, 6677.126
418.5066, 6742.608
418.9887, 6811.052
419.4709, 6875.610
419.9530, 6925.178
420.4351, 6933.705
420.9172, 6944.015
421.3993, 6983.565
421.8814, 7060.213
422.3636, 7117.211
422.8457, 7133.358
423.3278, 7128.665
423.8099, 7120.745
424.2920, 7119.781
424.7741, 7106.433
425.2563, 7070.882
425.7384, 7017.005
426.2205, 6975.855
426.7026, 6954.051
427.1847, 6936.915
427.6668, 6917.948
428.1490, 6898.592
428.6311, 6873.767
429.1132, 6843.795
429.5953, 6807.298
430.0774, 6760.266
430.5595, 6699.931
431.0417, 6639.542
431.5238, 6581.304
432.0059, 6526.095
432.4880, 6489.808
432.9701, 6475.912
433.4522, 6465.792
433.9344, 6436.106
434.4165, 6390.535
434.8986, 6353.507
435.3807, 6331.150
435.8628, 6320.453
436.3449, 6322.147
436.8271, 6334.114
437.3092, 6340.310
437.7913, 6324.092
438.2734, 6297.291
438.7555, 6276.268
439.2376, 6262.840
439.7197, 6256.603
440.2018, 6257.629
440.6840, 6265.477
441.1661, 6279.463
441.6482, 6321.323
442.1303, 6351.019
442.6124, 6336.565
443.0945, 6277.706
443.5767, 6224.116
444.0588, 6197.512
444.5409, 6181.141
445.0230, 6162.413
445.5051, 6133.615
445.9872, 6108.530
446.4694, 6092.213
446.9515, 6081.631
447.4336, 6067.122
447.9157, 6047.596
448.3978, 6025.171
448.8799, 6000.878
449.3621, 5974.813
449.8442, 5945.768
450.3263, 5914.082
450.8084, 5879.207
451.2905, 5840.968
451.7726, 5800.507
452.2548, 5752.232
452.7369, 5688.700
453.2190, 5616.997
453.7011, 5573.007
454.1832, 5560.985
454.6653, 5551.928
455.1475, 5522.471
455.6296, 5476.308
456.1117, 5434.875
456.5938, 5401.675
457.0759, 5371.774
457.5580, 5341.527
458.0402, 5309.954
458.5223, 5273.335
459.0044, 5223.749
459.4865, 5171.062
459.9686, 5124.851
460.4507, 5085.808
460.9329, 5055.446
461.4150, 5043.931
461.8971, 5038.867
462.3792, 5026.525
462.8613, 5000.855
463.3434, 4970.275
463.8256, 4932.032
464.3077, 4891.378
464.7898, 4862.052
465.2719, 4866.313
465.7540, 4868.092
466.2361, 4847.707
466.7183, 4792.456
467.2004, 4752.623
467.6825, 4744.534
468.1646, 4746.592
468.6467, 4737.170
469.1288, 4707.910
469.6110, 4680.599
470.0930, 4658.633
470.5752, 4641.207
471.0573, 4622.533
471.5394, 4600.769
472.0215, 4582.240
472.5036, 4572.990
472.9857, 4573.897
473.4679, 4568.224
473.9500, 4554.135
474.4321, 4536.244
474.9142, 4520.293
475.3963, 4506.367
475.8784, 4494.690
476.3606, 4485.331
476.8427, 4478.484
477.3248, 4475.738
477.8069, 4476.899
478.2890, 4478.103
478.7711, 4478.356
479.2533, 4476.382
479.7354, 4469.847
480.2175, 4456.863
480.6996, 4442.607
481.1817, 4427.145
481.6638, 4413.155
482.1460, 4405.913
482.6281, 4414.705
483.1102, 4424.206
483.5923, 4431.018
484.0744, 4435.349
484.5565, 4424.156
485.0387, 4367.745
485.5208, 4310.749
486.0029, 4287.464
486.4850, 4345.345
486.9671, 4369.397
487.4492, 4338.850
487.9314, 4274.378
488.4135, 4231.252
488.8956, 4219.221
489.3777, 4208.913
489.8598, 4188.094
490.3419, 4156.628
490.8241, 4133.671
491.3062, 4121.938
491.7883, 4110.705
492.2704, 4085.093
492.7525, 4047.092
493.2346, 4016.692
493.7168, 4001.299
494.1989, 3992.267
494.6810, 3974.687
495.1631, 3950.101
495.6452, 3926.316
496.1273, 3911.182
496.6095, 3898.177
497.0916, 3879.289
497.5737, 3853.677
498.0558, 3825.058
498.5379, 3793.275
499.0201, 3761.068
499.5022, 3732.184
499.9843, 3706.918
500.4664, 3685.650
500.9485, 3674.785
501.4306, 3669.646
501.9127, 3653.208
502.3948, 3607.771
502.8770, 3562.913
503.3591, 3531.263
503.8412, 3515.847
504.3233, 3504.177
504.8054, 3501.785
505.2875, 3498.423
505.7697, 3480.463
506.2518, 3439.601
506.7339, 3409.366
507.2160, 3398.712
507.6981, 3401.632
508.1802, 3397.919
508.6624, 3387.160
509.1445, 3373.617
509.6266, 3360.552
510.1087, 3347.068
510.5908, 3326.983
511.0729, 3298.799
511.5551, 3272.792
512.0372, 3263.503
512.5193, 3264.553
513.0014, 3261.692
513.4835, 3248.060
513.9656, 3231.083
514.4478, 3214.839
514.9299, 3199.953
515.4120, 3188.771
515.8941, 3187.410
516.3762, 3186.346
516.8583, 3178.749
517.3405, 3161.754
517.8226, 3146.640
518.3047, 3141.003
518.7868, 3136.055
519.2689, 3122.261
519.7510, 3087.782
520.2332, 3059.950
520.7153, 3043.547
521.1974, 3036.193
521.6795, 3030.051
522.1616, 3026.543
522.6437, 3021.002
523.1259, 3010.106
523.6080, 2993.537
524.0901, 2980.893
524.5722, 2972.667
525.0543, 2966.548
525.5364, 2959.653
526.0186, 2952.310
526.5007, 2946.624
526.9828, 2944.258
527.4649, 2942.186
527.9470, 2934.643
528.4291, 2923.260
528.9113, 2913.824
529.3934, 2910.663
529.8755, 2910.376
530.3576, 2911.839
530.8397, 2915.325
531.3218, 2913.787
531.8040, 2900.568
532.2861, 2882.335
532.7682, 2865.581
533.2503, 2848.534
533.7324, 2836.414
534.2145, 2835.125
534.6967, 2839.388
535.1788, 2834.067
535.6609, 2806.326
536.1430, 2787.909
536.6251, 2794.771
537.1072, 2828.802
537.5894, 2836.618
538.0715, 2810.150
538.5536, 2777.753
539.0357, 2766.649
539.5178, 2776.156
539.9999, 2781.564
540.4821, 2777.717
540.9642, 2772.021
541.4463, 2777.673
541.9284, 2792.189
542.4105, 2804.846
542.8926, 2810.410
543.3748, 2811.369
543.8569, 2809.470
544.3390, 2804.938
544.8211, 2800.133
545.3032, 2796.544
545.7853, 2793.148
546.2675, 2788.768
546.7495, 2781.921
547.2316, 2777.025
547.7137, 2774.586
548.1959, 2775.059
548.6780, 2779.157
549.1601, 2794.064
549.6422, 2803.881
550.1243, 2804.015
550.6064, 2796.045
551.0886, 2792.270
551.5707, 2794.547
552.0528, 2797.035
552.5349, 2796.168
553.0170, 2791.792
553.4991, 2788.162
553.9813, 2785.351
554.4634, 2783.252
554.9455, 2780.751
555.4276, 2778.550
555.9097, 2780.501
556.3918, 2790.738
556.8740, 2801.304
557.3561, 2797.330
557.8382, 2784.221
558.3203, 2779.860
558.8024, 2807.348
559.2845, 2837.478
559.7667, 2845.507
560.2488, 2827.626
560.7309, 2816.490
561.2130, 2828.794
561.6951, 2848.751
562.1772, 2864.386
562.6594, 2872.461
563.1415, 2878.116
563.6236, 2877.284
564.1057, 2875.478
564.5878, 2884.914
565.0699, 2910.993
565.5521, 2933.803
566.0342, 2946.992
566.5163, 2951.763
566.9984, 2955.901
567.4805, 2959.287
567.9626, 2962.833
568.4448, 2967.374
568.9269, 2972.643
569.4090, 2976.802
569.8911, 2978.842
570.3732, 2984.387
570.8553, 3003.648
571.3375, 3029.742
571.8196, 3049.720
572.3017, 3053.861
572.7838, 3056.628
573.2659, 3064.602
573.7480, 3077.403
574.2302, 3094.104
574.7123, 3118.177
575.1944, 3142.647
575.6765, 3164.549
576.1586, 3183.332
576.6407, 3202.504
577.1229, 3224.757
577.6050, 3244.903
578.0871, 3257.115
578.5692, 3257.595
579.0513, 3267.024
579.5334, 3289.379
580.0156, 3318.168
580.4977, 3339.750
580.9798, 3354.873
581.4619, 3377.462
581.9440, 3419.429
582.4261, 3467.950
582.9083, 3495.649
583.3904, 3504.994
583.8725, 3515.248
584.3546, 3537.176
584.8367, 3566.745
585.3188, 3601.861
585.8010, 3643.063
586.2831, 3683.818
586.7652, 3718.856
587.2473, 3753.071
587.7294, 3791.827
588.2115, 3844.111
588.6937, 3890.908
589.1758, 3929.478
589.6579, 3961.802
590.1400, 3991.324
590.6221, 4013.652
591.1042, 4043.874
591.5864, 4090.683
592.0685, 4151.128
592.5506, 4196.904
593.0327, 4226.863
593.5148, 4251.267
593.9969, 4278.788
594.4791, 4307.279
594.9612, 4328.500
595.4433, 4340.260
595.9254, 4353.464
596.4075, 4380.855
596.8896, 4416.326
597.3718, 4449.518
597.8539, 4476.342
598.3360, 4501.028
598.8181, 4523.729
599.3002, 4545.641
599.7823, 4570.458
600.2645, 4613.800
600.7466, 4645.581
601.2287, 4646.154
601.7108, 4611.489
602.1929, 4614.150
602.6750, 4673.292
603.1572, 4739.439
603.6393, 4777.520
604.1214, 4784.786
604.6035, 4791.230
605.0856, 4797.513
605.5677, 4806.675
606.0499, 4825.704
606.5320, 4852.142
607.0141, 4875.818
607.4962, 4894.390
607.9783, 4907.534
608.4604, 4908.262
608.9425, 4901.833
609.4246, 4904.744
609.9067, 4933.049
610.3889, 4966.795
610.8710, 4995.525
611.3531, 5018.421
611.8352, 5036.954
612.3173, 5050.017
612.7994, 5059.985
613.2816, 5068.014
613.7637, 5071.007
614.2458, 5079.262
614.7279, 5093.683
615.2100, 5112.474
615.6921, 5135.456
616.1743, 5163.708
616.6564, 5185.075
617.1385, 5195.935
617.6206, 5199.491
618.1027, 5197.226
618.5848, 5191.317
619.0670, 5193.761
619.5491, 5225.372
620.0312, 5259.756
620.5133, 5264.694
620.9954, 5240.974
621.4775, 5218.691
621.9597, 5213.949
622.4418, 5215.751
622.9239, 5217.363
623.4060, 5220.378
623.8881, 5216.774
624.3702, 5203.450
624.8524, 5184.473
625.3345, 5162.570
625.8166, 5133.610
626.2987, 5113.223
626.7808, 5106.994
627.2629, 5107.107
627.7451, 5093.604
628.2272, 5066.381
628.7093, 5040.268
629.1914, 5024.742
629.6735, 5013.187
630.1556, 4990.858
630.6378, 4958.923
631.1199, 4926.586
631.6020, 4899.762
632.0841, 4875.539
632.5662, 4850.076
633.0483, 4821.820
633.5305, 4799.359
634.0126, 4788.746
634.4947, 4784.276
634.9768, 4781.334
635.4589, 4787.068
635.9410, 4782.920
636.4232, 4765.339
636.9053, 4739.506
637.3874, 4712.554
637.8695, 4682.918
638.3516, 4660.419
638.8337, 4649.892
639.3159, 4646.430
639.7980, 4634.505
640.2801, 4614.975
640.7622, 4599.322
641.2443, 4599.972
641.7264, 4605.831
642.2086, 4600.747
642.6907, 4584.364
643.1728, 4567.477
643.6549, 4552.591
644.1370, 4542.125
644.6191, 4539.187
645.1013, 4550.708
645.5834, 4555.402
646.0655, 4545.054
646.5476, 4529.156
647.0297, 4516.901
647.5118, 4508.222
647.9940, 4503.123
648.4761, 4502.624
648.9582, 4504.386
649.4403, 4502.373
649.9224, 4496.459
650.4045, 4492.577
650.8867, 4497.808
651.3688, 4503.741
651.8509, 4486.980
652.3330, 4451.968
652.8151, 4428.311
653.2972, 4446.906
653.7794, 4477.033
654.2615, 4495.937
654.7436, 4501.434
655.2257, 4495.003
655.7078, 4462.284
656.1899, 4427.481
656.6721, 4408.915
657.1542, 4414.479
657.6363, 4422.989
658.1184, 4438.248
658.6005, 4452.380
659.0826, 4453.602
659.5648, 4441.063
660.0469, 4423.419
660.5290, 4399.739
661.0111, 4376.084
661.4932, 4363.580
661.9753, 4361.289
662.4575, 4365.624
662.9396, 4382.307
663.4217, 4399.552
663.9038, 4407.599
664.3859, 4406.809
664.8680, 4399.956
665.3502, 4382.289
665.8323, 4363.823
666.3144, 4349.378
666.7965, 4339.624
667.2786, 4332.979
667.7607, 4330.544
668.2429, 4329.582
668.7250, 4328.462
669.2071, 4327.273
669.6892, 4324.500
670.1713, 4320.779
670.6534, 4312.623
671.1355, 4291.017
671.6176, 4259.925
672.0997, 4235.924
672.5818, 4225.275
673.0640, 4220.293
673.5461, 4213.364
674.0282, 4206.696
674.5103, 4204.710
674.9924, 4220.072
675.4745, 4230.130
675.9567, 4224.126
676.4388, 4203.684
676.9209, 4181.989
677.4030, 4155.262
677.8851, 4133.916
678.3672, 4123.144
678.8494, 4122.827
679.3315, 4122.375
679.8136, 4122.330
680.2957, 4118.849
680.7778, 4104.785
681.2599, 4084.286
681.7421, 4074.231
682.2242, 4076.922
682.7063, 4079.692
683.1884, 4066.679
683.6705, 4048.678
684.1526, 4041.429
684.6348, 4060.288
685.1169, 4069.280
685.5990, 4043.596
686.0811, 4003.826
686.5632, 3982.726
687.0453, 3996.856
687.5275, 4005.603
688.0096, 4001.280
688.4917, 3988.953
688.9738, 3982.975
689.4559, 3984.351
689.9380, 3984.083
690.4202, 3978.803
690.9023, 3969.136
