##NAMES=Cahnite
##RRUFFID=R110095
##IDEAL CHEMISTRY=Ca_2_B(As^5+^O_4_)(OH)_4_
##LOCALITY=Inner Mongolia province, China
##OWNER=RRUFF
##SOURCE=Rob Lavinsky
##DESCRIPTION=White tetrahedra associated with bluish green borcarite (R110094)
##STATUS=The identification of this mineral is confirmed by single-crystal X-ray diffraction and chemical analysis.
##URL=rruff.info/R110095
##MEASURED CHEMISTRY=Ca_2.01_B[(As_0.96_Si_0.04_)O_4_](OH)_4_ ; B not measured
101.2458, 34.43688
101.7280, 33.86005
102.2101, 33.78917
102.6922, 33.95341
103.1743, 33.92744
103.6564, 33.70321
104.1385, 33.50945
104.6207, 33.42459
105.1028, 33.43017
105.5849, 33.47701
106.0670, 33.59412
106.5491, 33.68755
107.0313, 33.68647
107.5134, 33.59171
107.9955, 33.37857
108.4776, 32.97591
108.9597, 32.32718
109.4418, 31.73234
109.9240, 31.26551
110.4061, 30.88472
110.8882, 30.56321
111.3703, 30.28771
111.8524, 30.07989
112.3345, 30.00962
112.8167, 30.22937
113.2988, 30.39172
113.7809, 30.44008
114.2630, 30.40532
114.7451, 30.31563
115.2272, 30.18198
115.7094, 30.01043
116.1915, 29.94717
116.6736, 30.18326
117.1557, 30.32350
117.6378, 30.16548
118.1199, 29.76833
118.6021, 29.35372
119.0842, 29.10067
119.5663, 29.02993
120.0484, 28.99305
120.5305, 28.97902
121.0126, 29.00278
121.4948, 29.09813
121.9769, 29.27667
122.4590, 29.45947
122.9411, 29.60041
123.4232, 29.69532
123.9053, 29.66704
124.3875, 29.38748
124.8696, 28.95682
125.3517, 28.65624
125.8338, 28.54898
126.3159, 28.54751
126.7980, 28.60974
127.2802, 28.71934
127.7623, 28.80316
128.2444, 28.79161
128.7265, 28.67517
129.2086, 28.56577
129.6907, 28.48895
130.1729, 28.40839
130.6550, 28.29312
131.1371, 28.14609
131.6192, 28.00624
132.1013, 27.93876
132.5834, 28.01992
133.0656, 28.01837
133.5477, 27.87281
134.0298, 27.69286
134.5119, 27.55413
134.9940, 27.48384
135.4761, 27.46781
135.9583, 27.47644
136.4404, 27.53535
136.9225, 27.58883
137.4046, 27.60175
137.8867, 27.61413
138.3688, 27.70140
138.8510, 27.91454
139.3331, 28.19066
139.8152, 28.32297
140.2973, 28.29052
140.7794, 28.18901
141.2615, 27.99084
141.7437, 27.72996
142.2258, 27.56284
142.7079, 27.60864
143.1900, 27.79159
143.6721, 27.93076
144.1542, 28.00760
144.6364, 28.05208
145.1185, 28.07723
145.6006, 28.07440
146.0827, 28.10515
146.5648, 28.22760
147.0469, 28.39327
147.5291, 28.55619
148.0112, 28.69607
148.4933, 28.82844
148.9754, 28.99045
149.4575, 29.20181
149.9396, 29.41240
150.4218, 29.59658
150.9039, 29.77303
151.3860, 29.94865
151.8681, 30.10713
152.3502, 30.27272
152.8323, 30.64355
153.3145, 31.52817
153.7966, 32.33253
154.2787, 32.89269
154.7608, 33.28115
155.2429, 33.67986
155.7250, 34.25512
156.2072, 35.03676
156.6893, 35.50029
157.1714, 35.34571
157.6535, 35.21625
158.1356, 35.43777
158.6177, 35.96904
159.0999, 36.52223
159.5820, 36.81966
160.0641, 36.80595
160.5462, 36.92023
161.0283, 37.27034
161.5104, 37.66716
161.9926, 38.01227
162.4747, 38.28884
162.9568, 38.43243
163.4389, 38.29230
163.9210, 37.88694
164.4031, 37.60163
164.8853, 37.58723
165.3674, 37.70546
165.8495, 37.73114
166.3316, 37.58905
166.8137, 37.47883
167.2958, 37.60061
167.7780, 37.91029
168.2601, 38.28766
168.7422, 38.51807
169.2243, 38.72898
169.7064, 39.46008
170.1885, 40.97750
170.6707, 42.80806
171.1528, 44.75414
171.6349, 46.75324
172.1170, 48.60087
172.5991, 50.26362
173.0812, 51.76356
173.5634, 52.61149
174.0455, 52.51932
174.5276, 51.89623
175.0097, 50.75389
175.4918, 49.16690
175.9739, 47.32949
176.4561, 45.41436
176.9382, 43.33727
177.4203, 41.42794
177.9024, 39.68223
178.3845, 38.08529
178.8666, 36.67782
179.3488, 35.44949
179.8309, 34.31386
180.3130, 33.16418
180.7951, 31.92270
181.2772, 30.87185
181.7593, 29.99982
182.2415, 29.29651
182.7236, 28.82784
183.2057, 28.58690
183.6878, 28.41514
184.1699, 28.06373
184.6520, 27.36499
185.1342, 26.82094
185.6163, 26.56074
186.0984, 26.40952
186.5805, 26.17645
187.0626, 25.80254
187.5447, 25.36963
188.0269, 24.99932
188.5090, 24.67217
188.9911, 24.44942
189.4732, 24.41094
189.9553, 24.47691
190.4374, 24.50589
190.9196, 24.44766
191.4017, 24.36210
191.8838, 24.32910
192.3659, 24.34466
192.8480, 24.39726
193.3301, 24.51773
193.8123, 24.67976
194.2944, 24.78959
194.7765, 24.82606
195.2586, 24.79064
195.7407, 24.66433
196.2228, 24.44503
196.7050, 24.27431
197.1871, 24.28304
197.6692, 24.46276
198.1513, 24.61821
198.6334, 24.65924
199.1155, 24.71253
199.5977, 24.90416
200.0798, 25.23042
200.5619, 25.52577
201.0440, 25.61817
201.5261, 25.48131
202.0082, 25.31854
202.4904, 25.04342
202.9725, 24.82903
203.4546, 24.78310
203.9367, 24.91029
204.4188, 25.12395
204.9009, 25.31714
205.3831, 25.46778
205.8652, 25.66738
206.3473, 26.03333
206.8294, 26.36089
207.3115, 26.48895
207.7936, 26.41264
208.2758, 26.27782
208.7579, 26.28669
209.2400, 26.49271
209.7221, 26.74069
210.2042, 27.09755
210.6863, 27.44208
211.1685, 27.63739
211.6506, 27.68150
212.1327, 27.74076
212.6148, 28.07287
213.0969, 28.88456
213.5790, 29.53936
214.0612, 29.93341
214.5433, 30.24619
215.0254, 30.63149
215.5075, 31.11986
215.9896, 31.63526
216.4717, 32.07225
216.9539, 32.42793
217.4360, 32.68488
217.9181, 32.89435
218.4002, 32.98048
218.8823, 32.85167
219.3644, 32.48497
219.8466, 31.96209
220.3287, 31.36273
220.8108, 30.66546
221.2929, 29.99954
221.7750, 29.43425
222.2571, 28.88942
222.7393, 28.24771
223.2214, 27.47501
223.7035, 26.66928
224.1856, 25.87239
224.6677, 25.07853
225.1498, 24.59725
225.6320, 24.75045
226.1141, 25.20771
226.5962, 25.40737
227.0783, 25.20873
227.5604, 24.90035
228.0425, 24.76823
228.5247, 24.77439
229.0068, 24.77897
229.4889, 24.69616
229.9710, 24.57762
230.4531, 24.55835
230.9352, 24.70281
231.4174, 24.83757
231.8995, 24.80055
232.3816, 24.64532
232.8637, 24.51495
233.3458, 24.48886
233.8279, 24.54171
234.3101, 24.59548
234.7922, 24.65724
235.2743, 24.70266
235.7564, 24.73148
236.2385, 24.73734
236.7206, 24.70640
237.2028, 24.63859
237.6849, 24.52839
238.1670, 24.33566
238.6491, 23.97194
239.1312, 23.66029
239.6133, 23.44884
240.0955, 23.34533
240.5776, 23.37124
241.0597, 23.57751
241.5418, 23.91412
242.0239, 24.13419
242.5060, 24.18953
242.9882, 24.18066
243.4703, 24.09470
243.9524, 23.97988
244.4345, 23.90048
244.9166, 23.89305
245.3987, 23.94959
245.8809, 24.03106
246.3630, 24.11241
246.8451, 24.26002
247.3272, 24.54599
247.8093, 24.88556
248.2914, 25.16359
248.7736, 25.31437
249.2557, 25.37355
249.7378, 25.48230
250.2199, 25.63520
250.7020, 25.85617
251.1841, 26.27361
251.6663, 26.71705
252.1484, 26.94685
252.6305, 26.84415
253.1126, 26.54231
253.5947, 26.46340
254.0768, 26.90169
254.5590, 27.22218
255.0411, 27.31001
255.5232, 27.29170
256.0053, 27.28984
256.4874, 27.35693
256.9695, 27.49703
257.4517, 27.71995
257.9338, 28.16863
258.4159, 28.53170
258.8980, 28.75392
259.3801, 28.91320
259.8622, 29.04159
260.3444, 29.15573
260.8265, 29.35699
261.3086, 29.84834
261.7907, 30.98558
262.2728, 31.85827
262.7549, 32.11489
263.2371, 32.27080
263.7192, 32.88235
264.2013, 34.09156
264.6834, 35.56372
265.1655, 36.80840
265.6476, 37.69441
266.1298, 38.64492
266.6119, 39.79352
267.0940, 40.94585
267.5761, 41.90606
268.0582, 42.64255
268.5403, 43.27812
269.0225, 44.02103
269.5046, 44.98234
269.9867, 45.33948
270.4688, 44.72594
270.9509, 43.71527
271.4330, 42.73061
271.9152, 41.83712
272.3973, 40.98694
272.8794, 40.14138
273.3615, 39.29978
273.8436, 38.49644
274.3257, 37.53138
274.8079, 36.74055
275.2900, 36.45500
275.7721, 36.66898
276.2542, 37.06787
276.7363, 37.45283
277.2184, 37.82682
277.7006, 38.22938
278.1827, 38.55277
278.6648, 38.98793
279.1469, 39.71976
279.6290, 40.71790
280.1111, 41.74331
280.5933, 42.63280
281.0754, 43.45497
281.5575, 44.43437
282.0396, 45.60324
282.5217, 46.88250
283.0038, 48.31353
283.4860, 49.85296
283.9681, 51.30707
284.4502, 52.64717
284.9323, 53.77712
285.4144, 54.60341
285.8965, 55.18506
286.3787, 55.36568
286.8608, 54.93712
287.3429, 54.00794
287.8250, 52.97395
288.3071, 51.99426
288.7892, 50.90597
289.2714, 49.43967
289.7535, 47.56232
290.2356, 45.68803
290.7177, 43.87136
291.1998, 42.19688
291.6819, 40.93085
292.1641, 40.26411
292.6462, 39.76242
293.1283, 38.86712
293.6104, 37.63610
294.0925, 36.57798
294.5746, 35.90962
295.0568, 35.55076
295.5389, 35.37353
296.0210, 35.39795
296.5031, 35.50256
296.9852, 35.52766
297.4673, 35.53406
297.9495, 35.73377
298.4316, 36.26120
298.9137, 36.99449
299.3958, 37.75415
299.8779, 38.52715
300.3600, 39.37066
300.8422, 40.27808
301.3243, 41.29144
301.8064, 42.50634
302.2885, 44.07015
302.7706, 45.73788
303.2527, 47.23443
303.7349, 48.55654
304.2170, 49.84342
304.6991, 51.20641
305.1812, 52.54250
305.6633, 53.69680
306.1454, 54.60045
306.6276, 55.43550
307.1097, 56.25442
307.5918, 57.07179
308.0739, 58.21036
308.5560, 59.90096
309.0381, 61.85988
309.5203, 63.69012
310.0024, 65.36321
310.4845, 67.18997
310.9666, 69.30388
311.4487, 71.72244
311.9308, 74.51472
312.4130, 77.64422
312.8951, 81.24789
313.3772, 85.30802
313.8593, 89.82651
314.3414, 94.82603
314.8235, 100.2680
315.3057, 106.2049
315.7878, 112.8972
316.2699, 120.4380
316.7520, 128.5142
317.2341, 137.1662
317.7162, 146.1250
318.1984, 154.9050
318.6805, 164.2564
319.1626, 172.8694
319.6447, 178.8475
320.1268, 182.1958
320.6089, 182.9035
321.0911, 180.5424
321.5732, 175.4854
322.0553, 167.7776
322.5374, 156.7690
323.0195, 144.1320
323.5016, 131.1279
323.9838, 117.6693
324.4659, 104.9985
324.9480, 93.48656
325.4301, 83.23952
325.9122, 74.35619
326.3943, 66.82604
326.8765, 60.33589
327.3586, 54.73832
327.8407, 49.98646
328.3228, 46.00045
328.8049, 42.92966
329.2870, 40.44083
329.7692, 38.16829
330.2513, 36.11127
330.7334, 34.31624
331.2155, 32.83443
331.6976, 31.63573
332.1797, 30.67652
332.6619, 29.98847
333.1440, 29.44072
333.6261, 28.97977
334.1082, 28.58001
334.5903, 28.18334
335.0724, 27.72166
335.5546, 27.28268
336.0367, 27.01238
336.5188, 26.92834
337.0009, 26.84138
337.4830, 26.64082
337.9651, 26.36485
338.4473, 26.07905
338.9294, 25.74959
339.4115, 25.47610
339.8936, 25.36666
340.3757, 25.40216
340.8578, 25.44827
341.3400, 25.47455
341.8221, 25.46603
342.3042, 25.39748
342.7863, 25.25760
343.2684, 25.12368
343.7505, 25.03755
344.2327, 24.98502
344.7148, 24.91979
345.1969, 24.81488
345.6790, 24.74201
346.1611, 24.83119
346.6432, 25.05373
347.1254, 25.22114
347.6075, 25.27310
348.0896, 25.24926
348.5717, 25.13249
349.0538, 24.91270
349.5359, 24.83212
350.0181, 25.16955
350.5002, 25.81124
350.9823, 26.21732
351.4644, 26.11843
351.9465, 25.98033
352.4286, 26.14450
352.9108, 26.55640
353.3929, 26.95274
353.8750, 27.19274
354.3571, 27.35150
354.8392, 27.61778
355.3214, 28.01489
355.8035, 28.44335
356.2856, 28.91229
356.7677, 29.37963
357.2498, 29.74156
357.7319, 29.95266
358.2141, 30.14476
358.6962, 30.52918
359.1783, 31.14901
359.6604, 31.68388
360.1425, 31.92312
360.6246, 32.17248
361.1068, 32.77077
361.5889, 33.73342
362.0710, 34.74740
362.5531, 35.56019
363.0352, 36.17147
363.5173, 36.77795
363.9995, 37.38906
364.4816, 37.98981
364.9637, 38.49748
365.4458, 38.98229
365.9279, 39.64653
366.4100, 40.61884
366.8922, 41.78400
367.3743, 42.74778
367.8564, 43.28845
368.3385, 43.95652
368.8206, 44.91964
369.3027, 46.00536
369.7849, 46.99683
370.2670, 47.83337
370.7491, 48.64402
371.2312, 49.63358
371.7133, 50.95555
372.1954, 51.93651
372.6776, 52.47114
373.1597, 52.78235
373.6418, 52.91923
374.1239, 52.94168
374.6060, 52.98494
375.0881, 53.16817
375.5703, 53.48388
376.0524, 53.68663
376.5345, 53.88187
377.0166, 53.85216
377.4987, 53.41125
377.9808, 52.74807
378.4630, 52.12695
378.9451, 51.66972
379.4272, 51.31181
379.9093, 50.88853
380.3914, 50.23674
380.8735, 49.80364
381.3557, 49.74362
381.8378, 49.78394
382.3199, 49.66627
382.8020, 49.38817
383.2841, 49.19559
383.7662, 49.39193
384.2484, 50.04305
384.7305, 50.62620
385.2126, 51.03357
385.6947, 51.47767
386.1768, 51.92272
386.6589, 52.46369
387.1411, 53.28221
387.6232, 54.51958
388.1053, 56.07136
388.5874, 57.56038
389.0695, 58.97253
389.5516, 60.33963
390.0338, 61.61642
390.5159, 62.89471
390.9980, 64.35617
391.4801, 66.04591
391.9622, 67.58463
392.4443, 68.52100
392.9265, 68.82827
393.4086, 68.79751
393.8907, 68.49632
394.3728, 67.78065
394.8549, 66.47555
395.3370, 64.67187
395.8192, 62.71061
396.3013, 60.81293
396.7834, 58.91990
397.2655, 56.80037
397.7476, 54.33131
398.2297, 51.96767
398.7119, 49.89076
399.1940, 48.07365
399.6761, 46.53677
400.1582, 45.30729
400.6403, 44.30658
401.1224, 43.49232
401.6046, 42.85309
402.0867, 42.30943
402.5688, 41.86018
403.0509, 41.47687
403.5330, 41.08970
404.0151, 40.69341
404.4973, 40.42312
404.9794, 40.35551
405.4615, 40.44714
405.9436, 40.56123
406.4257, 40.64958
406.9078, 41.02020
407.3900, 42.04234
407.8721, 43.60513
408.3542, 45.06860
408.8363, 46.94321
409.3184, 48.20672
409.8005, 47.76805
410.2827, 46.06056
410.7648, 44.55380
411.2469, 43.87088
411.7290, 43.79843
412.2111, 43.94283
412.6932, 44.42096
413.1754, 44.78887
413.6575, 44.98988
414.1396, 45.03413
414.6217, 44.90797
415.1038, 44.61737
415.5859, 44.22921
416.0681, 43.81092
416.5502, 43.36729
417.0323, 42.81449
417.5144, 42.03272
417.9965, 41.28518
418.4786, 40.68229
418.9608, 40.19247
419.4429, 39.74410
419.9250, 39.30261
420.4071, 38.86544
420.8892, 38.42637
421.3713, 38.01396
421.8535, 37.55589
422.3356, 37.04417
422.8177, 36.49261
423.2998, 35.87422
423.7819, 35.20769
424.2640, 34.59333
424.7462, 34.15474
425.2283, 33.90749
425.7104, 33.57391
426.1925, 32.96597
426.6746, 32.47896
427.1567, 32.27086
427.6389, 32.24548
428.1210, 32.25730
428.6031, 32.23984
429.0852, 32.21199
429.5673, 32.23793
430.0494, 32.36788
430.5316, 32.37189
431.0137, 32.01217
431.4958, 31.63300
431.9779, 31.46678
432.4600, 31.52217
432.9421, 31.63712
433.4243, 31.67413
433.9064, 31.66561
434.3885, 31.76748
434.8706, 32.03045
435.3527, 32.30350
435.8348, 32.44304
436.3170, 32.53443
436.7991, 32.73135
437.2812, 33.10005
437.7633, 33.54376
438.2454, 34.01024
438.7275, 34.48969
439.2097, 34.86131
439.6918, 34.98042
440.1739, 35.12565
440.6560, 35.79295
441.1381, 37.01509
441.6202, 38.15549
442.1024, 38.97814
442.5845, 39.65911
443.0666, 40.39271
443.5487, 41.19641
444.0308, 41.98685
444.5129, 42.73098
444.9951, 43.40648
445.4772, 43.86045
445.9593, 44.02967
446.4414, 44.08669
446.9235, 44.15459
447.4056, 44.12187
447.8878, 43.80655
448.3699, 43.14866
448.8520, 42.25181
449.3341, 41.25597
449.8162, 40.13011
450.2983, 38.99388
450.7805, 37.76167
451.2626, 36.60095
451.7447, 35.59962
452.2268, 34.74221
452.7089, 33.95977
453.1910, 33.20994
453.6732, 32.50217
454.1553, 31.89139
454.6374, 31.45053
455.1195, 30.98375
455.6016, 30.40859
456.0837, 29.83146
456.5659, 29.33874
457.0480, 28.94459
457.5301, 28.62720
458.0122, 28.36015
458.4943, 28.14298
458.9764, 28.02163
459.4586, 28.09330
459.9407, 28.11519
460.4228, 27.96581
460.9049, 27.68702
461.3870, 27.33743
461.8691, 26.89758
462.3513, 26.46163
462.8334, 26.14488
463.3155, 25.94513
463.7976, 25.82697
464.2797, 25.86953
464.7618, 25.87889
465.2440, 25.57883
465.7261, 24.96723
466.2082, 24.37016
466.6903, 23.88025
467.1724, 23.47016
467.6545, 23.11414
468.1367, 22.80998
468.6188, 22.55288
469.1009, 22.36508
469.5830, 22.21753
470.0651, 21.95619
470.5472, 21.42194
471.0294, 20.99251
471.5115, 20.82969
471.9936, 20.79694
472.4757, 20.73645
472.9578, 20.60418
473.4399, 20.41887
473.9221, 20.18923
474.4042, 19.88841
474.8863, 19.70437
475.3684, 19.74612
475.8505, 19.77303
476.3326, 19.66243
476.8148, 19.48310
477.2969, 19.37833
477.7790, 19.42198
478.2611, 19.51307
478.7432, 19.41327
479.2253, 19.02254
479.7075, 18.72680
480.1896, 18.57625
480.6717, 18.52659
481.1538, 18.61841
481.6359, 18.80998
482.1180, 18.95832
482.6002, 18.94106
483.0823, 18.81889
483.5644, 18.78991
484.0465, 18.90485
484.5286, 18.92031
485.0107, 18.56396
485.4929, 18.13685
485.9750, 18.04477
486.4571, 18.39864
486.9392, 18.72391
487.4213, 18.66547
487.9034, 18.38103
488.3856, 18.22563
488.8677, 18.26284
489.3498, 18.36213
489.8319, 18.43731
490.3140, 18.47992
490.7961, 18.45229
491.2783, 18.24814
491.7604, 18.08648
492.2425, 18.11314
492.7246, 18.24356
493.2067, 18.32000
493.6888, 18.28707
494.1710, 18.19222
494.6531, 18.10556
495.1352, 18.02729
495.6173, 17.95797
496.0994, 17.87200
496.5815, 17.81794
497.0637, 17.85942
497.5458, 17.94870
498.0279, 17.98599
498.5100, 17.91349
498.9921, 17.76285
499.4742, 17.59903
499.9564, 17.38791
500.4385, 17.25305
500.9206, 17.21226
501.4027, 17.25098
501.8848, 17.41349
502.3669, 17.66957
502.8491, 17.88604
503.3312, 17.94853
503.8133, 17.91084
504.2954, 17.94127
504.7775, 18.07271
505.2596, 18.10941
505.7418, 17.85815
506.2239, 17.51638
506.7060, 17.37544
507.1881, 17.48894
507.6702, 17.64009
508.1523, 17.76651
508.6345, 17.84566
509.1166, 17.81808
509.5987, 17.67465
510.0808, 17.51242
510.5629, 17.40618
511.0450, 17.35309
511.5272, 17.30589
512.0093, 17.17533
512.4914, 17.15401
512.9735, 17.43376
513.4556, 17.79945
513.9377, 17.92243
514.4199, 17.73293
514.9020, 17.49822
515.3841, 17.58989
515.8662, 18.09799
516.3483, 18.31148
516.8304, 17.87930
517.3126, 17.51840
517.7947, 17.47170
518.2768, 17.60919
518.7589, 17.73548
519.2410, 17.77405
519.7231, 17.76694
520.2053, 17.76371
520.6874, 17.76282
521.1695, 17.79743
521.6516, 17.93606
522.1337, 18.02562
522.6158, 17.89006
523.0980, 17.62185
523.5801, 17.49043
524.0622, 17.64273
524.5443, 17.92090
525.0264, 18.23716
525.5085, 18.56390
525.9907, 18.69331
526.4728, 18.50540
526.9549, 18.19671
527.4370, 18.04248
527.9191, 18.04657
528.4012, 18.15552
528.8834, 18.47270
529.3655, 18.80066
529.8476, 18.98646
530.3297, 19.06425
530.8118, 19.16483
531.2939, 19.36334
531.7761, 19.59716
532.2582, 19.68808
532.7403, 19.42182
533.2224, 19.41579
533.7045, 19.89533
534.1866, 20.41306
534.6688, 20.68043
535.1509, 20.74402
535.6330, 20.82071
536.1151, 21.04670
536.5972, 21.38843
537.0793, 21.75945
537.5615, 22.15088
538.0436, 22.60664
538.5257, 23.27925
539.0078, 23.90461
539.4899, 24.21286
539.9720, 24.21286
540.4542, 24.20324
540.9363, 24.39700
541.4184, 24.63235
541.9005, 24.66255
542.3826, 24.48647
542.8647, 24.26508
543.3469, 24.08566
543.8290, 23.90927
544.3111, 23.62623
544.7932, 23.20982
545.2753, 22.77251
545.7574, 22.23273
546.2396, 21.74454
546.7217, 21.49002
547.2038, 21.43264
547.6859, 21.36665
548.1680, 21.13845
548.6501, 20.80147
549.1323, 20.59378
549.6144, 20.56248
550.0965, 20.58854
550.5786, 20.83195
551.0607, 20.98912
551.5428, 20.77044
552.0250, 20.21283
552.5071, 19.63909
552.9892, 19.30091
553.4713, 19.11351
553.9534, 18.78609
554.4355, 18.26461
554.9177, 17.88964
555.3998, 17.90612
555.8819, 18.06141
556.3640, 17.99519
556.8461, 17.67415
557.3282, 17.36879
557.8104, 17.10994
558.2925, 16.96367
558.7746, 17.08525
559.2567, 17.44190
559.7388, 17.75392
560.2209, 17.85889
560.7031, 17.79389
561.1852, 17.67780
561.6673, 17.45965
562.1494, 17.25831
562.6315, 17.04846
563.1136, 16.87687
563.5958, 16.78520
564.0779, 16.76542
564.5600, 16.78057
565.0421, 16.80459
565.5242, 16.84344
566.0063, 16.94197
566.4885, 17.16488
566.9706, 17.25669
567.4527, 17.01784
567.9348, 16.72846
568.4169, 16.57900
568.8990, 16.56758
569.3812, 16.58067
569.8633, 16.57307
570.3454, 16.54901
570.8275, 16.48818
571.3096, 16.39789
571.7917, 16.38868
572.2739, 16.53422
572.7560, 16.74250
573.2381, 16.84784
573.7202, 16.83165
574.2023, 16.79741
574.6844, 16.75731
575.1666, 16.69966
575.6487, 16.59508
576.1308, 16.46620
576.6129, 16.36959
577.0950, 16.33500
577.5771, 16.34175
578.0593, 16.33559
578.5414, 16.28021
579.0235, 16.31172
579.5056, 16.59171
579.9877, 16.81481
580.4698, 16.80537
580.9520, 16.63158
581.4341, 16.45714
581.9162, 16.33988
582.3983, 16.28559
582.8804, 16.35065
583.3625, 16.51651
583.8447, 16.56325
584.3268, 16.39858
584.8089, 16.19718
585.2910, 16.16185
585.7731, 16.27192
586.2552, 16.30979
586.7374, 16.16261
587.2195, 16.03756
587.7016, 16.03914
588.1837, 16.13698
588.6658, 16.31435
589.1479, 16.55627
589.6301, 16.74780
590.1122, 16.72617
590.5943, 16.45652
591.0764, 16.30873
591.5585, 16.40073
592.0406, 16.48066
592.5228, 16.47460
593.0049, 16.43158
593.4870, 16.41029
593.9691, 16.42583
594.4512, 16.45494
594.9333, 16.48010
595.4155, 16.50101
595.8976, 16.53157
596.3797, 16.59007
