##NAMES=Cahnite
##RRUFFID=R110095
##IDEAL CHEMISTRY=Ca_2_B(As^5+^O_4_)(OH)_4_
##LOCALITY=Inner Mongolia province, China
##OWNER=RRUFF
##SOURCE=Rob Lavinsky
##DESCRIPTION=White tetrahedra associated with bluish green borcarite (R110094)
##STATUS=The identification of this mineral is confirmed by single-crystal X-ray diffraction and chemical analysis.
##URL=rruff.info/R110095
##MEASURED CHEMISTRY=Ca_2.01_B[(As_0.96_Si_0.04_)O_4_](OH)_4_ ; B not measured
112.6696, 8.037597
113.1517, 7.663304
113.6338, 7.356079
114.1159, 7.156261
114.5980, 7.011809
115.0801, 6.905490
115.5623, 6.840622
116.0444, 6.803703
116.5265, 6.807207
117.0086, 6.836561
117.4907, 6.861393
117.9728, 6.883051
118.4550, 6.889584
118.9371, 6.886357
119.4192, 6.941785
119.9013, 6.883923
120.3834, 6.432241
120.8655, 5.722809
121.3477, 5.286615
121.8298, 5.769279
122.3119, 6.556059
122.7940, 6.979188
123.2761, 6.525620
123.7582, 5.913179
124.2404, 5.804474
124.7225, 6.162791
125.2046, 6.535489
125.6867, 6.548932
126.1688, 6.333885
126.6509, 6.126191
127.1331, 5.943199
127.6152, 5.845746
128.0973, 6.029586
128.5794, 6.524229
129.0615, 6.942457
129.5436, 6.714009
130.0258, 5.990032
130.5079, 5.438613
130.9900, 5.561740
131.4721, 6.109726
131.9542, 6.272743
132.4363, 5.961645
132.9185, 5.461207
133.4006, 5.179213
133.8827, 5.114142
134.3648, 5.106810
134.8469, 5.087991
135.3290, 5.057335
135.8112, 4.996618
136.2933, 4.881585
136.7754, 4.764448
137.2575, 4.774260
137.7396, 4.927919
138.2217, 5.136537
138.7039, 5.409401
139.1860, 5.787898
139.6681, 5.919353
140.1502, 5.698077
140.6323, 5.212760
141.1144, 4.823184
141.5966, 4.518189
142.0787, 4.329811
142.5608, 4.300183
143.0429, 4.479811
143.5250, 4.680629
144.0071, 4.910886
144.4893, 5.162469
144.9714, 5.251801
145.4535, 5.051728
145.9356, 4.812627
146.4177, 4.795768
146.8998, 5.249705
147.3820, 5.528955
147.8641, 5.430062
148.3462, 4.860465
148.8283, 4.565332
149.3104, 4.632658
149.7925, 4.930758
150.2747, 5.315844
150.7568, 5.871531
151.2389, 6.417778
151.7210, 6.934035
152.2031, 7.438302
152.6852, 7.846799
153.1674, 7.948514
153.6495, 8.001336
154.1316, 8.377921
154.6137, 9.493622
155.0958, 10.60419
155.5779, 11.45282
156.0601, 11.87392
156.5422, 12.37347
157.0243, 13.03742
157.5064, 13.82328
157.9885, 14.64870
158.4706, 15.59298
158.9528, 16.50190
159.4349, 17.29800
159.9170, 17.92060
160.3991, 18.51663
160.8812, 19.15834
161.3633, 19.80815
161.8455, 20.36736
162.3276, 20.58284
162.8097, 20.82722
163.2918, 21.35866
163.7739, 22.41582
164.2560, 23.51503
164.7382, 24.50262
165.2203, 25.37657
165.7024, 26.12927
166.1845, 26.54505
166.6666, 26.93507
167.1487, 27.57306
167.6309, 28.63686
168.1130, 29.87161
168.5951, 31.02975
169.0772, 32.16625
169.5593, 33.59228
170.0414, 35.60044
170.5236, 37.98052
171.0057, 40.45067
171.4878, 42.90125
171.9699, 45.45466
172.4520, 48.29939
172.9341, 51.41587
173.4163, 54.39837
173.8984, 57.50458
174.3805, 60.23554
174.8626, 61.69594
175.3447, 61.09415
175.8268, 59.35020
176.3090, 57.22364
176.7911, 54.72837
177.2732, 52.31750
177.7553, 50.20506
178.2374, 48.26607
178.7195, 46.44786
179.2017, 44.85514
179.6838, 43.32039
180.1659, 41.56112
180.6480, 39.54241
181.1301, 37.57502
181.6122, 35.91387
182.0944, 34.51800
182.5765, 33.29628
183.0586, 32.20189
183.5407, 31.24549
184.0228, 30.41844
184.5049, 29.73449
184.9871, 29.12020
185.4692, 28.46282
185.9513, 27.78284
186.4334, 27.23659
186.9155, 26.98608
187.3976, 26.93106
187.8798, 26.69578
188.3619, 26.22712
188.8440, 25.73288
189.3261, 25.55853
189.8082, 25.67754
190.2903, 25.77301
190.7725, 25.63833
191.2546, 25.32068
191.7367, 25.11573
192.2188, 25.05490
192.7009, 25.05761
193.1830, 24.99601
193.6652, 24.87051
194.1473, 24.73295
194.6294, 24.57055
195.1115, 24.39380
195.5936, 24.36571
196.0757, 24.52234
196.5579, 24.78177
197.0400, 24.98719
197.5221, 25.13250
198.0042, 25.28869
198.4863, 25.47959
198.9684, 25.70367
199.4506, 26.05588
199.9327, 26.61825
200.4148, 27.21240
200.8969, 27.34468
201.3790, 26.91713
201.8611, 26.56311
202.3433, 26.73315
202.8254, 27.48588
203.3075, 28.04727
203.7896, 28.32770
204.2717, 28.41007
204.7538, 28.46062
205.2360, 28.44920
205.7181, 28.51348
206.2002, 28.76139
206.6823, 29.22404
207.1644, 29.66938
207.6465, 30.09847
208.1287, 30.48712
208.6108, 30.76564
209.0929, 30.91299
209.5750, 31.00928
210.0571, 31.05454
210.5392, 30.99219
211.0214, 31.15186
211.5035, 31.61035
211.9856, 32.29217
212.4677, 32.95105
212.9498, 33.56780
213.4319, 34.21001
213.9140, 34.93529
214.3962, 35.77145
214.8783, 36.59651
215.3604, 37.38830
215.8425, 38.16270
216.3246, 38.97245
216.8067, 39.89394
217.2889, 40.71867
217.7710, 41.32470
218.2531, 41.68194
218.7352, 41.93962
219.2173, 42.23615
219.6994, 42.44458
220.1816, 41.90831
220.6637, 40.30803
221.1458, 38.50432
221.6279, 37.06689
222.1100, 36.15199
222.5921, 35.13948
223.0743, 33.87293
223.5564, 32.46490
224.0385, 31.40366
224.5206, 30.83023
225.0027, 30.41455
225.4848, 29.95116
225.9670, 29.36735
226.4491, 28.92875
226.9312, 28.70086
227.4133, 28.63769
227.8954, 28.49627
228.3775, 28.21579
228.8597, 27.95014
229.3418, 27.81352
229.8239, 27.90499
230.3060, 27.88594
230.7881, 27.66408
231.2702, 27.30341
231.7524, 27.13069
232.2345, 27.24103
232.7166, 27.40455
233.1987, 27.48042
233.6808, 27.40161
234.1629, 27.38877
234.6451, 27.50852
235.1272, 27.70821
235.6093, 27.75521
236.0914, 27.59565
236.5735, 27.35823
237.0556, 27.08373
237.5378, 26.64807
238.0199, 26.46491
238.5020, 26.69160
238.9841, 27.19163
239.4662, 27.38184
239.9483, 27.07119
240.4305, 26.71437
240.9126, 26.56467
241.3947, 26.76532
241.8768, 26.84809
242.3589, 26.70808
242.8410, 26.44103
243.3232, 26.40803
243.8053, 26.77224
244.2874, 27.14638
244.7695, 27.30969
245.2516, 27.09555
245.7337, 27.05149
246.2159, 27.25943
246.6980, 27.63978
247.1801, 27.94189
247.6622, 28.17476
248.1443, 28.31965
248.6264, 28.32421
249.1086, 28.00891
249.5907, 28.00591
250.0728, 28.48955
250.5549, 29.24508
251.0370, 29.68326
251.5191, 29.64847
252.0013, 29.54502
252.4834, 29.53638
252.9655, 29.61928
253.4476, 29.81635
253.9297, 30.18866
254.4118, 30.64778
254.8940, 30.97994
255.3761, 31.06394
255.8582, 31.23799
256.3403, 31.70104
256.8224, 32.63655
257.3046, 33.22935
257.7867, 33.35273
258.2688, 33.20877
258.7509, 33.16100
259.2330, 33.17881
259.7151, 33.35546
260.1973, 33.78436
260.6794, 34.55430
261.1615, 35.11077
261.6436, 35.30479
262.1257, 35.40786
262.6078, 35.89381
263.0900, 36.86123
263.5721, 37.96888
264.0542, 39.10871
264.5363, 40.30156
265.0184, 41.48343
265.5005, 42.65850
265.9827, 43.84232
266.4648, 45.06504
266.9469, 46.29296
267.4290, 47.63744
267.9111, 49.17524
268.3932, 50.91345
268.8754, 52.66894
269.3575, 54.54893
269.8396, 56.27791
270.3217, 57.50755
270.8038, 58.23207
271.2859, 58.45619
271.7681, 58.06996
272.2502, 57.09703
272.7323, 56.16811
273.2144, 55.32945
273.6965, 54.47206
274.1786, 53.37897
274.6608, 51.92501
275.1429, 50.87221
275.6250, 50.46394
276.1071, 50.63118
276.5892, 50.85479
277.0714, 51.11081
277.5535, 51.48244
278.0356, 52.08356
278.5177, 52.93555
278.9998, 53.77103
279.4819, 54.46270
279.9641, 55.11187
280.4462, 56.16587
280.9283, 57.68108
281.4104, 59.37351
281.8925, 60.99492
282.3746, 62.54073
282.8568, 64.36580
283.3389, 66.66694
283.8210, 69.17664
284.3031, 71.15456
284.7852, 72.58592
285.2673, 73.68441
285.7495, 74.67964
286.2316, 75.54694
286.7137, 75.95847
287.1958, 75.92243
287.6779, 75.34397
288.1600, 73.90212
288.6422, 71.58833
289.1243, 68.91922
289.6064, 66.14480
290.0885, 63.27965
290.5706, 60.52430
291.0527, 57.89257
291.5349, 55.38068
292.0170, 52.86919
292.4991, 50.40818
292.9812, 48.31517
293.4633, 46.99046
293.9454, 46.20438
294.4276, 45.21928
294.9097, 43.96751
295.3918, 42.68683
295.8739, 41.60551
296.3560, 40.74064
296.8381, 40.12275
297.3203, 39.92360
297.8024, 39.96148
298.2845, 39.83897
298.7666, 39.53333
299.2487, 39.21917
299.7308, 38.98810
300.2130, 38.87518
300.6951, 38.98436
301.1772, 39.44487
301.6593, 40.10469
302.1414, 40.67512
302.6235, 41.15882
303.1057, 41.89495
303.5878, 43.29717
304.0699, 45.13648
304.5520, 46.96432
305.0341, 48.60246
305.5162, 50.19112
305.9984, 51.95858
306.4805, 53.85454
306.9626, 55.65076
307.4447, 57.13081
307.9268, 58.42260
308.4089, 59.63527
308.8911, 60.66549
309.3732, 61.83094
309.8553, 63.54936
310.3374, 65.65346
310.8195, 67.61604
311.3016, 68.86951
311.7838, 69.95815
312.2659, 71.35712
312.7480, 73.13557
313.2301, 75.27660
313.7122, 77.74503
314.1943, 80.58900
314.6765, 83.85912
315.1586, 87.53024
315.6407, 91.65281
316.1228, 96.33458
316.6049, 101.6079
317.0870, 107.2733
317.5692, 113.5177
318.0513, 119.9978
318.5334, 126.1963
319.0155, 131.9514
319.4976, 137.3914
319.9797, 142.9144
320.4619, 148.6821
320.9440, 152.7719
321.4261, 154.9876
321.9082, 155.0692
322.3903, 152.7453
322.8724, 147.6067
323.3546, 140.4171
323.8367, 130.6497
324.3188, 118.4202
324.8009, 106.3808
325.2830, 94.12758
325.7651, 82.82334
326.2473, 73.25858
326.7294, 66.09930
327.2115, 59.99251
327.6936, 55.03173
328.1757, 51.13501
328.6578, 47.66408
329.1400, 44.55141
329.6221, 41.90212
330.1042, 39.73903
330.5863, 38.11340
331.0684, 36.89750
331.5505, 36.31366
332.0327, 36.10315
332.5148, 35.68949
332.9969, 34.85637
333.4790, 34.10655
333.9611, 33.62377
334.4432, 33.49255
334.9254, 33.27648
335.4075, 32.91355
335.8896, 32.51889
336.3717, 32.27415
336.8538, 32.26969
337.3359, 32.19394
337.8180, 31.91137
338.3001, 31.42939
338.7823, 31.19074
339.2644, 31.27728
339.7465, 31.45136
340.2286, 31.48090
340.7107, 31.34382
341.1928, 31.19334
341.6750, 31.05098
342.1571, 30.92111
342.6392, 30.82636
343.1213, 30.76597
343.6034, 30.74158
344.0855, 30.76569
344.5677, 30.83611
345.0498, 30.89843
345.5319, 30.93935
346.0140, 30.98018
346.4961, 31.07038
346.9782, 31.20760
347.4604, 31.34405
347.9425, 31.44088
348.4246, 31.51290
348.9067, 31.61930
349.3888, 31.77040
349.8709, 31.92027
350.3531, 31.97561
350.8352, 31.97130
351.3173, 32.03657
351.7994, 32.30881
352.2815, 32.65851
352.7636, 32.83638
353.2458, 32.84227
353.7279, 32.86555
354.2100, 33.06343
354.6921, 33.38783
355.1742, 33.75734
355.6563, 34.16996
356.1385, 34.59737
356.6206, 35.00698
357.1027, 35.40707
357.5848, 35.82714
358.0669, 36.28703
358.5490, 36.77857
359.0312, 37.26274
359.5133, 37.65643
359.9954, 38.22916
360.4775, 39.34993
360.9596, 40.76855
361.4417, 41.93549
361.9239, 42.37848
362.4060, 42.71556
362.8881, 43.29916
363.3702, 44.21013
363.8523, 45.13143
364.3344, 45.90003
364.8166, 46.64575
365.2987, 47.52413
365.7808, 48.57166
366.2629, 49.73183
366.7450, 51.06600
367.2271, 52.57014
367.7093, 53.92658
368.1914, 55.01311
368.6735, 55.99388
369.1556, 56.98177
369.6377, 57.90501
370.1198, 58.90438
370.6020, 60.03809
371.0841, 61.25825
371.5662, 62.39938
372.0483, 63.44820
372.5304, 64.41660
373.0125, 65.30240
373.4947, 66.07403
373.9768, 66.82895
374.4589, 67.55276
374.9410, 68.27983
375.4231, 69.12737
375.9052, 70.27780
376.3874, 71.04230
376.8695, 71.06766
377.3516, 70.38081
377.8337, 70.14213
378.3158, 70.45319
378.7979, 70.92170
379.2801, 71.16097
379.7622, 71.16385
380.2443, 71.17378
380.7264, 71.29237
381.2085, 71.40325
381.6906, 71.05997
382.1728, 70.25091
382.6549, 69.59633
383.1370, 69.61152
383.6191, 70.15381
384.1012, 70.64491
384.5833, 70.99878
385.0655, 71.40014
385.5476, 72.07881
386.0297, 73.01118
386.5118, 74.07982
386.9939, 75.21978
387.4760, 76.47708
387.9582, 77.91103
388.4403, 79.53528
388.9224, 81.35250
389.4045, 83.56694
389.8866, 85.90500
390.3687, 87.99014
390.8509, 89.56583
391.3330, 90.96289
391.8151, 92.45231
392.2972, 93.98182
392.7793, 95.36335
393.2614, 96.73941
393.7436, 97.77805
394.2257, 98.27975
394.7078, 98.20187
395.1899, 97.57626
395.6720, 96.24455
396.1541, 94.40012
396.6363, 92.35434
397.1184, 89.96319
397.6005, 87.58565
398.0826, 85.23232
398.5647, 82.85285
399.0468, 80.96607
399.5290, 79.86872
400.0111, 79.14871
400.4932, 78.46764
400.9753, 77.61488
401.4574, 77.08334
401.9395, 76.97969
402.4217, 77.24475
402.9038, 77.61399
403.3859, 78.10435
403.8680, 78.67473
404.3501, 79.31792
404.8322, 80.04731
405.3144, 80.77779
405.7965, 81.48098
406.2786, 82.20842
406.7607, 82.98131
407.2428, 83.75217
407.7249, 84.86185
408.2071, 86.62231
408.6892, 88.85763
409.1713, 90.34846
409.6534, 91.03270
410.1355, 91.34977
410.6176, 91.48608
411.0998, 91.52539
411.5819, 92.03931
412.0640, 93.31717
412.5461, 94.81702
413.0282, 95.79269
413.5103, 96.24963
413.9925, 96.26143
414.4746, 95.73924
414.9567, 94.84200
415.4388, 93.84717
415.9209, 92.78245
416.4030, 91.49202
416.8852, 89.71772
417.3673, 87.63846
417.8494, 85.54377
418.3315, 83.44789
418.8136, 81.43766
419.2957, 79.55730
419.7779, 77.81191
420.2600, 76.11089
420.7421, 74.48711
421.2242, 72.85719
421.7063, 71.17547
422.1884, 69.24857
422.6706, 67.56406
423.1527, 66.34882
423.6348, 65.43168
424.1169, 64.48325
424.5990, 63.46872
425.0811, 62.38934
425.5633, 61.11134
426.0454, 59.52507
426.5275, 58.51783
427.0096, 58.43367
427.4917, 58.64538
427.9738, 58.62953
428.4560, 58.22022
428.9381, 57.93255
429.4202, 57.85758
429.9023, 57.93771
430.3844, 57.95765
430.8665, 57.87226
431.3487, 57.85547
431.8308, 57.99322
432.3129, 58.28717
432.7950, 58.68352
433.2771, 59.19062
433.7592, 59.77709
434.2414, 60.45041
434.7235, 61.20010
435.2056, 61.87361
435.6877, 62.30271
436.1698, 62.70646
436.6519, 63.65444
437.1341, 65.12233
437.6162, 66.62806
438.0983, 67.76030
438.5804, 68.71732
439.0625, 69.82077
439.5446, 71.10987
440.0268, 72.59917
440.5089, 74.33674
440.9910, 76.29127
441.4731, 78.36654
441.9552, 80.70903
442.4373, 83.02874
442.9195, 85.18198
443.4016, 87.16166
443.8837, 88.99403
444.3658, 90.77399
444.8479, 92.36774
445.3300, 93.65576
445.8122, 94.69496
446.2943, 95.33945
446.7764, 95.58485
447.2585, 95.42441
447.7406, 94.84050
448.2227, 93.77963
448.7049, 92.34238
449.1870, 90.53769
449.6691, 88.38362
450.1512, 85.81604
450.6333, 82.61545
451.1154, 79.27811
451.5976, 76.25188
452.0797, 73.58715
452.5618, 71.17542
453.0439, 69.03358
453.5260, 67.12962
454.0081, 65.22733
454.4903, 63.30373
454.9724, 61.49080
455.4545, 59.80358
455.9366, 58.26775
456.4187, 56.97762
456.9008, 55.95958
457.3830, 55.11164
457.8651, 54.37146
458.3472, 53.72353
458.8293, 53.16014
459.3114, 52.69580
459.7935, 52.28727
460.2757, 51.91914
460.7578, 51.57109
461.2399, 51.13640
461.7220, 50.46875
462.2041, 49.72654
462.6862, 49.07147
463.1684, 48.54374
463.6505, 48.03632
464.1326, 47.44539
464.6147, 46.86538
465.0968, 46.40948
465.5789, 46.48941
466.0611, 46.32956
466.5432, 45.57244
467.0253, 44.27491
467.5074, 43.09392
467.9895, 42.18226
468.4716, 41.34069
468.9538, 40.48400
469.4359, 39.61562
469.9180, 38.74413
470.4001, 37.84586
470.8822, 36.95106
471.3643, 36.09165
471.8465, 35.25317
472.3286, 34.49761
472.8107, 33.87622
473.2928, 33.35939
473.7749, 32.66915
474.2570, 31.76019
474.7392, 30.93452
475.2213, 30.52963
475.7034, 30.46164
476.1855, 30.08067
476.6676, 29.23010
477.1497, 28.36171
477.6319, 28.17866
478.1140, 28.50942
478.5961, 28.80148
479.0782, 28.84015
479.5603, 28.69959
480.0424, 28.35322
480.5246, 27.83883
481.0067, 27.47400
481.4888, 27.64148
481.9709, 27.94430
482.4530, 28.00048
482.9352, 27.61128
483.4173, 27.28671
483.8994, 27.38044
484.3815, 27.63128
484.8636, 27.64082
485.3457, 26.94881
485.8279, 26.38701
486.3100, 26.27907
486.7921, 26.62857
487.2742, 26.71951
487.7563, 26.27058
488.2384, 25.85018
488.7206, 25.81277
489.2027, 26.38350
489.6848, 26.73271
490.1669, 26.83098
490.6490, 26.72674
491.1311, 26.43219
491.6133, 25.90655
492.0954, 25.48713
492.5775, 25.27053
493.0596, 25.24191
493.5417, 25.42224
494.0238, 25.81519
494.5060, 26.12934
494.9881, 26.07888
495.4702, 25.78564
495.9523, 25.53394
496.4344, 25.35230
496.9165, 25.25700
497.3987, 25.35903
497.8808, 25.55055
498.3629, 25.62617
498.8450, 25.36206
499.3271, 25.07193
499.8092, 24.98340
500.2914, 25.06194
500.7735, 25.11760
501.2556, 24.95688
501.7377, 24.83950
502.2198, 24.95357
502.7019, 25.46727
503.1841, 25.83040
503.6662, 25.87225
504.1483, 25.77163
504.6304, 25.74013
505.1125, 25.88420
505.5946, 25.91633
506.0768, 25.71341
506.5589, 25.35598
507.0410, 25.28417
507.5231, 25.60157
508.0052, 25.91193
508.4873, 25.98020
508.9695, 25.80263
509.4516, 25.71525
509.9337, 25.73487
510.4158, 25.78173
510.8979, 25.75311
511.3800, 25.66804
511.8622, 25.61546
512.3443, 25.62817
512.8264, 25.67053
513.3085, 25.71955
513.7906, 25.76383
514.2728, 25.76215
514.7549, 25.57502
515.2370, 25.40786
515.7191, 25.50574
516.2012, 25.90460
516.6833, 26.19097
517.1655, 26.08264
517.6476, 25.82879
518.1297, 25.64190
518.6118, 25.59834
519.0939, 25.58419
519.5760, 25.55847
520.0582, 25.55311
520.5403, 25.64490
521.0224, 25.92682
521.5045, 26.17422
521.9866, 26.32102
522.4688, 26.36747
522.9509, 26.41070
523.4330, 26.45479
523.9151, 26.48605
524.3972, 26.45710
524.8793, 26.36425
525.3615, 26.43409
525.8436, 26.72273
526.3257, 27.07955
526.8078, 27.26534
527.2899, 27.31284
527.7720, 27.36943
528.2542, 27.44129
528.7363, 27.59256
529.2184, 28.00050
529.7005, 28.60735
530.1826, 29.11882
530.6647, 29.23417
531.1469, 29.24695
531.6290, 29.41969
532.1111, 29.81425
532.5932, 30.23943
533.0753, 30.57552
533.5574, 30.92472
534.0396, 31.38723
534.5217, 32.24170
535.0038, 32.90748
535.4859, 33.15529
535.9680, 33.15100
536.4501, 33.44449
536.9323, 34.22998
537.4144, 34.97904
537.8965, 35.44817
538.3786, 35.62398
538.8607, 36.05395
539.3428, 36.79787
539.8250, 37.59939
540.3071, 38.22451
540.7892, 38.67827
541.2713, 39.09951
541.7534, 39.52746
542.2355, 39.86515
542.7177, 39.95106
543.1998, 39.82907
543.6819, 39.63531
544.1640, 39.46169
544.6461, 39.22851
545.1282, 38.83316
545.6104, 38.29546
546.0925, 37.73073
546.5746, 37.09831
547.0567, 36.53216
547.5388, 36.13943
548.0209, 35.99337
548.5031, 35.82885
548.9852, 35.48899
549.4673, 35.15107
549.9494, 35.01479
550.4315, 35.36538
550.9136, 35.47564
551.3958, 35.24243
551.8779, 34.72585
552.3600, 34.08191
552.8421, 33.26586
553.3242, 32.46703
553.8063, 31.76840
554.2885, 31.15876
554.7706, 30.53005
555.2527, 29.87420
555.7348, 29.28555
556.2169, 28.90895
556.6990, 28.66335
557.1812, 28.30088
557.6633, 27.74529
558.1454, 27.21628
558.6275, 26.90613
559.1096, 26.77503
559.5917, 26.74632
560.0739, 26.90942
560.5560, 27.05527
561.0381, 27.08032
561.5202, 26.99878
562.0023, 26.87926
562.4844, 26.67026
562.9666, 26.48522
563.4487, 26.39572
563.9308, 26.43606
564.4129, 26.39499
564.8950, 26.20396
565.3771, 26.00599
565.8593, 25.92200
566.3414, 25.97488
566.8235, 26.05590
567.3056, 26.18170
567.7877, 26.29053
568.2698, 26.21669
568.7520, 25.97540
569.2341, 25.84246
569.7162, 26.02571
570.1983, 26.31225
570.6804, 26.26501
571.1625, 25.92796
571.6447, 25.60595
572.1268, 25.48732
572.6089, 25.48614
573.0910, 25.54214
573.5731, 25.65773
574.0552, 25.75646
574.5374, 25.75574
575.0195, 25.74641
575.5016, 25.81318
575.9837, 26.19040
576.4658, 26.37010
576.9479, 26.14643
577.4301, 25.73397
577.9122, 25.56737
578.3943, 25.78728
578.8764, 25.96063
579.3585, 25.91820
579.8406, 25.71708
580.3228, 25.84159
580.8049, 26.35801
581.2870, 26.77055
581.7691, 26.61545
582.2512, 26.05876
582.7333, 25.80012
583.2155, 25.89965
583.6975, 26.09506
584.1796, 26.14373
584.6617, 26.12085
585.1439, 26.15738
585.6260, 26.32627
586.1081, 26.49579
586.5902, 26.60738
587.0723, 26.66076
587.5544, 26.65429
588.0366, 26.50979
588.5187, 26.38443
589.0008, 26.33070
589.4829, 26.34744
589.9650, 26.37552
590.4471, 26.40495
590.9293, 26.45805
591.4114, 26.55773
591.8935, 26.71899
592.3756, 26.81732
592.8577, 26.84448
593.3398, 26.83050
593.8220, 26.78370
594.3041, 26.71330
594.7862, 26.71030
595.2683, 26.82349
595.7504, 26.92407
596.2325, 26.79548
596.7147, 26.51706
597.1968, 26.29728
597.6789, 26.25361
598.1610, 26.27863
598.6431, 26.31634
599.1252, 26.36224
599.6074, 26.39885
600.0895, 26.33473
600.5716, 26.33219
601.0537, 26.52652
601.5358, 27.01206
602.0179, 27.25165
602.5001, 27.05857
602.9822, 26.79861
603.4643, 26.77376
603.9464, 27.09143
604.4285, 27.20344
604.9106, 27.03059
605.3928, 26.73001
605.8749, 26.49876
606.3570, 26.33947
606.8391, 26.30657
607.3212, 26.47497
607.8033, 26.70247
