##NAMES=Calaverite
##RRUFFID=R070397
##IDEAL CHEMISTRY=AuTe_2_
##LOCALITY=Sacarambu, Transylvania, Romania
##OWNER=RRUFF
##SOURCE=Michael Scott
##DESCRIPTION=Gold metallic massive associated with quartz
##STATUS=The identification of this mineral is confirmed by single-crystal X-ray diffraction and chemical analysis.
##URL=rruff.info/R070397
##MEASURED CHEMISTRY=(Au_0.95_Ag_0.05_)_Î£=1_Te_2.00_
169.9107, 506.7996
170.3929, 509.8444
170.8750, 511.6506
171.3571, 511.3766
171.8392, 509.2214
172.3213, 504.5116
172.8034, 496.1917
173.2856, 488.6836
173.7677, 486.9120
174.2498, 489.6794
174.7319, 492.8851
175.2140, 493.2990
175.6961, 492.7479
176.1783, 494.7359
176.6604, 501.5981
177.1425, 508.0710
177.6246, 505.1334
178.1067, 494.3503
178.5888, 485.6991
179.0710, 489.3977
179.5531, 500.6221
180.0352, 508.6520
180.5173, 510.1432
180.9994, 507.9739
181.4815, 506.6306
181.9637, 506.0589
182.4458, 504.9411
182.9279, 500.3470
183.4100, 493.7633
183.8921, 490.8493
184.3742, 494.5573
184.8564, 502.3800
185.3385, 509.4408
185.8206, 515.9485
186.3027, 519.8926
186.7848, 517.9886
187.2669, 510.9386
187.7491, 503.9716
188.2312, 497.5214
188.7133, 492.5168
189.1954, 493.3804
189.6775, 500.9477
190.1596, 510.6562
190.6418, 518.8715
191.1239, 525.4490
191.6060, 526.9352
192.0881, 517.8878
192.5702, 500.2748
193.0524, 492.4968
193.5345, 496.3346
194.0166, 505.3758
194.4987, 509.5551
194.9808, 508.4958
195.4629, 508.2737
195.9451, 513.7924
196.4272, 524.9022
196.9093, 528.3890
197.3914, 521.8198
197.8735, 510.8009
198.3556, 505.3170
198.8378, 505.6356
199.3199, 509.7427
199.8020, 519.1712
200.2841, 534.6567
200.7662, 542.5298
201.2483, 540.0036
201.7305, 531.2692
202.2126, 526.5073
202.6947, 526.3569
203.1768, 527.7944
203.6589, 529.2372
204.1410, 530.6729
204.6232, 532.1572
205.1053, 533.8356
205.5874, 535.5044
206.0695, 536.6503
206.5516, 537.4911
207.0337, 537.2359
207.5159, 534.6433
207.9980, 528.8575
208.4801, 525.0912
208.9622, 524.3248
209.4443, 526.0591
209.9264, 528.4911
210.4086, 532.8734
210.8907, 535.4318
211.3728, 532.1404
211.8549, 520.3994
212.3370, 511.6647
212.8191, 507.9908
213.3013, 508.8979
213.7834, 510.0990
214.2655, 511.3164
214.7476, 513.2874
215.2297, 517.0328
215.7118, 523.7365
216.1940, 528.9908
216.6761, 531.7460
217.1582, 532.1268
217.6403, 532.7955
218.1224, 534.7132
218.6045, 535.6324
219.0867, 532.7252
219.5688, 523.6188
220.0509, 516.3542
220.5330, 512.9054
221.0151, 513.2901
221.4972, 514.2343
221.9794, 515.3518
222.4615, 517.4632
222.9436, 522.0235
223.4257, 531.3552
223.9078, 538.4081
224.3899, 541.4945
224.8721, 540.5082
225.3542, 537.0853
225.8363, 529.0179
226.3184, 520.5750
226.8005, 517.2874
227.2827, 522.6157
227.7648, 526.5293
228.2469, 526.2321
228.7290, 521.1538
229.2111, 515.9746
229.6932, 508.9328
230.1754, 503.2727
230.6575, 504.0406
231.1396, 516.0027
231.6217, 525.9167
232.1038, 529.5433
232.5859, 525.3987
233.0681, 522.9811
233.5502, 523.0173
234.0323, 524.2582
234.5144, 524.7777
234.9965, 523.6015
235.4786, 523.4005
235.9608, 525.6313
236.4429, 531.4641
236.9250, 533.9531
237.4071, 531.2618
237.8892, 526.3425
238.3713, 523.9995
238.8535, 525.7983
239.3356, 527.5362
239.8177, 527.5536
240.2998, 524.8716
240.7819, 524.4402
241.2640, 527.6694
241.7462, 532.3217
242.2283, 534.3608
242.7104, 532.0428
243.1925, 529.9768
243.6746, 529.7127
244.1567, 531.7139
244.6389, 534.0386
245.1210, 536.9750
245.6031, 540.0577
246.0852, 542.8043
246.5673, 546.7076
247.0494, 547.6635
247.5316, 543.0137
248.0137, 529.4057
248.4958, 521.6436
248.9779, 521.1245
249.4600, 525.7311
249.9421, 532.5242
250.4243, 545.0938
250.9064, 553.4531
251.3885, 552.0093
251.8706, 535.0125
252.3527, 528.1642
252.8348, 536.0085
253.3170, 551.1520
253.7991, 559.4567
254.2812, 558.3383
254.7633, 555.1536
255.2454, 552.0412
255.7275, 548.3890
256.2097, 547.3779
256.6918, 549.9987
257.1739, 554.5887
257.6560, 558.4926
258.1381, 562.4902
258.6202, 564.1559
259.1024, 561.7867
259.5845, 553.7982
260.0666, 548.6868
260.5487, 547.7271
261.0308, 548.6888
261.5129, 546.9682
261.9951, 540.9566
262.4772, 536.1832
262.9593, 536.1020
263.4414, 542.9683
263.9235, 542.5090
264.4056, 530.1993
264.8878, 514.7842
265.3699, 513.6023
265.8520, 532.7659
266.3341, 548.6290
266.8162, 549.7349
267.2983, 532.4448
267.7805, 524.6443
268.2626, 529.8945
268.7447, 540.7720
269.2268, 544.5140
269.7089, 539.8239
270.1910, 532.6002
270.6732, 523.2971
271.1553, 511.0889
271.6374, 506.0823
272.1195, 509.7195
272.6016, 518.4512
273.0837, 527.9113
273.5659, 539.1086
274.0480, 546.1713
274.5301, 545.8726
275.0122, 537.9360
275.4943, 529.3350
275.9764, 518.7457
276.4586, 509.9840
276.9407, 510.0376
277.4228, 519.8364
277.9049, 530.2835
278.3870, 538.8163
278.8691, 545.3547
279.3513, 547.3595
279.8334, 543.9014
280.3155, 538.2989
280.7976, 535.3423
281.2798, 535.2161
281.7619, 533.9925
282.2440, 529.3015
282.7261, 521.8338
283.2082, 516.8563
283.6903, 514.5333
284.1725, 514.0980
284.6546, 515.1027
285.1367, 517.4890
285.6188, 520.0457
286.1009, 523.4446
286.5830, 526.7725
287.0652, 524.5541
287.5473, 515.8506
288.0294, 507.3270
288.5115, 508.1495
288.9936, 517.0804
289.4757, 523.6440
289.9579, 521.8918
290.4400, 515.8817
290.9221, 518.5211
291.4042, 530.4818
291.8863, 542.7019
292.3684, 546.3836
292.8506, 542.5463
293.3327, 535.4670
293.8148, 523.9412
294.2969, 511.4296
294.7790, 504.1973
295.2611, 502.2437
295.7433, 504.2947
296.2254, 513.0172
296.7075, 525.3312
297.1896, 531.9915
297.6717, 527.6609
298.1538, 518.8362
298.6360, 516.1923
299.1181, 519.1429
299.6002, 521.0491
300.0823, 513.3240
300.5644, 501.3276
301.0465, 495.4192
301.5287, 500.2364
302.0108, 509.8004
302.4929, 518.9372
302.9750, 527.5189
303.4571, 534.2950
303.9392, 539.4983
304.4214, 542.1448
304.9035, 540.1339
305.3856, 529.7944
305.8677, 519.8651
306.3498, 519.4728
306.8319, 526.4580
307.3141, 533.2272
307.7962, 537.1644
308.2783, 537.7844
308.7604, 533.1690
309.2425, 519.1879
309.7246, 508.3901
310.2068, 513.2374
310.6889, 528.0906
311.1710, 538.3483
311.6531, 532.2220
312.1352, 521.7087
312.6173, 515.7905
313.0995, 517.1731
313.5816, 519.6519
314.0637, 519.6751
314.5458, 518.8251
315.0279, 520.0707
315.5100, 528.6936
315.9922, 536.5890
316.4743, 538.7480
316.9564, 533.1972
317.4385, 527.7133
317.9206, 525.3375
318.4027, 524.4544
318.8849, 522.8064
319.3670, 518.7841
319.8491, 514.7774
320.3312, 511.0089
320.8133, 507.0413
321.2954, 506.1495
321.7776, 512.0108
322.2597, 520.0706
322.7418, 525.4744
323.2239, 526.2493
323.7060, 525.5792
324.1881, 522.9244
324.6703, 517.8691
325.1524, 516.2985
325.6345, 523.7020
326.1166, 532.0688
326.5987, 534.9786
327.0808, 526.2424
327.5630, 519.2885
328.0451, 515.9252
328.5272, 516.0188
329.0093, 516.7535
329.4914, 519.1473
329.9735, 521.2449
330.4557, 521.7549
330.9378, 520.1179
331.4199, 517.7613
331.9020, 514.0759
332.3841, 509.6270
332.8662, 507.2649
333.3484, 507.7112
333.8305, 509.1857
334.3126, 510.8839
334.7947, 512.9907
335.2768, 514.4543
335.7589, 514.2688
336.2411, 513.9363
336.7232, 518.2730
337.2053, 529.3615
337.6874, 538.9383
338.1695, 542.1458
338.6516, 537.9380
339.1338, 536.6995
339.6159, 539.6662
340.0980, 543.9647
340.5801, 544.7415
341.0622, 541.7752
341.5443, 537.2615
342.0265, 531.3771
342.5086, 524.4002
342.9907, 518.0334
343.4728, 512.0439
343.9549, 507.7958
344.4370, 507.7502
344.9192, 511.5451
345.4013, 515.9493
345.8834, 520.8986
346.3655, 525.3118
346.8476, 525.2595
347.3297, 520.6192
347.8119, 515.2518
348.2940, 512.2710
348.7761, 511.4246
349.2582, 512.3013
349.7403, 516.4592
350.2225, 520.5733
350.7046, 519.1359
351.1867, 512.7067
351.6688, 505.6999
352.1509, 497.9296
352.6331, 492.4563
353.1152, 495.2140
353.5973, 511.7381
354.0794, 528.8304
354.5615, 534.8090
355.0436, 531.6837
355.5258, 525.5730
356.0079, 518.1234
356.4900, 510.1098
356.9721, 501.2710
357.4542, 490.1810
357.9363, 482.9696
358.4185, 485.7840
358.9006, 494.5199
359.3827, 502.0763
359.8648, 505.9924
360.3469, 507.7726
360.8290, 507.0942
361.3112, 503.2955
361.7933, 501.8952
362.2754, 509.4446
362.7575, 518.4929
363.2396, 520.9511
363.7217, 503.5944
364.2039, 490.8323
364.6860, 492.3580
365.1681, 508.4835
365.6502, 518.7031
366.1323, 516.8494
366.6144, 510.7834
367.0966, 505.8393
367.5787, 498.9373
368.0608, 497.3602
368.5429, 505.6075
369.0250, 520.8553
369.5071, 528.2150
369.9893, 522.5607
370.4714, 514.9960
370.9535, 510.4539
371.4356, 508.6869
371.9177, 511.1988
372.3998, 521.1976
372.8820, 533.8854
373.3641, 537.7182
373.8462, 529.6021
374.3283, 520.6031
374.8104, 514.0989
375.2925, 509.7940
375.7747, 512.6581
376.2568, 525.8849
376.7389, 540.0059
377.2210, 540.2211
377.7031, 525.4601
378.1852, 512.2613
378.6674, 505.9225
379.1495, 505.1591
379.6316, 503.8840
380.1137, 501.8544
380.5958, 501.6088
381.0779, 507.5657
381.5601, 518.1710
382.0422, 525.0045
382.5243, 525.1081
383.0064, 522.1356
383.4885, 522.6714
383.9706, 526.1661
384.4528, 528.5325
384.9349, 525.1758
385.4170, 519.3426
385.8991, 516.8155
386.3812, 519.2890
386.8633, 522.3215
387.3455, 521.7813
387.8276, 518.6339
388.3097, 515.0582
388.7918, 511.3213
389.2739, 508.1597
389.7560, 505.7201
390.2382, 503.8806
390.7203, 504.3990
391.2024, 511.5762
391.6845, 520.4857
392.1666, 525.5260
392.6487, 522.8449
393.1309, 517.7420
393.6130, 509.8901
394.0951, 499.9544
394.5772, 495.0833
395.0593, 503.6827
395.5414, 513.7468
396.0236, 517.6715
396.5057, 504.9028
396.9878, 497.2452
397.4699, 499.3782
397.9520, 508.4583
398.4341, 515.6001
398.9163, 522.2614
399.3984, 525.4072
399.8805, 522.6274
400.3626, 509.4732
400.8447, 503.9645
401.3268, 509.4235
401.8090, 520.0851
402.2911, 528.2936
402.7732, 533.8428
403.2553, 537.1850
403.7374, 537.8029
404.2195, 535.8950
404.7017, 535.4197
405.1838, 537.0380
405.6659, 538.2902
406.1480, 536.7108
406.6301, 532.2619
407.1122, 527.1763
407.5944, 521.0407
408.0765, 515.3282
408.5586, 514.6390
409.0407, 518.8688
409.5228, 522.9572
410.0049, 522.9303
410.4871, 520.1404
410.9692, 517.8514
411.4513, 516.0010
411.9334, 516.2606
412.4155, 523.3511
412.8976, 534.5905
413.3798, 542.0266
413.8619, 537.5760
414.3440, 530.2363
414.8261, 531.1199
415.3082, 540.3992
415.7903, 547.4361
416.2725, 542.8499
416.7546, 533.1279
417.2367, 525.3589
417.7188, 519.9348
418.2009, 519.1340
418.6830, 529.3605
419.1652, 546.6072
419.6473, 555.7671
420.1294, 543.0453
420.6115, 527.4556
421.0937, 519.2068
421.5758, 522.2656
422.0579, 527.4024
422.5400, 537.5242
423.0221, 548.1839
423.5042, 552.1620
423.9864, 541.7136
424.4685, 533.0349
424.9506, 530.5914
425.4327, 535.1215
425.9148, 536.5120
426.3969, 532.5087
426.8791, 527.9354
427.3612, 527.4566
427.8433, 532.8888
428.3254, 536.4590
428.8075, 536.0519
429.2896, 533.4542
429.7718, 536.3900
430.2539, 546.5807
430.7360, 553.3421
431.2181, 546.0820
431.7002, 526.3967
432.1823, 519.5143
432.6645, 528.9893
433.1466, 543.5980
433.6287, 548.2922
434.1108, 544.4911
434.5929, 538.9875
435.0750, 532.5930
435.5572, 527.1250
436.0393, 527.1721
436.5214, 532.4608
437.0035, 537.1964
437.4856, 535.3017
437.9677, 530.4609
438.4499, 528.0959
438.9320, 531.2527
439.4141, 534.3540
439.8962, 532.0792
440.3783, 526.5277
440.8604, 523.0448
441.3426, 527.4279
441.8247, 531.9881
442.3068, 531.0265
442.7889, 521.9333
443.2710, 516.9816
443.7531, 523.5358
444.2353, 534.3035
444.7174, 541.3345
445.1995, 539.6505
445.6816, 538.2914
446.1637, 538.9290
446.6458, 541.3607
447.1280, 543.4542
447.6101, 544.7185
448.0922, 546.1952
448.5743, 548.6558
449.0564, 553.0883
449.5385, 556.0903
450.0207, 558.0034
450.5028, 558.0699
450.9849, 553.0980
451.4670, 541.3165
451.9491, 533.8881
452.4312, 537.6406
452.9134, 550.4824
453.3955, 555.0472
453.8776, 550.4071
454.3597, 544.0898
454.8418, 543.6256
455.3239, 547.8399
455.8061, 552.3383
456.2882, 557.3729
456.7703, 560.3721
457.2524, 554.7582
457.7345, 542.9066
458.2166, 534.4182
458.6988, 537.9538
459.1809, 546.4480
459.6630, 552.4627
460.1451, 555.1071
460.6272, 556.6370
461.1093, 558.0725
461.5915, 559.3478
462.0736, 560.3497
462.5557, 561.8075
463.0378, 562.2390
463.5199, 560.1212
464.0020, 555.9561
464.4842, 553.3995
464.9663, 554.0660
465.4484, 555.9330
465.9305, 558.2663
466.4126, 564.1993
466.8947, 564.8336
467.3769, 556.1301
467.8590, 543.9127
468.3411, 537.6671
468.8232, 539.3508
469.3053, 543.5569
469.7874, 550.8266
470.2696, 560.6028
470.7517, 560.7911
471.2338, 548.5177
471.7159, 535.5214
472.1980, 533.0961
472.6801, 540.9747
473.1623, 547.1042
473.6444, 549.4553
474.1265, 550.0565
474.6086, 552.6728
475.0907, 556.9095
475.5728, 560.2136
476.0550, 560.4875
476.5371, 559.2288
477.0192, 559.6277
477.5013, 561.8445
477.9834, 562.1045
478.4655, 553.8666
478.9477, 543.0310
479.4298, 537.6754
479.9119, 544.5812
480.3940, 551.8763
480.8761, 552.1738
481.3582, 547.7989
481.8404, 545.4223
482.3225, 549.3035
482.8046, 553.9565
483.2867, 556.9080
483.7688, 557.5299
484.2509, 557.8962
484.7331, 558.6519
485.2152, 558.9734
485.6973, 558.0294
486.1794, 555.0893
486.6615, 552.0665
487.1436, 548.8939
487.6258, 545.8109
488.1079, 543.8688
488.5900, 543.0082
489.0721, 543.5084
489.5542, 546.9145
490.0363, 553.3099
490.5185, 553.6334
491.0006, 545.9774
491.4827, 537.8360
491.9648, 541.8232
492.4470, 555.3195
492.9291, 563.4535
493.4112, 557.1804
493.8933, 546.1073
494.3754, 547.1011
494.8575, 558.2043
495.3397, 567.0394
495.8218, 561.2319
496.3039, 551.0156
496.7860, 548.8518
497.2681, 559.0344
497.7502, 567.3774
498.2324, 563.0765
498.7145, 553.3423
499.1966, 547.8969
499.6787, 555.9756
500.1608, 562.3926
500.6429, 561.6993
501.1251, 554.2542
501.6072, 547.4076
502.0893, 538.3098
502.5714, 532.8026
503.0535, 534.3453
503.5356, 547.4807
504.0178, 556.7842
504.4999, 561.5118
504.9820, 562.9750
505.4641, 562.3631
505.9462, 558.8983
506.4283, 557.7252
506.9105, 562.0295
507.3926, 569.3719
507.8747, 568.2287
508.3568, 558.0775
508.8389, 548.9761
509.3210, 550.0690
509.8032, 557.8940
510.2853, 562.2485
510.7674, 561.0221
511.2495, 559.9105
511.7316, 568.7133
512.2137, 581.7686
512.6959, 587.4802
513.1780, 571.4739
513.6601, 554.5380
514.1422, 552.3716
514.6243, 562.8737
515.1064, 570.7767
515.5886, 566.5035
516.0707, 560.3115
516.5528, 558.9938
517.0349, 567.6170
517.5170, 572.2751
517.9991, 568.0771
518.4813, 560.5772
518.9634, 556.6475
519.4455, 557.1973
519.9276, 560.1404
520.4097, 567.5922
520.8918, 577.6429
521.3740, 576.1422
521.8561, 559.1765
522.3382, 543.6221
522.8203, 542.5275
523.3024, 554.8660
523.7845, 562.8373
524.2667, 565.2523
524.7488, 564.1881
525.2309, 560.2578
525.7130, 554.6493
526.1951, 551.5552
526.6772, 552.7947
527.1594, 556.8646
527.6415, 564.5113
528.1236, 574.3157
528.6057, 580.1616
529.0878, 574.8321
529.5699, 566.5739
530.0521, 561.9967
530.5342, 562.9441
531.0163, 562.8451
531.4984, 556.0832
531.9805, 548.7041
532.4626, 547.0939
532.9448, 560.2338
533.4269, 569.3917
533.9090, 570.8437
534.3911, 566.6192
534.8732, 564.7179
535.3553, 566.5903
535.8375, 568.0182
536.3196, 566.7830
536.8017, 562.6754
537.2838, 560.2830
537.7659, 559.9951
538.2480, 560.0650
538.7302, 558.0424
539.2123, 554.3699
539.6944, 552.3029
540.1765, 552.8024
540.6586, 554.7359
541.1407, 557.2913
541.6229, 560.1182
542.1050, 562.0079
542.5871, 560.9482
543.0692, 559.5550
543.5513, 560.4073
544.0334, 563.6183
544.5156, 567.0140
544.9977, 569.6281
545.4798, 571.9796
545.9619, 574.6289
546.4440, 580.5146
546.9261, 582.4825
547.4083, 575.5281
547.8904, 564.8173
548.3725, 559.8674
548.8546, 563.8294
549.3367, 568.3557
549.8188, 571.6667
550.3010, 573.8239
550.7831, 575.2958
551.2652, 575.7601
551.7473, 576.6218
552.2294, 580.5797
552.7115, 586.8717
553.1937, 585.7180
553.6758, 574.5552
554.1579, 563.3857
554.6400, 567.6951
555.1221, 582.4036
555.6042, 592.7126
556.0864, 590.1115
556.5685, 584.2467
557.0506, 586.4575
557.5327, 593.9050
558.0148, 595.9446
558.4969, 580.1505
558.9791, 562.7721
559.4612, 553.9650
559.9433, 556.0196
560.4254, 560.2726
560.9075, 567.6529
561.3896, 575.1721
561.8718, 580.3853
562.3539, 583.1115
562.8360, 583.6080
563.3181, 580.6186
563.8002, 576.0132
564.2823, 574.8196
564.7645, 578.0225
565.2466, 580.1204
565.7287, 577.5283
566.2108, 571.9360
566.6929, 573.2285
567.1750, 581.7189
567.6572, 589.7573
568.1393, 589.5454
568.6214, 584.4132
569.1035, 581.4555
569.5856, 582.4987
570.0677, 582.7289
570.5499, 575.8315
571.0320, 565.9469
571.5141, 559.5787
571.9962, 561.2799
572.4783, 564.7791
572.9604, 568.7717
573.4426, 572.8251
573.9247, 575.0629
574.4068, 573.0055
574.8889, 571.0317
575.3710, 570.8610
575.8531, 572.8356
576.3353, 574.9800
576.8174, 577.8831
577.2995, 580.0517
577.7816, 579.7967
578.2637, 576.8959
578.7458, 573.4849
579.2280, 569.0803
579.7101, 565.7476
580.1922, 568.1500
580.6743, 575.4337
581.1564, 582.7744
581.6385, 589.1586
582.1207, 593.6990
582.6028, 594.1699
583.0849, 591.0317
583.5670, 587.9246
584.0491, 587.9499
584.5313, 588.2532
585.0134, 585.6168
585.4955, 577.2390
585.9776, 573.5876
586.4597, 582.2363
586.9418, 594.9606
587.4240, 602.4563
587.9061, 604.1855
588.3882, 600.9076
588.8703, 589.6485
589.3524, 574.2593
589.8345, 566.3109
590.3167, 566.9379
590.7988, 570.8535
591.2809, 577.7775
591.7630, 586.3586
592.2451, 587.6760
592.7272, 581.4238
593.2094, 575.3806
593.6915, 577.8579
594.1736, 584.7750
594.6557, 587.6911
595.1378, 584.1824
595.6199, 580.9827
596.1021, 584.8656
596.5842, 591.7791
597.0663, 595.9591
597.5485, 592.2155
598.0306, 588.8272
598.5127, 588.9785
598.9948, 591.8138
599.4769, 593.4733
599.9590, 592.6675
600.4412, 591.9296
600.9233, 591.8781
601.4054, 592.4719
601.8875, 594.9954
602.3696, 600.7592
602.8517, 605.1746
603.3339, 602.7896
603.8160, 594.2869
604.2981, 588.9328
604.7802, 588.0442
605.2623, 589.6309
605.7444, 592.1412
606.2266, 595.1708
606.7087, 597.5711
607.1908, 599.7158
607.6729, 600.3124
608.1550, 596.5153
608.6371, 590.0067
609.1193, 586.1235
609.6014, 587.0916
610.0835, 591.1772
610.5656, 599.8626
611.0477, 614.7736
611.5298, 621.2777
612.0120, 614.3815
612.4941, 603.5654
612.9762, 594.4356
613.4583, 586.5315
613.9404, 582.4572
614.4225, 583.3707
614.9047, 586.3538
615.3868, 587.4169
615.8689, 586.6719
616.3510, 585.3076
616.8331, 582.9989
617.3152, 581.1299
617.7974, 582.1030
618.2795, 585.4611
618.7616, 589.4438
619.2437, 595.4505
619.7258, 599.9371
620.2079, 598.5067
620.6901, 591.0663
621.1722, 586.7564
621.6543, 592.2385
622.1364, 599.4454
622.6185, 603.0322
623.1006, 601.0912
623.5828, 599.1105
624.0649, 596.8174
624.5470, 594.7350
625.0291, 593.0327
625.5112, 591.2332
625.9933, 593.0034
626.4755, 600.5394
626.9576, 609.8818
627.4397, 612.7499
627.9218, 609.6305
628.4039, 604.2415
628.8860, 593.7585
629.3682, 584.4888
629.8503, 588.8252
630.3324, 604.6623
630.8145, 616.0505
631.2966, 608.6060
631.7787, 596.8239
632.2609, 591.0069
632.7430, 593.7974
633.2251, 597.3635
633.7072, 599.9373
634.1893, 602.8643
634.6714, 607.6812
635.1536, 617.1004
635.6357, 622.0190
636.1178, 620.0652
636.5999, 615.0764
637.0820, 614.9373
637.5641, 619.9386
638.0463, 622.3987
638.5284, 618.7043
639.0105, 611.9416
639.4926, 607.0104
639.9747, 604.1060
640.4568, 604.3942
640.9390, 611.7021
641.4211, 620.4848
641.9032, 625.8878
642.3853, 627.5504
642.8674, 627.0854
643.3495, 623.4960
643.8317, 619.0898
644.3138, 615.3255
644.7959, 612.0018
645.2780, 610.2281
645.7601, 610.9722
646.2422, 612.4190
646.7244, 612.0410
647.2065, 609.1531
647.6886, 608.1276
648.1707, 610.1029
648.6528, 613.7952
649.1349, 617.4753
649.6171, 620.9095
650.0992, 622.5946
650.5813, 619.5258
651.0634, 615.7547
651.5455, 617.3969
652.0276, 623.3854
652.5098, 627.9082
652.9919, 627.8521
653.4740, 625.3839
653.9561, 621.3095
654.4382, 615.3313
654.9203, 610.0875
655.4025, 603.8114
655.8846, 600.0482
656.3667, 602.0744
656.8488, 613.1761
657.3309, 620.0008
657.8130, 621.3506
658.2952, 619.7687
658.7773, 619.2192
659.2594, 619.4053
659.7415, 616.0687
660.2236, 605.7322
660.7057, 595.3102
661.1879, 596.1913
661.6700, 605.3152
662.1521, 614.1772
662.6342, 621.0325
663.1163, 624.2513
663.5984, 619.6405
664.0806, 608.7027
664.5627, 603.2870
665.0448, 612.6844
665.5269, 622.4788
666.0090, 626.5541
666.4911, 624.2114
