##NAMES=Calaverite
##RRUFFID=R060134
##IDEAL CHEMISTRY=AuTe_2_
##LOCALITY=Cripple Creek, Teller County, Colorado, USA
##OWNER=RRUFF
##SOURCE=University of Arizona Mineral Museum
##DESCRIPTION=Silver thick prismatic crystals with gold tarnish associated with quartz
##STATUS=The identification of this mineral is confirmed by single-crystal X-ray diffraction and chemical analysis.
##URL=rruff.info/R060134
##MEASURED CHEMISTRY=(Au_1.89_Ag_0.11_)_Î£=2_Te_4.00_
92.02539, 131.6046
92.50751, 134.7048
92.98962, 137.1243
93.47174, 136.1817
93.95386, 133.8700
94.43597, 130.9707
94.91809, 127.8818
95.40021, 124.8066
95.88232, 121.9422
96.36444, 119.3052
96.84656, 116.8686
97.32867, 114.7508
97.81078, 112.8699
98.29290, 111.1114
98.77502, 109.3588
99.25713, 107.5011
99.73925, 105.2456
100.2214, 102.0404
100.7035, 99.03533
101.1856, 96.66759
101.6677, 94.97723
102.1498, 93.82615
102.6320, 93.09469
103.1141, 92.99901
103.5962, 92.80654
104.0783, 92.57295
104.5604, 92.21413
105.0425, 91.57661
105.5247, 90.56625
106.0068, 89.42207
106.4889, 88.62103
106.9710, 88.25492
107.4531, 87.66116
107.9352, 86.30366
108.4173, 84.34631
108.8995, 82.69439
109.3816, 81.73938
109.8637, 81.20991
110.3458, 80.82039
110.8279, 80.56133
111.3100, 80.36100
111.7922, 80.08772
112.2743, 79.65227
112.7564, 79.44710
113.2385, 79.79634
113.7206, 80.30791
114.2027, 80.66182
114.6849, 80.71457
115.1670, 80.51304
115.6491, 80.21865
116.1312, 79.78189
116.6133, 79.28841
117.0954, 78.71989
117.5776, 78.10826
118.0597, 77.49291
118.5418, 76.89654
119.0239, 76.31725
119.5060, 75.77689
119.9881, 75.09189
120.4703, 74.59593
120.9524, 74.57078
121.4345, 74.93099
121.9166, 75.29157
122.3987, 75.32249
122.8808, 74.95781
123.3630, 74.36325
123.8451, 73.25806
124.3272, 72.06320
124.8093, 71.24614
125.2914, 70.91479
125.7735, 70.72378
126.2557, 70.31245
126.7378, 69.72303
127.2199, 69.04408
127.7020, 68.18608
128.1841, 67.24480
128.6662, 66.56895
129.1483, 66.37769
129.6305, 66.27126
130.1126, 65.97307
130.5947, 65.48287
131.0768, 64.85497
131.5589, 64.05016
132.0410, 63.02201
132.5232, 62.20240
133.0053, 61.25976
133.4874, 60.42198
133.9695, 60.67793
134.4516, 60.72332
134.9337, 60.56949
135.4159, 59.61966
135.8980, 59.69769
136.3801, 59.36381
136.8622, 59.01305
137.3443, 59.23573
137.8264, 58.40171
138.3086, 58.61526
138.7907, 58.55175
139.2728, 58.24602
139.7549, 57.18723
140.2370, 56.35901
140.7191, 55.84708
141.2013, 55.60538
141.6834, 55.66887
142.1655, 56.13758
142.6476, 56.79491
143.1297, 56.66334
143.6118, 54.84839
144.0939, 53.34279
144.5761, 53.26115
145.0582, 54.32219
145.5403, 55.22407
146.0224, 55.16135
146.5045, 54.34433
146.9866, 53.60054
147.4688, 52.91744
147.9509, 52.35321
148.4330, 52.04021
148.9151, 52.02881
149.3972, 51.94919
149.8793, 51.39093
150.3615, 50.65960
150.8436, 50.13305
151.3257, 49.96648
151.8078, 50.07873
152.2899, 50.36737
152.7720, 51.12086
153.2542, 51.50908
153.7363, 51.00776
154.2184, 50.02073
154.7005, 49.17098
155.1826, 48.91192
155.6647, 49.16164
156.1469, 49.07072
156.6290, 48.20982
157.1111, 47.40334
157.5932, 46.86455
158.0753, 46.55225
158.5574, 46.35243
159.0396, 46.18562
159.5217, 46.06590
160.0038, 45.84208
160.4859, 45.40404
160.9680, 44.97532
161.4501, 44.68270
161.9323, 44.50658
162.4144, 44.32048
162.8965, 43.98623
163.3786, 43.44299
163.8607, 43.01075
164.3428, 42.69676
164.8250, 42.47658
165.3071, 42.39909
165.7892, 42.45778
166.2713, 42.48686
166.7534, 42.25310
167.2355, 41.70872
167.7177, 41.25658
168.1998, 40.98738
168.6819, 40.81443
169.1640, 40.61861
169.6461, 40.36445
170.1282, 40.13011
170.6104, 40.09390
171.0925, 40.23171
171.5746, 40.21033
172.0567, 39.76328
172.5388, 39.04148
173.0209, 38.49118
173.5031, 38.23203
173.9852, 38.12429
174.4673, 38.03941
174.9494, 37.97590
175.4315, 37.91840
175.9136, 37.90128
176.3958, 37.91898
176.8779, 37.78438
177.3600, 37.23193
177.8421, 36.72288
178.3242, 36.58282
178.8063, 36.79606
179.2885, 37.06480
179.7706, 37.05138
180.2527, 36.66771
180.7348, 36.38520
181.2169, 36.31932
181.6990, 35.90828
182.1812, 36.31151
182.6633, 36.50421
183.1454, 36.49768
183.6275, 35.69519
184.1096, 35.92052
184.5917, 35.73394
185.0738, 35.53048
185.5560, 35.90045
186.0381, 35.21374
186.5202, 35.57463
187.0023, 35.51733
187.4844, 35.65143
187.9665, 35.37109
188.4487, 35.21874
188.9308, 35.48098
189.4129, 35.51366
189.8950, 35.18561
190.3771, 35.33187
190.8592, 34.63068
191.3414, 34.67313
191.8235, 35.03645
192.3056, 34.72924
192.7877, 34.88308
193.2698, 34.86132
193.7519, 34.04156
194.2341, 34.60960
194.7162, 34.72083
195.1983, 34.93772
195.6804, 34.93346
196.1625, 34.81728
196.6446, 34.52538
197.1268, 34.14385
197.6089, 33.88314
198.0910, 33.85178
198.5731, 33.91201
199.0552, 33.81245
199.5373, 33.50956
200.0195, 33.28770
200.5016, 33.41062
200.9837, 33.79200
201.4658, 33.96634
201.9479, 33.66582
202.4300, 33.22747
202.9122, 33.04761
203.3943, 33.15479
203.8764, 33.31018
204.3585, 33.29866
204.8406, 33.12174
205.3227, 33.02839
205.8048, 33.09671
206.2870, 32.87230
206.7691, 33.32286
207.2512, 33.56287
207.7333, 33.60365
208.2154, 32.84847
208.6975, 33.12110
209.1797, 32.98183
209.6618, 32.82567
210.1439, 33.24296
210.6260, 32.60355
211.1081, 33.01175
211.5902, 33.02723
212.0724, 32.99253
212.5545, 32.80669
213.0366, 32.68957
213.5187, 32.70267
214.0008, 32.74962
214.4829, 32.76777
214.9651, 32.74712
215.4472, 32.72628
215.9293, 32.77932
216.4114, 33.01315
216.8935, 33.08827
217.3756, 32.87476
217.8578, 32.62187
218.3399, 32.51716
218.8220, 32.59389
219.3041, 32.73492
219.7862, 32.75816
220.2683, 32.57513
220.7505, 32.43966
221.2326, 32.39387
221.7147, 32.36362
222.1968, 32.27510
222.6789, 32.11667
223.1610, 31.95196
223.6432, 31.87588
224.1253, 31.93374
224.6074, 32.00209
225.0895, 32.11246
225.5716, 32.21609
226.0537, 32.23251
226.5358, 32.14877
227.0180, 32.08552
227.5001, 32.00542
227.9822, 32.34620
228.4643, 32.53358
228.9464, 32.57582
229.4285, 32.03818
229.9107, 32.24933
230.3928, 32.16040
230.8749, 32.05917
231.3570, 32.37571
231.8391, 32.06978
232.3212, 32.02018
232.8034, 32.06518
233.2855, 32.15512
233.7676, 32.24509
234.2497, 32.33479
234.7318, 32.37904
235.2139, 32.26275
235.6961, 32.01091
236.1782, 31.87412
236.6603, 32.00412
237.1424, 32.26034
237.6245, 32.25746
238.1066, 31.75440
238.5888, 31.27348
239.0709, 31.70953
239.5530, 31.93503
240.0351, 31.96130
240.5172, 31.19161
240.9993, 31.44974
241.4815, 31.29595
241.9636, 31.12528
242.4457, 31.52807
242.9278, 30.87415
243.4099, 31.26784
243.8920, 31.24334
244.3742, 31.41023
244.8563, 31.16269
245.3384, 31.04315
245.8205, 31.33818
246.3026, 31.40367
246.7847, 31.10841
247.2668, 31.28747
247.7490, 30.61907
248.2311, 30.69433
248.7132, 31.09045
249.1953, 30.81603
249.6774, 31.00267
250.1595, 31.01371
250.6417, 30.22673
251.1238, 30.82759
251.6059, 30.82825
252.0880, 30.21266
252.5701, 30.76596
253.0522, 30.23532
253.5344, 30.09158
254.0165, 30.23901
254.4986, 30.08290
254.9807, 30.40536
255.4628, 30.26113
255.9449, 30.19385
256.4271, 29.99395
256.9092, 29.76582
257.3913, 29.41285
257.8734, 29.23264
258.3555, 29.41226
258.8376, 29.69657
259.3198, 29.83899
259.8019, 29.74182
260.2840, 29.50979
260.7661, 29.35787
261.2482, 29.31683
261.7303, 29.30466
262.2125, 29.31309
262.6946, 29.33814
263.1767, 29.38014
263.6588, 29.43836
264.1409, 29.50455
264.6230, 29.57288
265.1052, 29.68588
265.5873, 29.70881
266.0694, 29.57799
266.5515, 29.40946
267.0336, 29.30889
267.5157, 28.92401
267.9979, 29.17799
268.4800, 29.26871
268.9621, 29.20495
269.4442, 28.52396
269.9263, 28.63999
270.4084, 29.24828
270.8906, 29.49347
271.3727, 29.38342
271.8548, 29.10620
272.3369, 28.86118
272.8190, 28.58598
273.3011, 28.26814
273.7833, 28.59608
274.2654, 28.76077
274.7475, 28.77095
275.2296, 28.16392
275.7117, 28.35390
276.1938, 28.22447
276.6760, 28.08194
277.1581, 28.38409
277.6402, 27.86683
278.1223, 28.33467
278.6044, 28.41751
279.0865, 28.43378
279.5686, 28.42387
280.0508, 28.42841
280.5329, 28.45057
281.0150, 28.33326
281.4971, 27.88047
281.9792, 27.51423
282.4613, 27.46142
282.9435, 27.62584
283.4256, 27.75619
283.9077, 27.68036
284.3898, 27.43256
284.8719, 27.32818
285.3540, 27.55048
285.8362, 27.68721
286.3183, 27.52447
286.8004, 27.21149
287.2825, 27.02883
287.7646, 26.79579
288.2467, 27.15234
288.7289, 27.34562
289.2110, 27.38440
289.6931, 26.80597
290.1752, 27.02454
290.6573, 26.92371
291.1394, 26.80978
291.6216, 27.14053
292.1037, 26.65187
292.5858, 26.97557
293.0679, 26.97499
293.5500, 27.12282
294.0321, 26.94928
294.5143, 26.87499
294.9964, 27.12219
295.4785, 27.12930
295.9606, 27.30132
296.4427, 27.22416
296.9248, 26.73429
297.4070, 26.51144
297.8891, 26.84962
298.3712, 27.30253
298.8533, 27.43118
299.3354, 27.18402
299.8175, 26.87860
300.2997, 26.86247
300.7818, 27.20570
301.2639, 27.31460
301.7460, 26.95347
302.2281, 26.54710
302.7102, 26.37189
303.1924, 26.43517
303.6745, 26.61589
304.1566, 26.86812
304.6387, 27.17034
305.1208, 27.25199
305.6029, 26.84559
306.0851, 26.49857
306.5672, 26.59606
307.0493, 27.00687
307.5314, 27.28062
308.0135, 27.13863
308.4956, 26.68402
308.9778, 26.37514
309.4599, 26.25290
309.9420, 26.19207
310.4241, 26.21697
310.9062, 26.27110
311.3883, 26.22462
311.8705, 26.00875
312.3526, 25.71527
312.8347, 25.55629
313.3168, 25.56758
313.7989, 25.59810
314.2810, 25.65384
314.7632, 25.70062
315.2453, 25.66224
315.7274, 25.51218
316.2095, 25.37150
316.6916, 25.43546
317.1737, 25.78064
317.6559, 25.98492
318.1380, 25.90231
318.6201, 25.73168
319.1022, 25.39800
319.5843, 24.54838
320.0664, 25.02987
320.5485, 25.30082
321.0306, 25.37254
321.5128, 24.64830
321.9949, 24.95187
322.4770, 24.84355
322.9591, 24.71833
323.4412, 25.16656
323.9233, 24.55809
324.4055, 24.99723
324.8876, 25.01818
325.3697, 25.23052
325.8518, 25.47869
326.3339, 25.88565
326.8160, 25.80663
327.2982, 25.39183
327.7803, 24.93775
328.2624, 24.55317
328.7445, 24.28007
329.2266, 24.26478
329.7087, 24.68364
330.1909, 25.00330
330.6730, 25.12271
331.1551, 25.08953
331.6372, 24.89953
332.1193, 24.54752
332.6014, 24.21910
333.0836, 24.21263
333.5657, 24.70822
334.0478, 24.98862
334.5299, 24.87680
335.0120, 24.64180
335.4941, 24.49356
335.9763, 24.45943
336.4584, 24.45745
336.9405, 24.41382
337.4226, 24.32375
337.9047, 24.23935
338.3868, 24.10528
338.8690, 24.02569
339.3511, 24.09339
339.8332, 24.26825
340.3153, 24.41813
340.7974, 24.44979
341.2795, 24.39399
341.7617, 24.45274
342.2438, 24.72804
342.7259, 24.97911
343.2080, 25.19146
343.6901, 25.33745
344.1722, 25.31262
344.6544, 25.06594
345.1365, 24.78788
345.6186, 24.88654
346.1007, 25.86551
346.5828, 26.45519
347.0649, 26.33817
347.5471, 26.00676
348.0292, 25.85370
348.5113, 25.96761
348.9934, 26.24210
349.4755, 26.53247
349.9576, 26.47513
350.4398, 26.78612
350.9219, 26.93457
351.4040, 26.92921
351.8861, 26.30937
352.3682, 26.48301
352.8503, 26.33866
353.3325, 26.18126
353.8146, 26.46657
354.2967, 25.93611
354.7788, 26.21440
355.2609, 26.16986
355.7430, 26.27307
356.2252, 26.05632
356.7073, 25.10412
357.1894, 24.28769
357.6715, 24.60700
358.1536, 24.76377
358.6357, 24.76673
359.1179, 24.15519
359.5999, 24.33715
360.0821, 24.20111
360.5642, 24.05203
361.0463, 24.34566
361.5284, 23.82351
362.0105, 24.11013
362.4926, 24.07389
362.9748, 24.18541
363.4569, 23.97698
363.9390, 23.86738
364.4211, 24.07783
364.9032, 24.11106
365.3853, 23.86580
365.8675, 23.98671
366.3496, 23.45339
366.8317, 23.49417
367.3138, 23.78265
367.7959, 23.55348
368.2780, 23.89982
368.7602, 24.16029
369.2423, 24.22153
369.7244, 23.48682
370.2065, 23.77991
370.6886, 23.66111
371.1707, 23.52542
371.6529, 23.96317
372.1350, 23.34423
372.6171, 23.77289
373.0992, 23.76261
373.5813, 23.01395
374.0634, 23.29310
374.5456, 23.16035
375.0277, 23.01070
375.5098, 23.43451
375.9919, 22.80162
376.4740, 23.21634
376.9561, 23.21287
377.4383, 23.40079
377.9204, 23.17426
378.4025, 23.07575
378.8846, 23.39182
379.3667, 23.47833
379.8488, 23.20410
380.3310, 23.40418
380.8131, 22.75681
381.2952, 22.85310
381.7773, 23.27024
382.2594, 23.01685
382.7415, 23.22452
383.2237, 23.25658
383.7058, 22.49064
384.1879, 23.11252
384.6700, 23.13421
385.1521, 22.53965
385.6342, 23.11398
386.1164, 22.60436
386.5985, 22.48165
387.0806, 22.65010
387.5627, 22.51503
388.0448, 22.85851
388.5269, 22.74096
389.0091, 22.46979
389.4912, 22.34858
389.9733, 22.22706
390.4554, 22.16723
390.9375, 22.21564
391.4196, 22.29908
391.9018, 22.36588
392.3839, 22.41477
392.8660, 22.42016
393.3481, 22.33399
393.8302, 22.23438
394.3123, 22.30143
394.7945, 22.61877
395.2766, 22.82207
395.7587, 22.69693
396.2408, 22.38241
396.7229, 22.07087
397.2050, 21.78953
397.6872, 21.63975
398.1693, 21.81569
398.6514, 22.36049
399.1335, 22.59068
399.6156, 22.18182
400.0977, 21.68867
400.5798, 21.50782
401.0620, 21.61027
401.5441, 21.77405
402.0262, 21.87792
402.5083, 21.92159
402.9904, 21.89542
403.4725, 21.67150
403.9547, 21.54588
404.4368, 21.59378
404.9189, 21.76297
405.4010, 22.05992
405.8831, 22.47158
406.3652, 22.81141
406.8474, 22.77392
407.3295, 22.14219
407.8116, 21.76296
408.2937, 21.79883
408.7758, 21.91136
409.2579, 21.89083
409.7401, 21.76910
410.2222, 21.72458
410.7043, 21.91057
411.1864, 22.28094
411.6685, 22.43373
412.1506, 22.18064
412.6328, 21.92620
413.1149, 21.69839
413.5970, 21.51362
414.0791, 21.39339
414.5612, 21.34319
415.0433, 21.33224
415.5255, 21.31024
416.0076, 21.26445
416.4897, 21.25196
416.9718, 21.29153
417.4539, 21.35292
417.9360, 21.45864
418.4182, 21.58198
418.9003, 21.63997
419.3824, 21.53029
419.8645, 21.31189
420.3466, 21.26896
420.8287, 21.50017
421.3109, 21.70202
421.7930, 21.75183
422.2751, 21.70878
422.7572, 21.62700
423.2393, 21.51782
423.7214, 21.38982
424.2036, 21.19878
424.6857, 20.95371
425.1678, 20.89752
425.6499, 21.20010
426.1320, 21.56448
426.6141, 21.70570
427.0963, 21.64845
427.5784, 21.57966
428.0605, 21.60272
428.5426, 21.65157
429.0247, 21.60553
429.5068, 21.45179
429.9890, 21.31399
430.4711, 21.27168
430.9532, 21.30682
431.4353, 21.34881
431.9174, 21.44999
432.3995, 21.47985
432.8817, 21.29348
433.3638, 20.99621
433.8459, 20.80458
434.3280, 20.78575
434.8101, 20.89478
435.2922, 21.10431
435.7744, 21.47206
436.2565, 21.68095
436.7386, 21.62981
437.2207, 21.48889
437.7028, 21.32390
438.1849, 21.16749
438.6671, 21.09941
439.1492, 21.18938
439.6313, 21.39511
440.1134, 21.46509
440.5955, 21.25399
441.0776, 21.08481
441.5598, 20.96664
442.0418, 20.92011
442.5240, 21.02925
443.0061, 21.28787
443.4882, 21.51046
443.9703, 21.40558
444.4524, 20.83757
444.9345, 20.58068
445.4167, 20.93354
445.8988, 21.30767
446.3809, 21.53410
446.8630, 21.62223
447.3451, 21.61573
447.8272, 21.52301
448.3094, 21.38729
448.7915, 21.33092
449.2736, 21.39944
449.7557, 21.41635
450.2378, 21.24193
450.7199, 21.06444
451.2021, 21.04742
451.6842, 21.19937
452.1663, 21.35170
452.6484, 21.33122
453.1305, 21.18996
453.6126, 21.19859
454.0948, 21.47165
454.5769, 21.65860
455.0590, 21.35492
455.5411, 20.82075
456.0232, 20.53262
456.5053, 20.74965
456.9875, 21.02902
457.4696, 20.93759
457.9517, 20.56445
458.4338, 20.33393
458.9159, 20.42134
459.3980, 20.64011
459.8802, 20.68081
460.3623, 20.51474
460.8444, 20.48055
461.3265, 20.82737
461.8086, 21.20193
462.2907, 21.22208
462.7729, 20.91888
463.2550, 20.63829
463.7371, 20.61436
464.2192, 20.80791
464.7013, 20.99559
465.1834, 21.30479
465.6656, 21.44802
466.1477, 21.22657
466.6298, 20.89893
467.1119, 20.75235
467.5940, 20.84789
468.0761, 21.04583
468.5583, 21.19632
469.0404, 21.31232
469.5225, 21.30074
470.0046, 20.95023
470.4867, 20.69099
470.9688, 20.70278
471.4510, 20.88466
471.9331, 21.09520
472.4152, 21.28064
472.8973, 21.37702
473.3794, 21.19102
473.8615, 20.60376
474.3437, 20.24342
474.8258, 20.41405
475.3079, 20.70217
475.7900, 20.90631
476.2721, 21.00563
476.7542, 21.00321
477.2364, 20.79534
477.7185, 20.50735
478.2006, 20.46612
478.6827, 20.71902
479.1648, 20.93878
479.6469, 20.91507
480.1291, 20.77154
480.6112, 20.75220
481.0933, 20.93393
481.5754, 21.05264
482.0575, 20.87903
482.5396, 20.57366
483.0217, 20.45374
483.5038, 20.58732
483.9860, 20.79704
484.4681, 20.93727
484.9502, 21.00190
485.4323, 20.97013
485.9144, 20.73028
486.3965, 20.51870
486.8787, 20.46152
487.3608, 20.49759
487.8429, 20.50889
488.3250, 20.44806
488.8071, 20.35488
489.2892, 20.29447
489.7714, 20.24530
490.2535, 20.28769
490.7356, 20.51402
491.2177, 20.73013
491.6998, 20.87325
492.1819, 20.92319
492.6641, 20.83053
493.1462, 20.52749
493.6283, 20.14100
494.1104, 20.10317
494.5925, 20.62365
495.0746, 20.92248
495.5568, 20.54730
496.0389, 20.07256
496.5210, 19.90006
497.0031, 20.05419
497.4852, 20.29568
497.9673, 20.53887
498.4495, 20.73625
498.9316, 20.70239
499.4137, 20.37254
499.8958, 20.08914
500.3779, 20.08876
500.8600, 20.25436
501.3422, 20.32002
501.8243, 20.18375
502.3064, 20.14124
502.7885, 20.47550
503.2706, 20.96922
503.7527, 21.23361
504.2349, 21.18314
504.7170, 20.95254
505.1991, 20.63752
505.6812, 20.22739
506.1633, 19.95736
506.6454, 19.85553
507.1276, 19.84444
507.6097, 19.96036
508.0918, 20.13008
508.5739, 20.25781
509.0560, 20.30627
509.5381, 20.27811
510.0203, 20.14524
510.5024, 19.81136
510.9845, 19.70379
511.4666, 20.14585
511.9487, 20.49403
512.4308, 20.48235
512.9130, 20.19161
513.3951, 19.77032
513.8772, 19.24432
514.3593, 18.77119
514.8414, 18.68087
515.3235, 19.02273
515.8057, 19.38204
516.2878, 19.78025
516.7699, 20.04465
517.2520, 19.96112
517.7341, 19.58280
518.2162, 19.28981
518.6984, 19.25861
519.1805, 19.38886
519.6626, 19.63013
520.1447, 19.96134
520.6268, 20.13497
521.1089, 19.99021
521.5911, 19.66759
522.0732, 19.49067
522.5553, 19.48961
523.0374, 19.50775
523.5195, 19.51556
524.0016, 19.53470
524.4838, 19.55573
524.9659, 19.59758
525.4480, 19.75726
525.9301, 20.13531
526.4122, 20.64536
526.8943, 20.83913
527.3765, 20.50863
527.8586, 20.13581
528.3407, 19.62150
528.8228, 19.17923
529.3049, 19.02614
529.7870, 19.15449
530.2692, 19.34860
530.7513, 19.41397
531.2334, 19.38114
531.7155, 19.45026
532.1976, 19.68485
532.6797, 19.87252
533.1619, 19.91491
533.6440, 19.86815
534.1261, 19.75057
534.6082, 19.54808
535.0903, 19.40981
535.5724, 19.55179
536.0546, 19.80305
536.5367, 19.69744
537.0188, 19.14332
537.5009, 18.73501
537.9830, 18.99663
538.4651, 19.77823
538.9473, 20.20494
539.4294, 20.08587
539.9115, 19.89004
540.3936, 19.69273
540.8757, 19.51554
541.3578, 19.36648
541.8400, 19.25557
542.3221, 19.23404
542.8042, 19.37826
543.2863, 19.69326
543.7684, 19.86054
544.2505, 19.74566
544.7326, 19.63656
545.2147, 19.56373
545.6968, 19.53571
546.1790, 19.57804
546.6611, 19.69119
547.1432, 19.80740
547.6253, 19.86997
548.1074, 19.87701
548.5895, 19.77684
549.0717, 19.48895
549.5538, 19.26364
550.0359, 19.34363
550.5180, 19.55884
551.0001, 19.64733
551.4822, 19.51828
551.9644, 19.37803
552.4465, 19.40319
552.9286, 19.49968
553.4107, 19.41138
553.8928, 19.08244
554.3749, 18.85156
554.8571, 19.09330
555.3392, 19.78461
555.8213, 20.03773
556.3034, 19.44644
556.7855, 18.98048
557.2676, 18.98429
557.7498, 19.20135
558.2319, 19.34050
558.7140, 19.32619
559.1961, 19.23612
559.6782, 19.14077
560.1603, 19.03985
560.6425, 18.99752
561.1246, 19.03639
561.6067, 19.10523
562.0888, 19.19399
562.5709, 19.29708
563.0530, 19.44818
563.5352, 19.66063
564.0173, 19.76357
564.4994, 19.51836
564.9815, 19.04244
565.4636, 18.71920
565.9457, 18.59193
566.4279, 18.57462
566.9100, 18.61641
567.3921, 18.72932
567.8742, 18.94268
568.3563, 19.40233
568.8384, 19.71998
569.3206, 19.69117
569.8027, 19.48517
570.2848, 19.26578
570.7669, 19.07846
571.2490, 18.96179
571.7311, 18.96273
572.2133, 19.06632
572.6954, 19.10712
573.1775, 19.00938
573.6596, 18.95236
574.1417, 18.96295
574.6238, 19.01853
575.1060, 19.13328
575.5881, 19.28884
576.0702, 19.39484
576.5523, 19.37616
577.0344, 19.24824
577.5165, 19.02954
577.9987, 18.67432
578.4808, 18.42968
578.9629, 18.41467
579.4450, 18.56786
579.9271, 18.84068
580.4092, 19.26968
580.8914, 19.54983
581.3735, 19.44547
581.8556, 19.20948
582.3377, 19.13449
582.8198, 19.21437
583.3019, 19.26812
583.7841, 19.18301
584.2662, 19.02344
584.7483, 18.97346
585.2304, 19.22494
585.7125, 19.26268
586.1946, 18.82484
586.6768, 18.41781
587.1589, 18.36758
