##NAMES=Calaverite
##RRUFFID=R070164
##IDEAL CHEMISTRY=AuTe_2_
##LOCALITY=Vindicator mine, Cripple Creek, Teller County, Colorado, USA
##OWNER=RRUFF
##SOURCE=Michael Scott
##DESCRIPTION=Loose pale gold colored metallic fragments associated with quartz, used to define ICDD pattern
##STATUS=The identification of this mineral is confirmed by single-crystal X-ray diffraction and chemical analysis.
##URL=rruff.info/R070164
##MEASURED CHEMISTRY=(Au_0.90_Ag_0.10_)_Î£=1_Te_2.00_
139.1480, 711.2620
139.6302, 731.5581
140.1123, 738.6208
140.5944, 750.2842
141.0765, 768.1116
141.5586, 790.4677
142.0407, 816.9469
142.5229, 847.2012
143.0050, 879.4345
143.4871, 909.6179
143.9692, 936.3303
144.4513, 962.6962
144.9334, 990.6106
145.4156, 1017.621
145.8977, 1039.682
146.3798, 1055.272
146.8619, 1068.439
147.3440, 1089.678
147.8261, 1133.256
148.3083, 1167.618
148.7904, 1184.066
149.2725, 1193.220
149.7546, 1208.511
150.2367, 1235.931
150.7188, 1269.339
151.2010, 1290.676
151.6831, 1288.456
152.1652, 1287.055
152.6473, 1290.184
153.1294, 1294.742
153.6115, 1296.979
154.0937, 1295.254
154.5758, 1289.722
155.0579, 1280.436
155.5400, 1263.517
156.0221, 1247.802
156.5042, 1235.774
156.9864, 1225.657
157.4685, 1214.547
157.9506, 1201.023
158.4327, 1186.028
158.9148, 1172.242
159.3969, 1156.495
159.8791, 1145.773
160.3612, 1144.803
160.8433, 1149.908
161.3254, 1154.141
161.8075, 1154.266
162.2896, 1151.953
162.7718, 1152.222
163.2539, 1157.419
163.7360, 1160.866
164.2181, 1159.264
164.7002, 1154.188
165.1823, 1149.172
165.6645, 1145.412
166.1466, 1143.003
166.6287, 1141.517
167.1108, 1138.307
167.5929, 1140.505
168.0750, 1158.409
168.5572, 1185.293
169.0393, 1200.260
169.5214, 1192.149
170.0035, 1170.782
170.4856, 1156.747
170.9677, 1152.221
171.4499, 1148.483
171.9320, 1141.180
172.4141, 1131.130
172.8962, 1121.204
173.3783, 1112.691
173.8604, 1104.556
174.3426, 1093.473
174.8247, 1076.743
175.3068, 1066.006
175.7889, 1076.345
176.2710, 1101.286
176.7531, 1109.909
177.2353, 1084.421
177.7174, 1046.232
178.1995, 1026.081
178.6816, 1026.727
179.1637, 1030.524
179.6458, 1025.062
180.1279, 1012.623
180.6101, 1006.347
181.0922, 1013.309
181.5743, 1024.331
182.0564, 1028.556
182.5385, 1025.492
183.0206, 1020.615
183.5028, 1016.226
183.9849, 1012.558
184.4670, 1011.452
184.9491, 1014.626
185.4312, 1019.231
185.9133, 1023.093
186.3955, 1026.209
186.8776, 1027.129
187.3597, 1023.338
187.8418, 1015.723
188.3239, 1010.273
188.8060, 1008.699
189.2882, 1009.071
189.7703, 1010.378
190.2524, 1012.427
190.7345, 1013.168
191.2166, 1010.538
191.6987, 1005.029
192.1809, 999.8904
192.6630, 994.5179
193.1451, 991.0350
193.6272, 990.1976
194.1093, 992.0418
194.5914, 996.7213
195.0736, 1006.319
195.5557, 1019.751
196.0378, 1030.045
196.5199, 1036.867
197.0020, 1039.748
197.4841, 1038.151
197.9663, 1032.790
198.4484, 1026.213
198.9305, 1016.888
199.4126, 1006.617
199.8947, 1006.133
200.3768, 1023.800
200.8590, 1039.869
201.3411, 1041.618
201.8232, 1033.356
202.3053, 1025.599
202.7874, 1026.244
203.2695, 1032.652
203.7517, 1033.137
204.2338, 1024.617
204.7159, 1014.963
205.1980, 1007.003
205.6801, 1000.804
206.1622, 996.5843
206.6444, 995.2648
207.1265, 995.7900
207.6086, 994.6074
208.0907, 990.2783
208.5728, 987.0123
209.0549, 985.8995
209.5371, 986.9531
210.0192, 990.9818
210.5013, 1000.285
210.9834, 1010.988
211.4655, 1013.442
211.9476, 1004.881
212.4298, 994.0433
212.9119, 980.5890
213.3940, 968.1186
213.8761, 961.6855
214.3582, 964.2377
214.8403, 971.5158
215.3225, 976.0009
215.8046, 977.0988
216.2867, 977.0758
216.7688, 976.8510
217.2509, 975.8312
217.7330, 973.5151
218.2152, 969.8117
218.6973, 964.4808
219.1794, 954.7675
219.6615, 937.5385
220.1436, 928.9776
220.6257, 943.7339
221.1079, 963.1674
221.5900, 974.2076
222.0721, 973.7697
222.5542, 968.1418
223.0363, 963.8858
223.5184, 961.0621
224.0006, 959.0533
224.4827, 958.3406
224.9648, 958.0236
225.4469, 957.8167
225.9290, 957.6302
226.4111, 956.9378
226.8933, 954.6570
227.3754, 950.7031
227.8575, 948.2988
228.3396, 948.6364
228.8217, 950.0347
229.3038, 952.4920
229.7859, 955.5262
230.2681, 956.8576
230.7502, 952.8495
231.2323, 944.2910
231.7144, 940.8002
232.1965, 948.2426
232.6786, 954.1522
233.1608, 949.6325
233.6429, 937.5318
234.1250, 926.6755
234.6071, 921.5414
235.0892, 921.8641
235.5714, 927.5378
236.0535, 943.0726
236.5356, 956.0723
237.0177, 958.1570
237.4998, 953.6477
237.9819, 950.5228
238.4641, 953.8860
238.9462, 960.2996
239.4283, 961.4683
239.9104, 955.1559
240.3925, 949.6324
240.8746, 952.0003
241.3568, 956.6346
241.8389, 955.4259
242.3210, 942.5689
242.8031, 927.6236
243.2852, 926.1965
243.7673, 941.2128
244.2495, 953.7490
244.7316, 953.4955
245.2137, 948.0867
245.6958, 944.6434
246.1779, 944.6475
246.6600, 946.1517
247.1422, 947.5733
247.6243, 948.9148
248.1064, 950.0423
248.5885, 951.6515
249.0706, 952.3183
249.5527, 950.8104
250.0349, 946.9986
250.5170, 941.6012
250.9991, 933.0843
251.4812, 922.5742
251.9633, 916.9807
252.4454, 920.1320
252.9276, 925.2997
253.4097, 924.5420
253.8918, 918.4939
254.3739, 915.3113
254.8560, 921.4253
255.3381, 933.0608
255.8203, 941.0128
256.3024, 943.2976
256.7845, 944.3221
257.2666, 950.3985
257.7487, 959.1334
258.2308, 961.5593
258.7130, 947.8196
259.1951, 929.5700
259.6772, 922.9432
260.1593, 929.4396
260.6414, 940.2338
261.1235, 952.9542
261.6057, 965.1668
262.0878, 970.3788
262.5699, 961.5948
263.0520, 950.6215
263.5341, 948.4714
264.0162, 954.0698
264.4984, 956.9097
264.9805, 949.8631
265.4626, 937.5327
265.9447, 932.1735
266.4268, 937.1153
266.9089, 942.9841
267.3911, 945.3101
267.8732, 944.9830
268.3553, 943.6221
268.8374, 940.8050
269.3195, 939.1951
269.8016, 946.6945
270.2838, 967.7648
270.7659, 979.8936
271.2480, 968.6611
271.7301, 948.0327
272.2122, 938.5209
272.6943, 945.3127
273.1765, 957.1248
273.6586, 959.8959
274.1407, 951.1404
274.6228, 946.3311
275.1049, 949.4688
275.5870, 954.6279
276.0692, 956.6172
276.5513, 955.2521
277.0334, 953.8580
277.5155, 955.2332
277.9976, 959.5224
278.4797, 963.6671
278.9619, 968.5770
279.4440, 972.4933
279.9261, 975.8222
280.4082, 977.6144
280.8903, 974.0612
281.3724, 961.5903
281.8546, 943.9461
282.3367, 940.4630
282.8188, 968.6164
283.3009, 989.1622
283.7830, 990.9574
284.2651, 983.2288
284.7473, 977.8575
285.2294, 979.4464
285.7115, 984.6830
286.1936, 986.9117
286.6757, 982.4902
287.1578, 980.8917
287.6400, 986.4700
288.1221, 991.7377
288.6042, 989.5213
289.0863, 979.5795
289.5684, 968.4694
290.0505, 963.5343
290.5327, 965.3254
291.0148, 971.1043
291.4969, 988.0283
291.9790, 1001.972
292.4611, 1005.760
292.9432, 1001.359
293.4254, 994.8692
293.9075, 990.4235
294.3896, 987.9066
294.8717, 986.3601
295.3538, 984.8872
295.8359, 985.7936
296.3181, 993.3022
296.8002, 1002.206
297.2823, 1004.650
297.7644, 996.4689
298.2465, 983.8560
298.7286, 980.5535
299.2108, 990.7002
299.6929, 999.2566
300.1750, 1002.727
300.6571, 1003.842
301.1392, 1004.566
301.6213, 1005.257
302.1035, 1004.694
302.5855, 999.9205
303.0677, 990.6649
303.5498, 986.8149
304.0319, 995.2072
304.5140, 1003.098
304.9961, 1000.534
305.4782, 989.7958
305.9604, 981.1031
306.4425, 982.2482
306.9246, 989.9861
307.4067, 995.3330
307.8888, 997.8627
308.3709, 998.6448
308.8531, 997.7795
309.3352, 995.7014
309.8173, 992.7401
310.2994, 987.6845
310.7815, 983.1978
311.2636, 983.1799
311.7458, 987.4070
312.2279, 990.3566
312.7100, 990.0406
313.1921, 986.6299
313.6742, 980.6339
314.1563, 970.9865
314.6385, 962.0366
315.1206, 953.7115
315.6027, 947.7382
316.0848, 950.3417
316.5669, 965.1679
317.0490, 980.3051
317.5312, 977.5549
318.0133, 954.5237
318.4954, 940.6212
318.9775, 946.4704
319.4596, 958.5197
319.9417, 966.8373
320.4239, 970.0714
320.9060, 967.8007
321.3881, 958.1539
321.8702, 941.7604
322.3523, 932.6019
322.8344, 934.0785
323.3166, 937.8269
323.7987, 944.1213
324.2808, 950.1974
324.7629, 950.5427
325.2450, 942.3105
325.7271, 929.1602
326.2093, 920.0272
326.6914, 914.8716
327.1735, 914.6061
327.6556, 924.4620
328.1377, 935.7324
328.6198, 941.5833
329.1020, 940.6709
329.5841, 935.6716
330.0662, 929.0449
330.5483, 920.0333
331.0304, 913.4610
331.5125, 913.1066
331.9947, 911.4401
332.4768, 902.9715
332.9589, 891.0744
333.4410, 883.4897
333.9231, 886.1416
334.4052, 895.7225
334.8874, 899.1234
335.3695, 891.9579
335.8516, 886.8739
336.3337, 887.4260
336.8158, 891.2544
337.2979, 897.0678
337.7801, 904.6763
338.2622, 911.4506
338.7443, 914.7948
339.2264, 914.7366
339.7085, 910.3706
340.1906, 898.2263
340.6728, 885.1044
341.1549, 874.5939
341.6370, 867.0549
342.1191, 864.6993
342.6012, 873.6155
343.0833, 887.5310
343.5655, 891.7794
344.0476, 883.8821
344.5297, 875.2090
345.0118, 875.9681
345.4939, 881.3976
345.9760, 878.6571
346.4582, 857.6245
346.9403, 837.6215
347.4224, 834.8716
347.9045, 845.1313
348.3866, 853.0430
348.8687, 852.2531
349.3509, 846.5137
349.8330, 843.0206
350.3151, 842.4899
350.7972, 841.6268
351.2793, 839.3950
351.7614, 836.8183
352.2436, 834.3469
352.7257, 832.2697
353.2078, 832.0333
353.6899, 835.6692
354.1720, 843.8799
354.6541, 847.5300
355.1363, 845.2256
355.6184, 840.8123
356.1005, 834.5311
356.5826, 827.3376
357.0647, 820.1262
357.5468, 813.1874
358.0290, 807.7020
358.5111, 807.8516
358.9932, 821.8000
359.4753, 827.0023
359.9574, 814.5070
360.4395, 798.8659
360.9217, 791.8704
361.4038, 794.6613
361.8859, 799.1935
362.3680, 796.3085
362.8501, 785.6160
363.3322, 778.7488
363.8144, 777.8126
364.2965, 778.3843
364.7786, 780.3384
365.2607, 782.0700
365.7428, 780.1791
366.2249, 771.2807
366.7071, 760.4894
367.1892, 757.5436
367.6713, 763.5342
368.1534, 766.7170
368.6355, 758.3945
369.1176, 748.5466
369.5998, 750.7757
370.0819, 767.7644
370.5640, 782.7676
371.0461, 784.9163
371.5282, 779.1003
372.0103, 775.6063
372.4925, 776.3401
372.9746, 778.1252
373.4567, 778.6013
373.9388, 777.6148
374.4209, 774.5577
374.9030, 765.0062
375.3852, 757.3631
375.8673, 758.0808
376.3494, 765.0510
376.8315, 772.9046
377.3136, 779.5810
377.7957, 783.4805
378.2779, 780.3534
378.7600, 762.9402
379.2421, 747.9676
379.7242, 732.2258
380.2063, 721.2695
380.6884, 722.6682
381.1706, 735.6420
381.6527, 750.6472
382.1348, 758.2848
382.6169, 758.2875
383.0990, 756.0646
383.5811, 748.1631
384.0633, 741.7390
384.5454, 740.1829
385.0275, 740.8719
385.5096, 739.5458
385.9917, 734.0593
386.4738, 727.1832
386.9560, 723.6753
387.4381, 723.9932
387.9202, 725.5130
388.4023, 730.4664
388.8844, 734.0674
389.3665, 731.3124
389.8487, 722.6962
390.3308, 715.6651
390.8129, 715.3591
391.2950, 719.4777
391.7771, 723.3878
392.2592, 726.8848
392.7414, 729.9796
393.2235, 733.3195
393.7056, 736.0622
394.1877, 735.9419
394.6698, 730.9602
395.1519, 725.6166
395.6341, 720.8843
396.1162, 717.6177
396.5983, 718.7447
397.0804, 725.5604
397.5625, 733.4723
398.0446, 735.9770
398.5268, 731.5843
399.0089, 725.4542
399.4910, 712.3606
399.9731, 702.1605
400.4552, 703.8613
400.9373, 714.0220
401.4194, 721.2921
401.9016, 717.5915
402.3837, 706.8091
402.8658, 705.9520
403.3479, 724.0258
403.8300, 738.1696
404.3121, 745.3523
404.7943, 748.1044
405.2764, 747.6113
405.7585, 744.5139
406.2406, 740.6877
406.7227, 737.7443
407.2048, 735.6839
407.6870, 734.5439
408.1691, 734.5064
408.6512, 735.1437
409.1333, 739.4707
409.6154, 743.8023
410.0975, 740.2632
410.5797, 721.3263
411.0618, 701.2598
411.5439, 695.9302
412.0260, 703.6075
412.5081, 713.1134
412.9902, 722.2672
413.4724, 729.4327
413.9545, 730.6449
414.4366, 725.3513
414.9187, 722.1121
415.4008, 726.9121
415.8829, 731.3858
416.3651, 724.9388
416.8472, 709.3702
417.3293, 697.6649
417.8114, 699.2119
418.2935, 711.3211
418.7756, 718.8188
419.2578, 718.7960
419.7399, 717.5916
420.2220, 713.3209
420.7041, 709.4893
421.1862, 710.6037
421.6683, 716.9553
422.1505, 723.6937
422.6326, 725.2842
423.1147, 721.4178
423.5968, 716.6399
424.0789, 705.9299
424.5610, 701.0284
425.0432, 712.6381
425.5253, 730.8387
426.0074, 739.4588
426.4895, 730.7378
426.9716, 715.2504
427.4537, 704.7571
427.9359, 699.1682
428.4180, 697.9517
428.9001, 703.4235
429.3822, 709.8045
429.8643, 709.5060
430.3464, 703.1426
430.8286, 699.4059
431.3107, 704.1156
431.7928, 710.0140
432.2749, 708.8878
432.7570, 701.7037
433.2391, 695.4666
433.7213, 693.6326
434.2034, 696.0297
434.6855, 702.3708
435.1676, 721.1451
435.6497, 731.7170
436.1318, 727.2334
436.6140, 717.9598
437.0961, 712.0488
437.5782, 710.5846
438.0603, 710.2762
438.5424, 707.9435
439.0245, 703.8500
439.5067, 702.6563
439.9888, 706.5040
440.4709, 710.2024
440.9530, 713.3753
441.4351, 715.2608
441.9172, 714.5071
442.3994, 710.6439
442.8815, 706.3901
443.3636, 703.6585
443.8457, 702.6433
444.3278, 705.7284
444.8099, 715.7164
445.2921, 724.4628
445.7742, 723.2916
446.2563, 715.3199
446.7384, 709.5074
447.2205, 708.4185
447.7026, 709.0394
448.1848, 709.7666
448.6669, 710.6453
449.1490, 712.0121
449.6311, 714.0953
450.1132, 716.0584
450.5953, 716.7304
451.0775, 716.2188
451.5596, 713.7325
452.0417, 704.4445
452.5238, 697.8038
453.0059, 701.6238
453.4880, 712.1674
453.9702, 720.2226
454.4523, 720.3929
454.9344, 715.5912
455.4165, 713.2393
455.8986, 714.0724
456.3807, 715.3248
456.8629, 717.9972
457.3450, 719.8254
457.8271, 718.4975
458.3092, 714.5248
458.7913, 711.4167
459.2734, 710.7616
459.7556, 712.5187
460.2377, 718.7968
460.7198, 730.1743
461.2019, 735.9388
461.6840, 728.0155
462.1661, 713.2833
462.6483, 707.3059
463.1304, 714.7140
463.6125, 717.3015
464.0946, 703.5833
464.5767, 686.2121
465.0588, 678.4566
465.5410, 681.6694
466.0231, 691.3564
466.5052, 705.5270
466.9873, 722.6400
467.4694, 728.1616
467.9515, 706.9247
468.4337, 693.0123
468.9158, 696.7526
469.3979, 705.5738
469.8800, 706.3475
470.3621, 697.3647
470.8442, 688.3395
471.3264, 690.1544
471.8085, 701.5463
472.2906, 710.2893
472.7727, 717.7195
473.2548, 719.4769
473.7369, 705.6226
474.2191, 686.9747
474.7012, 679.2192
475.1833, 688.1742
475.6654, 699.2101
476.1475, 702.7711
476.6296, 701.9075
477.1118, 703.5926
477.5939, 709.2623
478.0760, 713.8987
478.5581, 713.1407
479.0402, 706.9211
479.5223, 697.3436
480.0045, 676.5438
480.4866, 662.1869
480.9687, 661.6637
481.4508, 669.3831
481.9329, 679.7386
482.4150, 690.5052
482.8972, 699.2646
483.3793, 701.5875
483.8614, 696.3112
484.3435, 697.9969
484.8256, 716.2346
485.3077, 728.1390
485.7899, 718.5403
486.2720, 699.2528
486.7541, 689.2592
487.2362, 696.3578
487.7183, 706.1103
488.2004, 704.7087
488.6826, 694.8563
489.1647, 685.8803
489.6468, 679.0499
490.1289, 675.8771
490.6110, 678.7992
491.0931, 687.8853
491.5753, 695.0862
492.0574, 700.7935
492.5395, 704.2576
493.0216, 705.8994
493.5037, 704.8636
493.9858, 697.5264
494.4680, 683.4904
494.9501, 670.5745
495.4322, 670.7224
495.9143, 686.7955
496.3964, 694.5203
496.8785, 682.4598
497.3607, 675.2436
497.8428, 687.9577
498.3249, 707.9409
498.8070, 715.6541
499.2891, 703.1612
499.7712, 685.6116
500.2533, 679.5750
500.7354, 682.4741
501.2176, 680.2957
501.6997, 668.9238
502.1818, 658.4865
502.6639, 657.2250
503.1460, 664.7779
503.6281, 674.8214
504.1103, 694.1931
504.5924, 708.2657
505.0745, 707.8058
505.5566, 699.4344
506.0387, 692.3398
506.5208, 689.0605
507.0030, 687.5191
507.4851, 685.4205
507.9672, 682.7281
508.4493, 679.9072
508.9314, 673.6638
509.4135, 671.6200
509.8957, 681.0011
510.3778, 693.1796
510.8599, 696.4446
511.3420, 687.4097
511.8241, 677.0797
512.3063, 676.3664
512.7884, 683.0623
513.2705, 689.2265
513.7526, 694.4823
514.2347, 697.1110
514.7169, 695.1879
515.1990, 689.5660
515.6811, 684.2142
516.1632, 674.9536
516.6453, 671.9294
517.1274, 686.2603
517.6096, 704.3105
518.0917, 707.2793
518.5738, 694.1868
519.0559, 681.7916
519.5380, 686.7573
520.0201, 706.3660
520.5023, 709.6232
520.9844, 680.9184
521.4665, 661.6060
521.9486, 663.5334
522.4307, 674.9830
522.9128, 689.9999
523.3950, 706.3247
523.8771, 714.3107
524.3592, 699.7218
524.8413, 674.1522
525.3234, 664.5311
525.8055, 672.2819
526.2877, 679.1127
526.7698, 674.3674
527.2519, 664.3716
527.7340, 665.8734
528.2161, 685.7753
528.6982, 697.1353
529.1804, 688.3345
529.6625, 675.9248
530.1446, 673.0093
530.6267, 678.4464
531.1088, 684.6023
531.5909, 686.9761
532.0731, 686.2868
532.5552, 683.9801
533.0373, 679.1393
533.5194, 675.4933
534.0015, 673.0121
534.4836, 672.4704
534.9658, 675.8740
535.4479, 681.8943
535.9300, 685.8519
536.4121, 685.0937
536.8942, 682.1658
537.3763, 678.4459
537.8585, 674.5899
538.3406, 673.4619
538.8227, 676.0381
539.3048, 681.3823
539.7869, 689.4628
540.2690, 701.9960
540.7512, 706.0064
541.2333, 694.5032
541.7154, 683.2094
542.1975, 677.6279
542.6796, 675.8560
543.1617, 675.5984
543.6439, 675.9173
544.1260, 675.4739
544.6081, 672.0675
545.0902, 665.8630
545.5723, 660.1325
546.0544, 652.7216
546.5366, 650.8815
547.0187, 665.6617
547.5008, 686.1794
547.9829, 694.6418
548.4650, 685.8770
548.9471, 675.0927
549.4292, 666.5713
549.9113, 661.3779
550.3934, 662.3094
550.8755, 668.8332
551.3577, 676.4069
551.8398, 682.3820
552.3219, 686.1390
552.8040, 685.0065
553.2861, 676.1461
553.7682, 667.0777
554.2504, 652.2818
554.7325, 642.5643
555.2146, 649.0740
555.6967, 667.8079
556.1788, 683.2624
556.6609, 686.0235
557.1431, 681.7903
557.6252, 678.8446
558.1073, 676.9915
558.5894, 673.3529
559.0715, 666.0125
559.5536, 659.3435
560.0358, 659.3311
560.5179, 666.9501
561.0000, 670.5325
561.4821, 665.5528
561.9642, 661.3286
562.4464, 662.2635
562.9285, 666.2682
563.4106, 670.6341
563.8927, 674.3673
564.3748, 677.1852
564.8569, 679.4479
565.3391, 681.0442
565.8212, 676.6584
566.3033, 661.3389
566.7854, 650.3513
567.2675, 653.8093
567.7496, 663.5577
568.2318, 671.7743
568.7139, 678.1530
569.1960, 679.9206
569.6781, 669.7005
570.1602, 657.9590
570.6423, 659.6584
571.1245, 672.9557
571.6066, 683.1923
572.0887, 682.0520
572.5708, 673.7662
573.0529, 668.0266
573.5350, 663.7510
574.0172, 664.4034
574.4993, 677.3157
574.9814, 687.6680
575.4635, 687.0535
575.9456, 678.9547
576.4277, 670.0602
576.9099, 661.8395
577.3920, 657.8729
577.8741, 665.8619
578.3562, 682.0527
578.8383, 690.8749
579.3204, 689.0297
579.8026, 684.2165
580.2847, 681.7889
580.7668, 681.6438
581.2489, 683.0807
581.7310, 690.9490
582.2131, 693.7479
582.6953, 685.1046
583.1774, 673.8167
583.6595, 666.7283
584.1416, 664.7625
584.6237, 665.9919
585.1058, 669.4175
585.5880, 674.5771
586.0701, 681.8171
586.5522, 692.1381
587.0343, 695.6794
587.5164, 685.8961
587.9985, 673.8295
588.4807, 671.8863
588.9628, 678.4917
589.4449, 682.7592
589.9270, 684.3205
590.4091, 681.6642
590.8912, 668.5800
591.3734, 652.5030
591.8555, 646.2603
592.3376, 652.5373
592.8197, 663.7469
593.3018, 672.7983
593.7839, 679.5858
594.2661, 681.7925
594.7482, 676.2758
595.2303, 672.4860
595.7124, 675.3195
596.1945, 679.8049
596.6766, 682.3504
597.1588, 682.6262
597.6409, 680.4738
598.1230, 672.8405
598.6051, 664.9940
599.0872, 662.8535
599.5693, 665.3511
600.0515, 668.6107
600.5336, 671.2190
601.0157, 673.0411
601.4978, 674.2849
601.9799, 675.6764
602.4620, 671.9326
602.9442, 651.9208
603.4263, 640.1684
603.9084, 647.1038
604.3905, 663.5458
604.8726, 680.6231
605.3547, 696.3643
605.8369, 706.7612
606.3190, 705.8670
606.8011, 699.0336
607.2832, 697.1389
607.7653, 700.0447
608.2474, 698.7209
608.7296, 687.7734
609.2117, 673.2894
609.6938, 667.4623
610.1759, 675.6786
610.6580, 677.1564
611.1401, 664.2051
611.6223, 653.3971
612.1044, 653.4570
612.5865, 659.6339
613.0686, 663.6326
613.5507, 662.7545
614.0328, 662.4494
614.5150, 670.8919
614.9971, 684.3718
615.4792, 688.4543
615.9613, 681.4394
616.4434, 677.0249
616.9255, 684.6075
617.4077, 697.3371
617.8898, 698.2205
618.3719, 677.9628
618.8540, 667.9407
619.3361, 681.3813
619.8182, 693.6591
620.3004, 688.4401
620.7825, 671.9943
621.2646, 656.4379
621.7467, 646.4423
622.2288, 643.2249
622.7109, 652.6824
623.1931, 671.9701
623.6752, 679.9325
624.1573, 672.4804
624.6394, 666.3687
625.1215, 673.4932
625.6036, 687.2531
626.0858, 689.5798
626.5679, 675.2926
627.0500, 664.8191
627.5321, 661.1214
628.0142, 662.0156
628.4963, 668.5168
628.9785, 678.1207
629.4606, 686.2661
629.9427, 690.9295
630.4248, 692.8520
630.9069, 692.9417
631.3890, 691.1982
631.8712, 687.1174
632.3533, 679.8907
632.8354, 672.5835
633.3175, 665.4089
633.7996, 660.0586
