##NAMES=Calaverite
##RRUFFID=R070164
##IDEAL CHEMISTRY=AuTe_2_
##LOCALITY=Vindicator mine, Cripple Creek, Teller County, Colorado, USA
##OWNER=RRUFF
##SOURCE=Michael Scott
##DESCRIPTION=Loose pale gold colored metallic fragments associated with quartz, used to define ICDD pattern
##STATUS=The identification of this mineral is confirmed by single-crystal X-ray diffraction and chemical analysis.
##URL=rruff.info/R070164
##MEASURED CHEMISTRY=(Au_0.90_Ag_0.10_)_Î£=1_Te_2.00_
128.0043, 672.9348
128.4864, 682.6271
128.9685, 697.0839
129.4506, 715.3234
129.9327, 738.7458
130.4148, 766.8268
130.8969, 791.8494
131.3791, 805.5293
131.8612, 810.0563
132.3433, 820.3867
132.8254, 839.6509
133.3075, 864.8624
133.7896, 888.4581
134.2718, 909.9500
134.7539, 931.3199
135.2360, 952.9330
135.7181, 974.0015
136.2002, 1001.057
136.6823, 1038.412
137.1645, 1084.868
137.6466, 1122.327
138.1287, 1149.611
138.6108, 1170.514
139.0929, 1190.060
139.5750, 1209.461
140.0572, 1223.749
140.5393, 1230.271
141.0214, 1226.937
141.5035, 1224.844
141.9856, 1222.711
142.4677, 1222.395
142.9499, 1229.002
143.4320, 1247.071
143.9141, 1265.193
144.3962, 1276.568
144.8783, 1270.526
145.3604, 1277.878
145.8425, 1307.809
146.3247, 1355.521
146.8068, 1388.574
147.2889, 1394.906
147.7710, 1395.309
148.2531, 1403.637
148.7352, 1429.244
149.2174, 1451.926
149.6995, 1466.898
150.1816, 1472.687
150.6637, 1484.670
151.1458, 1515.018
151.6279, 1546.663
152.1101, 1563.673
152.5922, 1543.730
153.0743, 1528.269
153.5564, 1531.457
154.0385, 1563.970
154.5206, 1583.457
155.0028, 1580.409
155.4849, 1561.057
155.9670, 1535.924
156.4491, 1500.051
156.9312, 1464.123
157.4133, 1433.200
157.8955, 1411.224
158.3776, 1389.035
158.8597, 1366.808
159.3418, 1342.922
159.8239, 1312.369
160.3060, 1265.772
160.7882, 1215.849
161.2703, 1171.382
161.7524, 1135.402
162.2345, 1104.603
162.7166, 1079.930
163.1987, 1060.636
163.6808, 1040.618
164.1630, 1014.511
164.6451, 986.7885
165.1272, 962.2592
165.6093, 941.4323
166.0914, 925.2252
166.5735, 914.7674
167.0557, 910.2352
167.5378, 909.1237
168.0199, 913.8403
168.5020, 920.6160
168.9841, 923.1055
169.4662, 915.1949
169.9484, 903.2966
170.4305, 893.4548
170.9126, 886.8951
171.3947, 879.9942
171.8768, 869.3791
172.3589, 855.8894
172.8411, 842.2234
173.3232, 829.5059
173.8053, 817.5060
174.2874, 805.2672
174.7695, 791.3410
175.2516, 779.7846
175.7338, 777.5375
176.2159, 783.1522
176.6980, 787.8840
177.1801, 784.3879
177.6622, 775.7067
178.1443, 768.1626
178.6264, 763.7779
179.1086, 760.8575
179.5907, 755.8185
180.0728, 748.7617
180.5549, 743.8577
181.0370, 747.3770
181.5191, 756.5684
182.0013, 762.6785
182.4834, 761.2371
182.9655, 754.9904
183.4476, 749.4616
183.9297, 744.5609
184.4118, 741.3234
184.8940, 741.9166
185.3761, 745.7751
185.8582, 749.2577
186.3403, 751.6636
186.8224, 752.6105
187.3046, 749.5652
187.7867, 741.3317
188.2688, 732.5421
188.7509, 730.7999
189.2330, 735.8983
189.7151, 741.5417
190.1973, 745.2549
190.6794, 746.9539
191.1615, 745.4688
191.6436, 739.4923
192.1257, 732.1772
192.6078, 731.2327
193.0900, 737.2123
193.5721, 742.1634
194.0542, 739.2914
194.5363, 728.9008
195.0184, 721.3950
195.5005, 718.3593
195.9826, 718.9808
196.4648, 721.8645
196.9469, 727.5777
197.4290, 732.5713
197.9111, 732.5686
198.3932, 726.9271
198.8753, 725.5541
199.3575, 732.5401
199.8396, 745.3277
200.3217, 749.3694
200.8038, 742.7128
201.2859, 732.9451
201.7680, 726.6378
202.2502, 723.7859
202.7323, 724.4335
203.2144, 730.4122
203.6965, 741.1869
204.1786, 745.9004
204.6607, 743.4411
205.1429, 736.9149
205.6250, 728.9212
206.1071, 718.5378
206.5892, 710.7026
207.0713, 707.0915
207.5534, 707.8736
208.0356, 710.8921
208.5177, 717.2235
208.9998, 724.5104
209.4819, 729.1954
209.9640, 730.7970
210.4461, 731.1447
210.9282, 730.8861
211.4104, 730.0891
211.8925, 728.3742
212.3746, 725.7256
212.8567, 722.1520
213.3388, 717.0071
213.8209, 708.5981
214.3031, 702.3206
214.7852, 702.1280
215.2673, 712.1153
215.7494, 714.1265
216.2315, 703.4751
216.7136, 685.9282
217.1958, 679.2783
217.6779, 688.3998
218.1600, 699.5854
218.6421, 705.5495
219.1242, 704.3055
219.6063, 702.8613
220.0885, 700.8170
220.5706, 698.8715
221.0527, 700.8998
221.5348, 710.6852
222.0169, 718.8839
222.4990, 718.7327
222.9812, 705.6948
223.4633, 694.6791
223.9454, 686.5380
224.4275, 681.4354
224.9096, 682.2902
225.3917, 694.0062
225.8739, 705.5306
226.3560, 707.4276
226.8381, 692.9146
227.3202, 683.1075
227.8023, 682.8617
228.2844, 691.6989
228.7665, 695.2558
229.2487, 690.5991
229.7308, 683.7474
230.2129, 679.8664
230.6950, 680.0621
231.1771, 681.2089
231.6592, 682.7602
232.1414, 684.6843
232.6235, 687.9932
233.1056, 694.3092
233.5877, 700.4683
234.0698, 702.4006
234.5519, 696.0903
235.0341, 692.9351
235.5162, 697.2920
235.9983, 710.9001
236.4804, 716.5464
236.9625, 710.8318
237.4446, 699.8146
237.9268, 690.1066
238.4089, 679.9036
238.8910, 674.0054
239.3731, 674.9757
239.8552, 684.8363
240.3373, 690.6447
240.8195, 691.1088
241.3016, 688.3765
241.7837, 685.0377
242.2658, 679.2941
242.7479, 675.9594
243.2300, 676.7870
243.7122, 682.7700
244.1943, 689.0687
244.6764, 696.8035
245.1585, 704.1855
245.6406, 708.1272
246.1227, 706.7033
246.6048, 705.0370
247.0870, 705.5002
247.5691, 710.2815
248.0512, 709.2813
248.5333, 698.0816
249.0154, 683.3011
249.4975, 678.1117
249.9797, 688.3090
250.4618, 698.2610
250.9439, 701.6619
251.4260, 695.3610
251.9081, 691.8260
252.3902, 692.1642
252.8724, 694.7546
253.3545, 696.0560
253.8366, 695.7532
254.3187, 694.7191
254.8008, 692.8016
255.2829, 688.4335
255.7651, 687.7756
256.2472, 692.5773
256.7293, 700.3701
257.2114, 705.3201
257.6935, 707.3317
258.1756, 706.6874
258.6577, 701.8981
259.1399, 688.3187
259.6220, 684.8955
260.1041, 696.4343
260.5862, 716.4989
261.0683, 727.3595
261.5504, 726.0825
262.0326, 721.4816
262.5147, 717.1514
262.9968, 712.5845
263.4789, 710.5030
263.9610, 712.5322
264.4431, 716.4649
264.9253, 715.4449
265.4074, 707.3131
265.8895, 699.1226
266.3716, 694.8505
266.8537, 695.7394
267.3358, 695.6663
267.8180, 694.0135
268.3001, 691.3740
268.7822, 689.1125
269.2643, 686.9536
269.7464, 685.9248
270.2285, 686.6054
270.7107, 689.1174
271.1928, 693.3027
271.6749, 700.7272
272.1570, 708.8599
272.6391, 708.6958
273.1212, 697.3363
273.6034, 687.1237
274.0855, 686.4848
274.5676, 696.8920
275.0497, 705.2613
275.5318, 710.8605
276.0139, 713.6308
276.4961, 712.4978
276.9782, 706.6755
277.4603, 700.2894
277.9424, 695.5859
278.4245, 692.5446
278.9066, 691.4700
279.3888, 693.4174
279.8709, 696.3100
280.3530, 693.7195
280.8351, 684.6008
281.3172, 676.6883
281.7993, 676.2828
282.2815, 683.1815
282.7636, 687.0510
283.2457, 685.8635
283.7278, 682.5021
284.2099, 684.1208
284.6920, 691.1426
285.1741, 697.6992
285.6563, 700.0370
286.1384, 698.4314
286.6205, 694.6050
287.1026, 687.3119
287.5847, 680.2427
288.0668, 682.1057
288.5490, 692.8831
289.0311, 703.4459
289.5132, 706.2850
289.9953, 703.3497
290.4774, 705.8947
290.9595, 717.5304
291.4417, 729.9146
291.9238, 726.2172
292.4059, 707.7850
292.8880, 690.6381
293.3701, 685.4908
293.8522, 689.5543
294.3344, 694.2977
294.8165, 699.1533
295.2986, 703.6487
295.7807, 706.7911
296.2628, 708.7831
296.7449, 710.7151
297.2271, 713.5464
297.7092, 716.7240
298.1913, 719.3804
298.6734, 721.6259
299.1555, 722.5613
299.6376, 720.8127
300.1198, 716.7272
300.6019, 711.5586
301.0840, 702.1501
301.5661, 693.2535
302.0482, 694.4482
302.5303, 709.1292
303.0125, 723.8373
303.4946, 723.5390
303.9767, 712.4794
304.4588, 702.1553
304.9409, 700.2546
305.4230, 701.6968
305.9052, 700.0355
306.3873, 693.8439
306.8694, 688.9572
307.3515, 691.4568
307.8336, 698.7163
308.3157, 705.5627
308.7979, 711.1543
309.2800, 714.2206
309.7621, 711.9129
310.2442, 702.9068
310.7263, 696.3471
311.2084, 702.5630
311.6906, 714.3416
312.1727, 720.1384
312.6548, 707.8661
313.1369, 693.2717
313.6190, 686.9534
314.1011, 690.2439
314.5833, 695.2194
315.0654, 700.4796
315.5475, 704.6386
316.0296, 705.8642
316.5117, 698.7033
316.9938, 692.5606
317.4760, 692.4993
317.9580, 699.1612
318.4402, 705.7250
318.9223, 709.5905
319.4044, 712.4265
319.8865, 715.8561
320.3686, 724.7207
320.8507, 730.0078
321.3329, 727.2070
321.8150, 716.0082
322.2971, 706.3928
322.7792, 701.8624
323.2613, 698.9073
323.7434, 694.6573
324.2256, 683.5149
324.7077, 676.5446
325.1898, 677.0787
325.6719, 685.0050
326.1540, 692.3419
326.6361, 701.2554
327.1183, 707.8438
327.6004, 709.5448
328.0825, 700.8053
328.5646, 693.9017
329.0467, 690.0731
329.5288, 689.0321
330.0110, 688.7272
330.4931, 689.7206
330.9752, 690.9074
331.4573, 691.5333
331.9394, 690.5192
332.4215, 691.0788
332.9037, 694.7910
333.3858, 700.2473
333.8679, 701.7883
334.3500, 697.5047
334.8321, 692.3832
335.3142, 688.7402
335.7964, 686.4734
336.2785, 686.1774
336.7606, 688.5081
337.2427, 692.4597
337.7248, 695.8987
338.2069, 699.3628
338.6891, 700.6744
339.1712, 698.1066
339.6533, 691.1805
340.1354, 684.5558
340.6175, 677.5203
341.0996, 672.1500
341.5818, 673.1537
342.0639, 681.0884
342.5460, 689.5923
343.0281, 697.8553
343.5102, 705.2991
343.9923, 704.1362
344.4745, 692.3782
344.9566, 678.8170
345.4387, 676.3127
345.9208, 683.8340
346.4029, 691.5190
346.8850, 697.4437
347.3672, 700.4363
347.8493, 693.6174
348.3314, 676.0349
348.8135, 660.5158
349.2956, 664.7882
349.7777, 682.7261
350.2599, 695.4765
350.7419, 693.0006
351.2241, 684.1225
351.7062, 682.9222
352.1883, 688.8934
352.6704, 694.0880
353.1525, 690.7430
353.6346, 682.7014
354.1168, 676.2168
354.5989, 674.4022
355.0810, 673.2319
355.5631, 666.2041
356.0452, 655.3664
356.5273, 650.6287
357.0095, 666.4798
357.4916, 687.3725
357.9737, 696.8929
358.4558, 685.4536
358.9379, 673.1260
359.4200, 672.1366
359.9022, 678.7836
360.3843, 683.3185
360.8664, 678.4503
361.3485, 672.5139
361.8306, 670.6100
362.3127, 674.4540
362.7949, 679.7105
363.2770, 688.0281
363.7591, 696.5540
364.2412, 700.4941
364.7233, 694.5133
365.2054, 687.5023
365.6876, 681.7146
366.1697, 676.2635
366.6518, 675.9835
367.1339, 689.5723
367.6160, 705.5897
368.0981, 710.7060
368.5803, 692.3860
369.0624, 676.9512
369.5445, 669.6030
370.0266, 670.7607
370.5087, 673.4395
370.9908, 680.1161
371.4730, 686.0987
371.9551, 686.6544
372.4372, 676.5927
372.9193, 672.1451
373.4014, 677.6172
373.8835, 691.0070
374.3657, 700.8534
374.8478, 707.5929
375.3299, 709.6718
375.8120, 703.8022
376.2941, 687.7847
376.7762, 677.5959
377.2584, 675.4955
377.7405, 679.5270
378.2226, 686.0278
378.7047, 695.4620
379.1868, 704.0311
379.6689, 710.6281
380.1511, 714.9677
380.6332, 713.7787
381.1153, 705.5591
381.5974, 695.7349
382.0795, 694.8438
382.5616, 701.0937
383.0438, 702.8528
383.5259, 689.3187
384.0080, 668.4343
384.4901, 658.1518
384.9722, 659.0961
385.4543, 664.2563
385.9364, 668.6220
386.4185, 672.2793
386.9007, 675.4150
387.3828, 677.3250
387.8649, 679.3538
388.3470, 683.3016
388.8291, 688.9216
389.3112, 694.2949
389.7934, 698.8407
390.2755, 702.1094
390.7576, 703.5906
391.2397, 703.0189
391.7218, 700.8437
392.2039, 695.7089
392.6861, 688.8513
393.1682, 684.1071
393.6503, 684.6622
394.1324, 686.5532
394.6145, 687.0179
395.0966, 683.4297
395.5788, 683.5314
396.0609, 694.7901
396.5430, 709.8972
397.0251, 716.5419
397.5072, 702.6088
397.9893, 689.8514
398.4715, 684.7957
398.9536, 689.0129
399.4357, 693.7977
399.9178, 701.9490
400.3999, 708.8862
400.8820, 709.4662
401.3642, 697.7344
401.8463, 690.0870
402.3284, 691.0345
402.8105, 699.5175
403.2926, 702.3251
403.7747, 696.6511
404.2569, 690.4593
404.7390, 690.1322
405.2211, 697.0042
405.7032, 702.5438
406.1853, 705.5847
406.6674, 707.2144
407.1496, 711.4363
407.6317, 718.9254
408.1138, 722.4673
408.5959, 714.3362
409.0780, 697.1382
409.5602, 688.5400
410.0423, 690.5413
410.5244, 697.3424
411.0065, 703.8631
411.4886, 709.5788
411.9707, 712.0299
412.4529, 706.0341
412.9350, 697.5614
413.4171, 698.3184
413.8992, 708.1318
414.3813, 717.4744
414.8634, 716.5637
415.3456, 710.9976
415.8277, 709.3625
416.3098, 717.9784
416.7919, 726.9419
417.2740, 728.6400
417.7561, 724.4512
418.2382, 720.1522
418.7203, 718.9306
419.2025, 718.3340
419.6846, 716.1126
420.1667, 709.6508
420.6488, 706.6407
421.1309, 712.7947
421.6130, 723.4050
422.0952, 730.3190
422.5773, 728.0077
423.0594, 725.3981
423.5415, 726.3338
424.0236, 732.7835
424.5057, 733.6215
424.9879, 721.8676
425.4700, 708.7846
425.9521, 704.9375
426.4342, 717.4759
426.9163, 726.9738
427.3984, 730.3455
427.8806, 728.2527
428.3627, 724.6508
428.8448, 718.6249
429.3269, 713.0198
429.8090, 710.6089
430.2911, 712.2313
430.7733, 709.0373
431.2554, 697.9056
431.7375, 685.5303
432.2196, 686.3315
432.7017, 700.6392
433.1838, 714.5429
433.6660, 720.6517
434.1481, 720.8879
434.6302, 722.3300
435.1123, 725.2834
435.5944, 727.1178
436.0765, 723.3968
436.5587, 716.3587
437.0408, 711.6911
437.5229, 711.9260
438.0050, 714.8497
438.4871, 720.0132
438.9692, 726.6302
439.4514, 730.3573
439.9335, 726.6316
440.4156, 719.7117
440.8977, 713.0774
441.3798, 706.3777
441.8619, 702.5873
442.3441, 705.1720
442.8262, 711.4492
443.3083, 716.4455
443.7904, 715.4437
444.2725, 715.6359
444.7546, 721.3002
445.2368, 734.2560
445.7189, 742.8098
446.2010, 744.7366
446.6831, 742.0891
447.1652, 736.2960
447.6473, 720.1964
448.1295, 711.4293
448.6116, 715.1607
449.0937, 728.6423
449.5758, 736.5453
450.0579, 737.2619
450.5400, 735.4244
451.0221, 732.2607
451.5042, 726.6792
451.9864, 727.5692
452.4685, 737.8052
452.9506, 750.4667
453.4327, 752.3886
453.9148, 743.4133
454.3969, 736.9000
454.8791, 740.1257
455.3612, 749.7299
455.8433, 755.0535
456.3254, 755.9764
456.8075, 754.4099
457.2896, 750.5113
457.7718, 745.4903
458.2539, 742.2017
458.7360, 741.8013
459.2181, 742.6080
459.7002, 741.9999
460.1823, 740.9550
460.6645, 742.6407
461.1466, 757.1632
461.6287, 769.6227
462.1108, 764.6504
462.5929, 735.3412
463.0750, 714.1315
463.5572, 721.4568
464.0393, 741.6170
464.5214, 756.1752
465.0035, 759.8012
465.4856, 758.2873
465.9677, 748.5391
466.4499, 731.3467
466.9320, 724.1445
467.4141, 736.2412
467.8962, 750.3089
468.3783, 756.9064
468.8604, 751.6049
469.3426, 748.2816
469.8247, 747.9473
470.3068, 749.0980
470.7889, 749.0142
471.2710, 747.8251
471.7531, 744.7248
472.2353, 737.4891
472.7174, 727.1024
473.1995, 725.3660
473.6816, 733.3687
474.1637, 743.2360
474.6458, 747.3811
475.1280, 746.5753
475.6101, 744.1298
476.0922, 739.8708
476.5743, 735.7532
477.0564, 736.4313
477.5385, 740.4581
478.0207, 741.6233
478.5028, 729.7882
478.9849, 716.7175
479.4670, 716.7233
479.9491, 732.8371
480.4312, 749.1028
480.9134, 758.6882
481.3955, 762.0327
481.8776, 759.5463
482.3597, 740.3486
482.8418, 726.4807
483.3239, 728.2991
483.8060, 743.6355
484.2881, 755.8036
484.7703, 762.9353
485.2524, 765.3773
485.7345, 762.5778
486.2166, 749.1299
486.6987, 741.8055
487.1808, 742.9711
487.6630, 748.6668
488.1451, 753.0878
488.6272, 756.3015
489.1093, 757.9391
489.5914, 757.8334
490.0735, 756.0558
490.5557, 751.9221
491.0378, 744.6146
491.5199, 739.5752
492.0020, 743.1129
492.4841, 753.6661
492.9662, 761.7227
493.4484, 765.5815
493.9305, 767.4866
494.4126, 771.1128
494.8947, 775.5126
495.3768, 777.3337
495.8589, 771.2469
496.3411, 763.9019
496.8232, 764.2833
497.3053, 772.3837
497.7874, 777.3788
498.2695, 767.2217
498.7516, 753.6072
499.2338, 747.8390
499.7159, 761.7310
500.1980, 771.7967
500.6801, 766.1040
501.1622, 751.3227
501.6443, 744.1513
502.1265, 757.0883
502.6086, 768.2427
503.0907, 769.6023
503.5728, 758.6052
504.0549, 753.1827
504.5370, 755.4379
505.0192, 760.9143
505.5013, 766.0903
505.9834, 771.4523
506.4655, 773.9976
506.9476, 771.7640
507.4297, 767.7076
507.9119, 771.4232
508.3940, 783.4584
508.8761, 793.4504
509.3582, 795.0780
509.8403, 790.2178
510.3224, 783.5255
510.8046, 774.8462
511.2867, 767.8959
511.7688, 767.1122
512.2509, 770.4304
512.7330, 773.9777
513.2151, 776.7158
513.6973, 779.0618
514.1794, 780.9612
514.6615, 782.6501
515.1436, 784.8906
515.6257, 793.6559
516.1078, 798.7505
516.5900, 791.6136
517.0721, 766.6653
517.5542, 749.6439
518.0363, 749.3250
518.5184, 756.6223
519.0005, 762.3669
519.4827, 765.2498
519.9648, 768.6736
520.4469, 774.1588
520.9290, 780.3845
521.4111, 781.2864
521.8932, 774.8489
522.3754, 768.6199
522.8575, 766.6063
523.3396, 768.7960
523.8217, 771.5095
524.3038, 774.9603
524.7859, 778.0991
525.2681, 779.0820
525.7502, 778.5975
526.2323, 779.8133
526.7144, 784.9600
527.1965, 790.4744
527.6786, 791.0244
528.1608, 787.6553
528.6429, 784.3165
529.1250, 783.5731
529.6071, 783.6363
530.0892, 782.8238
530.5714, 780.7201
531.0535, 779.5331
531.5356, 782.0142
532.0176, 785.0270
532.4998, 785.4783
532.9819, 778.8530
533.4640, 774.2635
533.9461, 773.3359
534.4282, 775.3819
534.9103, 778.3629
535.3925, 783.5820
535.8746, 787.6940
536.3567, 788.4150
536.8388, 785.0895
537.3209, 788.0862
537.8030, 800.4989
538.2852, 811.1654
538.7673, 803.6293
539.2494, 779.6736
539.7315, 767.6006
540.2136, 776.3646
540.6957, 794.0441
541.1779, 803.3749
541.6600, 805.1477
542.1421, 802.7657
542.6242, 794.1575
543.1063, 784.5724
543.5884, 779.0295
544.0706, 777.8062
544.5527, 780.6276
545.0348, 794.0303
545.5169, 807.9729
545.9990, 813.0741
546.4811, 798.5607
546.9633, 786.9958
547.4454, 784.1880
547.9275, 787.5917
548.4096, 791.1624
548.8917, 795.6618
549.3738, 798.9996
549.8560, 799.9634
550.3381, 798.5363
550.8202, 800.4709
551.3023, 808.2122
551.7844, 813.7742
552.2665, 809.1385
552.7487, 794.3551
553.2308, 783.0163
553.7129, 776.5721
554.1950, 773.7062
554.6771, 773.3553
555.1592, 775.1628
555.6414, 777.5663
556.1235, 778.8792
556.6056, 781.1190
557.0877, 788.0859
557.5698, 798.8951
558.0519, 807.9357
558.5341, 812.9318
559.0162, 814.2733
559.4983, 811.5688
559.9804, 803.3775
560.4625, 795.5622
560.9446, 786.5197
561.4268, 779.8446
561.9089, 780.1183
562.3910, 796.8076
562.8731, 807.8112
563.3552, 808.2827
563.8373, 800.7516
564.3195, 795.4836
564.8016, 791.8327
565.2837, 792.3595
565.7658, 801.0580
566.2479, 817.5323
566.7300, 825.4551
567.2122, 823.7900
567.6943, 818.8016
568.1764, 816.2218
568.6585, 815.5224
569.1406, 815.2103
569.6227, 814.8851
570.1049, 814.8929
570.5870, 815.8360
571.0691, 817.4040
571.5512, 818.8792
572.0333, 819.7822
572.5154, 820.6016
572.9976, 822.6367
573.4797, 825.8966
573.9618, 825.6760
574.4439, 813.1680
574.9260, 802.2592
575.4081, 802.3932
575.8903, 823.4902
576.3724, 836.9667
576.8545, 841.4676
577.3366, 839.4521
577.8187, 832.3091
578.3008, 817.4393
578.7830, 810.5104
579.2651, 819.0740
579.7472, 836.3867
580.2293, 840.4214
580.7114, 831.5605
581.1935, 821.0284
581.6757, 814.2291
582.1578, 811.3170
582.6399, 814.7383
583.1220, 825.1418
583.6041, 833.1970
584.0862, 828.6451
584.5684, 818.8915
585.0505, 812.7253
585.5326, 814.4720
586.0147, 817.6302
586.4968, 820.8880
586.9789, 823.9704
587.4611, 826.3041
587.9432, 824.4333
588.4253, 825.7302
588.9074, 834.6638
589.3895, 851.0132
589.8716, 855.5153
590.3538, 842.5197
590.8359, 829.7408
591.3180, 831.5382
591.8001, 847.9357
592.2822, 857.0356
592.7643, 856.4970
593.2465, 852.1425
593.7286, 849.8038
594.2107, 849.6094
594.6928, 852.4800
595.1749, 862.6065
595.6570, 871.2830
596.1392, 868.4725
596.6213, 856.6019
597.1034, 843.8572
597.5854, 827.6650
598.0676, 816.8043
598.5497, 819.2888
599.0318, 837.5056
599.5139, 850.3464
599.9960, 849.1188
600.4781, 845.3478
600.9603, 846.9656
601.4424, 859.3810
601.9245, 864.8979
602.4066, 860.8826
602.8887, 851.9397
603.3708, 844.3453
603.8530, 837.9847
604.3351, 835.7860
604.8172, 840.4634
605.2993, 848.4992
605.7814, 851.6900
606.2635, 850.4295
606.7457, 847.6783
607.2278, 844.5060
607.7099, 841.3116
608.1920, 838.2147
608.6741, 835.1199
609.1563, 833.6524
609.6384, 835.8426
610.1205, 839.4380
610.6026, 842.4702
611.0847, 844.7385
611.5668, 846.2129
612.0490, 846.4135
612.5311, 845.9692
613.0132, 845.7177
613.4953, 845.0731
613.9774, 846.1203
614.4595, 850.7025
614.9417, 857.2828
615.4238, 855.9684
615.9059, 845.6373
616.3880, 838.3464
616.8701, 844.9724
617.3522, 860.4738
617.8344, 869.5261
618.3165, 871.3917
618.7986, 870.1798
619.2807, 867.6790
619.7628, 864.7903
620.2449, 862.7468
620.7271, 862.2414
621.2092, 861.8635
621.6913, 860.7780
622.1734, 859.4543
622.6555, 858.6796
