##NAMES=Calcite
##RRUFFID=R050128
##IDEAL CHEMISTRY=CaCO_3_
##LOCALITY=Tie Siding, Albany County, Wyoming, USA
##OWNER=RRUFF
##SOURCE=Dave Bunk Minerals
##DESCRIPTION=Pseudomorph after aragonite, not single crystal. Trace of aragonite still present.
##STATUS=The identification of this mineral has been confirmed by X-ray diffraction and chemical analysis
##URL=rruff.info/R050128
##MEASURED CHEMISTRY=Ca_1.00_CO_3_
93.88477, 278.0907
94.36688, 269.7516
94.84900, 271.1357
95.33112, 281.6993
95.81323, 298.8731
96.29535, 323.4118
96.77747, 353.9724
97.25958, 385.3520
97.74170, 416.9082
98.22382, 450.2664
98.70593, 487.5130
99.18805, 528.7791
99.67017, 574.3702
100.1523, 625.0283
100.6344, 680.6611
101.1165, 737.8896
101.5986, 796.2604
102.0807, 855.7601
102.5629, 913.0746
103.0450, 967.3011
103.5271, 1022.311
104.0092, 1082.110
104.4913, 1151.260
104.9734, 1214.331
105.4556, 1267.719
105.9377, 1310.328
106.4198, 1356.986
106.9019, 1408.520
107.3840, 1463.232
107.8661, 1518.026
108.3483, 1572.754
108.8304, 1628.601
109.3125, 1684.857
109.7946, 1738.620
110.2767, 1801.895
110.7588, 1878.155
111.2410, 1963.921
111.7231, 2053.424
112.2052, 2153.530
112.6873, 2252.661
113.1694, 2347.084
113.6515, 2434.706
114.1337, 2522.271
114.6158, 2614.909
115.0979, 2708.607
115.5800, 2793.204
116.0621, 2860.109
116.5442, 2920.377
117.0264, 2979.680
117.5085, 3042.892
117.9906, 3103.062
118.4727, 3156.736
118.9548, 3204.683
119.4369, 3251.833
119.9191, 3300.531
120.4012, 3350.069
120.8833, 3399.307
121.3654, 3441.080
121.8475, 3487.892
122.3296, 3550.223
122.8118, 3628.344
123.2939, 3708.786
123.7760, 3781.480
124.2581, 3850.165
124.7402, 3922.435
125.2223, 4002.489
125.7045, 4086.142
126.1866, 4167.974
126.6687, 4247.214
127.1508, 4327.300
127.6329, 4406.294
128.1150, 4487.024
128.5972, 4581.806
129.0793, 4702.988
129.5614, 4841.605
130.0435, 4975.882
130.5256, 5099.557
131.0077, 5227.994
131.4899, 5385.940
131.9720, 5572.106
132.4541, 5767.440
132.9362, 5933.008
133.4183, 6067.138
133.9004, 6217.656
134.3826, 6392.477
134.8647, 6581.944
135.3468, 6761.001
135.8289, 6930.768
136.3110, 7093.112
136.7931, 7248.824
137.2753, 7397.247
137.7574, 7542.891
138.2395, 7686.380
138.7216, 7827.779
139.2037, 7972.398
139.6858, 8116.989
140.1680, 8272.769
140.6501, 8452.643
141.1322, 8659.520
141.6143, 8884.080
142.0964, 9138.229
142.5785, 9425.438
143.0607, 9670.563
143.5428, 9885.637
144.0249, 10050.16
144.5070, 10128.19
144.9891, 10066.46
145.4712, 10022.12
145.9534, 10034.96
146.4355, 10105.79
146.9176, 10225.71
147.3997, 10388.41
147.8818, 10601.65
148.3639, 10887.09
148.8461, 11279.04
149.3282, 11701.25
149.8103, 12122.03
150.2924, 12531.64
150.7745, 12962.92
151.2566, 13448.99
151.7388, 13958.94
152.2209, 14397.11
152.7030, 14841.23
153.1851, 15156.59
153.6672, 15291.58
154.1493, 15254.40
154.6315, 15026.11
155.1136, 14551.40
155.5957, 13872.19
156.0778, 13139.24
156.5599, 12282.26
157.0420, 11427.87
157.5242, 10638.45
158.0063, 9916.521
158.4884, 9280.298
158.9705, 8729.807
159.4526, 8265.534
159.9347, 7875.047
160.4169, 7576.569
160.8990, 7338.145
161.3811, 7136.638
161.8632, 6989.626
162.3453, 6856.125
162.8274, 6724.607
163.3096, 6594.923
163.7917, 6468.563
164.2738, 6343.006
164.7559, 6222.208
165.2380, 6110.072
165.7201, 6003.584
166.2023, 5909.604
166.6844, 5831.824
167.1665, 5770.298
167.6486, 5718.837
168.1307, 5673.960
168.6128, 5637.134
169.0950, 5610.284
169.5771, 5599.318
170.0592, 5595.231
170.5413, 5590.908
171.0234, 5585.637
171.5055, 5584.162
171.9877, 5589.792
172.4698, 5601.463
172.9519, 5617.294
173.4340, 5632.922
173.9161, 5654.046
174.3982, 5688.771
174.8804, 5739.385
175.3625, 5793.456
175.8446, 5836.150
176.3267, 5872.999
176.8088, 5917.054
177.2909, 5978.712
177.7731, 6050.591
178.2552, 6123.563
178.7373, 6198.114
179.2194, 6270.661
179.7015, 6345.612
180.1836, 6418.975
180.6658, 6473.952
181.1479, 6503.021
181.6300, 6507.406
182.1121, 6485.440
182.5942, 6432.013
183.0763, 6366.021
183.5585, 6303.975
184.0406, 6247.010
184.5227, 6204.632
185.0048, 6180.581
185.4869, 6175.222
185.9690, 6189.415
186.4511, 6223.837
186.9333, 6276.857
187.4154, 6348.640
187.8975, 6439.260
188.3796, 6539.097
188.8617, 6651.326
189.3438, 6770.875
189.8260, 6876.505
190.3081, 6968.480
190.7902, 7042.163
191.2723, 7089.667
191.7544, 7111.118
192.2365, 7107.053
192.7187, 7069.926
193.2008, 7002.712
193.6829, 6933.082
194.1650, 6862.593
194.6471, 6794.028
195.1292, 6734.014
195.6114, 6682.084
196.0935, 6640.877
196.5756, 6612.444
197.0577, 6596.724
197.5398, 6595.189
198.0219, 6609.648
198.5041, 6637.802
198.9862, 6668.452
199.4683, 6699.794
199.9504, 6741.921
200.4325, 6804.501
200.9146, 6887.646
201.3968, 6980.478
201.8789, 7078.466
202.3610, 7183.979
202.8431, 7308.775
203.3252, 7451.427
203.8073, 7613.717
204.2895, 7804.499
204.7716, 8029.242
205.2537, 8245.951
205.7358, 8455.201
206.2179, 8651.693
206.7000, 8803.803
207.1822, 8919.197
207.6643, 8969.861
208.1464, 8918.708
208.6285, 8751.085
209.1106, 8548.646
209.5927, 8312.491
210.0749, 8048.552
210.5570, 7827.035
211.0391, 7650.724
211.5212, 7514.645
212.0033, 7416.601
212.4854, 7362.034
212.9676, 7326.479
213.4497, 7310.625
213.9318, 7313.085
214.4139, 7305.877
214.8960, 7292.833
215.3781, 7263.968
215.8603, 7208.327
216.3424, 7123.754
216.8245, 7019.864
217.3066, 6894.093
217.7887, 6746.151
218.2708, 6602.820
218.7530, 6461.364
219.2351, 6325.695
219.7172, 6203.066
220.1993, 6092.959
220.6814, 5992.818
221.1635, 5903.331
221.6457, 5823.771
222.1278, 5753.315
222.6099, 5691.883
223.0920, 5638.420
223.5741, 5593.876
224.0562, 5560.067
224.5384, 5529.321
225.0205, 5499.265
225.5026, 5470.033
225.9847, 5446.795
226.4668, 5432.809
226.9489, 5421.423
227.4311, 5406.285
227.9132, 5386.072
228.3953, 5364.171
228.8774, 5339.541
229.3595, 5311.688
229.8416, 5292.122
230.3238, 5283.204
230.8059, 5279.967
231.2880, 5278.014
231.7701, 5278.903
232.2522, 5277.833
232.7343, 5272.076
233.2165, 5261.173
233.6986, 5258.557
234.1807, 5268.361
234.6628, 5282.144
235.1449, 5291.363
235.6270, 5293.325
236.1092, 5295.665
236.5913, 5299.581
237.0734, 5305.032
237.5555, 5311.670
238.0376, 5319.470
238.5197, 5328.396
239.0019, 5338.392
239.4840, 5349.838
239.9661, 5361.513
240.4482, 5372.237
240.9303, 5382.063
241.4124, 5398.074
241.8946, 5425.412
242.3767, 5453.501
242.8588, 5471.713
243.3409, 5472.637
243.8230, 5478.029
244.3051, 5492.210
244.7873, 5514.931
245.2694, 5537.856
245.7515, 5562.662
246.2336, 5585.786
246.7157, 5604.052
247.1978, 5615.476
247.6800, 5626.160
248.1621, 5637.358
248.6442, 5648.966
249.1263, 5657.717
249.6084, 5663.591
250.0905, 5666.903
250.5726, 5666.996
251.0548, 5660.069
251.5369, 5658.521
252.0190, 5666.552
252.5011, 5682.580
252.9832, 5690.859
253.4653, 5685.617
253.9475, 5680.517
254.4296, 5685.362
254.9117, 5703.297
255.3938, 5724.068
255.8759, 5747.168
256.3581, 5772.302
256.8402, 5796.580
257.3223, 5819.078
257.8044, 5842.213
258.2865, 5868.342
258.7686, 5899.658
259.2508, 5927.089
259.7329, 5947.625
260.2150, 5963.624
260.6971, 5987.346
261.1792, 6021.927
261.6613, 6058.390
262.1435, 6092.606
262.6256, 6125.972
263.1077, 6151.190
263.5898, 6162.743
264.0719, 6167.314
264.5540, 6187.042
265.0362, 6227.244
265.5183, 6271.629
266.0004, 6311.436
266.4825, 6343.716
266.9646, 6380.570
267.4467, 6421.216
267.9289, 6467.311
268.4110, 6522.504
268.8931, 6590.854
269.3752, 6659.463
269.8573, 6721.513
270.3394, 6775.993
270.8216, 6831.999
271.3037, 6891.952
271.7858, 6951.518
272.2679, 6998.783
272.7500, 7031.874
273.2321, 7060.380
273.7143, 7089.142
274.1964, 7119.095
274.6785, 7140.317
275.1606, 7150.265
275.6427, 7155.063
276.1248, 7165.024
276.6070, 7181.202
277.0891, 7197.492
277.5712, 7208.431
278.0533, 7213.808
278.5354, 7235.798
279.0175, 7278.432
279.4996, 7328.775
279.9818, 7371.120
280.4639, 7405.530
280.9460, 7427.621
281.4281, 7435.370
281.9102, 7429.086
282.3923, 7412.657
282.8745, 7386.497
283.3566, 7348.737
283.8387, 7296.250
284.3208, 7228.612
284.8029, 7151.699
285.2850, 7065.331
285.7672, 6970.756
286.2493, 6871.046
286.7314, 6765.001
287.2135, 6661.186
287.6956, 6568.948
288.1777, 6487.372
288.6599, 6407.945
289.1420, 6325.994
289.6241, 6245.462
290.1062, 6178.920
290.5883, 6126.688
291.0704, 6080.370
291.5526, 6030.905
292.0347, 5979.711
292.5168, 5936.942
292.9989, 5905.841
293.4810, 5881.996
293.9631, 5855.772
294.4453, 5827.331
294.9274, 5801.571
295.4095, 5783.288
295.8916, 5770.708
296.3737, 5759.170
296.8558, 5748.610
297.3380, 5737.490
297.8201, 5722.567
298.3022, 5704.359
298.7843, 5686.768
299.2664, 5670.775
299.7485, 5657.087
300.2307, 5648.619
300.7128, 5646.684
301.1949, 5646.069
301.6770, 5640.210
302.1591, 5630.574
302.6412, 5621.946
303.1234, 5619.015
303.6055, 5617.907
304.0876, 5611.628
304.5697, 5599.137
305.0518, 5587.439
305.5339, 5583.999
306.0161, 5586.150
306.4982, 5588.446
306.9803, 5588.293
307.4624, 5587.054
307.9445, 5585.485
308.4266, 5583.525
308.9088, 5582.778
309.3909, 5584.539
309.8730, 5588.114
310.3551, 5592.522
310.8372, 5600.680
311.3193, 5607.082
311.8015, 5606.523
312.2836, 5599.650
312.7657, 5592.331
313.2478, 5586.103
313.7299, 5581.931
314.2120, 5580.813
314.6942, 5584.424
315.1763, 5589.626
315.6584, 5596.456
316.1405, 5604.091
316.6226, 5608.946
317.1047, 5605.408
317.5869, 5601.064
318.0690, 5601.563
318.5511, 5610.526
319.0332, 5619.694
319.5153, 5627.523
319.9974, 5633.330
320.4796, 5635.517
320.9617, 5631.458
321.4438, 5625.315
321.9259, 5618.674
322.4080, 5611.174
322.8901, 5604.840
323.3723, 5599.680
323.8544, 5596.104
324.3365, 5594.682
324.8186, 5597.729
325.3007, 5601.044
325.7828, 5603.670
326.2650, 5605.665
326.7471, 5606.706
327.2292, 5606.707
327.7113, 5605.877
328.1934, 5604.400
328.6755, 5595.447
329.1577, 5593.384
329.6398, 5605.028
330.1219, 5630.288
330.6040, 5643.960
331.0861, 5635.185
331.5682, 5623.107
332.0504, 5620.521
332.5325, 5635.814
333.0146, 5647.006
333.4967, 5651.237
333.9788, 5649.879
334.4609, 5649.475
334.9431, 5650.964
335.4252, 5652.060
335.9073, 5651.614
336.3894, 5649.354
336.8715, 5646.243
337.3536, 5641.257
337.8358, 5636.277
338.3179, 5636.228
338.8000, 5643.977
339.2821, 5649.145
339.7642, 5645.229
340.2463, 5630.532
340.7285, 5627.291
341.2106, 5638.397
341.6927, 5655.784
342.1748, 5669.390
342.6569, 5679.129
343.1390, 5686.046
343.6212, 5689.725
344.1033, 5690.543
344.5854, 5690.089
345.0675, 5687.638
345.5496, 5687.005
346.0317, 5694.679
346.5139, 5709.485
346.9960, 5717.173
347.4781, 5711.694
347.9602, 5700.179
348.4423, 5700.598
348.9244, 5712.560
349.4066, 5723.504
349.8887, 5722.155
350.3708, 5712.817
350.8529, 5707.924
351.3350, 5709.751
351.8171, 5715.186
352.2993, 5722.700
352.7814, 5731.141
353.2635, 5736.115
353.7456, 5731.497
354.2277, 5723.458
354.7098, 5720.908
355.1920, 5724.584
355.6741, 5730.991
356.1562, 5739.556
356.6383, 5748.301
357.1204, 5753.960
357.6025, 5749.972
358.0847, 5745.876
358.5668, 5751.659
359.0489, 5766.364
359.5310, 5777.965
360.0131, 5775.019
360.4952, 5767.276
360.9774, 5765.055
361.4595, 5778.289
361.9416, 5788.553
362.4237, 5785.415
362.9058, 5772.185
363.3879, 5759.226
363.8701, 5746.464
364.3522, 5737.901
364.8343, 5736.888
365.3164, 5747.405
365.7985, 5757.042
366.2806, 5764.689
366.7628, 5769.495
367.2449, 5770.003
367.7270, 5758.950
368.2091, 5750.405
368.6912, 5749.439
369.1733, 5757.821
369.6555, 5765.165
370.1376, 5771.979
370.6197, 5777.133
371.1018, 5779.530
371.5839, 5775.493
372.0660, 5773.750
372.5482, 5776.515
373.0303, 5782.893
373.5124, 5786.301
373.9945, 5783.979
374.4766, 5782.137
374.9587, 5785.247
375.4409, 5796.826
375.9230, 5802.818
376.4051, 5801.091
376.8872, 5794.685
377.3693, 5789.226
377.8514, 5783.809
378.3336, 5782.940
378.8157, 5790.757
379.2978, 5807.599
379.7799, 5818.430
380.2620, 5822.483
380.7441, 5823.256
381.2263, 5824.759
381.7084, 5826.949
382.1905, 5828.609
382.6726, 5829.175
383.1547, 5828.950
383.6368, 5827.832
384.1190, 5825.691
384.6011, 5825.748
385.0832, 5832.468
385.5653, 5843.413
386.0474, 5852.040
386.5295, 5856.881
387.0117, 5859.288
387.4938, 5859.966
387.9759, 5859.411
388.4580, 5859.471
388.9401, 5861.206
389.4222, 5864.149
389.9044, 5867.284
390.3865, 5870.398
390.8686, 5875.762
391.3507, 5889.219
391.8328, 5905.179
392.3149, 5915.308
392.7971, 5911.593
393.2792, 5905.144
393.7613, 5901.379
394.2434, 5900.199
394.7255, 5900.439
395.2076, 5904.322
395.6898, 5907.803
396.1719, 5907.587
396.6540, 5899.140
397.1361, 5892.980
397.6182, 5892.067
398.1003, 5895.165
398.5825, 5899.483
399.0646, 5907.019
399.5467, 5913.436
400.0288, 5916.817
400.5109, 5915.843
400.9930, 5915.971
401.4752, 5917.438
401.9573, 5919.890
402.4394, 5923.220
402.9215, 5929.516
403.4036, 5933.299
403.8857, 5932.831
404.3678, 5928.770
404.8499, 5926.808
405.3321, 5927.685
405.8142, 5929.468
406.2963, 5930.801
406.7784, 5931.417
407.2605, 5933.237
407.7426, 5936.364
408.2248, 5940.723
408.7069, 5947.358
409.1890, 5956.513
409.6711, 5962.893
410.1532, 5962.720
410.6353, 5957.316
411.1175, 5954.534
411.5996, 5954.567
412.0817, 5955.363
412.5638, 5953.123
413.0459, 5949.495
413.5280, 5951.267
414.0102, 5963.651
414.4923, 5978.020
414.9744, 5980.550
415.4565, 5973.226
415.9386, 5966.372
416.4207, 5966.889
416.9029, 5971.563
417.3850, 5976.741
417.8671, 5982.210
418.3492, 5987.385
418.8313, 5993.231
419.3134, 5998.338
419.7956, 6000.536
420.2777, 5993.017
420.7598, 5987.361
421.2419, 5991.397
421.7240, 6004.700
422.2061, 6016.128
422.6883, 6021.412
423.1704, 6023.636
423.6525, 6024.912
424.1346, 6023.354
424.6167, 6023.601
425.0988, 6027.818
425.5810, 6034.255
426.0631, 6038.620
426.5452, 6040.235
427.0273, 6040.301
427.5094, 6038.332
427.9915, 6033.193
428.4737, 6032.598
428.9558, 6039.560
429.4379, 6048.298
429.9200, 6053.206
430.4021, 6053.965
430.8842, 6052.110
431.3664, 6046.669
431.8485, 6039.245
432.3306, 6037.068
432.8127, 6041.472
433.2948, 6044.980
433.7769, 6040.542
434.2591, 6029.039
434.7412, 6025.103
435.2233, 6030.560
435.7054, 6039.759
436.1875, 6045.036
436.6696, 6047.086
437.1518, 6050.454
437.6339, 6058.348
438.1160, 6067.694
438.5981, 6073.018
439.0802, 6074.558
439.5623, 6075.233
440.0445, 6075.411
440.5266, 6076.714
441.0087, 6082.407
441.4908, 6095.866
441.9729, 6107.267
442.4550, 6109.239
442.9372, 6104.332
443.4193, 6097.444
443.9014, 6086.113
444.3835, 6077.187
444.8656, 6075.698
445.3477, 6082.221
445.8299, 6087.637
446.3120, 6088.027
446.7941, 6087.086
447.2762, 6087.671
447.7583, 6092.258
448.2404, 6095.777
448.7226, 6096.625
449.2047, 6095.964
449.6868, 6097.206
450.1689, 6100.876
450.6510, 6105.825
451.1331, 6112.190
451.6153, 6120.689
452.0974, 6126.881
452.5795, 6131.080
453.0616, 6132.603
453.5437, 6128.611
454.0258, 6117.355
454.5080, 6113.507
454.9901, 6122.444
455.4722, 6138.887
455.9543, 6148.458
456.4364, 6150.940
456.9185, 6149.287
457.4007, 6142.101
457.8828, 6131.957
458.3649, 6127.716
458.8470, 6130.412
459.3291, 6135.958
459.8112, 6141.095
460.2934, 6145.736
460.7755, 6149.671
461.2576, 6152.631
461.7397, 6155.216
462.2218, 6158.504
462.7039, 6162.245
463.1861, 6164.813
463.6682, 6164.943
464.1503, 6163.953
464.6324, 6162.573
465.1145, 6160.435
465.5966, 6159.559
466.0788, 6160.413
466.5609, 6162.983
467.0430, 6167.250
467.5251, 6177.460
468.0072, 6184.819
468.4893, 6186.013
468.9715, 6181.372
469.4536, 6177.903
469.9357, 6175.373
470.4178, 6174.135
470.8999, 6174.452
471.3820, 6176.634
471.8642, 6179.583
472.3463, 6183.466
472.8284, 6187.901
473.3105, 6192.460
473.7926, 6197.118
474.2747, 6201.948
474.7569, 6207.376
475.2390, 6212.894
475.7211, 6216.419
476.2032, 6217.898
476.6853, 6217.897
477.1674, 6215.379
477.6496, 6211.638
478.1317, 6210.844
478.6138, 6213.867
479.0959, 6218.565
479.5780, 6222.862
480.0602, 6227.040
480.5423, 6231.694
481.0244, 6239.746
481.5065, 6246.544
481.9886, 6246.900
482.4707, 6241.663
482.9529, 6237.678
483.4350, 6240.260
483.9171, 6244.151
484.3992, 6245.172
484.8813, 6240.687
485.3634, 6237.602
485.8456, 6238.040
486.3277, 6240.667
486.8098, 6243.504
487.2919, 6246.123
487.7740, 6249.166
488.2561, 6252.284
488.7383, 6255.556
489.2204, 6261.301
489.7025, 6272.083
490.1846, 6281.142
490.6667, 6283.656
491.1488, 6278.154
491.6310, 6273.517
492.1131, 6269.832
492.5952, 6267.545
493.0773, 6268.227
493.5594, 6271.868
494.0415, 6273.669
494.5237, 6270.742
495.0058, 6265.726
495.4879, 6265.422
495.9700, 6269.552
496.4521, 6273.839
496.9342, 6274.631
497.4164, 6273.837
497.8985, 6274.218
498.3806, 6276.167
498.8627, 6279.261
499.3448, 6284.022
499.8269, 6289.541
500.3091, 6294.485
500.7912, 6299.424
501.2733, 6302.608
501.7554, 6302.545
502.2375, 6299.722
502.7196, 6297.070
503.2018, 6292.373
503.6839, 6290.230
504.1660, 6293.956
504.6481, 6307.819
505.1302, 6315.878
505.6123, 6314.952
506.0945, 6310.506
506.5766, 6308.472
507.0587, 6309.496
507.5408, 6311.402
508.0229, 6314.446
508.5050, 6317.964
508.9872, 6319.640
509.4693, 6319.388
509.9514, 6318.282
510.4335, 6316.383
510.9156, 6314.031
511.3977, 6312.925
511.8799, 6313.142
512.3619, 6314.689
512.8441, 6318.605
513.3262, 6323.825
513.8083, 6327.577
514.2904, 6327.840
514.7725, 6328.538
515.2546, 6334.288
515.7368, 6343.375
516.2189, 6351.553
516.7010, 6356.814
517.1831, 6360.431
517.6652, 6363.750
518.1473, 6366.902
518.6295, 6366.329
519.1116, 6354.956
519.5937, 6343.131
520.0758, 6338.328
520.5579, 6348.542
521.0400, 6356.178
521.5222, 6361.444
522.0043, 6364.206
522.4864, 6363.280
522.9685, 6355.447
523.4506, 6351.912
523.9327, 6357.805
524.4149, 6371.315
524.8970, 6377.604
525.3791, 6375.400
525.8612, 6372.895
526.3433, 6378.089
526.8254, 6388.987
527.3076, 6393.306
527.7897, 6388.733
528.2718, 6382.452
528.7539, 6383.367
529.2360, 6388.940
529.7181, 6393.146
530.2003, 6392.413
530.6824, 6390.651
531.1645, 6391.438
531.6466, 6394.121
532.1287, 6396.423
532.6108, 6397.064
533.0930, 6397.225
533.5751, 6397.438
534.0572, 6397.676
534.5393, 6398.820
535.0214, 6402.801
535.5035, 6406.956
535.9857, 6408.743
536.4678, 6404.823
536.9499, 6404.070
537.4320, 6408.482
537.9141, 6415.782
538.3962, 6420.120
538.8784, 6420.386
539.3605, 6421.263
539.8426, 6425.245
540.3247, 6431.438
540.8068, 6432.212
541.2889, 6426.921
541.7711, 6422.804
542.2532, 6428.617
542.7353, 6440.530
543.2174, 6446.132
543.6995, 6442.685
544.1816, 6438.324
544.6638, 6442.882
545.1459, 6452.204
545.6280, 6458.583
546.1101, 6456.069
546.5922, 6452.318
547.0743, 6451.960
547.5565, 6454.104
548.0386, 6455.463
548.5207, 6450.758
549.0028, 6448.413
549.4849, 6454.125
549.9670, 6471.833
550.4492, 6482.129
550.9313, 6479.934
551.4134, 6474.212
551.8955, 6471.856
552.3776, 6473.757
552.8597, 6477.200
553.3419, 6483.160
553.8240, 6489.470
554.3061, 6491.011
554.7882, 6487.519
555.2703, 6484.183
555.7524, 6482.247
556.2346, 6482.292
556.7167, 6488.151
557.1988, 6499.248
557.6809, 6507.400
558.1630, 6503.625
558.6451, 6494.373
559.1273, 6488.166
559.6094, 6485.887
560.0915, 6487.149
560.5736, 6495.124
561.0557, 6505.089
561.5378, 6511.598
562.0200, 6511.034
562.5021, 6509.012
562.9842, 6506.411
563.4663, 6503.372
563.9484, 6500.161
564.4305, 6495.489
564.9127, 6492.259
565.3948, 6490.987
565.8769, 6491.686
566.3590, 6496.363
566.8411, 6507.404
567.3232, 6517.242
567.8054, 6519.868
568.2875, 6515.345
568.7696, 6511.481
569.2517, 6508.871
569.7338, 6506.998
570.2159, 6504.458
570.6981, 6502.006
571.1802, 6502.073
571.6623, 6506.623
572.1444, 6512.613
572.6265, 6517.233
573.1086, 6520.714
573.5908, 6523.819
574.0729, 6526.000
574.5550, 6528.680
575.0371, 6533.037
575.5192, 6539.158
576.0013, 6544.878
576.4835, 6551.021
576.9656, 6555.476
577.4477, 6556.412
577.9298, 6548.435
578.4119, 6547.771
578.8940, 6558.897
579.3762, 6573.224
579.8583, 6577.539
580.3404, 6569.353
580.8225, 6564.318
581.3046, 6566.679
581.7867, 6573.631
582.2689, 6577.108
582.7510, 6577.460
583.2331, 6580.352
583.7152, 6593.231
584.1973, 6609.100
584.6794, 6615.997
585.1616, 6613.835
585.6437, 6607.276
586.1258, 6592.975
586.6079, 6579.440
587.0900, 6575.933
587.5721, 6588.510
588.0543, 6599.202
588.5364, 6600.107
589.0185, 6596.513
589.5006, 6595.039
589.9827, 6600.792
