##NAMES=Calcite
##RRUFFID=R040070
##IDEAL CHEMISTRY=CaCO_3_
##LOCALITY=Pryor Mountain, Big Horn County, Montana, USA
##OWNER=RRUFF
##SOURCE=University of Arizona Mineral Museum
##DESCRIPTION=Orange scalenohedral crystals
##STATUS=The identification of this mineral has been confirmed by X-ray diffraction and chemical analysis
##URL=rruff.info/R040070
##MEASURED CHEMISTRY=(Ca_0.99_Mg_0.01_)CO_3_
131.7538, 436.1905
132.2359, 449.1364
132.7181, 459.5959
133.2002, 466.1228
133.6823, 473.6485
134.1644, 484.9463
134.6465, 495.2141
135.1286, 499.9954
135.6108, 498.8768
136.0929, 496.1537
136.5750, 498.8965
137.0571, 514.3145
137.5392, 522.3468
138.0213, 513.2993
138.5035, 502.5430
138.9856, 504.0244
139.4677, 521.8663
139.9498, 549.4868
140.4319, 574.2742
140.9140, 584.0486
141.3962, 609.3702
141.8783, 656.4366
142.3604, 717.1418
142.8425, 783.6653
143.3246, 852.9713
143.8067, 925.6179
144.2889, 1003.691
144.7710, 1083.629
145.2531, 1173.610
145.7352, 1271.086
146.2173, 1361.740
146.6994, 1443.434
147.1816, 1530.063
147.6637, 1621.334
148.1458, 1716.876
148.6279, 1808.736
149.1100, 1915.130
149.5921, 2047.543
150.0743, 2197.776
150.5564, 2350.371
151.0385, 2501.120
151.5206, 2648.625
152.0027, 2791.624
152.4848, 2945.978
152.9670, 3076.709
153.4491, 3184.731
153.9312, 3260.680
154.4133, 3276.641
154.8954, 3215.066
155.3775, 3082.853
155.8597, 2914.102
156.3418, 2694.215
156.8239, 2462.559
157.3060, 2225.655
157.7881, 1989.307
158.2702, 1773.429
158.7524, 1590.012
159.2345, 1437.927
159.7166, 1303.894
160.1987, 1189.125
160.6808, 1088.890
161.1629, 1001.368
161.6451, 926.4324
162.1272, 861.0876
162.6093, 805.6146
163.0914, 758.9919
163.5735, 716.1492
164.0556, 676.3173
164.5378, 641.0430
165.0199, 612.1339
165.5020, 589.3211
165.9841, 570.4518
166.4662, 555.8650
166.9483, 544.2890
167.4305, 533.0282
167.9126, 522.1685
168.3947, 511.2516
168.8768, 499.3217
169.3589, 486.2836
169.8410, 474.6664
170.3232, 466.1905
170.8053, 459.8744
171.2874, 454.1714
171.7695, 449.3904
172.2516, 444.5415
172.7337, 437.9592
173.2159, 429.3123
173.6980, 421.9559
174.1801, 419.0814
174.6622, 418.0558
175.1443, 415.0261
175.6264, 408.0378
176.1086, 400.0504
176.5907, 395.0031
177.0728, 393.4479
177.5549, 391.0895
178.0370, 385.5316
178.5191, 377.8949
179.0013, 368.9774
179.4834, 357.4888
179.9655, 346.5085
180.4476, 340.1928
180.9297, 339.0448
181.4118, 339.8562
181.8940, 343.8239
182.3761, 348.0867
182.8582, 349.0024
183.3403, 344.4782
183.8224, 337.6940
184.3046, 333.0469
184.7867, 331.0566
185.2688, 328.7970
185.7509, 323.6158
186.2330, 317.8611
186.7151, 314.2562
187.1973, 314.3252
187.6794, 315.7000
188.1615, 315.3708
188.6436, 313.3152
189.1257, 309.6903
189.6078, 301.9966
190.0900, 293.7288
190.5721, 288.5723
191.0542, 288.2610
191.5363, 290.3360
192.0184, 291.4868
192.5005, 291.4685
192.9827, 291.5927
193.4648, 292.9036
193.9469, 294.4353
194.4290, 295.1611
194.9111, 294.5852
195.3932, 293.5811
195.8754, 293.5013
196.3575, 294.6448
196.8396, 295.3502
197.3217, 294.3855
197.8038, 292.9227
198.2859, 291.7986
198.7681, 291.0321
199.2502, 291.1808
199.7323, 294.0976
200.2144, 300.8597
200.6965, 304.6839
201.1786, 298.1803
201.6608, 289.8113
202.1429, 287.6295
202.6250, 294.8557
203.1071, 303.8592
203.5892, 304.3839
204.0713, 294.9448
204.5535, 286.6733
205.0356, 284.0342
205.5177, 283.8516
205.9998, 283.5492
206.4819, 282.3958
206.9640, 282.1776
207.4462, 285.8318
207.9283, 293.9484
208.4104, 300.3907
208.8925, 302.5025
209.3746, 302.6252
209.8567, 302.5068
210.3388, 302.4564
210.8210, 301.8461
211.3031, 299.7566
211.7852, 296.1126
212.2673, 292.7104
212.7494, 290.1564
213.2315, 287.9567
213.7137, 285.3599
214.1958, 282.2220
214.6779, 280.0989
215.1600, 281.5128
215.6421, 286.3639
216.1242, 288.8074
216.6064, 285.4586
217.0885, 281.1066
217.5706, 279.4114
218.0527, 280.6043
218.5348, 283.3186
219.0169, 287.7436
219.4991, 293.5161
219.9812, 296.7368
220.4633, 296.0988
220.9454, 293.1351
221.4275, 287.7476
221.9096, 280.2417
222.3918, 275.7235
222.8739, 279.8274
223.3560, 290.6600
223.8381, 297.7391
224.3202, 298.2549
224.8023, 296.4815
225.2845, 295.9413
225.7666, 296.4517
226.2487, 296.8490
226.7308, 295.9103
227.2129, 294.3000
227.6950, 294.2954
228.1772, 296.7246
228.6593, 299.6803
229.1414, 301.4900
229.6235, 302.4609
230.1056, 303.7257
230.5877, 306.8087
231.0699, 310.3651
231.5520, 310.7789
232.0341, 306.3877
232.5162, 302.8008
232.9983, 305.6819
233.4804, 312.8431
233.9626, 319.1438
234.4447, 322.4720
234.9268, 324.1517
235.4089, 325.6847
235.8910, 326.8707
236.3731, 329.2488
236.8553, 335.4139
237.3374, 343.6138
237.8195, 349.7848
238.3016, 352.0576
238.7837, 352.5412
239.2658, 353.2265
239.7480, 354.1239
240.2301, 354.8747
240.7122, 353.9380
241.1943, 353.0812
241.6764, 356.6429
242.1585, 368.8910
242.6407, 381.8470
243.1228, 388.6091
243.6049, 389.8708
244.0870, 391.4599
244.5691, 395.8741
245.0512, 402.9242
245.5334, 411.6093
246.0155, 424.3304
246.4976, 435.0882
246.9797, 437.9670
247.4618, 435.6288
247.9439, 437.3432
248.4261, 447.7983
248.9082, 463.4228
249.3903, 476.2598
249.8724, 484.9399
250.3545, 494.2783
250.8366, 506.9525
251.3188, 521.2518
251.8009, 533.5471
252.2830, 542.1975
252.7651, 549.7590
253.2472, 560.6841
253.7293, 574.8895
254.2115, 591.6557
254.6936, 612.3240
255.1757, 635.0007
255.6578, 657.4612
256.1399, 679.0883
256.6220, 700.2144
257.1042, 720.8895
257.5863, 740.3534
258.0684, 762.3508
258.5505, 787.7745
259.0326, 815.1947
259.5147, 843.8029
259.9969, 873.4680
260.4790, 903.9055
260.9611, 935.3116
261.4432, 967.6286
261.9253, 1000.303
262.4074, 1028.246
262.8896, 1060.596
263.3717, 1102.903
263.8538, 1154.570
264.3359, 1212.085
264.8180, 1272.662
265.3001, 1336.567
265.7823, 1406.616
266.2644, 1487.371
266.7465, 1568.968
267.2286, 1642.782
267.7107, 1715.563
268.1928, 1798.928
268.6750, 1899.073
269.1571, 2016.540
269.6392, 2150.101
270.1213, 2311.393
270.6034, 2478.183
271.0855, 2641.971
271.5677, 2812.330
272.0498, 3001.825
272.5319, 3214.863
273.0140, 3446.601
273.4961, 3681.929
273.9782, 3906.740
274.4604, 4163.450
274.9425, 4477.950
275.4246, 4806.554
275.9067, 5113.007
276.3888, 5390.562
276.8709, 5656.909
277.3531, 5944.731
277.8352, 6271.503
278.3173, 6560.009
278.7994, 6816.465
279.2815, 7027.895
279.7636, 7195.347
280.2458, 7313.395
280.7279, 7366.988
281.2100, 7343.488
281.6921, 7242.602
282.1742, 7068.357
282.6563, 6791.422
283.1385, 6463.073
283.6206, 6095.967
284.1027, 5698.168
284.5848, 5283.622
285.0669, 4850.974
285.5490, 4409.624
286.0312, 4005.718
286.5133, 3641.132
286.9954, 3313.248
287.4775, 3027.302
287.9596, 2773.009
288.4417, 2538.915
288.9239, 2321.296
289.4060, 2122.997
289.8881, 1949.733
290.3702, 1802.919
290.8523, 1671.790
291.3344, 1555.915
291.8166, 1453.444
292.2987, 1363.146
292.7808, 1286.973
293.2629, 1217.017
293.7450, 1147.018
294.2271, 1078.113
294.7093, 1015.580
295.1914, 962.0541
295.6735, 914.5172
296.1556, 866.7222
296.6377, 817.6158
297.1198, 775.7482
297.6020, 748.6880
298.0841, 729.8837
298.5662, 707.2471
299.0483, 677.7371
299.5304, 648.2545
300.0125, 627.4009
300.4947, 615.4526
300.9768, 599.4758
301.4589, 573.3163
301.9410, 546.0063
302.4231, 525.8187
302.9052, 512.6779
303.3874, 500.6396
303.8695, 484.9044
304.3516, 465.8966
304.8337, 451.0226
305.3158, 441.6357
305.7979, 434.2846
306.2801, 429.2456
306.7622, 425.1209
307.2443, 418.6100
307.7264, 407.7237
308.2085, 394.5312
308.6906, 385.9169
309.1728, 389.9508
309.6549, 388.6388
310.1370, 376.6693
310.6191, 360.9511
311.1012, 347.9232
311.5833, 339.5778
312.0655, 334.7500
312.5476, 332.0489
313.0297, 332.8653
313.5118, 332.4852
313.9939, 330.9298
314.4760, 328.3627
314.9582, 324.2386
315.4403, 318.9598
315.9224, 314.0582
316.4045, 311.5486
316.8866, 311.4702
317.3687, 307.3827
317.8509, 293.3423
318.3330, 282.0898
318.8151, 280.0247
319.2972, 283.3312
319.7793, 285.3839
320.2614, 282.7758
320.7436, 276.6415
321.2257, 268.9882
321.7078, 258.4995
322.1899, 250.3710
322.6720, 248.0983
323.1541, 248.2946
323.6363, 247.9623
324.1184, 246.3132
324.6005, 244.6275
325.0826, 244.7894
325.5647, 246.5848
326.0468, 246.3005
326.5290, 241.1582
327.0111, 235.8552
327.4932, 236.9408
327.9753, 244.5341
328.4574, 248.6347
328.9395, 240.8006
329.4217, 227.6900
329.9038, 222.2774
330.3859, 227.1508
330.8680, 232.7443
331.3501, 229.3557
331.8322, 217.8985
332.3144, 211.4224
332.7965, 215.1033
333.2786, 220.5148
333.7607, 222.2775
334.2428, 220.6349
334.7249, 217.3575
335.2070, 213.0378
335.6891, 208.2319
336.1713, 205.5611
336.6534, 206.2958
337.1355, 207.2756
337.6176, 208.8179
338.0997, 209.9554
338.5818, 208.9908
339.0640, 205.4413
339.5461, 201.1344
340.0282, 199.1115
340.5103, 200.7804
340.9924, 201.6415
341.4745, 200.5161
341.9567, 199.6635
342.4388, 201.6042
342.9209, 205.5060
343.4030, 207.7407
343.8851, 204.6028
344.3672, 196.2831
344.8494, 190.2941
345.3315, 186.1621
345.8136, 185.3843
346.2957, 191.8379
346.7778, 200.8263
347.2599, 204.8190
347.7421, 199.4109
348.2242, 190.3454
348.7063, 189.4061
349.1884, 199.1410
349.6705, 205.9292
350.1526, 203.9069
350.6348, 198.4156
351.1169, 192.8709
351.5990, 187.5744
352.0811, 183.8446
352.5632, 183.7307
353.0453, 186.1943
353.5275, 186.9301
354.0096, 184.6392
354.4917, 182.0206
354.9738, 181.4483
355.4559, 182.6584
355.9380, 185.3613
356.4202, 192.5209
356.9023, 199.1175
357.3844, 199.3239
357.8665, 193.5650
358.3486, 187.3458
358.8307, 183.5883
359.3129, 182.0846
359.7950, 181.7717
360.2771, 184.1645
360.7592, 185.7398
361.2413, 185.2460
361.7234, 183.4808
362.2056, 181.3470
362.6877, 179.1505
363.1698, 177.1668
363.6519, 175.7766
364.1340, 174.7663
364.6161, 175.0177
365.0983, 179.2785
365.5804, 182.3205
366.0625, 179.3820
366.5446, 171.9658
367.0267, 165.9235
367.5089, 166.1714
367.9910, 171.9842
368.4731, 176.3268
368.9552, 179.6311
369.4373, 180.5677
369.9194, 176.9782
370.4016, 171.8103
370.8837, 168.5592
371.3658, 168.5658
371.8479, 170.3912
372.3300, 172.8282
372.8121, 176.0705
373.2943, 177.0708
373.7764, 173.1286
374.2585, 168.6374
374.7406, 167.7874
375.2227, 170.4344
375.7048, 172.8121
376.1870, 172.5464
376.6691, 170.8839
377.1512, 170.3249
377.6333, 171.2121
378.1154, 171.8447
378.5975, 170.8384
379.0797, 168.4289
379.5618, 166.4499
380.0439, 164.4119
380.5260, 163.3134
381.0081, 164.9382
381.4902, 167.8318
381.9724, 168.1813
382.4545, 164.1773
382.9366, 158.5199
383.4187, 156.6109
383.9008, 162.3680
384.3829, 164.9376
384.8651, 162.1706
385.3472, 157.8716
385.8293, 154.5649
386.3114, 152.4844
386.7935, 150.4774
387.2756, 147.0595
387.7578, 142.3690
388.2399, 142.0943
388.7220, 151.4435
389.2041, 158.8063
389.6862, 161.2569
390.1683, 160.1356
390.6505, 156.5219
391.1326, 150.4568
391.6147, 144.6118
392.0968, 143.5500
392.5789, 147.8338
393.0610, 151.4018
393.5432, 153.0766
394.0253, 153.5127
394.5074, 153.4667
394.9895, 152.9019
395.4716, 151.1855
395.9537, 146.4568
396.4359, 140.9183
396.9180, 138.5464
397.4001, 139.7181
397.8822, 141.9775
398.3643, 144.0262
398.8464, 145.8399
399.3286, 147.4387
399.8107, 149.6511
400.2928, 150.7373
400.7749, 148.8157
401.2570, 145.5853
401.7391, 144.4285
402.2213, 146.4775
402.7034, 149.2092
403.1855, 148.5466
403.6676, 142.4689
404.1497, 138.3843
404.6318, 136.5414
405.1140, 136.1564
405.5961, 137.8556
406.0782, 140.7393
406.5603, 142.6611
407.0424, 141.9837
407.5245, 139.3987
408.0067, 137.9220
408.4888, 137.9613
408.9709, 138.3546
409.4530, 139.1064
409.9351, 139.8835
410.4172, 140.3766
410.8994, 140.5207
411.3815, 140.4726
411.8636, 140.4551
412.3457, 140.3996
412.8278, 139.7608
413.3099, 138.0958
413.7921, 136.6515
414.2742, 137.1403
414.7563, 138.8770
415.2384, 139.4492
415.7205, 137.5563
416.2026, 135.0228
416.6848, 132.6047
417.1669, 130.6202
417.6490, 130.4741
418.1311, 133.1838
418.6132, 137.0897
419.0953, 138.3377
419.5775, 133.9286
420.0596, 132.0825
420.5417, 135.4480
421.0238, 139.7748
421.5059, 142.0828
421.9880, 141.9830
422.4702, 140.0947
422.9523, 136.4195
423.4344, 131.2589
423.9165, 129.8681
424.3986, 136.2106
424.8807, 140.8419
425.3629, 139.8997
425.8450, 136.8716
426.3271, 136.1540
426.8092, 139.2571
427.2913, 142.6790
427.7734, 141.5880
428.2556, 136.3669
428.7377, 133.6604
429.2198, 135.5577
429.7019, 138.5430
430.1840, 140.2317
430.6661, 140.6339
431.1483, 139.3316
431.6304, 133.8040
432.1125, 128.3336
432.5946, 127.6449
433.0767, 130.8383
433.5588, 133.1968
434.0410, 132.2892
434.5231, 129.5883
435.0052, 128.7861
435.4873, 132.3977
435.9694, 133.4923
436.4515, 128.5090
436.9337, 123.0999
437.4158, 122.5202
437.8979, 126.5724
438.3800, 131.1066
438.8621, 132.6472
439.3442, 131.4206
439.8264, 130.3146
440.3085, 129.0366
440.7906, 128.3559
441.2727, 129.1021
441.7548, 130.1550
442.2369, 130.0996
442.7191, 128.5049
443.2012, 126.8222
443.6833, 126.6478
444.1654, 127.7703
444.6475, 128.7990
445.1296, 129.7387
445.6118, 130.1499
446.0939, 129.0507
446.5760, 126.9477
447.0581, 125.8245
447.5402, 126.4700
448.0223, 127.7893
448.5045, 129.5365
448.9866, 131.3765
449.4687, 132.6840
449.9508, 133.2818
450.4329, 132.6386
450.9150, 129.4298
451.3972, 120.5118
451.8793, 116.1567
452.3614, 119.5227
452.8435, 124.4372
453.3256, 127.8006
453.8077, 129.4792
454.2899, 130.3519
454.7720, 130.8728
455.2541, 131.1943
455.7362, 132.2101
456.2183, 135.0537
456.7004, 135.6217
457.1826, 129.1530
457.6647, 122.2554
458.1468, 121.0407
458.6289, 126.0401
459.1110, 130.6496
459.5931, 129.4567
460.0753, 125.2488
460.5574, 124.5774
461.0395, 128.2768
461.5216, 130.9758
462.0037, 128.2922
462.4858, 121.7760
462.9680, 118.9844
463.4501, 123.1907
463.9322, 126.6993
464.4143, 127.3522
464.8964, 126.1369
465.3785, 124.0532
465.8607, 121.4133
466.3428, 118.1686
466.8249, 113.6402
467.3070, 107.2541
467.7891, 106.1215
468.2712, 116.6429
468.7534, 125.5164
469.2355, 128.9260
469.7176, 128.7471
470.1997, 127.1959
470.6818, 124.8284
471.1639, 123.1101
471.6461, 125.1345
472.1282, 130.4574
472.6103, 131.7689
473.0924, 125.8548
473.5745, 119.2256
474.0566, 119.1644
474.5388, 123.9485
475.0209, 126.2563
475.5030, 122.4934
475.9851, 117.8920
476.4672, 116.1541
476.9493, 116.4662
477.4315, 116.3744
477.9136, 114.8355
478.3957, 113.0739
478.8778, 113.2733
479.3599, 116.0896
479.8420, 119.3135
480.3242, 125.0777
480.8063, 129.1954
481.2884, 128.3858
481.7705, 124.2409
482.2526, 120.5521
482.7347, 119.5261
483.2169, 119.9903
483.6990, 119.3041
484.1811, 117.1034
484.6632, 115.9933
485.1453, 116.7608
485.6274, 118.7459
486.1096, 121.6674
486.5917, 125.4232
487.0738, 128.4447
487.5559, 131.3715
488.0380, 132.4960
488.5201, 128.1522
489.0023, 119.4384
489.4844, 113.0475
489.9665, 112.6906
490.4486, 116.1382
490.9307, 117.9608
491.4128, 117.1752
491.8950, 116.1636
492.3771, 114.2531
492.8592, 112.6640
493.3413, 112.1972
493.8234, 112.8277
494.3055, 114.2132
494.7877, 116.3573
495.2698, 118.7886
495.7519, 119.8415
496.2340, 119.0552
496.7161, 118.4600
497.1982, 119.0175
497.6804, 119.7179
498.1625, 119.6494
498.6446, 118.7624
499.1267, 117.6116
499.6088, 115.8427
500.0909, 114.2831
500.5730, 114.5859
501.0551, 116.5508
501.5373, 117.5455
502.0194, 115.7075
502.5015, 112.3254
502.9836, 111.3844
503.4657, 115.7127
503.9478, 118.5215
504.4300, 118.8387
504.9121, 118.2120
505.3942, 117.3483
505.8763, 116.5933
506.3584, 116.4974
506.8405, 117.6918
507.3227, 119.6627
507.8048, 120.3487
508.2869, 119.1818
508.7690, 118.6780
509.2511, 121.1665
509.7332, 123.5181
510.2154, 122.0891
510.6975, 116.6110
511.1796, 112.1006
511.6617, 111.5911
512.1439, 112.7679
512.6260, 112.4820
513.1081, 110.8408
513.5902, 110.2868
514.0723, 112.4875
514.5544, 116.1747
515.0366, 117.5635
515.5187, 113.2945
516.0008, 111.5917
516.4829, 115.4437
516.9650, 119.4033
517.4471, 119.0284
517.9293, 115.0916
518.4114, 111.5698
518.8935, 111.2451
519.3756, 112.9756
519.8577, 113.6932
520.3398, 113.1372
520.8220, 113.0032
521.3041, 114.0814
521.7862, 115.5165
522.2683, 116.5067
522.7504, 117.0508
523.2325, 117.0702
523.7147, 115.0856
524.1968, 113.6533
524.6789, 116.4272
525.1610, 122.2042
525.6431, 125.9714
526.1252, 125.2107
526.6074, 121.5878
527.0895, 118.5313
527.5716, 115.0309
528.0537, 114.2821
528.5358, 120.2432
529.0179, 124.8783
529.5001, 122.7095
529.9822, 115.9427
530.4643, 110.2248
530.9464, 108.4260
531.4285, 109.1145
531.9106, 111.0552
532.3928, 114.1613
532.8749, 114.9415
533.3570, 111.8871
533.8391, 107.4950
534.3212, 103.5893
534.8033, 100.2054
535.2855, 99.68427
535.7676, 105.5944
536.2497, 111.1023
536.7318, 111.6913
537.2139, 109.3502
537.6960, 107.6368
538.1782, 107.8486
538.6603, 109.4179
539.1424, 111.9686
539.6245, 115.9681
540.1066, 117.7251
540.5887, 114.5151
541.0709, 112.4284
541.5530, 115.9256
542.0351, 121.2019
542.5172, 121.9062
542.9993, 115.0541
543.4814, 108.2520
543.9636, 108.8638
544.4457, 114.2304
544.9278, 117.8772
545.4099, 118.8218
545.8920, 117.7885
546.3741, 114.7006
546.8563, 109.9974
547.3384, 107.9424
547.8205, 110.2969
548.3026, 112.7342
548.7847, 115.4743
549.2668, 117.3963
549.7490, 117.2625
550.2311, 115.0694
550.7132, 111.7986
551.1953, 107.5062
551.6774, 103.0241
552.1595, 102.5852
552.6417, 107.3871
553.1238, 111.2059
553.6059, 111.2355
554.0880, 109.5039
554.5701, 108.6198
555.0522, 108.6284
555.5344, 109.1141
556.0165, 110.1734
556.4986, 111.4885
556.9807, 112.9885
557.4628, 114.5131
557.9449, 115.7871
558.4271, 116.7273
558.9092, 116.9522
559.3913, 115.2205
559.8734, 109.6224
560.3555, 107.0998
560.8376, 111.4361
561.3198, 115.4444
561.8019, 116.0090
562.2840, 113.9408
562.7661, 111.0644
563.2482, 107.5122
563.7303, 104.5979
564.2125, 104.8384
564.6946, 106.9686
565.1767, 105.7771
565.6588, 99.78653
566.1409, 93.75275
566.6230, 91.97233
567.1052, 94.40671
567.5873, 98.02247
568.0694, 104.7348
568.5515, 110.0921
569.0336, 112.9545
569.5157, 114.0537
569.9979, 114.0478
570.4800, 113.1068
570.9621, 111.0771
571.4442, 106.8234
571.9263, 101.5024
572.4084, 100.4679
572.8906, 104.6872
573.3727, 108.0565
573.8548, 107.2533
574.3369, 105.1250
574.8190, 106.5319
575.3011, 112.1891
575.7833, 115.8557
576.2654, 114.9816
576.7475, 112.5643
577.2296, 110.2121
577.7117, 108.2594
578.1938, 106.9359
578.6760, 106.3366
579.1581, 106.6072
579.6402, 108.5776
580.1223, 113.1392
580.6044, 114.8044
581.0865, 110.7371
581.5686, 107.1358
582.0507, 108.2082
582.5328, 111.5613
583.0150, 112.3938
583.4971, 108.1609
583.9792, 104.8301
584.4613, 108.1309
584.9434, 114.4038
585.4255, 116.8001
585.9077, 114.5529
586.3898, 111.7500
586.8719, 111.5881
587.3540, 113.5084
587.8361, 114.3626
588.3182, 113.6178
588.8004, 112.6181
589.2825, 111.2525
589.7646, 109.8915
590.2467, 107.9714
590.7288, 106.1123
591.2109, 106.6892
591.6931, 113.2928
592.1752, 120.6527
592.6573, 120.0647
593.1394, 112.9280
593.6215, 107.7060
594.1036, 106.8427
594.5858, 108.6565
595.0679, 111.8283
595.5500, 116.7409
596.0321, 118.7617
596.5142, 114.3607
596.9963, 111.6304
597.4785, 115.1401
597.9606, 120.4142
598.4427, 121.8412
598.9248, 118.4527
599.4069, 114.2449
599.8890, 113.0229
600.3712, 113.9641
600.8533, 114.0446
601.3354, 113.1387
601.8175, 112.4415
602.2996, 112.2472
602.7817, 112.7696
603.2639, 114.9893
603.7460, 119.9144
604.2281, 122.0029
604.7102, 118.0673
605.1923, 113.6736
605.6744, 112.2121
606.1566, 112.7696
606.6387, 113.2692
607.1208, 112.8660
607.6029, 112.0787
608.0850, 111.8179
608.5671, 112.0474
609.0493, 110.8408
609.5314, 106.9958
610.0135, 104.6266
610.4956, 107.4039
610.9777, 112.8329
611.4598, 115.4337
611.9420, 114.2057
612.4241, 112.4824
612.9062, 110.4059
613.3883, 108.8643
613.8704, 109.0284
614.3525, 110.5309
614.8347, 112.1548
615.3168, 113.2935
615.7989, 113.6482
616.2810, 112.2152
616.7631, 108.5788
617.2452, 105.8520
617.7274, 103.7614
618.2095, 103.5242
618.6916, 107.6262
619.1737, 113.9816
619.6558, 117.8572
620.1379, 117.5520
620.6201, 116.3941
621.1022, 115.9001
621.5843, 115.4196
622.0664, 113.3486
622.5485, 110.0939
623.0306, 108.8034
623.5128, 112.1427
623.9949, 118.0632
624.4770, 119.5546
624.9591, 114.9967
625.4412, 111.4612
625.9233, 110.4077
626.4055, 110.2150
626.8876, 109.9270
627.3697, 109.5590
627.8518, 109.1711
628.3339, 108.6003
