##NAMES=Calcite
##RRUFFID=R050130
##IDEAL CHEMISTRY=CaCO_3_
##LOCALITY=Mexico
##OWNER=RRUFF
##SOURCE=Dave Bunk Minerals
##DESCRIPTION=Colorless cleavage rhomb
##STATUS=The identification of this mineral has been confirmed by X-ray diffraction and chemical analysis
##URL=rruff.info/R050130
##MEASURED CHEMISTRY=Ca_1.00_CO_3_; trace amounts of Si (?)
93.08527, 0.0000000E+00
93.56738, 229.0651
94.04950, 229.6015
94.53162, 231.4470
95.01373, 232.0127
95.49585, 232.4991
95.97797, 232.8063
96.46008, 232.6295
96.94220, 232.4001
97.42432, 231.8309
97.90643, 230.9957
98.38855, 229.8236
98.87067, 228.4522
99.35278, 226.9274
99.83490, 225.0188
100.3170, 222.0776
100.7991, 216.3470
101.2813, 211.3244
101.7634, 207.0778
102.2455, 203.5592
102.7276, 200.6158
103.2097, 198.1294
103.6918, 196.1641
104.1740, 195.4179
104.6561, 196.4873
105.1382, 197.7280
105.6203, 198.8246
106.1024, 199.6656
106.5845, 199.8485
107.0667, 198.8928
107.5488, 196.9447
108.0309, 195.0004
108.5130, 192.5273
108.9951, 190.3405
109.4772, 189.5650
109.9594, 190.5409
110.4415, 191.9260
110.9236, 193.1504
111.4057, 194.0939
111.8878, 194.4038
112.3699, 193.4983
112.8521, 191.5789
113.3342, 190.2502
113.8163, 189.7721
114.2984, 189.7055
114.7805, 189.7803
115.2626, 190.0508
115.7448, 190.7325
116.2269, 192.2232
116.7090, 194.9523
117.1911, 196.9329
117.6732, 198.1331
118.1553, 198.7456
118.6375, 198.3856
119.1196, 197.1832
119.6017, 196.0132
120.0838, 196.3214
120.5659, 199.1907
121.0480, 202.0909
121.5302, 205.6889
122.0123, 209.0696
122.4944, 211.0573
122.9765, 211.1107
123.4586, 209.9554
123.9407, 209.4242
124.4228, 209.4196
124.9050, 209.9261
125.3871, 210.8920
125.8692, 212.3462
126.3513, 214.4110
126.8334, 217.1276
127.3155, 220.6186
127.7977, 224.8381
128.2798, 229.9536
128.7619, 235.5396
129.2440, 240.9822
129.7261, 246.0765
130.2083, 252.2135
130.6904, 260.3576
131.1725, 269.7429
131.6546, 279.8812
132.1367, 290.4149
132.6188, 301.6899
133.1010, 314.7645
133.5831, 330.9987
134.0652, 346.8428
134.5473, 362.3498
135.0294, 376.7824
135.5115, 389.2284
135.9937, 398.9252
136.4758, 406.0227
136.9579, 412.4396
137.4400, 418.1431
137.9221, 423.1931
138.4042, 426.7441
138.8864, 429.5125
139.3685, 433.0250
139.8506, 438.6111
140.3327, 446.5060
140.8148, 455.2887
141.2969, 465.0631
141.7791, 475.4109
142.2612, 486.0712
142.7433, 497.0337
143.2254, 508.3035
143.7075, 519.6830
144.1896, 531.0215
144.6718, 544.3675
145.1539, 560.4739
145.6360, 578.4154
146.1181, 596.5349
146.6002, 614.1906
147.0823, 633.4674
147.5645, 657.2198
148.0466, 684.7296
148.5287, 714.7615
149.0108, 745.7302
149.4929, 778.5731
149.9750, 816.1911
150.4572, 858.1093
150.9393, 906.8928
151.4214, 964.1845
151.9035, 1029.650
152.3856, 1098.552
152.8677, 1173.817
153.3499, 1256.805
153.8320, 1320.552
154.3141, 1363.255
154.7962, 1381.193
155.2783, 1367.494
155.7604, 1322.166
156.2425, 1253.666
156.7247, 1170.026
157.2068, 1061.956
157.6889, 959.2126
158.1710, 859.1971
158.6531, 766.6096
159.1352, 685.0304
159.6174, 615.5850
160.0995, 556.2733
160.5816, 503.8371
161.0637, 459.3364
161.5458, 421.9132
162.0279, 393.5786
162.5101, 371.0191
162.9922, 351.4349
163.4743, 333.5931
163.9564, 317.5776
164.4385, 303.6132
164.9206, 292.3040
165.4028, 282.0175
165.8849, 272.4807
166.3670, 263.8147
166.8491, 256.1846
167.3312, 249.7746
167.8133, 244.4553
168.2955, 239.7717
168.7776, 236.0548
169.2597, 232.4055
169.7418, 228.2757
170.2239, 223.7854
170.7060, 219.5239
171.1882, 215.4912
171.6703, 212.0848
172.1524, 209.8678
172.6345, 209.3657
173.1166, 209.3228
173.5987, 208.6335
174.0809, 207.2450
174.5630, 205.6750
175.0451, 203.9875
175.5272, 202.3212
176.0093, 200.9009
176.4914, 199.9502
176.9736, 198.9964
177.4557, 197.0244
177.9378, 193.3327
178.4199, 190.3914
178.9020, 189.4219
179.3841, 189.3471
179.8663, 189.1409
180.3484, 188.3724
180.8305, 187.1192
181.3126, 185.5693
181.7947, 183.2352
182.2768, 181.3195
182.7590, 179.7977
183.2411, 178.8489
183.7232, 178.9360
184.2053, 180.4553
184.6874, 182.9654
185.1695, 183.6863
185.6517, 180.4649
186.1338, 177.5449
186.6159, 175.5083
187.0980, 174.2238
187.5801, 173.4333
188.0622, 172.9964
188.5444, 172.8880
189.0265, 172.7556
189.5086, 172.5253
189.9907, 172.3487
190.4728, 172.2409
190.9549, 172.2209
191.4371, 172.4300
191.9192, 173.1179
192.4013, 174.1357
192.8834, 173.8361
193.3655, 170.9844
193.8476, 168.1474
194.3298, 166.3409
194.8119, 165.6258
195.2940, 166.1728
195.7761, 168.7503
196.2582, 172.7954
196.7403, 174.8115
197.2225, 173.2699
197.7046, 170.7904
198.1867, 169.3375
198.6688, 168.9499
199.1509, 168.8392
199.6330, 168.5164
200.1152, 168.0929
200.5973, 167.8031
201.0794, 167.4454
201.5615, 167.3935
202.0436, 168.4323
202.5257, 170.8949
203.0079, 172.9314
203.4900, 173.1596
203.9721, 172.3529
204.4542, 171.3037
204.9363, 170.0595
205.4184, 168.9010
205.9006, 168.4039
206.3827, 168.7537
206.8648, 169.3766
207.3469, 170.4433
207.8290, 171.5026
208.3111, 171.8730
208.7933, 171.0153
209.2754, 169.4842
209.7575, 169.0051
210.2396, 170.4352
210.7217, 171.5850
211.2038, 171.5638
211.6860, 171.0087
212.1681, 170.7813
212.6502, 171.4225
213.1323, 172.6447
213.6144, 173.1213
214.0965, 172.1423
214.5787, 171.2447
215.0608, 170.4937
215.5429, 170.0440
216.0250, 170.1604
216.5071, 171.0400
216.9892, 172.5034
217.4714, 173.5340
217.9535, 173.5177
218.4356, 173.6924
218.9177, 174.4684
219.3998, 175.5126
219.8819, 176.2618
220.3641, 176.3629
220.8462, 175.9601
221.3283, 176.0122
221.8104, 176.9876
222.2925, 177.8652
222.7746, 178.5130
223.2568, 178.9137
223.7389, 178.9117
224.2210, 178.3181
224.7031, 177.3970
225.1852, 177.7169
225.6673, 180.3345
226.1495, 182.7416
226.6316, 184.3386
227.1137, 185.2001
227.5958, 185.3576
228.0779, 184.6049
228.5600, 183.4109
229.0422, 183.6294
229.5243, 185.9802
230.0064, 188.5282
230.4885, 190.4270
230.9706, 191.9199
231.4527, 193.8032
231.9349, 196.6230
232.4170, 199.9105
232.8991, 202.5307
233.3812, 204.4983
233.8633, 205.8968
234.3454, 206.1070
234.8276, 205.5504
235.3097, 206.1092
235.7918, 208.9503
236.2739, 212.9892
236.7560, 216.2414
237.2381, 218.5340
237.7203, 220.5700
238.2024, 222.5398
238.6845, 224.5193
239.1666, 227.1052
239.6487, 231.0434
240.1308, 235.1800
240.6130, 237.7434
241.0951, 238.3829
241.5772, 239.6783
242.0593, 244.1754
242.5414, 251.6286
243.0235, 258.3064
243.5057, 262.9298
243.9878, 266.6798
244.4699, 270.3468
244.9520, 274.0162
245.4341, 278.0423
245.9162, 282.7054
246.3984, 288.0046
246.8805, 293.7926
247.3626, 299.6755
247.8447, 306.4997
248.3268, 315.2302
248.8089, 325.6555
249.2911, 336.1280
249.7732, 344.6907
250.2553, 351.2190
250.7374, 359.2172
251.2195, 369.7116
251.7016, 381.1643
252.1838, 392.5572
252.6659, 404.0865
253.1480, 417.0019
253.6301, 432.4941
254.1122, 450.7680
254.5943, 469.3732
255.0765, 487.0316
255.5586, 506.4201
256.0407, 528.4877
256.5228, 553.2295
257.0049, 580.1905
257.4870, 609.1350
257.9691, 640.0721
258.4513, 672.4075
258.9334, 704.9910
259.4155, 740.5657
259.8976, 781.3326
260.3797, 825.8084
260.8618, 870.9220
261.3440, 914.2234
261.8261, 955.9978
262.3082, 999.5074
262.7903, 1049.479
263.2724, 1096.196
263.7545, 1136.795
264.2367, 1172.625
264.7188, 1206.073
265.2009, 1238.346
265.6830, 1269.716
266.1651, 1301.269
266.6472, 1333.072
267.1294, 1365.183
267.6115, 1397.255
268.0936, 1429.731
268.5757, 1463.160
269.0578, 1497.736
269.5399, 1533.688
270.0221, 1571.841
270.5042, 1611.997
270.9863, 1654.788
271.4684, 1701.096
271.9505, 1749.867
272.4326, 1799.324
272.9148, 1848.862
273.3969, 1899.660
273.8790, 1954.741
274.3611, 2015.457
274.8432, 2079.656
275.3253, 2146.719
275.8075, 2217.625
276.2896, 2295.077
276.7717, 2380.072
277.2538, 2469.143
277.7359, 2556.789
278.2180, 2648.173
278.7002, 2729.042
279.1823, 2803.405
279.6644, 2864.746
280.1465, 2910.813
280.6286, 2940.008
281.1107, 2945.560
281.5929, 2917.701
282.0750, 2848.242
282.5571, 2754.573
283.0392, 2628.590
283.5213, 2483.642
284.0034, 2325.339
284.4856, 2156.305
284.9677, 1984.787
285.4498, 1818.231
285.9319, 1656.414
286.4140, 1507.546
286.8961, 1371.135
287.3783, 1247.112
287.8604, 1137.187
288.3425, 1040.795
288.8246, 954.6357
289.3067, 877.3362
289.7888, 809.4061
290.2710, 749.1607
290.7531, 697.5232
291.2352, 651.6982
291.7173, 611.1152
292.1994, 575.3158
292.6815, 542.6015
293.1637, 511.9601
293.6458, 483.6436
294.1279, 458.5587
294.6100, 437.6325
295.0921, 418.5701
295.5742, 400.4551
296.0564, 383.4530
296.5385, 368.2056
297.0206, 355.1565
297.5027, 343.8052
297.9848, 332.5060
298.4669, 320.7656
298.9491, 309.8582
299.4312, 300.3062
299.9133, 291.7697
300.3954, 283.6343
300.8775, 275.6579
301.3596, 267.9434
301.8418, 260.7288
302.3239, 253.7566
302.8060, 247.6599
303.2881, 242.8739
303.7702, 238.9436
304.2523, 235.5207
304.7345, 232.6132
305.2166, 229.4883
305.6987, 224.8837
306.1808, 218.5930
306.6629, 213.5186
307.1451, 210.9946
307.6272, 209.3611
308.1093, 206.9881
308.5914, 203.6646
309.0735, 199.8666
309.5556, 195.7658
310.0378, 191.4453
310.5199, 187.8920
311.0020, 185.6148
311.4841, 183.7922
311.9662, 181.8216
312.4483, 179.6955
312.9305, 177.6799
313.4126, 175.9812
313.8947, 174.5174
314.3768, 172.8303
314.8589, 170.9683
315.3410, 168.8597
315.8232, 166.1304
316.3053, 163.0326
316.7874, 160.5051
317.2695, 159.0486
317.7516, 158.3496
318.2337, 157.6268
318.7159, 156.8295
319.1980, 156.1139
319.6801, 155.7280
320.1622, 155.4422
320.6443, 154.7805
321.1264, 153.5716
321.6086, 152.0237
322.0907, 150.3555
322.5728, 148.4907
323.0549, 146.9659
323.5370, 146.1902
324.0191, 145.6953
324.5013, 144.9005
324.9834, 143.6944
325.4655, 142.2945
325.9476, 140.8273
326.4297, 139.3071
326.9118, 138.0249
327.3940, 137.4258
327.8761, 136.7926
328.3582, 135.1306
328.8403, 132.5544
329.3224, 130.6839
329.8045, 131.0025
330.2867, 133.0748
330.7688, 133.8086
331.2509, 132.3423
331.7330, 130.4597
332.2151, 128.7256
332.6972, 127.2499
333.1794, 126.4516
333.6615, 126.7138
334.1436, 127.5356
334.6257, 127.5190
335.1078, 126.4292
335.5899, 125.1882
336.0721, 123.7886
336.5542, 122.4680
337.0363, 121.6234
337.5184, 121.3719
338.0005, 121.6145
338.4826, 122.4316
338.9648, 124.1688
339.4469, 124.9071
339.9290, 123.5200
340.4111, 121.5495
340.8932, 120.6848
341.3753, 121.1154
341.8575, 121.5496
342.3396, 120.6626
342.8217, 118.3058
343.3038, 116.8149
343.7859, 116.3675
344.2680, 116.5840
344.7502, 117.7257
345.2323, 119.4676
345.7144, 120.7194
346.1965, 120.7580
346.6786, 119.7650
347.1607, 118.7730
347.6429, 117.4740
348.1250, 116.5246
348.6071, 116.2321
349.0892, 116.3830
349.5713, 116.7417
350.0534, 117.2499
350.5356, 117.6425
351.0177, 117.3268
351.4998, 115.6274
351.9819, 114.5087
352.4640, 114.3640
352.9461, 114.6756
353.4283, 115.0609
353.9104, 115.4146
354.3925, 115.6885
354.8746, 115.8498
355.3567, 115.9260
355.8388, 115.6552
356.3210, 114.5854
356.8031, 113.6161
357.2852, 113.4244
357.7673, 113.8013
358.2494, 113.9353
358.7315, 113.1736
359.2137, 111.6744
359.6958, 111.1185
360.1779, 112.6549
360.6600, 113.7381
361.1421, 113.4510
361.6242, 112.5223
362.1064, 112.0647
362.5885, 112.5564
363.0706, 113.4789
363.5527, 113.6771
364.0348, 112.4782
364.5169, 111.5388
364.9991, 110.7380
365.4812, 110.2625
365.9633, 110.4048
366.4454, 111.1243
366.9275, 111.9775
367.4096, 112.4611
367.8918, 112.4909
368.3739, 112.5923
368.8560, 113.4484
369.3381, 113.7080
369.8202, 112.2757
370.3023, 109.8106
370.7845, 107.8101
371.2666, 107.2945
371.7487, 108.0256
372.2308, 108.6585
372.7129, 109.2431
373.1950, 109.6367
373.6772, 109.7259
374.1593, 109.6642
374.6414, 109.6604
375.1235, 109.7826
375.6056, 109.8320
376.0877, 109.3325
376.5699, 107.8345
377.0520, 107.0866
377.5341, 108.2601
378.0162, 109.3564
378.4983, 109.0886
378.9804, 107.5328
379.4626, 105.7733
379.9447, 104.8456
380.4268, 104.7212
380.9089, 104.1694
381.3910, 102.7698
381.8731, 101.4690
382.3553, 100.4434
382.8374, 99.78614
383.3195, 99.71337
383.8016, 100.4833
384.2837, 101.6278
384.7658, 102.2081
385.2480, 102.1652
385.7301, 101.7431
386.2122, 100.9595
386.6943, 99.85069
387.1764, 98.10197
387.6585, 95.63725
388.1407, 93.66166
388.6228, 93.67788
389.1049, 95.51890
389.5870, 96.85081
390.0691, 97.22300
390.5512, 97.14590
391.0334, 97.00288
391.5155, 96.78200
391.9976, 96.43196
392.4797, 95.67117
392.9618, 94.84354
393.4439, 94.69935
393.9261, 95.37602
394.4082, 96.03250
394.8903, 96.36431
395.3724, 96.28751
395.8545, 95.58786
396.3366, 93.90930
396.8188, 92.21152
397.3009, 91.16917
397.7830, 90.71007
398.2651, 90.58778
398.7472, 90.92006
399.2293, 91.23078
399.7115, 90.65118
400.1936, 89.14411
400.6757, 87.96308
401.1578, 87.60001
401.6399, 87.70198
402.1220, 87.83411
402.6042, 87.94429
403.0863, 88.24024
403.5684, 89.03106
404.0505, 90.21948
404.5326, 90.78236
405.0147, 90.35729
405.4969, 89.69273
405.9790, 89.08408
406.4611, 88.51640
406.9432, 87.83849
407.4253, 86.91608
407.9074, 86.08481
408.3896, 86.16538
408.8717, 87.86324
409.3538, 89.13203
409.8359, 89.68867
410.3180, 89.85052
410.8001, 89.90469
411.2823, 89.88828
411.7644, 89.60619
412.2465, 88.76230
412.7286, 87.22152
413.2107, 86.62629
413.6928, 87.89536
414.1750, 88.98129
414.6571, 89.11741
415.1392, 88.59829
415.6213, 88.00063
416.1034, 87.62092
416.5855, 86.95692
417.0677, 86.23811
417.5498, 85.66134
418.0319, 84.74417
418.5140, 83.94308
418.9961, 83.39802
419.4782, 83.25675
419.9604, 83.50880
420.4425, 83.99683
420.9246, 84.67597
421.4067, 85.57767
421.8888, 85.96453
422.3709, 85.34961
422.8531, 84.77563
423.3352, 84.65340
423.8173, 84.79150
424.2994, 84.87099
424.7815, 84.74929
425.2636, 84.48478
425.7458, 84.04176
426.2279, 83.23855
426.7100, 83.06202
427.1921, 84.70222
427.6742, 86.42750
428.1563, 86.91118
428.6385, 86.07426
429.1206, 84.81145
429.6027, 83.27140
430.0848, 81.76363
430.5669, 81.68049
431.0490, 83.74214
431.5312, 85.65639
432.0133, 85.35424
432.4954, 83.73521
432.9775, 82.43520
433.4596, 81.94026
433.9417, 81.73756
434.4239, 81.36492
434.9060, 80.86636
435.3881, 80.49299
435.8702, 80.27917
436.3523, 80.32616
436.8344, 81.01846
437.3166, 82.54954
437.7987, 83.49738
438.2808, 83.01519
438.7629, 82.01512
439.2450, 81.69901
439.7271, 82.15421
440.2093, 82.32368
440.6914, 81.15679
441.1735, 78.77535
441.6556, 77.60824
442.1377, 78.15591
442.6198, 79.16143
443.1020, 80.83086
443.5841, 82.53065
444.0662, 83.09573
444.5483, 82.09001
445.0304, 80.40221
445.5125, 79.56236
445.9947, 79.84147
446.4768, 80.44176
446.9589, 82.31653
447.4410, 83.65543
447.9231, 83.04484
448.4052, 80.88363
448.8874, 78.61147
449.3695, 77.27007
449.8516, 76.72047
450.3337, 76.13718
450.8158, 75.19555
451.2979, 74.76450
451.7801, 75.44906
452.2622, 76.40687
452.7443, 76.78737
453.2264, 76.39307
453.7085, 75.77917
454.1906, 75.62639
454.6728, 75.95553
455.1549, 76.02045
455.6370, 75.48463
456.1191, 75.05181
456.6012, 75.20866
457.0833, 75.74232
457.5655, 76.18729
458.0476, 76.37279
458.5297, 76.34345
459.0118, 76.12883
459.4939, 75.72658
459.9760, 75.21796
460.4582, 74.42288
460.9403, 73.73797
461.4224, 73.81445
461.9045, 74.76693
462.3866, 75.43594
462.8687, 75.08724
463.3508, 74.26579
463.8329, 73.73044
464.3151, 73.57485
464.7972, 73.74297
465.2793, 74.35004
465.7614, 75.27566
466.2435, 75.59081
466.7256, 74.71017
467.2078, 73.92588
467.6899, 73.75427
468.1720, 73.97129
468.6541, 74.25107
469.1362, 74.48207
469.6183, 74.65504
470.1005, 74.76504
470.5826, 74.83872
471.0647, 74.73848
471.5468, 74.12727
472.0289, 73.68627
472.5110, 73.95191
472.9932, 74.65630
473.4753, 75.13533
473.9574, 74.97551
474.4395, 74.41222
474.9216, 74.18863
475.4037, 74.46998
475.8859, 74.77009
476.3680, 75.38511
476.8501, 75.73723
477.3322, 75.09522
477.8143, 73.59167
478.2964, 72.33679
478.7786, 72.62296
479.2607, 74.10315
479.7428, 74.39919
480.2249, 72.87566
480.7070, 71.54613
481.1891, 71.75914
481.6713, 72.59244
482.1534, 72.83557
482.6355, 72.05898
483.1176, 71.25227
483.5997, 71.33959
484.0818, 72.11220
484.5640, 72.82610
485.0461, 73.41325
485.5282, 73.64983
486.0103, 72.97958
486.4924, 71.55735
486.9745, 70.82887
487.4567, 71.44398
487.9388, 72.40853
488.4209, 73.34325
488.9030, 74.07991
489.3851, 74.12487
489.8672, 73.17924
490.3494, 71.69675
490.8315, 70.57738
491.3136, 69.93137
491.7957, 69.49952
492.2778, 69.53716
492.7599, 69.58645
493.2421, 69.14604
493.7242, 68.37415
494.2063, 67.93419
494.6884, 68.34911
495.1705, 69.42803
495.6526, 70.17524
496.1348, 70.59818
496.6169, 70.64000
497.0990, 69.70589
497.5811, 68.81840
498.0632, 69.11928
498.5453, 70.63854
499.0275, 72.07586
499.5096, 71.97714
499.9917, 70.52896
500.4738, 69.78816
500.9559, 70.21046
501.4380, 70.44309
501.9202, 69.18482
502.4023, 67.51987
502.8844, 67.05702
503.3665, 68.45115
503.8486, 70.21346
504.3307, 71.47484
504.8129, 72.15051
505.2950, 71.70029
505.7771, 69.74567
506.2592, 67.56641
506.7413, 66.37183
507.2234, 66.15537
507.7056, 66.34666
508.1877, 67.52253
508.6698, 68.50969
509.1519, 68.34129
509.6340, 67.47582
510.1161, 67.06745
510.5983, 67.60982
511.0804, 68.50157
511.5625, 68.69032
512.0446, 67.87899
512.5267, 67.07889
513.0089, 65.83310
513.4910, 65.01907
513.9731, 65.31113
514.4552, 66.41092
514.9373, 67.67709
515.4194, 68.78658
515.9016, 69.58126
516.3837, 69.50079
516.8658, 68.09587
517.3479, 67.04723
517.8300, 67.15063
518.3121, 67.27879
518.7943, 66.42159
519.2764, 64.80237
519.7585, 63.78674
520.2406, 64.81976
520.7227, 66.83389
521.2048, 67.28250
521.6870, 65.94174
522.1691, 64.86797
522.6512, 65.15453
523.1333, 66.11251
523.6154, 66.54053
524.0975, 66.31887
524.5797, 66.13242
525.0618, 66.31105
525.5439, 66.63030
526.0260, 66.92557
526.5081, 67.14059
526.9902, 66.93637
527.4724, 65.94296
527.9545, 64.37509
528.4366, 63.57539
528.9187, 64.35403
529.4008, 64.78831
529.8829, 64.08786
530.3651, 63.26281
530.8472, 63.46153
531.3293, 64.73341
531.8114, 66.10925
532.2935, 66.63618
532.7756, 66.35896
533.2578, 66.22073
533.7399, 66.31689
534.2220, 66.41143
534.7041, 66.65734
535.1862, 66.75813
535.6683, 66.20519
536.1505, 64.90849
536.6326, 63.78577
537.1147, 63.90626
537.5968, 64.98219
538.0789, 65.60583
538.5610, 65.52729
539.0432, 65.46632
539.5253, 66.18945
540.0074, 67.21708
540.4895, 67.40066
540.9716, 66.18018
541.4537, 64.92802
541.9359, 64.42247
542.4180, 64.34726
542.9001, 64.05704
543.3822, 63.42403
543.8643, 63.04147
544.3464, 63.61841
544.8286, 65.20444
545.3107, 65.92105
545.7928, 64.94849
546.2749, 64.21687
546.7570, 64.54330
547.2391, 65.22504
547.7213, 65.29938
548.2034, 64.54695
548.6855, 63.63397
549.1676, 63.43825
549.6497, 64.02933
550.1318, 64.12335
550.6140, 63.02511
551.0961, 62.43876
551.5782, 63.48417
552.0603, 65.17130
552.5424, 66.18898
553.0245, 66.14665
553.5067, 65.62463
553.9888, 64.89309
554.4709, 64.08447
554.9530, 63.77800
555.4351, 64.16135
555.9172, 64.63474
556.3994, 64.67640
556.8815, 64.38880
557.3636, 64.35818
557.8457, 65.04871
558.3278, 65.46828
558.8099, 64.81905
559.2921, 63.80294
559.7742, 63.67237
560.2563, 64.63599
560.7384, 65.49374
561.2205, 64.82013
561.7026, 62.50417
562.1848, 61.39650
562.6669, 62.60016
563.1490, 63.78539
563.6311, 64.60853
564.1132, 65.15274
564.5953, 65.50980
565.0775, 65.71458
565.5596, 65.80711
566.0417, 65.97816
566.5238, 66.16279
567.0059, 65.48521
567.4880, 63.39917
567.9702, 61.68739
568.4523, 61.55839
568.9344, 62.33057
569.4165, 63.20768
569.8986, 64.17549
570.3807, 64.95973
570.8629, 65.25462
571.3450, 65.30676
571.8271, 65.54436
572.3092, 66.02463
572.7913, 66.54770
573.2734, 66.99831
573.7556, 67.35839
574.2377, 67.50928
574.7198, 67.68604
575.2019, 67.36040
575.6840, 65.75818
576.1661, 64.08012
576.6483, 63.48868
577.1304, 64.03788
577.6125, 64.99846
578.0946, 65.82806
578.5767, 66.51713
579.0588, 67.02437
579.5410, 67.45604
580.0231, 67.45782
580.5052, 66.25969
580.9873, 65.03948
581.4694, 65.02889
581.9515, 66.21879
582.4337, 66.97447
582.9158, 65.83453
583.3979, 63.92598
583.8800, 62.99633
584.3621, 63.07802
584.8442, 63.79944
585.3264, 65.22502
585.8085, 66.84241
586.2906, 67.58937
586.7727, 67.27267
587.2548, 66.73586
587.7369, 65.58870
588.2191, 64.64563
588.7012, 64.59211
589.1833, 65.21974
589.6654, 65.97780
590.1475, 66.59402
590.6296, 66.92592
