##NAMES=Calcioancylite-(Ce)
##RRUFFID=R060205
##IDEAL CHEMISTRY=(Ce,Ca,Sr)(CO_3_)(OH,H_2_O)
##LOCALITY=Mont Saint-Hilaire, Rouville County, Quebec, Canada
##OWNER=RRUFF
##SOURCE=Royal Ontario Museum
##DESCRIPTION=Aggregate of coarse, poorly formed pink crystals, color is pale green under fluorescent lights
##STATUS=The identification of this mineral is confirmed by single-crystal X-ray diffraction and chemical analysis.
##URL=rruff.info/R060205
##MEASURED CHEMISTRY=(Ce_0.57_La_0.35_Nd_0.12_Pr_0.05_)_Σ=1.09_(Ca_0.44_Sr_0.36_Ba_0.04_)_Σ=0.84_(CO_3_)_1.97_(OH_0.83_F_0.17_)_Σ=1.00_·H_2_O
91.82715, 141.8812
92.30927, 141.2725
92.79138, 141.5337
93.27350, 141.4468
93.75562, 140.6935
94.23773, 139.3927
94.71985, 137.8446
95.20197, 136.3255
95.68408, 135.0053
96.16620, 133.8069
96.64832, 132.7372
97.13043, 131.8162
97.61255, 131.0577
98.09467, 130.5109
98.57678, 130.2673
99.05890, 129.6828
99.54102, 129.0012
100.0231, 128.2986
100.5052, 127.5202
100.9874, 126.5770
101.4695, 125.5659
101.9516, 125.1008
102.4337, 125.7817
102.9158, 126.4161
103.3979, 126.7490
103.8801, 126.8843
104.3622, 127.0562
104.8443, 127.4548
105.3264, 128.1081
105.8085, 128.6682
106.2906, 129.3003
106.7728, 129.7020
107.2549, 129.6500
107.7370, 129.1423
108.2191, 128.3887
108.7012, 127.5054
109.1833, 126.4626
109.6655, 125.7794
110.1476, 125.7889
110.6297, 126.1290
111.1118, 126.2555
111.5939, 126.0228
112.0760, 125.6203
112.5582, 125.0225
113.0403, 124.2587
113.5224, 124.0205
114.0045, 125.0747
114.4866, 127.3467
114.9687, 129.2510
115.4509, 131.0911
115.9330, 131.8872
116.4151, 130.5730
116.8972, 127.0654
117.3793, 122.9241
117.8614, 120.2307
118.3436, 119.6075
118.8257, 119.0187
119.3078, 118.0170
119.7899, 117.0400
120.2720, 116.5099
120.7541, 116.5869
121.2363, 117.0088
121.7184, 117.0236
122.2005, 115.9268
122.6826, 115.1632
123.1647, 115.0970
123.6468, 115.3776
124.1290, 115.4857
124.6111, 115.1044
125.0932, 114.3080
125.5753, 113.7317
126.0574, 113.4650
126.5395, 113.2649
127.0217, 113.0763
127.5038, 112.8845
127.9859, 112.6350
128.4680, 112.2417
128.9501, 111.7512
129.4323, 111.4120
129.9144, 111.4349
130.3965, 111.5050
130.8786, 111.2024
131.3607, 110.4162
131.8428, 109.7197
132.3250, 109.7468
132.8071, 110.1739
133.2892, 110.4367
133.7713, 110.0753
134.2534, 109.3298
134.7355, 109.0654
135.2176, 109.6088
135.6998, 110.2221
136.1819, 110.5297
136.6640, 110.6021
137.1461, 110.6281
137.6282, 110.7259
138.1103, 110.8902
138.5925, 111.1843
139.0746, 111.8090
139.5567, 112.4005
140.0388, 112.8218
140.5209, 113.0687
141.0030, 113.2201
141.4852, 113.3583
141.9673, 113.4632
142.4494, 113.6141
142.9315, 113.7899
143.4136, 114.0144
143.8957, 114.3246
144.3779, 114.7222
144.8600, 115.1522
145.3421, 115.5031
145.8242, 115.5168
146.3063, 115.9853
146.7884, 117.5517
147.2706, 119.3984
147.7527, 120.4518
148.2348, 120.2745
148.7169, 119.4087
149.1990, 118.8341
149.6811, 118.4092
150.1633, 118.4628
150.6454, 119.4782
151.1275, 121.1472
151.6096, 122.4592
152.0917, 122.9350
152.5738, 122.9474
153.0560, 123.1206
153.5381, 123.4607
154.0202, 123.9369
154.5023, 124.5651
154.9844, 125.3488
155.4665, 126.1353
155.9487, 126.8728
156.4308, 127.5780
156.9129, 128.2754
157.3950, 128.9796
157.8771, 129.6329
158.3592, 130.1122
158.8414, 130.2969
159.3235, 130.6145
159.8056, 131.1533
160.2877, 131.8544
160.7698, 132.7487
161.2519, 133.8666
161.7341, 135.0547
162.2162, 135.8317
162.6983, 135.7549
163.1804, 135.8445
163.6625, 136.1577
164.1446, 136.7322
164.6268, 137.6339
165.1089, 138.9185
165.5910, 140.5218
166.0731, 142.0699
166.5552, 143.6536
167.0373, 145.0878
167.5195, 146.2881
168.0016, 147.3132
168.4837, 148.2489
168.9658, 149.1171
169.4479, 149.9512
169.9300, 151.1027
170.4122, 152.6853
170.8943, 154.3979
171.3764, 156.3209
171.8585, 158.3378
172.3406, 159.9702
172.8227, 160.6953
173.3049, 160.6494
173.7870, 161.2256
174.2691, 163.1167
174.7512, 165.1506
175.2333, 166.2116
175.7154, 166.2342
176.1976, 166.2991
176.6797, 167.3186
177.1618, 168.9887
177.6439, 170.5663
178.1260, 171.8514
178.6081, 172.9789
179.0903, 174.1902
179.5724, 175.5461
180.0545, 176.7846
180.5366, 177.5956
181.0187, 178.1987
181.5008, 178.9359
181.9830, 179.9980
182.4651, 181.3003
182.9472, 182.6833
183.4293, 184.5485
183.9114, 185.7891
184.3935, 185.6316
184.8757, 184.6563
185.3578, 183.8606
185.8399, 183.9564
186.3220, 184.8448
186.8041, 185.4551
187.2862, 185.5928
187.7684, 185.6272
188.2505, 185.7648
188.7326, 185.8875
189.2147, 185.7212
189.6968, 184.9827
190.1789, 183.6334
190.6611, 182.7104
191.1432, 182.8662
191.6253, 182.8108
192.1074, 181.9296
192.5895, 180.4409
193.0716, 179.0002
193.5538, 178.2306
194.0359, 178.2680
194.5180, 177.7862
195.0001, 176.3407
195.4822, 174.9033
195.9643, 173.9230
196.4465, 173.3928
196.9286, 173.0521
197.4107, 172.6658
197.8928, 172.2172
198.3749, 171.9468
198.8570, 171.9809
199.3392, 172.0782
199.8213, 172.0552
200.3034, 171.9082
200.7855, 171.7923
201.2676, 171.8432
201.7497, 172.0802
202.2319, 172.4050
202.7140, 172.6000
203.1961, 173.0078
203.6782, 174.2518
204.1603, 176.4558
204.6424, 178.3786
205.1246, 178.5965
205.6067, 177.4690
206.0888, 176.6272
206.5709, 176.4965
207.0530, 176.7834
207.5351, 177.0784
208.0173, 177.3195
208.4994, 177.7134
208.9815, 178.5539
209.4636, 179.6731
209.9457, 180.7432
210.4278, 181.5972
210.9100, 182.3290
211.3921, 183.1436
211.8742, 184.0376
212.3563, 185.0242
212.8384, 186.1512
213.3205, 187.3617
213.8027, 188.5584
214.2848, 189.6721
214.7669, 190.7329
215.2490, 191.8444
215.7311, 193.0964
216.2132, 194.2559
216.6953, 195.1747
217.1775, 195.9533
217.6596, 196.7623
218.1417, 197.6923
218.6238, 198.7380
219.1059, 199.8771
219.5880, 201.2891
220.0702, 202.5594
220.5523, 203.4708
221.0344, 204.1767
221.5165, 204.9064
221.9986, 205.7773
222.4807, 206.8044
222.9629, 208.1444
223.4450, 210.5860
223.9271, 212.4818
224.4092, 213.3324
224.8913, 213.4206
225.3734, 213.1925
225.8556, 212.8996
226.3377, 212.5737
226.8198, 212.5813
227.3019, 213.0627
227.7840, 213.7460
228.2661, 214.8226
228.7483, 216.0475
229.2304, 217.0124
229.7125, 217.4504
230.1946, 217.4012
230.6767, 217.2850
231.1588, 216.8139
231.6410, 216.5893
232.1231, 216.9141
232.6052, 217.5907
233.0873, 218.2242
233.5694, 218.5649
234.0515, 218.6711
234.5337, 218.9697
235.0158, 219.7989
235.4979, 220.4199
235.9800, 220.4651
236.4621, 220.1357
236.9442, 219.8944
237.4264, 220.0219
237.9085, 220.4043
238.3906, 220.5069
238.8727, 220.0618
239.3548, 219.6972
239.8369, 219.7065
240.3191, 219.9647
240.8012, 220.1675
241.2833, 220.1631
241.7654, 220.0058
242.2475, 219.8602
242.7296, 219.7141
243.2118, 219.5938
243.6939, 219.5938
244.1760, 219.6436
244.6581, 219.4773
245.1402, 218.8581
245.6223, 218.1211
246.1045, 217.9817
246.5866, 218.6684
247.0687, 219.2538
247.5508, 219.1917
248.0329, 218.6265
248.5150, 218.0593
248.9972, 217.6131
249.4793, 217.2917
249.9614, 217.1804
250.4435, 217.3582
250.9256, 217.2666
251.4077, 216.3747
251.8899, 214.8816
252.3720, 213.6470
252.8541, 212.9552
253.3362, 212.5355
253.8183, 212.0280
254.3004, 211.4307
254.7826, 211.0013
255.2647, 211.0738
255.7468, 211.5156
256.2289, 211.6048
256.7110, 210.9685
257.1931, 210.2795
257.6753, 210.1722
258.1574, 210.5585
258.6395, 210.8737
259.1216, 210.5371
259.6037, 209.7348
260.0858, 209.5343
260.5680, 210.2576
261.0501, 211.3389
261.5322, 212.7344
262.0143, 214.2218
262.4964, 215.1399
262.9785, 214.6865
263.4607, 213.1552
263.9428, 212.3237
264.4249, 212.6776
264.9070, 213.0716
265.3891, 212.8394
265.8712, 212.2370
266.3534, 211.7852
266.8355, 211.8106
267.3176, 212.2261
267.7997, 212.6790
268.2818, 213.2272
268.7639, 213.7214
269.2461, 213.9589
269.7282, 214.1448
270.2103, 214.5565
270.6924, 215.3129
271.1745, 216.4227
271.6566, 218.0634
272.1388, 221.0995
272.6209, 223.1110
273.1030, 223.0784
273.5851, 222.0005
274.0672, 220.8766
274.5493, 220.0993
275.0315, 219.7477
275.5136, 220.1049
275.9957, 221.6595
276.4778, 223.0227
276.9599, 223.9047
277.4420, 224.5387
277.9242, 225.0941
278.4063, 225.6369
278.8884, 226.2078
279.3705, 226.9393
279.8526, 228.0666
280.3347, 228.8257
280.8169, 228.7848
281.2990, 228.6422
281.7811, 228.9531
282.2632, 229.8348
282.7453, 230.9561
283.2274, 231.8365
283.7096, 232.3859
284.1917, 232.9090
284.6738, 233.4996
285.1559, 234.0063
285.6380, 234.1613
286.1201, 234.0375
286.6023, 234.0925
287.0844, 234.9476
287.5665, 236.9089
288.0486, 238.4223
288.5307, 239.0808
289.0128, 239.6861
289.4950, 240.5966
289.9771, 241.7969
290.4592, 243.0746
290.9413, 244.2581
291.4234, 245.3486
291.9055, 246.2876
292.3877, 246.9992
292.8698, 247.6412
293.3519, 248.1168
293.8340, 248.5603
294.3161, 249.2614
294.7982, 250.4662
295.2804, 252.1167
295.7625, 253.3880
296.2446, 253.8384
296.7267, 254.3710
297.2088, 255.0804
297.6909, 255.9926
298.1731, 257.1703
298.6552, 258.6578
299.1373, 260.3410
299.6194, 261.7791
300.1015, 262.9084
300.5836, 263.8193
301.0658, 264.2963
301.5479, 264.6436
302.0300, 265.1951
302.5121, 266.0782
302.9942, 267.1657
303.4763, 268.2124
303.9585, 269.1717
304.4406, 270.1466
304.9227, 271.3365
305.4048, 272.4202
305.8869, 272.9737
306.3690, 272.9733
306.8512, 272.9521
307.3333, 273.6937
307.8154, 275.6201
308.2975, 277.2135
308.7796, 278.4298
309.2617, 279.4236
309.7439, 280.2139
310.2260, 280.8485
310.7081, 281.4438
311.1902, 282.1306
311.6723, 282.9627
312.1544, 283.5109
312.6366, 282.9496
313.1187, 282.9455
313.6008, 284.6833
314.0829, 287.5732
314.5650, 290.2028
315.0471, 291.5694
315.5293, 291.7195
316.0114, 291.2285
316.4935, 289.0360
316.9756, 287.3806
317.4577, 287.2237
317.9398, 287.7957
318.4220, 287.8848
318.9041, 286.8576
319.3862, 285.0949
319.8683, 283.7722
320.3504, 282.4414
320.8326, 282.2731
321.3147, 284.8767
321.7968, 287.8906
322.2789, 288.8400
322.7610, 286.9676
323.2431, 283.5896
323.7253, 280.9095
324.2074, 279.1122
324.6895, 277.7332
325.1716, 277.1779
325.6537, 276.6736
326.1358, 275.6556
326.6180, 274.0857
327.1001, 272.3148
327.5822, 270.6945
328.0643, 269.2225
328.5464, 267.9175
329.0285, 266.8549
329.5107, 265.8603
329.9928, 264.9924
330.4749, 264.1416
330.9570, 263.0686
331.4391, 261.5638
331.9212, 259.6664
332.4034, 257.9584
332.8855, 256.4486
333.3676, 255.1229
333.8497, 254.2506
334.3318, 253.5005
334.8139, 252.3794
335.2961, 250.6418
335.7782, 248.5010
336.2603, 246.6337
336.7424, 245.2934
337.2245, 243.8500
337.7066, 241.9944
338.1888, 240.1637
338.6708, 238.8383
339.1530, 238.1078
339.6351, 237.5925
340.1172, 236.7093
340.5993, 235.2920
341.0814, 233.9270
341.5635, 232.5620
342.0457, 231.2896
342.5278, 230.0867
343.0099, 229.0034
343.4920, 228.2176
343.9741, 228.0329
344.4562, 228.5249
344.9384, 228.2068
345.4205, 225.8957
345.9026, 223.8941
346.3847, 223.0386
346.8668, 222.9053
347.3489, 222.6859
347.8311, 221.8934
348.3132, 220.6522
348.7953, 219.4427
349.2774, 218.0602
349.7595, 217.0466
350.2416, 216.7142
350.7238, 216.6422
351.2059, 216.3913
351.6880, 215.8127
352.1701, 215.1432
352.6522, 214.8522
353.1343, 215.1846
353.6165, 215.1351
354.0986, 214.3121
354.5807, 213.3115
355.0628, 212.3492
355.5449, 211.5049
356.0270, 210.8890
356.5092, 210.6783
356.9913, 210.8897
357.4734, 211.0177
357.9555, 210.7463
358.4376, 210.7695
358.9197, 211.5774
359.4019, 212.8669
359.8840, 214.0757
360.3661, 215.0348
360.8482, 215.5724
361.3303, 215.0286
361.8124, 212.8829
362.2946, 210.8011
362.7767, 209.1457
363.2588, 207.9320
363.7409, 207.2933
364.2230, 207.3189
364.7051, 207.5975
365.1873, 207.5320
365.6694, 207.0523
366.1515, 206.8898
366.6336, 207.5559
367.1157, 208.3181
367.5978, 208.6732
368.0800, 208.6015
368.5621, 208.3086
369.0442, 207.8541
369.5263, 207.2784
370.0084, 206.7813
370.4905, 206.3922
370.9727, 206.0593
371.4548, 205.8722
371.9369, 205.7161
372.4190, 205.2986
372.9011, 204.3157
373.3832, 203.1395
373.8654, 202.4009
374.3475, 202.1697
374.8296, 201.8012
375.3117, 200.8568
375.7938, 199.6448
376.2759, 198.5830
376.7581, 197.6628
377.2402, 197.0129
377.7223, 196.9675
378.2044, 197.3431
378.6865, 197.3017
379.1686, 196.4976
379.6508, 195.3835
380.1329, 194.5362
380.6150, 193.9493
381.0971, 193.2901
381.5792, 192.3528
382.0613, 191.3174
382.5435, 190.4925
383.0256, 189.9211
383.5077, 189.2832
383.9898, 188.2027
384.4719, 186.7924
384.9540, 185.8068
385.4362, 185.5693
385.9183, 185.4940
386.4004, 185.3476
386.8825, 185.0931
387.3646, 184.6068
387.8467, 183.8098
388.3289, 182.7830
388.8110, 181.6915
389.2931, 180.3938
389.7752, 179.3231
390.2573, 178.5901
390.7394, 178.1209
391.2216, 177.9690
391.7037, 178.1206
392.1858, 178.1617
392.6679, 177.5398
393.1500, 176.0270
393.6321, 175.0642
394.1143, 175.2186
394.5964, 175.3559
395.0785, 174.6706
395.5606, 173.3968
396.0427, 172.3722
396.5248, 172.1691
397.0070, 172.5961
397.4891, 172.6097
397.9712, 171.9451
398.4533, 171.1691
398.9354, 170.1389
399.4175, 169.1169
399.8997, 168.4102
400.3818, 168.1035
400.8639, 167.9880
401.3460, 167.7463
401.8281, 167.3017
402.3102, 166.9452
402.7924, 166.6794
403.2745, 166.4823
403.7566, 166.3667
404.2387, 166.3133
404.7208, 166.2859
405.2029, 166.2701
405.6851, 166.2536
406.1672, 166.1534
406.6493, 166.0535
407.1314, 165.7263
407.6135, 164.8955
408.0956, 163.9346
408.5778, 163.2653
409.0599, 163.0412
409.5420, 163.0478
410.0241, 162.9794
410.5062, 162.8147
410.9883, 162.6941
411.4705, 162.7170
411.9526, 162.7227
412.4347, 162.6268
412.9168, 162.4314
413.3989, 162.1748
413.8810, 161.8228
414.3632, 161.4258
414.8453, 161.1844
415.3274, 161.1394
415.8095, 161.1510
416.2916, 161.1677
416.7737, 161.1878
417.2559, 161.2426
417.7380, 161.4229
418.2201, 161.4616
418.7022, 160.9393
419.1843, 159.9339
419.6664, 159.2066
420.1486, 159.0463
420.6307, 159.1804
421.1128, 159.0642
421.5949, 158.6700
422.0770, 159.0410
422.5591, 161.4010
423.0413, 164.3629
423.5234, 166.0980
424.0055, 166.4093
424.4876, 165.8143
424.9697, 164.3979
425.4518, 162.3338
425.9340, 160.8156
426.4161, 159.5462
426.8982, 159.1060
427.3803, 160.5432
427.8624, 162.9414
428.3445, 164.2641
428.8267, 163.6936
429.3088, 162.2043
429.7909, 161.4580
430.2730, 161.8845
430.7551, 162.1378
431.2372, 162.1700
431.7194, 162.0560
432.2015, 161.7426
432.6836, 161.3022
433.1657, 160.9754
433.6478, 160.9703
434.1299, 161.2596
434.6121, 161.4794
435.0942, 161.5575
435.5763, 161.6482
436.0584, 161.7704
436.5405, 161.9192
437.0226, 162.1247
437.5048, 162.3871
437.9869, 162.6051
438.4690, 162.5734
438.9511, 162.1492
439.4332, 161.9418
439.9153, 161.9094
440.3975, 162.1487
440.8796, 162.7954
441.3617, 163.7664
441.8438, 164.9049
442.3259, 166.2662
442.8080, 167.6072
443.2902, 167.9250
443.7723, 166.7144
444.2544, 165.7535
444.7365, 166.0117
445.2186, 166.6110
445.7007, 166.7183
446.1829, 166.1457
446.6650, 165.4990
447.1471, 165.2605
447.6292, 165.3948
448.1113, 165.7498
448.5934, 166.4006
449.0756, 167.0752
449.5577, 167.5892
450.0398, 167.9517
450.5219, 168.1479
451.0040, 168.0144
451.4861, 167.8262
451.9683, 167.8298
452.4504, 168.0145
452.9325, 168.3371
453.4146, 168.8542
453.8967, 169.4054
454.3788, 169.5752
454.8610, 169.2083
455.3431, 169.0340
455.8252, 169.2498
456.3073, 169.7227
456.7894, 170.4637
457.2715, 171.4122
457.7537, 172.1401
458.2358, 172.2017
458.7179, 171.5966
459.2000, 171.5139
459.6821, 172.4179
460.1642, 173.2190
460.6464, 173.6044
461.1285, 173.7088
461.6106, 173.7110
462.0927, 173.6831
462.5748, 173.6281
463.0569, 173.4996
463.5391, 173.0987
464.0212, 173.1796
464.5033, 174.3395
464.9854, 175.3912
465.4675, 175.6044
465.9496, 175.2326
466.4318, 175.0324
466.9139, 175.5485
467.3960, 176.5062
467.8781, 176.9806
468.3602, 176.7061
468.8423, 176.6487
469.3245, 177.3389
469.8066, 178.2028
470.2887, 178.7827
470.7708, 179.0151
471.2529, 179.1749
471.7350, 179.5194
472.2172, 179.9732
472.6993, 180.1638
473.1814, 179.9133
473.6635, 179.8290
474.1456, 180.5165
474.6277, 181.6816
475.1099, 182.6999
475.5920, 183.5735
476.0741, 184.1401
476.5562, 184.1021
477.0383, 183.6469
477.5204, 183.3044
478.0026, 183.2333
478.4847, 183.3902
478.9668, 183.7457
479.4489, 184.3432
479.9310, 184.9505
480.4131, 184.9452
480.8953, 185.4597
481.3774, 187.9414
481.8595, 191.7226
482.3416, 194.7414
482.8237, 195.8013
483.3058, 195.2007
483.7880, 193.9180
484.2701, 190.6417
484.7522, 188.6121
485.2343, 188.5914
485.7164, 189.3159
486.1985, 190.0501
486.6807, 190.5761
487.1628, 190.7831
487.6449, 190.4758
488.1270, 189.7126
488.6091, 189.3460
489.0912, 189.5621
489.5734, 189.8962
490.0555, 190.1643
490.5376, 190.4732
491.0197, 190.8425
491.5018, 191.2536
491.9839, 192.0795
492.4661, 194.3011
492.9482, 197.6269
493.4303, 199.2245
493.9124, 198.1574
494.3945, 196.3564
494.8766, 194.9625
495.3588, 194.0190
495.8409, 193.8287
496.3230, 195.1169
496.8051, 196.5748
497.2872, 197.0403
497.7693, 196.7329
498.2515, 196.4147
498.7336, 196.3243
499.2157, 196.4756
499.6978, 196.9606
500.1799, 197.9325
500.6620, 198.6487
501.1442, 198.9012
501.6263, 199.0219
502.1084, 199.2468
502.5905, 199.5523
503.0726, 199.7574
503.5547, 199.7269
504.0368, 199.6001
504.5190, 199.8797
505.0011, 201.0373
505.4832, 201.8570
505.9653, 202.2307
506.4474, 202.3148
506.9295, 202.0167
507.4117, 201.4757
507.8938, 201.1568
508.3759, 201.4678
508.8580, 202.3292
509.3401, 203.3521
509.8222, 204.8161
510.3044, 205.8207
510.7865, 205.6528
511.2686, 205.0799
511.7507, 204.8486
512.2328, 205.1103
512.7150, 205.4204
513.1971, 205.3586
513.6792, 205.0867
514.1613, 205.1173
514.6434, 205.5632
515.1255, 206.0691
515.6077, 206.3941
516.0898, 206.5587
516.5719, 206.6803
517.0540, 206.6572
517.5361, 206.7203
518.0182, 207.0608
518.5004, 207.5342
518.9825, 207.8818
519.4646, 208.0354
519.9467, 208.1249
520.4288, 208.2839
520.9109, 208.4931
521.3931, 208.9201
521.8752, 209.9365
522.3573, 210.7338
522.8394, 210.8769
523.3215, 210.6625
523.8036, 210.5851
524.2858, 210.8381
524.7679, 211.1405
525.2500, 210.8994
525.7321, 209.8784
526.2142, 209.5229
526.6964, 210.5225
527.1785, 211.5674
527.6606, 212.0049
528.1427, 212.0237
528.6248, 212.0921
529.1069, 212.4382
529.5891, 212.8648
530.0712, 213.0884
530.5533, 213.1223
531.0354, 213.2104
531.5175, 213.4605
531.9996, 213.7244
532.4818, 213.8825
532.9639, 213.9413
533.4460, 213.7266
533.9281, 212.7736
534.4102, 211.8940
534.8923, 211.8394
535.3745, 212.4241
535.8566, 212.9833
536.3387, 213.2145
536.8208, 213.2045
537.3029, 213.1020
537.7850, 212.6861
538.2672, 212.6662
538.7493, 213.6063
539.2314, 214.4032
539.7135, 214.1943
540.1956, 213.3028
540.6777, 212.7002
541.1599, 213.0056
541.6420, 213.8168
542.1241, 214.0878
542.6062, 213.6481
543.0883, 213.2109
543.5704, 212.4799
544.0526, 212.1591
544.5347, 213.0164
545.0168, 214.8113
545.4989, 216.3366
545.9810, 217.1782
546.4631, 217.2603
546.9453, 215.9860
547.4274, 213.4079
547.9095, 211.6314
548.3916, 211.7145
548.8737, 212.7941
549.3558, 213.4856
549.8380, 213.8175
550.3201, 213.8143
550.8022, 213.1233
551.2843, 212.3701
551.7664, 212.1027
552.2485, 212.2527
552.7307, 212.4393
553.2128, 212.4455
553.6949, 212.3490
554.1770, 212.3905
554.6591, 212.8509
555.1412, 212.9305
555.6234, 212.2734
556.1055, 211.5779
556.5876, 211.3389
557.0697, 211.4459
557.5518, 211.4111
558.0339, 210.8327
558.5161, 210.0862
558.9982, 210.0324
559.4803, 210.7215
559.9624, 211.9106
560.4445, 214.5554
560.9266, 216.6416
561.4088, 215.8551
561.8909, 212.4620
562.3730, 209.6299
562.8551, 208.8423
563.3372, 208.9538
563.8193, 208.8894
564.3015, 208.6547
564.7836, 208.4989
565.2657, 208.5600
565.7478, 208.6680
566.2299, 208.4964
566.7120, 207.8877
567.1942, 207.3670
567.6763, 206.9592
568.1584, 206.6164
568.6405, 206.2682
569.1226, 205.9644
569.6047, 205.8461
570.0869, 205.9970
570.5690, 206.2588
571.0511, 206.3254
571.5332, 206.1972
572.0153, 205.8584
572.4974, 204.9988
572.9796, 204.2404
573.4617, 204.0215
573.9438, 204.1634
574.4259, 204.1857
574.9080, 203.8734
575.3901, 203.3936
575.8723, 202.7942
576.3544, 202.1453
576.8365, 201.9113
577.3186, 202.3264
577.8007, 202.8745
578.2828, 202.9734
578.7650, 202.5922
579.2471, 202.2049
579.7292, 201.7912
580.2113, 201.4054
580.6934, 201.0456
581.1755, 200.7368
581.6577, 200.5533
582.1398, 200.5106
582.6219, 200.4587
583.1040, 200.1645
583.5861, 199.5722
