##NAMES=Calcite
##RRUFFID=R050009
##IDEAL CHEMISTRY=CaCO_3_
##LOCALITY=Amparo mine, Rodeo, Durango, Mexico
##OWNER=RRUFF
##SOURCE=Eugene Schlepp
##DESCRIPTION=Colorless cleavage rhomb
##STATUS=The identification of this mineral has been confirmed by X-ray diffraction and chemical analysis
##URL=rruff.info/R050009
##MEASURED CHEMISTRY=Ca_1.00_CO_3_; trace amounts of Mn
91.61029, 6.361679
92.09241, 6.922725
92.57452, 7.709239
93.05664, 8.723609
93.53876, 9.735723
94.02087, 11.37968
94.50299, 12.43694
94.98511, 12.21340
95.46722, 10.97111
95.94934, 9.495970
96.43146, 8.485132
96.91357, 7.908284
97.39569, 8.044456
97.87781, 9.684891
98.35992, 11.25982
98.84204, 11.85257
99.32416, 11.41448
99.80627, 10.56507
100.2884, 10.05412
100.7705, 10.01337
101.2526, 10.03763
101.7347, 10.47519
102.2169, 10.77934
102.6990, 10.33607
103.1811, 9.021709
103.6632, 7.409944
104.1453, 6.409574
104.6274, 6.119944
105.1096, 6.216125
105.5917, 7.278417
106.0738, 8.545868
106.5559, 8.581852
107.0380, 6.617661
107.5201, 4.296434
108.0023, 5.472431
108.4844, 11.24992
108.9665, 15.58934
109.4486, 15.21036
109.9307, 11.68565
110.4128, 9.218709
110.8950, 9.495040
111.3771, 11.32074
111.8592, 12.48919
112.3413, 12.76806
112.8234, 13.12698
113.3055, 14.44515
113.7877, 16.58213
114.2698, 18.19610
114.7519, 18.56394
115.2340, 18.25006
115.7161, 17.92872
116.1982, 17.60846
116.6804, 17.42145
117.1625, 17.56614
117.6446, 18.08820
118.1267, 18.57771
118.6088, 18.50895
119.0909, 18.51074
119.5731, 19.28492
120.0552, 21.20991
120.5373, 23.41553
121.0194, 24.28444
121.5015, 22.98931
121.9836, 22.74813
122.4658, 25.10030
122.9479, 28.64339
123.4300, 32.14060
123.9121, 35.10629
124.3942, 37.78247
124.8763, 40.76339
125.3585, 44.43799
125.8406, 47.77819
126.3227, 50.77795
126.8048, 53.31362
127.2869, 54.97598
127.7690, 55.34757
128.2512, 55.12615
128.7333, 57.16824
129.2154, 63.04682
129.6975, 69.51599
130.1796, 77.26522
130.6617, 84.94518
131.1439, 90.24071
131.6260, 91.38366
132.1081, 89.32246
132.5902, 91.52934
133.0723, 103.4910
133.5544, 114.3370
134.0366, 121.5152
134.5187, 126.1489
135.0008, 130.5338
135.4829, 136.2541
135.9650, 143.1938
136.4471, 148.7612
136.9293, 151.1427
137.4114, 154.1241
137.8935, 158.0328
138.3756, 163.3858
138.8577, 171.3676
139.3398, 183.2082
139.8220, 198.9932
140.3041, 212.5925
140.7862, 220.8848
141.2683, 230.4313
141.7504, 244.4341
142.2325, 262.3226
142.7147, 281.1797
143.1968, 298.5111
143.6789, 314.3286
144.1610, 334.9234
144.6431, 361.6368
145.1252, 391.2394
145.6074, 421.7623
146.0895, 453.2975
146.5716, 487.0897
147.0537, 523.6415
147.5358, 563.5801
148.0179, 609.0001
148.5001, 659.8370
148.9822, 715.9280
149.4643, 775.9078
149.9464, 840.3732
150.4285, 913.3223
150.9106, 1000.995
151.3928, 1102.450
151.8749, 1202.918
152.3570, 1307.892
152.8391, 1407.645
153.3212, 1498.398
153.8033, 1580.040
154.2855, 1641.562
154.7676, 1675.524
155.2497, 1681.007
155.7318, 1654.178
156.2139, 1583.075
156.6960, 1484.624
157.1782, 1372.111
157.6603, 1244.052
158.1424, 1117.072
158.6245, 1002.241
159.1066, 898.6481
159.5887, 807.2769
160.0709, 729.8469
160.5530, 664.5305
161.0351, 611.7726
161.5172, 574.0418
161.9993, 540.5679
162.4814, 501.0664
162.9636, 460.3774
163.4457, 428.0153
163.9278, 412.6937
164.4099, 406.4474
164.8920, 394.1546
165.3741, 373.0385
165.8563, 353.8030
166.3384, 345.1150
166.8205, 342.5776
167.3026, 338.9877
167.7847, 329.7178
168.2668, 318.0779
168.7490, 311.8633
169.2311, 313.3192
169.7132, 315.1433
170.1953, 314.0185
170.6774, 310.6474
171.1595, 305.7639
171.6417, 298.7671
172.1238, 290.8581
172.6059, 284.9656
173.0880, 281.2126
173.5701, 279.4510
174.0522, 281.1630
174.5344, 284.2632
175.0165, 285.6620
175.4986, 283.5556
175.9807, 278.9783
176.4628, 274.5084
176.9449, 269.5763
177.4271, 265.9290
177.9092, 264.6248
178.3913, 264.6978
178.8734, 264.9142
179.3555, 264.7386
179.8376, 264.2556
180.3197, 263.9192
180.8019, 264.6974
181.2840, 263.7385
181.7661, 258.6882
182.2482, 252.1204
182.7303, 247.3526
183.2124, 246.2160
183.6946, 247.5229
184.1767, 247.9298
184.6588, 247.1046
185.1409, 245.8720
185.6230, 243.3612
186.1051, 241.0102
186.5873, 240.9153
187.0694, 244.4451
187.5515, 249.6682
188.0336, 251.1421
188.5157, 245.7919
188.9978, 241.9207
189.4800, 242.1693
189.9621, 244.2193
190.4442, 245.5293
190.9263, 244.8971
191.4084, 243.4489
191.8905, 244.2581
192.3727, 249.9149
192.8548, 253.1144
193.3369, 250.9145
193.8190, 246.9153
194.3011, 244.7582
194.7832, 245.9109
195.2654, 248.7221
195.7475, 249.5485
196.2296, 247.1157
196.7117, 245.0143
197.1938, 242.5923
197.6759, 241.2094
198.1581, 242.8996
198.6402, 248.2241
199.1223, 254.5610
199.6044, 256.5933
200.0865, 250.8950
200.5686, 247.7213
201.0508, 249.8457
201.5329, 253.2024
202.0150, 254.4871
202.4971, 252.8563
202.9792, 250.0910
203.4613, 249.2548
203.9435, 251.8785
204.4256, 252.9561
204.9077, 250.8461
205.3898, 248.3391
205.8719, 247.3757
206.3540, 248.3078
206.8362, 250.0994
207.3183, 251.3879
207.8004, 251.9855
208.2825, 252.5070
208.7646, 251.6857
209.2467, 251.7435
209.7289, 254.7128
210.2110, 260.3980
210.6931, 266.4832
211.1752, 270.1137
211.6573, 270.4009
212.1395, 271.4056
212.6216, 275.4095
213.1037, 278.1659
213.5858, 276.0780
214.0679, 270.1240
214.5500, 264.7859
215.0322, 264.9452
215.5143, 271.7354
215.9964, 276.5035
216.4785, 278.6020
216.9606, 279.3419
217.4427, 277.6650
217.9249, 274.7712
218.4070, 273.5664
218.8891, 276.9021
219.3712, 284.9563
219.8533, 291.0688
220.3354, 295.0165
220.8176, 297.0614
221.2997, 296.0305
221.7818, 293.1088
222.2639, 290.4079
222.7460, 289.3801
223.2281, 289.9159
223.7103, 290.9406
224.1924, 293.8186
224.6745, 295.6577
225.1566, 294.4300
225.6387, 292.0669
226.1208, 291.5972
226.6030, 294.9393
227.0851, 301.0815
227.5672, 305.7944
228.0493, 308.4796
228.5314, 310.3806
229.0135, 311.3566
229.4957, 311.8501
229.9778, 312.3715
230.4599, 313.1573
230.9420, 313.9926
231.4241, 314.1330
231.9062, 311.9873
232.3884, 312.0612
232.8705, 315.5518
233.3526, 320.7768
233.8347, 326.9109
234.3168, 333.5626
234.7989, 339.7073
235.2811, 342.9402
235.7632, 340.6556
236.2453, 341.7978
236.7274, 351.7968
237.2095, 361.8329
237.6916, 364.5203
238.1738, 359.1349
238.6559, 352.4062
239.1380, 353.6880
239.6201, 366.2414
240.1022, 374.6982
240.5843, 373.9294
241.0665, 372.7193
241.5486, 375.5486
242.0307, 382.3326
242.5128, 389.9373
242.9949, 394.6075
243.4770, 395.7746
243.9592, 401.1078
244.4413, 416.2129
244.9234, 430.4117
245.4055, 439.7690
245.8876, 444.9375
246.3697, 448.0778
246.8519, 449.6642
247.3340, 450.2841
247.8161, 455.5898
248.2982, 471.2262
248.7803, 483.9930
249.2624, 486.4579
249.7446, 483.8014
250.2267, 484.6713
250.7088, 494.5001
251.1909, 510.0015
251.6730, 521.1601
252.1551, 524.6558
252.6373, 530.7135
253.1194, 545.1325
253.6015, 562.4560
254.0836, 576.7413
254.5657, 585.6096
255.0478, 591.5995
255.5300, 597.3867
256.0121, 601.3902
256.4942, 611.2834
256.9763, 636.7713
257.4584, 664.7417
257.9406, 684.9632
258.4227, 695.0690
258.9048, 703.0289
259.3869, 716.6580
259.8690, 736.1229
260.3511, 758.4725
260.8333, 786.2775
261.3154, 814.3759
261.7975, 838.1802
262.2796, 857.8732
262.7617, 878.8994
263.2438, 904.3368
263.7260, 934.2660
264.2081, 968.7058
264.6902, 1007.568
265.1723, 1051.583
265.6544, 1103.131
266.1365, 1160.299
266.6187, 1216.109
267.1008, 1265.511
267.5829, 1311.689
268.0650, 1361.066
268.5471, 1413.716
269.0292, 1469.551
269.5114, 1528.401
269.9935, 1590.149
270.4756, 1655.869
270.9577, 1723.968
271.4398, 1797.655
271.9219, 1882.316
272.4041, 1978.386
272.8862, 2076.193
273.3683, 2167.615
273.8504, 2259.958
274.3325, 2365.494
274.8146, 2488.169
275.2968, 2618.400
275.7789, 2750.619
276.2610, 2885.038
276.7431, 3023.425
277.2252, 3165.598
277.7073, 3313.636
278.1895, 3477.665
278.6716, 3665.432
279.1537, 3831.594
279.6358, 3959.680
280.1179, 4055.163
280.6000, 4128.841
281.0822, 4184.617
281.5643, 4211.659
282.0464, 4197.165
282.5285, 4141.556
283.0106, 4040.134
283.4927, 3871.922
283.9749, 3670.282
284.4570, 3459.708
284.9391, 3243.453
285.4212, 3019.006
285.9033, 2780.069
286.3854, 2528.721
286.8676, 2306.605
287.3497, 2120.440
287.8318, 1953.555
288.3139, 1800.167
288.7960, 1659.224
289.2781, 1531.187
289.7603, 1416.383
290.2424, 1314.254
290.7245, 1225.493
291.2066, 1154.346
291.6887, 1090.024
292.1708, 1032.899
292.6530, 981.0910
293.1351, 932.3517
293.6172, 885.8926
294.0993, 842.3127
294.5814, 802.9158
295.0635, 767.8627
295.5457, 737.3337
296.0278, 714.4124
296.5099, 693.6038
296.9920, 670.6979
297.4741, 645.4886
297.9562, 621.1451
298.4384, 600.6110
298.9205, 583.8981
299.4026, 570.9910
299.8847, 565.4968
300.3668, 560.0876
300.8489, 553.0695
301.3310, 544.1080
301.8131, 533.0205
302.2953, 519.4661
302.7774, 503.9107
303.2595, 488.4636
303.7416, 470.8577
304.2237, 457.0638
304.7058, 449.8972
305.1880, 446.0110
305.6701, 442.1017
306.1522, 436.9699
306.6343, 431.0192
307.1164, 424.1406
307.5985, 415.1807
308.0807, 409.7290
308.5628, 414.9864
309.0449, 419.7337
309.5270, 415.4508
310.0091, 402.0835
310.4912, 388.6807
310.9734, 384.2505
311.4555, 387.7991
311.9376, 388.3403
312.4197, 383.8250
312.9018, 377.9989
313.3839, 373.9003
313.8661, 370.5487
314.3482, 365.2721
314.8303, 353.9784
315.3124, 341.2846
315.7945, 336.9071
316.2766, 342.5049
316.7588, 346.6323
317.2409, 341.1081
317.7230, 330.8382
318.2051, 324.1117
318.6872, 323.3359
319.1693, 323.7383
319.6515, 321.7699
320.1336, 317.9483
320.6157, 314.7954
321.0978, 313.7006
321.5799, 312.8080
322.0620, 308.6389
322.5442, 300.7516
323.0263, 293.4431
323.5084, 286.1270
323.9905, 280.7956
324.4726, 281.3477
324.9547, 288.3994
325.4369, 296.3839
325.9190, 300.2145
326.4011, 299.4128
326.8832, 297.3171
327.3653, 293.4041
327.8474, 288.7314
328.3296, 282.8033
328.8117, 276.4541
329.2938, 272.0599
329.7759, 271.1730
330.2580, 272.9812
330.7401, 273.8372
331.2223, 273.2982
331.7044, 272.3452
332.1865, 270.9440
332.6686, 269.2350
333.1507, 266.9588
333.6328, 264.1639
334.1150, 261.9007
334.5971, 262.2170
335.0792, 267.4907
335.5613, 268.7408
336.0434, 261.3861
336.5255, 254.5384
337.0077, 254.0932
337.4898, 258.6994
337.9719, 262.5722
338.4540, 260.4546
338.9361, 253.3952
339.4182, 251.3053
339.9004, 259.1961
340.3825, 264.6660
340.8646, 261.9366
341.3467, 255.7737
341.8288, 252.4290
342.3109, 254.5208
342.7931, 258.8197
343.2752, 260.3226
343.7573, 258.5361
344.2394, 257.5620
344.7215, 260.0062
345.2036, 262.2430
345.6858, 260.3043
346.1679, 254.1927
346.6500, 249.6962
347.1321, 252.1446
347.6142, 258.9662
348.0963, 262.8434
348.5785, 262.4742
349.0606, 261.0142
349.5427, 261.2207
350.0248, 262.3557
350.5069, 262.1190
350.9890, 257.3579
351.4712, 253.2572
351.9533, 254.9813
352.4354, 261.5529
352.9175, 267.9296
353.3996, 271.9521
353.8817, 274.0751
354.3639, 275.4554
354.8460, 276.9408
355.3281, 276.2681
355.8102, 270.3539
356.2923, 263.1713
356.7744, 259.2425
357.2566, 259.5558
357.7387, 263.1891
358.2208, 269.9386
358.7029, 281.4686
359.1850, 286.3170
359.6671, 280.3323
360.1493, 272.8692
360.6314, 266.6055
361.1135, 262.2067
361.5956, 260.3797
362.0777, 261.7066
362.5598, 265.3124
363.0420, 268.0518
363.5241, 269.8141
364.0062, 270.7747
364.4883, 271.5492
364.9704, 271.2895
365.4525, 268.4866
365.9347, 263.1541
366.4168, 257.9067
366.8989, 256.2183
367.3810, 258.3669
367.8631, 259.0897
368.3452, 256.5867
368.8274, 254.5719
369.3095, 255.7833
369.7916, 258.9055
370.2737, 260.7108
370.7558, 259.1880
371.2379, 255.9020
371.7201, 253.5271
372.2022, 252.1917
372.6843, 250.5277
373.1664, 247.5714
373.6485, 244.2124
374.1306, 241.9331
374.6128, 241.1515
375.0949, 240.1052
375.5770, 236.7349
376.0591, 232.6577
376.5412, 231.7772
377.0233, 235.2311
377.5055, 239.2040
377.9876, 239.6696
378.4697, 236.1705
378.9518, 233.3596
379.4339, 232.4724
379.9160, 231.2257
380.3982, 227.3759
380.8803, 221.9592
381.3624, 218.3484
381.8445, 218.6299
382.3266, 221.0337
382.8087, 220.1148
383.2909, 210.9776
383.7730, 204.9062
384.2551, 203.1814
384.7372, 203.8884
385.2193, 206.5224
385.7014, 210.3931
386.1836, 213.5329
386.6657, 213.9100
387.1478, 211.4560
387.6299, 207.4053
388.1120, 198.5353
388.5941, 191.8641
389.0763, 191.1341
389.5584, 193.6690
390.0405, 195.2600
390.5226, 194.0326
391.0047, 191.3582
391.4868, 188.9345
391.9690, 186.6364
392.4511, 186.0319
392.9332, 189.1679
393.4153, 192.7041
393.8974, 193.6115
394.3795, 191.8565
394.8617, 188.8637
395.3438, 183.8763
395.8259, 178.5925
396.3080, 176.0630
396.7901, 176.6494
397.2722, 178.4639
397.7544, 180.9917
398.2365, 183.6389
398.7186, 183.8201
399.2007, 177.3795
399.6828, 173.1556
400.1649, 177.2738
400.6471, 185.2341
401.1292, 189.3423
401.6113, 187.0651
402.0934, 181.5087
402.5755, 177.0349
403.0576, 173.6597
403.5398, 171.5689
404.0219, 171.4851
404.5040, 171.8040
404.9861, 172.1249
405.4682, 172.1573
405.9503, 171.3331
406.4325, 169.1450
406.9146, 166.1756
407.3967, 164.4273
407.8788, 163.7642
408.3609, 164.7038
408.8430, 170.3796
409.3252, 175.5879
409.8073, 174.6316
410.2894, 167.1640
410.7715, 160.6061
411.2536, 163.3832
411.7357, 173.2016
412.2179, 177.6966
412.7000, 174.4708
413.1821, 169.7465
413.6642, 167.5426
414.1463, 166.9149
414.6284, 166.1684
415.1106, 164.7207
415.5927, 163.3918
416.0748, 163.2146
416.5569, 163.6993
417.0390, 163.0468
417.5211, 160.3967
418.0033, 157.3050
418.4854, 155.9986
418.9675, 156.7100
419.4496, 158.7613
419.9317, 164.7306
420.4138, 169.8959
420.8960, 170.3384
421.3781, 166.9901
421.8602, 163.5582
422.3423, 162.4758
422.8244, 163.0545
423.3065, 162.1920
423.7887, 157.6435
424.2708, 155.2285
424.7529, 156.9428
425.2350, 159.8773
425.7171, 161.8572
426.1992, 162.4958
426.6814, 162.4984
427.1635, 162.3292
427.6456, 162.0238
428.1277, 162.0547
428.6098, 162.5606
429.0919, 163.1395
429.5741, 164.0901
430.0562, 164.8546
430.5383, 164.3786
431.0204, 161.8981
431.5025, 159.2510
431.9846, 157.4397
432.4668, 156.6367
432.9489, 158.1240
433.4310, 162.9554
433.9131, 167.6480
434.3952, 167.5928
434.8773, 162.1925
435.3595, 158.1420
435.8416, 156.0569
436.3237, 155.1838
436.8058, 154.9789
437.2879, 155.5929
437.7701, 157.7587
438.2522, 161.9592
438.7343, 167.2271
439.2164, 171.2409
439.6985, 174.9189
440.1806, 175.4414
440.6628, 170.2172
441.1449, 164.3428
441.6270, 160.8540
442.1091, 159.8331
442.5912, 159.9606
443.0733, 160.6712
443.5555, 161.6037
444.0376, 161.1287
444.5197, 158.6055
445.0018, 156.4603
445.4839, 154.9922
445.9660, 154.7205
446.4482, 157.2128
446.9303, 163.2367
447.4124, 167.3466
447.8945, 164.0256
448.3766, 156.8482
448.8587, 153.6671
449.3409, 155.7148
449.8230, 158.7817
450.3051, 159.6143
450.7872, 158.4744
451.2693, 158.2834
451.7514, 160.1417
452.2336, 161.5943
452.7157, 161.3968
453.1978, 160.4666
453.6799, 160.3773
454.1620, 161.4919
454.6441, 162.4079
455.1263, 161.0611
455.6084, 156.7876
456.0905, 154.0275
456.5726, 153.7550
457.0547, 154.1103
457.5368, 154.3090
458.0190, 154.8398
458.5011, 156.9676
458.9832, 161.5852
459.4653, 166.2383
459.9474, 167.0897
460.4295, 164.0818
460.9117, 160.9055
461.3938, 157.7339
461.8759, 155.3216
462.3580, 154.5439
462.8401, 155.1463
463.3222, 155.8969
463.8044, 156.4996
464.2865, 157.0844
464.7686, 158.0939
465.2507, 159.2658
465.7328, 159.2386
466.2149, 157.1292
466.6971, 154.5811
467.1792, 155.0417
467.6613, 161.6089
468.1434, 164.5335
468.6255, 160.2401
469.1076, 155.4801
469.5898, 154.3889
470.0719, 156.5694
470.5540, 160.0043
471.0361, 163.7420
471.5182, 167.0295
472.0003, 167.2155
472.4825, 162.6320
472.9646, 159.4990
473.4467, 160.2927
473.9288, 162.1730
474.4109, 163.6161
474.8930, 164.4802
475.3752, 165.0108
475.8573, 165.3116
476.3394, 165.3826
476.8215, 165.1584
477.3036, 164.6362
477.7857, 164.1686
478.2679, 164.1707
478.7500, 164.1425
479.2321, 162.6531
479.7142, 158.9399
480.1963, 155.9348
480.6784, 153.8956
481.1606, 153.0021
481.6427, 153.8793
482.1248, 156.2430
482.6069, 158.9380
483.0890, 161.2891
483.5711, 163.0579
484.0533, 162.7800
484.5354, 158.4119
485.0175, 155.3563
485.4996, 154.8400
485.9817, 155.4373
486.4638, 156.2978
486.9460, 157.2014
487.4281, 157.9287
487.9102, 158.0224
488.3923, 157.8213
488.8744, 158.4784
489.3565, 160.1435
489.8387, 161.9342
490.3208, 164.1057
490.8029, 165.6928
491.2850, 164.5735
491.7671, 159.3982
492.2492, 155.4494
492.7314, 154.8495
493.2135, 156.2366
493.6956, 158.6212
494.1777, 161.6237
494.6598, 164.5262
495.1419, 166.9641
495.6241, 168.7019
496.1062, 168.1814
496.5883, 163.0967
497.0704, 158.9343
497.5525, 155.8000
498.0346, 154.0281
498.5168, 154.7364
498.9989, 157.5277
499.4810, 159.7613
499.9631, 158.0538
500.4452, 154.0909
500.9273, 155.3538
501.4095, 163.5781
501.8916, 169.5529
502.3737, 167.4233
502.8558, 161.7756
503.3379, 160.0710
503.8200, 163.3071
504.3022, 166.8259
504.7843, 168.9978
505.2664, 170.4736
505.7485, 172.1982
506.2306, 174.0974
506.7127, 175.0750
507.1949, 174.3318
507.6770, 172.1875
508.1591, 170.0143
508.6412, 166.9971
509.1233, 165.2035
509.6054, 164.0212
510.0876, 164.5687
510.5697, 169.5460
511.0518, 177.6300
511.5339, 183.1839
512.0161, 180.9740
512.4982, 174.0881
512.9803, 171.1095
513.4624, 172.6219
513.9445, 174.6863
514.4266, 176.2280
514.9088, 177.4348
515.3909, 179.0443
515.8730, 181.2635
516.3551, 181.4325
516.8372, 176.7281
517.3193, 171.1194
517.8015, 167.9725
518.2836, 167.2858
518.7657, 168.1827
519.2478, 170.3878
519.7299, 173.0575
520.2120, 174.0107
520.6942, 171.2172
521.1763, 170.6367
521.6584, 175.2994
522.1405, 179.0893
522.6226, 178.3436
523.1047, 173.9870
523.5869, 168.5509
524.0690, 162.5291
524.5511, 157.8985
525.0332, 159.0244
525.5153, 165.8620
525.9974, 171.3107
526.4796, 173.6759
526.9617, 174.1752
527.4438, 173.3927
527.9259, 171.5227
528.4080, 170.3641
528.8901, 170.4907
529.3723, 171.0756
529.8544, 171.9496
530.3365, 172.8679
530.8186, 173.3452
531.3007, 173.2267
531.7828, 172.8483
532.2650, 172.6914
532.7471, 172.8296
533.2292, 172.7157
533.7113, 171.7587
534.1934, 171.2440
534.6755, 172.2595
535.1577, 173.6725
535.6398, 173.6885
536.1219, 171.6463
536.6040, 169.5950
537.0861, 169.9948
537.5682, 171.9403
538.0504, 172.2290
538.5325, 170.2833
539.0146, 168.2526
539.4967, 167.5843
539.9788, 168.1025
540.4609, 168.8800
540.9431, 170.5356
541.4252, 171.5894
541.9073, 171.3423
542.3894, 170.6209
542.8715, 170.3778
543.3536, 170.5691
543.8358, 170.2889
544.3179, 168.7068
544.8000, 166.1772
545.2821, 164.1029
545.7642, 162.1884
546.2463, 161.5737
546.7285, 164.5227
547.2106, 167.4031
547.6926, 166.7896
548.1747, 162.9265
548.6569, 159.8265
549.1390, 159.8779
549.6211, 161.1231
550.1032, 161.9843
550.5853, 162.2584
551.0674, 160.6906
551.5496, 156.3522
552.0317, 152.1730
552.5138, 153.3235
552.9959, 162.5562
553.4780, 167.7808
553.9601, 167.0883
554.4423, 165.0712
554.9244, 163.2097
555.4065, 161.3542
555.8886, 158.6589
556.3707, 154.7511
556.8528, 151.4288
557.3350, 151.3525
557.8171, 154.0951
558.2992, 156.1949
558.7813, 157.2906
559.2634, 157.9045
559.7455, 158.4890
560.2277, 158.7985
560.7098, 158.1449
561.1919, 155.8373
561.6740, 153.7689
562.1561, 152.3762
562.6382, 151.6093
563.1204, 151.1770
563.6025, 151.2225
564.0846, 152.7836
564.5667, 157.0664
565.0488, 162.6842
565.5309, 163.9320
566.0131, 159.0425
566.4952, 154.2434
566.9773, 148.9911
567.4594, 145.4969
567.9415, 146.2798
568.4236, 150.4589
568.9058, 153.8912
569.3879, 154.6694
569.8700, 154.1008
570.3521, 152.8608
570.8342, 151.3244
571.3163, 151.2601
571.7985, 153.3976
572.2806, 155.1601
572.7627, 153.0897
573.2448, 146.5239
573.7269, 142.3499
574.2090, 141.1770
574.6912, 141.4856
575.1733, 144.3876
575.6554, 147.7993
576.1375, 149.3384
576.6196, 148.5492
577.1017, 147.0150
577.5839, 145.9122
578.0660, 145.2162
578.5481, 144.8328
579.0302, 144.7524
579.5123, 145.0815
579.9944, 145.9844
580.4766, 147.2264
580.9587, 148.4785
581.4408, 149.9419
581.9229, 150.6747
582.4050, 149.7143
582.8871, 148.7297
583.3693, 149.2702
583.8514, 150.6169
584.3335, 151.1506
584.8156, 150.1267
585.2977, 147.9521
585.7798, 144.4852
586.2620, 139.3624
586.7441, 137.7241
587.2262, 141.9876
587.7083, 146.1577
588.1904, 146.3834
588.6725, 144.3921
589.1547, 142.8868
