##NAMES=Calcite
##RRUFFID=R050130
##IDEAL CHEMISTRY=CaCO_3_
##LOCALITY=Mexico
##OWNER=RRUFF
##SOURCE=Dave Bunk Minerals
##DESCRIPTION=Colorless cleavage rhomb
##STATUS=The identification of this mineral has been confirmed by X-ray diffraction and chemical analysis
##URL=rruff.info/R050130
##MEASURED CHEMISTRY=Ca_1.00_CO_3_; trace amounts of Si (?)
93.88477, 167.2747
94.36688, 163.1878
94.84900, 163.9000
95.33112, 169.1269
95.81323, 177.5254
96.29535, 188.6715
96.77747, 202.4970
97.25958, 219.2058
97.74170, 239.4338
98.22382, 261.6109
98.70593, 281.7734
99.18805, 299.7271
99.67017, 319.5356
100.1523, 344.8403
100.6344, 375.7778
101.1165, 405.6320
101.5986, 433.6169
102.0807, 459.7544
102.5629, 482.2537
103.0450, 500.0037
103.5271, 516.9136
104.0092, 536.5648
104.4913, 560.8109
104.9734, 583.2131
105.4556, 601.9979
105.9377, 616.6743
106.4198, 634.9036
106.9019, 658.0609
107.3840, 683.6743
107.8661, 708.3363
108.3483, 732.0895
108.8304, 755.2018
109.3125, 777.2496
109.7946, 796.7120
110.2767, 819.7018
110.7588, 847.6979
111.2410, 879.1931
111.7231, 911.6652
112.2052, 946.7076
112.6873, 981.7390
113.1694, 1015.957
113.6515, 1048.855
114.1337, 1082.282
114.6158, 1117.701
115.0979, 1153.924
115.5800, 1188.129
116.0621, 1218.713
116.5442, 1247.455
117.0264, 1275.012
117.5085, 1303.769
117.9906, 1329.746
118.4727, 1349.938
118.9548, 1365.236
119.4369, 1381.523
119.9191, 1401.772
120.4012, 1424.386
120.8833, 1447.540
121.3654, 1469.431
121.8475, 1492.755
122.3296, 1521.510
122.8118, 1555.813
123.2939, 1586.610
123.7760, 1603.334
124.2581, 1612.767
124.7402, 1626.365
125.2223, 1650.981
125.7045, 1681.435
126.1866, 1711.896
126.6687, 1741.774
127.1508, 1773.094
127.6329, 1808.344
128.1150, 1846.669
128.5972, 1886.549
129.0793, 1925.189
129.5614, 1964.639
130.0435, 2008.916
130.5256, 2058.772
131.0077, 2112.785
131.4899, 2168.584
131.9720, 2226.309
132.4541, 2287.095
132.9362, 2340.237
133.4183, 2385.123
133.9004, 2440.888
134.3826, 2509.859
134.8647, 2589.423
135.3468, 2673.153
135.8289, 2761.652
136.3110, 2852.541
136.7931, 2946.985
137.2753, 3045.003
137.7574, 3135.335
138.2395, 3216.263
138.7216, 3288.125
139.2037, 3354.942
139.6858, 3415.236
140.1680, 3474.540
140.6501, 3538.763
141.1322, 3608.677
141.6143, 3681.637
142.0964, 3757.763
142.5785, 3837.310
143.0607, 3919.495
143.5428, 4002.173
144.0249, 4090.412
144.5070, 4192.160
144.9891, 4306.530
145.4712, 4434.499
145.9534, 4572.597
146.4355, 4720.624
146.9176, 4886.018
147.3997, 5065.547
147.8818, 5263.880
148.3639, 5493.111
148.8461, 5743.528
149.3282, 6034.397
149.8103, 6364.927
150.2924, 6724.394
150.7745, 7144.573
151.2566, 7624.956
151.7388, 8166.085
152.2209, 8755.686
152.7030, 9458.603
153.1851, 10158.40
153.6672, 10815.50
154.1493, 11545.87
154.6315, 12065.79
155.1136, 12395.10
155.5957, 12515.34
156.0778, 12367.14
156.5599, 11834.41
157.0420, 11106.78
157.5242, 10282.39
158.0063, 9242.145
158.4884, 8265.840
158.9705, 7376.362
159.4526, 6579.440
159.9347, 5885.685
160.4169, 5315.547
160.8990, 4838.640
161.3811, 4432.920
161.8632, 4118.835
162.3453, 3849.610
162.8274, 3614.437
163.3096, 3412.369
163.7917, 3236.679
164.2738, 3091.038
164.7559, 2967.787
165.2380, 2859.382
165.7201, 2766.780
166.2023, 2685.527
166.6844, 2613.794
167.1665, 2551.476
167.6486, 2495.120
168.1307, 2442.989
168.6128, 2395.640
169.0950, 2353.817
169.5771, 2320.008
170.0592, 2290.297
170.5413, 2262.328
171.0234, 2235.894
171.5055, 2210.161
171.9877, 2183.457
172.4698, 2157.094
172.9519, 2133.415
173.4340, 2113.304
173.9161, 2096.468
174.3982, 2083.248
174.8804, 2073.963
175.3625, 2065.704
175.8446, 2055.783
176.3267, 2044.928
176.8088, 2035.017
177.2909, 2027.468
177.7731, 2021.286
178.2552, 2015.069
178.7373, 2008.574
179.2194, 2002.155
179.7015, 1995.729
180.1836, 1989.461
180.6658, 1984.144
181.1479, 1981.108
181.6300, 1979.163
182.1121, 1975.869
182.5942, 1970.728
183.0763, 1964.731
183.5585, 1958.654
184.0406, 1952.573
184.5227, 1947.202
185.0048, 1943.906
185.4869, 1941.742
185.9690, 1937.583
186.4511, 1930.471
186.9333, 1922.177
187.4154, 1915.264
187.8975, 1909.668
188.3796, 1905.369
188.8617, 1902.747
189.3438, 1901.527
189.8260, 1900.421
190.3081, 1899.420
190.7902, 1898.187
191.2723, 1894.904
191.7544, 1889.459
192.2365, 1885.999
192.7187, 1889.795
193.2008, 1899.861
193.6829, 1905.834
194.1650, 1905.010
194.6471, 1899.798
195.1292, 1896.725
195.6114, 1895.900
196.0935, 1895.973
196.5756, 1895.211
197.0577, 1893.646
197.5398, 1895.249
198.0219, 1902.349
198.5041, 1912.508
198.9862, 1915.475
199.4683, 1910.081
199.9504, 1903.111
200.4325, 1899.776
200.9146, 1900.096
201.3968, 1903.359
201.8789, 1910.723
202.3610, 1920.825
202.8431, 1926.779
203.3252, 1927.955
203.8073, 1926.975
204.2895, 1925.499
204.7716, 1923.288
205.2537, 1922.786
205.7358, 1925.205
206.2179, 1929.963
206.7000, 1932.550
207.1822, 1932.388
207.6643, 1931.568
208.1464, 1932.116
208.6285, 1934.367
209.1106, 1936.415
209.5927, 1937.530
210.0749, 1937.900
210.5570, 1940.321
211.0391, 1945.819
211.5212, 1951.310
212.0033, 1953.024
212.4854, 1949.161
212.9676, 1947.966
213.4497, 1952.082
213.9318, 1961.206
214.4139, 1967.847
214.8960, 1971.411
215.3781, 1973.483
215.8603, 1975.098
216.3424, 1975.197
216.8245, 1978.126
217.3066, 1986.246
217.7887, 1999.491
218.2708, 2007.406
218.7530, 2008.021
219.2351, 2006.086
219.7172, 2006.460
220.1993, 2009.882
220.6814, 2013.702
221.1635, 2017.088
221.6457, 2020.049
222.1278, 2025.186
222.6099, 2034.589
223.0920, 2043.741
223.5741, 2047.173
224.0562, 2041.708
224.5384, 2037.822
225.0205, 2037.199
225.5026, 2039.818
225.9847, 2046.821
226.4668, 2060.989
226.9489, 2076.491
227.4311, 2086.735
227.9132, 2089.721
228.3953, 2091.986
228.8774, 2094.347
229.3595, 2096.789
229.8416, 2100.994
230.3238, 2107.171
230.8059, 2114.994
231.2880, 2124.422
231.7701, 2136.563
232.2522, 2148.104
232.7343, 2158.069
233.2165, 2166.458
233.6986, 2175.835
234.1807, 2185.966
234.6628, 2197.291
235.1449, 2210.353
235.6270, 2225.934
236.1092, 2241.288
236.5913, 2255.782
237.0734, 2269.297
237.5555, 2284.144
238.0376, 2301.946
238.5197, 2319.385
239.0019, 2332.311
239.4840, 2335.782
239.9661, 2344.317
240.4482, 2362.059
240.9303, 2388.903
241.4124, 2412.179
241.8946, 2429.432
242.3767, 2445.757
242.8588, 2465.608
243.3409, 2491.003
243.8230, 2516.108
244.3051, 2539.606
244.7873, 2561.602
245.2694, 2586.157
245.7515, 2614.191
246.2336, 2643.740
246.7157, 2672.936
247.1978, 2700.113
247.6800, 2730.476
248.1621, 2764.981
248.6442, 2803.704
249.1263, 2843.081
249.6084, 2883.264
250.0905, 2924.352
250.5726, 2965.992
251.0548, 3006.363
251.5369, 3051.375
252.0190, 3101.056
252.5011, 3155.935
252.9832, 3216.580
253.4653, 3284.555
253.9475, 3356.695
254.4296, 3430.154
254.9117, 3502.401
255.3938, 3582.435
255.8759, 3670.895
256.3581, 3768.244
256.8402, 3872.255
257.3223, 3983.757
257.8044, 4101.505
258.2865, 4223.958
258.7686, 4345.912
259.2508, 4482.721
259.7329, 4637.011
260.2150, 4805.876
260.6971, 4990.771
261.1792, 5190.796
261.6613, 5404.887
262.1435, 5633.891
262.6256, 5877.884
263.1077, 6131.566
263.5898, 6395.779
264.0719, 6667.830
264.5540, 6938.277
265.0362, 7209.919
265.5183, 7479.169
266.0004, 7748.414
266.4825, 8016.706
266.9646, 8279.337
267.4467, 8532.096
267.9289, 8780.765
268.4110, 9025.605
268.8931, 9265.736
269.3752, 9514.041
269.8573, 9774.498
270.3394, 10048.21
270.8216, 10340.15
271.3037, 10649.56
271.7858, 10979.21
272.2679, 11319.37
272.7500, 11665.58
273.2321, 12040.12
273.7143, 12447.44
274.1964, 12884.58
274.6785, 13365.23
275.1606, 13887.98
275.6427, 14452.17
276.1248, 15062.22
276.6070, 15723.42
277.0891, 16404.99
277.5712, 17099.71
278.0533, 17807.86
278.5354, 18527.43
279.0175, 19276.45
279.4996, 19995.60
279.9818, 20615.21
280.4639, 21136.64
280.9460, 21498.93
281.4281, 21694.61
281.9102, 21718.76
282.3923, 21514.83
282.8745, 21076.08
283.3566, 20431.79
283.8387, 19579.47
284.3208, 18511.58
284.8029, 17369.62
285.2850, 16154.16
285.7672, 14892.36
286.2493, 13693.90
286.7314, 12555.80
287.2135, 11498.62
287.6956, 10542.42
288.1777, 9682.904
288.6599, 8916.693
289.1420, 8244.574
289.6241, 7656.237
290.1062, 7127.042
290.5883, 6655.470
291.0704, 6238.500
291.5526, 5876.516
292.0347, 5564.044
292.5168, 5280.731
292.9989, 5019.991
293.4810, 4785.049
293.9631, 4580.538
294.4453, 4405.808
294.9274, 4247.372
295.4095, 4098.326
295.8916, 3958.852
296.3737, 3831.931
296.8558, 3719.890
297.3380, 3619.098
297.8201, 3524.070
298.3022, 3434.509
298.7843, 3351.541
299.2664, 3276.093
299.7485, 3206.377
300.2307, 3140.888
300.7128, 3078.354
301.1949, 3020.396
301.6770, 2968.929
302.1591, 2922.919
302.6412, 2879.837
303.1234, 2838.139
303.6055, 2798.360
304.0876, 2759.732
304.5697, 2722.668
305.0518, 2688.759
305.5339, 2662.245
306.0161, 2640.307
306.4982, 2617.668
306.9803, 2590.227
307.4624, 2561.745
307.9445, 2536.133
308.4266, 2513.465
308.9088, 2493.077
309.3909, 2475.708
309.8730, 2459.836
310.3551, 2443.249
310.8372, 2422.756
311.3193, 2402.781
311.8015, 2387.775
312.2836, 2376.945
312.7657, 2365.107
313.2478, 2345.908
313.7299, 2325.583
314.2120, 2310.202
314.6942, 2304.641
315.1763, 2300.919
315.6584, 2296.138
316.1405, 2290.012
316.6226, 2281.752
317.1047, 2268.587
317.5869, 2254.580
318.0690, 2242.467
318.5511, 2232.801
319.0332, 2225.046
319.5153, 2221.190
319.9974, 2219.199
320.4796, 2214.553
320.9617, 2202.898
321.4438, 2190.493
321.9259, 2180.447
322.4080, 2173.844
322.8901, 2167.415
323.3723, 2160.819
323.8544, 2153.898
324.3365, 2146.388
324.8186, 2135.778
325.3007, 2127.027
325.7828, 2122.917
326.2650, 2124.937
326.7471, 2123.575
327.2292, 2114.906
327.7113, 2103.853
328.1934, 2095.065
328.6755, 2088.782
329.1577, 2084.951
329.6398, 2085.039
330.1219, 2089.005
330.6040, 2089.834
331.0861, 2084.542
331.5682, 2078.373
332.0504, 2074.896
332.5325, 2077.326
333.0146, 2077.241
333.4967, 2073.144
333.9788, 2065.853
334.4609, 2059.163
334.9431, 2052.129
335.4252, 2046.911
335.9073, 2045.343
336.3894, 2050.140
336.8715, 2051.069
337.3536, 2046.359
337.8358, 2038.843
338.3179, 2034.628
338.8000, 2034.964
339.2821, 2035.455
339.7642, 2034.392
340.2463, 2031.670
340.7285, 2028.460
341.2106, 2023.982
341.6927, 2020.597
342.1748, 2022.796
342.6569, 2031.484
343.1390, 2037.971
343.6212, 2038.809
344.1033, 2034.948
344.5854, 2032.326
345.0675, 2031.075
345.5496, 2030.173
346.0317, 2028.663
346.5139, 2026.557
346.9960, 2024.286
347.4781, 2021.302
347.9602, 2018.783
348.4423, 2019.781
348.9244, 2024.226
349.4066, 2029.678
349.8887, 2036.351
350.3708, 2042.885
350.8529, 2044.457
351.3350, 2039.578
351.8171, 2032.259
352.2993, 2027.142
352.7814, 2024.012
353.2635, 2021.787
353.7456, 2020.478
354.2277, 2019.508
354.7098, 2017.749
355.1920, 2015.006
355.6741, 2012.696
356.1562, 2012.618
356.6383, 2013.747
357.1204, 2014.287
357.6025, 2012.010
358.0847, 2009.853
358.5668, 2011.234
359.0489, 2015.757
359.5310, 2018.594
360.0131, 2014.434
360.4952, 2008.209
360.9774, 2005.062
361.4595, 2008.659
361.9416, 2012.676
362.4237, 2015.350
362.9058, 2016.368
363.3879, 2014.716
363.8701, 2005.479
364.3522, 1996.698
364.8343, 1993.795
365.3164, 2000.735
365.7985, 2005.817
366.2806, 2006.090
366.7628, 2002.931
367.2449, 1998.549
367.7270, 1989.588
368.2091, 1982.988
368.6912, 1981.862
369.1733, 1987.717
369.6555, 1991.260
370.1376, 1989.755
370.6197, 1987.136
371.1018, 1986.812
371.5839, 1991.629
372.0660, 1994.704
372.5482, 1994.364
373.0303, 1991.153
373.5124, 1989.278
373.9945, 1988.934
374.4766, 1989.591
374.9587, 1991.364
375.4409, 1995.484
375.9230, 1997.115
376.4051, 1995.799
376.8872, 1992.098
377.3693, 1986.364
377.8514, 1977.425
378.3336, 1970.760
378.8157, 1969.476
379.2978, 1973.674
379.7799, 1976.794
380.2620, 1978.544
380.7441, 1980.222
381.2263, 1984.523
381.7084, 1991.266
382.1905, 1994.899
382.6726, 1992.336
383.1547, 1986.146
383.6368, 1983.969
384.1190, 1985.804
384.6011, 1988.092
385.0832, 1986.889
385.5653, 1983.763
386.0474, 1983.665
386.5295, 1988.551
387.0117, 1994.344
387.4938, 1996.018
387.9759, 1994.205
388.4580, 1991.300
388.9401, 1987.701
389.4222, 1984.196
389.9044, 1981.747
390.3865, 1980.452
390.8686, 1979.860
391.3507, 1980.974
391.8328, 1982.302
392.3149, 1981.642
392.7971, 1973.978
393.2792, 1967.663
393.7613, 1968.890
394.2434, 1976.700
394.7255, 1983.420
395.2076, 1986.088
395.6898, 1986.253
396.1719, 1984.808
396.6540, 1980.064
397.1361, 1976.628
397.6182, 1976.850
398.1003, 1979.140
398.5825, 1979.902
399.0646, 1977.434
399.5467, 1974.331
400.0288, 1970.975
400.5109, 1966.533
400.9930, 1964.832
401.4752, 1968.354
401.9573, 1973.151
402.4394, 1975.243
402.9215, 1973.730
403.4036, 1970.903
403.8857, 1966.114
404.3678, 1959.878
404.8499, 1957.043
405.3321, 1958.459
405.8142, 1961.709
406.2963, 1965.628
406.7784, 1970.533
407.2605, 1974.735
407.7426, 1978.507
408.2248, 1981.045
408.7069, 1979.867
409.1890, 1974.609
409.6711, 1970.202
410.1532, 1969.216
410.6353, 1970.973
411.1175, 1971.945
411.5996, 1972.092
412.0817, 1971.506
412.5638, 1969.527
413.0459, 1966.738
413.5280, 1965.329
414.0102, 1966.622
414.4923, 1968.659
414.9744, 1968.057
415.4565, 1965.388
415.9386, 1963.623
416.4207, 1966.236
416.9029, 1970.194
417.3850, 1971.065
417.8671, 1967.466
418.3492, 1964.697
418.8313, 1967.364
419.3134, 1973.217
419.7956, 1978.681
420.2777, 1983.780
420.7598, 1986.831
421.2419, 1986.167
421.7240, 1981.929
422.2061, 1977.891
422.6883, 1974.045
423.1704, 1971.557
423.6525, 1971.254
424.1346, 1975.068
424.6167, 1978.663
425.0988, 1982.275
425.5810, 1985.215
426.0631, 1985.667
426.5452, 1979.690
427.0273, 1975.343
427.5094, 1975.995
427.9915, 1983.523
428.4737, 1986.548
428.9558, 1982.361
429.4379, 1976.509
429.9200, 1974.775
430.4021, 1978.536
430.8842, 1982.553
431.3664, 1986.696
431.8485, 1990.291
432.3306, 1989.950
432.8127, 1984.949
433.2948, 1979.405
433.7769, 1975.543
434.2591, 1973.310
434.7412, 1972.437
435.2233, 1973.106
435.7054, 1974.314
436.1875, 1974.338
436.6696, 1973.484
437.1518, 1973.691
437.6339, 1976.476
438.1160, 1980.292
438.5981, 1982.545
439.0802, 1983.311
439.5623, 1983.524
440.0445, 1984.733
440.5266, 1985.527
441.0087, 1983.479
441.4908, 1976.689
441.9729, 1970.608
442.4550, 1968.880
442.9372, 1970.634
443.4193, 1974.167
443.9014, 1981.850
444.3835, 1988.551
444.8656, 1991.542
445.3477, 1990.615
445.8299, 1987.706
446.3120, 1980.359
446.7941, 1972.864
447.2762, 1968.625
447.7583, 1968.637
448.2404, 1971.183
448.7226, 1978.298
449.2047, 1987.981
449.6868, 1994.221
450.1689, 1996.110
450.6510, 1995.810
451.1331, 1993.538
451.6153, 1988.702
452.0974, 1985.615
452.5795, 1984.875
453.0616, 1985.043
453.5437, 1984.521
454.0258, 1983.174
454.5080, 1982.002
454.9901, 1980.964
455.4722, 1980.373
455.9543, 1981.879
456.4364, 1985.572
456.9185, 1988.171
457.4007, 1986.561
457.8828, 1982.137
458.3649, 1979.367
458.8470, 1978.595
459.3291, 1979.201
459.8112, 1981.438
460.2934, 1984.560
460.7755, 1986.874
461.2576, 1987.797
461.7397, 1987.695
462.2218, 1986.578
462.7039, 1984.640
463.1861, 1982.745
463.6682, 1979.875
464.1503, 1978.183
464.6324, 1980.164
465.1145, 1988.000
465.5966, 1993.662
466.0788, 1992.110
466.5609, 1987.540
467.0430, 1985.359
467.5251, 1990.913
468.0072, 1994.397
468.4893, 1991.565
468.9715, 1982.971
469.4536, 1979.139
469.9357, 1982.906
470.4178, 1988.352
470.8999, 1992.629
471.3820, 1996.131
471.8642, 1997.091
472.3463, 1994.249
472.8284, 1990.211
473.3105, 1989.258
473.7926, 1991.982
474.2747, 1994.399
474.7569, 1994.979
475.2390, 1994.361
475.7211, 1995.394
476.2032, 1998.161
476.6853, 2001.324
477.1674, 2004.124
477.6496, 2006.532
478.1317, 2008.559
478.6138, 2010.291
479.0959, 2011.280
479.5780, 2010.489
480.0602, 2008.552
480.5423, 2006.976
481.0244, 2007.630
481.5065, 2008.031
481.9886, 2004.709
482.4707, 1998.384
482.9529, 1994.972
483.4350, 2000.281
483.9171, 2007.731
484.3992, 2012.641
484.8813, 2014.206
485.3634, 2013.348
485.8456, 2007.657
486.3277, 2000.297
486.8098, 1996.032
487.2919, 1998.519
487.7740, 2000.566
488.2561, 2000.416
488.7383, 1998.260
489.2204, 1997.966
489.7025, 2000.995
490.1846, 2003.579
490.6667, 2002.529
491.1488, 1996.376
491.6310, 1994.763
492.1131, 1999.224
492.5952, 2006.266
493.0773, 2011.514
493.5594, 2014.981
494.0415, 2015.878
494.5237, 2012.517
495.0058, 2007.292
495.4879, 2006.690
495.9700, 2010.370
496.4521, 2013.396
496.9342, 2010.061
497.4164, 2004.510
497.8985, 2003.830
498.3806, 2009.847
498.8627, 2016.242
499.3448, 2018.592
499.8269, 2018.188
500.3091, 2016.997
500.7912, 2014.315
501.2733, 2012.364
501.7554, 2012.781
502.2375, 2015.043
502.7196, 2016.214
503.2018, 2013.718
503.6839, 2011.470
504.1660, 2011.718
504.6481, 2016.101
505.1302, 2018.546
505.6123, 2017.453
506.0945, 2015.575
506.5766, 2016.263
507.0587, 2021.040
507.5408, 2024.490
508.0229, 2025.915
508.5050, 2025.337
508.9872, 2021.960
509.4693, 2015.209
509.9514, 2009.757
510.4335, 2008.333
510.9156, 2010.499
511.3977, 2014.952
511.8799, 2022.152
512.3619, 2027.666
512.8441, 2025.510
513.3262, 2018.453
513.8083, 2012.493
514.2904, 2008.458
514.7725, 2007.410
515.2546, 2012.582
515.7368, 2021.689
516.2189, 2028.964
516.7010, 2030.296
517.1831, 2030.071
517.6652, 2031.116
518.1473, 2033.695
518.6295, 2034.736
519.1116, 2031.378
519.5937, 2027.373
520.0758, 2025.429
520.5579, 2028.221
521.0400, 2029.831
521.5222, 2029.673
522.0043, 2028.605
522.4864, 2028.309
522.9685, 2029.454
523.4506, 2029.851
523.9327, 2028.450
524.4149, 2025.695
524.8970, 2024.791
525.3791, 2025.880
525.8612, 2028.214
526.3433, 2032.946
526.8254, 2039.046
527.3076, 2039.545
527.7897, 2032.692
528.2718, 2025.138
528.7539, 2025.825
529.2360, 2031.751
529.7181, 2035.702
530.2003, 2033.566
530.6824, 2029.839
531.1645, 2027.851
531.6466, 2027.473
532.1287, 2028.094
532.6108, 2029.735
533.0930, 2032.085
533.5751, 2035.246
534.0572, 2039.447
534.5393, 2043.186
535.0214, 2046.900
535.5035, 2049.633
535.9857, 2050.468
536.4678, 2048.837
536.9499, 2046.182
537.4320, 2041.718
537.9141, 2036.603
538.3962, 2033.676
538.8784, 2033.074
539.3605, 2034.200
539.8426, 2037.571
540.3247, 2042.649
540.8068, 2045.359
541.2889, 2045.551
541.7711, 2044.865
542.2532, 2044.840
542.7353, 2045.025
543.2174, 2043.689
543.6995, 2040.254
544.1816, 2037.021
544.6638, 2036.604
545.1459, 2038.008
545.6280, 2039.413
546.1101, 2039.444
546.5922, 2039.846
547.0743, 2042.303
547.5565, 2046.144
548.0386, 2048.864
548.5207, 2048.189
549.0028, 2047.381
549.4849, 2048.453
549.9670, 2052.588
550.4492, 2053.931
550.9313, 2049.797
551.4134, 2045.037
551.8955, 2043.773
552.3776, 2047.959
552.8597, 2050.197
553.3419, 2049.266
553.8240, 2046.739
554.3061, 2045.805
554.7882, 2046.574
555.2703, 2047.551
555.7524, 2048.339
556.2346, 2048.870
556.7167, 2048.665
557.1988, 2047.789
557.6809, 2047.171
558.1630, 2047.450
558.6451, 2048.391
559.1273, 2049.922
559.6094, 2052.198
560.0915, 2053.894
560.5736, 2053.804
561.0557, 2052.791
561.5378, 2051.854
562.0200, 2050.738
562.5021, 2050.317
562.9842, 2051.926
563.4663, 2054.481
563.9484, 2054.694
564.4305, 2049.226
564.9127, 2045.427
565.3948, 2046.189
565.8769, 2051.588
566.3590, 2053.904
566.8411, 2052.030
567.3232, 2049.590
567.8054, 2049.611
568.2875, 2052.085
568.7696, 2052.437
569.2517, 2049.859
569.7338, 2046.971
570.2159, 2047.573
570.6981, 2050.741
571.1802, 2053.477
571.6623, 2054.982
572.1444, 2055.428
572.6265, 2054.213
573.1086, 2051.965
573.5908, 2050.640
574.0729, 2051.646
574.5550, 2053.483
575.0371, 2055.719
575.5192, 2058.340
576.0013, 2059.729
576.4835, 2058.526
576.9656, 2056.601
577.4477, 2054.964
577.9298, 2052.371
578.4119, 2052.731
578.8940, 2057.840
579.3762, 2064.251
579.8583, 2066.938
580.3404, 2065.232
580.8225, 2063.000
581.3046, 2060.153
581.7867, 2058.163
582.2689, 2062.743
582.7510, 2073.420
583.2331, 2082.062
583.7152, 2083.015
584.1973, 2079.570
584.6794, 2076.370
585.1616, 2073.596
585.6437, 2072.195
586.1258, 2075.250
586.6079, 2078.689
587.0900, 2077.983
587.5721, 2070.058
588.0543, 2064.118
588.5364, 2065.194
589.0185, 2069.272
589.5006, 2071.331
589.9827, 2067.619
590.4648, 2066.007
590.9470, 2069.309
591.4291, 2075.107
591.9112, 2074.315
