##NAMES=Calcioburbankite
##RRUFFID=R070023
##IDEAL CHEMISTRY=Na_3_(Ca,Ce^3+^,Sr,La^3+^)_3_(C^4+^O_3_)_5_
##LOCALITY=Vuoriyarvi Massif, Murmansk region, Russia
##OWNER=RRUFF
##SOURCE=Michael Scott
##DESCRIPTION=Pale orange vitreous massive embedded in white dolomite
##STATUS=The identification of this mineral is confirmed by single-crystal X-ray diffraction and chemical analysis.
##URL=rruff.info/R070023
##MEASURED CHEMISTRY=(Na_2.89_Ca_0.11_)_Σ=3_(Ca_0.91_Sr_0.67_Ba_0.53_Ce_0.51_La_0.26_Nd_0.12_)_Σ=3_(CO_3_)_5_; CO_2_ estimated by difference
146.8074, 3925.246
147.2895, 3996.064
147.7716, 4075.652
148.2537, 4151.352
148.7358, 4221.542
149.2180, 4287.541
149.7001, 4350.041
150.1822, 4405.187
150.6643, 4461.725
151.1464, 4521.624
151.6285, 4583.083
152.1107, 4640.528
152.5928, 4700.017
153.0749, 4751.019
153.5570, 4788.387
154.0391, 4800.921
154.5212, 4811.838
155.0034, 4828.053
155.4855, 4847.933
155.9676, 4856.272
156.4497, 4842.453
156.9318, 4819.733
157.4139, 4798.291
157.8961, 4780.653
158.3782, 4764.314
158.8603, 4748.854
159.3424, 4734.141
159.8245, 4719.624
160.3066, 4698.773
160.7887, 4679.792
161.2709, 4672.151
161.7530, 4687.983
162.2351, 4709.243
162.7172, 4727.701
163.1993, 4742.504
163.6814, 4754.515
164.1636, 4762.031
164.6457, 4767.047
165.1278, 4773.460
165.6099, 4782.029
166.0920, 4793.198
166.5741, 4807.959
167.0563, 4828.221
167.5384, 4848.387
168.0205, 4865.827
168.5026, 4880.485
168.9847, 4891.907
169.4668, 4900.575
169.9490, 4905.655
170.4311, 4904.981
170.9132, 4890.659
171.3953, 4879.084
171.8774, 4890.945
172.3595, 4923.033
172.8416, 4950.429
173.3238, 4950.107
173.8059, 4934.492
174.2880, 4923.839
174.7701, 4934.864
175.2522, 4948.660
175.7343, 4940.338
176.2165, 4909.684
176.6986, 4872.701
177.1807, 4837.967
177.6628, 4807.065
178.1449, 4783.009
178.6270, 4769.448
179.1092, 4763.105
179.5913, 4758.551
180.0734, 4755.719
180.5555, 4754.332
181.0376, 4754.985
181.5197, 4757.148
182.0019, 4758.564
182.4840, 4757.933
182.9661, 4755.673
183.4482, 4753.342
183.9303, 4751.568
184.4124, 4748.243
184.8945, 4735.823
185.3767, 4715.894
185.8588, 4702.903
186.3409, 4712.014
186.8230, 4737.622
187.3051, 4754.568
187.7872, 4758.176
188.2694, 4754.166
188.7515, 4753.744
189.2336, 4757.033
189.7157, 4759.883
190.1978, 4757.848
190.6799, 4751.685
191.1621, 4749.046
191.6442, 4752.614
192.1263, 4759.772
192.6084, 4762.043
193.0905, 4758.713
193.5726, 4755.378
194.0548, 4758.195
194.5369, 4767.103
195.0190, 4773.800
195.5011, 4775.550
195.9832, 4773.475
196.4653, 4774.017
196.9474, 4777.968
197.4296, 4781.856
197.9117, 4780.797
198.3938, 4774.105
198.8759, 4769.939
199.3580, 4771.295
199.8401, 4777.833
200.3223, 4784.722
200.8044, 4792.390
201.2865, 4799.534
201.7686, 4803.870
202.2507, 4804.933
202.7328, 4806.122
203.2150, 4810.184
203.6971, 4817.652
204.1792, 4817.054
204.6613, 4805.597
205.1434, 4789.756
205.6255, 4779.468
206.1077, 4774.042
206.5898, 4776.336
207.0719, 4791.356
207.5540, 4823.449
208.0361, 4842.885
208.5182, 4845.344
209.0004, 4838.252
209.4825, 4839.393
209.9646, 4852.794
210.4467, 4864.055
210.9288, 4862.313
211.4109, 4840.002
211.8931, 4836.976
212.3752, 4864.028
212.8573, 4908.089
213.3394, 4928.063
213.8215, 4914.260
214.3036, 4895.838
214.7858, 4888.606
215.2679, 4893.327
215.7500, 4907.326
216.2321, 4934.203
216.7142, 4970.210
217.1963, 4998.911
217.6785, 5017.829
218.1606, 5033.050
218.6427, 5048.885
219.1248, 5066.186
219.6069, 5081.240
220.0890, 5092.626
220.5712, 5100.925
221.0533, 5111.922
221.5354, 5126.420
222.0175, 5142.437
222.4996, 5158.792
222.9817, 5176.749
223.4638, 5192.800
223.9460, 5208.444
224.4281, 5223.401
224.9102, 5224.388
225.3923, 5203.348
225.8744, 5177.708
226.3565, 5164.800
226.8387, 5175.492
227.3208, 5176.399
227.8029, 5160.685
228.2850, 5127.986
228.7671, 5088.060
229.2492, 5030.653
229.7314, 4975.219
230.2135, 4944.343
230.6956, 4950.325
231.1777, 4956.648
231.6598, 4956.512
232.1419, 4949.708
232.6241, 4937.826
233.1062, 4918.582
233.5883, 4896.054
234.0704, 4875.221
234.5525, 4854.324
235.0346, 4838.065
235.5167, 4828.530
235.9989, 4826.915
236.4810, 4824.457
236.9631, 4820.493
237.4452, 4816.150
237.9273, 4813.882
238.4094, 4818.264
238.8916, 4816.491
239.3737, 4801.161
239.8558, 4765.223
240.3379, 4748.861
240.8200, 4761.504
241.3021, 4787.786
241.7843, 4804.295
242.2664, 4807.708
242.7485, 4806.650
243.2306, 4803.421
243.7127, 4797.939
244.1948, 4790.021
244.6770, 4776.300
245.1591, 4762.015
245.6412, 4757.229
246.1233, 4767.925
246.6054, 4778.177
247.0875, 4782.093
247.5696, 4777.114
248.0518, 4774.631
248.5339, 4777.411
249.0160, 4781.255
249.4981, 4777.020
249.9802, 4758.130
250.4623, 4742.118
250.9445, 4736.283
251.4266, 4744.920
251.9087, 4750.825
252.3908, 4755.337
252.8729, 4756.467
253.3550, 4748.324
253.8372, 4723.729
254.3193, 4702.624
254.8014, 4692.567
255.2835, 4694.987
255.7656, 4704.931
256.2477, 4725.177
256.7299, 4751.699
257.2120, 4776.349
257.6941, 4802.525
258.1762, 4820.885
258.6583, 4825.536
259.1404, 4809.162
259.6226, 4800.940
260.1047, 4800.977
260.5868, 4809.060
261.0689, 4826.895
261.5510, 4860.739
262.0331, 4891.706
262.5153, 4908.748
262.9974, 4904.862
263.4795, 4912.720
263.9616, 4935.563
264.4437, 4968.607
264.9258, 4999.913
265.4079, 5028.569
265.8900, 5058.552
266.3722, 5091.757
266.8543, 5129.573
267.3364, 5165.563
267.8185, 5197.066
268.3006, 5228.897
268.7827, 5273.875
269.2649, 5336.390
269.7470, 5400.881
270.2291, 5458.426
270.7112, 5506.714
271.1933, 5563.045
271.6754, 5631.756
272.1576, 5705.324
272.6397, 5760.526
273.1218, 5789.886
273.6039, 5828.383
274.0860, 5902.466
274.5681, 6017.430
275.0503, 6108.088
275.5324, 6166.814
276.0145, 6206.193
276.4966, 6250.856
276.9787, 6300.841
277.4608, 6354.943
277.9430, 6417.151
278.4251, 6487.669
278.9072, 6544.710
279.3893, 6586.851
279.8714, 6615.778
280.3535, 6636.890
280.8357, 6651.520
281.3178, 6648.168
281.7999, 6618.810
282.2820, 6563.598
282.7641, 6494.573
283.2462, 6408.223
283.7284, 6315.360
284.2105, 6238.316
284.6926, 6177.919
285.1747, 6111.122
285.6568, 6018.324
286.1389, 5903.905
286.6211, 5810.677
287.1032, 5742.366
287.5853, 5689.153
288.0674, 5638.393
288.5495, 5590.042
289.0316, 5542.884
289.5137, 5493.132
289.9958, 5443.411
290.4780, 5408.299
290.9601, 5391.344
291.4422, 5380.053
291.9243, 5359.630
292.4064, 5330.469
292.8885, 5295.632
293.3707, 5254.002
293.8528, 5207.994
294.3349, 5161.394
294.8170, 5113.861
295.2991, 5070.182
295.7813, 5037.502
296.2634, 5014.440
296.7455, 4996.063
297.2276, 4986.408
297.7097, 4978.618
298.1918, 4958.291
298.6740, 4923.867
299.1561, 4885.021
299.6382, 4854.354
300.1203, 4827.809
300.6024, 4795.205
301.0845, 4744.862
301.5667, 4688.423
302.0488, 4640.840
302.5309, 4603.648
303.0130, 4570.878
303.4951, 4537.529
303.9772, 4505.217
304.4594, 4477.967
304.9415, 4462.732
305.4236, 4450.173
305.9057, 4429.283
306.3878, 4399.940
306.8699, 4370.314
307.3521, 4345.289
307.8342, 4323.859
308.3163, 4304.018
308.7984, 4283.518
309.2805, 4265.661
309.7626, 4255.338
310.2448, 4252.257
310.7269, 4246.009
311.2090, 4225.825
311.6911, 4200.587
312.1732, 4180.468
312.6553, 4175.374
313.1375, 4170.855
313.6196, 4158.891
314.1017, 4139.961
314.5838, 4120.037
315.0659, 4100.389
315.5480, 4081.580
316.0301, 4063.878
316.5122, 4049.771
316.9944, 4034.615
317.4765, 4015.563
317.9586, 3993.344
318.4407, 3972.847
318.9228, 3957.736
319.4049, 3943.446
319.8871, 3926.698
320.3692, 3897.639
320.8513, 3876.989
321.3334, 3878.021
321.8155, 3893.859
322.2976, 3897.046
322.7798, 3871.167
323.2619, 3838.994
323.7440, 3811.746
324.2261, 3793.744
324.7082, 3776.323
325.1903, 3760.076
325.6725, 3744.034
326.1546, 3725.322
326.6367, 3691.428
327.1188, 3665.379
327.6009, 3657.147
328.0830, 3684.177
328.5652, 3697.880
329.0473, 3690.456
329.5294, 3671.167
330.0115, 3659.516
330.4936, 3667.847
330.9757, 3668.721
331.4579, 3650.106
331.9400, 3601.191
332.4221, 3568.656
332.9042, 3557.910
333.3863, 3560.285
333.8684, 3564.428
334.3506, 3574.696
334.8327, 3577.641
335.3148, 3566.629
335.7969, 3539.826
336.2790, 3520.598
336.7611, 3509.276
337.2433, 3505.092
337.7254, 3509.874
338.2075, 3527.809
338.6896, 3538.427
339.1717, 3535.439
339.6538, 3519.967
340.1359, 3501.822
340.6180, 3479.472
341.1002, 3459.512
341.5823, 3450.643
342.0644, 3453.281
342.5465, 3454.333
343.0286, 3449.596
343.5107, 3441.714
343.9929, 3440.190
344.4750, 3445.617
344.9571, 3451.278
345.4392, 3450.692
345.9213, 3444.968
346.4034, 3440.576
346.8856, 3439.250
347.3677, 3439.309
347.8498, 3437.154
348.3319, 3433.061
348.8140, 3430.254
349.2961, 3432.312
349.7783, 3437.206
350.2604, 3438.623
350.7425, 3433.094
351.2246, 3430.555
351.7067, 3453.126
352.1888, 3491.708
352.6710, 3514.229
353.1531, 3486.741
353.6352, 3439.567
354.1173, 3410.141
354.5994, 3403.940
355.0815, 3408.854
355.5637, 3421.735
356.0458, 3438.795
356.5279, 3452.818
357.0100, 3460.666
357.4921, 3464.140
357.9742, 3462.823
358.4564, 3456.325
358.9385, 3451.527
359.4206, 3456.113
359.9027, 3463.013
360.3848, 3464.049
360.8669, 3450.592
361.3491, 3436.178
361.8312, 3423.591
362.3133, 3413.268
362.7954, 3411.491
363.2775, 3427.497
363.7596, 3448.553
364.2417, 3465.253
364.7238, 3471.642
365.2060, 3478.184
365.6881, 3488.703
366.1702, 3501.867
366.6523, 3509.504
367.1344, 3506.613
367.6165, 3501.435
368.0987, 3497.759
368.5808, 3495.151
369.0629, 3494.852
369.5450, 3499.376
370.0271, 3505.976
370.5092, 3507.271
370.9914, 3497.549
371.4735, 3490.235
371.9556, 3491.446
372.4377, 3505.441
372.9198, 3512.698
373.4019, 3510.868
373.8841, 3504.488
374.3662, 3499.290
374.8483, 3493.743
375.3304, 3494.508
375.8125, 3506.250
376.2946, 3528.525
376.7768, 3542.842
377.2589, 3548.003
377.7410, 3548.743
378.2231, 3550.647
378.7052, 3553.855
379.1873, 3552.112
379.6695, 3540.285
380.1516, 3524.269
380.6337, 3523.108
381.1158, 3537.316
381.5979, 3555.958
382.0800, 3573.824
382.5622, 3589.659
383.0443, 3596.401
383.5264, 3590.470
384.0085, 3579.789
384.4906, 3577.209
384.9727, 3580.921
385.4549, 3581.888
385.9370, 3570.289
386.4191, 3553.957
386.9012, 3543.873
387.3833, 3541.368
387.8654, 3544.816
388.3475, 3557.301
388.8297, 3574.547
389.3118, 3588.446
389.7939, 3592.706
390.2760, 3593.818
390.7581, 3597.638
391.2402, 3604.690
391.7224, 3607.674
392.2045, 3596.299
392.6866, 3581.553
393.1687, 3574.879
393.6508, 3587.757
394.1329, 3601.319
394.6151, 3608.260
395.0972, 3609.485
395.5793, 3612.307
396.0614, 3619.115
396.5435, 3627.527
397.0256, 3636.240
397.5078, 3648.918
397.9899, 3657.053
398.4720, 3655.052
398.9541, 3647.944
399.4362, 3649.049
399.9183, 3668.468
400.4005, 3684.546
400.8826, 3687.736
401.3647, 3670.911
401.8468, 3665.640
402.3289, 3676.271
402.8110, 3694.851
403.2932, 3711.250
403.7753, 3725.885
404.2574, 3736.927
404.7395, 3742.408
405.2216, 3742.925
405.7037, 3748.714
406.1859, 3761.600
406.6680, 3774.282
407.1501, 3778.402
407.6322, 3773.995
408.1143, 3774.319
408.5964, 3784.549
409.0786, 3798.140
409.5607, 3797.929
410.0428, 3784.313
410.5249, 3770.654
411.0070, 3763.281
411.4891, 3762.898
411.9713, 3774.923
412.4534, 3803.857
412.9355, 3830.987
413.4176, 3832.231
413.8997, 3814.393
414.3818, 3797.141
414.8639, 3789.673
415.3460, 3787.265
415.8282, 3788.243
416.3103, 3792.682
416.7924, 3790.801
417.2745, 3766.164
417.7566, 3735.273
418.2387, 3717.188
418.7209, 3733.942
419.2030, 3749.594
419.6851, 3742.458
420.1672, 3718.396
420.6493, 3707.714
421.1314, 3737.165
421.6136, 3770.218
422.0957, 3785.339
422.5778, 3763.863
423.0599, 3750.002
423.5420, 3750.887
424.0241, 3762.002
424.5063, 3773.997
424.9884, 3793.213
425.4705, 3806.110
425.9526, 3808.233
426.4347, 3798.182
426.9168, 3784.846
427.3990, 3763.568
427.8811, 3744.130
428.3632, 3739.222
428.8453, 3754.497
429.3274, 3764.669
429.8095, 3762.398
430.2917, 3751.632
430.7738, 3752.738
431.2559, 3767.852
431.7380, 3783.587
432.2201, 3788.059
432.7022, 3782.773
433.1844, 3784.435
433.6665, 3795.653
434.1486, 3812.251
434.6307, 3831.441
435.1128, 3851.795
435.5949, 3865.033
436.0771, 3865.119
436.5592, 3856.066
437.0413, 3839.550
437.5234, 3815.025
438.0055, 3799.429
438.4876, 3816.960
438.9697, 3849.594
439.4518, 3870.403
439.9340, 3862.406
440.4161, 3847.999
440.8982, 3837.832
441.3803, 3832.399
441.8624, 3833.810
442.3445, 3854.223
442.8267, 3874.326
443.3088, 3879.035
443.7909, 3854.341
444.2730, 3840.494
444.7551, 3856.945
445.2372, 3887.654
445.7194, 3906.631
446.2015, 3900.616
446.6836, 3892.396
447.1657, 3885.434
447.6478, 3879.303
448.1299, 3879.816
448.6121, 3892.794
449.0942, 3906.475
449.5763, 3910.145
450.0584, 3898.886
450.5405, 3891.353
451.0226, 3889.295
451.5048, 3892.526
451.9869, 3902.844
452.4690, 3922.235
452.9511, 3938.235
453.4332, 3940.135
453.9153, 3929.638
454.3975, 3929.689
454.8796, 3942.338
455.3617, 3960.090
455.8438, 3978.714
456.3259, 3995.908
456.8080, 4000.338
457.2902, 3978.166
457.7723, 3947.525
458.2544, 3934.828
458.7365, 3938.821
459.2186, 3946.977
459.7007, 3951.047
460.1829, 3954.217
460.6650, 3961.190
461.1471, 3976.455
461.6292, 3987.848
462.1113, 3982.757
462.5934, 3968.949
463.0755, 3961.457
463.5576, 3970.283
464.0398, 3982.472
464.5219, 3992.856
465.0040, 4000.898
465.4861, 4008.339
465.9682, 4014.183
466.4503, 4020.227
466.9325, 4028.143
467.4146, 4041.915
467.8967, 4051.906
468.3788, 4057.275
468.8609, 4058.207
469.3430, 4053.688
469.8252, 4037.733
470.3073, 4027.993
470.7894, 4036.360
471.2715, 4066.824
471.7536, 4085.466
472.2357, 4090.517
472.7179, 4087.667
473.2000, 4081.422
473.6821, 4072.022
474.1642, 4068.426
474.6463, 4075.811
475.1284, 4089.083
475.6106, 4095.571
476.0927, 4095.817
476.5748, 4097.802
477.0569, 4113.860
477.5390, 4133.777
478.0211, 4138.591
478.5033, 4120.530
478.9854, 4102.710
479.4675, 4108.231
479.9496, 4126.906
480.4317, 4139.708
480.9138, 4131.390
481.3960, 4120.913
481.8781, 4120.203
482.3602, 4129.532
482.8423, 4135.885
483.3244, 4127.963
483.8065, 4120.299
484.2887, 4123.086
484.7708, 4148.749
485.2529, 4171.218
485.7350, 4190.078
486.2171, 4205.048
486.6992, 4215.079
487.1813, 4220.165
487.6635, 4220.364
488.1456, 4214.676
488.6277, 4202.654
489.1098, 4190.143
489.5919, 4174.551
490.0740, 4164.547
490.5562, 4171.242
491.0383, 4194.656
491.5204, 4219.397
492.0025, 4245.268
492.4846, 4266.929
492.9667, 4270.005
493.4489, 4256.109
493.9310, 4240.811
494.4131, 4233.273
494.8952, 4230.287
495.3773, 4225.738
495.8594, 4218.741
496.3416, 4215.523
496.8237, 4221.371
497.3058, 4233.929
497.7879, 4249.970
498.2700, 4273.857
498.7521, 4295.699
499.2343, 4312.948
499.7164, 4324.963
500.1985, 4329.626
500.6806, 4320.364
501.1627, 4308.399
501.6448, 4298.200
502.1270, 4287.660
502.6091, 4285.477
503.0912, 4299.945
503.5733, 4317.899
504.0554, 4323.365
504.5375, 4308.333
505.0197, 4297.743
505.5018, 4296.591
505.9839, 4303.293
506.4660, 4311.397
506.9481, 4321.772
507.4302, 4329.831
507.9124, 4330.034
508.3945, 4323.646
508.8766, 4325.818
509.3587, 4338.815
509.8408, 4354.538
510.3229, 4364.487
510.8051, 4369.298
511.2871, 4371.054
511.7693, 4371.515
512.2514, 4368.404
512.7335, 4354.075
513.2156, 4331.845
513.6978, 4317.186
514.1799, 4324.417
514.6620, 4339.789
515.1441, 4352.275
515.6262, 4358.698
516.1083, 4367.292
516.5905, 4382.906
517.0726, 4401.463
517.5547, 4418.022
518.0368, 4437.369
518.5189, 4448.311
519.0010, 4447.838
519.4832, 4436.807
519.9653, 4421.084
520.4474, 4391.817
520.9295, 4371.073
521.4116, 4373.732
521.8937, 4405.847
522.3759, 4429.197
522.8580, 4441.905
523.3401, 4448.550
523.8221, 4453.996
524.3043, 4458.336
524.7864, 4463.878
525.2685, 4473.704
525.7506, 4483.158
526.2327, 4479.279
526.7148, 4464.068
527.1970, 4452.189
527.6791, 4459.315
528.1612, 4472.982
528.6433, 4475.848
529.1254, 4463.756
529.6075, 4453.583
530.0897, 4455.865
530.5718, 4466.098
531.0539, 4478.682
531.5360, 4496.720
532.0181, 4511.958
532.5002, 4521.488
532.9824, 4525.879
533.4645, 4529.558
533.9466, 4537.182
534.4287, 4539.639
534.9108, 4529.638
535.3929, 4498.354
535.8751, 4492.754
536.3572, 4524.825
536.8393, 4566.456
537.3214, 4584.827
537.8035, 4577.095
538.2856, 4572.720
538.7678, 4579.592
539.2499, 4591.171
539.7320, 4588.680
540.2141, 4573.459
540.6962, 4562.672
541.1783, 4568.413
541.6605, 4584.940
542.1426, 4607.875
542.6247, 4637.818
543.1068, 4655.964
543.5889, 4628.268
544.0710, 4587.929
544.5532, 4576.229
545.0353, 4627.072
545.5174, 4677.341
545.9995, 4703.469
546.4816, 4710.274
546.9637, 4709.487
547.4459, 4695.339
547.9280, 4681.785
548.4101, 4671.277
548.8922, 4663.188
549.3743, 4667.960
549.8564, 4696.656
550.3386, 4724.253
550.8207, 4727.774
551.3028, 4699.141
551.7849, 4688.026
552.2670, 4702.901
552.7491, 4730.078
553.2313, 4749.747
553.7134, 4761.703
554.1955, 4761.960
554.6776, 4741.125
555.1597, 4711.153
555.6418, 4697.151
556.1240, 4697.821
556.6061, 4700.508
557.0882, 4690.879
557.5703, 4681.359
558.0524, 4688.856
558.5345, 4722.676
559.0167, 4750.021
559.4988, 4746.310
559.9809, 4729.938
560.4630, 4724.697
560.9451, 4749.586
561.4272, 4771.093
561.9094, 4781.129
562.3915, 4781.645
562.8736, 4781.684
563.3557, 4778.951
563.8378, 4779.117
564.3199, 4784.013
564.8021, 4793.406
565.2842, 4812.385
565.7663, 4844.904
566.2484, 4875.653
566.7305, 4883.302
567.2126, 4870.731
567.6948, 4867.191
568.1769, 4883.426
568.6590, 4902.743
569.1411, 4896.437
569.6232, 4871.365
570.1053, 4851.039
570.5875, 4850.719
571.0696, 4858.075
571.5517, 4862.292
572.0338, 4863.129
572.5159, 4867.126
572.9980, 4882.583
573.4801, 4898.803
573.9622, 4907.078
574.4443, 4896.124
574.9265, 4895.372
575.4086, 4917.896
575.8907, 4947.244
576.3728, 4961.331
576.8549, 4953.202
577.3370, 4944.250
577.8192, 4937.886
578.3013, 4934.148
578.7834, 4933.754
579.2655, 4937.165
579.7476, 4940.738
580.2297, 4941.660
580.7119, 4940.844
581.1940, 4940.591
581.6761, 4940.721
582.1582, 4944.800
582.6403, 4956.724
583.1224, 4974.814
583.6046, 4997.328
584.0867, 5030.584
584.5688, 5057.063
585.0509, 5064.160
585.5330, 5056.813
586.0151, 5045.462
586.4973, 5022.504
586.9794, 5006.528
587.4615, 5007.070
587.9436, 5024.917
588.4257, 5038.626
588.9078, 5047.818
589.3900, 5053.328
589.8721, 5054.259
590.3542, 5048.290
590.8363, 5048.426
591.3184, 5055.945
591.8005, 5067.352
592.2827, 5079.652
592.7648, 5092.542
593.2469, 5102.914
593.7290, 5109.878
594.2111, 5113.972
594.6932, 5115.174
595.1754, 5114.049
595.6575, 5112.764
596.1396, 5106.431
596.6217, 5104.714
597.1038, 5119.193
597.5859, 5150.439
598.0681, 5177.726
598.5502, 5190.935
599.0323, 5198.679
599.5144, 5207.057
599.9965, 5217.746
600.4786, 5227.622
600.9608, 5237.375
601.4429, 5245.961
601.9250, 5251.959
602.4071, 5255.611
602.8892, 5255.326
603.3713, 5248.130
603.8535, 5238.271
604.3356, 5240.852
604.8177, 5255.842
605.2998, 5272.355
605.7819, 5281.747
606.2640, 5288.638
606.7462, 5307.171
607.2283, 5337.875
607.7104, 5358.280
608.1925, 5338.073
608.6746, 5305.408
609.1567, 5291.653
609.6389, 5313.505
610.1210, 5334.815
610.6031, 5341.112
611.0852, 5339.425
611.5673, 5340.467
612.0494, 5346.066
612.5316, 5353.796
613.0137, 5364.495
613.4958, 5377.117
613.9779, 5387.151
614.4600, 5394.434
614.9421, 5399.413
615.4243, 5402.308
615.9064, 5403.125
616.3885, 5400.785
616.8706, 5394.863
617.3527, 5390.885
617.8348, 5393.570
618.3170, 5402.059
618.7991, 5416.243
619.2812, 5439.201
619.7633, 5458.458
620.2454, 5461.278
620.7275, 5454.911
621.2097, 5450.546
621.6918, 5451.976
622.1739, 5455.850
622.6559, 5459.883
623.1381, 5465.131
623.6202, 5477.253
624.1023, 5505.655
624.5844, 5528.302
625.0665, 5536.209
625.5486, 5528.803
626.0308, 5520.493
626.5129, 5509.488
626.9950, 5503.528
627.4771, 5512.880
627.9592, 5534.340
628.4413, 5549.323
628.9235, 5555.125
629.4056, 5556.610
629.8877, 5557.338
630.3698, 5557.895
630.8519, 5559.308
631.3340, 5560.524
631.8162, 5564.333
632.2983, 5577.827
632.7804, 5595.734
633.2625, 5602.857
633.7446, 5568.934
634.2267, 5550.231
634.7089, 5576.667
635.1910, 5648.665
635.6731, 5684.700
636.1552, 5669.578
636.6373, 5645.706
637.1194, 5638.160
637.6016, 5647.367
638.0837, 5664.409
638.5658, 5691.059
639.0479, 5716.603
639.5300, 5726.852
