##NAMES=Calcioaravaipaite
##RRUFFID=R100033
##IDEAL CHEMISTRY=Pb^2+^Ca_2_AlF_9_
##LOCALITY=Grand Reef mine, Klondyke, Aravaipa District, Graham County, Arizona, USA
##OWNER=RRUFF
##SOURCE=Natural History Museum of Los Angeles County
##DESCRIPTION=Colorless fragments from type specimen, associated with artroeite R100034.  Photos of type specimen are courtesy of LACMNH. Same sample as used in the Kampf et al (2011) study.
##STATUS=The identification of this mineral has been confirmed by single-crystal X-ray diffraction.
##URL=rruff.info/R100033
93.46167, 226.5424
93.94379, 226.0075
94.42590, 222.8996
94.90802, 219.0811
95.39014, 216.2147
95.87225, 214.6754
96.35437, 212.6178
96.83649, 208.8735
97.31860, 204.6431
97.80072, 201.1695
98.28284, 198.9129
98.76495, 197.4590
99.24707, 195.9033
99.72919, 194.3332
100.2113, 192.6375
100.6934, 190.5778
101.1755, 188.3187
101.6577, 186.2374
102.1398, 184.6824
102.6219, 183.8123
103.1040, 182.5866
103.5861, 180.3261
104.0682, 178.2911
104.5504, 177.3608
105.0325, 177.5807
105.5146, 178.1384
105.9967, 177.8783
106.4788, 176.4061
106.9609, 175.0323
107.4431, 173.8457
107.9252, 172.7757
108.4073, 171.7851
108.8894, 170.9114
109.3715, 169.9716
109.8536, 168.5473
110.3358, 166.4617
110.8179, 164.6341
111.3000, 163.6736
111.7821, 163.5030
112.2642, 163.3679
112.7463, 162.8430
113.2285, 162.3254
113.7106, 162.2393
114.1927, 162.7224
114.6748, 163.4627
115.1569, 164.1010
115.6390, 164.7328
116.1212, 164.9902
116.6033, 164.5213
117.0854, 163.7754
117.5675, 163.1936
118.0496, 163.0038
118.5317, 163.1185
119.0139, 163.1151
119.4960, 162.5627
119.9781, 162.3682
120.4602, 163.0583
120.9423, 164.2134
121.4244, 165.0844
121.9066, 165.0551
122.3887, 164.0348
122.8708, 163.3738
123.3529, 163.4838
123.8350, 163.5016
124.3171, 162.8660
124.7993, 161.6325
125.2814, 160.4084
125.7635, 159.8331
126.2456, 160.0916
126.7277, 160.1534
127.2098, 159.9744
127.6920, 159.6045
128.1741, 159.0362
128.6562, 158.2370
129.1383, 157.3962
129.6204, 156.7911
130.1025, 156.3918
130.5847, 155.9481
131.0668, 155.3609
131.5489, 154.6495
132.0310, 153.8396
132.5131, 152.7061
132.9952, 151.7497
133.4774, 151.4622
133.9595, 151.8431
134.4416, 152.3083
134.9237, 152.3040
135.4058, 151.7546
135.8879, 151.2697
136.3701, 150.9842
136.8522, 150.7901
137.3343, 150.7628
137.8164, 150.8984
138.2985, 150.9120
138.7806, 150.2000
139.2628, 147.9667
139.7449, 146.4898
140.2270, 146.3587
140.7091, 146.7655
141.1912, 146.9905
141.6733, 146.7084
142.1555, 146.0968
142.6376, 145.7696
143.1197, 146.1536
143.6018, 146.3603
144.0839, 146.1518
144.5660, 145.7188
145.0482, 145.3721
145.5303, 145.2992
146.0124, 145.4603
146.4945, 145.5539
146.9766, 145.5893
147.4587, 145.5662
147.9409, 145.3147
148.4230, 144.9313
148.9051, 144.8781
149.3872, 145.6615
149.8693, 147.0808
150.3514, 147.9009
150.8336, 147.6789
151.3157, 147.1109
151.7978, 146.7471
152.2799, 146.5967
152.7620, 146.6620
153.2441, 147.1090
153.7263, 147.7710
154.2084, 148.3893
154.6905, 148.7792
155.1726, 149.0777
155.6547, 149.7168
156.1368, 151.1283
156.6190, 152.0450
157.1011, 151.3051
157.5832, 149.6434
158.0653, 148.5036
158.5474, 149.0735
159.0295, 151.1920
159.5117, 152.7119
159.9938, 153.1806
160.4759, 153.4352
160.9580, 153.7024
161.4401, 154.0015
161.9222, 154.3040
162.4044, 154.5943
162.8865, 154.8862
163.3686, 155.0858
163.8507, 155.0491
164.3328, 155.0499
164.8149, 155.2870
165.2971, 155.7232
165.7792, 156.1091
166.2613, 156.0943
166.7434, 155.3018
167.2255, 155.2885
167.7076, 156.9442
168.1898, 158.6660
168.6719, 159.0193
169.1540, 157.8166
169.6361, 156.3522
170.1182, 156.5857
170.6003, 159.7120
171.0825, 161.4702
171.5646, 160.6031
172.0467, 158.6868
172.5288, 157.5219
173.0109, 157.6515
173.4930, 158.3966
173.9752, 158.7415
174.4573, 158.7164
174.9394, 158.4495
175.4215, 157.8047
175.9036, 156.9436
176.3857, 156.2361
176.8679, 155.7998
177.3500, 155.5308
177.8321, 155.3478
178.3142, 155.2806
178.7963, 155.0401
179.2784, 154.1558
179.7606, 152.7602
180.2427, 152.0597
180.7248, 152.9858
181.2069, 154.2111
181.6890, 154.5428
182.1711, 153.8732
182.6533, 152.8610
183.1354, 152.1058
183.6175, 151.6426
184.0996, 151.1623
184.5817, 150.1712
185.0638, 149.4160
185.5460, 149.5665
186.0281, 150.7352
186.5102, 152.1644
186.9923, 152.7802
187.4744, 152.3191
187.9565, 151.6998
188.4387, 150.6676
188.9208, 149.7586
189.4029, 149.4564
189.8850, 149.8848
190.3671, 150.6816
190.8492, 151.1588
191.3314, 151.0576
191.8135, 151.0296
192.2956, 151.1584
192.7777, 151.3469
193.2598, 151.5244
193.7419, 151.6608
194.2241, 151.7505
194.7062, 151.7805
195.1883, 151.7560
195.6704, 151.6515
196.1525, 151.1669
196.6346, 150.6989
197.1168, 150.7732
197.5989, 151.6323
198.0810, 153.0095
198.5631, 154.1456
199.0452, 155.0836
199.5273, 155.7555
200.0095, 155.8604
200.4916, 155.7268
200.9737, 156.0010
201.4558, 157.0797
201.9379, 158.5217
202.4200, 158.9702
202.9022, 157.8118
203.3843, 156.9418
203.8664, 157.2130
204.3485, 158.3139
204.8306, 159.4004
205.3127, 160.1296
205.7949, 160.6084
206.2770, 161.0815
206.7591, 161.5239
207.2412, 162.0137
207.7233, 162.5314
208.2054, 163.1049
208.6876, 163.9605
209.1697, 165.5427
209.6518, 167.1644
210.1339, 167.6743
210.6160, 166.5904
211.0981, 165.6558
211.5803, 166.6347
212.0624, 169.5311
212.5445, 171.9760
213.0266, 172.5928
213.5087, 172.6846
213.9908, 173.5670
214.4730, 175.5394
214.9551, 177.6638
215.4372, 178.7413
215.9193, 178.5598
216.4014, 178.6832
216.8836, 179.8675
217.3657, 181.3591
217.8478, 182.6952
218.3299, 183.7576
218.8120, 184.7256
219.2941, 185.8424
219.7763, 187.1616
220.2584, 188.4485
220.7405, 189.7466
221.2226, 190.9542
221.7047, 191.8693
222.1868, 192.4614
222.6690, 193.0913
223.1511, 194.3967
223.6332, 196.7684
224.1153, 198.9582
224.5974, 200.9362
225.0795, 202.6644
225.5617, 204.1008
226.0438, 205.2367
226.5259, 206.1051
227.0080, 206.7267
227.4901, 206.8709
227.9722, 207.1877
228.4544, 207.6904
228.9365, 208.3495
229.4186, 209.1774
229.9007, 210.1625
230.3828, 211.2334
230.8649, 212.2636
231.3471, 213.3081
231.8292, 214.2103
232.3113, 215.0045
232.7934, 215.6507
233.2755, 215.9852
233.7576, 216.0001
234.2398, 216.0327
234.7219, 216.6788
235.2040, 218.7224
235.6861, 219.9418
236.1682, 219.6240
236.6503, 218.8864
237.1325, 218.7931
237.6146, 219.6108
238.0967, 220.7813
238.5788, 221.4705
239.0609, 221.3982
239.5430, 221.4490
240.0252, 221.8161
240.5073, 222.2348
240.9894, 222.3277
241.4715, 222.0088
241.9536, 221.7179
242.4357, 222.0926
242.9179, 223.2954
243.4000, 224.4706
243.8821, 225.6705
244.3642, 226.7437
244.8463, 227.4489
245.3284, 227.7265
245.8106, 227.8916
246.2927, 228.2898
246.7748, 228.9220
247.2569, 229.6875
247.7390, 230.8400
248.2211, 232.0069
248.7033, 232.5517
249.1854, 232.2888
249.6675, 232.1364
250.1496, 233.2988
250.6317, 235.5600
251.1138, 237.4089
251.5960, 238.1825
252.0781, 238.5304
252.5602, 239.4815
253.0423, 241.2712
253.5244, 242.8013
254.0065, 242.5975
254.4887, 241.2841
254.9708, 240.5972
255.4529, 241.4696
255.9350, 243.0097
256.4171, 244.0049
256.8992, 244.3676
257.3813, 244.4292
257.8635, 244.3200
258.3456, 244.0747
258.8277, 243.7102
259.3098, 243.1248
259.7919, 242.4866
260.2740, 242.1584
260.7562, 242.2793
261.2383, 242.1037
261.7204, 241.1740
262.2025, 239.6875
262.6846, 237.7359
263.1667, 235.1662
263.6489, 232.3594
264.1310, 229.7750
264.6131, 227.3976
265.0952, 225.3100
265.5773, 223.8200
266.0594, 222.5482
266.5416, 221.1827
267.0237, 219.6758
267.5058, 217.9565
267.9879, 215.8651
268.4700, 213.3437
268.9521, 210.7489
269.4343, 208.0103
269.9164, 205.3447
270.3985, 202.9726
270.8806, 200.9583
271.3627, 199.1140
271.8448, 197.2595
272.3270, 195.4097
272.8091, 193.4260
273.2912, 191.0116
273.7733, 188.6140
274.2554, 186.5486
274.7375, 184.8487
275.2197, 183.2655
275.7018, 181.4944
276.1839, 179.5069
276.6660, 177.5550
277.1481, 175.5119
277.6302, 173.6480
278.1124, 172.1855
278.5945, 171.1054
279.0766, 170.1924
279.5587, 169.3624
280.0408, 168.6745
280.5229, 167.5240
281.0051, 165.1812
281.4872, 162.9671
281.9693, 161.3830
282.4514, 160.4251
282.9335, 159.8937
283.4156, 159.8548
283.8978, 160.3353
284.3799, 160.0060
284.8620, 157.8169
285.3441, 155.8373
285.8262, 154.9712
286.3083, 154.8771
286.7905, 154.7099
287.2726, 153.7900
287.7547, 152.2385
288.2368, 151.2582
288.7189, 151.2910
289.2010, 151.4194
289.6832, 151.5403
290.1653, 151.5637
290.6474, 151.3186
291.1295, 150.6472
291.6116, 149.7375
292.0938, 149.4032
292.5759, 150.2307
293.0580, 150.8113
293.5401, 150.7598
294.0222, 150.3828
294.5043, 149.9899
294.9865, 149.7145
295.4686, 149.5578
295.9507, 149.5218
296.4328, 149.6059
296.9149, 149.8332
297.3970, 150.3179
297.8792, 150.8602
298.3613, 151.2808
298.8434, 151.5282
299.3255, 151.6845
299.8076, 151.8553
300.2897, 151.9442
300.7719, 152.2863
301.2540, 153.0426
301.7361, 153.9061
302.2182, 154.7590
302.7003, 155.5432
303.1824, 156.1895
303.6646, 156.5467
304.1467, 156.4347
304.6288, 156.6955
305.1109, 157.5392
305.5930, 158.5471
306.0751, 159.6526
306.5573, 160.7729
307.0394, 161.7491
307.5215, 162.3975
308.0036, 162.6882
308.4857, 163.1410
308.9678, 164.0556
309.4500, 164.8426
309.9321, 165.2095
310.4142, 165.3197
310.8963, 165.5280
311.3784, 166.0935
311.8605, 166.9599
312.3427, 167.6712
312.8248, 168.1298
313.3069, 168.5377
313.7890, 168.9745
314.2711, 169.3730
314.7532, 169.6250
315.2354, 169.6695
315.7175, 169.5895
316.1996, 169.6289
316.6817, 169.9103
317.1638, 170.1210
317.6459, 170.3487
318.1281, 170.4378
318.6102, 170.1633
319.0923, 169.4787
319.5744, 168.6571
320.0565, 168.1859
320.5386, 168.3161
321.0208, 168.2146
321.5029, 167.5836
321.9850, 166.9464
322.4671, 166.6863
322.9492, 166.8085
323.4313, 166.9981
323.9135, 166.8977
324.3956, 166.4406
324.8777, 166.0251
325.3598, 165.8606
325.8419, 165.5413
326.3240, 164.7551
326.8062, 163.6516
327.2883, 162.6441
327.7704, 162.0734
328.2525, 161.9116
328.7346, 161.6348
329.2167, 161.1947
329.6989, 160.6788
330.1810, 159.9531
330.6631, 159.2010
331.1452, 158.7324
331.6273, 158.7452
332.1094, 159.0419
332.5916, 158.9776
333.0737, 158.2390
333.5558, 157.6734
334.0379, 157.4109
334.5200, 157.3649
335.0021, 157.5400
335.4843, 157.9248
335.9664, 158.3154
336.4485, 158.3428
336.9306, 157.8486
337.4127, 157.4605
337.8948, 157.4917
338.3770, 157.4486
338.8591, 156.7863
339.3412, 155.5968
339.8233, 154.6660
340.3055, 155.0453
340.7876, 156.9400
341.2697, 158.0378
341.7518, 157.5129
342.2339, 156.9462
342.7160, 156.9554
343.1982, 157.4182
343.6803, 157.9608
344.1624, 158.3867
344.6445, 158.6805
345.1266, 158.7320
345.6087, 158.3579
346.0909, 158.0373
346.5730, 158.0126
347.0551, 158.0969
347.5372, 158.0261
348.0193, 157.6607
348.5014, 157.2025
348.9836, 157.0404
349.4657, 157.2668
349.9478, 157.4833
350.4299, 157.7276
350.9120, 157.8356
351.3941, 157.5753
351.8763, 156.9173
352.3584, 156.2531
352.8405, 156.1225
353.3226, 156.5505
353.8047, 156.5468
354.2868, 155.5896
354.7690, 154.5669
355.2511, 154.0613
355.7332, 153.9968
356.2153, 153.9876
356.6974, 153.8238
357.1795, 153.5206
357.6617, 153.1284
358.1438, 152.6341
358.6259, 152.0808
359.1080, 151.2830
359.5901, 150.4814
360.0722, 150.1347
360.5544, 150.6759
361.0365, 151.4295
361.5186, 151.3907
362.0007, 150.4731
362.4828, 149.4216
362.9649, 148.3860
363.4471, 147.4566
363.9292, 146.7906
364.4113, 146.4747
364.8934, 146.0974
365.3755, 145.1579
365.8576, 143.8048
366.3398, 142.8778
366.8219, 142.6498
367.3040, 142.7971
367.7861, 143.2013
368.2682, 143.8139
368.7503, 143.8941
369.2325, 142.7666
369.7146, 141.0289
370.1967, 139.6059
370.6788, 138.5472
371.1609, 137.9998
371.6430, 138.5009
372.1252, 139.6479
372.6073, 140.0762
373.0894, 139.0885
373.5715, 137.7371
374.0536, 136.7354
374.5357, 136.0698
375.0179, 135.6920
375.5000, 135.7166
375.9821, 135.8976
376.4642, 135.6200
376.9463, 134.6753
377.4284, 133.8230
377.9106, 133.2522
378.3927, 132.9776
378.8748, 133.1055
379.3569, 133.6962
379.8390, 134.4473
380.3211, 135.0161
380.8033, 135.4009
381.2854, 135.5489
381.7675, 135.2274
382.2496, 134.8291
382.7317, 134.6660
383.2138, 134.7454
383.6960, 134.8989
384.1781, 135.0140
384.6602, 135.0896
385.1423, 135.1242
385.6244, 134.9812
386.1065, 134.9531
386.5887, 135.2687
387.0708, 135.7392
387.5529, 136.0010
388.0350, 135.8843
388.5171, 135.6077
388.9992, 135.6672
389.4814, 136.6391
389.9635, 137.0404
390.4456, 136.2146
390.9277, 135.2617
391.4098, 135.1496
391.8919, 135.9563
392.3741, 137.0560
392.8562, 137.8345
393.3383, 138.2932
393.8204, 138.4243
394.3025, 138.1281
394.7846, 137.6369
395.2668, 136.6654
395.7489, 135.5928
396.2310, 135.1589
396.7131, 135.8548
397.1952, 137.2737
397.6773, 137.9863
398.1595, 137.5701
398.6416, 137.1065
399.1237, 136.3997
399.6058, 135.9095
400.0879, 136.1685
400.5700, 137.2420
401.0522, 138.5399
401.5343, 139.3922
402.0164, 139.7562
402.4985, 139.8854
402.9806, 139.4432
403.4627, 139.0886
403.9449, 139.0396
404.4270, 139.3043
404.9091, 139.8802
405.3912, 140.9166
405.8733, 142.1890
406.3554, 142.9207
406.8376, 142.8708
407.3197, 142.8920
407.8018, 143.4085
408.2839, 144.1273
408.7660, 144.7502
409.2481, 145.1980
409.7303, 145.6253
410.2124, 146.1817
410.6945, 146.8629
411.1766, 147.6548
411.6587, 148.7722
412.1408, 149.7085
412.6230, 149.8519
413.1051, 149.3190
413.5872, 148.9707
414.0693, 149.3355
414.5514, 150.0453
415.0335, 150.4837
415.5157, 150.5906
415.9978, 150.7365
416.4799, 151.3172
416.9620, 152.0815
417.4441, 152.2663
417.9262, 151.3310
418.4084, 150.4946
418.8905, 150.4933
419.3726, 151.1270
419.8547, 152.0095
420.3368, 153.1162
420.8189, 154.0634
421.3011, 154.1598
421.7832, 153.2485
422.2653, 152.2216
422.7474, 151.0102
423.2295, 149.8309
423.7116, 148.7794
424.1938, 147.9065
424.6759, 147.3742
425.1580, 147.3564
425.6401, 147.8186
426.1222, 148.1207
426.6043, 148.4457
427.0865, 148.4274
427.5686, 147.7470
428.0507, 146.7371
428.5328, 145.8312
429.0149, 145.1963
429.4970, 144.7508
429.9792, 144.3575
430.4613, 144.0458
430.9434, 143.7176
431.4255, 143.3423
431.9076, 142.9791
432.3897, 142.8393
432.8719, 142.7754
433.3540, 142.2852
433.8361, 140.8167
434.3182, 138.6157
434.8003, 137.5188
435.2824, 138.3449
435.7646, 139.0669
436.2467, 139.3061
436.7288, 139.1421
437.2109, 138.5394
437.6930, 137.4802
438.1751, 136.3749
438.6573, 135.8911
439.1394, 136.1088
439.6215, 135.7800
440.1036, 134.3306
440.5857, 132.7326
441.0678, 131.4388
441.5500, 130.4963
442.0321, 130.0257
442.5142, 130.5195
442.9963, 131.3504
443.4784, 131.2632
443.9605, 130.1439
444.4427, 128.9789
444.9248, 128.1495
445.4069, 127.6461
445.8890, 127.5118
446.3711, 127.9826
446.8532, 128.1653
447.3354, 127.3407
447.8175, 125.8988
448.2996, 124.6356
448.7817, 123.7122
449.2638, 123.1005
449.7459, 122.9249
450.2281, 123.2199
450.7102, 123.0228
451.1923, 121.5153
451.6744, 120.2007
452.1565, 120.4208
452.6386, 121.6861
453.1208, 122.4231
453.6029, 121.7823
454.0850, 120.1984
454.5671, 118.8714
455.0492, 117.9082
455.5313, 117.0805
456.0135, 116.3719
456.4956, 115.8056
456.9777, 115.4760
457.4598, 115.3445
457.9419, 115.1843
458.4240, 114.7545
458.9062, 114.0503
459.3883, 113.5145
459.8704, 113.4182
460.3525, 113.1835
460.8346, 112.5897
461.3167, 111.8230
461.7989, 111.1134
462.2810, 110.5451
462.7631, 110.0686
463.2452, 109.6158
463.7273, 109.1898
464.2094, 108.7629
464.6916, 108.2641
465.1737, 107.8319
465.6558, 107.6502
466.1379, 107.6270
466.6200, 107.4222
467.1021, 106.6189
467.5843, 105.6168
468.0664, 105.3584
468.5485, 105.9704
469.0306, 106.4012
469.5127, 106.1389
469.9948, 105.4255
470.4770, 104.5923
470.9591, 103.5384
471.4412, 102.7930
471.9233, 102.8575
472.4054, 103.3522
472.8875, 103.5460
473.3697, 103.2945
473.8518, 103.0001
474.3339, 103.0739
474.8160, 103.5053
475.2981, 103.6230
475.7802, 103.1592
476.2624, 102.6722
476.7445, 102.4428
477.2266, 102.3607
477.7087, 102.2062
478.1908, 101.8896
478.6729, 101.4727
479.1551, 101.0289
479.6372, 100.2981
480.1193, 100.1969
480.6014, 101.2911
481.0835, 102.4192
481.5656, 102.9550
482.0478, 102.9579
482.5299, 102.7779
483.0120, 102.6433
483.4941, 102.5052
483.9762, 102.1267
484.4583, 101.2086
484.9405, 100.6770
485.4226, 101.0951
485.9047, 101.6767
486.3868, 101.7754
486.8689, 101.3290
487.3510, 100.7900
487.8332, 100.4778
488.3153, 100.3830
488.7974, 100.4937
489.2795, 100.8996
489.7616, 101.2886
490.2437, 101.4861
490.7259, 101.5385
491.2080, 101.4741
491.6901, 101.2050
492.1722, 101.0023
492.6543, 101.1331
493.1364, 101.4900
493.6186, 101.7609
494.1007, 101.8640
494.5828, 101.8855
495.0649, 101.9336
495.5470, 102.0163
496.0291, 101.9829
496.5113, 101.5705
496.9934, 101.2809
497.4755, 101.5065
497.9576, 102.0901
498.4397, 102.6633
498.9218, 103.0543
499.4040, 103.2652
499.8861, 103.2787
500.3682, 102.9302
500.8503, 102.6835
501.3324, 102.3408
501.8145, 102.2515
502.2967, 102.8712
502.7788, 103.9732
503.2609, 104.8215
503.7430, 104.8337
504.2251, 104.2873
504.7072, 104.3271
505.1894, 105.3244
505.6715, 106.0560
506.1536, 105.8336
506.6357, 105.4776
507.1178, 105.6423
507.5999, 106.4010
508.0821, 107.3501
508.5642, 108.4546
509.0463, 109.5146
509.5284, 109.7705
510.0105, 108.9719
510.4926, 108.2886
510.9748, 108.4947
511.4569, 109.3279
511.9390, 110.1316
512.4211, 110.8439
512.9032, 111.5701
513.3853, 112.3475
513.8674, 113.1745
514.3495, 114.1346
514.8317, 115.2520
515.3138, 116.1394
515.7959, 116.2735
516.2780, 115.5503
516.7601, 115.7644
517.2422, 117.7546
517.7244, 119.5837
518.2065, 120.4378
518.6886, 120.7791
519.1707, 121.2841
519.6528, 122.1972
520.1349, 123.3475
520.6171, 124.5050
521.0992, 125.7055
521.5813, 126.7707
522.0634, 127.5792
522.5455, 128.3679
523.0276, 129.2910
523.5098, 130.2464
523.9919, 131.0041
524.4740, 131.4167
524.9561, 131.7324
525.4382, 132.3581
525.9203, 133.2968
526.4025, 134.2008
526.8846, 135.1592
527.3667, 135.8128
527.8488, 135.5629
528.3309, 134.5856
528.8130, 134.0510
529.2952, 134.6666
529.7773, 135.5885
530.2594, 136.0959
530.7415, 136.2238
531.2236, 136.2144
531.7057, 136.1609
532.1879, 136.0700
532.6700, 135.9746
533.1521, 136.0096
533.6342, 135.6939
534.1163, 134.9167
534.5984, 133.8759
535.0806, 132.4432
535.5627, 130.8443
536.0448, 129.6007
536.5269, 129.0463
537.0090, 129.0395
537.4911, 129.2955
537.9733, 130.4038
538.4554, 130.4439
538.9375, 128.1350
539.4196, 125.6168
539.9017, 124.2928
540.3839, 124.0383
540.8660, 123.7756
541.3481, 122.7610
541.8302, 121.3015
542.3123, 120.1126
542.7944, 119.2402
543.2766, 118.2142
543.7587, 116.5641
544.2408, 114.9254
544.7229, 114.3414
545.2050, 114.9585
545.6871, 115.2675
546.1693, 114.3475
546.6514, 113.1155
547.1335, 112.7343
547.6156, 113.1326
548.0977, 113.2653
548.5798, 112.4303
549.0620, 110.9760
549.5441, 110.0855
550.0262, 110.3207
550.5083, 110.3958
550.9904, 110.0947
551.4725, 109.7909
551.9547, 109.9087
552.4368, 110.3316
552.9189, 110.5066
553.4010, 109.9591
553.8831, 108.9162
554.3652, 108.3015
554.8474, 108.2206
555.3295, 108.3103
555.8116, 109.1188
556.2937, 109.6166
556.7758, 108.7414
557.2579, 106.5594
557.7401, 104.5293
558.2222, 103.4830
558.7043, 103.1479
559.1864, 103.3308
559.6685, 104.0271
560.1506, 104.0924
560.6328, 102.7157
561.1149, 100.6139
561.5970, 99.42178
562.0791, 99.47576
562.5612, 99.18388
563.0433, 97.84522
563.5255, 96.35495
564.0076, 95.43849
564.4897, 95.09177
564.9718, 94.99999
565.4539, 95.00179
565.9360, 94.98232
566.4182, 94.53680
566.9003, 93.40990
567.3824, 92.32304
567.8645, 91.26648
568.3466, 90.30866
568.8287, 89.34748
569.3109, 88.49870
569.7930, 88.19773
570.2751, 89.01909
570.7572, 90.23386
571.2393, 90.08427
571.7214, 88.43075
572.2036, 87.13477
572.6857, 86.90183
573.1678, 87.16161
573.6499, 87.33529
574.1320, 87.42575
574.6141, 87.27176
575.0963, 86.42640
575.5784, 85.63872
576.0605, 85.80630
576.5426, 86.63631
577.0247, 87.00581
577.5068, 86.35821
577.9890, 85.29786
578.4711, 85.00936
578.9532, 86.07101
579.4353, 86.42189
579.9174, 85.48869
580.3995, 84.51195
580.8817, 84.07851
581.3638, 84.04923
581.8459, 84.09788
582.3280, 84.08092
582.8101, 83.99299
583.2922, 83.78561
583.7744, 83.44404
584.2565, 83.21141
584.7386, 83.16132
585.2207, 83.16505
585.7029, 82.96980
586.1850, 82.74879
