##NAMES=Calcioancylite-(Ce)
##RRUFFID=R060205
##IDEAL CHEMISTRY=(Ce,Ca,Sr)(CO_3_)(OH,H_2_O)
##LOCALITY=Mont Saint-Hilaire, Rouville County, Quebec, Canada
##OWNER=RRUFF
##SOURCE=Royal Ontario Museum
##DESCRIPTION=Aggregate of coarse, poorly formed pink crystals, color is pale green under fluorescent lights
##STATUS=The identification of this mineral is confirmed by single-crystal X-ray diffraction and chemical analysis.
##URL=rruff.info/R060205
##MEASURED CHEMISTRY=(Ce_0.57_La_0.35_Nd_0.12_Pr_0.05_)_Σ=1.09_(Ca_0.44_Sr_0.36_Ba_0.04_)_Σ=0.84_(CO_3_)_1.97_(OH_0.83_F_0.17_)_Σ=1.00_·H_2_O
92.07813, 17.73988
92.56024, 17.72887
93.04236, 17.76053
93.52448, 17.81523
94.00659, 17.82042
94.48871, 17.61590
94.97083, 17.32511
95.45294, 17.31952
95.93506, 17.71731
96.41718, 18.26178
96.89929, 18.45353
97.38141, 18.28556
97.86353, 18.14176
98.34564, 18.38238
98.82776, 18.98012
99.30988, 19.39530
99.79199, 19.49114
100.2741, 19.35931
100.7562, 19.38258
101.2383, 19.62091
101.7205, 19.84774
102.2026, 19.81811
102.6847, 19.44315
103.1668, 19.15714
103.6489, 19.06817
104.1310, 19.18159
104.6132, 19.27470
105.0953, 19.33129
105.5774, 19.38211
106.0595, 19.47418
106.5416, 19.68300
107.0237, 19.81621
107.5059, 19.78882
107.9880, 19.49010
108.4701, 19.37468
108.9522, 19.46617
109.4343, 19.73503
109.9164, 20.13301
110.3986, 20.92781
110.8807, 21.62068
111.3628, 22.05772
111.8449, 22.04257
112.3270, 22.07867
112.8091, 22.01368
113.2913, 21.99677
113.7734, 22.43790
114.2555, 23.96272
114.7376, 25.60416
115.2197, 26.82527
115.7018, 26.97886
116.1840, 27.34548
116.6661, 28.17313
117.1482, 29.45879
117.6303, 31.17868
118.1124, 33.67215
118.5945, 36.46950
119.0767, 39.14408
119.5588, 41.16000
120.0409, 43.37857
120.5230, 46.19305
121.0051, 49.58635
121.4872, 53.48222
121.9694, 57.86319
122.4515, 62.68470
122.9336, 67.90799
123.4157, 73.27441
123.8978, 79.11413
124.3799, 85.74159
124.8621, 93.18503
125.3442, 101.2068
125.8263, 109.9176
126.3084, 119.0891
126.7905, 128.2020
127.2726, 136.9516
127.7548, 145.4154
128.2369, 153.6401
128.7190, 161.6196
129.2011, 169.3980
129.6832, 177.2519
130.1653, 185.0229
130.6474, 192.2006
131.1296, 198.0363
131.6117, 202.9008
132.0938, 208.2662
132.5759, 214.2637
133.0580, 220.9091
133.5401, 228.0114
134.0223, 235.5867
134.5044, 244.0190
134.9865, 253.6577
135.4686, 264.5834
135.9507, 276.1576
136.4328, 288.6247
136.9150, 301.7255
137.3971, 314.2426
137.8792, 326.0985
138.3613, 337.9326
138.8434, 350.6024
139.3255, 364.3476
139.8077, 377.0741
140.2898, 388.4609
140.7719, 398.4946
141.2540, 407.9457
141.7361, 416.5751
142.2182, 424.8443
142.7004, 433.2831
143.1825, 442.1386
143.6646, 450.3806
144.1467, 457.4209
144.6288, 463.2497
145.1109, 469.5204
145.5931, 476.3158
146.0752, 483.5278
146.5573, 491.1566
147.0394, 499.0722
147.5215, 507.5423
148.0036, 516.5281
148.4858, 526.2849
148.9679, 536.0522
149.4500, 545.1926
149.9321, 554.5783
150.4142, 565.3033
150.8963, 578.7137
151.3785, 592.4078
151.8606, 605.5321
152.3427, 617.9548
152.8248, 630.6550
153.3069, 643.8076
153.7890, 657.2832
154.2712, 668.8165
154.7533, 676.1486
155.2354, 682.5637
155.7175, 688.0641
156.1996, 692.2480
156.6817, 696.0966
157.1639, 699.6320
157.6460, 702.9415
158.1281, 706.1301
158.6102, 708.9594
159.0923, 711.8629
159.5744, 715.0982
160.0566, 718.9368
160.5387, 722.6776
161.0208, 726.2269
161.5029, 729.5506
161.9850, 732.5176
162.4671, 734.7779
162.9493, 736.8798
163.4314, 739.1697
163.9135, 741.5614
164.3956, 744.3733
164.8777, 747.9579
165.3598, 752.1575
165.8420, 756.3320
166.3241, 759.7999
166.8062, 763.2561
167.2883, 767.3484
167.7704, 772.9317
168.2525, 778.4753
168.7346, 782.6942
169.2168, 785.8353
169.6989, 789.5458
170.1810, 795.7001
170.6631, 802.6985
171.1452, 808.6376
171.6273, 811.9094
172.1095, 814.5822
172.5916, 818.6755
173.0737, 824.0485
173.5558, 829.0128
174.0379, 831.4485
174.5201, 832.7906
175.0022, 835.4003
175.4843, 841.2395
175.9664, 848.2115
176.4485, 853.8663
176.9306, 858.2791
177.4128, 861.8958
177.8949, 864.6664
178.3770, 866.8923
178.8591, 869.3104
179.3412, 872.0421
179.8233, 875.1893
180.3055, 879.1638
180.7876, 884.0490
181.2697, 888.8958
181.7518, 892.7203
182.2339, 895.7443
182.7160, 898.8090
183.1982, 902.6232
183.6803, 906.6719
184.1624, 909.5593
184.6445, 911.1403
185.1266, 912.4971
185.6087, 915.0648
186.0909, 918.6233
186.5730, 921.8422
187.0551, 924.1447
187.5372, 925.6650
188.0193, 926.8134
188.5014, 927.5169
188.9836, 928.1222
189.4657, 929.3294
189.9478, 931.0286
190.4299, 932.1950
190.9120, 932.1298
191.3941, 931.0289
191.8763, 929.9349
192.3584, 928.8369
192.8405, 927.8174
193.3226, 927.0394
193.8047, 926.5092
194.2868, 925.9034
194.7690, 924.8620
195.2511, 923.4672
195.7332, 922.7768
196.2153, 922.9217
196.6974, 923.5605
197.1795, 924.1428
197.6617, 924.6702
198.1438, 925.2995
198.6259, 925.9391
199.1080, 926.5887
199.5901, 928.0048
200.0722, 930.2031
200.5544, 933.1701
201.0365, 937.0547
201.5186, 942.0125
202.0007, 946.9480
202.4828, 951.2258
202.9649, 954.7638
203.4471, 958.6473
203.9292, 962.9467
204.4113, 967.5693
204.8934, 972.2904
205.3755, 976.9283
205.8576, 982.1498
206.3398, 988.3317
206.8219, 995.5706
207.3040, 1003.121
207.7861, 1010.928
208.2682, 1018.988
208.7503, 1027.299
209.2325, 1035.840
209.7146, 1044.464
210.1967, 1053.134
210.6788, 1061.904
211.1609, 1070.489
211.6430, 1078.778
212.1252, 1087.019
212.6073, 1095.575
213.0894, 1104.338
213.5715, 1113.612
214.0536, 1123.724
214.5357, 1135.148
215.0179, 1145.702
215.5000, 1155.074
215.9821, 1163.837
216.4642, 1173.340
216.9463, 1183.760
217.4284, 1194.359
217.9105, 1205.009
218.3927, 1215.734
218.8748, 1226.050
219.3569, 1235.937
219.8390, 1245.396
220.3211, 1254.732
220.8032, 1264.271
221.2854, 1273.122
221.7675, 1280.957
222.2496, 1287.264
222.7317, 1293.974
223.2138, 1301.621
223.6959, 1309.383
224.1781, 1315.537
224.6602, 1319.293
225.1423, 1322.747
225.6244, 1326.734
226.1065, 1331.738
226.5886, 1335.977
227.0708, 1339.388
227.5529, 1342.097
228.0350, 1344.395
228.5171, 1346.347
228.9992, 1347.819
229.4813, 1348.662
229.9635, 1348.565
230.4456, 1348.883
230.9277, 1350.055
231.4098, 1351.430
231.8919, 1351.630
232.3740, 1349.738
232.8562, 1348.182
233.3383, 1348.008
233.8204, 1349.914
234.3025, 1350.978
234.7846, 1351.205
235.2667, 1350.610
235.7489, 1349.250
236.2310, 1347.330
236.7131, 1344.335
237.1952, 1339.720
237.6773, 1332.802
238.1594, 1327.111
238.6416, 1323.195
239.1237, 1320.186
239.6058, 1316.802
240.0879, 1313.324
240.5700, 1308.940
241.0521, 1303.105
241.5343, 1295.369
242.0164, 1288.443
242.4985, 1282.767
242.9806, 1277.573
243.4627, 1271.847
243.9448, 1265.891
244.4270, 1258.813
244.9091, 1250.137
245.3912, 1239.468
245.8733, 1229.098
246.3554, 1219.554
246.8375, 1209.781
247.3197, 1198.188
247.8018, 1183.470
248.2839, 1169.318
248.7660, 1157.094
249.2481, 1147.233
249.7302, 1135.514
250.2124, 1121.199
250.6945, 1105.665
251.1766, 1090.145
251.6587, 1074.319
252.1408, 1059.198
252.6229, 1045.193
253.1051, 1032.290
253.5872, 1019.260
254.0693, 1005.958
254.5514, 992.4716
255.0335, 978.8032
255.5156, 964.9749
255.9978, 951.1996
256.4799, 937.4709
256.9620, 923.7239
257.4441, 910.2328
257.9262, 896.9637
258.4083, 883.9825
258.8904, 871.6114
259.3726, 859.9944
259.8547, 848.3583
260.3368, 836.5520
260.8189, 824.5488
261.3010, 813.1826
261.7831, 802.4022
262.2653, 792.3602
262.7474, 783.5339
263.2295, 776.4067
263.7116, 768.8488
264.1937, 760.2646
264.6758, 750.9938
265.1580, 742.5398
265.6401, 735.2701
266.1222, 728.2483
266.6043, 720.6785
267.0864, 712.0385
267.5685, 704.6115
268.0507, 699.0144
268.5328, 694.6533
269.0149, 689.0546
269.4970, 681.6151
269.9791, 674.2332
270.4612, 667.8641
270.9434, 662.6711
271.4255, 657.9237
271.9076, 653.5896
272.3897, 649.6047
272.8718, 645.8216
273.3539, 642.3116
273.8361, 638.7373
274.3182, 634.7661
274.8003, 630.2780
275.2824, 626.4075
275.7645, 623.3046
276.2466, 620.7295
276.7288, 618.4262
277.2109, 616.5626
277.6930, 614.1609
278.1751, 610.4714
278.6572, 605.3719
279.1393, 601.2838
279.6215, 598.3498
280.1036, 596.1711
280.5857, 594.3635
281.0678, 593.0174
281.5499, 591.3154
282.0320, 588.7947
282.5142, 585.5350
282.9963, 582.7086
283.4784, 580.3694
283.9605, 578.3044
284.4426, 576.1628
284.9247, 573.9336
285.4069, 572.1438
285.8890, 571.1641
286.3711, 570.7866
286.8532, 569.6931
287.3353, 567.6896
287.8174, 566.0201
288.2996, 566.8325
288.7817, 569.7987
289.2638, 570.9566
289.7459, 568.6182
290.2280, 564.0753
290.7101, 560.7281
291.1923, 558.6008
291.6744, 557.1326
292.1565, 556.0632
292.6386, 555.2993
293.1207, 554.3542
293.6028, 553.0505
294.0850, 551.5859
294.5671, 550.1965
295.0492, 548.8852
295.5313, 547.7932
296.0134, 547.2126
296.4955, 546.9464
296.9777, 546.3964
297.4598, 545.3903
297.9419, 544.2479
298.4240, 543.4885
298.9061, 543.0514
299.3882, 542.5915
299.8704, 542.0516
300.3525, 541.3358
300.8346, 540.1461
301.3167, 538.3809
301.7988, 536.5243
302.2809, 534.8424
302.7631, 533.4515
303.2452, 532.6329
303.7273, 533.2825
304.2094, 534.3086
304.6915, 534.0280
305.1736, 532.2589
305.6558, 530.3259
306.1379, 529.4720
306.6200, 529.2720
307.1021, 528.9300
307.5842, 527.8416
308.0663, 526.6112
308.5485, 525.8289
309.0306, 525.4846
309.5127, 525.2006
309.9948, 524.8078
310.4769, 524.2859
310.9590, 523.6118
311.4412, 522.7032
311.9233, 521.6949
312.4054, 520.4757
312.8875, 519.1370
313.3696, 518.2165
313.8517, 518.6295
314.3339, 519.2938
314.8160, 519.2234
315.2981, 517.7495
315.7802, 516.2035
316.2623, 515.2749
316.7444, 514.8088
317.2266, 514.3602
317.7087, 513.9446
318.1908, 513.3698
318.6729, 512.4604
319.1550, 511.0473
319.6371, 509.6877
320.1193, 508.4952
320.6014, 507.4853
321.0835, 506.6687
321.5656, 505.9185
322.0477, 505.4707
322.5298, 505.5841
323.0120, 506.4503
323.4941, 506.8892
323.9762, 506.3998
324.4583, 505.4519
324.9404, 504.5551
325.4225, 503.4597
325.9047, 502.7523
326.3868, 502.8936
326.8689, 503.9326
327.3510, 504.3231
327.8331, 503.3563
328.3152, 502.0823
328.7974, 501.2267
329.2795, 501.0458
329.7616, 501.0097
330.2437, 501.2687
330.7258, 501.7131
331.2079, 501.7065
331.6901, 500.7182
332.1722, 499.7967
332.6543, 499.4601
333.1364, 500.0252
333.6185, 500.6131
334.1006, 501.4115
334.5828, 502.1566
335.0649, 502.0958
335.5470, 500.5562
336.0291, 499.3901
336.5112, 499.5217
336.9933, 501.3965
337.4755, 502.1947
337.9576, 501.5060
338.4397, 500.2159
338.9218, 499.5192
339.4039, 499.5674
339.8860, 499.6885
340.3681, 499.6563
340.8503, 499.5040
341.3324, 499.7613
341.8145, 500.5959
342.2966, 501.3837
342.7787, 501.4181
343.2608, 500.6519
343.7430, 500.1435
344.2251, 500.1014
344.7072, 500.4508
345.1893, 501.1548
345.6714, 502.2681
346.1535, 503.1206
346.6357, 502.8489
347.1178, 501.7332
347.5999, 501.6243
348.0820, 502.9676
348.5641, 504.7962
349.0462, 505.3684
349.5284, 504.8798
350.0105, 504.8350
350.4926, 506.8387
350.9747, 509.7407
351.4568, 510.6332
351.9389, 509.2188
352.4211, 507.5267
352.9032, 507.9260
353.3853, 509.6900
353.8674, 511.0512
354.3495, 510.8700
354.8316, 510.2155
355.3138, 510.3414
355.7959, 511.1983
356.2780, 512.2361
356.7601, 513.3718
357.2422, 514.3793
357.7243, 514.9096
358.2065, 514.4887
358.6886, 514.1461
359.1707, 514.8315
359.6528, 516.2191
360.1349, 517.3265
360.6170, 517.1754
361.0992, 516.8841
361.5813, 517.3232
362.0634, 518.8315
362.5455, 520.3353
363.0276, 521.5035
363.5097, 522.3699
363.9919, 522.9865
364.4740, 522.9991
364.9561, 523.0906
365.4382, 523.5750
365.9203, 524.5035
366.4024, 525.3740
366.8846, 526.1616
367.3667, 526.8204
367.8488, 527.3145
368.3309, 527.8735
368.8130, 528.0125
369.2951, 527.3051
369.7773, 525.9517
370.2594, 525.3178
370.7415, 525.9731
371.2236, 526.8286
371.7057, 527.4240
372.1878, 527.7738
372.6700, 527.8433
373.1521, 527.5995
373.6342, 527.0928
374.1163, 526.3510
374.5984, 525.1266
375.0805, 524.1727
375.5627, 523.9008
376.0448, 524.4230
376.5269, 524.0664
377.0090, 522.4897
377.4911, 520.6122
377.9732, 519.5366
378.4554, 519.4503
378.9375, 518.9415
379.4196, 517.5911
379.9017, 515.6519
380.3838, 513.9997
380.8659, 512.6803
381.3481, 511.4179
381.8302, 509.9861
382.3123, 508.4276
382.7944, 507.1038
383.2765, 506.1406
383.7586, 505.1876
384.2408, 503.5123
384.7229, 501.2589
385.2050, 499.1989
385.6871, 497.7632
386.1692, 496.8070
386.6513, 496.1203
387.1335, 495.7179
387.6156, 495.2555
388.0977, 494.4627
388.5798, 493.3893
389.0619, 492.0876
389.5440, 490.3187
390.0262, 488.5898
390.5083, 487.3624
390.9904, 486.5612
391.4725, 485.9072
391.9546, 485.5606
392.4367, 485.1042
392.9189, 484.0671
393.4010, 482.0780
393.8831, 480.2386
394.3652, 479.3047
394.8473, 478.8597
395.3294, 478.2110
395.8116, 476.9120
396.2937, 475.5681
396.7758, 474.3965
397.2579, 473.4149
397.7400, 472.6022
398.2221, 471.9731
398.7043, 471.5095
399.1864, 471.1993
399.6685, 471.4891
400.1506, 471.4061
400.6327, 470.7360
401.1148, 469.5814
401.5970, 468.3999
402.0791, 466.9857
402.5612, 465.7978
403.0433, 465.0805
403.5254, 465.0373
404.0075, 464.9503
404.4897, 464.9658
404.9718, 464.8286
405.4539, 463.9901
405.9360, 462.0923
406.4181, 460.6570
406.9002, 460.2353
407.3824, 460.7118
407.8645, 460.9557
408.3466, 460.9511
408.8287, 460.7660
409.3108, 460.4051
409.7929, 459.8726
410.2751, 459.3081
410.7572, 458.6618
411.2393, 458.0829
411.7214, 457.9668
412.2035, 458.2576
412.6856, 458.4844
413.1678, 458.2580
413.6499, 457.7939
414.1320, 457.6316
414.6141, 457.8293
415.0962, 457.9880
415.5783, 457.6346
416.0605, 456.9954
416.5426, 456.4879
417.0247, 456.3877
417.5068, 456.3764
417.9889, 456.1651
418.4710, 455.7943
418.9532, 455.4373
419.4353, 455.2672
419.9174, 455.0999
420.3995, 454.7751
420.8816, 454.2003
421.3637, 453.6026
421.8459, 452.8422
422.3280, 452.1498
422.8101, 451.8730
423.2922, 452.5021
423.7743, 453.1657
424.2564, 453.6396
424.7386, 453.9132
425.2207, 453.9586
425.7028, 453.6861
426.1849, 453.2478
426.6670, 452.7259
427.1491, 451.8655
427.6313, 451.3686
428.1134, 451.4933
428.5955, 451.9765
429.0776, 452.0370
429.5597, 451.3786
430.0418, 450.9187
430.5240, 451.2112
431.0061, 452.3800
431.4882, 452.4626
431.9703, 451.0685
432.4524, 449.4379
432.9345, 449.1628
433.4167, 450.2838
433.8988, 451.0289
434.3809, 450.8658
434.8630, 450.1537
435.3451, 449.7535
435.8272, 449.6557
436.3094, 449.6126
436.7915, 449.4846
437.2736, 449.2865
437.7557, 448.9906
438.2378, 448.5532
438.7199, 448.2711
439.2020, 448.7238
439.6841, 449.5443
440.1663, 449.9786
440.6484, 449.0705
441.1305, 448.1191
441.6126, 448.4064
442.0947, 449.7380
442.5768, 450.9332
443.0590, 451.4352
443.5411, 451.5095
444.0232, 451.3457
444.5053, 450.9492
444.9874, 450.3712
445.4695, 449.2211
445.9517, 447.9786
446.4338, 447.4093
446.9159, 448.5172
447.3980, 449.4604
447.8801, 449.5921
448.3622, 448.8380
448.8444, 448.4140
449.3265, 448.5768
449.8086, 448.8498
450.2907, 448.9229
450.7728, 448.7068
451.2549, 448.5142
451.7371, 448.4023
452.2192, 448.3086
452.7013, 448.0291
453.1834, 447.4647
453.6655, 447.1097
454.1476, 447.2781
454.6298, 447.8987
455.1119, 448.1555
455.5940, 448.0088
456.0761, 447.6866
456.5582, 447.2177
457.0403, 446.6925
457.5225, 446.7497
458.0046, 447.7718
458.4867, 448.9365
458.9688, 448.7062
459.4509, 447.4205
459.9330, 446.5013
460.4152, 447.0615
460.8973, 448.2520
461.3794, 449.1296
461.8615, 449.6535
462.3436, 449.8965
462.8257, 449.7569
463.3079, 449.4296
463.7900, 449.1256
464.2721, 448.7734
464.7542, 448.6171
465.2363, 449.0631
465.7184, 449.8176
466.2006, 450.0423
466.6827, 448.7862
467.1648, 447.6161
467.6469, 447.2546
468.1290, 448.0219
468.6111, 448.5041
469.0933, 448.5397
469.5754, 448.3719
470.0575, 448.2007
470.5396, 447.9867
471.0217, 447.8711
471.5038, 447.9747
471.9860, 448.1633
472.4681, 447.8910
472.9502, 446.9825
473.4323, 446.1978
473.9144, 445.9923
474.3965, 446.3380
474.8787, 446.4369
475.3608, 446.2314
475.8429, 446.0289
476.3250, 446.3160
476.8071, 446.9595
477.2892, 447.2301
477.7714, 446.7058
478.2535, 446.0607
478.7356, 446.5724
479.2177, 447.9442
479.6998, 448.8851
480.1819, 448.2281
480.6641, 447.0080
481.1462, 446.2553
481.6283, 446.0631
482.1104, 446.1634
482.5925, 446.7699
483.0746, 447.4414
483.5568, 447.7216
484.0389, 446.8453
484.5210, 446.2601
485.0031, 446.6810
485.4852, 447.7463
485.9673, 448.3389
486.4495, 447.7281
486.9316, 447.1387
487.4137, 447.0889
487.8958, 447.8008
488.3779, 447.7897
488.8600, 446.1500
489.3422, 444.7124
489.8243, 445.4779
490.3064, 449.4616
490.7885, 452.0171
491.2706, 452.2888
491.7527, 450.9974
492.2349, 449.7426
492.7170, 448.5124
493.1991, 447.5922
493.6812, 447.3053
494.1633, 447.4818
494.6454, 447.4179
495.1276, 447.1125
495.6097, 446.6894
496.0918, 446.2094
496.5739, 445.7031
497.0560, 445.1786
497.5381, 444.4473
498.0203, 444.0986
498.5024, 445.1504
498.9845, 446.9822
499.4666, 448.2443
499.9487, 447.8729
500.4308, 447.0988
500.9130, 446.6100
501.3951, 446.4421
501.8772, 446.2105
502.3593, 445.4997
502.8414, 444.8860
503.3235, 444.7469
503.8057, 445.4006
504.2878, 446.1489
504.7699, 447.0708
505.2520, 448.0339
505.7341, 448.8917
506.2162, 449.9716
506.6984, 450.2270
507.1805, 449.0189
507.6626, 446.5858
508.1447, 445.3995
508.6268, 445.7548
509.1089, 446.2426
509.5911, 445.6994
510.0732, 444.2491
510.5553, 443.3386
511.0374, 443.1412
511.5195, 443.2670
512.0016, 443.3330
512.4838, 443.3290
512.9659, 443.2127
513.4480, 442.9252
513.9301, 442.5672
514.4122, 442.0756
514.8943, 441.5550
515.3765, 441.4391
515.8586, 442.4193
516.3407, 443.6063
516.8228, 444.3204
517.3049, 444.4420
517.7870, 444.3373
518.2692, 443.9761
518.7513, 443.5202
519.2334, 443.1266
519.7155, 442.4747
520.1976, 442.3197
520.6797, 443.2296
521.1619, 444.6700
521.6440, 445.0310
522.1261, 443.7100
522.6082, 442.3806
523.0903, 441.6077
523.5724, 441.4008
524.0546, 441.4065
524.5367, 441.6774
525.0188, 442.0116
525.5009, 442.2935
525.9830, 442.5124
526.4651, 442.4100
526.9473, 441.7923
527.4294, 441.2762
527.9115, 442.1938
528.3936, 444.0584
528.8757, 445.2759
529.3578, 444.2891
529.8400, 442.8112
530.3221, 442.9070
530.8042, 444.3075
531.2863, 445.2967
531.7684, 444.3512
532.2505, 442.9745
532.7327, 442.3676
533.2148, 442.9777
533.6969, 443.4394
534.1790, 443.2266
534.6611, 442.7498
535.1432, 442.4751
535.6254, 442.7321
536.1075, 442.8244
536.5896, 442.5690
537.0717, 442.1111
537.5538, 442.0170
538.0359, 442.5323
538.5181, 442.8437
539.0002, 442.4544
539.4823, 441.3936
539.9644, 441.0251
540.4465, 441.4520
540.9286, 442.0587
541.4108, 442.2470
541.8929, 442.1122
542.3750, 442.0841
542.8571, 442.2657
543.3392, 442.4738
543.8214, 442.4642
544.3035, 442.3063
544.7856, 442.1731
545.2677, 441.9243
545.7498, 441.9002
546.2319, 442.6142
546.7141, 443.9018
547.1962, 444.7948
547.6783, 444.6813
548.1604, 444.2243
548.6425, 443.7425
549.1246, 443.2058
549.6068, 442.8520
550.0889, 442.8722
550.5710, 442.9784
551.0531, 442.8921
551.5352, 442.4623
552.0173, 442.1638
552.4995, 442.0666
552.9816, 442.1249
553.4637, 442.2235
553.9458, 442.3557
554.4279, 442.6052
554.9100, 443.2569
555.3922, 444.0484
555.8743, 443.6864
556.3564, 442.1750
556.8385, 440.6759
557.3206, 439.9883
557.8027, 439.9815
558.2849, 440.6544
558.7670, 442.2232
559.2491, 443.4174
559.7312, 442.8915
560.2133, 441.4912
560.6954, 440.3645
561.1776, 440.0873
561.6597, 439.9626
562.1418, 439.6862
562.6239, 439.3560
563.1060, 439.3402
563.5881, 440.1676
564.0703, 440.8263
564.5524, 440.9144
565.0345, 440.3608
565.5166, 440.1861
565.9987, 440.5378
566.4808, 441.0218
566.9630, 441.3415
567.4451, 441.4832
567.9272, 441.6587
568.4093, 441.9155
568.8914, 442.1378
569.3735, 442.2614
569.8557, 442.2428
570.3378, 441.8115
570.8199, 440.5106
571.3020, 439.1516
571.7841, 438.8510
572.2662, 439.4289
572.7484, 440.2201
573.2305, 441.3214
573.7126, 442.1685
574.1947, 442.1109
574.6768, 441.0328
575.1589, 440.4733
575.6411, 441.7774
576.1232, 443.2272
576.6053, 443.5639
577.0874, 441.6050
577.5695, 440.3229
578.0516, 439.9892
578.5338, 440.1614
579.0159, 440.1665
579.4980, 439.8716
579.9801, 439.9204
580.4622, 440.5867
580.9443, 441.6155
581.4265, 442.2851
581.9086, 442.5974
582.3907, 442.4934
582.8728, 441.4930
583.3549, 440.1615
583.8370, 439.8429
