##NAMES=Calcite
##RRUFFID=R050128
##IDEAL CHEMISTRY=CaCO_3_
##LOCALITY=Tie Siding, Albany County, Wyoming, USA
##OWNER=RRUFF
##SOURCE=Dave Bunk Minerals
##DESCRIPTION=Pseudomorph after aragonite, not single crystal. Trace of aragonite still present.
##STATUS=The identification of this mineral has been confirmed by X-ray diffraction and chemical analysis
##URL=rruff.info/R050128
##MEASURED CHEMISTRY=Ca_1.00_CO_3_
93.08527, 0.0000000E+00
93.56738, 10045.23
94.04950, 9932.939
94.53162, 9944.402
95.01373, 9983.949
95.49585, 10096.37
95.97797, 10223.70
96.46008, 10304.97
96.94220, 10355.18
97.42432, 10381.69
97.90643, 10380.17
98.38855, 10363.79
98.87067, 10340.03
99.35278, 10313.22
99.83490, 10285.35
100.3170, 10256.25
100.7991, 10201.32
101.2813, 10150.25
101.7634, 10102.92
102.2455, 10060.78
102.7276, 10025.18
103.2097, 9996.779
103.6918, 9974.436
104.1740, 9955.752
104.6561, 9935.524
105.1382, 9921.500
105.6203, 9918.401
106.1024, 9924.215
106.5845, 9931.000
107.0667, 9932.584
107.5488, 9929.948
108.0309, 9928.155
108.5130, 9926.703
108.9951, 9925.879
109.4772, 9926.378
109.9594, 9928.426
110.4415, 9930.100
110.9236, 9928.677
111.4057, 9925.512
111.8878, 9923.604
112.3699, 9925.243
112.8521, 9929.811
113.3342, 9933.077
113.8163, 9934.566
114.2984, 9934.931
114.7805, 9934.397
115.2626, 9933.021
115.7448, 9930.890
116.2269, 9927.653
116.7090, 9922.379
117.1911, 9919.213
117.6732, 9918.794
118.1553, 9919.501
118.6375, 9920.488
119.1196, 9921.541
119.6017, 9922.969
120.0838, 9925.255
120.5659, 9928.069
121.0480, 9932.358
121.5302, 9938.621
122.0123, 9946.011
122.4944, 9953.487
122.9765, 9960.550
123.4586, 9967.744
123.9407, 9976.902
124.4228, 9989.331
124.9050, 10000.68
125.3871, 10006.94
125.8692, 10010.22
126.3513, 10018.06
126.8334, 10035.69
127.3155, 10059.36
127.7977, 10080.11
128.2798, 10095.48
128.7619, 10111.56
129.2440, 10134.28
129.7261, 10164.22
130.2083, 10196.76
130.6904, 10230.33
131.1725, 10264.95
131.6546, 10301.44
132.1367, 10340.30
132.6188, 10380.53
133.1010, 10420.19
133.5831, 10461.03
134.0652, 10497.68
134.5473, 10529.19
135.0294, 10556.38
135.5115, 10580.07
135.9937, 10600.07
136.4758, 10616.81
136.9579, 10636.60
137.4400, 10664.96
137.9221, 10691.34
138.4042, 10709.85
138.8864, 10723.68
139.3685, 10740.58
139.8506, 10767.42
140.3327, 10805.56
140.8148, 10845.83
141.2969, 10889.50
141.7791, 10933.80
142.2612, 10979.21
142.7433, 11025.01
143.2254, 11066.40
143.7075, 11096.55
144.1896, 11112.81
144.6718, 11134.12
145.1539, 11161.57
145.6360, 11194.54
146.1181, 11232.17
146.6002, 11274.42
147.0823, 11320.93
147.5645, 11373.22
148.0466, 11430.27
148.5287, 11487.34
149.0108, 11541.11
149.4929, 11592.98
149.9750, 11649.01
150.4572, 11715.93
150.9393, 11778.92
151.4214, 11832.71
151.9035, 11876.30
152.3856, 11900.26
152.8677, 11899.72
153.3499, 11875.06
153.8320, 11820.46
154.3141, 11715.81
154.7962, 11590.66
155.2783, 11451.41
155.7604, 11300.93
156.2425, 11149.90
156.7247, 11011.68
157.2068, 10885.92
157.6889, 10772.76
158.1710, 10668.26
158.6531, 10575.79
159.1352, 10499.31
159.6174, 10439.65
160.0995, 10392.66
160.5816, 10350.67
161.0637, 10313.73
161.5458, 10283.09
162.0279, 10263.22
162.5101, 10247.53
162.9922, 10228.56
163.4743, 10202.94
163.9564, 10174.33
164.4385, 10153.36
164.9206, 10143.79
165.4028, 10136.19
165.8849, 10130.06
166.3670, 10124.81
166.8491, 10118.63
167.3312, 10109.84
167.8133, 10100.86
168.2955, 10099.10
168.7776, 10108.33
169.2597, 10118.00
169.7418, 10121.67
170.2239, 10120.63
170.7060, 10122.24
171.1882, 10132.83
171.6703, 10146.83
172.1524, 10153.16
172.6345, 10147.88
173.1166, 10139.94
173.5987, 10137.47
174.0809, 10140.94
174.5630, 10145.67
175.0451, 10149.95
175.5272, 10154.22
176.0093, 10158.74
176.4914, 10163.27
176.9736, 10168.66
177.4557, 10176.72
177.9378, 10188.68
178.4199, 10200.33
178.9020, 10212.89
179.3841, 10223.63
179.8663, 10229.54
180.3484, 10228.99
180.8305, 10223.19
181.3126, 10215.31
181.7947, 10201.57
182.2768, 10191.36
182.7590, 10188.33
183.2411, 10189.04
183.7232, 10188.60
184.2053, 10183.82
184.6874, 10176.29
185.1695, 10176.08
185.6517, 10190.35
186.1338, 10205.18
186.6159, 10218.76
187.0980, 10231.45
187.5801, 10244.63
188.0622, 10259.58
188.5444, 10275.74
189.0265, 10285.52
189.5086, 10284.82
189.9907, 10283.09
190.4728, 10284.27
190.9549, 10286.94
191.4371, 10286.74
191.9192, 10280.12
192.4013, 10267.68
192.8834, 10258.23
193.3655, 10250.46
193.8476, 10246.31
194.3298, 10248.94
194.8119, 10257.24
195.2940, 10264.93
195.7761, 10267.32
196.2582, 10265.13
196.7403, 10264.87
197.2225, 10265.63
197.7046, 10268.99
198.1867, 10277.34
198.6688, 10290.79
199.1509, 10304.46
199.6330, 10313.62
200.1152, 10320.87
200.5973, 10332.15
201.0794, 10350.79
201.5615, 10372.32
202.0436, 10390.34
202.5257, 10403.44
203.0079, 10418.72
203.4900, 10442.40
203.9721, 10470.30
204.4542, 10498.32
204.9363, 10527.89
205.4184, 10554.43
205.9006, 10569.62
206.3827, 10572.86
206.8648, 10564.77
207.3469, 10544.39
207.8290, 10514.88
208.3111, 10478.65
208.7933, 10435.23
209.2754, 10387.58
209.7575, 10343.48
210.2396, 10302.33
210.7217, 10267.03
211.2038, 10238.23
211.6860, 10214.85
212.1681, 10195.94
212.6502, 10181.58
213.1323, 10170.72
213.6144, 10158.77
214.0965, 10145.23
214.5787, 10131.01
215.0608, 10116.06
215.5429, 10100.59
216.0250, 10084.80
216.5071, 10068.66
216.9892, 10052.37
217.4714, 10036.82
217.9535, 10023.17
218.4356, 10008.92
218.9177, 9992.231
219.3998, 9974.941
219.8819, 9959.879
220.3641, 9948.687
220.8462, 9940.870
221.3283, 9933.574
221.8104, 9925.821
222.2925, 9919.580
222.7746, 9917.163
223.2568, 9916.399
223.7389, 9913.290
224.2210, 9905.330
224.7031, 9893.565
225.1852, 9883.911
225.6673, 9876.573
226.1495, 9870.600
226.6316, 9866.191
227.1137, 9863.038
227.5958, 9860.465
228.0779, 9858.184
228.5600, 9856.216
229.0422, 9854.692
229.5243, 9854.065
230.0064, 9853.244
230.4885, 9851.491
230.9706, 9849.157
231.4527, 9847.276
231.9349, 9846.469
232.4170, 9846.306
232.8991, 9845.894
233.3812, 9846.271
233.8633, 9844.706
234.3454, 9836.510
234.8276, 9824.048
235.3097, 9818.057
235.7918, 9825.771
236.2739, 9839.803
236.7560, 9847.061
237.2381, 9846.427
237.7203, 9842.696
238.2024, 9837.623
238.6845, 9831.520
239.1666, 9826.471
239.6487, 9822.527
240.1308, 9820.778
240.6130, 9822.688
241.0951, 9828.802
241.5772, 9834.915
242.0593, 9838.224
242.5414, 9838.778
243.0235, 9837.310
243.5057, 9831.229
243.9878, 9825.671
244.4699, 9825.627
244.9520, 9831.269
245.4341, 9837.513
245.9162, 9840.543
246.3984, 9840.377
246.8805, 9838.275
247.3626, 9832.940
247.8447, 9826.993
248.3268, 9821.612
248.8089, 9817.038
249.2911, 9813.768
249.7732, 9812.793
250.2553, 9814.248
250.7374, 9815.125
251.2195, 9814.456
251.7016, 9813.870
252.1838, 9814.505
252.6659, 9816.066
253.1480, 9817.286
253.6301, 9817.166
254.1122, 9815.681
254.5943, 9812.991
255.0765, 9806.033
255.5586, 9800.631
256.0407, 9798.776
256.5228, 9800.264
257.0049, 9804.051
257.4870, 9809.563
257.9691, 9816.814
258.4513, 9824.329
258.9334, 9833.622
259.4155, 9841.714
259.8976, 9847.905
260.3797, 9852.213
260.8618, 9854.512
261.3440, 9854.145
261.8261, 9851.334
262.3082, 9852.395
262.7903, 9863.731
263.2724, 9872.683
263.7545, 9875.319
264.2367, 9873.660
264.7188, 9871.247
265.2009, 9870.243
265.6830, 9870.639
266.1651, 9872.439
266.6472, 9877.184
267.1294, 9881.796
267.6115, 9885.995
268.0936, 9889.721
268.5757, 9892.870
269.0578, 9895.354
269.5399, 9897.416
270.0221, 9900.045
270.5042, 9902.484
270.9863, 9906.574
271.4684, 9914.557
271.9505, 9923.749
272.4326, 9930.743
272.9148, 9934.009
273.3969, 9934.546
273.8790, 9935.101
274.3611, 9934.395
274.8432, 9935.384
275.3253, 9939.627
275.8075, 9945.011
276.2896, 9948.660
276.7717, 9949.584
277.2538, 9949.987
277.7359, 9954.174
278.2180, 9966.225
278.7002, 9975.950
279.1823, 9984.433
279.6644, 9989.931
280.1465, 9990.256
280.6286, 9984.975
281.1107, 9976.290
281.5929, 9967.573
282.0750, 9960.594
282.5571, 9948.001
283.0392, 9925.167
283.5213, 9899.691
284.0034, 9878.452
284.4856, 9862.246
284.9677, 9846.292
285.4498, 9825.256
285.9319, 9797.764
286.4140, 9771.460
286.8961, 9745.085
287.3783, 9720.710
287.8604, 9700.682
288.3425, 9684.666
288.8246, 9669.624
289.3067, 9653.002
289.7888, 9634.741
290.2710, 9618.955
290.7531, 9605.215
291.2352, 9593.959
291.7173, 9587.051
292.1994, 9583.429
292.6815, 9578.643
293.1637, 9569.405
293.6458, 9556.620
294.1279, 9546.377
294.6100, 9539.991
295.0921, 9534.438
295.5742, 9528.030
296.0564, 9521.406
296.5385, 9516.690
297.0206, 9515.447
297.5027, 9516.092
297.9848, 9513.630
298.4669, 9507.104
298.9491, 9499.993
299.4312, 9492.654
299.9133, 9485.521
300.3954, 9479.688
300.8775, 9475.743
301.3596, 9472.567
301.8418, 9467.896
302.3239, 9461.169
302.8060, 9455.254
303.2881, 9451.964
303.7702, 9449.499
304.2523, 9445.124
304.7345, 9438.100
305.2166, 9430.063
305.6987, 9422.756
306.1808, 9416.059
306.6629, 9411.139
307.1451, 9409.837
307.6272, 9409.468
308.1093, 9407.298
308.5914, 9402.975
309.0735, 9397.497
309.5556, 9391.050
310.0378, 9383.893
310.5199, 9379.098
311.0020, 9379.288
311.4841, 9380.114
311.9662, 9377.729
312.4483, 9372.381
312.9305, 9367.724
313.4126, 9366.728
313.8947, 9368.223
314.3768, 9366.574
314.8589, 9358.984
315.3410, 9351.341
315.8232, 9347.747
316.3053, 9346.900
316.7874, 9343.629
317.2695, 9334.290
317.7516, 9322.622
318.2337, 9318.237
318.7159, 9324.135
319.1980, 9328.888
319.6801, 9327.032
320.1622, 9321.144
320.6443, 9316.368
321.1264, 9314.348
321.6086, 9313.537
322.0907, 9311.673
322.5728, 9308.703
323.0549, 9305.438
323.5370, 9302.237
324.0191, 9298.765
324.5013, 9294.976
324.9834, 9290.926
325.4655, 9285.604
325.9476, 9277.396
326.4297, 9266.377
326.9118, 9256.463
327.3940, 9247.254
327.8761, 9239.979
328.3582, 9237.190
328.8403, 9238.514
329.3224, 9238.796
329.8045, 9233.701
330.2867, 9224.362
330.7688, 9218.493
331.2509, 9218.925
331.7330, 9219.841
332.2151, 9218.704
332.6972, 9215.638
333.1794, 9210.654
333.6615, 9202.899
334.1436, 9194.271
334.6257, 9190.313
335.1078, 9192.554
335.5899, 9195.028
336.0721, 9197.293
336.5542, 9198.307
337.0363, 9195.392
337.5184, 9187.232
338.0005, 9177.938
338.4826, 9174.175
338.9648, 9177.605
339.4469, 9179.128
339.9290, 9176.802
340.4111, 9172.721
340.8932, 9168.709
341.3753, 9165.097
341.8575, 9161.595
342.3396, 9157.824
342.8217, 9153.761
343.3038, 9150.764
343.7859, 9150.524
344.2680, 9149.859
344.7502, 9145.879
345.2323, 9139.488
345.7144, 9134.718
346.1965, 9134.701
346.6786, 9138.071
347.1607, 9136.512
347.6429, 9125.411
348.1250, 9115.929
348.6071, 9112.326
349.0892, 9112.128
349.5713, 9111.497
350.0534, 9108.972
350.5356, 9104.854
351.0177, 9099.421
351.4998, 9090.933
351.9819, 9084.686
352.4640, 9081.855
352.9461, 9080.890
353.4283, 9081.549
353.9104, 9083.346
354.3925, 9083.365
354.8746, 9077.658
355.3567, 9064.138
355.8388, 9055.712
356.3210, 9056.432
356.8031, 9057.750
357.2852, 9054.484
357.7673, 9047.524
358.2494, 9041.183
358.7315, 9038.834
359.2137, 9039.730
359.6958, 9036.688
360.1779, 9028.490
360.6600, 9017.973
361.1421, 9002.546
361.6242, 8986.002
362.1064, 8974.062
362.5885, 8969.240
363.0706, 8968.318
363.5527, 8964.206
364.0348, 8953.468
364.5169, 8944.832
364.9991, 8940.627
365.4812, 8937.010
365.9633, 8930.549
366.4454, 8921.068
366.9275, 8911.259
367.4096, 8903.938
367.8918, 8899.233
368.3739, 8896.786
368.8560, 8900.087
369.3381, 8902.042
369.8202, 8899.358
370.3023, 8893.067
370.7845, 8885.813
371.2666, 8879.153
371.7487, 8873.116
372.2308, 8868.083
372.7129, 8864.466
373.1950, 8861.226
373.6772, 8858.814
374.1593, 8856.298
374.6414, 8852.642
375.1235, 8847.465
375.6056, 8841.334
376.0877, 8834.824
376.5699, 8826.819
377.0520, 8821.611
377.5341, 8821.818
378.0162, 8822.952
378.4983, 8823.752
378.9804, 8823.466
379.4626, 8820.587
379.9447, 8812.822
380.4268, 8800.375
380.9089, 8789.859
381.3910, 8781.530
381.8731, 8775.202
382.3553, 8772.833
382.8374, 8771.896
383.3195, 8767.967
383.8016, 8758.099
384.2837, 8745.563
384.7658, 8737.460
385.2480, 8735.315
385.7301, 8732.683
386.2122, 8726.459
386.6943, 8719.511
387.1764, 8714.405
387.6585, 8711.621
388.1407, 8708.861
388.6228, 8703.091
389.1049, 8694.668
389.5870, 8689.141
390.0691, 8688.779
390.5512, 8689.573
391.0334, 8689.096
391.5155, 8687.310
391.9976, 8684.007
392.4797, 8677.679
392.9618, 8670.187
393.4439, 8665.279
393.9261, 8663.415
394.4082, 8661.669
394.8903, 8657.873
395.3724, 8653.287
395.8545, 8650.236
396.3366, 8649.954
396.8188, 8649.382
397.3009, 8644.819
397.7830, 8637.534
398.2651, 8633.728
398.7472, 8636.684
399.2293, 8641.575
399.7115, 8640.648
400.1936, 8633.711
400.6757, 8628.284
401.1578, 8628.566
401.6399, 8630.585
402.1220, 8628.697
402.6042, 8622.264
403.0863, 8615.845
403.5684, 8613.321
404.0505, 8614.416
404.5326, 8614.189
405.0147, 8612.462
405.4969, 8609.696
405.9790, 8605.544
406.4611, 8600.548
406.9432, 8595.834
407.4253, 8591.796
407.9074, 8588.645
408.3896, 8587.053
408.8717, 8589.224
409.3538, 8588.762
409.8359, 8582.473
410.3180, 8575.050
410.8001, 8570.798
411.2823, 8570.253
411.7644, 8571.351
412.2465, 8572.228
412.7286, 8572.916
413.2107, 8572.708
413.6928, 8572.177
414.1750, 8570.215
414.6571, 8565.333
415.1392, 8558.885
415.6213, 8553.199
416.1034, 8549.471
416.5855, 8547.029
417.0677, 8544.165
417.5498, 8540.890
418.0319, 8537.089
418.5140, 8533.372
418.9961, 8528.809
419.4782, 8521.904
419.9604, 8513.012
420.4425, 8504.536
420.9246, 8498.960
421.4067, 8496.391
421.8888, 8494.707
422.3709, 8495.660
422.8531, 8495.454
423.3352, 8492.986
423.8173, 8488.579
424.2994, 8482.442
424.7815, 8474.264
425.2636, 8465.613
425.7458, 8459.987
426.2279, 8458.310
426.7100, 8455.528
427.1921, 8448.434
427.6742, 8441.029
428.1563, 8437.140
428.6385, 8436.803
429.1206, 8435.340
429.6027, 8427.049
430.0848, 8414.606
430.5669, 8408.278
431.0490, 8410.542
431.5312, 8414.520
432.0133, 8416.128
432.4954, 8415.822
432.9775, 8414.071
433.4596, 8410.567
433.9417, 8406.081
434.4239, 8400.168
434.9060, 8393.355
435.3881, 8389.752
435.8702, 8392.491
436.3523, 8396.891
436.8344, 8393.839
437.3166, 8382.213
437.7987, 8372.267
438.2808, 8368.009
438.7629, 8366.114
439.2450, 8362.833
439.7271, 8357.765
440.2093, 8352.842
440.6914, 8350.167
441.1735, 8349.439
441.6556, 8344.615
442.1377, 8331.531
442.6198, 8319.685
443.1020, 8312.253
443.5841, 8308.108
444.0662, 8306.325
444.5483, 8306.488
445.0304, 8306.243
445.5125, 8301.270
445.9947, 8289.210
446.4768, 8277.556
446.9589, 8265.703
447.4410, 8254.575
447.9231, 8244.331
448.4052, 8235.192
448.8874, 8228.003
449.3695, 8223.782
449.8516, 8221.670
450.3337, 8216.363
450.8158, 8204.760
451.2979, 8194.782
451.7801, 8188.210
452.2622, 8183.571
452.7443, 8180.067
453.2264, 8177.338
453.7085, 8174.246
454.1906, 8169.426
454.6728, 8162.835
455.1549, 8155.564
455.6370, 8147.304
456.1191, 8138.782
456.6012, 8129.477
457.0833, 8120.275
457.5655, 8113.260
458.0476, 8109.912
458.5297, 8108.553
459.0118, 8107.601
459.4939, 8107.125
459.9760, 8104.468
460.4582, 8097.119
460.9403, 8088.443
461.4224, 8083.867
461.9045, 8084.094
462.3866, 8082.219
462.8687, 8073.570
463.3508, 8061.799
463.8329, 8052.370
464.3151, 8045.958
464.7972, 8040.308
465.2793, 8033.536
465.7614, 8025.984
466.2435, 8020.447
466.7256, 8019.067
467.2078, 8017.148
467.6899, 8013.075
468.1720, 8007.334
468.6541, 8000.230
469.1362, 7991.906
469.6183, 7983.724
470.1005, 7977.725
470.5826, 7974.792
471.0647, 7971.329
471.5468, 7966.836
472.0289, 7962.388
472.5110, 7959.477
472.9932, 7957.025
473.4753, 7952.170
473.9574, 7942.883
474.4395, 7931.275
474.9216, 7924.081
475.4037, 7923.592
475.8859, 7923.041
476.3680, 7923.494
476.8501, 7922.142
477.3322, 7915.562
477.8143, 7904.302
478.2964, 7893.326
478.7786, 7887.810
479.2607, 7886.561
479.7428, 7881.993
480.2249, 7872.292
480.7070, 7863.095
481.1891, 7856.221
481.6713, 7851.681
482.1534, 7850.553
482.6355, 7854.190
483.1176, 7857.403
483.5997, 7855.547
484.0818, 7849.588
484.5640, 7843.307
485.0461, 7837.735
485.5282, 7831.440
486.0103, 7822.343
486.4924, 7810.842
486.9745, 7800.196
487.4567, 7789.960
487.9388, 7781.528
488.4209, 7777.383
488.9030, 7776.061
489.3851, 7772.480
489.8672, 7763.892
490.3494, 7753.648
490.8315, 7748.748
491.3136, 7754.140
491.7957, 7755.511
492.2778, 7751.470
492.7599, 7744.516
493.2421, 7734.983
493.7242, 7723.921
494.2063, 7713.831
494.6884, 7706.537
495.1705, 7701.589
495.6526, 7696.404
496.1348, 7690.163
496.6169, 7685.098
497.0990, 7682.247
497.5811, 7680.085
498.0632, 7677.411
498.5453, 7674.001
499.0275, 7670.300
499.5096, 7667.151
499.9917, 7664.321
500.4738, 7659.422
500.9559, 7651.830
501.4380, 7643.362
501.9202, 7632.340
502.4023, 7621.808
502.8844, 7616.908
503.3665, 7620.437
503.8486, 7624.810
504.3307, 7623.501
504.8129, 7617.866
505.2950, 7612.521
505.7771, 7608.403
506.2592, 7604.928
506.7413, 7601.712
507.2234, 7598.724
507.7056, 7595.328
508.1877, 7592.220
508.6698, 7587.992
509.1519, 7580.615
509.6340, 7571.563
510.1161, 7564.571
510.5983, 7561.229
511.0804, 7559.191
511.5625, 7553.994
512.0446, 7542.763
512.5267, 7535.985
513.0089, 7536.927
513.4910, 7538.756
513.9731, 7539.400
514.4552, 7537.919
514.9373, 7532.385
515.4194, 7521.108
515.9016, 7507.517
516.3837, 7501.822
516.8658, 7508.516
517.3479, 7510.792
517.8300, 7501.639
518.3121, 7490.491
518.7943, 7482.260
519.2764, 7477.235
519.7585, 7474.007
520.2406, 7473.365
520.7227, 7473.341
521.2048, 7468.950
521.6870, 7459.646
522.1691, 7450.630
522.6512, 7444.597
523.1333, 7439.978
523.6154, 7433.577
524.0975, 7424.672
524.5797, 7417.578
525.0618, 7416.844
525.5439, 7417.327
526.0260, 7410.854
526.5081, 7397.319
526.9902, 7385.493
527.4724, 7381.968
527.9545, 7385.302
528.4366, 7386.902
528.9187, 7388.080
529.4008, 7385.922
529.8829, 7376.776
530.3651, 7366.039
530.8472, 7359.211
531.3293, 7356.804
531.8114, 7355.396
532.2935, 7351.779
532.7756, 7346.022
533.2578, 7339.846
533.7399, 7333.115
534.2220, 7326.096
534.7041, 7318.034
535.1862, 7310.235
535.6683, 7304.281
536.1505, 7300.533
536.6326, 7297.350
537.1147, 7293.174
537.5968, 7288.286
538.0789, 7284.418
538.5610, 7282.283
539.0432, 7279.264
539.5253, 7272.198
540.0074, 7263.234
540.4895, 7257.412
540.9716, 7256.834
541.4537, 7256.576
541.9359, 7255.022
542.4180, 7251.900
542.9001, 7245.847
543.3822, 7236.678
543.8643, 7227.828
544.3464, 7222.992
544.8286, 7222.369
545.3107, 7219.039
545.7928, 7209.025
546.2749, 7201.398
546.7570, 7201.087
547.2391, 7203.156
547.7213, 7201.204
548.2034, 7193.636
548.6855, 7184.127
549.1676, 7176.632
549.6497, 7171.124
550.1318, 7167.508
550.6140, 7166.720
551.0961, 7166.479
551.5782, 7166.821
552.0603, 7166.765
552.5424, 7164.841
553.0245, 7160.493
553.5067, 7155.305
553.9888, 7150.128
554.4709, 7145.253
554.9530, 7142.273
555.4351, 7142.101
555.9172, 7141.134
556.3994, 7135.866
556.8815, 7127.157
557.3636, 7120.073
557.8457, 7115.620
558.3278, 7111.797
558.8099, 7108.136
559.2921, 7104.474
559.7742, 7100.378
560.2563, 7095.796
560.7384, 7091.491
561.2205, 7088.637
561.7026, 7087.396
562.1848, 7082.994
562.6669, 7072.447
563.1490, 7062.021
563.6311, 7051.956
564.1132, 7043.124
564.5953, 7036.835
565.0775, 7033.243
565.5596, 7030.560
566.0417, 7027.280
566.5238, 7023.398
567.0059, 7018.110
567.4880, 7010.281
567.9702, 7003.789
568.4523, 7002.271
568.9344, 7002.921
569.4165, 7001.921
569.8986, 6998.469
570.3807, 6994.458
570.8629, 6991.080
571.3450, 6987.782
571.8271, 6983.201
572.3092, 6977.178
572.7913, 6971.891
573.2734, 6969.130
573.7556, 6968.433
574.2377, 6966.659
574.7198, 6962.815
575.2019, 6959.158
575.6840, 6955.982
576.1661, 6953.030
576.6483, 6950.209
577.1304, 6947.397
577.6125, 6944.394
578.0946, 6941.269
578.5767, 6937.721
579.0588, 6931.593
579.5410, 6920.749
580.0231, 6912.292
580.5052, 6911.179
580.9873, 6911.312
581.4694, 6907.805
581.9515, 6900.425
582.4337, 6892.518
582.9158, 6887.420
583.3979, 6882.391
583.8800, 6870.834
584.3621, 6853.097
584.8442, 6840.541
585.3264, 6839.354
585.8085, 6845.243
586.2906, 6850.305
586.7727, 6855.464
587.2548, 6857.055
587.7369, 6852.422
588.2191, 6846.128
588.7012, 6840.963
589.1833, 6836.782
