##NAMES=Calcite
##RRUFFID=R050048
##IDEAL CHEMISTRY=CaCO_3_
##LOCALITY=Magdalena, New Mexico, USA
##OWNER=RRUFF
##SOURCE=University of Arizona Mineral Museum
##DESCRIPTION=Colorless massive
##STATUS=The identification of this mineral has been confirmed by X-ray diffraction and chemical analysis
##URL=rruff.info/R050048
##MEASURED CHEMISTRY=(Ca_0.99_Zn_0.01_)CO_3_
128.9308, 15.13568
129.4129, 15.83516
129.8950, 16.17627
130.3772, 16.87664
130.8593, 18.25465
131.3414, 20.15408
131.8235, 22.18985
132.3056, 24.43361
132.7877, 26.41908
133.2699, 27.09504
133.7520, 26.37431
134.2341, 26.47299
134.7162, 28.79619
135.1983, 33.35682
135.6804, 36.68773
136.1626, 38.46857
136.6447, 39.40715
137.1268, 40.70127
137.6089, 42.29898
138.0910, 44.40830
138.5731, 47.31383
139.0553, 51.35184
139.5374, 54.71035
140.0195, 57.04403
140.5016, 58.65368
140.9837, 60.66842
141.4658, 63.40509
141.9480, 66.07952
142.4301, 67.93701
142.9122, 67.99397
143.3943, 69.34824
143.8764, 72.72625
144.3585, 78.05243
144.8407, 83.07383
145.3228, 87.09566
145.8049, 91.31054
146.2870, 96.93633
146.7691, 106.0140
147.2512, 113.7235
147.7334, 118.5957
148.2155, 119.7301
148.6976, 122.2769
149.1797, 125.9920
149.6618, 131.2129
150.1439, 138.3221
150.6261, 150.0248
151.1082, 161.1059
151.5903, 170.1200
152.0724, 176.3511
152.5545, 181.9964
153.0366, 187.4687
153.5188, 192.4117
154.0009, 196.1098
154.4830, 199.5284
154.9651, 200.9259
155.4472, 199.5104
155.9293, 194.2359
156.4115, 187.5646
156.8936, 178.8956
157.3757, 168.9103
157.8578, 159.8412
158.3399, 154.0331
158.8221, 148.3828
159.3042, 140.7965
159.7863, 127.8041
160.2684, 115.7191
160.7505, 106.8709
161.2326, 100.9061
161.7148, 95.75321
162.1969, 91.21476
162.6790, 86.77622
163.1611, 82.00028
163.6432, 75.41542
164.1253, 69.45806
164.6075, 65.62636
165.0896, 63.98142
165.5717, 62.93920
166.0538, 61.60715
166.5359, 60.32630
167.0180, 59.57526
167.5002, 60.65725
167.9823, 61.64777
168.4644, 60.73314
168.9465, 57.51257
169.4286, 54.25391
169.9107, 52.46954
170.3929, 51.87207
170.8750, 51.81191
171.3571, 52.59045
171.8392, 53.46986
172.3213, 53.59587
172.8034, 52.74444
173.2856, 51.52301
173.7677, 50.19628
174.2498, 48.87751
174.7319, 47.97441
175.2140, 48.05653
175.6961, 48.63176
176.1783, 48.82447
176.6604, 48.15467
177.1425, 47.63290
177.6246, 49.31730
178.1067, 52.76309
178.5888, 55.18536
179.0710, 53.43917
179.5531, 49.16227
180.0352, 45.97604
180.5173, 44.91880
180.9994, 45.20996
181.4815, 46.03582
181.9637, 47.37598
182.4458, 48.36711
182.9279, 47.74140
183.4100, 46.00919
183.8921, 45.15857
184.3742, 46.35282
184.8564, 48.53031
185.3385, 48.96194
185.8206, 47.53514
186.3027, 45.77471
186.7848, 44.99463
187.2669, 45.17141
187.7491, 46.11967
188.2312, 48.55390
188.7133, 51.73745
189.1954, 52.52320
189.6775, 50.49907
190.1596, 47.89277
190.6418, 47.82941
191.1239, 50.23350
191.6060, 51.98487
192.0881, 51.10599
192.5702, 48.04396
193.0524, 47.09203
193.5345, 48.78023
194.0166, 51.20272
194.4987, 51.13636
194.9808, 48.41148
195.4629, 45.75053
195.9451, 44.42984
196.4272, 44.41105
196.9093, 44.75246
197.3914, 45.46052
197.8735, 46.47227
198.3556, 47.94740
198.8378, 50.05150
199.3199, 51.55131
199.8020, 51.51216
200.2841, 49.81383
200.7662, 48.34221
201.2483, 47.13820
201.7305, 46.27980
202.2126, 46.04386
202.6947, 46.54110
203.1768, 47.24769
203.6589, 47.93227
204.1410, 48.62098
204.6232, 49.06929
205.1053, 49.27510
205.5874, 49.21803
206.0695, 48.61773
206.5516, 47.11711
207.0337, 46.01131
207.5159, 46.49939
207.9980, 49.06643
208.4801, 50.87185
208.9622, 51.50536
209.4443, 51.11363
209.9264, 50.14288
210.4086, 48.03812
210.8907, 46.46849
211.3728, 47.01453
211.8549, 50.43357
212.3370, 53.48627
212.8191, 56.09950
213.3013, 58.08279
213.7834, 57.68661
214.2655, 53.94381
214.7476, 49.36153
215.2297, 45.92297
215.7118, 43.46303
216.1940, 42.65216
216.6761, 44.29460
217.1582, 48.21119
217.6403, 49.99252
218.1224, 48.61999
218.6045, 46.44921
219.0867, 45.75090
219.5688, 47.01303
220.0509, 48.66057
220.5330, 50.60932
221.0151, 52.91296
221.4972, 54.14327
221.9794, 53.99971
222.4615, 53.13312
222.9436, 52.04550
223.4257, 50.14571
223.9078, 49.30042
224.3899, 50.36082
224.8721, 53.59109
225.3542, 55.33556
225.8363, 54.88085
226.3184, 53.63282
226.8005, 53.36152
227.2827, 54.85570
227.7648, 55.79756
228.2469, 55.33746
228.7290, 53.16469
229.2111, 52.07540
229.6932, 52.58266
230.1754, 53.76938
230.6575, 54.45820
231.1396, 54.46379
231.6217, 54.28184
232.1038, 53.99628
232.5859, 53.56260
233.0681, 53.19539
233.5502, 52.53053
234.0323, 52.18963
234.5144, 53.31380
234.9965, 57.23915
235.4786, 60.33821
235.9608, 61.23437
236.4429, 59.23988
236.9250, 58.24900
237.4071, 58.74577
237.8892, 59.95544
238.3713, 60.60298
238.8535, 60.20698
239.3356, 60.06242
239.8177, 60.71237
240.2998, 62.52760
240.7819, 63.67584
241.2640, 63.84055
241.7462, 63.54106
242.2283, 63.70699
242.7104, 64.66882
243.1925, 65.54759
243.6746, 65.96199
244.1567, 65.61816
244.6389, 65.83149
245.1210, 66.70406
245.6031, 68.06709
246.0852, 69.71983
246.5673, 72.06433
247.0494, 74.00761
247.5316, 75.04591
248.0137, 74.78882
248.4958, 74.96983
248.9779, 75.77560
249.4600, 76.91483
249.9421, 77.78973
250.4243, 78.15839
250.9064, 78.70645
251.3885, 79.72527
251.8706, 81.38417
252.3527, 82.93693
252.8348, 84.19650
253.3170, 85.46002
253.7991, 87.49203
254.2812, 91.07435
254.7633, 93.86788
255.2454, 94.45679
255.7275, 91.50120
256.2097, 91.46413
256.6918, 95.35253
257.1739, 101.4640
257.6560, 106.9966
258.1381, 112.4497
258.6202, 116.2665
259.1024, 117.0010
259.5845, 112.9250
260.0666, 113.2745
260.5487, 119.9378
261.0308, 129.5960
261.5129, 136.1315
261.9951, 138.0162
262.4772, 140.2985
262.9593, 145.0932
263.4414, 153.0696
263.9235, 160.4559
264.4056, 166.8637
264.8878, 173.1349
265.3699, 181.1362
265.8520, 191.6084
266.3341, 201.8915
266.8162, 210.9965
267.2983, 218.6431
267.7805, 226.4396
268.2626, 234.4696
268.7447, 242.4854
269.2268, 249.3810
269.7089, 254.1506
270.1910, 261.3808
270.6732, 273.5782
271.1553, 291.2534
271.6374, 308.6544
272.1195, 326.0000
272.6016, 342.7858
273.0837, 357.0676
273.5659, 368.2734
274.0480, 380.1988
274.5301, 394.3826
275.0122, 410.8079
275.4943, 428.8385
275.9764, 449.0981
276.4586, 469.7895
276.9407, 488.2018
277.4228, 503.9150
277.9049, 519.1146
278.3870, 535.8653
278.8691, 553.8357
279.3513, 564.9499
279.8334, 568.4249
280.3155, 567.0547
280.7976, 564.6982
281.2798, 561.4833
281.7619, 554.8657
282.2440, 543.7958
282.7261, 528.4404
283.2082, 509.6409
283.6903, 487.0511
284.1725, 462.2897
284.6546, 436.4364
285.1367, 409.7811
285.6188, 384.1195
286.1009, 360.3333
286.5830, 338.1066
287.0652, 315.6816
287.5473, 293.0397
288.0294, 271.5277
288.5115, 252.8641
288.9936, 236.8179
289.4757, 222.2191
289.9579, 208.7926
290.4400, 196.4210
290.9221, 183.8203
291.4042, 170.8231
291.8863, 159.6948
292.3684, 154.3188
292.8506, 153.3294
293.3327, 150.6719
293.8148, 143.6841
294.2969, 134.2762
294.7790, 125.1563
295.2611, 116.2938
295.7433, 109.5015
296.2254, 108.2089
296.7075, 110.3676
297.1896, 110.1118
297.6717, 104.2541
298.1538, 96.40414
298.6360, 91.88097
299.1181, 90.50061
299.6002, 90.56977
300.0823, 91.93507
300.5644, 93.69091
301.0465, 94.06000
301.5287, 92.10942
302.0108, 89.17634
302.4929, 86.56454
302.9750, 84.23344
303.4571, 82.09871
303.9392, 79.63783
304.4214, 77.45691
304.9035, 76.49157
305.3856, 77.64666
305.8677, 79.00970
306.3498, 79.14050
306.8319, 78.13563
307.3141, 76.31551
307.7962, 72.76156
308.2783, 69.01973
308.7604, 66.64605
309.2425, 66.34170
309.7246, 66.70602
310.2068, 67.36839
310.6889, 68.06730
311.1710, 68.13826
311.6531, 66.38281
312.1352, 64.41196
312.6173, 63.56247
313.0995, 64.45015
313.5816, 65.30650
314.0637, 65.52099
314.5458, 65.11743
315.0279, 64.15072
315.5100, 61.55990
315.9922, 59.22644
316.4743, 58.36263
316.9564, 59.49637
317.4385, 60.48516
317.9206, 60.57173
318.4027, 60.10220
318.8849, 59.56030
319.3670, 59.29087
319.8491, 58.78176
320.3312, 57.61585
320.8133, 55.54940
321.2954, 54.13254
321.7776, 53.92910
322.2597, 54.40677
322.7418, 54.99819
323.2239, 55.75932
323.7060, 56.48994
324.1881, 57.16962
324.6703, 57.80359
325.1524, 58.30530
325.6345, 58.82658
326.1166, 59.12296
326.5987, 59.00592
327.0808, 58.62970
327.5630, 57.63904
328.0451, 55.25919
328.5272, 51.64029
329.0093, 50.14883
329.4914, 52.41563
329.9735, 55.35474
330.4557, 56.98190
330.9378, 56.74322
331.4199, 56.10263
331.9020, 54.81963
332.3841, 53.16113
332.8662, 52.52636
333.3484, 53.48944
333.8305, 54.61493
334.3126, 55.13076
334.7947, 54.88500
335.2768, 54.43866
335.7589, 53.65188
336.2411, 52.77283
336.7232, 52.53660
337.2053, 53.22463
337.6874, 53.73734
338.1695, 53.27692
338.6516, 51.61541
339.1338, 51.17338
339.6159, 52.36967
340.0980, 54.20021
340.5801, 54.93791
341.0622, 54.50119
341.5443, 53.76315
342.0265, 52.64637
342.5086, 51.32679
342.9907, 51.90598
343.4728, 54.86776
343.9549, 57.80994
344.4370, 56.83031
344.9192, 52.43523
345.4013, 49.50936
345.8834, 50.79682
346.3655, 54.52668
346.8476, 55.75727
347.3297, 54.41605
347.8119, 52.64167
348.2940, 52.70965
348.7761, 53.99504
349.2582, 54.55532
349.7403, 53.36978
350.2225, 51.70223
350.7046, 51.52409
351.1867, 52.66651
351.6688, 53.83973
352.1509, 53.96762
352.6331, 53.57138
353.1152, 53.42956
353.5973, 53.74941
354.0794, 54.29915
354.5615, 55.01149
355.0436, 55.81355
355.5258, 56.48352
356.0079, 57.15907
356.4900, 57.50523
356.9721, 57.11114
357.4542, 55.70602
357.9363, 54.26527
358.4185, 53.08997
358.9006, 52.27471
359.3827, 51.98310
359.8648, 53.21983
360.3469, 54.25091
360.8290, 53.99253
361.3112, 52.16426
361.7933, 50.42400
362.2754, 48.79279
362.7575, 47.69632
363.2396, 47.59718
363.7217, 49.93303
364.2039, 51.94677
364.6860, 52.87821
365.1681, 52.70157
365.6502, 52.25844
366.1323, 50.94737
366.6144, 49.81836
367.0966, 49.60424
367.5787, 51.45038
368.0608, 52.82918
368.5429, 53.31184
369.0250, 53.11908
369.5071, 53.42543
369.9893, 54.95736
370.4714, 56.14516
370.9535, 56.19353
371.4356, 54.69682
371.9177, 52.88659
372.3998, 50.30774
372.8820, 47.65648
373.3641, 46.63139
373.8462, 47.71333
374.3283, 49.17998
374.8104, 50.47344
375.2925, 51.62599
375.7747, 52.29504
376.2568, 52.38526
376.7389, 52.19279
377.2210, 52.20836
377.7031, 52.47503
378.1852, 52.27671
378.6674, 51.01332
379.1495, 49.12856
379.6316, 48.60611
380.1137, 49.54070
380.5958, 51.01992
381.0779, 52.54869
381.5601, 54.01680
382.0422, 54.73452
382.5243, 54.39220
383.0064, 53.45604
383.4885, 52.55646
383.9706, 51.70097
384.4528, 51.00708
384.9349, 50.34475
385.4170, 49.94326
385.8991, 50.44442
386.3812, 52.34346
386.8633, 53.85471
387.3455, 52.36507
387.8276, 49.16990
388.3097, 47.21582
388.7918, 49.45155
389.2739, 52.61253
389.7560, 53.86522
390.2382, 52.82891
390.7203, 51.87073
391.2024, 52.62472
391.6845, 54.03680
392.1666, 54.90154
392.6487, 54.02355
393.1309, 53.26498
393.6130, 53.97750
394.0951, 55.93122
394.5772, 56.37109
395.0593, 52.73136
395.5414, 48.53670
396.0236, 46.02534
396.5057, 46.66683
396.9878, 47.62143
397.4699, 49.30499
397.9520, 51.20882
398.4341, 51.71037
398.9163, 49.51801
399.3984, 47.25378
399.8805, 45.74653
400.3626, 44.91401
400.8447, 45.21371
401.3268, 47.51387
401.8090, 50.30376
402.2911, 51.29285
402.7732, 49.66121
403.2553, 48.35597
403.7374, 48.25510
404.2195, 49.28310
404.7017, 50.09700
405.1838, 50.69863
405.6659, 51.08433
406.1480, 51.23714
406.6301, 51.15746
407.1122, 50.90138
407.5944, 50.41847
408.0765, 49.82562
408.5586, 49.44295
409.0407, 49.26434
409.5228, 49.05810
410.0049, 48.73362
410.4871, 48.26810
410.9692, 47.36581
411.4513, 45.78754
411.9334, 44.61892
412.4155, 45.40861
412.8976, 47.66736
413.3798, 49.93005
413.8619, 51.94642
414.3440, 53.42518
414.8261, 53.89223
415.3082, 53.34613
415.7903, 52.64073
416.2725, 52.14871
416.7546, 51.87440
417.2367, 51.84192
417.7188, 52.73895
418.2009, 53.13074
418.6830, 51.70992
419.1652, 49.05736
419.6473, 47.35995
420.1294, 47.61876
420.6115, 48.80739
421.0937, 50.59395
421.5758, 53.71181
422.0579, 55.66645
422.5400, 55.16480
423.0221, 53.51428
423.5042, 52.86442
423.9864, 54.72001
424.4685, 55.96960
424.9506, 55.70996
425.4327, 53.79160
425.9148, 52.31057
426.3969, 51.29628
426.8791, 50.68478
427.3612, 50.59201
427.8433, 51.39294
428.3254, 51.40978
428.8075, 49.90359
429.2896, 47.65225
429.7718, 47.63645
430.2539, 50.25508
430.7360, 52.96749
431.2181, 54.34614
431.7002, 54.44331
432.1823, 53.84944
432.6645, 52.42583
433.1466, 50.86623
433.6287, 50.17593
434.1108, 50.22627
434.5929, 50.37762
435.0750, 50.02441
435.5572, 49.75924
436.0393, 51.23100
436.5214, 54.32652
437.0035, 56.65051
437.4856, 55.53445
437.9677, 52.70081
438.4499, 50.51402
438.9320, 49.62971
439.4141, 49.43648
439.8962, 49.73643
440.3783, 50.41184
440.8604, 51.16827
441.3426, 52.46667
441.8247, 53.35216
442.3068, 52.98113
442.7889, 50.86494
443.2710, 49.42284
443.7531, 49.96770
444.2353, 51.25611
444.7174, 51.92259
445.1995, 50.61879
445.6816, 49.94495
446.1637, 51.06779
446.6458, 53.67322
447.1280, 54.28012
447.6101, 50.96540
448.0922, 47.76844
448.5743, 47.17369
449.0564, 50.69009
449.5385, 52.66853
450.0207, 52.39680
450.5028, 51.03960
450.9849, 50.93901
451.4670, 52.40529
451.9491, 53.56255
452.4312, 53.68746
452.9134, 52.86377
453.3955, 51.34879
453.8776, 48.94263
454.3597, 47.28296
454.8418, 48.90439
455.3239, 52.91654
455.8061, 55.42995
456.2882, 55.10823
456.7703, 53.66383
457.2524, 53.63928
457.7345, 54.68385
458.2166, 55.36276
458.6988, 54.40039
459.1809, 52.83198
459.6630, 51.68821
460.1451, 51.05265
460.6272, 50.93163
461.1093, 51.42202
461.5915, 52.39783
462.0736, 53.69855
462.5557, 56.60382
463.0378, 58.52079
463.5199, 57.71675
464.0020, 54.62898
464.4842, 52.53923
464.9663, 52.65116
465.4484, 53.56715
465.9305, 54.64135
466.4126, 56.58088
466.8947, 57.36749
467.3769, 56.32800
467.8590, 54.43336
468.3411, 53.24198
468.8232, 52.97539
469.3053, 53.01962
469.7874, 53.38625
470.2696, 54.02731
470.7517, 53.90118
471.2338, 52.76171
471.7159, 51.61457
472.1980, 51.29525
472.6801, 51.79665
473.1623, 52.87452
473.6444, 54.79427
474.1265, 56.69902
474.6086, 56.95353
475.0907, 55.74560
475.5728, 54.29053
476.0550, 52.62512
476.5371, 51.32997
477.0192, 51.82430
477.5013, 54.18129
477.9834, 56.27589
478.4655, 55.98223
478.9477, 54.59221
479.4298, 53.83533
479.9119, 54.87273
480.3940, 55.83294
480.8761, 55.45050
481.3582, 54.17937
481.8404, 53.32775
482.3225, 53.59551
482.8046, 54.15445
483.2867, 54.80187
483.7688, 55.80185
484.2509, 55.90563
484.7331, 54.43195
485.2152, 52.30843
485.6973, 50.22280
486.1794, 47.21105
486.6615, 45.98035
487.1436, 47.54349
487.6258, 51.19975
488.1079, 53.62016
488.5900, 54.53231
489.0721, 54.91242
489.5542, 55.58229
490.0363, 56.56475
490.5185, 55.33516
491.0006, 51.20105
491.4827, 46.98531
491.9648, 47.06545
492.4470, 50.67367
492.9291, 53.59547
493.4112, 53.83725
493.8933, 53.04723
494.3754, 54.28411
494.8575, 57.12783
495.3397, 58.86317
495.8218, 56.25170
496.3039, 52.31171
496.7860, 50.41259
497.2681, 51.33121
497.7502, 53.05770
498.2324, 55.71121
498.7145, 58.19681
499.1966, 59.07478
499.6787, 55.90093
500.1608, 53.06973
500.6429, 52.06241
501.1251, 52.80042
501.6072, 53.54057
502.0893, 54.92422
502.5714, 55.61587
503.0535, 54.71497
503.5356, 50.63214
504.0178, 48.94414
504.4999, 50.79437
504.9820, 54.01746
505.4641, 55.49092
505.9462, 55.11035
506.4283, 53.30112
506.9105, 49.03798
507.3926, 43.70288
507.8747, 43.95224
508.3568, 50.10884
508.8389, 55.95964
509.3210, 55.69364
509.8032, 51.61313
510.2853, 50.38910
510.7674, 53.30877
511.2495, 57.14128
511.7316, 58.87947
512.2137, 59.07076
512.6959, 58.81453
513.1780, 57.82752
513.6601, 57.17196
514.1422, 58.38899
514.6243, 61.01474
515.1064, 61.90038
515.5886, 58.10758
516.0707, 53.37914
516.5528, 49.90089
517.0349, 47.79774
517.5170, 47.19374
517.9991, 48.73810
518.4813, 51.55169
518.9634, 54.75760
519.4455, 59.64333
519.9276, 62.63837
520.4097, 62.47534
520.8918, 59.68876
521.3740, 57.82894
521.8561, 57.15334
522.3382, 56.55185
522.8203, 54.77875
523.3024, 52.01625
523.7845, 51.67525
524.2667, 54.48284
524.7488, 57.65548
525.2309, 57.36436
525.7130, 54.50315
526.1951, 52.16563
526.6772, 51.32430
527.1594, 51.60146
527.6415, 53.34446
528.1236, 56.10026
528.6057, 57.90836
529.0878, 55.92072
529.5699, 53.67419
530.0521, 54.34513
530.5342, 59.22258
531.0163, 62.99200
531.4984, 63.61500
531.9805, 62.44882
532.4626, 60.94959
532.9448, 58.94636
533.4269, 57.03048
533.9090, 55.07515
534.3911, 53.23394
534.8732, 52.17342
535.3553, 51.97150
535.8375, 52.41961
536.3196, 53.87815
536.8017, 56.50409
537.2838, 56.76515
537.7659, 54.01396
538.2480, 51.04145
538.7302, 51.25306
539.2123, 54.18111
539.6944, 56.60551
540.1765, 57.82453
540.6586, 58.24803
541.1407, 58.30113
541.6229, 58.03266
542.1050, 57.62334
542.5871, 57.10235
543.0692, 56.52793
543.5513, 55.75241
544.0334, 54.78581
544.5156, 54.42155
544.9977, 56.26277
545.4798, 58.15163
545.9619, 58.29861
546.4440, 54.87707
546.9261, 51.92545
547.4083, 49.52874
547.8904, 48.04475
548.3725, 48.22336
548.8546, 51.16148
549.3367, 53.97217
549.8188, 56.00428
550.3010, 57.29612
550.7831, 58.36635
551.2652, 59.33209
551.7473, 59.68385
552.2294, 58.48599
552.7115, 55.99829
553.1937, 55.04696
553.6758, 56.04079
554.1579, 57.80276
554.6400, 59.45703
555.1221, 60.75994
555.6042, 60.90540
556.0864, 58.35382
556.5685, 55.79785
557.0506, 56.64173
557.5327, 59.92336
558.0148, 62.05061
558.4969, 60.04584
558.9791, 57.26782
559.4612, 55.79936
559.9433, 56.10464
560.4254, 56.45187
560.9075, 56.52507
561.3896, 56.51129
561.8718, 56.61200
562.3539, 57.26830
562.8360, 57.18295
563.3181, 55.61322
563.8002, 53.55366
564.2823, 53.87806
564.7645, 57.32967
565.2466, 59.75381
565.7287, 58.84538
566.2108, 55.50711
566.6929, 54.18997
567.1750, 54.94758
567.6572, 56.75689
568.1393, 59.93740
568.6214, 63.34736
569.1035, 64.19479
569.5856, 61.51218
570.0677, 58.48528
570.5499, 57.81434
571.0320, 58.51435
571.5141, 59.01627
571.9962, 58.31342
572.4783, 57.73356
572.9604, 58.08587
573.4426, 59.12880
573.9247, 59.59575
574.4068, 58.52448
574.8889, 57.53592
575.3710, 57.40771
575.8531, 58.47331
576.3353, 58.58199
576.8174, 57.31562
577.2995, 55.71081
577.7816, 54.59375
578.2637, 53.94880
578.7458, 54.19127
579.2280, 55.64954
579.7101, 57.52898
580.1922, 58.38121
580.6743, 58.34485
581.1564, 58.20299
581.6385, 58.07984
582.1207, 58.18332
582.6028, 59.30054
583.0849, 61.19736
583.5670, 62.12650
584.0491, 59.81089
584.5313, 56.90831
585.0134, 55.47790
585.4955, 56.07199
585.9776, 57.35006
586.4597, 60.50260
586.9418, 63.51836
587.4240, 63.96733
587.9061, 59.21674
588.3882, 56.00204
588.8703, 55.57473
589.3524, 56.99794
589.8345, 57.34579
590.3167, 56.18099
590.7988, 55.67176
591.2809, 57.36589
591.7630, 60.58228
592.2451, 61.35861
592.7272, 59.60585
593.2094, 57.58728
593.6915, 57.31910
594.1736, 58.09754
594.6557, 58.59155
595.1378, 58.54150
595.6199, 58.35476
596.1021, 58.11717
596.5842, 57.99107
597.0663, 58.20914
597.5485, 59.66809
598.0306, 60.61449
598.5127, 60.14732
598.9948, 58.60936
599.4769, 57.48082
599.9590, 56.39752
600.4412, 56.28254
600.9233, 57.90604
601.4054, 61.49922
601.8875, 63.06546
602.3696, 61.96360
602.8517, 60.37716
603.3339, 60.50548
603.8160, 62.14706
604.2981, 62.32787
604.7802, 60.36585
605.2623, 58.12979
605.7444, 58.67033
606.2266, 60.93198
606.7087, 62.01253
607.1908, 59.57364
607.6729, 56.88950
608.1550, 56.32960
608.6371, 57.63227
609.1193, 59.92698
609.6014, 65.04545
610.0835, 69.19551
610.5656, 70.00608
611.0477, 66.81229
611.5298, 64.46538
612.0120, 63.33693
612.4941, 62.90703
612.9762, 62.98288
613.4583, 63.82970
613.9404, 64.16102
614.4225, 63.75685
614.9047, 63.12078
615.3868, 63.01254
615.8689, 63.39077
616.3510, 63.73211
616.8331, 63.91611
617.3152, 63.94294
617.7974, 63.83490
618.2795, 63.57598
618.7616, 63.10376
619.2437, 61.90978
619.7258, 60.84472
620.2079, 60.73009
620.6901, 61.59635
621.1722, 62.24136
621.6543, 61.93008
622.1364, 61.48504
622.6185, 61.42688
623.1006, 61.81348
623.5828, 62.59169
624.0649, 64.30602
624.5470, 65.91223
625.0291, 66.00250
625.5112, 64.27832
625.9933, 62.56530
626.4755, 61.06332
