##NAMES=Calcite
##RRUFFID=R040070
##IDEAL CHEMISTRY=CaCO_3_
##LOCALITY=Pryor Mountain, Big Horn County, Montana, USA
##OWNER=RRUFF
##SOURCE=University of Arizona Mineral Museum
##DESCRIPTION=Orange scalenohedral crystals
##STATUS=The identification of this mineral has been confirmed by X-ray diffraction and chemical analysis
##URL=rruff.info/R040070
##MEASURED CHEMISTRY=(Ca_0.99_Mg_0.01_)CO_3_
128.7962, 1341.503
129.2784, 1343.209
129.7605, 1343.193
130.2426, 1344.797
130.7247, 1348.083
131.2068, 1354.524
131.6889, 1365.793
132.1711, 1379.568
132.6532, 1387.089
133.1353, 1386.931
133.6174, 1387.570
134.0995, 1398.699
134.5816, 1420.060
135.0638, 1444.262
135.5459, 1467.844
136.0280, 1490.814
136.5101, 1518.746
136.9922, 1551.231
137.4743, 1589.068
137.9565, 1633.475
138.4386, 1684.167
138.9207, 1742.302
139.4028, 1806.712
139.8849, 1876.437
140.3670, 1957.977
140.8492, 2052.531
141.3313, 2159.116
141.8134, 2273.092
142.2955, 2387.640
142.7776, 2521.114
143.2597, 2689.219
143.7419, 2899.570
144.2240, 3123.915
144.7061, 3352.869
145.1882, 3589.125
145.6703, 3854.975
146.1524, 4163.490
146.6346, 4495.240
147.1167, 4834.820
147.5988, 5153.875
148.0809, 5511.788
148.5630, 5921.538
149.0451, 6392.890
149.5273, 6884.484
150.0094, 7388.600
150.4915, 7911.333
150.9736, 8471.834
151.4557, 9123.871
151.9378, 9761.213
152.4200, 10365.35
152.9021, 11007.37
153.3842, 11495.70
153.8663, 11866.38
154.3484, 12084.42
154.8305, 12035.67
155.3127, 11602.05
155.7948, 10968.20
156.2769, 10237.95
156.7590, 9337.511
157.2411, 8435.252
157.7232, 7539.045
158.2053, 6657.715
158.6875, 5877.040
159.1696, 5245.750
159.6517, 4720.745
160.1338, 4263.876
160.6159, 3879.552
161.0980, 3546.798
161.5802, 3261.639
162.0623, 3027.463
162.5444, 2821.699
163.0265, 2638.275
163.5086, 2476.958
163.9907, 2337.535
164.4729, 2228.636
164.9550, 2135.347
165.4371, 2047.282
165.9192, 1962.056
166.4013, 1888.608
166.8834, 1839.151
167.3656, 1805.974
167.8477, 1771.674
168.3298, 1723.188
168.8119, 1671.324
169.2940, 1626.166
169.7761, 1591.742
170.2583, 1561.649
170.7404, 1530.286
171.2225, 1498.750
171.7046, 1472.333
172.1867, 1460.163
172.6688, 1453.779
173.1510, 1441.171
173.6331, 1413.994
174.1152, 1383.369
174.5973, 1359.614
175.0794, 1342.795
175.5615, 1330.730
176.0437, 1323.916
176.5258, 1320.679
177.0079, 1317.561
177.4900, 1314.248
177.9721, 1309.940
178.4542, 1303.433
178.9364, 1294.724
179.4185, 1284.184
179.9006, 1270.079
180.3827, 1253.850
180.8648, 1240.963
181.3469, 1234.673
181.8291, 1233.380
182.3112, 1234.218
182.7933, 1237.587
183.2754, 1241.013
183.7575, 1242.013
184.2396, 1240.493
184.7218, 1235.969
185.2039, 1225.489
185.6860, 1211.082
186.1681, 1201.283
186.6502, 1198.181
187.1323, 1197.932
187.6144, 1192.591
188.0966, 1182.147
188.5787, 1173.484
189.0608, 1172.512
189.5429, 1178.266
190.0250, 1183.946
190.5071, 1189.254
190.9893, 1193.134
191.4714, 1191.558
191.9535, 1183.982
192.4356, 1176.281
192.9177, 1174.237
193.3998, 1177.686
193.8820, 1180.393
194.3641, 1180.223
194.8462, 1178.255
195.3283, 1179.868
195.8104, 1185.979
196.2925, 1192.194
196.7747, 1193.455
197.2568, 1189.518
197.7389, 1184.608
198.2210, 1178.661
198.7031, 1172.121
199.1852, 1171.863
199.6674, 1179.873
200.1495, 1189.616
200.6316, 1190.677
201.1137, 1181.353
201.5958, 1174.050
202.0779, 1174.300
202.5601, 1182.707
203.0422, 1190.716
203.5243, 1199.219
204.0064, 1206.245
204.4885, 1207.185
204.9706, 1200.332
205.4528, 1193.706
205.9349, 1190.988
206.4170, 1192.707
206.8991, 1195.600
207.3812, 1200.116
207.8633, 1205.362
208.3455, 1208.811
208.8276, 1209.715
209.3097, 1210.850
209.7918, 1214.491
210.2739, 1222.101
210.7560, 1226.128
211.2382, 1224.975
211.7203, 1220.197
212.2024, 1217.788
212.6845, 1219.272
213.1666, 1220.071
213.6487, 1214.936
214.1309, 1198.473
214.6130, 1194.066
215.0951, 1209.368
215.5772, 1239.919
216.0593, 1257.567
216.5414, 1257.938
217.0236, 1252.202
217.5057, 1248.891
217.9878, 1249.009
218.4699, 1248.972
218.9520, 1247.930
219.4341, 1246.019
219.9162, 1245.559
220.3984, 1246.371
220.8805, 1248.898
221.3626, 1254.467
221.8447, 1266.421
222.3268, 1273.950
222.8089, 1272.770
223.2911, 1262.185
223.7732, 1259.029
224.2553, 1265.855
224.7374, 1277.575
225.2195, 1288.730
225.7016, 1300.183
226.1838, 1309.361
226.6659, 1314.808
227.1480, 1315.541
227.6301, 1319.338
228.1122, 1327.623
228.5943, 1337.814
229.0765, 1346.630
229.5586, 1353.435
230.0407, 1359.858
230.5228, 1366.584
231.0049, 1373.982
231.4870, 1379.908
231.9692, 1383.340
232.4513, 1386.107
232.9334, 1391.152
233.4155, 1398.839
233.8976, 1408.290
234.3797, 1419.903
234.8619, 1435.617
235.3440, 1446.954
235.8261, 1450.611
236.3082, 1451.568
236.7903, 1460.502
237.2724, 1483.070
237.7546, 1504.878
238.2367, 1520.482
238.7188, 1527.203
239.2009, 1533.692
239.6830, 1538.668
240.1651, 1543.781
240.6473, 1553.398
241.1294, 1569.693
241.6115, 1587.285
242.0936, 1603.534
242.5757, 1615.950
243.0578, 1632.830
243.5400, 1656.249
244.0221, 1683.700
244.5042, 1707.461
244.9863, 1725.061
245.4684, 1742.563
245.9505, 1762.332
246.4327, 1782.605
246.9148, 1809.614
247.3969, 1845.980
247.8790, 1888.988
248.3611, 1928.234
248.8432, 1961.441
249.3253, 1994.238
249.8075, 2029.608
250.2896, 2069.885
250.7717, 2107.641
251.2538, 2140.892
251.7359, 2171.000
252.2180, 2204.677
252.7002, 2239.242
253.1823, 2280.599
253.6644, 2333.843
254.1465, 2406.621
254.6286, 2473.080
255.1107, 2527.720
255.5929, 2574.157
256.0750, 2632.598
256.5571, 2707.196
257.0392, 2788.240
257.5213, 2869.044
258.0034, 2950.221
258.4856, 3030.509
258.9677, 3106.510
259.4498, 3180.329
259.9319, 3265.979
260.4140, 3362.944
260.8961, 3471.462
261.3783, 3591.062
261.8604, 3725.010
262.3425, 3863.255
262.8246, 4003.689
263.3067, 4147.851
263.7888, 4308.247
264.2710, 4484.899
264.7531, 4677.251
265.2352, 4879.999
265.7173, 5090.615
266.1994, 5325.779
266.6815, 5587.796
267.1637, 5878.535
267.6458, 6203.106
268.1279, 6566.800
268.6100, 6962.608
269.0921, 7390.698
269.5742, 7848.597
270.0564, 8337.557
270.5385, 8860.893
271.0206, 9417.529
271.5027, 10016.98
271.9848, 10665.30
272.4669, 11340.84
272.9491, 12029.55
273.4312, 12729.69
273.9133, 13437.05
274.3954, 14145.00
274.8775, 14856.13
275.3596, 15594.06
275.8418, 16360.13
276.3239, 17119.84
276.8060, 17842.84
277.2881, 18531.77
277.7702, 19165.20
278.2523, 19750.91
278.7345, 20275.83
279.2166, 20698.18
279.6987, 21026.06
280.1808, 21216.20
280.6629, 21248.44
281.1451, 21123.84
281.6272, 20785.95
282.1093, 20205.15
282.5914, 19410.98
283.0735, 18477.81
283.5556, 17388.21
284.0378, 16240.72
284.5199, 15074.04
285.0020, 13891.90
285.4841, 12765.51
285.9662, 11700.71
286.4483, 10706.57
286.9305, 9809.054
287.4126, 9014.702
287.8947, 8299.147
288.3768, 7638.517
288.8589, 7034.206
289.3410, 6498.351
289.8232, 6040.665
290.3053, 5643.921
290.7874, 5278.010
291.2695, 4941.059
291.7516, 4639.884
292.2337, 4395.584
292.7159, 4196.092
293.1980, 4001.724
293.6801, 3799.815
294.1622, 3601.635
294.6443, 3431.250
295.1264, 3286.957
295.6085, 3157.343
296.0906, 3035.630
296.5728, 2923.396
297.0549, 2823.612
297.5370, 2740.159
298.0191, 2666.254
298.5012, 2593.920
298.9833, 2523.806
299.4655, 2455.235
299.9476, 2387.203
300.4297, 2321.738
300.9118, 2263.515
301.3939, 2214.400
301.8760, 2172.068
302.3582, 2137.308
302.8403, 2108.540
303.3224, 2080.239
303.8045, 2049.721
304.2866, 2017.388
304.7687, 1982.918
305.2509, 1945.640
305.7330, 1908.350
306.2151, 1870.551
306.6972, 1834.091
307.1793, 1803.308
307.6614, 1785.919
308.1436, 1773.731
308.6257, 1758.501
309.1078, 1738.317
309.5899, 1716.818
310.0720, 1694.778
310.5541, 1673.112
311.0363, 1653.848
311.5184, 1638.055
312.0005, 1624.848
312.4826, 1613.648
312.9647, 1604.871
313.4468, 1596.547
313.9290, 1590.870
314.4111, 1584.809
314.8932, 1572.788
315.3753, 1543.812
315.8574, 1514.589
316.3395, 1494.691
316.8217, 1486.280
317.3038, 1482.683
317.7859, 1486.231
318.2680, 1492.088
318.7501, 1493.169
319.2322, 1484.519
319.7144, 1472.957
320.1965, 1460.737
320.6786, 1447.605
321.1607, 1435.847
321.6428, 1426.925
322.1249, 1419.364
322.6071, 1411.395
323.0892, 1402.818
323.5713, 1393.602
324.0534, 1382.022
324.5355, 1366.731
325.0176, 1358.220
325.4998, 1363.503
325.9819, 1373.451
326.4640, 1379.264
326.9461, 1379.881
327.4282, 1376.911
327.9103, 1369.289
328.3925, 1356.649
328.8746, 1345.808
329.3567, 1335.957
329.8388, 1328.604
330.3209, 1325.241
330.8030, 1329.577
331.2852, 1332.515
331.7673, 1332.231
332.2494, 1329.079
332.7315, 1327.958
333.2136, 1331.120
333.6957, 1333.756
334.1779, 1331.718
334.6600, 1321.089
335.1421, 1315.388
335.6242, 1318.411
336.1063, 1327.490
336.5884, 1329.027
337.0706, 1319.758
337.5527, 1309.825
338.0348, 1306.355
338.5169, 1310.905
338.9990, 1313.745
339.4811, 1313.631
339.9633, 1311.650
340.4454, 1310.501
340.9275, 1310.163
341.4096, 1310.628
341.8917, 1313.806
342.3738, 1319.663
342.8560, 1317.124
343.3381, 1302.523
343.8202, 1284.949
344.3023, 1283.020
344.7844, 1296.572
345.2665, 1307.581
345.7487, 1303.176
346.2308, 1287.435
346.7129, 1280.669
347.1950, 1284.832
347.6771, 1292.336
348.1592, 1292.930
348.6414, 1288.052
349.1235, 1284.126
349.6056, 1285.043
350.0877, 1288.699
350.5698, 1291.282
351.0519, 1292.758
351.5341, 1293.240
352.0162, 1291.894
352.4983, 1289.633
352.9804, 1288.471
353.4625, 1290.763
353.9446, 1293.501
354.4268, 1291.074
354.9089, 1284.083
355.3910, 1281.359
355.8731, 1295.712
356.3552, 1316.036
356.8373, 1328.286
357.3195, 1324.340
357.8015, 1315.068
358.2837, 1305.463
358.7658, 1295.900
359.2479, 1288.138
359.7300, 1283.224
360.2121, 1280.438
360.6942, 1279.372
361.1764, 1281.557
361.6585, 1283.053
362.1406, 1282.374
362.6227, 1279.954
363.1048, 1276.819
363.5869, 1270.007
364.0691, 1265.113
364.5512, 1265.391
365.0333, 1274.024
365.5154, 1281.525
365.9975, 1285.649
366.4796, 1287.796
366.9618, 1290.373
367.4439, 1297.263
367.9260, 1301.047
368.4081, 1297.915
368.8902, 1284.557
369.3723, 1276.990
369.8545, 1275.745
370.3366, 1279.972
370.8187, 1289.824
371.3008, 1314.450
371.7829, 1330.232
372.2650, 1329.625
372.7472, 1312.686
373.2293, 1302.780
373.7114, 1303.112
374.1935, 1306.185
374.6756, 1305.322
375.1577, 1299.038
375.6399, 1294.433
376.1220, 1292.781
376.6041, 1293.651
377.0862, 1295.643
377.5683, 1299.085
378.0504, 1302.370
378.5326, 1305.288
379.0147, 1307.851
379.4968, 1305.217
379.9789, 1294.713
380.4610, 1282.190
380.9431, 1280.334
381.4253, 1288.838
381.9074, 1297.198
382.3895, 1298.537
382.8716, 1294.923
383.3537, 1293.509
383.8358, 1295.105
384.3180, 1296.880
384.8001, 1294.164
385.2822, 1288.589
385.7643, 1285.460
386.2464, 1289.876
386.7285, 1296.882
387.2107, 1299.057
387.6928, 1296.275
388.1749, 1293.967
388.6570, 1297.829
389.1391, 1304.413
389.6212, 1308.828
390.1034, 1310.000
390.5855, 1307.952
391.0676, 1300.751
391.5497, 1289.354
392.0318, 1279.603
392.5139, 1272.160
392.9961, 1268.626
393.4782, 1271.064
393.9603, 1286.817
394.4424, 1297.630
394.9245, 1292.159
395.4066, 1277.148
395.8888, 1269.434
396.3709, 1280.689
396.8530, 1293.273
397.3351, 1299.995
397.8172, 1298.379
398.2993, 1296.030
398.7815, 1291.987
399.2636, 1287.900
399.7457, 1285.935
400.2278, 1286.383
400.7099, 1288.673
401.1920, 1293.935
401.6742, 1302.532
402.1563, 1306.601
402.6384, 1304.164
403.1205, 1299.562
403.6026, 1296.129
404.0847, 1293.445
404.5669, 1293.756
405.0490, 1298.808
405.5311, 1306.851
406.0132, 1310.001
406.4953, 1307.205
406.9774, 1303.760
407.4596, 1302.941
407.9417, 1304.722
408.4238, 1307.794
408.9059, 1312.579
409.3880, 1317.401
409.8701, 1319.126
410.3523, 1317.949
410.8344, 1316.297
411.3165, 1314.002
411.7986, 1312.225
412.2807, 1315.117
412.7628, 1323.232
413.2450, 1330.869
413.7271, 1331.337
414.2092, 1327.182
414.6913, 1323.555
415.1734, 1320.729
415.6555, 1320.650
416.1377, 1329.232
416.6198, 1344.697
417.1019, 1353.439
417.5840, 1338.545
418.0661, 1317.589
418.5482, 1307.746
419.0303, 1318.333
419.5125, 1331.468
419.9946, 1340.897
420.4767, 1347.187
420.9588, 1351.708
421.4409, 1354.197
421.9230, 1355.600
422.4052, 1356.371
422.8873, 1356.636
423.3694, 1355.935
423.8515, 1352.637
424.3336, 1348.934
424.8157, 1347.400
425.2979, 1348.190
425.7800, 1351.051
426.2621, 1356.714
426.7442, 1365.135
427.2263, 1372.864
427.7084, 1382.105
428.1906, 1387.908
428.6727, 1384.923
429.1548, 1369.131
429.6369, 1360.238
430.1190, 1362.413
430.6011, 1371.330
431.0833, 1375.704
431.5654, 1375.127
432.0475, 1372.412
432.5296, 1367.138
433.0117, 1360.012
433.4938, 1358.599
433.9760, 1364.127
434.4581, 1371.217
434.9402, 1372.791
435.4223, 1369.877
435.9044, 1367.107
436.3865, 1366.307
436.8687, 1366.704
437.3508, 1366.477
437.8329, 1365.831
438.3150, 1367.327
438.7971, 1376.261
439.2792, 1387.364
439.7614, 1393.110
440.2435, 1388.869
440.7256, 1384.108
441.2077, 1385.739
441.6898, 1391.600
442.1719, 1396.246
442.6541, 1395.733
443.1362, 1394.670
443.6183, 1395.595
444.1004, 1399.105
444.5825, 1403.294
445.0646, 1410.777
445.5468, 1417.603
446.0289, 1419.352
446.5110, 1408.677
446.9931, 1400.419
447.4752, 1396.572
447.9573, 1397.082
448.4395, 1401.628
448.9216, 1415.679
449.4037, 1427.186
449.8858, 1427.358
450.3679, 1410.613
450.8500, 1399.242
451.3322, 1395.161
451.8143, 1396.381
452.2964, 1399.838
452.7785, 1406.293
453.2606, 1410.584
453.7427, 1408.116
454.2249, 1400.490
454.7070, 1402.117
455.1891, 1414.462
455.6712, 1427.943
456.1533, 1431.195
456.6354, 1426.724
457.1176, 1423.950
457.5997, 1426.813
458.0818, 1431.291
458.5639, 1431.274
459.0460, 1427.481
459.5281, 1423.839
460.0103, 1421.422
460.4924, 1421.023
460.9745, 1423.830
461.4566, 1430.505
461.9387, 1438.410
462.4208, 1449.124
462.9030, 1459.469
463.3851, 1464.293
463.8672, 1455.827
464.3493, 1447.354
464.8314, 1443.156
465.3135, 1443.440
465.7957, 1447.440
466.2778, 1462.502
466.7599, 1476.429
467.2420, 1480.871
467.7241, 1463.751
468.2062, 1455.363
468.6884, 1461.347
469.1705, 1475.461
469.6526, 1481.078
470.1347, 1472.166
470.6168, 1467.453
471.0989, 1477.527
471.5811, 1503.461
472.0632, 1514.585
472.5453, 1508.462
473.0274, 1494.239
473.5095, 1478.568
473.9916, 1461.680
474.4738, 1452.715
474.9559, 1455.622
475.4380, 1465.836
475.9201, 1475.282
476.4022, 1483.931
476.8843, 1491.203
477.3665, 1494.479
477.8486, 1496.803
478.3307, 1504.747
478.8128, 1520.798
479.2949, 1533.742
479.7770, 1532.518
480.2592, 1523.069
480.7413, 1514.714
481.2234, 1511.891
481.7055, 1510.345
482.1876, 1507.905
482.6697, 1504.637
483.1518, 1502.147
483.6339, 1497.940
484.1161, 1496.608
484.5982, 1501.555
485.0803, 1522.948
485.5624, 1534.837
486.0445, 1531.018
486.5266, 1518.937
487.0088, 1511.615
487.4909, 1512.220
487.9730, 1512.181
488.4551, 1507.625
488.9372, 1498.739
489.4193, 1498.939
489.9015, 1511.121
490.3836, 1525.257
490.8657, 1533.400
491.3478, 1535.464
491.8299, 1534.066
492.3120, 1527.786
492.7942, 1521.366
493.2763, 1525.314
493.7584, 1538.052
494.2405, 1549.019
494.7226, 1551.935
495.2047, 1549.689
495.6869, 1545.341
496.1690, 1538.923
496.6511, 1534.717
497.1332, 1537.828
497.6153, 1544.347
498.0974, 1549.583
498.5796, 1553.189
499.0617, 1553.812
499.5438, 1546.443
500.0259, 1535.150
500.5080, 1531.034
500.9901, 1546.433
501.4723, 1561.921
501.9544, 1568.090
502.4365, 1560.033
502.9186, 1557.999
503.4007, 1568.877
503.8828, 1581.525
504.3650, 1584.544
504.8471, 1570.660
505.3292, 1563.305
505.8113, 1568.039
506.2934, 1580.963
506.7755, 1588.157
507.2577, 1588.758
507.7398, 1587.442
508.2219, 1587.373
508.7040, 1588.100
509.1861, 1583.038
509.6682, 1570.679
510.1504, 1560.489
510.6325, 1567.198
511.1146, 1585.304
511.5967, 1597.809
512.0788, 1595.972
512.5609, 1590.166
513.0430, 1594.451
513.5251, 1605.670
514.0073, 1611.148
514.4894, 1595.022
514.9715, 1576.128
515.4536, 1569.511
515.9357, 1579.326
516.4178, 1590.360
516.9000, 1599.758
517.3821, 1606.652
517.8642, 1610.242
518.3463, 1607.223
518.8284, 1604.363
519.3105, 1601.621
519.7927, 1599.516
520.2748, 1601.355
520.7569, 1611.633
521.2390, 1618.864
521.7211, 1615.806
522.2032, 1599.574
522.6854, 1592.535
523.1675, 1596.632
523.6496, 1605.744
524.1317, 1613.260
524.6138, 1619.257
525.0959, 1624.863
525.5781, 1631.446
526.0602, 1636.728
526.5423, 1634.156
527.0244, 1625.117
527.5065, 1618.041
527.9886, 1621.583
528.4708, 1628.450
528.9529, 1628.973
529.4350, 1621.490
529.9171, 1614.459
530.3992, 1613.966
530.8813, 1616.551
531.3635, 1618.302
531.8456, 1614.764
532.3277, 1613.815
532.8098, 1619.183
533.2919, 1629.333
533.7740, 1637.843
534.2562, 1641.783
534.7383, 1646.464
535.2204, 1655.301
535.7025, 1670.798
536.1846, 1675.856
536.6667, 1665.634
537.1489, 1652.003
537.6310, 1647.980
538.1131, 1655.069
538.5952, 1659.488
539.0773, 1658.451
539.5594, 1654.149
540.0416, 1649.791
540.5237, 1645.644
541.0058, 1645.066
541.4879, 1654.107
541.9700, 1666.528
542.4521, 1670.935
542.9343, 1666.954
543.4164, 1660.953
543.8985, 1655.018
544.3806, 1650.751
544.8627, 1650.406
545.3448, 1656.967
545.8270, 1663.672
546.3091, 1667.659
546.7912, 1669.784
547.2733, 1671.787
547.7554, 1675.047
548.2375, 1677.169
548.7197, 1676.585
549.2018, 1673.058
549.6839, 1672.024
550.1660, 1674.071
550.6481, 1677.774
551.1302, 1682.407
551.6124, 1688.165
552.0945, 1693.769
552.5766, 1699.331
553.0587, 1704.238
553.5408, 1706.942
554.0229, 1707.578
554.5051, 1708.730
554.9872, 1711.393
555.4693, 1715.140
555.9514, 1722.168
556.4335, 1731.431
556.9156, 1733.742
557.3978, 1714.408
557.8799, 1689.412
558.3620, 1675.314
558.8441, 1675.561
559.3262, 1682.332
559.8083, 1698.786
560.2905, 1717.078
560.7726, 1727.963
561.2547, 1722.621
561.7368, 1717.259
562.2189, 1714.527
562.7010, 1714.211
563.1832, 1716.033
563.6653, 1722.668
564.1474, 1727.285
564.6295, 1726.304
565.1116, 1719.044
565.5938, 1714.194
566.0759, 1711.939
566.5580, 1711.643
567.0401, 1713.216
567.5222, 1716.443
568.0043, 1719.608
568.4865, 1722.342
568.9686, 1724.903
569.4507, 1728.300
569.9328, 1731.928
570.4149, 1734.043
570.8970, 1729.581
571.3792, 1726.114
571.8613, 1734.012
572.3434, 1752.279
572.8255, 1763.168
573.3076, 1748.050
573.7897, 1729.685
574.2719, 1724.102
574.7540, 1740.777
575.2361, 1755.834
575.7182, 1770.177
576.2003, 1780.431
576.6824, 1780.868
577.1646, 1764.682
577.6467, 1753.628
578.1288, 1753.485
578.6109, 1761.094
579.0930, 1763.079
579.5751, 1758.308
580.0573, 1756.203
580.5394, 1764.902
581.0215, 1781.115
581.5036, 1792.054
581.9857, 1797.246
582.4678, 1797.543
582.9500, 1788.269
583.4321, 1775.872
583.9142, 1771.659
584.3963, 1782.557
584.8784, 1794.529
585.3605, 1800.679
585.8427, 1801.473
586.3248, 1797.701
586.8069, 1779.793
587.2890, 1767.109
587.7711, 1770.506
588.2532, 1790.167
588.7354, 1797.952
589.2175, 1782.880
589.6996, 1769.438
590.1817, 1773.022
590.6638, 1800.060
591.1459, 1814.179
591.6281, 1812.670
592.1102, 1804.037
592.5923, 1797.128
593.0744, 1791.984
593.5565, 1789.445
594.0386, 1789.145
594.5208, 1792.217
595.0029, 1805.235
595.4850, 1824.301
595.9671, 1835.862
596.4492, 1824.611
596.9313, 1808.550
597.4135, 1801.608
597.8956, 1804.508
598.3777, 1810.569
598.8598, 1823.908
599.3419, 1835.253
599.8240, 1837.418
600.3062, 1818.384
600.7883, 1810.348
601.2704, 1820.004
601.7525, 1836.847
602.2346, 1847.232
602.7167, 1849.780
603.1989, 1849.880
603.6810, 1848.073
604.1631, 1844.817
604.6452, 1840.631
605.1273, 1835.546
605.6094, 1832.365
606.0916, 1831.067
606.5737, 1833.149
607.0558, 1845.696
607.5379, 1868.532
608.0200, 1885.772
608.5021, 1880.374
608.9843, 1865.458
609.4664, 1854.815
609.9485, 1852.400
610.4306, 1851.953
610.9127, 1851.613
611.3948, 1851.902
611.8770, 1853.556
612.3591, 1858.903
612.8412, 1863.080
613.3233, 1865.439
613.8054, 1866.198
614.2875, 1866.099
614.7697, 1865.084
615.2518, 1863.255
615.7339, 1858.996
616.2160, 1853.101
616.6981, 1855.206
617.1802, 1865.899
617.6624, 1876.611
618.1445, 1878.421
618.6266, 1874.877
619.1087, 1872.421
619.5908, 1871.641
620.0729, 1874.248
620.5551, 1886.344
621.0372, 1901.468
621.5193, 1910.159
622.0014, 1903.173
622.4835, 1896.183
622.9656, 1894.324
623.4478, 1896.627
623.9299, 1898.029
624.4120, 1896.128
624.8941, 1896.512
625.3762, 1902.691
