##NAMES=Calderonite
##RRUFFID=R060427
##IDEAL CHEMISTRY=Pb^2+^_2_Fe^3+^(V^5+^O_4_)_2_(OH)
##LOCALITY=Las Colmenitas mine, Santa Marta, Badajoz, Extremadura, Spain
##OWNER=RRUFF
##SOURCE=Michael Scott
##DESCRIPTION=Sheaf of brown bladed crystals
##STATUS=The identification of this mineral is confirmed by single-crystal X-ray diffraction and chemical analysis.
##URL=rruff.info/R060427
##MEASURED CHEMISTRY=(Pb_1.90_Cu_0.08_Zn_0.02_)_Σ=2_(Fe^3+^_0.84_Cr_0.14_Al_0.02_)_Σ=1_((V_0.98_As_0.01_P_0.01_)_Σ=1_O_4_)_2_(OH); OH estimated by difference and charge balance
170.1547, 592.2027
170.6368, 582.8928
171.1189, 573.0623
171.6010, 563.2269
172.0831, 553.5198
172.5652, 544.0715
173.0474, 534.9290
173.5295, 526.3428
174.0116, 517.6315
174.4937, 508.0725
174.9758, 497.6499
175.4579, 487.6655
175.9401, 478.8980
176.4222, 470.7797
176.9043, 462.7257
177.3864, 454.5016
177.8685, 446.5471
178.3506, 439.3653
178.8328, 433.0167
179.3149, 427.2245
179.7970, 422.0342
180.2791, 417.2428
180.7612, 412.8063
181.2433, 408.7159
181.7255, 404.8345
182.2076, 400.6736
182.6897, 395.3253
183.1718, 391.5168
183.6539, 390.3605
184.1360, 390.4870
184.6181, 390.6314
185.1003, 390.2000
185.5824, 389.2661
186.0645, 388.0630
186.5466, 385.8130
187.0287, 384.2821
187.5108, 383.8663
187.9930, 384.2392
188.4751, 385.0380
188.9572, 386.0700
189.4393, 387.3130
189.9214, 388.6403
190.4035, 389.6659
190.8857, 391.2007
191.3678, 393.7240
191.8499, 396.8344
192.3320, 399.8402
192.8141, 402.3065
193.2962, 404.3314
193.7784, 406.7223
194.2605, 409.5241
194.7426, 412.5318
195.2247, 415.7669
195.7068, 419.1724
196.1889, 422.6425
196.6711, 426.1558
197.1532, 429.6552
197.6353, 432.9137
198.1174, 435.2081
198.5995, 437.9414
199.0816, 442.3007
199.5638, 448.0509
200.0459, 453.5086
200.5280, 457.4952
201.0101, 460.5483
201.4922, 464.2704
201.9743, 469.2049
202.4565, 474.3545
202.9386, 478.9409
203.4207, 482.9691
203.9028, 486.6680
204.3849, 489.8201
204.8670, 492.8213
205.3492, 496.2493
205.8313, 500.4058
206.3134, 504.7716
206.7955, 508.7902
207.2776, 512.5020
207.7597, 515.6688
208.2419, 517.9251
208.7240, 519.6755
209.2061, 521.2781
209.6882, 522.9210
210.1703, 524.3121
210.6524, 524.8635
211.1346, 524.2910
211.6167, 523.5695
212.0988, 523.2890
212.5809, 522.9155
213.0630, 521.9730
213.5451, 520.3000
214.0273, 517.8752
214.5094, 514.5655
214.9915, 509.9023
215.4736, 505.1297
215.9557, 500.8125
216.4378, 496.4060
216.9200, 491.2938
217.4021, 485.2222
217.8842, 478.4251
218.3663, 471.6320
218.8484, 465.0540
219.3305, 458.1579
219.8127, 450.8978
220.2948, 443.2996
220.7769, 435.1898
221.2590, 426.4882
221.7411, 417.5889
222.2232, 409.6662
222.7054, 403.6974
223.1875, 397.6325
223.6696, 391.2658
224.1517, 384.7619
224.6338, 378.2147
225.1159, 371.6345
225.5980, 365.2739
226.0802, 359.8842
226.5623, 356.6034
227.0444, 352.9863
227.5265, 348.7370
228.0086, 344.0898
228.4907, 339.2275
228.9729, 334.1894
229.4550, 329.2984
229.9371, 325.5322
230.4192, 323.4830
230.9013, 321.5357
231.3834, 319.6999
231.8656, 317.7746
232.3477, 315.1812
232.8298, 311.5388
233.3119, 307.7810
233.7940, 306.2972
234.2761, 308.1215
234.7583, 309.1429
235.2404, 307.5281
235.7225, 304.5651
236.2046, 302.5352
236.6867, 302.2761
237.1688, 302.9742
237.6510, 303.3347
238.1331, 303.4009
238.6152, 303.1681
239.0973, 302.2342
239.5794, 301.0194
240.0615, 300.5154
240.5437, 301.1600
241.0258, 302.2310
241.5079, 302.6713
241.9900, 302.4786
242.4721, 302.5559
242.9542, 303.5243
243.4364, 305.0521
243.9185, 306.2463
244.4006, 306.8037
244.8827, 307.2368
245.3648, 308.0092
245.8469, 309.0902
246.3290, 310.3816
246.8112, 312.1411
247.2933, 314.0990
247.7754, 315.4123
248.2575, 315.7605
248.7396, 315.7736
249.2217, 315.8923
249.7039, 316.0988
250.1860, 316.3430
250.6681, 316.4781
251.1502, 316.6065
251.6323, 317.1701
252.1144, 318.4287
252.5966, 319.7340
253.0787, 320.6603
253.5608, 321.3340
254.0429, 322.0560
254.5250, 323.0852
255.0071, 324.2962
255.4893, 325.1491
255.9714, 325.3023
256.4535, 325.6528
256.9356, 326.7155
257.4177, 328.1905
257.8998, 329.5817
258.3820, 330.5438
258.8641, 331.2552
259.3462, 332.4376
259.8283, 334.6736
260.3104, 336.3855
260.7925, 336.6364
261.2747, 336.2754
261.7568, 336.4509
262.2389, 337.8022
262.7210, 339.9156
263.2031, 341.6151
263.6852, 342.7593
264.1674, 343.6870
264.6495, 344.2374
265.1316, 344.7472
265.6137, 345.5923
266.0958, 346.9424
266.5779, 348.6234
267.0601, 350.2340
267.5422, 351.7535
268.0243, 353.2242
268.5064, 354.7106
268.9885, 356.1343
269.4706, 357.2057
269.9528, 357.8572
270.4349, 358.6481
270.9170, 360.7535
271.3991, 364.9873
271.8812, 368.9595
272.3633, 371.7885
272.8455, 374.7664
273.3276, 379.0529
273.8097, 384.8544
274.2918, 391.2802
274.7739, 396.9215
275.2560, 401.1143
275.7382, 405.9552
276.2202, 411.4238
276.7024, 417.4056
277.1845, 423.7717
277.6666, 430.5610
278.1487, 438.0237
278.6308, 446.7176
279.1129, 457.5214
279.5951, 466.3495
280.0772, 471.3781
280.5593, 476.3844
281.0414, 483.6284
281.5235, 492.9250
282.0056, 502.5034
282.4878, 510.5908
282.9699, 516.9330
283.4520, 523.9581
283.9341, 531.9896
284.4162, 540.3102
284.8983, 548.5996
285.3805, 556.9318
285.8626, 565.5983
286.3447, 574.8780
286.8268, 584.7253
287.3089, 594.4363
287.7910, 603.8136
288.2732, 613.2569
288.7553, 623.1808
289.2374, 633.2001
289.7195, 642.5355
290.2016, 650.7261
290.6837, 657.8414
291.1659, 664.4256
291.6480, 670.2595
292.1301, 675.7706
292.6122, 680.9867
293.0943, 685.9233
293.5764, 690.7780
294.0586, 695.6926
294.5407, 700.2023
295.0228, 703.0587
295.5049, 702.5916
295.9870, 702.4240
296.4691, 702.9930
296.9513, 703.7898
297.4334, 704.1201
297.9155, 703.7849
298.3976, 703.3749
298.8797, 703.8909
299.3618, 705.8826
299.8440, 707.8984
300.3261, 709.7260
300.8082, 711.6914
301.2903, 714.0490
301.7724, 716.8463
302.2545, 720.0039
302.7367, 723.3769
303.2188, 726.7603
303.7009, 731.4256
304.1830, 737.7996
304.6651, 744.9749
305.1472, 752.1508
305.6294, 759.4609
306.1115, 767.8623
306.5936, 778.2764
307.0757, 790.8719
307.5578, 803.2745
308.0399, 815.1582
308.5221, 827.2177
309.0042, 839.6518
309.4863, 852.5007
309.9684, 865.6068
310.4505, 878.7968
310.9326, 892.1766
311.4148, 906.1092
311.8969, 920.2786
312.3790, 935.3254
312.8611, 951.7892
313.3432, 969.1471
313.8253, 986.8666
314.3075, 1004.685
314.7896, 1022.388
315.2717, 1039.500
315.7538, 1055.470
316.2359, 1071.732
316.7180, 1088.098
317.2001, 1104.952
317.6823, 1122.973
318.1644, 1142.395
318.6465, 1162.228
319.1286, 1181.143
319.6107, 1198.940
320.0928, 1215.730
320.5750, 1231.619
321.0571, 1246.526
321.5392, 1260.385
322.0213, 1273.155
322.5034, 1285.052
322.9855, 1296.206
323.4677, 1306.710
323.9498, 1315.877
324.4319, 1324.280
324.9140, 1331.087
325.3961, 1336.046
325.8782, 1339.088
326.3604, 1340.180
326.8425, 1339.252
327.3246, 1336.350
327.8067, 1331.789
328.2888, 1325.128
328.7709, 1317.613
329.2531, 1310.011
329.7352, 1301.709
330.2173, 1291.377
330.6994, 1278.302
331.1815, 1263.583
331.6636, 1250.063
332.1458, 1240.012
332.6279, 1228.371
333.1100, 1214.217
333.5921, 1198.863
334.0742, 1182.987
334.5563, 1167.041
335.0385, 1151.889
335.5206, 1139.208
336.0027, 1131.038
336.4848, 1119.800
336.9669, 1103.711
337.4490, 1086.214
337.9312, 1069.257
338.4133, 1053.013
338.8954, 1037.033
339.3775, 1021.029
339.8596, 1005.076
340.3417, 987.6003
340.8239, 967.1400
341.3060, 946.9288
341.7881, 928.4395
342.2702, 911.0253
342.7523, 893.3456
343.2344, 874.6158
343.7166, 855.0684
344.1987, 836.0179
344.6808, 817.3979
345.1629, 799.3894
345.6450, 782.1744
346.1271, 765.6432
346.6093, 749.7037
347.0914, 734.4195
347.5735, 719.6505
348.0556, 705.3576
348.5377, 690.8395
349.0198, 678.1515
349.5020, 668.0059
349.9841, 658.8642
350.4662, 649.6839
350.9483, 640.4373
351.4304, 631.8758
351.9125, 624.9423
352.3947, 619.8627
352.8768, 614.9970
353.3589, 609.7001
353.8410, 605.2568
354.3231, 602.5976
354.8052, 601.1569
355.2874, 599.7050
355.7695, 597.3796
356.2516, 594.4086
356.7337, 592.0552
357.2158, 590.6610
357.6979, 589.4797
358.1800, 588.0893
358.6621, 586.9382
359.1443, 586.6896
359.6264, 587.5907
360.1085, 588.9800
360.5906, 589.7735
361.0727, 590.0784
361.5548, 589.4478
362.0370, 587.7004
362.5191, 585.1956
363.0012, 581.8073
363.4833, 577.6804
363.9654, 573.5618
364.4475, 570.5486
364.9297, 568.7970
365.4118, 565.4623
365.8939, 559.3394
366.3760, 552.8351
366.8581, 547.0540
367.3402, 541.6432
367.8224, 535.7659
368.3045, 528.8737
368.7866, 521.2823
369.2687, 513.8000
369.7508, 506.2395
370.2329, 499.2768
370.7151, 493.9977
371.1972, 488.9643
371.6793, 482.2802
372.1614, 473.2492
372.6435, 464.0877
373.1256, 457.9642
373.6078, 455.1444
374.0899, 451.6685
374.5720, 446.2353
375.0541, 440.2816
375.5362, 434.9019
376.0183, 430.0542
376.5005, 425.1441
376.9826, 419.5964
377.4647, 413.6284
377.9468, 408.1038
378.4289, 403.3467
378.9110, 398.4161
379.3932, 392.2085
379.8753, 385.4068
380.3574, 379.3950
380.8395, 375.1727
381.3216, 371.3915
381.8037, 366.3352
382.2859, 359.9707
382.7680, 353.5577
383.2501, 347.7025
383.7322, 342.0691
384.2143, 335.9547
384.6964, 329.1499
385.1786, 322.6853
385.6607, 317.6647
386.1428, 313.5042
386.6249, 308.4982
387.1070, 302.1014
387.5891, 295.2762
388.0713, 289.0101
388.5534, 283.2573
389.0355, 277.8192
389.5176, 272.8649
389.9997, 268.0778
390.4818, 263.1548
390.9640, 258.0636
391.4461, 252.9001
391.9282, 247.5420
392.4103, 242.2034
392.8924, 237.8423
393.3745, 235.1153
393.8567, 232.5448
394.3388, 229.8093
394.8209, 226.7980
395.3030, 223.2093
395.7851, 218.8381
396.2672, 214.1818
396.7494, 210.0373
397.2315, 206.4470
397.7136, 203.3780
398.1957, 200.8934
398.6778, 198.8590
399.1599, 197.4275
399.6420, 196.4607
400.1241, 195.2772
400.6063, 193.2237
401.0884, 190.2576
401.5705, 187.6237
402.0526, 185.3139
402.5347, 183.2883
403.0168, 181.5997
403.4990, 180.1746
403.9811, 178.9662
404.4632, 177.9614
404.9453, 177.0455
405.4274, 175.9174
405.9095, 174.2715
406.3917, 172.9578
406.8738, 172.1555
407.3559, 171.5484
407.8380, 170.9346
408.3201, 170.2765
408.8022, 169.6127
409.2844, 168.9200
409.7665, 168.1748
410.2486, 167.8427
410.7307, 168.4517
411.2128, 168.9100
411.6949, 168.8992
412.1771, 168.5244
412.6592, 167.9328
413.1413, 167.1557
413.6234, 166.3404
414.1055, 165.7771
414.5876, 165.4440
415.0698, 165.4310
415.5519, 166.1792
416.0340, 166.9760
416.5161, 167.2844
416.9982, 167.0607
417.4803, 166.7263
417.9625, 166.5476
418.4446, 166.5373
418.9267, 166.8357
419.4088, 167.6568
419.8909, 168.4140
420.3730, 168.5251
420.8552, 168.3109
421.3373, 168.4728
421.8194, 169.6270
422.3015, 170.8624
422.7836, 170.9063
423.2657, 169.7744
423.7479, 168.7478
424.2300, 168.2283
424.7121, 168.2012
425.1942, 168.6676
425.6763, 169.7467
426.1584, 170.6873
426.6406, 171.1140
427.1227, 171.2104
427.6048, 171.2896
428.0869, 171.4105
428.5690, 171.4130
429.0511, 170.9889
429.5333, 170.1801
430.0154, 170.1387
430.4975, 171.6526
430.9796, 173.1975
431.4617, 173.8714
431.9438, 173.8847
432.4260, 173.8291
432.9081, 173.9715
433.3902, 174.2424
433.8723, 174.4828
434.3544, 174.7039
434.8365, 174.8667
435.3187, 174.5351
435.8008, 174.4316
436.2829, 175.4465
436.7650, 177.4874
437.2471, 179.5029
437.7292, 180.4955
438.2114, 180.4434
438.6935, 180.3718
439.1756, 180.1904
439.6577, 180.0923
440.1398, 179.9821
440.6219, 180.0286
441.1040, 180.5713
441.5862, 181.7472
442.0683, 183.1172
442.5504, 183.8074
443.0325, 183.5320
443.5146, 183.4630
443.9967, 183.9236
444.4789, 184.4280
444.9610, 184.8437
445.4431, 185.0977
445.9252, 185.0390
446.4073, 184.3908
446.8894, 183.3655
447.3716, 182.9248
447.8537, 183.4918
448.3358, 183.5785
448.8179, 182.1684
449.3000, 180.0850
449.7821, 178.0903
450.2643, 176.2988
450.7464, 174.7930
451.2285, 173.8308
451.7106, 173.2782
452.1927, 172.5412
452.6748, 171.5908
453.1570, 170.2561
453.6391, 168.1488
454.1212, 165.4322
454.6033, 162.7766
455.0854, 160.5808
455.5675, 158.3441
456.0497, 155.4134
456.5318, 151.9297
457.0139, 148.7520
457.4960, 146.4067
457.9781, 144.5366
458.4602, 142.1093
458.9424, 138.7407
459.4245, 135.7128
459.9066, 133.5916
460.3887, 131.7361
460.8708, 129.3766
461.3529, 126.4610
461.8351, 123.6224
462.3172, 121.4558
462.7993, 119.9962
463.2814, 118.5239
463.7635, 117.0976
464.2456, 115.5932
464.7278, 113.9636
465.2099, 112.2277
465.6920, 110.4195
466.1741, 108.5431
466.6562, 106.5971
467.1383, 104.5121
467.6205, 102.0882
468.1026, 100.0996
468.5847, 98.85299
469.0668, 97.79878
469.5489, 96.71889
470.0310, 95.63281
470.5132, 94.68851
470.9953, 94.05531
471.4774, 93.54804
471.9595, 92.64960
472.4416, 91.25850
472.9237, 89.85627
473.4059, 88.44292
473.8880, 87.21294
474.3701, 86.41373
474.8522, 86.08921
475.3343, 85.85497
475.8164, 85.46115
476.2986, 84.97743
476.7807, 84.67233
477.2628, 84.66031
477.7449, 84.35452
478.2270, 83.05994
478.7091, 81.07064
479.1913, 79.67012
479.6734, 79.27692
480.1555, 79.09050
480.6376, 78.76942
481.1197, 78.35064
481.6018, 77.86871
482.0839, 77.32430
482.5660, 76.85632
483.0482, 76.70644
483.5303, 77.06762
484.0124, 77.00553
484.4945, 76.22475
484.9766, 75.32732
485.4587, 74.61797
485.9409, 74.05428
486.4230, 73.45625
486.9051, 72.71507
487.3872, 71.90170
487.8693, 71.22901
488.3514, 70.73904
488.8336, 70.31016
489.3157, 70.07360
489.7978, 69.77714
490.2799, 69.16587
490.7620, 68.29762
491.2441, 67.49655
491.7263, 67.03972
492.2084, 66.86649
492.6905, 66.70306
493.1726, 66.58402
493.6547, 66.39295
494.1368, 66.01765
494.6190, 65.57909
495.1011, 65.20609
495.5832, 64.93042
496.0653, 64.64828
496.5474, 64.33388
497.0295, 63.95499
497.5117, 63.30518
497.9938, 62.23908
498.4759, 61.40508
498.9580, 61.64145
499.4401, 62.64415
499.9222, 62.78566
500.4044, 61.06127
500.8865, 59.39124
501.3686, 58.87600
501.8507, 59.11197
502.3328, 59.30161
502.8149, 59.17980
503.2971, 58.83924
503.7792, 58.40727
504.2613, 57.87911
504.7434, 57.24217
505.2255, 56.18933
505.7076, 55.34130
506.1898, 55.10709
506.6719, 55.29261
507.1540, 55.51208
507.6361, 55.56975
508.1182, 55.47861
508.6003, 55.25174
509.0825, 54.83499
509.5646, 54.42659
510.0467, 54.00800
510.5288, 53.63546
511.0109, 53.37161
511.4930, 53.18822
511.9752, 52.97916
512.4573, 52.63683
512.9394, 52.25066
513.4215, 52.06933
513.9036, 52.13838
514.3857, 52.11119
514.8679, 51.76141
515.3500, 51.31635
515.8321, 51.09170
516.3142, 51.12018
516.7963, 51.12251
517.2784, 50.94899
517.7606, 50.69218
518.2427, 50.46490
518.7248, 50.27984
519.2069, 50.16410
519.6890, 50.19404
520.1711, 50.28683
520.6533, 50.01387
521.1354, 48.94215
521.6175, 48.13758
522.0996, 47.89626
522.5817, 47.93441
523.0638, 48.01600
523.5460, 48.07938
524.0281, 48.13626
524.5102, 48.20420
524.9923, 48.28101
525.4744, 48.29495
525.9565, 48.44358
526.4387, 48.24247
526.9208, 47.21124
527.4029, 46.00011
527.8850, 45.33183
528.3671, 45.37453
528.8492, 45.65789
529.3314, 45.66783
529.8135, 45.44953
530.2956, 45.51534
530.7777, 46.10214
531.2598, 46.53857
531.7419, 46.28993
532.2241, 45.63964
532.7062, 44.95995
533.1883, 44.15786
533.6704, 43.66574
534.1525, 44.03759
534.6346, 44.91330
535.1168, 45.42019
535.5989, 45.34435
536.0810, 45.07277
536.5631, 45.00618
537.0452, 45.15709
537.5273, 45.07435
538.0095, 44.41111
538.4916, 43.92190
538.9737, 44.01348
539.4558, 44.41068
539.9379, 44.73418
540.4200, 44.84981
540.9022, 44.79497
541.3843, 44.58175
541.8664, 44.15171
542.3485, 43.89579
542.8306, 43.94638
543.3127, 44.03942
543.7948, 44.25859
544.2769, 44.41864
544.7590, 44.15617
545.2411, 43.27994
545.7233, 42.36722
546.2054, 42.30643
546.6875, 43.01800
547.1696, 43.25358
547.6517, 42.58384
548.1339, 41.86521
548.6160, 41.97995
549.0981, 42.64012
549.5802, 43.04259
550.0623, 42.77698
550.5444, 42.49257
551.0266, 42.66469
551.5087, 43.12857
551.9908, 43.55393
552.4729, 43.84805
552.9550, 43.94490
553.4371, 43.73497
553.9193, 43.15380
554.4014, 42.64260
554.8835, 41.94041
555.3656, 41.58192
555.8477, 42.05822
556.3298, 42.90227
556.8120, 43.40398
557.2941, 43.31275
557.7762, 42.96973
558.2583, 42.87927
558.7404, 43.09136
559.2225, 43.11644
559.7047, 42.65452
560.1868, 42.39198
560.6689, 42.96941
561.1510, 43.86051
561.6331, 44.09748
562.1152, 43.19614
562.5974, 42.12425
563.0795, 41.82771
563.5616, 42.11299
564.0437, 42.28788
564.5258, 42.21455
565.0079, 42.01898
565.4901, 41.77980
565.9722, 41.50475
566.4543, 41.30595
566.9364, 41.04075
567.4185, 41.01214
567.9006, 41.59387
568.3828, 42.38414
568.8649, 42.74388
569.3470, 42.54004
569.8291, 42.25687
570.3112, 42.51573
570.7933, 43.37748
571.2755, 43.68133
571.7576, 42.80033
572.2397, 42.13984
572.7218, 42.22112
573.2039, 42.59707
573.6860, 42.72591
574.1682, 42.47889
574.6503, 42.21458
575.1324, 42.33966
575.6145, 42.74901
576.0966, 42.98343
576.5787, 43.00993
577.0609, 42.87612
577.5430, 42.55198
578.0251, 42.09872
578.5072, 41.62576
578.9893, 40.94628
579.4714, 40.67409
579.9536, 41.39131
580.4357, 42.46264
580.9178, 43.13761
581.3999, 43.32500
581.8820, 43.29473
582.3641, 43.24138
582.8463, 43.15232
583.3284, 42.94633
583.8105, 42.41154
584.2926, 42.07174
584.7747, 41.97007
585.2568, 42.06132
585.7390, 42.43797
586.2211, 43.00855
586.7032, 43.44783
587.1853, 43.49428
587.6674, 43.26569
588.1495, 43.02583
588.6317, 42.74208
589.1138, 42.65814
589.5959, 42.92347
590.0780, 43.36357
590.5601, 43.81479
591.0422, 44.27709
591.5244, 44.59960
592.0065, 44.69148
592.4886, 44.65778
592.9707, 44.44522
593.4528, 44.16796
593.9349, 44.25165
594.4171, 44.91658
594.8992, 45.78127
595.3813, 46.17434
595.8634, 45.94150
596.3455, 45.67524
596.8276, 45.13231
597.3098, 44.81286
597.7919, 45.15737
598.2740, 45.80935
598.7561, 46.12946
599.2382, 45.84652
599.7203, 45.37149
600.2025, 45.26413
600.6846, 45.51387
601.1667, 45.74154
601.6488, 45.91817
602.1309, 46.05214
602.6130, 46.11831
603.0952, 46.14957
603.5773, 46.20227
604.0594, 46.24833
604.5415, 46.38465
605.0236, 46.82304
605.5057, 47.32174
605.9879, 47.47373
606.4700, 47.23090
606.9521, 46.84032
607.4342, 46.47864
607.9163, 46.16002
608.3984, 45.99267
608.8806, 46.09878
609.3627, 46.19561
609.8448, 46.25232
610.3269, 46.29603
610.8090, 46.34229
611.2911, 46.39570
611.7733, 46.46607
612.2554, 46.58791
612.7375, 46.70617
613.2196, 46.58855
613.7017, 46.17897
614.1838, 46.18309
614.6660, 47.08828
615.1481, 48.16180
615.6302, 48.47504
616.1123, 48.08803
616.5944, 47.79545
617.0765, 47.75278
617.5587, 47.85992
618.0408, 48.22260
618.5229, 48.66187
619.0050, 48.62662
619.4871, 47.94448
619.9692, 47.40893
620.4514, 48.27350
620.9335, 50.90144
621.4156, 52.16635
621.8977, 50.76649
622.3798, 49.49577
622.8619, 49.02486
623.3441, 49.07745
623.8262, 49.45850
624.3083, 50.09950
624.7904, 50.59093
625.2725, 50.37128
625.7546, 49.75619
626.2367, 49.71719
626.7188, 50.35802
627.2009, 50.90525
627.6830, 50.91975
628.1652, 50.61962
628.6473, 50.47585
629.1294, 50.46273
629.6115, 50.63758
630.0936, 51.30328
630.5757, 51.90885
631.0579, 51.86464
631.5400, 51.42195
632.0221, 51.28193
632.5042, 51.80177
632.9863, 52.74891
633.4684, 53.85315
633.9506, 55.31899
634.4327, 55.88380
634.9148, 54.64762
635.3969, 53.55738
635.8790, 53.66566
636.3611, 54.52651
636.8433, 55.40461
637.3254, 56.14899
637.8075, 56.77426
638.2896, 57.33597
638.7717, 57.76849
639.2538, 57.79025
639.7360, 57.38995
640.2181, 57.26155
640.7002, 57.95300
641.1823, 59.24813
641.6644, 60.27639
642.1465, 61.04177
642.6287, 61.49811
643.1108, 61.32870
643.5929, 61.12291
644.0750, 61.13970
644.5571, 61.46761
645.0392, 62.28165
645.5214, 63.78842
646.0035, 65.44893
646.4856, 66.18269
646.9677, 65.99515
647.4498, 66.25436
647.9319, 67.35291
648.4141, 68.61446
648.8962, 69.44466
649.3783, 69.97417
649.8604, 70.67165
650.3425, 71.70610
650.8246, 72.73103
651.3068, 73.58537
651.7889, 74.36485
652.2710, 75.12969
652.7531, 75.91982
653.2352, 76.87245
653.7173, 78.14055
654.1995, 79.57845
654.6816, 80.50949
655.1637, 80.54356
655.6458, 80.99966
656.1279, 82.44578
656.6100, 84.08004
657.0922, 85.47171
657.5743, 86.66626
658.0564, 87.87704
658.5385, 89.11312
659.0206, 90.50834
659.5027, 92.33987
659.9849, 94.42855
660.4670, 96.23003
660.9491, 97.60547
661.4312, 98.97890
661.9133, 100.7845
662.3954, 102.9760
662.8776, 104.8408
