##NAMES=Calderonite
##RRUFFID=R060427
##IDEAL CHEMISTRY=Pb^2+^_2_Fe^3+^(V^5+^O_4_)_2_(OH)
##LOCALITY=Las Colmenitas mine, Santa Marta, Badajoz, Extremadura, Spain
##OWNER=RRUFF
##SOURCE=Michael Scott
##DESCRIPTION=Sheaf of brown bladed crystals
##STATUS=The identification of this mineral is confirmed by single-crystal X-ray diffraction and chemical analysis.
##URL=rruff.info/R060427
##MEASURED CHEMISTRY=(Pb_1.90_Cu_0.08_Zn_0.02_)_Σ=2_(Fe^3+^_0.84_Cr_0.14_Al_0.02_)_Σ=1_((V_0.98_As_0.01_P_0.01_)_Σ=1_O_4_)_2_(OH); OH estimated by difference and charge balance
172.5130, 492.6549
172.9951, 490.7658
173.4772, 487.0411
173.9593, 481.9122
174.4414, 474.9082
174.9236, 466.9787
175.4057, 459.3027
175.8878, 451.8187
176.3699, 444.0675
176.8520, 435.4022
177.3341, 426.0948
177.8163, 416.7071
178.2984, 407.1140
178.7805, 397.7604
179.2626, 389.4947
179.7447, 382.5237
180.2268, 375.8722
180.7090, 368.6279
181.1911, 360.9838
181.6732, 353.6141
182.1553, 346.6315
182.6374, 340.1689
183.1195, 334.9062
183.6017, 330.9145
184.0838, 327.3744
184.5659, 322.9181
185.0480, 317.8379
185.5301, 313.4171
186.0123, 310.6270
186.4944, 309.0101
186.9765, 307.2343
187.4586, 305.1862
187.9407, 303.1360
188.4228, 301.5077
188.9050, 300.2680
189.3871, 299.0228
189.8692, 297.4186
190.3513, 295.5954
190.8334, 294.3701
191.3155, 293.9571
191.7977, 293.7109
192.2798, 292.1859
192.7619, 289.3863
193.2440, 287.3772
193.7261, 287.8015
194.2082, 290.3875
194.6904, 291.8704
195.1725, 291.9363
195.6546, 291.1617
196.1367, 290.2865
196.6188, 289.2398
197.1009, 288.8844
197.5831, 290.0454
198.0652, 292.7219
198.5473, 294.7368
199.0294, 295.8532
199.5115, 296.4195
199.9937, 297.0685
200.4758, 297.7745
200.9579, 298.6367
201.4400, 299.7561
201.9221, 301.1531
202.4042, 302.4811
202.8864, 303.7240
203.3685, 304.8795
203.8506, 305.7852
204.3327, 306.2548
204.8148, 307.1736
205.2969, 309.2755
205.7791, 312.8049
206.2612, 315.6783
206.7433, 317.6045
207.2254, 318.9401
207.7075, 320.8336
208.1896, 323.7612
208.6718, 325.8826
209.1539, 325.7726
209.6360, 322.7598
210.1181, 320.9835
210.6002, 320.8581
211.0823, 321.9912
211.5645, 323.5735
212.0466, 326.1399
212.5287, 327.9232
213.0108, 327.5849
213.4929, 324.2718
213.9750, 322.2916
214.4572, 322.3053
214.9393, 323.6270
215.4214, 324.3209
215.9035, 324.4273
216.3856, 323.8177
216.8678, 322.3028
217.3499, 319.5387
217.8320, 316.9286
218.3141, 314.6112
218.7962, 312.4714
219.2783, 310.2297
219.7605, 308.0151
220.2426, 305.4801
220.7247, 302.2814
221.2068, 297.8764
221.6889, 294.4289
222.1710, 292.4094
222.6532, 291.3280
223.1353, 289.6807
223.6174, 287.1229
224.0995, 284.5558
224.5816, 282.5246
225.0637, 281.4445
225.5459, 279.7231
226.0280, 276.8633
226.5101, 273.4251
226.9922, 271.3353
227.4743, 271.3950
227.9564, 271.5108
228.4386, 270.6203
228.9207, 268.2969
229.4028, 265.9801
229.8849, 263.3826
230.3670, 260.8701
230.8492, 259.5648
231.3313, 260.3811
231.8134, 261.0377
232.2955, 260.3144
232.7776, 257.1029
233.2597, 255.2010
233.7419, 255.2555
234.2240, 256.4637
234.7061, 256.7143
235.1882, 255.6467
235.6703, 254.1917
236.1524, 252.5981
236.6346, 250.3735
237.1167, 249.1950
237.5988, 249.3026
238.0809, 250.3513
238.5630, 251.6281
239.0451, 253.3962
239.5273, 254.9791
240.0094, 256.1322
240.4915, 256.8873
240.9736, 257.0630
241.4557, 256.3368
241.9378, 255.1678
242.4200, 254.5017
242.9021, 254.4222
243.3842, 254.7039
243.8663, 255.3707
244.3484, 256.7294
244.8306, 257.5077
245.3127, 257.3711
245.7948, 256.8258
246.2769, 256.8295
246.7590, 257.6583
247.2411, 258.5649
247.7233, 259.2513
248.2054, 259.5694
248.6875, 260.2910
249.1696, 261.7650
249.6517, 263.4069
250.1338, 264.1989
250.6160, 263.7098
251.0981, 263.1382
251.5802, 262.7278
252.0623, 262.3448
252.5444, 262.8876
253.0265, 264.8721
253.5087, 267.3578
253.9908, 268.9030
254.4729, 269.0036
254.9550, 269.2208
255.4371, 270.0750
255.9192, 271.6772
256.4014, 272.9326
256.8835, 273.6962
257.3656, 274.2564
257.8477, 274.9195
258.3298, 275.5331
258.8120, 276.6239
259.2941, 278.5402
259.7762, 281.3788
260.2583, 283.4066
260.7404, 284.2494
261.2225, 284.7612
261.7047, 285.9234
262.1868, 288.0036
262.6689, 290.0348
263.1510, 291.8461
263.6331, 293.4229
264.1152, 294.9191
264.5974, 296.4425
265.0795, 297.6992
265.5616, 298.1586
266.0437, 297.3466
266.5258, 297.3775
267.0079, 298.8616
267.4901, 301.6222
267.9722, 303.9689
268.4543, 305.9099
268.9364, 307.4883
269.4185, 308.6235
269.9006, 309.1495
270.3828, 309.9857
270.8649, 311.3645
271.3470, 313.1551
271.8291, 314.7947
272.3112, 316.3136
272.7933, 317.6303
273.2755, 318.4738
273.7576, 318.6675
274.2397, 319.5570
274.7218, 321.3605
275.2039, 323.9083
275.6860, 326.8056
276.1682, 330.1883
276.6503, 333.5124
277.1324, 336.0788
277.6145, 337.7017
278.0966, 341.0113
278.5787, 346.7506
279.0609, 353.6410
279.5430, 358.5091
280.0251, 360.8878
280.5072, 364.0610
280.9893, 370.7259
281.4715, 380.8042
281.9536, 388.1844
282.4357, 391.8463
282.9178, 394.2241
283.3999, 399.6786
283.8820, 408.3541
284.3642, 417.4045
284.8463, 425.3201
285.3284, 432.2818
285.8105, 440.1192
286.2926, 449.0035
286.7747, 458.3330
287.2569, 467.1722
287.7390, 475.5460
288.2211, 484.3134
288.7032, 493.8329
289.1853, 504.0225
289.6674, 514.8513
290.1496, 526.4637
290.6317, 538.1216
291.1138, 548.8976
291.5959, 558.9590
292.0780, 569.0385
292.5602, 579.4836
293.0423, 590.1711
293.5244, 600.7780
294.0065, 611.2542
294.4886, 621.8126
294.9707, 633.6722
295.4529, 646.1210
295.9350, 656.1964
296.4171, 662.5146
296.8992, 666.7914
297.3813, 671.9254
297.8634, 677.8074
298.3456, 683.4813
298.8277, 688.0292
299.3098, 691.7902
299.7919, 695.4960
300.2740, 699.3344
300.7561, 703.0598
301.2383, 706.2213
301.7204, 708.9109
302.2025, 711.3252
302.6846, 712.9810
303.1667, 714.6337
303.6488, 717.4496
304.1310, 721.6110
304.6131, 726.8561
305.0952, 732.5263
305.5773, 738.9733
306.0594, 747.1124
306.5415, 758.8447
307.0237, 771.8517
307.5058, 783.3793
307.9879, 792.7498
308.4700, 803.1057
308.9521, 817.2241
309.4343, 833.9769
309.9164, 851.6461
310.3985, 869.8807
310.8806, 888.6572
311.3627, 907.4672
311.8448, 926.4340
312.3270, 947.2626
312.8091, 971.2283
313.2912, 997.5847
313.7733, 1025.451
314.2554, 1055.300
314.7375, 1085.904
315.2197, 1116.437
315.7018, 1147.222
316.1839, 1178.726
316.6660, 1210.075
317.1481, 1242.991
317.6302, 1278.531
318.1124, 1318.236
318.5945, 1359.214
319.0766, 1401.339
319.5587, 1444.279
320.0408, 1487.487
320.5229, 1530.827
321.0051, 1574.357
321.4872, 1618.297
321.9693, 1662.293
322.4514, 1706.482
322.9335, 1752.646
323.4156, 1798.866
323.8978, 1841.448
324.3799, 1877.210
324.8620, 1911.456
325.3441, 1946.703
325.8262, 1984.296
326.3083, 2018.062
326.7905, 2046.818
327.2726, 2071.839
327.7547, 2094.335
328.2368, 2116.345
328.7189, 2133.976
329.2010, 2145.551
329.6832, 2150.458
330.1653, 2155.178
330.6474, 2160.530
331.1295, 2165.106
331.6116, 2167.735
332.0938, 2167.239
332.5759, 2166.641
333.0580, 2166.206
333.5401, 2165.930
334.0222, 2165.884
334.5043, 2166.309
334.9865, 2166.617
335.4686, 2166.079
335.9507, 2163.395
336.4328, 2163.715
336.9149, 2168.800
337.3970, 2176.359
337.8792, 2180.205
338.3613, 2179.914
338.8434, 2177.363
339.3255, 2173.721
339.8076, 2169.315
340.2898, 2161.355
340.7719, 2149.934
341.2540, 2134.792
341.7361, 2115.193
342.2182, 2091.491
342.7003, 2063.526
343.1825, 2032.173
343.6646, 1996.730
344.1467, 1953.694
344.6288, 1901.935
345.1109, 1846.401
345.5930, 1790.496
346.0752, 1734.805
346.5573, 1678.127
347.0394, 1618.850
347.5215, 1559.101
348.0036, 1501.725
348.4857, 1446.962
348.9679, 1394.803
349.4500, 1344.749
349.9321, 1296.761
350.4142, 1250.922
350.8963, 1206.950
351.3784, 1165.259
351.8606, 1126.732
352.3427, 1091.597
352.8248, 1059.879
353.3069, 1033.187
353.7890, 1009.765
354.2711, 986.8140
354.7533, 964.1641
355.2354, 942.4608
355.7175, 922.6423
356.1996, 904.3441
356.6817, 886.9295
357.1638, 869.1453
357.6460, 852.8772
358.1281, 839.9609
358.6102, 830.2411
359.0923, 820.9627
359.5744, 810.4955
360.0565, 799.8580
360.5387, 790.0417
361.0208, 781.5084
361.5029, 773.5774
361.9850, 766.1178
362.4671, 759.0850
362.9492, 752.4480
363.4314, 745.7211
363.9135, 739.7331
364.3956, 734.9744
364.8777, 731.6989
365.3598, 729.1811
365.8419, 728.3288
366.3241, 727.9134
366.8062, 726.0918
367.2883, 720.5637
367.7704, 715.5734
368.2526, 712.4517
368.7347, 711.5802
369.2168, 710.4843
369.6989, 708.8231
370.1810, 707.0930
370.6631, 705.6429
371.1453, 704.0372
371.6274, 703.3627
372.1095, 703.8268
372.5916, 705.3574
373.0737, 707.4886
373.5558, 710.5354
374.0380, 713.7366
374.5201, 716.4607
375.0022, 717.9999
375.4843, 721.4725
375.9664, 727.6391
376.4485, 735.2044
376.9307, 741.7560
377.4128, 747.0530
377.8949, 752.1414
378.3770, 757.7231
378.8591, 763.6751
379.3412, 767.8205
379.8234, 769.9677
380.3055, 770.8578
380.7876, 771.3367
381.2697, 771.3738
381.7518, 770.3510
382.2339, 768.2261
382.7161, 764.8787
383.1982, 759.8593
383.6803, 753.2291
384.1624, 745.3539
384.6445, 736.8727
385.1266, 727.4068
385.6088, 715.6477
386.0909, 700.9764
386.5730, 685.4473
387.0551, 671.7670
387.5372, 659.4318
388.0193, 646.7211
388.5015, 632.6346
388.9836, 617.9080
389.4657, 603.2424
389.9478, 588.6718
390.4299, 574.2010
390.9120, 559.9490
391.3942, 545.7183
391.8763, 531.4709
392.3584, 516.8650
392.8405, 502.5292
393.3226, 488.7498
393.8047, 475.5049
394.2869, 462.6920
394.7690, 450.0815
395.2511, 438.0205
395.7332, 426.7605
396.2154, 416.5483
396.6975, 406.7460
397.1796, 397.0057
397.6617, 387.5255
398.1438, 378.7137
398.6259, 371.0834
399.1081, 363.5856
399.5902, 355.8054
400.0723, 347.5845
400.5544, 340.0788
401.0365, 333.5268
401.5186, 327.4798
402.0008, 321.6508
402.4829, 315.9836
402.9650, 310.5410
403.4471, 305.2187
403.9292, 300.1063
404.4113, 295.7555
404.8935, 292.3258
405.3756, 289.2260
405.8577, 286.1493
406.3398, 283.1017
406.8219, 280.2596
407.3040, 277.6338
407.7862, 275.1981
408.2683, 272.9863
408.7504, 271.0164
409.2325, 268.7547
409.7146, 265.5785
410.1967, 262.0958
410.6789, 260.4497
411.1610, 260.7028
411.6431, 261.2172
412.1252, 260.4074
412.6073, 258.7243
413.0894, 257.4975
413.5716, 257.1339
414.0537, 257.0329
414.5358, 256.4384
415.0179, 255.4884
415.5000, 254.6163
415.9821, 253.5856
416.4643, 253.0101
416.9464, 253.7753
417.4285, 256.0147
417.9106, 258.4076
418.3927, 260.3002
418.8748, 261.7945
419.3570, 262.9796
419.8391, 263.4089
420.3212, 264.0102
420.8033, 265.1561
421.2854, 266.8074
421.7675, 268.7807
422.2497, 271.2934
422.7318, 273.9173
423.2139, 276.5111
423.6960, 279.4575
424.1781, 281.5018
424.6602, 281.1413
425.1424, 280.1645
425.6245, 281.2370
426.1066, 286.3104
426.5887, 290.9453
427.0709, 294.1200
427.5530, 295.8341
428.0351, 297.5067
428.5172, 299.1597
428.9993, 300.7598
429.4814, 302.2368
429.9636, 303.4918
430.4457, 305.0420
430.9278, 307.0684
431.4099, 309.2721
431.8920, 311.0013
432.3741, 312.2430
432.8563, 313.2081
433.3384, 313.5408
433.8205, 313.5186
434.3026, 315.5186
434.7847, 319.8258
435.2668, 323.9513
435.7490, 324.5993
436.2311, 322.7894
436.7132, 322.2154
437.1953, 324.2902
437.6774, 327.4167
438.1595, 329.6254
438.6417, 331.0552
439.1238, 332.2806
439.6059, 333.4806
440.0880, 334.7403
440.5701, 336.0647
441.0522, 337.4141
441.5344, 339.1859
442.0165, 341.9857
442.4986, 345.2367
442.9807, 348.2182
443.4628, 350.1134
443.9449, 352.2613
444.4271, 355.3573
444.9092, 359.2399
445.3913, 362.9936
445.8734, 366.4780
446.3555, 369.6251
446.8376, 372.2798
447.3198, 373.7716
447.8019, 376.1145
448.2840, 379.9745
448.7661, 384.4136
449.2482, 388.0998
449.7303, 390.5198
450.2125, 393.0121
450.6946, 395.9485
451.1767, 399.2935
451.6588, 402.3315
452.1409, 405.1125
452.6230, 407.5343
453.1052, 409.5216
453.5873, 411.0963
454.0694, 412.2333
454.5515, 413.0231
455.0337, 413.1868
455.5158, 412.0314
455.9979, 409.6166
456.4800, 407.0182
456.9621, 405.0848
457.4442, 403.1484
457.9264, 399.5406
458.4085, 394.3141
458.8906, 388.2185
459.3727, 381.3653
459.8548, 374.2061
460.3369, 367.7331
460.8191, 362.4322
461.3012, 357.0296
461.7833, 350.3939
462.2654, 342.8900
462.7475, 335.3061
463.2296, 327.4465
463.7118, 319.9430
464.1939, 313.1929
464.6760, 307.1625
465.1581, 301.4567
465.6402, 296.2269
466.1223, 291.1445
466.6045, 286.0462
467.0866, 280.6918
467.5687, 275.6041
468.0508, 271.1003
468.5329, 266.8207
469.0150, 261.8044
469.4972, 255.1808
469.9793, 249.2405
470.4614, 244.8855
470.9435, 242.2015
471.4256, 239.4753
471.9077, 236.7940
472.3899, 233.9060
472.8720, 230.3767
473.3541, 226.0532
473.8362, 222.5322
474.3183, 220.2171
474.8004, 218.4686
475.2826, 215.9310
475.7647, 212.6681
476.2468, 209.5972
476.7289, 207.2407
477.2110, 205.3846
477.6931, 203.6596
478.1753, 202.0515
478.6574, 200.4487
479.1395, 198.9277
479.6216, 197.3062
480.1037, 195.2085
480.5858, 192.1051
481.0680, 189.3090
481.5501, 188.1353
482.0322, 187.9121
482.5143, 187.2488
482.9964, 184.7781
483.4786, 182.4576
483.9607, 181.4349
484.4428, 181.8989
484.9249, 181.9807
485.4070, 181.0001
485.8892, 179.7207
486.3713, 178.6768
486.8534, 178.0253
487.3355, 177.4288
487.8176, 177.0831
488.2997, 176.7204
488.7819, 175.6689
489.2640, 173.5396
489.7461, 171.5926
490.2282, 170.3168
490.7103, 169.6496
491.1924, 168.7300
491.6746, 167.5355
492.1567, 166.1542
492.6388, 164.3911
493.1209, 162.3491
493.6030, 161.3249
494.0851, 161.7604
494.5673, 162.4562
495.0494, 161.5768
495.5315, 159.4423
496.0136, 157.2445
496.4957, 155.4351
496.9778, 153.9050
497.4600, 152.6450
497.9421, 151.6086
498.4242, 150.3217
498.9063, 147.7416
499.3884, 145.2093
499.8705, 144.1003
500.3527, 145.5467
500.8348, 146.2862
501.3169, 144.5719
501.7990, 141.6202
502.2811, 139.1257
502.7632, 137.8721
503.2454, 136.6120
503.7275, 134.8551
504.2096, 132.7059
504.6917, 131.3101
505.1738, 131.1858
505.6559, 131.1338
506.1381, 130.4440
506.6202, 128.8260
507.1023, 127.8302
507.5844, 127.6664
508.0665, 127.7509
508.5486, 127.2998
509.0308, 126.2995
509.5129, 125.1825
509.9950, 123.9994
510.4771, 122.8196
510.9592, 121.7638
511.4413, 120.8332
511.9235, 120.0083
512.4056, 119.3373
512.8877, 118.7414
513.3698, 118.0607
513.8519, 117.2723
514.3340, 116.5603
514.8162, 116.3119
515.2983, 116.1250
515.7804, 115.4789
516.2625, 113.4998
516.7446, 111.9533
517.2267, 111.9448
517.7089, 112.9145
518.1910, 113.4889
518.6731, 113.3766
519.1552, 112.8237
519.6373, 111.6056
520.1194, 109.5624
520.6016, 108.6114
521.0837, 109.7734
521.5658, 110.8992
522.0479, 110.1565
522.5300, 106.6824
523.0121, 104.6050
523.4943, 104.5369
523.9764, 105.5270
524.4585, 105.9709
524.9406, 105.8538
525.4227, 105.5562
525.9048, 105.1445
526.3870, 104.6802
526.8691, 104.5063
527.3513, 104.5730
527.8334, 104.1639
528.3155, 102.0211
528.7976, 99.34482
529.2797, 98.02642
529.7618, 98.45908
530.2440, 99.17493
530.7261, 99.23548
531.2082, 98.93151
531.6903, 98.63441
532.1724, 98.26943
532.6545, 98.13261
533.1367, 98.75814
533.6188, 99.77275
534.1009, 99.87085
534.5830, 97.42416
535.0651, 95.42538
535.5472, 95.14560
536.0294, 96.97477
536.5115, 97.62754
536.9936, 96.60841
537.4757, 95.10744
537.9578, 94.07617
538.4399, 93.55808
538.9221, 93.19360
539.4042, 92.96303
539.8863, 92.83428
540.3684, 92.74342
540.8505, 92.69395
541.3326, 92.74575
541.8148, 93.11842
542.2969, 93.49000
542.7790, 93.02194
543.2611, 91.84872
543.7432, 91.02216
544.2253, 91.83068
544.7075, 93.04147
545.1896, 93.31582
545.6717, 92.34766
546.1538, 91.15422
546.6359, 89.83282
547.1180, 88.71152
547.6002, 88.15811
548.0823, 89.07039
548.5644, 89.62029
549.0465, 89.17753
549.5286, 88.12245
550.0107, 87.57104
550.4929, 87.80774
550.9750, 88.11772
551.4571, 88.24812
551.9392, 88.19749
552.4213, 88.43128
552.9034, 89.06445
553.3856, 89.62608
553.8677, 89.73172
554.3498, 89.40414
554.8319, 88.87624
555.3140, 88.13225
555.7961, 87.33398
556.2783, 86.50362
556.7604, 85.77559
557.2425, 85.57408
557.7246, 86.40412
558.2067, 87.46603
558.6888, 88.02150
559.1710, 88.15936
559.6531, 88.16585
560.1352, 88.45574
560.6173, 88.43745
561.0994, 87.35805
561.5815, 84.90385
562.0637, 83.69138
562.5458, 85.87526
563.0279, 88.41120
563.5100, 89.02361
563.9921, 85.85629
564.4742, 84.07755
564.9564, 84.34425
565.4385, 85.61906
565.9206, 86.19633
566.4027, 85.98364
566.8848, 85.46488
567.3669, 84.60775
567.8491, 83.63026
568.3312, 83.26293
568.8133, 83.49438
569.2954, 84.05586
569.7775, 85.15974
570.2596, 86.36704
570.7418, 86.61124
571.2239, 85.79796
571.7060, 85.20815
572.1881, 86.33760
572.6702, 87.98771
573.1523, 88.78987
573.6345, 87.94462
574.1166, 87.03413
574.5987, 86.70316
575.0808, 86.67890
575.5629, 86.50217
576.0450, 85.53383
576.5272, 85.07457
577.0093, 85.70621
577.4914, 87.17323
577.9735, 87.75435
578.4556, 87.16580
578.9377, 86.26704
579.4199, 85.39960
579.9020, 84.57378
580.3841, 83.73038
580.8662, 82.77949
581.3483, 82.29453
581.8304, 83.31728
582.3126, 85.35686
582.7947, 86.60706
583.2768, 86.55044
583.7589, 86.18678
584.2410, 86.96838
584.7231, 88.19291
585.2053, 88.47053
585.6874, 86.04957
586.1696, 83.60270
586.6517, 82.52721
587.1338, 82.64603
587.6159, 83.10778
588.0980, 84.20698
588.5801, 85.14235
589.0623, 85.54269
589.5444, 85.35181
590.0265, 84.99607
590.5086, 84.28410
590.9907, 83.65312
591.4728, 83.42253
591.9550, 83.60683
592.4371, 84.21065
592.9192, 85.37952
593.4013, 86.61467
593.8834, 87.14602
594.3655, 87.05628
594.8477, 86.82670
595.3298, 86.49026
595.8119, 86.24982
596.2940, 86.48657
596.7761, 87.07741
597.2582, 87.61587
597.7404, 88.13359
598.2225, 88.32956
598.7046, 87.69673
599.1867, 86.23414
599.6688, 85.34023
600.1509, 85.85796
600.6331, 86.75581
601.1152, 87.38490
601.5973, 87.52164
602.0794, 87.87770
602.5615, 88.59788
603.0436, 89.39561
603.5258, 90.02276
604.0079, 90.54946
604.4900, 90.42082
604.9721, 89.27793
605.4542, 87.83733
605.9363, 87.71689
606.4185, 88.77719
606.9006, 89.76430
607.3827, 89.92882
607.8648, 89.79103
608.3469, 90.23426
608.8290, 91.13249
609.3112, 91.75146
609.7933, 91.50538
610.2754, 90.92448
610.7575, 90.33448
611.2396, 89.76172
611.7217, 89.35152
612.2039, 89.14311
612.6860, 89.11832
613.1681, 89.26563
613.6502, 89.58093
614.1323, 90.09189
614.6144, 91.00776
615.0966, 91.92852
615.5787, 92.14471
616.0608, 91.48127
616.5429, 91.28387
617.0250, 92.04016
617.5071, 93.24585
617.9893, 93.55529
618.4714, 93.11169
618.9535, 93.00839
619.4356, 94.38152
619.9177, 96.11320
620.3998, 96.68734
620.8820, 96.18761
621.3641, 95.53599
621.8462, 95.01994
622.3283, 94.69791
622.8104, 94.70794
623.2925, 95.22062
623.7747, 95.42497
624.2568, 94.62156
624.7389, 93.80158
625.2210, 93.80807
625.7031, 95.16998
626.1852, 96.21479
626.6674, 96.86279
627.1495, 97.13577
627.6316, 96.85365
628.1137, 95.97581
628.5958, 95.57810
629.0779, 96.11913
629.5601, 97.14827
630.0422, 97.93736
630.5243, 98.46655
631.0064, 98.67168
631.4885, 98.00355
631.9706, 97.34363
632.4528, 97.94081
632.9349, 99.64588
633.4170, 100.5349
633.8991, 98.43943
634.3812, 96.27064
634.8633, 95.93034
635.3455, 98.36682
635.8276, 100.2659
636.3097, 101.6847
636.7918, 102.4048
637.2739, 101.9521
637.7560, 99.74852
638.2382, 98.80563
638.7203, 99.61331
639.2024, 101.2801
639.6845, 102.6442
640.1666, 103.7099
640.6487, 104.4723
641.1309, 104.8770
641.6130, 105.0659
642.0951, 105.0838
642.5772, 105.0244
643.0594, 105.1552
643.5415, 105.7988
644.0236, 106.5042
644.5057, 107.0869
644.9879, 107.5266
645.4700, 107.7155
645.9521, 107.0875
646.4342, 106.7123
646.9163, 107.0840
647.3984, 108.3154
647.8806, 109.6372
648.3627, 111.2420
648.8448, 112.6068
649.3269, 113.1176
649.8090, 112.7777
650.2911, 113.0738
650.7733, 114.2316
651.2554, 115.5478
651.7375, 116.1314
652.2196, 116.2308
652.7017, 116.4498
653.1838, 116.9400
653.6660, 117.6272
654.1481, 118.4951
654.6302, 119.5074
655.1123, 120.6161
655.5944, 121.7951
656.0765, 123.0637
656.5587, 124.5786
657.0408, 126.2195
657.5229, 127.4877
658.0050, 128.3037
658.4871, 128.7998
658.9692, 128.7406
659.4514, 128.2697
659.9335, 129.1673
660.4156, 131.5528
660.8977, 134.2729
661.3798, 136.7811
661.8619, 138.9375
662.3441, 140.1601
662.8262, 140.3870
663.3083, 140.8233
663.7904, 142.6368
664.2725, 145.0789
664.7546, 147.3627
665.2368, 149.3586
