##NAMES=Caledonite
##RRUFFID=R070321
##IDEAL CHEMISTRY=Cu^2+^_2_Pb^2+^_5_(S^6+^O_4_)_3_(CO_3_)(OH)_6_
##LOCALITY=Soda Lake Mountains, near Baker, San Bernardino County, California, USA
##OWNER=RRUFF
##SOURCE=James Shigley
##DESCRIPTION=Striated blue bladed crystals
##STATUS=The identification of this mineral has been confirmed by single-crystal X-ray diffraction.
##URL=rruff.info/R070321
151.1082, 11630.76
151.5903, 11559.77
152.0724, 11555.34
152.5545, 11542.77
153.0366, 11503.68
153.5188, 11453.53
154.0009, 11422.82
154.4830, 11436.80
154.9651, 11455.25
155.4472, 11460.09
155.9293, 11439.35
156.4115, 11419.15
156.8936, 11404.03
157.3757, 11393.26
157.8578, 11383.98
158.3399, 11366.16
158.8221, 11354.88
159.3042, 11359.99
159.7863, 11415.76
160.2684, 11456.98
160.7505, 11452.95
161.2326, 11409.27
161.7148, 11369.43
162.1969, 11348.43
162.6790, 11341.28
163.1611, 11343.35
163.6432, 11368.22
164.1253, 11389.80
164.6075, 11384.53
165.0896, 11351.21
165.5717, 11335.12
166.0538, 11379.24
166.5359, 11453.53
167.0180, 11514.99
167.5002, 11536.43
167.9823, 11544.78
168.4644, 11557.87
168.9465, 11576.56
169.4286, 11603.00
169.9107, 11645.58
170.3929, 11697.20
170.8750, 11744.05
171.3571, 11777.49
171.8392, 11802.72
172.3213, 11824.75
172.8034, 11843.74
173.2856, 11860.32
173.7677, 11872.24
174.2498, 11881.40
174.7319, 11894.06
175.2140, 11907.65
175.6961, 11928.50
176.1783, 11970.77
176.6604, 12046.68
177.1425, 12126.40
177.6246, 12171.01
178.1067, 12183.84
178.5888, 12189.38
179.0710, 12200.50
179.5531, 12217.11
180.0352, 12239.42
180.5173, 12268.26
180.9994, 12301.82
181.4815, 12336.27
181.9637, 12371.97
182.4458, 12410.48
182.9279, 12462.06
183.4100, 12520.21
183.8921, 12561.10
184.3742, 12573.62
184.8564, 12566.47
185.3385, 12559.82
185.8206, 12554.10
186.3027, 12542.90
186.7848, 12513.34
187.2669, 12468.64
187.7491, 12432.40
188.2312, 12417.61
188.7133, 12417.93
189.1954, 12410.35
189.6775, 12394.59
190.1596, 12372.27
190.6418, 12341.25
191.1239, 12301.98
191.6060, 12267.01
192.0881, 12240.46
192.5702, 12222.26
193.0524, 12215.53
193.5345, 12224.39
194.0166, 12234.04
194.4987, 12214.97
194.9808, 12164.65
195.4629, 12123.27
195.9451, 12114.70
196.4272, 12138.06
196.9093, 12156.67
197.3914, 12170.53
197.8735, 12177.83
198.3556, 12171.63
198.8378, 12149.55
199.3199, 12129.27
199.8020, 12119.26
200.2841, 12119.72
200.7662, 12130.26
201.2483, 12154.26
201.7305, 12185.24
202.2126, 12207.41
202.6947, 12219.77
203.1768, 12227.06
203.6589, 12227.65
204.1410, 12218.33
204.6232, 12227.14
205.1053, 12263.66
205.5874, 12316.80
206.0695, 12345.79
206.5516, 12341.17
207.0337, 12337.17
207.5159, 12359.32
207.9980, 12412.64
208.4801, 12466.45
208.9622, 12518.02
209.4443, 12567.20
209.9264, 12613.49
210.4086, 12657.72
210.8907, 12697.57
211.3728, 12728.47
211.8549, 12745.92
212.3370, 12771.27
212.8191, 12811.19
213.3013, 12862.85
213.7834, 12905.08
214.2655, 12935.46
214.7476, 12960.44
215.2297, 12981.79
215.7118, 12992.13
216.1940, 13021.64
216.6761, 13084.20
217.1582, 13177.51
217.6403, 13240.80
218.1224, 13257.63
218.6045, 13265.43
219.0867, 13300.57
219.5688, 13371.06
220.0509, 13450.28
220.5330, 13535.12
221.0151, 13627.05
221.4972, 13706.57
221.9794, 13771.82
222.4615, 13827.57
222.9436, 13878.50
223.4257, 13921.01
223.9078, 13967.16
224.3899, 14021.98
224.8721, 14087.87
225.3542, 14139.98
225.8363, 14174.72
226.3184, 14199.55
226.8005, 14222.42
227.2827, 14238.75
227.7648, 14261.23
228.2469, 14289.27
228.7290, 14319.71
229.2111, 14383.97
229.6932, 14512.95
230.1754, 14649.94
230.6575, 14720.32
231.1396, 14700.99
231.6217, 14654.05
232.1038, 14591.84
232.5859, 14511.17
233.0681, 14431.39
233.5502, 14348.73
234.0323, 14269.96
234.5144, 14203.99
234.9965, 14153.50
235.4786, 14112.48
235.9608, 14082.67
236.4429, 14069.93
236.9250, 14041.11
237.4071, 13983.41
237.8892, 13917.76
238.3713, 13879.23
238.8535, 13884.03
239.3356, 13888.93
239.8177, 13880.31
240.2998, 13855.06
240.7819, 13827.52
241.2640, 13794.86
241.7462, 13761.12
242.2283, 13732.39
242.7104, 13706.62
243.1925, 13689.35
243.6746, 13684.65
244.1567, 13698.45
244.6389, 13704.04
245.1210, 13697.73
245.6031, 13685.43
246.0852, 13677.66
246.5673, 13676.57
247.0494, 13676.26
247.5316, 13672.92
248.0137, 13661.77
248.4958, 13665.29
248.9779, 13691.96
249.4600, 13728.55
249.9421, 13750.63
250.4243, 13756.89
250.9064, 13751.27
251.3885, 13732.66
251.8706, 13694.96
252.3527, 13665.61
252.8348, 13651.92
253.3170, 13642.15
253.7991, 13610.15
254.2812, 13539.07
254.7633, 13478.83
255.2454, 13452.63
255.7275, 13474.43
256.2097, 13478.69
256.6918, 13460.05
257.1739, 13427.54
257.6560, 13399.32
258.1381, 13382.71
258.6202, 13354.76
259.1024, 13299.77
259.5845, 13204.59
260.0666, 13139.91
260.5487, 13112.10
261.0308, 13110.19
261.5129, 13116.31
261.9951, 13135.53
262.4772, 13150.45
262.9593, 13151.97
263.4414, 13135.63
263.9235, 13128.43
264.4056, 13135.09
264.8878, 13146.40
265.3699, 13144.74
265.8520, 13125.23
266.3341, 13106.65
266.8162, 13095.74
267.2983, 13093.20
267.7805, 13094.38
268.2626, 13098.63
268.7447, 13107.37
269.2268, 13128.08
269.7089, 13168.13
270.1910, 13193.30
270.6732, 13179.34
271.1553, 13118.30
271.6374, 13101.98
272.1195, 13142.76
272.6016, 13210.10
273.0837, 13252.97
273.5659, 13267.21
274.0480, 13279.49
274.5301, 13302.30
275.0122, 13336.23
275.4943, 13358.79
275.9764, 13367.10
276.4586, 13369.41
276.9407, 13380.73
277.4228, 13402.95
277.9049, 13416.90
278.3870, 13413.24
278.8691, 13392.64
279.3513, 13367.26
279.8334, 13332.79
280.3155, 13304.61
280.7976, 13313.62
281.2798, 13362.02
281.7619, 13394.54
282.2440, 13382.31
282.7261, 13332.43
283.2082, 13301.32
283.6903, 13292.57
284.1725, 13289.36
284.6546, 13267.00
285.1367, 13226.66
285.6188, 13194.53
286.1009, 13182.66
286.5830, 13186.79
287.0652, 13188.83
287.5473, 13188.41
288.0294, 13188.09
288.5115, 13191.67
288.9936, 13198.57
289.4757, 13203.80
289.9579, 13203.84
290.4400, 13201.47
290.9221, 13204.67
291.4042, 13213.66
291.8863, 13225.52
292.3684, 13240.21
292.8506, 13256.17
293.3327, 13266.57
293.8148, 13265.39
294.2969, 13259.61
294.7790, 13261.60
295.2611, 13271.43
295.7433, 13288.67
296.2254, 13323.17
296.7075, 13366.26
297.1896, 13390.72
297.6717, 13375.84
298.1538, 13350.23
298.6360, 13362.02
299.1181, 13408.47
299.6002, 13456.01
300.0823, 13467.61
300.5644, 13463.64
301.0465, 13485.12
301.5287, 13556.04
302.0108, 13639.99
302.4929, 13695.96
302.9750, 13727.53
303.4571, 13751.99
303.9392, 13771.92
304.4214, 13794.77
304.9035, 13834.37
305.3856, 13905.67
305.8677, 13974.25
306.3498, 13999.99
306.8319, 13993.92
307.3141, 13995.55
307.7962, 14030.78
308.2783, 14083.63
308.7604, 14141.94
309.2425, 14208.34
309.7246, 14266.10
310.2068, 14295.24
310.6889, 14306.34
311.1710, 14327.13
311.6531, 14380.85
312.1352, 14443.43
312.6173, 14496.34
313.0995, 14533.23
313.5816, 14568.63
314.0637, 14614.35
314.5458, 14663.18
315.0279, 14701.98
315.5100, 14714.39
315.9922, 14723.99
316.4743, 14746.03
316.9564, 14787.21
317.4385, 14820.30
317.9206, 14836.51
318.4027, 14839.23
318.8849, 14833.18
319.3670, 14803.45
319.8491, 14779.39
320.3312, 14777.60
320.8133, 14805.22
321.2954, 14818.28
321.7776, 14797.46
322.2597, 14762.18
322.7418, 14733.13
323.2239, 14723.83
323.7060, 14710.51
324.1881, 14686.02
324.6703, 14649.15
325.1524, 14613.85
325.6345, 14574.70
326.1166, 14541.26
326.5987, 14521.08
327.0808, 14535.97
327.5630, 14538.28
328.0451, 14513.61
328.5272, 14464.04
329.0093, 14436.06
329.4914, 14449.25
329.9735, 14466.86
330.4557, 14462.22
330.9378, 14403.74
331.4199, 14379.65
331.9020, 14411.63
332.3841, 14485.64
332.8662, 14531.77
333.3484, 14536.30
333.8305, 14533.08
334.3126, 14539.48
334.7947, 14556.15
335.2768, 14581.25
335.7589, 14619.12
336.2411, 14662.86
336.7232, 14690.77
337.2053, 14691.69
337.6874, 14708.82
338.1695, 14776.79
338.6516, 14906.08
339.1338, 14981.33
339.6159, 14981.38
340.0980, 14956.49
340.5801, 15004.50
341.0622, 15136.39
341.5443, 15244.69
342.0265, 15278.31
342.5086, 15244.93
342.9907, 15213.48
343.4728, 15181.37
343.9549, 15162.47
344.4370, 15195.66
344.9192, 15272.24
345.4013, 15307.72
345.8834, 15254.87
346.3655, 15144.11
346.8476, 15048.31
347.3297, 14967.47
347.8119, 14909.21
348.2940, 14902.85
348.7761, 14928.50
349.2582, 14925.17
349.7403, 14862.66
350.2225, 14776.46
350.7046, 14715.73
351.1867, 14677.66
351.6688, 14644.94
352.1509, 14610.66
352.6331, 14572.21
353.1152, 14524.54
353.5973, 14462.96
354.0794, 14398.71
354.5615, 14335.20
355.0436, 14275.87
355.5258, 14231.31
356.0079, 14218.91
356.4900, 14217.38
356.9721, 14208.46
357.4542, 14188.20
357.9363, 14164.46
358.4185, 14141.29
358.9006, 14117.69
359.3827, 14091.94
359.8648, 14052.31
360.3469, 14019.12
360.8290, 14003.25
361.3112, 14006.63
361.7933, 14019.96
362.2754, 14058.68
362.7575, 14098.99
363.2396, 14115.11
363.7217, 14078.24
364.2039, 14039.38
364.6860, 14009.56
365.1681, 13989.13
365.6502, 13975.92
366.1323, 13970.62
366.6144, 13971.68
367.0966, 13978.18
367.5787, 13999.29
368.0608, 14014.21
368.5429, 14015.31
369.0250, 14007.22
369.5071, 14014.62
369.9893, 14052.49
370.4714, 14088.34
370.9535, 14106.11
371.4356, 14098.80
371.9177, 14088.27
372.3998, 14071.78
372.8820, 14053.70
373.3641, 14044.37
373.8462, 14046.24
374.3283, 14050.58
374.8104, 14053.24
375.2925, 14053.64
375.7747, 14062.19
376.2568, 14083.64
376.7389, 14103.98
377.2210, 14098.44
377.7031, 14064.51
378.1852, 14041.00
378.6674, 14042.42
379.1495, 14063.55
379.6316, 14083.05
380.1137, 14100.59
380.5958, 14118.01
381.0779, 14142.83
381.5601, 14171.16
382.0422, 14180.28
382.5243, 14157.88
383.0064, 14123.56
383.4885, 14109.38
383.9706, 14113.50
384.4528, 14123.40
384.9349, 14126.22
385.4170, 14130.36
385.8991, 14156.17
386.3812, 14216.25
386.8633, 14267.63
387.3455, 14254.17
387.8276, 14200.66
388.3097, 14163.66
388.7918, 14174.58
389.2739, 14212.06
389.7560, 14270.64
390.2382, 14353.35
390.7203, 14414.95
391.2024, 14410.76
391.6845, 14378.86
392.1666, 14363.02
392.6487, 14397.32
393.1309, 14432.06
393.6130, 14441.73
394.0951, 14429.15
394.5772, 14429.69
395.0593, 14459.31
395.5414, 14500.49
396.0236, 14542.04
396.5057, 14580.37
396.9878, 14621.66
397.4699, 14673.63
397.9520, 14729.76
398.4341, 14768.65
398.9163, 14766.91
399.3984, 14772.13
399.8805, 14802.45
400.3626, 14866.06
400.8447, 14930.98
401.3268, 14999.01
401.8090, 15066.96
402.2911, 15131.18
402.7732, 15189.45
403.2553, 15247.96
403.7374, 15307.07
404.2195, 15367.08
404.7017, 15432.37
405.1838, 15501.62
405.6659, 15580.72
406.1480, 15674.64
406.6301, 15783.74
407.1122, 15907.69
407.5944, 16052.33
408.0765, 16206.26
408.5586, 16334.59
409.0407, 16438.43
409.5228, 16548.14
410.0049, 16682.83
410.4871, 16837.58
410.9692, 16999.76
411.4513, 17167.42
411.9334, 17347.30
412.4155, 17555.79
412.8976, 17787.64
413.3798, 18018.82
413.8619, 18244.64
414.3440, 18465.05
414.8261, 18675.54
415.3082, 18877.28
415.7903, 19094.89
416.2725, 19346.30
416.7546, 19623.42
417.2367, 19923.71
417.7188, 20259.32
418.2009, 20595.68
418.6830, 20914.42
419.1652, 21219.89
419.6473, 21515.58
420.1294, 21792.06
420.6115, 22069.61
421.0937, 22370.56
421.5758, 22724.23
422.0579, 23030.94
422.5400, 23231.26
423.0221, 23387.13
423.5042, 23605.29
423.9864, 23954.02
424.4685, 24290.41
424.9506, 24599.11
425.4327, 24879.33
425.9148, 25094.52
426.3969, 25272.04
426.8791, 25353.69
427.3612, 25278.01
427.8433, 25014.70
428.3254, 24686.06
428.8075, 24290.95
429.2896, 23848.68
429.7718, 23430.35
430.2539, 23036.31
430.7360, 22659.63
431.2181, 22291.03
431.7002, 21933.25
432.1823, 21631.71
432.6645, 21394.49
433.1466, 21193.10
433.6287, 21003.38
434.1108, 20822.29
434.5929, 20632.55
435.0750, 20423.77
435.5572, 20205.13
436.0393, 19990.03
436.5214, 19778.63
437.0035, 19573.43
437.4856, 19381.99
437.9677, 19198.28
438.4499, 19015.42
438.9320, 18832.42
439.4141, 18648.50
439.8962, 18453.83
440.3783, 18257.76
440.8604, 18078.67
441.3426, 17939.38
441.8247, 17810.80
442.3068, 17673.96
442.7889, 17521.80
443.2710, 17385.60
443.7531, 17266.78
444.2353, 17171.24
444.7174, 17103.45
445.1995, 17104.74
445.6816, 17090.51
446.1637, 17034.57
446.6458, 16943.05
447.1280, 16877.15
447.6101, 16848.54
448.0922, 16832.62
448.5743, 16817.83
449.0564, 16806.91
449.5385, 16787.27
450.0207, 16751.13
450.5028, 16712.95
450.9849, 16702.04
451.4670, 16722.13
451.9491, 16750.44
452.4312, 16773.81
452.9134, 16796.10
453.3955, 16855.62
453.8776, 16956.78
454.3597, 17061.90
454.8418, 17137.61
455.3239, 17186.40
455.8061, 17214.21
456.2882, 17218.98
456.7703, 17209.33
457.2524, 17198.73
457.7345, 17185.13
458.2166, 17159.51
458.6988, 17125.63
459.1809, 17072.43
459.6630, 16981.24
460.1451, 16844.51
460.6272, 16705.48
461.1093, 16575.50
461.5915, 16464.46
462.0736, 16387.65
462.5557, 16377.33
463.0378, 16375.11
463.5199, 16351.96
464.0020, 16313.34
464.4842, 16301.64
464.9663, 16348.54
465.4484, 16407.98
465.9305, 16453.71
466.4126, 16454.64
466.8947, 16497.46
467.3769, 16614.16
467.8590, 16758.42
468.3411, 16849.17
468.8232, 16842.85
469.3053, 16871.43
469.7874, 16987.62
470.2696, 17183.77
470.7517, 17311.58
471.2338, 17355.83
471.7159, 17377.93
472.1980, 17432.10
472.6801, 17517.53
473.1623, 17590.10
473.6444, 17646.33
474.1265, 17682.92
474.6086, 17699.46
475.0907, 17693.87
475.5728, 17652.85
476.0550, 17552.86
476.5371, 17418.16
477.0192, 17286.82
477.5013, 17159.57
477.9834, 17033.64
478.4655, 16903.04
478.9477, 16773.20
479.4298, 16651.97
479.9119, 16530.69
480.3940, 16430.36
480.8761, 16379.74
481.3582, 16361.65
481.8404, 16327.32
482.3225, 16242.10
482.8046, 16152.57
483.2867, 16079.16
483.7688, 16026.89
484.2509, 15979.52
484.7331, 15924.59
485.2152, 15880.07
485.6973, 15865.30
486.1794, 15913.55
486.6615, 15933.64
487.1436, 15904.50
487.6258, 15837.18
488.1079, 15782.33
488.5900, 15740.96
489.0721, 15710.29
489.5542, 15692.88
490.0363, 15688.79
490.5185, 15677.24
491.0006, 15656.87
491.4827, 15632.08
491.9648, 15602.95
492.4470, 15572.19
492.9291, 15557.31
493.4112, 15577.63
493.8933, 15605.81
494.3754, 15597.85
494.8575, 15557.35
495.3397, 15507.59
495.8218, 15449.79
496.3039, 15396.82
496.7860, 15364.74
497.2681, 15358.53
497.7502, 15360.25
498.2324, 15372.20
498.7145, 15382.93
499.1966, 15377.06
499.6787, 15330.64
500.1608, 15286.47
500.6429, 15255.94
501.1251, 15239.08
501.6072, 15231.32
502.0893, 15245.00
502.5714, 15256.34
503.0535, 15252.95
503.5356, 15224.85
504.0178, 15207.25
504.4999, 15207.88
504.9820, 15212.10
505.4641, 15190.13
505.9462, 15132.31
506.4283, 15101.24
506.9105, 15128.26
507.3926, 15192.93
507.8747, 15210.00
508.3568, 15177.43
508.8389, 15133.90
509.3210, 15101.81
509.8032, 15080.60
510.2853, 15069.17
510.7674, 15068.28
511.2495, 15073.29
511.7316, 15089.11
512.2137, 15106.84
512.6959, 15108.36
513.1780, 15065.63
513.6601, 15021.30
514.1422, 15006.19
514.6243, 15016.65
515.1064, 15025.79
515.5886, 15011.98
516.0707, 15001.40
516.5528, 15013.13
517.0349, 15069.65
517.5170, 15106.65
517.9991, 15111.28
518.4813, 15095.53
518.9634, 15071.93
519.4455, 15029.16
519.9276, 14998.29
520.4097, 14988.20
520.8918, 14995.97
521.3740, 14999.93
521.8561, 14996.90
522.3382, 15000.55
522.8203, 15030.47
523.3024, 15083.23
523.7845, 15096.13
524.2667, 15057.35
524.7488, 15010.79
525.2309, 15018.95
525.7130, 15066.17
526.1951, 15097.24
526.6772, 15084.05
527.1594, 15054.27
527.6415, 15040.29
528.1236, 15038.54
528.6057, 15032.91
529.0878, 15004.57
529.5699, 14975.25
530.0521, 14961.50
530.5342, 14966.74
531.0163, 14980.91
531.4984, 15013.06
531.9805, 15047.39
532.4626, 15067.28
532.9448, 15056.45
533.4269, 15047.79
533.9090, 15045.46
534.3911, 15048.01
534.8732, 15048.76
535.3553, 15042.41
535.8375, 15044.60
536.3196, 15067.76
536.8017, 15114.21
537.2838, 15136.32
537.7659, 15130.66
538.2480, 15112.66
538.7302, 15092.15
539.2123, 15071.16
539.6944, 15067.49
540.1765, 15092.11
540.6586, 15122.67
541.1407, 15126.38
541.6229, 15108.89
542.1050, 15090.61
542.5871, 15084.90
543.0692, 15081.76
543.5513, 15066.85
544.0334, 15039.87
544.5156, 15027.69
544.9977, 15054.98
545.4798, 15095.36
545.9619, 15128.29
546.4440, 15151.75
546.9261, 15164.93
547.4083, 15157.17
547.8904, 15141.10
548.3725, 15141.01
548.8546, 15175.18
549.3367, 15194.71
549.8188, 15182.12
550.3010, 15141.15
550.7831, 15114.63
551.2652, 15102.82
551.7473, 15104.57
552.2294, 15124.47
552.7115, 15160.35
553.1937, 15192.54
553.6758, 15221.67
554.1579, 15237.99
554.6400, 15219.73
555.1221, 15177.72
555.6042, 15143.42
556.0864, 15131.15
556.5685, 15127.79
557.0506, 15114.00
557.5327, 15096.48
558.0148, 15100.67
558.4969, 15176.00
558.9791, 15249.08
559.4612, 15266.58
559.9433, 15209.26
560.4254, 15168.44
560.9075, 15169.62
561.3896, 15189.63
561.8718, 15207.89
562.3539, 15224.42
562.8360, 15239.01
563.3181, 15250.57
563.8002, 15260.56
564.2823, 15275.04
564.7645, 15297.05
565.2466, 15309.08
565.7287, 15300.67
566.2108, 15276.31
566.6929, 15253.72
567.1750, 15232.62
567.6572, 15224.35
568.1393, 15249.43
568.6214, 15292.58
569.1035, 15324.45
569.5856, 15341.82
570.0677, 15343.13
570.5499, 15305.01
571.0320, 15254.59
571.5141, 15234.46
571.9962, 15296.15
572.4783, 15355.28
572.9604, 15374.35
573.4426, 15359.87
573.9247, 15348.28
574.4068, 15339.01
574.8889, 15339.93
575.3710, 15359.02
575.8531, 15403.81
576.3353, 15424.94
576.8174, 15414.53
577.2995, 15391.81
577.7816, 15371.45
578.2637, 15352.75
578.7458, 15347.86
579.2280, 15363.75
579.7101, 15384.60
580.1922, 15370.15
580.6743, 15329.41
581.1564, 15313.28
581.6385, 15368.39
582.1207, 15449.08
582.6028, 15496.59
583.0849, 15513.24
583.5670, 15520.83
584.0491, 15520.00
584.5313, 15522.91
585.0134, 15540.99
585.4955, 15581.12
585.9776, 15619.15
586.4597, 15640.19
586.9418, 15659.62
587.4240, 15695.97
587.9061, 15777.75
588.3882, 15831.35
588.8703, 15833.26
589.3524, 15806.20
589.8345, 15817.85
590.3167, 15873.97
590.7988, 15948.27
591.2809, 16040.26
591.7630, 16141.99
592.2451, 16195.24
592.7272, 16197.61
593.2094, 16209.65
593.6915, 16303.60
594.1736, 16438.60
594.6557, 16532.36
595.1378, 16561.69
595.6199, 16584.29
596.1021, 16638.79
596.5842, 16714.63
597.0663, 16797.04
597.5485, 16884.74
598.0306, 16973.24
598.5127, 17067.49
598.9948, 17162.90
599.4769, 17241.12
599.9590, 17300.67
600.4412, 17345.14
600.9233, 17372.05
601.4054, 17380.22
601.8875, 17393.87
602.3696, 17417.27
602.8517, 17435.31
603.3339, 17430.15
603.8160, 17404.00
604.2981, 17387.03
604.7802, 17383.97
605.2623, 17386.22
605.7444, 17377.70
606.2266, 17365.31
606.7087, 17369.39
607.1908, 17429.85
607.6729, 17475.95
608.1550, 17448.79
608.6371, 17360.53
609.1193, 17249.63
609.6014, 17105.36
610.0835, 16964.81
610.5656, 16853.27
611.0477, 16777.65
611.5298, 16685.45
612.0120, 16555.00
612.4941, 16428.30
612.9762, 16338.33
613.4583, 16300.30
613.9404, 16240.77
614.4225, 16146.38
614.9047, 16049.02
615.3868, 15988.19
615.8689, 15963.20
616.3510, 15975.09
616.8331, 16037.63
617.3152, 16119.17
617.7974, 16170.77
618.2795, 16198.59
618.7616, 16229.37
619.2437, 16279.05
619.7258, 16336.08
620.2079, 16394.04
620.6901, 16452.21
621.1722, 16508.81
621.6543, 16576.57
622.1364, 16633.34
622.6185, 16661.90
623.1006, 16646.87
623.5828, 16635.80
624.0649, 16621.57
624.5470, 16617.83
625.0291, 16642.05
625.5112, 16697.07
625.9933, 16765.37
626.4755, 16843.48
626.9576, 16932.47
627.4397, 17048.83
627.9218, 17186.00
628.4039, 17294.04
628.8860, 17359.48
629.3682, 17375.77
629.8503, 17328.52
630.3324, 17220.69
630.8145, 17073.09
631.2966, 16862.97
631.7787, 16643.44
632.2609, 16447.07
632.7430, 16273.68
633.2251, 16140.86
633.7072, 16093.96
634.1893, 16065.22
634.6714, 15993.37
635.1536, 15835.60
635.6357, 15731.87
636.1178, 15706.88
636.5999, 15726.07
637.0820, 15728.53
637.5641, 15713.44
638.0463, 15701.34
638.5284, 15699.66
639.0105, 15704.25
639.4926, 15708.96
639.9747, 15713.24
640.4568, 15713.83
640.9390, 15710.39
641.4211, 15701.27
641.9032, 15678.63
642.3853, 15642.09
642.8674, 15620.17
643.3495, 15641.44
643.8317, 15669.87
644.3138, 15679.32
644.7959, 15648.05
645.2780, 15634.58
645.7601, 15646.54
646.2422, 15669.58
646.7244, 15687.33
647.2065, 15698.39
647.6886, 15712.37
648.1707, 15735.39
