##NAMES=Caledonite
##RRUFFID=R060506
##IDEAL CHEMISTRY=Cu^2+^_2_Pb^2+^_5_(S^6+^O_4_)_3_(CO_3_)(OH)_6_
##LOCALITY=Rowley mine, Maricopa County, Arizona, USA
##OWNER=RRUFF
##SOURCE=Jim Ricker
##DESCRIPTION=Blue prismatic crystals
##STATUS=The identification of this mineral has been confirmed by single-crystal X-ray diffraction.
##URL=rruff.info/R060506
91.71167, 3903.412
92.19379, 3967.656
92.67590, 4037.996
93.15802, 4107.523
93.64014, 4167.722
94.12225, 4222.741
94.60437, 4281.878
95.08649, 4347.267
95.56860, 4416.423
96.05072, 4492.104
96.53284, 4578.247
97.01495, 4665.241
97.49707, 4745.432
97.97919, 4819.108
98.46130, 4883.390
98.94342, 4939.800
99.42554, 4988.417
99.90765, 5020.796
100.3898, 5036.146
100.8719, 5039.601
101.3540, 5036.709
101.8361, 5025.731
102.3182, 5015.185
102.8004, 5006.483
103.2825, 4997.153
103.7646, 4999.873
104.2467, 5014.674
104.7288, 5040.808
105.2109, 5076.617
105.6931, 5121.508
106.1752, 5176.618
106.6573, 5242.923
107.1394, 5318.645
107.6215, 5407.146
108.1036, 5512.824
108.5858, 5632.619
109.0679, 5749.606
109.5500, 5853.655
110.0321, 5962.798
110.5142, 6085.746
110.9963, 6217.815
111.4785, 6368.210
111.9606, 6538.176
112.4427, 6727.344
112.9248, 6930.342
113.4069, 7153.356
113.8890, 7385.522
114.3712, 7620.881
114.8533, 7884.742
115.3354, 8126.015
115.8175, 8336.528
116.2996, 8521.059
116.7817, 8650.667
117.2639, 8707.274
117.7460, 8708.353
118.2281, 8675.770
118.7102, 8598.788
119.1923, 8503.943
119.6744, 8402.090
120.1566, 8290.310
120.6387, 8188.967
121.1208, 8112.622
121.6029, 8056.015
122.0850, 8009.726
122.5671, 7975.393
123.0493, 7945.731
123.5314, 7916.439
124.0135, 7891.503
124.4956, 7854.127
124.9777, 7791.402
125.4598, 7703.536
125.9420, 7592.278
126.4241, 7449.513
126.9062, 7284.955
127.3883, 7115.334
127.8704, 6941.509
128.3525, 6767.417
128.8347, 6596.595
129.3168, 6428.605
129.7989, 6269.550
130.2810, 6123.225
130.7631, 5989.378
131.2452, 5860.865
131.7274, 5734.574
132.2095, 5613.345
132.6916, 5504.895
133.1737, 5408.814
133.6558, 5324.135
134.1379, 5248.139
134.6201, 5180.837
135.1022, 5120.907
135.5843, 5068.832
136.0664, 5024.212
136.5485, 4986.240
137.0306, 4954.969
137.5128, 4929.925
137.9949, 4909.860
138.4770, 4894.835
138.9591, 4884.200
139.4412, 4877.720
139.9233, 4875.442
140.4055, 4877.088
140.8876, 4883.712
141.3697, 4893.047
141.8518, 4901.319
142.3339, 4907.584
142.8160, 4914.675
143.2982, 4924.107
143.7803, 4937.236
144.2624, 4948.385
144.7445, 4959.083
145.2266, 4967.268
145.7087, 4968.506
146.1909, 4965.888
146.6730, 4952.671
147.1551, 4926.032
147.6372, 4884.909
148.1193, 4832.588
148.6014, 4765.885
149.0836, 4687.751
149.5657, 4605.104
150.0478, 4515.679
150.5299, 4425.455
151.0120, 4336.354
151.4941, 4242.822
151.9763, 4157.894
152.4584, 4082.644
152.9405, 4016.417
153.4226, 3954.120
153.9047, 3894.592
154.3868, 3839.368
154.8690, 3789.284
155.3511, 3746.732
155.8332, 3706.856
156.3153, 3670.646
156.7974, 3637.579
157.2795, 3603.434
157.7617, 3565.650
158.2438, 3527.401
158.7259, 3490.990
159.2080, 3456.325
159.6901, 3424.233
160.1722, 3395.016
160.6544, 3368.685
161.1365, 3344.940
161.6186, 3323.179
162.1007, 3304.292
162.5828, 3288.571
163.0649, 3278.029
163.5471, 3269.270
164.0292, 3262.129
164.5113, 3256.554
164.9934, 3248.169
165.4755, 3232.386
165.9576, 3213.039
166.4398, 3195.108
166.9219, 3180.887
167.4040, 3168.142
167.8861, 3155.832
168.3682, 3143.866
168.8503, 3131.882
169.3325, 3119.353
169.8146, 3106.660
170.2967, 3094.595
170.7788, 3083.552
171.2609, 3073.142
171.7430, 3063.375
172.2252, 3054.297
172.7073, 3045.115
173.1894, 3034.418
173.6715, 3023.008
174.1536, 3013.031
174.6357, 3006.229
175.1179, 3000.922
175.6000, 2994.868
176.0821, 2987.748
176.5642, 2980.984
177.0463, 2976.148
177.5284, 2972.855
178.0106, 2969.997
178.4927, 2966.837
178.9748, 2963.750
179.4569, 2961.335
179.9390, 2959.562
180.4211, 2958.776
180.9033, 2959.468
181.3854, 2961.557
181.8675, 2964.543
182.3496, 2967.969
182.8317, 2972.089
183.3138, 2977.905
183.7960, 2985.736
184.2781, 2994.514
184.7602, 3003.583
185.2423, 3012.741
185.7244, 3019.681
186.2065, 3023.162
186.6887, 3023.310
187.1708, 3020.647
187.6529, 3015.060
188.1350, 3006.993
188.6171, 2997.241
189.0992, 2985.706
189.5814, 2972.469
190.0635, 2956.723
190.5456, 2938.729
191.0277, 2921.727
191.5098, 2905.937
191.9919, 2891.340
192.4741, 2878.443
192.9562, 2867.335
193.4383, 2857.042
193.9204, 2846.977
194.4025, 2837.168
194.8846, 2828.206
195.3668, 2820.146
195.8489, 2812.964
196.3310, 2806.957
196.8131, 2802.285
197.2952, 2797.512
197.7773, 2791.147
198.2595, 2783.141
198.7416, 2776.374
199.2237, 2771.293
199.7058, 2767.665
200.1879, 2765.144
200.6700, 2763.892
201.1522, 2763.023
201.6343, 2761.552
202.1164, 2759.266
202.5985, 2759.052
203.0806, 2762.130
203.5627, 2767.035
204.0449, 2768.660
204.5270, 2766.202
205.0091, 2763.044
205.4912, 2761.236
205.9733, 2760.764
206.4554, 2761.804
206.9376, 2764.921
207.4197, 2769.401
207.9018, 2772.182
208.3839, 2772.315
208.8660, 2773.229
209.3481, 2777.743
209.8303, 2786.863
210.3124, 2795.195
210.7945, 2801.779
211.2766, 2807.227
211.7587, 2814.284
212.2408, 2823.312
212.7230, 2833.282
213.2051, 2843.948
213.6872, 2855.865
214.1693, 2866.318
214.6514, 2874.122
215.1335, 2880.161
215.6157, 2888.400
216.0978, 2899.440
216.5799, 2911.529
217.0620, 2923.599
217.5441, 2935.415
218.0262, 2947.925
218.5084, 2961.513
218.9905, 2976.041
219.4726, 2989.967
219.9547, 3003.074
220.4368, 3016.382
220.9189, 3030.604
221.4011, 3046.641
221.8832, 3061.585
222.3653, 3074.763
222.8474, 3086.724
223.3295, 3100.613
223.8116, 3116.848
224.2938, 3133.896
224.7759, 3151.152
225.2580, 3169.455
225.7401, 3185.394
226.2222, 3197.839
226.7043, 3207.699
227.1865, 3219.776
227.6686, 3235.612
228.1507, 3250.950
228.6328, 3263.321
229.1149, 3272.502
229.5970, 3279.054
230.0792, 3282.160
230.5613, 3282.669
231.0434, 3283.864
231.5255, 3286.651
232.0076, 3288.895
232.4897, 3289.533
232.9719, 3288.665
233.4540, 3286.183
233.9361, 3282.317
234.4182, 3276.852
234.9003, 3268.634
235.3824, 3255.961
235.8646, 3242.973
236.3467, 3231.615
236.8288, 3222.138
237.3109, 3213.797
237.7930, 3207.583
238.2751, 3202.231
238.7573, 3193.945
239.2394, 3180.919
239.7215, 3167.396
240.2036, 3155.040
240.6857, 3143.854
241.1678, 3133.798
241.6500, 3125.432
242.1321, 3118.038
242.6142, 3109.361
243.0963, 3097.640
243.5784, 3087.323
244.0605, 3080.941
244.5427, 3081.236
245.0248, 3078.117
245.5069, 3069.574
245.9890, 3058.439
246.4711, 3051.199
246.9532, 3049.636
247.4354, 3049.011
247.9175, 3047.705
248.3996, 3045.690
248.8817, 3043.211
249.3638, 3040.177
249.8459, 3036.809
250.3281, 3033.352
250.8102, 3029.301
251.2923, 3026.167
251.7744, 3025.009
252.2565, 3026.993
252.7386, 3026.204
253.2208, 3022.396
253.7029, 3016.001
254.1850, 3007.303
254.6671, 2995.159
255.1492, 2982.842
255.6313, 2971.854
256.1135, 2962.838
256.5956, 2950.682
257.0777, 2934.685
257.5598, 2916.272
258.0419, 2896.997
258.5240, 2876.188
259.0062, 2856.446
259.4883, 2838.976
259.9704, 2824.381
260.4525, 2806.764
260.9346, 2784.208
261.4167, 2761.287
261.8989, 2743.666
262.3810, 2733.307
262.8631, 2723.511
263.3452, 2712.641
263.8273, 2700.620
264.3094, 2690.966
264.7916, 2684.157
265.2737, 2678.815
265.7558, 2673.611
266.2379, 2668.610
266.7200, 2663.710
267.2021, 2658.671
267.6843, 2653.615
268.1664, 2649.435
268.6485, 2645.943
269.1306, 2643.660
269.6127, 2643.036
270.0948, 2644.069
270.5770, 2646.685
271.0591, 2651.359
271.5412, 2657.489
272.0233, 2662.434
272.5054, 2665.907
272.9875, 2668.619
273.4697, 2670.556
273.9518, 2671.352
274.4339, 2673.834
274.9160, 2678.399
275.3981, 2684.810
275.8802, 2693.167
276.3624, 2704.034
276.8445, 2714.223
277.3266, 2720.983
277.8087, 2723.979
278.2908, 2729.178
278.7729, 2738.019
279.2551, 2748.234
279.7372, 2754.581
280.2193, 2756.865
280.7014, 2756.667
281.1835, 2754.233
281.6656, 2749.599
282.1478, 2744.926
282.6299, 2740.142
283.1120, 2735.667
283.5941, 2733.122
284.0762, 2732.685
284.5583, 2730.207
285.0405, 2722.651
285.5226, 2710.670
286.0047, 2700.633
286.4868, 2693.048
286.9689, 2685.810
287.4510, 2675.426
287.9332, 2662.078
288.4153, 2649.570
288.8974, 2639.619
289.3795, 2631.801
289.8616, 2625.177
290.3438, 2619.828
290.8259, 2615.078
291.3080, 2610.289
291.7901, 2605.506
292.2722, 2600.673
292.7543, 2595.408
293.2365, 2590.298
293.7186, 2586.735
294.2007, 2584.754
294.6828, 2584.020
295.1649, 2584.228
295.6470, 2585.452
296.1292, 2588.044
296.6113, 2592.489
297.0934, 2597.889
297.5755, 2602.715
298.0576, 2607.093
298.5397, 2612.024
299.0219, 2618.758
299.5040, 2626.640
299.9861, 2633.981
300.4682, 2640.066
300.9503, 2646.365
301.4324, 2654.864
301.9146, 2665.228
302.3967, 2676.360
302.8788, 2687.100
303.3609, 2698.291
303.8430, 2711.127
304.3251, 2726.006
304.8073, 2741.607
305.2894, 2757.154
305.7715, 2772.511
306.2536, 2787.830
306.7357, 2802.303
307.2178, 2817.026
307.7000, 2833.216
308.1821, 2851.080
308.6642, 2868.879
309.1463, 2885.029
309.6284, 2900.206
310.1105, 2915.729
310.5927, 2932.557
311.0748, 2949.365
311.5569, 2965.423
312.0390, 2980.704
312.5211, 2995.503
313.0032, 3009.895
313.4854, 3024.165
313.9675, 3038.419
314.4496, 3054.192
314.9317, 3068.657
315.4138, 3080.193
315.8959, 3089.125
316.3781, 3097.688
316.8602, 3108.722
317.3423, 3118.640
317.8244, 3124.650
318.3065, 3124.192
318.7886, 3122.570
319.2708, 3121.675
319.7529, 3120.940
320.2350, 3118.775
320.7171, 3115.317
321.1992, 3109.826
321.6813, 3101.680
322.1635, 3089.864
322.6456, 3077.425
323.1277, 3064.881
323.6098, 3052.032
324.0919, 3038.514
324.5740, 3024.117
325.0562, 3009.315
325.5383, 2994.022
326.0204, 2977.895
326.5025, 2962.720
326.9846, 2949.106
327.4667, 2936.384
327.9489, 2923.670
328.4310, 2909.844
328.9131, 2897.332
329.3952, 2886.501
329.8773, 2877.392
330.3594, 2869.300
330.8416, 2861.847
331.3237, 2855.837
331.8058, 2851.974
332.2879, 2851.499
332.7700, 2850.931
333.2521, 2849.097
333.7343, 2846.765
334.2164, 2848.042
334.6985, 2854.692
335.1806, 2862.105
335.6627, 2867.383
336.1448, 2868.684
336.6270, 2873.533
337.1091, 2883.175
337.5912, 2895.590
338.0733, 2906.649
338.5554, 2915.591
339.0375, 2925.343
339.5197, 2937.413
340.0018, 2951.857
340.4839, 2966.089
340.9660, 2980.017
341.4481, 2993.352
341.9302, 3005.410
342.4124, 3016.265
342.8945, 3026.054
343.3766, 3035.128
343.8587, 3043.175
344.3408, 3049.469
344.8229, 3054.065
345.3051, 3056.156
345.7872, 3055.053
346.2693, 3050.828
346.7514, 3043.688
347.2335, 3033.640
347.7156, 3020.875
348.1978, 3005.778
348.6799, 2988.406
349.1620, 2969.145
349.6441, 2947.377
350.1262, 2924.001
350.6083, 2901.147
351.0905, 2878.876
351.5726, 2857.062
352.0547, 2835.420
352.5368, 2814.001
353.0189, 2792.970
353.5010, 2771.270
353.9832, 2750.515
354.4653, 2733.222
354.9474, 2719.419
355.4295, 2706.569
355.9116, 2692.167
356.3937, 2677.417
356.8759, 2664.334
357.3580, 2654.823
357.8401, 2646.084
358.3222, 2636.128
358.8043, 2625.108
359.2864, 2614.471
359.7686, 2604.876
360.2507, 2595.994
360.7328, 2587.518
361.2149, 2578.515
361.6970, 2571.205
362.1791, 2567.474
362.6613, 2566.086
363.1434, 2564.224
363.6255, 2560.962
364.1076, 2557.000
364.5897, 2552.258
365.0718, 2546.208
365.5540, 2541.505
366.0361, 2538.707
366.5182, 2537.482
367.0003, 2537.441
367.4824, 2542.332
367.9645, 2544.552
368.4467, 2541.166
368.9288, 2531.908
369.4109, 2525.053
369.8930, 2521.533
370.3751, 2519.774
370.8572, 2518.823
371.3394, 2519.274
371.8215, 2519.621
372.3036, 2519.779
372.7857, 2519.755
373.2678, 2519.498
373.7499, 2518.644
374.2321, 2518.131
374.7142, 2518.480
375.1963, 2519.925
375.6784, 2521.176
376.1605, 2522.249
376.6426, 2523.039
377.1248, 2523.038
377.6069, 2521.946
378.0890, 2521.875
378.5711, 2524.176
379.0532, 2528.310
379.5353, 2529.624
380.0175, 2527.616
380.4996, 2525.421
380.9817, 2526.518
381.4638, 2530.470
381.9459, 2533.548
382.4280, 2534.670
382.9102, 2534.910
383.3923, 2536.317
383.8744, 2538.793
384.3565, 2541.398
384.8386, 2543.184
385.3207, 2544.695
385.8029, 2547.110
386.2850, 2550.672
386.7671, 2554.550
387.2492, 2557.937
387.7313, 2561.013
388.2134, 2564.129
388.6956, 2568.247
389.1777, 2571.944
389.6598, 2573.549
390.1419, 2573.171
390.6240, 2572.822
391.1061, 2573.494
391.5883, 2574.982
392.0704, 2577.037
392.5525, 2579.291
393.0346, 2582.576
393.5167, 2588.150
393.9988, 2595.211
394.4810, 2601.543
394.9631, 2604.876
395.4452, 2608.459
395.9273, 2614.201
396.4094, 2623.165
396.8915, 2631.553
397.3737, 2637.516
397.8558, 2642.875
398.3379, 2649.872
398.8200, 2659.995
399.3021, 2670.353
399.7842, 2680.720
400.2664, 2691.059
400.7485, 2700.225
401.2306, 2706.325
401.7127, 2712.912
402.1948, 2722.354
402.6769, 2736.012
403.1591, 2749.528
403.6412, 2762.706
404.1233, 2775.529
404.6054, 2788.440
405.0875, 2801.537
405.5696, 2814.066
406.0518, 2825.177
406.5339, 2834.793
407.0160, 2846.597
407.4981, 2860.588
407.9802, 2876.562
408.4623, 2894.717
408.9445, 2915.133
409.4266, 2935.760
409.9087, 2955.706
410.3908, 2975.857
410.8729, 2997.696
411.3550, 3021.379
411.8372, 3047.325
412.3193, 3077.359
412.8014, 3110.024
413.2835, 3141.757
413.7656, 3171.881
414.2477, 3202.697
414.7299, 3236.469
415.2120, 3272.728
415.6941, 3309.415
416.1762, 3345.003
416.6583, 3381.335
417.1404, 3419.662
417.6226, 3460.311
418.1047, 3503.270
418.5868, 3548.456
419.0689, 3596.219
419.5510, 3647.799
420.0331, 3704.840
420.5153, 3763.423
420.9974, 3818.718
421.4795, 3873.846
421.9616, 3934.544
422.4437, 4007.211
422.9258, 4082.446
423.4080, 4156.097
423.8901, 4227.777
424.3722, 4301.180
424.8543, 4377.687
425.3364, 4455.713
425.8185, 4533.367
426.3007, 4612.253
426.7828, 4689.759
427.2649, 4765.042
427.7470, 4838.206
428.2291, 4912.776
428.7112, 4989.758
429.1934, 5065.386
429.6755, 5137.439
430.1576, 5203.262
430.6397, 5276.256
431.1218, 5355.524
431.6039, 5443.557
432.0861, 5545.347
432.5682, 5661.070
433.0503, 5789.300
433.5324, 5930.287
434.0145, 6084.162
434.4966, 6252.032
434.9788, 6434.031
435.4609, 6626.803
435.9430, 6834.673
436.4251, 7053.640
436.9072, 7271.670
437.3893, 7489.399
437.8715, 7702.752
438.3536, 7915.550
438.8357, 8121.463
439.3178, 8302.771
439.7999, 8462.904
440.2820, 8586.718
440.7642, 8657.363
441.2463, 8674.467
441.7284, 8651.226
442.2105, 8568.429
442.6926, 8461.127
443.1747, 8362.185
443.6569, 8264.451
444.1390, 8195.094
444.6211, 8161.345
445.1032, 8162.400
445.5853, 8197.193
446.0674, 8270.495
446.5496, 8373.006
447.0317, 8503.448
447.5138, 8666.931
447.9959, 8845.166
448.4780, 9049.511
448.9601, 9262.128
449.4423, 9472.176
449.9244, 9690.862
450.4065, 9882.156
450.8886, 10052.34
451.3707, 10189.65
451.8528, 10249.74
452.3350, 10228.89
452.8171, 10139.96
453.2992, 9976.470
453.7813, 9736.480
454.2634, 9480.241
454.7455, 9202.078
455.2277, 8922.403
455.7098, 8657.097
456.1919, 8409.057
456.6740, 8181.638
457.1561, 7987.188
457.6382, 7810.074
458.1204, 7638.109
458.6025, 7467.487
459.0846, 7282.185
459.5667, 7069.491
460.0488, 6834.121
460.5309, 6576.649
461.0131, 6294.113
461.4952, 6008.650
461.9773, 5727.449
462.4594, 5458.922
462.9415, 5211.584
463.4236, 4989.563
463.9058, 4792.518
464.3879, 4620.781
464.8700, 4475.425
465.3521, 4345.320
465.8342, 4229.877
466.3163, 4126.002
466.7985, 4031.829
467.2806, 3948.323
467.7627, 3873.066
468.2448, 3807.706
468.7269, 3750.439
469.2090, 3698.039
469.6912, 3650.187
470.1733, 3606.821
470.6554, 3567.991
471.1375, 3533.636
471.6196, 3503.422
472.1017, 3477.623
472.5839, 3455.088
473.0660, 3434.981
473.5481, 3417.416
474.0302, 3400.839
474.5123, 3385.164
474.9944, 3370.480
475.4766, 3357.720
475.9587, 3346.509
476.4408, 3334.195
476.9229, 3319.782
477.4050, 3303.819
477.8871, 3286.757
478.3693, 3268.759
478.8514, 3251.097
479.3335, 3235.304
479.8156, 3220.015
480.2977, 3203.329
480.7798, 3184.208
481.2620, 3166.210
481.7441, 3151.458
482.2262, 3139.106
482.7083, 3127.917
483.1904, 3118.825
483.6725, 3109.391
484.1547, 3098.135
484.6368, 3085.283
485.1189, 3073.823
485.6010, 3065.527
486.0831, 3057.598
486.5652, 3048.593
487.0474, 3037.349
487.5295, 3027.436
488.0116, 3019.682
488.4937, 3012.757
488.9758, 3004.310
489.4579, 2993.145
489.9401, 2984.221
490.4222, 2979.377
490.9043, 2977.585
491.3864, 2973.719
491.8685, 2967.529
492.3506, 2960.851
492.8328, 2954.984
493.3149, 2949.740
493.7970, 2944.052
494.2791, 2937.776
494.7612, 2931.386
495.2433, 2924.647
495.7255, 2918.143
496.2076, 2913.367
496.6897, 2912.604
497.1718, 2912.142
497.6539, 2907.881
498.1360, 2900.729
498.6182, 2894.056
499.1003, 2889.762
499.5824, 2886.530
500.0645, 2883.631
500.5466, 2880.932
501.0287, 2878.435
501.5109, 2877.022
501.9930, 2875.370
502.4751, 2872.176
502.9572, 2864.550
503.4393, 2858.601
503.9214, 2855.676
504.4036, 2854.969
504.8857, 2853.584
505.3678, 2851.057
505.8499, 2848.648
506.3320, 2846.996
506.8141, 2846.196
507.2963, 2844.672
507.7784, 2842.016
508.2605, 2839.714
508.7426, 2839.797
509.2247, 2842.054
509.7068, 2843.259
510.1890, 2842.716
510.6711, 2841.018
511.1532, 2838.747
511.6353, 2836.030
512.1174, 2833.587
512.5995, 2831.278
513.0817, 2829.671
513.5638, 2830.250
514.0459, 2832.871
514.5280, 2834.426
515.0101, 2832.066
515.4922, 2828.182
515.9744, 2824.975
516.4565, 2822.922
516.9386, 2821.580
517.4207, 2820.949
517.9028, 2820.943
518.3849, 2821.398
518.8671, 2822.662
519.3492, 2824.021
519.8313, 2826.034
520.3134, 2828.475
520.7955, 2827.740
521.2776, 2820.785
521.7598, 2815.090
522.2419, 2815.954
522.7240, 2825.394
523.2061, 2830.240
523.6882, 2829.460
524.1703, 2825.854
524.6525, 2822.110
525.1346, 2818.349
525.6167, 2816.977
526.0988, 2819.505
526.5809, 2823.850
527.0630, 2826.724
527.5452, 2828.154
528.0273, 2828.301
528.5094, 2825.404
528.9915, 2822.279
529.4736, 2822.680
529.9557, 2826.993
530.4379, 2831.226
530.9200, 2831.706
531.4021, 2831.527
531.8842, 2834.021
532.3663, 2844.510
532.8484, 2851.139
533.3306, 2847.335
533.8127, 2837.862
534.2948, 2832.935
534.7769, 2838.426
535.2590, 2842.586
535.7411, 2841.986
536.2233, 2836.857
536.7054, 2834.772
537.1875, 2837.077
537.6696, 2839.969
538.1517, 2840.802
538.6339, 2839.377
539.1160, 2838.823
539.5981, 2839.308
540.0802, 2840.758
540.5623, 2843.869
541.0444, 2848.187
541.5266, 2851.108
542.0087, 2851.194
542.4908, 2850.171
542.9729, 2850.254
543.4550, 2851.297
543.9371, 2852.762
544.4193, 2853.843
544.9014, 2855.533
545.3835, 2859.251
545.8656, 2865.240
546.3477, 2870.182
546.8298, 2872.421
547.3120, 2873.234
547.7941, 2873.629
548.2762, 2872.731
548.7583, 2872.840
549.2404, 2874.965
549.7225, 2877.917
550.2047, 2879.641
550.6868, 2879.539
551.1689, 2879.326
551.6510, 2879.315
552.1331, 2879.545
552.6152, 2880.213
553.0974, 2881.346
553.5795, 2882.972
554.0616, 2885.612
554.5437, 2888.989
555.0258, 2891.102
555.5079, 2891.744
555.9901, 2892.205
556.4722, 2894.124
556.9543, 2896.868
557.4364, 2899.033
557.9185, 2899.827
558.4006, 2900.530
558.8828, 2902.196
559.3649, 2904.501
559.8470, 2906.768
560.3291, 2908.452
560.8112, 2910.153
561.2933, 2911.769
561.7755, 2913.260
562.2576, 2915.963
562.7397, 2922.232
563.2218, 2927.862
563.7039, 2930.678
564.1860, 2929.454
564.6682, 2928.587
565.1503, 2928.138
565.6324, 2928.046
566.1145, 2928.199
566.5966, 2928.616
567.0787, 2929.724
567.5609, 2931.951
568.0430, 2934.636
568.5251, 2936.000
569.0072, 2936.268
569.4893, 2936.938
569.9714, 2938.742
570.4536, 2941.499
570.9357, 2945.174
571.4178, 2949.687
571.8999, 2954.351
572.3820, 2959.179
572.8641, 2963.616
573.3463, 2966.871
573.8284, 2968.164
574.3105, 2970.045
574.7926, 2974.285
575.2747, 2979.129
575.7568, 2982.322
576.2390, 2981.515
576.7211, 2981.979
577.2032, 2984.837
577.6853, 2989.346
578.1674, 2992.641
578.6495, 2994.024
579.1317, 2996.349
579.6138, 3001.645
580.0959, 3009.272
580.5780, 3013.085
581.0601, 3012.789
581.5422, 3012.480
582.0244, 3016.117
582.5065, 3022.391
582.9886, 3027.684
583.4707, 3031.321
583.9528, 3035.514
584.4349, 3042.370
584.9171, 3051.044
585.3992, 3060.297
585.8813, 3070.824
586.3634, 3080.621
586.8455, 3087.901
587.3276, 3093.695
587.8098, 3100.583
588.2919, 3107.656
588.7740, 3117.358
589.2561, 3130.962
589.7382, 3148.526
