##NAMES=Caledonite
##RRUFFID=R060506
##IDEAL CHEMISTRY=Cu^2+^_2_Pb^2+^_5_(S^6+^O_4_)_3_(CO_3_)(OH)_6_
##LOCALITY=Rowley mine, Maricopa County, Arizona, USA
##OWNER=RRUFF
##SOURCE=Jim Ricker
##DESCRIPTION=Blue prismatic crystals
##STATUS=The identification of this mineral has been confirmed by single-crystal X-ray diffraction.
##URL=rruff.info/R060506
90.59570, 1308.159
91.07782, 1296.181
91.55994, 1291.986
92.04205, 1300.803
92.52417, 1313.881
93.00629, 1328.668
93.48840, 1337.184
93.97052, 1330.640
94.45264, 1305.804
94.93475, 1279.435
95.41687, 1254.994
95.89898, 1233.120
96.38110, 1213.732
96.86321, 1197.033
97.34533, 1182.257
97.82745, 1166.557
98.30956, 1151.581
98.79168, 1136.105
99.27380, 1122.792
99.75591, 1112.374
100.2380, 1104.242
100.7201, 1097.346
101.2023, 1091.221
101.6844, 1085.797
102.1665, 1080.531
102.6486, 1074.290
103.1307, 1068.714
103.6128, 1065.297
104.0950, 1064.028
104.5771, 1064.365
105.0592, 1066.149
105.5413, 1068.877
106.0234, 1072.048
106.5055, 1075.193
106.9877, 1078.515
107.4698, 1083.206
107.9519, 1090.982
108.4340, 1097.878
108.9161, 1102.380
109.3982, 1104.748
109.8804, 1105.682
110.3625, 1105.274
110.8446, 1102.834
111.3267, 1102.681
111.8088, 1106.754
112.2909, 1111.306
112.7731, 1115.316
113.2552, 1118.264
113.7373, 1119.629
114.2194, 1118.611
114.7015, 1114.104
115.1836, 1108.665
115.6658, 1102.922
116.1479, 1096.032
116.6300, 1087.120
117.1121, 1075.833
117.5942, 1062.564
118.0763, 1047.979
118.5584, 1031.857
119.0406, 1015.275
119.5227, 997.8421
120.0048, 980.0883
120.4869, 963.4158
120.9690, 948.8251
121.4511, 935.5976
121.9333, 921.9300
122.4154, 907.6066
122.8975, 893.1983
123.3796, 879.6039
123.8617, 866.9469
124.3438, 853.7277
124.8260, 838.9326
125.3081, 823.3591
125.7902, 807.3594
126.2723, 790.8895
126.7544, 774.4651
127.2365, 759.5092
127.7187, 746.5255
128.2008, 734.2557
128.6829, 722.0830
129.1650, 710.2327
129.6471, 699.0710
130.1292, 688.8317
130.6114, 679.4879
131.0935, 670.6507
131.5756, 662.7771
132.0577, 654.9531
132.5398, 646.7708
133.0219, 638.4278
133.5041, 630.4579
133.9862, 623.2767
134.4683, 616.9044
134.9504, 611.2927
135.4325, 606.2100
135.9146, 601.8689
136.3968, 598.7436
136.8789, 596.7444
137.3610, 594.9944
137.8431, 592.4629
138.3252, 588.8849
138.8073, 585.8640
139.2895, 584.0203
139.7716, 582.5595
140.2537, 580.6283
140.7358, 578.0779
141.2179, 574.9341
141.7000, 571.0294
142.1821, 566.4532
142.6643, 561.8215
143.1464, 557.6183
143.6285, 553.6213
144.1106, 548.9843
144.5927, 543.4052
145.0748, 537.1872
145.5570, 530.5193
146.0391, 523.4296
146.5212, 516.3850
147.0033, 509.7848
147.4854, 503.6466
147.9675, 497.6877
148.4497, 492.2210
148.9318, 486.6268
149.4139, 480.3814
149.8960, 473.4376
150.3781, 466.3065
150.8602, 459.7905
151.3424, 453.9173
151.8245, 448.5675
152.3066, 443.6217
152.7887, 439.1020
153.2708, 435.0529
153.7529, 431.5044
154.2351, 428.3252
154.7172, 425.2116
155.1993, 422.4290
155.6814, 419.3915
156.1635, 416.1220
156.6456, 412.5721
157.1278, 408.5895
157.6099, 404.0595
158.0920, 399.2075
158.5741, 395.0307
159.0562, 391.9697
159.5383, 388.9683
160.0205, 385.6782
160.5026, 382.2589
160.9847, 379.1064
161.4668, 376.5161
161.9489, 374.3561
162.4310, 372.0298
162.9131, 369.4930
163.3953, 366.8625
163.8774, 364.1407
164.3595, 361.3423
164.8416, 358.6722
165.3237, 356.3225
165.8058, 354.1844
166.2880, 351.9818
166.7701, 349.6049
167.2522, 347.2043
167.7343, 344.9490
168.2164, 342.8496
168.6985, 340.8647
169.1807, 339.1553
169.6628, 337.5163
170.1449, 335.6445
170.6270, 333.3011
171.1091, 330.7375
171.5912, 328.5456
172.0734, 326.8584
172.5555, 325.3329
173.0376, 323.9623
173.5197, 322.6052
174.0018, 320.9969
174.4839, 318.8652
174.9661, 316.3755
175.4482, 314.5951
175.9303, 314.3394
176.4124, 313.9214
176.8945, 312.8007
177.3766, 311.2057
177.8588, 309.5799
178.3409, 308.2347
178.8230, 307.1695
179.3051, 306.1266
179.7872, 305.0660
180.2693, 304.0622
180.7515, 303.1745
181.2336, 302.3687
181.7157, 301.5824
182.1978, 300.7742
182.6799, 299.9567
183.1620, 298.9503
183.6441, 297.4612
184.1263, 296.0801
184.6084, 295.2096
185.0905, 294.7889
185.5726, 294.4072
186.0547, 293.7073
186.5368, 292.6410
187.0190, 291.4348
187.5011, 289.8412
187.9832, 288.2975
188.4653, 287.1833
188.9474, 286.5325
189.4296, 286.0237
189.9117, 285.4536
190.3938, 284.8024
190.8759, 283.7550
191.3580, 281.8576
191.8401, 279.7440
192.3223, 278.1657
192.8044, 277.2667
193.2865, 276.5797
193.7686, 275.6260
194.2507, 274.5022
194.7328, 273.5438
195.2150, 273.0785
195.6971, 272.8078
196.1792, 272.0239
196.6613, 270.3797
197.1434, 268.8704
197.6255, 268.4340
198.1077, 268.7200
198.5898, 268.8637
199.0719, 268.2863
199.5540, 267.1646
200.0361, 266.2740
200.5182, 265.7399
201.0004, 265.3017
201.4825, 264.7112
201.9646, 264.0783
202.4467, 263.6930
202.9288, 263.9391
203.4109, 264.7552
203.8930, 265.0350
204.3752, 264.1476
204.8573, 263.3541
205.3394, 263.2245
205.8215, 263.5913
206.3036, 263.9862
206.7857, 263.9926
207.2679, 263.5797
207.7500, 263.3918
208.2321, 263.9100
208.7142, 264.2208
209.1963, 263.6838
209.6784, 262.6187
210.1606, 261.9215
210.6427, 262.5248
211.1248, 264.6799
211.6069, 265.8370
212.0890, 265.1688
212.5711, 264.3760
213.0533, 264.0505
213.5354, 264.2037
214.0175, 264.5891
214.4996, 265.0027
214.9817, 265.4578
215.4638, 265.8453
215.9460, 266.2773
216.4281, 266.5666
216.9102, 266.5375
217.3923, 266.2438
217.8744, 265.9262
218.3565, 265.8043
218.8387, 265.9064
219.3208, 266.0029
219.8029, 265.9457
220.2850, 265.9996
220.7671, 266.3872
221.2492, 267.0856
221.7314, 267.8592
222.2135, 268.5497
222.6956, 269.1361
223.1777, 269.4845
223.6598, 269.4075
224.1419, 269.2337
224.6240, 269.2567
225.1062, 269.4796
225.5883, 269.6114
226.0704, 269.3388
226.5525, 268.7281
227.0346, 268.3429
227.5167, 268.2956
227.9989, 268.4408
228.4810, 268.7229
228.9631, 269.1456
229.4452, 269.5063
229.9273, 269.6751
230.4094, 269.6581
230.8916, 269.4754
231.3737, 269.0628
231.8558, 268.5208
232.3379, 267.8806
232.8200, 267.1035
233.3021, 266.5039
233.7843, 266.5765
234.2664, 266.9049
234.7485, 266.8268
235.2306, 266.0231
235.7127, 264.8705
236.1948, 263.8664
236.6770, 263.0402
237.1591, 262.2171
237.6412, 261.1602
238.1233, 260.0977
238.6054, 259.3183
239.0875, 258.9907
239.5697, 258.8686
240.0518, 258.6211
240.5339, 258.2936
241.0160, 257.6764
241.4981, 256.4197
241.9802, 254.9595
242.4624, 253.6988
242.9445, 252.7874
243.4266, 252.0992
243.9087, 251.4324
244.3908, 250.7859
244.8729, 250.1657
245.3550, 249.7631
245.8372, 249.2930
246.3193, 248.4335
246.8014, 247.0555
247.2835, 245.4761
247.7656, 244.3072
248.2477, 243.9149
248.7299, 243.0358
249.2120, 241.1198
249.6941, 238.8974
250.1762, 236.9363
250.6583, 235.4034
251.1404, 234.0501
251.6226, 232.4209
252.1047, 230.3408
252.5868, 228.4019
253.0689, 226.6620
253.5510, 225.0543
254.0331, 223.5668
254.5153, 222.1848
254.9974, 220.8268
255.4795, 219.3429
255.9616, 217.6337
256.4437, 216.0281
256.9258, 214.5561
257.4080, 213.1526
257.8901, 211.7878
258.3722, 210.4503
258.8543, 209.1117
259.3364, 207.6944
259.8185, 205.9990
260.3007, 204.7677
260.7828, 204.2716
261.2649, 203.9152
261.7470, 203.4089
262.2291, 202.6807
262.7112, 201.7476
263.1934, 200.5711
263.6755, 198.9578
264.1576, 197.8423
264.6397, 197.6650
265.1218, 197.5181
265.6039, 196.8215
266.0861, 195.6199
266.5682, 194.3858
267.0503, 193.5992
267.5324, 193.3607
268.0145, 192.9480
268.4966, 192.3531
268.9788, 191.6339
269.4609, 190.7965
269.9430, 189.8564
270.4251, 188.8101
270.9072, 187.5985
271.3893, 186.2068
271.8715, 185.3894
272.3536, 185.6121
272.8357, 185.8215
273.3178, 185.4847
273.7999, 184.7484
274.2820, 184.1103
274.7642, 183.9407
275.2463, 184.1766
275.7284, 184.0255
276.2105, 183.0880
276.6926, 182.2896
277.1747, 182.0257
277.6568, 182.1359
278.1389, 182.2852
278.6211, 182.3232
279.1032, 182.2191
279.5853, 181.8022
280.0674, 180.8389
280.5495, 179.9061
281.0316, 179.0951
281.5138, 178.4168
281.9959, 177.9285
282.4780, 177.6813
282.9601, 177.5556
283.4422, 177.2240
283.9243, 176.4673
284.4065, 175.9406
284.8886, 176.0278
285.3707, 176.3607
285.8528, 176.3293
286.3349, 175.6984
286.8170, 174.8699
287.2992, 174.5506
287.7813, 174.8819
288.2634, 175.1850
288.7455, 175.4232
289.2276, 175.5517
289.7097, 175.4193
290.1919, 174.9778
290.6740, 174.5687
291.1561, 174.6904
291.6382, 175.4420
292.1203, 175.9323
292.6024, 175.8359
293.0846, 175.5738
293.5667, 175.5661
294.0488, 175.8650
294.5309, 176.2541
295.0130, 176.5773
295.4951, 176.8211
295.9773, 176.9046
296.4594, 176.5847
296.9415, 176.2758
297.4236, 176.3637
297.9057, 176.8309
298.3878, 177.2952
298.8700, 177.4286
299.3521, 177.3286
299.8342, 177.5853
300.3163, 178.4190
300.7984, 179.3949
301.2805, 180.4736
301.7627, 181.5554
302.2448, 182.1613
302.7269, 181.8708
303.2090, 181.0534
303.6911, 180.8555
304.1732, 181.6629
304.6554, 182.3968
305.1375, 182.4794
305.6196, 182.1167
306.1017, 181.8309
306.5838, 181.8129
307.0659, 181.9738
307.5481, 182.1333
308.0302, 182.2462
308.5123, 182.5012
308.9944, 183.2226
309.4765, 184.0729
309.9586, 184.3886
310.4408, 183.9357
310.9229, 183.2043
311.4050, 182.8208
311.8871, 182.7780
312.3692, 182.8181
312.8513, 182.9818
313.3335, 183.1602
313.8156, 183.2341
314.2977, 183.1855
314.7798, 183.0373
315.2619, 182.8121
315.7440, 182.4992
316.2262, 182.0561
316.7083, 181.4444
317.1904, 180.7240
317.6725, 179.8705
318.1546, 178.9017
318.6367, 178.0402
319.1188, 177.4773
319.6010, 177.1462
320.0831, 176.6749
320.5652, 176.0485
321.0473, 175.3020
321.5294, 174.3306
322.0115, 173.2254
322.4937, 172.3228
322.9758, 171.8466
323.4579, 171.5981
323.9400, 171.0591
324.4221, 170.0723
324.9042, 169.1860
325.3864, 168.6813
325.8685, 168.3956
326.3506, 167.9798
326.8327, 167.2910
327.3148, 166.5694
327.7969, 166.2692
328.2791, 166.4931
328.7612, 166.4739
329.2433, 165.8281
329.7254, 164.9795
330.2075, 164.4515
330.6896, 164.3345
331.1718, 164.3192
331.6539, 164.1082
332.1360, 163.6817
332.6181, 163.2429
333.1002, 162.5755
333.5823, 162.0685
334.0645, 162.1487
334.5466, 162.7483
335.0287, 163.3091
335.5108, 163.4432
335.9929, 163.1944
336.4750, 162.9708
336.9572, 162.6857
337.4393, 162.5063
337.9214, 162.5457
338.4035, 162.7448
338.8856, 163.0063
339.3677, 163.3209
339.8499, 163.5865
340.3320, 163.4906
340.8141, 162.9117
341.2962, 162.2603
341.7783, 161.6753
342.2604, 161.0367
342.7426, 160.1121
343.2247, 158.8381
343.7068, 157.5108
344.1889, 156.5466
344.6710, 156.0859
345.1531, 155.6496
345.6353, 155.3112
346.1174, 154.9495
346.5995, 154.5109
347.0816, 153.9755
347.5637, 153.2752
348.0458, 152.3407
348.5280, 151.1550
349.0101, 149.9671
349.4922, 148.7543
349.9743, 147.5635
350.4564, 146.4115
350.9385, 145.3073
351.4207, 144.2640
351.9028, 143.2991
352.3849, 142.3961
352.8670, 141.4736
353.3491, 140.3835
353.8312, 139.4598
354.3134, 138.8696
354.7955, 138.4189
355.2776, 137.8967
355.7597, 137.2276
356.2418, 136.4399
356.7239, 135.5517
357.2061, 134.3559
357.6882, 133.5126
358.1703, 133.2432
358.6524, 133.1232
359.1345, 132.8956
359.6166, 132.5228
360.0987, 132.0918
360.5808, 131.6937
361.0630, 131.3451
361.5451, 130.8560
362.0272, 129.9480
362.5093, 129.1965
362.9914, 128.8694
363.4735, 128.8344
363.9557, 128.8554
364.4378, 128.8000
364.9199, 128.6554
365.4020, 128.3562
365.8841, 127.7270
366.3662, 127.1813
366.8484, 126.7955
367.3305, 126.4992
367.8126, 126.2524
368.2947, 126.0351
368.7768, 125.7918
369.2589, 125.4130
369.7411, 124.8161
370.2232, 124.3121
370.7053, 123.9880
371.1874, 123.6869
371.6695, 123.3286
372.1516, 122.9117
372.6338, 122.4656
373.1159, 121.9865
373.5980, 121.4805
374.0801, 121.1384
374.5622, 121.0286
375.0443, 121.0163
375.5265, 121.0276
376.0086, 121.1042
376.4907, 121.3699
376.9728, 121.9551
377.4549, 122.5977
377.9370, 122.6488
378.4192, 121.8760
378.9013, 121.1680
379.3834, 120.7594
379.8655, 120.5149
380.3476, 120.3689
380.8297, 120.3065
381.3119, 120.2748
381.7940, 120.2338
382.2761, 120.1834
382.7582, 120.1019
383.2403, 119.9746
383.7224, 119.8278
384.2046, 119.6012
384.6867, 119.3514
385.1688, 119.2746
385.6509, 119.6817
386.1330, 120.3003
386.6151, 120.4239
387.0973, 119.8941
387.5794, 119.4399
388.0615, 119.7028
388.5436, 120.2397
389.0257, 120.3783
389.5078, 119.8011
389.9900, 119.1503
390.4721, 119.0510
390.9542, 119.4321
391.4363, 119.7228
391.9184, 119.6632
392.4005, 119.5287
392.8827, 119.7021
393.3648, 120.1903
393.8469, 120.7637
394.3290, 121.4976
394.8111, 122.2090
395.2932, 122.5098
395.7754, 122.3114
396.2575, 122.1020
396.7396, 122.3614
397.2217, 123.0456
397.7038, 123.5345
398.1859, 123.5992
398.6681, 123.6445
399.1501, 123.9384
399.6323, 124.4419
400.1144, 124.9582
400.5965, 125.3478
401.0786, 125.7522
401.5607, 126.6367
402.0428, 128.4290
402.5250, 129.8767
403.0071, 130.5019
403.4892, 130.7899
403.9713, 131.2607
404.4534, 132.0373
404.9355, 132.9888
405.4177, 133.9693
405.8998, 134.9662
406.3819, 136.0391
406.8640, 137.2881
407.3461, 138.5037
407.8282, 139.3919
408.3104, 140.1564
408.7925, 141.3508
409.2746, 143.3833
409.7567, 146.0066
410.2388, 148.1035
410.7209, 149.0050
411.2031, 150.2265
411.6852, 152.1469
412.1673, 154.2976
412.6494, 156.1563
413.1315, 157.6209
413.6136, 159.0852
414.0958, 161.1257
414.5779, 163.9450
415.0600, 166.5682
415.5421, 168.7765
416.0242, 170.9765
416.5063, 173.2487
416.9885, 175.6473
417.4706, 178.2065
417.9527, 180.9642
418.4348, 183.9064
418.9169, 187.0754
419.3990, 190.5979
419.8812, 194.0305
420.3633, 196.9339
420.8454, 199.8311
421.3275, 203.2865
421.8096, 207.4436
422.2917, 211.7252
422.7739, 215.5825
423.2560, 219.0180
423.7381, 222.2579
424.2202, 225.2802
424.7023, 228.1658
425.1844, 231.0663
425.6666, 233.9253
426.1487, 236.5483
426.6308, 238.7791
427.1129, 240.7642
427.5950, 242.7064
428.0771, 244.6236
428.5593, 246.3920
429.0414, 247.7726
429.5235, 249.0509
430.0056, 250.8440
430.4877, 253.3828
430.9698, 255.9219
431.4520, 257.8842
431.9341, 259.6085
432.4162, 261.6270
432.8983, 263.9940
433.3804, 267.1603
433.8625, 271.8267
434.3447, 278.2169
434.8268, 284.5421
435.3089, 290.1364
435.7910, 296.1666
436.2731, 303.5787
436.7552, 312.1226
437.2374, 320.9447
437.7195, 329.6074
438.2016, 338.0455
438.6837, 345.8549
439.1658, 352.9144
439.6479, 359.4990
440.1301, 366.4785
440.6122, 372.4878
441.0943, 376.1948
441.5764, 377.3332
442.0585, 376.4564
442.5406, 373.9662
443.0227, 369.5875
443.5049, 365.5737
443.9870, 361.6741
444.4691, 358.4281
444.9512, 355.8608
445.4333, 354.1201
445.9154, 353.3551
446.3976, 353.6438
446.8797, 355.0331
447.3618, 357.6732
447.8439, 361.6880
448.3260, 366.5943
448.8081, 373.0742
449.2903, 379.8960
449.7724, 386.5363
450.2545, 392.8607
450.7366, 398.6531
451.2187, 404.2970
451.7008, 409.3812
452.1830, 411.9792
452.6651, 411.9111
453.1472, 409.6794
453.6293, 404.8684
454.1114, 398.2206
454.5935, 390.4985
455.0757, 381.7858
455.5578, 372.2311
456.0399, 361.5103
456.5220, 349.9291
457.0041, 338.6727
457.4862, 328.1591
457.9684, 317.8744
458.4505, 307.0499
458.9326, 295.7011
459.4147, 284.5624
459.8968, 273.7317
460.3789, 263.2339
460.8611, 252.9677
461.3432, 243.0053
461.8253, 233.7524
462.3074, 225.4712
462.7895, 218.0080
463.2716, 210.5311
463.7538, 202.3280
464.2359, 195.0334
464.7180, 188.9993
465.2001, 183.8031
465.6822, 179.1572
466.1643, 174.9220
466.6465, 170.9462
467.1286, 167.0380
467.6107, 163.1187
468.0928, 159.7409
468.5749, 157.3987
469.0570, 155.0757
469.5392, 152.4175
470.0213, 149.6370
470.5034, 146.9943
470.9855, 144.5844
471.4676, 142.6112
471.9497, 141.6904
472.4319, 142.2363
472.9140, 142.0121
473.3961, 140.0039
473.8782, 137.7126
474.3603, 135.9090
474.8424, 134.5837
475.3246, 133.4115
475.8067, 132.2417
476.2888, 131.0930
476.7709, 129.9901
477.2530, 128.9378
477.7351, 127.9315
478.2173, 126.9758
478.6994, 126.0648
479.1815, 125.1881
479.6636, 124.3454
480.1457, 123.5413
480.6278, 122.8074
481.1100, 122.1063
481.5920, 121.3542
482.0742, 120.5333
482.5563, 119.7173
483.0384, 118.9432
483.5205, 118.2228
484.0026, 117.6629
484.4847, 117.6298
484.9669, 117.3533
485.4490, 116.2586
485.9311, 114.7588
486.4132, 113.5697
486.8953, 112.9547
487.3774, 112.7150
487.8596, 112.5657
488.3417, 112.6533
488.8238, 112.4104
489.3059, 111.5326
489.7880, 110.6736
490.2701, 110.1885
490.7523, 109.9814
491.2344, 109.7781
491.7165, 109.4131
492.1986, 108.9503
492.6807, 108.5862
493.1628, 108.4021
493.6450, 108.0948
494.1271, 107.4373
494.6092, 106.7562
495.0913, 106.3254
495.5734, 106.1304
496.0555, 105.8662
496.5377, 105.2162
497.0198, 104.3483
497.5019, 103.7355
497.9840, 103.4179
498.4661, 103.2131
498.9482, 103.0895
499.4304, 102.9885
499.9125, 102.7842
500.3946, 102.4039
500.8767, 102.0823
501.3588, 102.0000
501.8409, 102.0363
502.3231, 102.0268
502.8052, 101.9405
503.2873, 101.6386
503.7694, 100.9129
504.2515, 99.73813
504.7336, 98.95558
505.2158, 98.77985
505.6979, 98.70787
506.1800, 98.61201
506.6621, 98.48930
507.1442, 98.34183
507.6263, 98.17216
508.1085, 98.00546
508.5906, 97.89129
509.0727, 97.86422
509.5548, 97.76266
510.0369, 97.47373
510.5190, 97.22265
511.0012, 97.15468
511.4833, 97.17867
511.9654, 97.10828
512.4475, 96.83784
512.9296, 96.47098
513.4117, 96.17837
513.8939, 95.95918
514.3760, 95.81748
514.8581, 95.79633
515.3402, 95.81406
515.8223, 95.84707
516.3044, 95.87668
516.7866, 95.78878
517.2687, 95.48375
517.7508, 95.06478
518.2329, 94.56322
518.7150, 94.00607
519.1971, 93.74590
519.6793, 94.05724
520.1614, 94.63675
520.6435, 94.75286
521.1256, 94.24471
521.6077, 93.85239
522.0898, 93.79641
522.5720, 93.83829
523.0541, 93.81020
523.5362, 93.68241
524.0183, 93.42640
524.5004, 92.99035
524.9825, 92.45387
525.4647, 92.23946
525.9468, 92.74915
526.4289, 93.01049
526.9110, 92.83553
527.3931, 92.46712
527.8752, 92.01550
528.3574, 91.54763
528.8395, 91.20237
529.3216, 91.13145
529.8037, 91.29397
530.2858, 91.46395
530.7679, 91.69353
531.2501, 91.80701
531.7322, 91.65737
532.2143, 91.38501
532.6964, 91.10251
533.1785, 90.81673
533.6606, 90.59014
534.1428, 90.47316
534.6249, 90.44145
535.1070, 90.44341
535.5891, 90.47214
536.0712, 90.54475
536.5533, 90.70401
537.0355, 90.92016
537.5176, 91.01412
537.9997, 90.98884
538.4818, 90.85158
538.9639, 90.47523
539.4460, 90.04679
539.9282, 89.83730
540.4103, 89.88325
540.8924, 89.95768
541.3745, 89.79719
541.8566, 89.38787
542.3387, 89.22995
542.8209, 89.70417
543.3029, 89.97778
543.7850, 89.64049
544.2672, 89.13520
544.7493, 89.04597
545.2314, 89.50645
545.7135, 90.00155
546.1956, 89.87640
546.6777, 89.19744
547.1599, 88.76646
547.6420, 88.68167
548.1241, 88.72697
548.6062, 88.82082
549.0883, 88.94645
549.5704, 89.09716
550.0526, 89.32793
550.5347, 89.46258
551.0168, 89.30289
551.4989, 88.98318
551.9810, 88.79745
552.4631, 88.80918
552.9453, 88.85659
553.4274, 88.76171
553.9095, 88.52385
554.3916, 88.52818
554.8737, 89.12826
555.3558, 89.51070
555.8380, 89.26255
556.3201, 88.76054
556.8022, 88.42365
557.2843, 88.37873
557.7664, 88.58450
558.2485, 89.09614
558.7307, 89.93904
559.2128, 90.27332
559.6949, 89.66479
560.1770, 89.15952
560.6591, 89.26113
561.1412, 89.58202
561.6234, 89.60605
562.1055, 89.17799
562.5876, 88.73991
563.0697, 88.75915
563.5518, 89.08471
564.0339, 89.19023
564.5161, 88.98499
564.9982, 88.71050
565.4803, 88.49943
565.9624, 88.36446
566.4445, 88.32915
566.9266, 88.49589
567.4088, 88.61591
567.8909, 88.50865
568.3730, 88.35320
568.8551, 88.42256
569.3372, 88.73719
569.8193, 89.05185
570.3015, 89.12614
570.7836, 88.97583
571.2657, 88.90490
571.7478, 89.03336
572.2299, 89.07809
572.7120, 88.89314
573.1942, 88.67234
573.6763, 88.59293
574.1584, 88.68175
574.6405, 88.85147
575.1226, 89.04941
575.6047, 89.26778
576.0869, 89.51838
576.5690, 89.85591
577.0511, 89.97769
577.5332, 89.53553
578.0153, 88.90890
578.4974, 88.70883
578.9796, 89.00887
579.4617, 89.44723
579.9438, 90.02299
580.4259, 90.58605
580.9080, 90.98246
581.3901, 91.19809
581.8723, 91.24150
582.3544, 91.08520
582.8365, 90.82400
583.3186, 90.78440
583.8007, 91.20377
584.2828, 91.48846
584.7650, 91.30430
585.2471, 91.26353
585.7292, 92.00768
586.2113, 93.28825
586.6934, 94.26624
587.1755, 94.37592
587.6577, 93.93421
588.1398, 93.55478
588.6219, 93.18954
