##NAMES=Calomel
##RRUFFID=R070370
##IDEAL CHEMISTRY=HgCl
##LOCALITY=Lake County, California, USA
##OWNER=RRUFF
##SOURCE=Michael Scott
##DESCRIPTION=Colorless rounded or poorly formed crystals
##STATUS=The identification of this mineral has been confirmed only by single crystal X-ray diffraction.
##URL=rruff.info/R070370
146.2870, 2067.027
146.7691, 2209.432
147.2512, 2431.772
147.7334, 2747.442
148.2155, 3169.596
148.6976, 3642.016
149.1797, 4234.303
149.6618, 4858.191
150.1439, 5392.049
150.6261, 5787.874
151.1082, 6130.589
151.5903, 6426.638
152.0724, 6640.186
152.5545, 6887.918
153.0366, 7184.926
153.5188, 7520.265
154.0009, 7870.892
154.4830, 8195.634
154.9651, 8566.761
155.4472, 9018.380
155.9293, 9559.807
156.4115, 10171.94
156.8936, 10810.98
157.3757, 11509.16
157.8578, 12383.99
158.3399, 13466.47
158.8221, 14736.83
159.3042, 16192.83
159.7863, 17981.71
160.2684, 19810.57
160.7505, 21522.16
161.2326, 23160.96
161.7148, 24951.21
162.1969, 26700.84
162.6790, 28769.69
163.1611, 31477.28
163.6432, 36293.12
164.1253, 40716.25
164.6075, 44046.46
165.0896, 46280.49
165.5717, 45903.37
166.0538, 40345.34
166.5359, 31926.24
167.0180, 23972.89
167.5002, 17224.37
167.9823, 11785.77
168.4644, 7927.664
168.9465, 5779.537
169.4286, 4449.672
169.9107, 3561.236
170.3929, 3029.117
170.8750, 2651.396
171.3571, 2398.563
171.8392, 2221.823
172.3213, 2074.802
172.8034, 1956.041
173.2856, 1857.840
173.7677, 1778.013
174.2498, 1714.329
174.7319, 1660.441
175.2140, 1614.957
175.6961, 1576.095
176.1783, 1541.551
176.6604, 1511.576
177.1425, 1485.331
177.6246, 1462.996
178.1067, 1444.365
178.5888, 1426.612
179.0710, 1408.866
179.5531, 1390.785
180.0352, 1371.441
180.5173, 1349.282
180.9994, 1327.338
181.4815, 1312.604
181.9637, 1304.728
182.4458, 1296.787
182.9279, 1279.746
183.4100, 1256.773
183.8921, 1239.590
184.3742, 1232.702
184.8564, 1233.206
185.3385, 1236.648
185.8206, 1243.474
186.3027, 1248.198
186.7848, 1242.814
187.2669, 1228.811
187.7491, 1217.420
188.2312, 1213.819
188.7133, 1215.935
189.1954, 1215.422
189.6775, 1211.589
190.1596, 1208.262
190.6418, 1211.118
191.1239, 1219.995
191.6060, 1228.491
192.0881, 1234.318
192.5702, 1237.591
193.0524, 1238.649
193.5345, 1236.769
194.0166, 1234.543
194.4987, 1235.501
194.9808, 1239.653
195.4629, 1246.858
195.9451, 1259.404
196.4272, 1277.246
196.9093, 1288.095
197.3914, 1290.066
197.8735, 1287.409
198.3556, 1288.271
198.8378, 1293.217
199.3199, 1298.062
199.8020, 1299.807
200.2841, 1298.075
200.7662, 1298.874
201.2483, 1303.127
201.7305, 1309.569
202.2126, 1316.066
202.6947, 1323.490
203.1768, 1327.711
203.6589, 1325.124
204.1410, 1314.675
204.6232, 1305.373
205.1053, 1298.989
205.5874, 1293.834
206.0695, 1282.968
206.5516, 1263.770
207.0337, 1245.748
207.5159, 1236.472
207.9980, 1238.348
208.4801, 1238.575
208.9622, 1236.342
209.4443, 1231.263
209.9264, 1220.336
210.4086, 1200.942
210.8907, 1180.890
211.3728, 1166.334
211.8549, 1158.051
212.3370, 1152.219
212.8191, 1148.343
213.3013, 1146.452
213.7834, 1147.044
214.2655, 1151.561
214.7476, 1156.253
215.2297, 1157.132
215.7118, 1151.810
216.1940, 1149.447
216.6761, 1152.382
217.1582, 1160.348
217.6403, 1167.445
218.1224, 1173.928
218.6045, 1179.100
219.0867, 1182.077
219.5688, 1182.123
220.0509, 1181.605
220.5330, 1180.757
221.0151, 1179.544
221.4972, 1179.235
221.9794, 1180.533
222.4615, 1181.945
222.9436, 1181.532
223.4257, 1177.607
223.9078, 1175.311
224.3899, 1175.722
224.8721, 1178.890
225.3542, 1184.411
225.8363, 1193.855
226.3184, 1204.208
226.8005, 1211.935
227.2827, 1215.801
227.7648, 1219.304
228.2469, 1223.532
228.7290, 1228.773
229.2111, 1232.245
229.6932, 1232.896
230.1754, 1232.590
230.6575, 1233.964
231.1396, 1238.371
231.6217, 1242.054
232.1038, 1243.981
232.5859, 1243.960
233.0681, 1242.946
233.5502, 1239.509
234.0323, 1236.104
234.5144, 1236.093
234.9965, 1239.222
235.4786, 1246.387
235.9608, 1259.949
236.4429, 1283.061
236.9250, 1296.604
237.4071, 1295.655
237.8892, 1288.075
238.3713, 1285.957
238.8535, 1289.967
239.3356, 1298.447
239.8177, 1312.464
240.2998, 1335.235
240.7819, 1350.996
241.2640, 1357.569
241.7462, 1358.657
242.2283, 1360.255
242.7104, 1361.248
243.1925, 1364.616
243.6746, 1371.879
244.1567, 1384.628
244.6389, 1395.976
245.1210, 1405.602
245.6031, 1414.001
246.0852, 1421.112
246.5673, 1423.178
247.0494, 1430.384
247.5316, 1446.949
248.0137, 1475.341
248.4958, 1505.394
248.9779, 1539.010
249.4600, 1573.064
249.9421, 1599.736
250.4243, 1612.921
250.9064, 1629.939
251.3885, 1657.244
251.8706, 1696.877
252.3527, 1740.744
252.8348, 1788.868
253.3170, 1841.046
253.7991, 1895.142
254.2812, 1944.696
254.7633, 2007.472
255.2454, 2093.767
255.7275, 2211.320
256.2097, 2319.206
256.6918, 2407.852
257.1739, 2492.161
257.6560, 2603.083
258.1381, 2751.798
258.6202, 2904.614
259.1024, 3047.656
259.5845, 3172.240
260.0666, 3318.231
260.5487, 3492.244
261.0308, 3682.399
261.5129, 3873.058
261.9951, 4056.678
262.4772, 4254.958
262.9593, 4473.607
263.4414, 4715.392
263.9235, 4972.845
264.4056, 5247.733
264.8878, 5539.906
265.3699, 5855.705
265.8520, 6200.167
266.3341, 6561.691
266.8162, 6943.863
267.2983, 7346.857
267.7805, 7750.055
268.2626, 8154.810
268.7447, 8554.561
269.2268, 8943.694
269.7089, 9329.071
270.1910, 9678.334
270.6732, 9993.796
271.1553, 10279.74
271.6374, 10472.70
272.1195, 10573.60
272.6016, 10580.16
273.0837, 10483.88
273.5659, 10280.94
274.0480, 9995.355
274.5301, 9610.187
275.0122, 9122.744
275.4943, 8656.655
275.9764, 8211.741
276.4586, 7788.526
276.9407, 7382.707
277.4228, 6997.467
277.9049, 6644.292
278.3870, 6331.720
278.8691, 6059.390
279.3513, 5821.336
279.8334, 5620.422
280.3155, 5446.437
280.7976, 5284.937
281.2798, 5136.949
281.7619, 5009.688
282.2440, 4909.505
282.7261, 4834.112
283.2082, 4769.995
283.6903, 4720.119
284.1725, 4670.597
284.6546, 4597.701
285.1367, 4503.306
285.6188, 4420.563
286.1009, 4365.169
286.5830, 4331.383
287.0652, 4299.250
287.5473, 4271.062
288.0294, 4232.673
288.5115, 4163.505
288.9936, 4066.348
289.4757, 3967.808
289.9579, 3877.141
290.4400, 3790.967
290.9221, 3698.177
291.4042, 3598.746
291.8863, 3492.995
292.3684, 3374.228
292.8506, 3247.234
293.3327, 3131.833
293.8148, 3041.069
294.2969, 2961.064
294.7790, 2857.699
295.2611, 2730.475
295.7433, 2606.683
296.2254, 2508.382
296.7075, 2430.444
297.1896, 2362.090
297.6717, 2300.071
298.1538, 2244.082
298.6360, 2196.758
299.1181, 2157.114
299.6002, 2118.626
300.0823, 2075.822
300.5644, 2030.242
301.0465, 1983.637
301.5287, 1932.922
302.0108, 1885.857
302.4929, 1854.654
302.9750, 1836.967
303.4571, 1821.111
303.9392, 1798.337
304.4214, 1772.724
304.9035, 1749.407
305.3856, 1731.060
305.8677, 1713.834
306.3498, 1693.526
306.8319, 1671.502
307.3141, 1652.165
307.7962, 1639.526
308.2783, 1630.460
308.7604, 1621.775
309.2425, 1612.837
309.7246, 1604.621
310.2068, 1597.898
310.6889, 1592.383
311.1710, 1587.251
311.6531, 1582.054
312.1352, 1577.109
312.6173, 1572.731
313.0995, 1569.128
313.5816, 1565.780
314.0637, 1561.204
314.5458, 1556.773
315.0279, 1555.017
315.5100, 1559.428
315.9922, 1564.869
316.4743, 1569.271
316.9564, 1572.946
317.4385, 1573.276
317.9206, 1565.476
318.4027, 1554.700
318.8849, 1548.151
319.3670, 1553.946
319.8491, 1558.856
320.3312, 1557.418
320.8133, 1548.201
321.2954, 1538.848
321.7776, 1530.959
322.2597, 1523.560
322.7418, 1515.615
323.2239, 1505.790
323.7060, 1496.587
324.1881, 1487.463
324.6703, 1478.043
325.1524, 1473.569
325.6345, 1483.367
326.1166, 1493.552
326.5987, 1492.976
327.0808, 1471.580
327.5630, 1451.186
328.0451, 1434.164
328.5272, 1420.410
329.0093, 1407.344
329.4914, 1392.004
329.9735, 1380.301
330.4557, 1376.921
330.9378, 1389.461
331.4199, 1397.155
331.9020, 1398.224
332.3841, 1393.216
332.8662, 1383.530
333.3484, 1363.844
333.8305, 1347.695
334.3126, 1343.722
334.7947, 1356.958
335.2768, 1367.406
335.7589, 1375.321
336.2411, 1379.203
336.7232, 1373.809
337.2053, 1356.014
337.6874, 1338.165
338.1695, 1325.378
338.6516, 1317.883
339.1338, 1315.409
339.6159, 1319.986
340.0980, 1326.398
340.5801, 1323.078
341.0622, 1308.304
341.5443, 1299.669
342.0265, 1308.538
342.5086, 1332.214
342.9907, 1345.261
343.4728, 1346.236
343.9549, 1341.803
344.4370, 1339.147
344.9192, 1338.139
345.4013, 1337.562
345.8834, 1338.013
346.3655, 1338.323
346.8476, 1333.521
347.3297, 1323.372
347.8119, 1315.192
348.2940, 1319.300
348.7761, 1331.437
349.2582, 1338.625
349.7403, 1335.782
350.2225, 1327.933
350.7046, 1320.203
351.1867, 1312.915
351.6688, 1309.122
352.1509, 1313.393
352.6331, 1321.933
353.1152, 1328.829
353.5973, 1331.799
354.0794, 1334.653
354.5615, 1343.721
355.0436, 1356.104
355.5258, 1362.975
356.0079, 1353.900
356.4900, 1340.288
356.9721, 1332.325
357.4542, 1332.787
357.9363, 1334.788
358.4185, 1334.251
358.9006, 1332.663
359.3827, 1332.593
359.8648, 1337.446
360.3469, 1342.170
360.8290, 1342.433
361.3112, 1336.599
361.7933, 1335.928
362.2754, 1351.100
362.7575, 1370.609
363.2396, 1381.996
363.7217, 1375.733
364.2039, 1367.641
364.6860, 1360.656
365.1681, 1354.883
365.6502, 1351.722
366.1323, 1353.441
366.6144, 1356.502
367.0966, 1358.475
367.5787, 1358.170
368.0608, 1358.075
368.5429, 1357.284
369.0250, 1356.498
369.5071, 1359.629
369.9893, 1371.055
370.4714, 1381.295
370.9535, 1385.362
371.4356, 1379.801
371.9177, 1375.769
372.3998, 1373.380
372.8820, 1372.603
373.3641, 1374.002
373.8462, 1378.998
374.3283, 1382.452
374.8104, 1381.683
375.2925, 1376.197
375.7747, 1371.924
376.2568, 1368.454
376.7389, 1366.935
377.2210, 1370.561
377.7031, 1379.901
378.1852, 1385.996
378.6674, 1384.775
379.1495, 1378.201
379.6316, 1374.795
380.1137, 1374.831
380.5958, 1375.804
381.0779, 1373.999
381.5601, 1370.599
382.0422, 1372.007
382.5243, 1381.456
383.0064, 1394.082
383.4885, 1401.928
383.9706, 1405.485
384.4528, 1407.844
384.9349, 1412.616
385.4170, 1417.218
385.8991, 1417.239
386.3812, 1411.473
386.8633, 1402.857
387.3455, 1391.604
387.8276, 1379.499
388.3097, 1370.465
388.7918, 1366.219
389.2739, 1366.147
389.7560, 1371.209
390.2382, 1381.964
390.7203, 1391.911
391.2024, 1397.738
391.6845, 1400.745
392.1666, 1402.489
392.6487, 1401.956
393.1309, 1401.634
393.6130, 1403.457
394.0951, 1407.077
394.5772, 1408.326
395.0593, 1400.830
395.5414, 1393.985
396.0236, 1393.765
396.5057, 1411.360
396.9878, 1423.318
397.4699, 1424.121
397.9520, 1417.233
398.4341, 1413.501
398.9163, 1413.489
399.3984, 1416.116
399.8805, 1422.356
400.3626, 1436.353
400.8447, 1440.852
401.3268, 1429.765
401.8090, 1413.673
402.2911, 1408.611
402.7732, 1420.090
403.2553, 1428.040
403.7374, 1425.044
404.2195, 1412.084
404.7017, 1408.165
405.1838, 1415.662
405.6659, 1425.820
406.1480, 1430.288
406.6301, 1428.992
407.1122, 1428.596
407.5944, 1430.015
408.0765, 1433.328
408.5586, 1440.862
409.0407, 1452.510
409.5228, 1460.332
410.0049, 1456.225
410.4871, 1444.136
410.9692, 1434.605
411.4513, 1428.515
411.9334, 1425.678
412.4155, 1426.685
412.8976, 1430.863
413.3798, 1436.144
413.8619, 1442.440
414.3440, 1448.934
414.8261, 1456.460
415.3082, 1464.969
415.7903, 1468.862
416.2725, 1460.252
416.7546, 1446.648
417.2367, 1436.333
417.7188, 1433.431
418.2009, 1432.934
418.6830, 1432.571
419.1652, 1432.766
419.6473, 1435.100
420.1294, 1443.429
420.6115, 1451.594
421.0937, 1456.656
421.5758, 1458.675
422.0579, 1456.339
422.5400, 1442.802
423.0221, 1426.177
423.5042, 1419.655
423.9864, 1434.076
424.4685, 1446.923
424.9506, 1452.524
425.4327, 1450.059
425.9148, 1449.760
426.3969, 1451.179
426.8791, 1455.262
427.3612, 1464.690
427.8433, 1484.065
428.3254, 1493.522
428.8075, 1487.022
429.2896, 1469.920
429.7718, 1459.935
430.2539, 1457.375
430.7360, 1459.858
431.2181, 1468.782
431.7002, 1483.389
432.1823, 1492.141
432.6645, 1493.816
433.1466, 1491.811
433.6287, 1488.554
434.1108, 1484.853
434.5929, 1485.027
435.0750, 1494.810
435.5572, 1507.883
436.0393, 1511.943
436.5214, 1507.368
437.0035, 1502.186
437.4856, 1503.708
437.9677, 1508.249
438.4499, 1510.421
438.9320, 1507.335
439.4141, 1504.161
439.8962, 1504.605
440.3783, 1507.833
440.8604, 1511.710
441.3426, 1517.195
441.8247, 1521.578
442.3068, 1523.711
442.7889, 1523.752
443.2710, 1520.134
443.7531, 1505.724
444.2353, 1490.074
444.7174, 1483.503
445.1995, 1498.878
445.6816, 1511.059
446.1637, 1515.619
446.6458, 1513.027
447.1280, 1507.725
447.6101, 1494.085
448.0922, 1483.938
448.5743, 1485.148
449.0564, 1504.355
449.5385, 1516.693
450.0207, 1518.663
450.5028, 1516.066
450.9849, 1521.883
451.4670, 1538.921
451.9491, 1549.722
452.4312, 1545.070
452.9134, 1527.308
453.3955, 1513.183
453.8776, 1502.323
454.3597, 1497.847
454.8418, 1509.386
455.3239, 1531.828
455.8061, 1542.308
456.2882, 1531.647
456.7703, 1513.228
457.2524, 1503.381
457.7345, 1501.644
458.2166, 1506.094
458.6988, 1523.474
459.1809, 1542.508
459.6630, 1549.395
460.1451, 1541.474
460.6272, 1531.334
461.1093, 1523.955
461.5915, 1519.937
462.0736, 1520.230
462.5557, 1532.604
463.0378, 1542.016
463.5199, 1539.645
464.0020, 1527.461
464.4842, 1520.515
464.9663, 1527.938
465.4484, 1537.003
465.9305, 1540.676
466.4126, 1532.773
466.8947, 1530.144
467.3769, 1536.521
467.8590, 1546.529
468.3411, 1551.230
468.8232, 1548.070
469.3053, 1544.702
469.7874, 1543.951
470.2696, 1545.443
470.7517, 1540.958
471.2338, 1528.457
471.7159, 1516.296
472.1980, 1512.542
472.6801, 1517.004
473.1623, 1521.690
473.6444, 1526.170
474.1265, 1529.080
474.6086, 1526.048
475.0907, 1518.212
475.5728, 1512.922
476.0550, 1517.153
476.5371, 1525.343
477.0192, 1527.477
477.5013, 1523.153
477.9834, 1519.216
478.4655, 1522.072
478.9477, 1528.146
479.4298, 1532.732
479.9119, 1533.968
480.3940, 1534.051
480.8761, 1532.347
481.3582, 1530.133
481.8404, 1531.131
482.3225, 1541.524
482.8046, 1551.305
483.2867, 1555.008
483.7688, 1549.443
484.2509, 1547.286
484.7331, 1554.086
485.2152, 1562.439
485.6973, 1565.234
486.1794, 1557.819
486.6615, 1552.900
487.1436, 1553.209
487.6258, 1557.396
488.1079, 1558.173
488.5900, 1553.380
489.0721, 1551.176
489.5542, 1558.604
490.0363, 1575.838
490.5185, 1584.880
491.0006, 1584.174
491.4827, 1578.685
491.9648, 1573.546
492.4470, 1568.842
492.9291, 1565.041
493.4112, 1561.604
493.8933, 1559.852
494.3754, 1563.336
494.8575, 1571.261
495.3397, 1578.414
495.8218, 1581.472
496.3039, 1581.995
496.7860, 1581.079
497.2681, 1578.182
497.7502, 1576.670
498.2324, 1579.845
498.7145, 1585.043
499.1966, 1588.702
499.6787, 1589.453
500.1608, 1588.790
500.6429, 1584.679
501.1251, 1577.765
501.6072, 1577.692
502.0893, 1594.723
502.5714, 1610.225
503.0535, 1614.733
503.5356, 1601.546
504.0178, 1593.877
504.4999, 1595.071
504.9820, 1598.797
505.4641, 1592.872
505.9462, 1573.796
506.4283, 1563.898
506.9105, 1573.060
507.3926, 1595.575
507.8747, 1609.198
508.3568, 1613.722
508.8389, 1613.561
509.3210, 1609.766
509.8032, 1603.879
510.2853, 1600.519
510.7674, 1600.755
511.2495, 1601.410
511.7316, 1597.197
512.2137, 1591.092
512.6959, 1589.181
513.1780, 1600.637
513.6601, 1611.577
514.1422, 1610.871
514.6243, 1600.233
515.1064, 1591.921
515.5886, 1594.006
516.0707, 1597.593
516.5528, 1596.594
517.0349, 1585.442
517.5170, 1579.732
517.9991, 1585.211
518.4813, 1595.296
518.9634, 1601.793
519.4455, 1603.073
519.9276, 1603.533
520.4097, 1603.965
520.8918, 1604.287
521.3740, 1603.675
521.8561, 1601.645
522.3382, 1600.287
522.8203, 1600.141
523.3024, 1601.363
523.7845, 1608.682
524.2667, 1624.385
524.7488, 1638.564
525.2309, 1636.099
525.7130, 1621.460
526.1951, 1610.248
526.6772, 1608.642
527.1594, 1612.245
527.6415, 1619.088
528.1236, 1627.731
528.6057, 1631.925
529.0878, 1622.139
529.5699, 1610.395
530.0521, 1606.635
530.5342, 1613.959
531.0163, 1620.727
531.4984, 1621.889
531.9805, 1621.234
532.4626, 1622.796
532.9448, 1631.390
533.4269, 1636.932
533.9090, 1635.244
534.3911, 1629.353
534.8732, 1632.463
535.3553, 1651.926
535.8375, 1666.578
536.3196, 1664.655
536.8017, 1644.991
537.2838, 1634.102
537.7659, 1633.643
538.2480, 1636.172
538.7302, 1632.088
539.2123, 1622.865
539.6944, 1619.379
540.1765, 1625.298
540.6586, 1635.542
541.1407, 1646.268
541.6229, 1656.092
542.1050, 1660.298
542.5871, 1651.655
543.0692, 1639.343
543.5513, 1630.271
544.0334, 1624.941
544.5156, 1624.391
544.9977, 1634.911
545.4798, 1647.085
545.9619, 1653.104
546.4440, 1645.263
546.9261, 1640.523
547.4083, 1644.751
547.8904, 1652.807
548.3725, 1655.027
548.8546, 1646.272
549.3367, 1640.418
549.8188, 1643.008
550.3010, 1652.698
550.7831, 1651.465
551.2652, 1635.399
551.7473, 1621.441
552.2294, 1625.643
552.7115, 1645.535
553.1937, 1655.039
553.6758, 1650.597
554.1579, 1641.965
554.6400, 1640.381
555.1221, 1644.333
555.6042, 1649.594
556.0864, 1656.003
556.5685, 1661.762
557.0506, 1663.215
557.5327, 1661.979
558.0148, 1664.077
558.4969, 1680.100
558.9791, 1694.613
559.4612, 1696.364
559.9433, 1681.297
560.4254, 1668.775
560.9075, 1660.950
561.3896, 1658.058
561.8718, 1660.417
562.3539, 1674.023
562.8360, 1682.356
563.3181, 1681.608
563.8002, 1676.031
564.2823, 1676.824
564.7645, 1685.831
565.2466, 1692.866
565.7287, 1693.379
566.2108, 1688.567
566.6929, 1683.456
567.1750, 1678.016
567.6572, 1673.871
568.1393, 1673.172
568.6214, 1674.685
569.1035, 1676.253
569.5856, 1677.784
570.0677, 1678.381
570.5499, 1675.768
571.0320, 1672.053
571.5141, 1670.548
571.9962, 1674.103
572.4783, 1678.461
572.9604, 1680.806
573.4426, 1682.027
573.9247, 1686.911
574.4068, 1703.705
574.8889, 1717.342
575.3710, 1721.307
575.8531, 1713.573
576.3353, 1706.324
576.8174, 1698.651
577.2995, 1692.916
577.7816, 1692.510
578.2637, 1698.161
578.7458, 1701.536
579.2280, 1701.702
579.7101, 1698.583
580.1922, 1687.544
580.6743, 1671.068
581.1564, 1663.158
581.6385, 1676.965
582.1207, 1699.432
582.6028, 1715.155
583.0849, 1724.216
583.5670, 1728.447
584.0491, 1723.876
584.5313, 1718.089
585.0134, 1717.918
585.4955, 1727.033
585.9776, 1733.049
586.4597, 1729.069
586.9418, 1721.927
587.4240, 1719.549
587.9061, 1726.586
588.3882, 1731.486
588.8703, 1732.883
589.3524, 1731.391
589.8345, 1727.976
590.3167, 1721.537
590.7988, 1717.509
591.2809, 1719.689
591.7630, 1726.458
592.2451, 1727.842
592.7272, 1723.527
593.2094, 1721.526
593.6915, 1732.843
594.1736, 1750.339
594.6557, 1759.434
595.1378, 1756.031
595.6199, 1750.948
596.1021, 1752.588
596.5842, 1757.548
597.0663, 1760.990
597.5485, 1761.371
598.0306, 1759.850
598.5127, 1757.243
598.9948, 1753.142
599.4769, 1745.436
599.9590, 1725.089
600.4412, 1711.866
600.9233, 1714.505
601.4054, 1734.383
601.8875, 1748.581
602.3696, 1756.591
602.8517, 1759.875
603.3339, 1757.283
603.8160, 1749.493
604.2981, 1746.041
604.7802, 1748.448
605.2623, 1753.856
605.7444, 1761.792
606.2266, 1770.012
606.7087, 1771.899
607.1908, 1758.374
607.6729, 1744.620
608.1550, 1745.048
608.6371, 1755.634
609.1193, 1763.309
609.6014, 1758.039
610.0835, 1752.721
610.5656, 1755.162
611.0477, 1767.579
611.5298, 1773.548
612.0120, 1767.914
612.4941, 1760.318
612.9762, 1757.442
613.4583, 1761.152
613.9404, 1762.094
614.4225, 1758.012
614.9047, 1754.445
615.3868, 1762.362
615.8689, 1780.585
616.3510, 1792.046
616.8331, 1788.869
617.3152, 1780.191
617.7974, 1779.952
618.2795, 1786.520
618.7616, 1793.480
619.2437, 1800.292
619.7258, 1803.911
620.2079, 1800.349
620.6901, 1789.530
621.1722, 1780.191
621.6543, 1775.305
622.1364, 1772.911
622.6185, 1771.899
623.1006, 1772.302
623.5828, 1773.668
624.0649, 1775.562
624.5470, 1778.819
625.0291, 1786.059
625.5112, 1799.264
625.9933, 1805.154
626.4755, 1799.526
626.9576, 1787.712
627.4397, 1778.043
627.9218, 1771.059
628.4039, 1770.883
628.8860, 1788.483
629.3682, 1809.402
629.8503, 1809.449
630.3324, 1791.634
630.8145, 1778.897
631.2966, 1788.286
631.7787, 1805.081
632.2609, 1820.639
632.7430, 1835.433
633.2251, 1842.548
633.7072, 1835.103
634.1893, 1822.643
634.6714, 1812.742
635.1536, 1805.616
635.6357, 1800.407
636.1178, 1796.539
636.5999, 1795.153
637.0820, 1800.250
637.5641, 1812.195
638.0463, 1821.012
638.5284, 1823.394
639.0105, 1820.812
639.4926, 1811.948
639.9747, 1798.845
640.4568, 1793.405
640.9390, 1813.437
641.4211, 1837.489
641.9032, 1842.950
642.3853, 1828.263
642.8674, 1816.247
643.3495, 1817.926
643.8317, 1824.190
644.3138, 1829.043
644.7959, 1832.687
