##NAMES=Calzirtite
##RRUFFID=R080084
##IDEAL CHEMISTRY=Ca_2_Zr^4+^_5_Ti^4+^_2_O_16_
##LOCALITY=Jacupiranga mine, Cajati, SÃ£o Paulo, Brazil
##OWNER=RRUFF
##SOURCE=Luiz Menezes
##DESCRIPTION=Black rounded crystals associated with dark brown phlogopite, green granular diopside and black magnetite octahedra
##STATUS=The identification of this mineral has been confirmed by single-crystal X-ray diffraction.
##URL=rruff.info/R080084
92.35352, 28.06159
92.83563, 26.96702
93.31775, 26.50141
93.79987, 26.83710
94.28198, 27.82487
94.76410, 29.03200
95.24622, 30.32545
95.72833, 31.83730
96.21045, 33.81189
96.69257, 36.26196
97.17468, 39.09137
97.65680, 42.18561
98.13892, 45.55703
98.62103, 49.28254
99.10315, 53.34617
99.58527, 57.75041
100.0674, 62.22531
100.5495, 66.59823
101.0316, 71.33884
101.5137, 76.96131
101.9958, 83.60644
102.4780, 90.75491
102.9601, 98.09263
103.4422, 105.4786
103.9243, 114.0076
104.4064, 124.0718
104.8885, 135.0721
105.3707, 146.1437
105.8528, 156.8337
106.3349, 168.1013
106.8170, 180.3101
107.2991, 194.1982
107.7813, 207.6142
108.2634, 220.0626
108.7455, 232.0315
109.2276, 244.6896
109.7097, 259.5311
110.1918, 274.0943
110.6740, 287.3806
111.1561, 297.2229
111.6382, 308.1934
112.1203, 320.9624
112.6024, 335.3888
113.0845, 349.8941
113.5667, 363.7220
114.0488, 377.7693
114.5309, 392.8054
115.0130, 409.9205
115.4951, 427.0219
115.9772, 443.2765
116.4594, 458.8521
116.9415, 475.0731
117.4236, 492.7274
117.9057, 511.2054
118.3878, 529.7741
118.8699, 548.0361
119.3521, 566.6257
119.8342, 586.5919
120.3163, 608.1771
120.7984, 629.0798
121.2805, 647.3575
121.7626, 664.0367
122.2448, 680.8718
122.7269, 699.1639
123.2090, 717.7774
123.6911, 735.6964
124.1732, 752.8419
124.6553, 769.1739
125.1375, 784.2281
125.6196, 798.3209
126.1017, 812.4542
126.5838, 827.4711
127.0659, 842.8967
127.5480, 857.8259
128.0302, 872.0027
128.5123, 886.1331
128.9944, 901.1071
129.4765, 916.9017
129.9586, 933.3029
130.4407, 950.3673
130.9229, 967.9717
131.4050, 985.6263
131.8871, 1002.518
132.3692, 1019.588
132.8513, 1039.221
133.3334, 1059.966
133.8156, 1075.942
134.2977, 1085.377
134.7798, 1092.161
135.2619, 1099.726
135.7440, 1109.168
136.2261, 1119.919
136.7083, 1129.931
137.1904, 1139.011
137.6725, 1148.203
138.1546, 1158.870
138.6367, 1171.337
139.1188, 1183.770
139.6010, 1195.797
140.0831, 1207.379
140.5652, 1219.368
141.0473, 1232.199
141.5294, 1245.025
142.0115, 1256.755
142.4937, 1267.829
142.9758, 1277.033
143.4579, 1283.680
143.9400, 1287.002
144.4221, 1291.328
144.9042, 1297.470
145.3864, 1304.088
145.8685, 1308.731
146.3506, 1310.512
146.8327, 1311.572
147.3148, 1312.663
147.7969, 1314.235
148.2791, 1314.763
148.7612, 1312.978
149.2433, 1310.280
149.7254, 1309.883
150.2075, 1311.885
150.6896, 1316.096
151.1718, 1322.525
151.6539, 1332.930
152.1360, 1342.993
152.6181, 1351.796
153.1002, 1360.078
153.5823, 1369.991
154.0645, 1382.878
154.5466, 1396.641
155.0287, 1410.290
155.5108, 1424.396
155.9929, 1437.801
156.4750, 1450.739
156.9572, 1462.952
157.4393, 1473.076
157.9214, 1479.194
158.4035, 1484.223
158.8856, 1490.004
159.3677, 1498.912
159.8499, 1506.675
160.3320, 1512.205
160.8141, 1515.610
161.2962, 1517.343
161.7783, 1517.919
162.2604, 1516.730
162.7426, 1513.275
163.2247, 1506.485
163.7068, 1498.240
164.1889, 1488.898
164.6710, 1478.615
165.1531, 1468.279
165.6353, 1457.971
166.1174, 1447.953
166.5995, 1438.506
167.0816, 1428.907
167.5637, 1420.480
168.0458, 1413.955
168.5280, 1409.386
169.0101, 1406.553
169.4922, 1406.048
169.9743, 1407.069
170.4564, 1408.516
170.9385, 1409.603
171.4207, 1411.115
171.9028, 1413.591
172.3849, 1417.029
172.8670, 1421.727
173.3491, 1428.015
173.8312, 1435.746
174.3134, 1444.676
174.7955, 1455.043
175.2776, 1466.308
175.7597, 1477.991
176.2418, 1490.240
176.7239, 1502.300
177.2061, 1513.216
177.6882, 1523.602
178.1703, 1534.878
178.6524, 1548.490
179.1345, 1563.403
179.6166, 1577.725
180.0988, 1591.461
180.5809, 1604.766
181.0630, 1618.034
181.5451, 1631.215
182.0272, 1643.532
182.5093, 1654.662
182.9915, 1664.774
183.4736, 1674.173
183.9557, 1683.052
184.4378, 1690.893
184.9199, 1698.297
185.4020, 1704.733
185.8842, 1707.368
186.3663, 1703.182
186.8484, 1693.602
187.3305, 1683.831
187.8126, 1674.153
188.2947, 1664.401
188.7769, 1654.783
189.2590, 1645.232
189.7411, 1634.183
190.2232, 1620.231
190.7053, 1603.753
191.1874, 1586.742
191.6696, 1569.082
192.1517, 1551.133
192.6338, 1533.029
193.1159, 1514.723
193.5980, 1497.456
194.0801, 1482.494
194.5623, 1469.706
195.0444, 1456.091
195.5265, 1441.119
196.0086, 1425.714
196.4907, 1411.618
196.9728, 1398.801
197.4550, 1387.407
197.9371, 1377.741
198.4192, 1369.816
198.9013, 1362.564
199.3834, 1356.018
199.8655, 1349.984
200.3477, 1343.927
200.8298, 1337.860
201.3119, 1331.775
201.7940, 1325.381
202.2761, 1318.576
202.7582, 1312.807
203.2404, 1308.547
203.7225, 1305.164
204.2046, 1300.770
204.6867, 1295.070
205.1688, 1289.379
205.6509, 1284.641
206.1331, 1280.978
206.6152, 1277.296
207.0973, 1273.460
207.5794, 1269.569
208.0615, 1265.805
208.5436, 1261.994
209.0258, 1258.758
209.5079, 1256.504
209.9900, 1255.283
210.4721, 1254.886
210.9542, 1255.650
211.4363, 1257.092
211.9185, 1257.422
212.4006, 1256.103
212.8827, 1254.805
213.3648, 1254.593
213.8469, 1255.680
214.3290, 1257.019
214.8112, 1258.644
215.2933, 1260.422
215.7754, 1261.973
216.2575, 1263.303
216.7396, 1264.377
217.2217, 1265.231
217.7039, 1266.013
218.1860, 1266.055
218.6681, 1265.064
219.1502, 1263.341
219.6323, 1262.088
220.1144, 1261.775
220.5966, 1261.170
221.0787, 1259.424
221.5608, 1255.903
222.0429, 1253.003
222.5250, 1250.834
223.0071, 1249.413
223.4893, 1248.925
223.9714, 1249.717
224.4535, 1250.918
224.9356, 1252.011
225.4177, 1252.634
225.8998, 1254.143
226.3820, 1257.237
226.8641, 1261.194
227.3462, 1263.210
227.8283, 1262.009
228.3104, 1260.790
228.7925, 1261.445
229.2747, 1265.587
229.7568, 1267.789
230.2389, 1266.881
230.7210, 1264.067
231.2031, 1263.348
231.6852, 1265.851
232.1674, 1268.755
232.6495, 1270.590
233.1316, 1270.534
233.6137, 1271.290
234.0958, 1273.311
234.5779, 1276.095
235.0601, 1278.233
235.5422, 1279.736
236.0243, 1280.621
236.5064, 1280.816
236.9885, 1279.926
237.4706, 1279.174
237.9528, 1278.264
238.4349, 1277.585
238.9170, 1278.240
239.3991, 1281.019
239.8812, 1283.943
240.3633, 1286.127
240.8455, 1287.082
241.3276, 1288.504
241.8097, 1290.483
242.2918, 1292.877
242.7739, 1295.561
243.2560, 1299.536
243.7382, 1302.246
244.2203, 1302.346
244.7024, 1298.317
245.1845, 1296.054
245.6666, 1296.327
246.1487, 1298.005
246.6309, 1298.926
247.1130, 1298.751
247.5951, 1298.367
248.0772, 1298.147
248.5593, 1298.300
249.0414, 1297.746
249.5236, 1295.919
250.0057, 1293.731
250.4878, 1292.595
250.9699, 1292.496
251.4520, 1293.495
251.9341, 1295.930
252.4163, 1300.319
252.8984, 1303.484
253.3805, 1304.621
253.8626, 1305.165
254.3447, 1307.223
254.8268, 1311.331
255.3090, 1315.902
255.7911, 1320.389
256.2732, 1324.715
256.7553, 1329.849
257.2374, 1336.170
257.7195, 1342.954
258.2017, 1349.438
258.6838, 1355.912
259.1659, 1361.475
259.6480, 1365.320
260.1301, 1367.253
260.6122, 1371.976
261.0944, 1380.440
261.5765, 1390.575
262.0586, 1400.266
262.5407, 1409.251
263.0228, 1418.467
263.5049, 1427.995
263.9871, 1437.921
264.4692, 1448.145
264.9513, 1458.768
265.4334, 1469.678
265.9155, 1480.948
266.3976, 1492.284
266.8798, 1504.344
267.3619, 1517.458
267.8440, 1531.490
268.3261, 1544.216
268.8082, 1555.081
269.2903, 1565.751
269.7725, 1577.779
270.2546, 1591.543
270.7367, 1604.249
271.2188, 1615.529
271.7009, 1625.321
272.1830, 1633.249
272.6652, 1638.664
273.1473, 1643.807
273.6294, 1650.381
274.1115, 1658.654
274.5936, 1666.862
275.0757, 1675.311
275.5579, 1683.321
276.0400, 1688.371
276.5221, 1689.941
277.0042, 1690.596
277.4863, 1691.756
277.9684, 1693.460
278.4506, 1695.043
278.9327, 1696.510
279.4148, 1697.774
279.8969, 1698.752
280.3790, 1699.504
280.8611, 1699.625
281.3433, 1698.882
281.8254, 1697.280
282.3075, 1695.129
282.7896, 1692.413
283.2717, 1689.239
283.7538, 1685.973
284.2360, 1682.657
284.7181, 1678.383
285.2002, 1672.286
285.6823, 1664.617
286.1644, 1657.637
286.6465, 1651.481
287.1287, 1645.725
287.6108, 1640.209
288.0929, 1634.868
288.5750, 1628.704
289.0571, 1621.434
289.5392, 1613.002
290.0214, 1603.046
290.5035, 1591.478
290.9856, 1579.525
291.4677, 1568.286
291.9498, 1557.713
292.4319, 1547.924
292.9141, 1539.416
293.3962, 1531.381
293.8783, 1521.487
294.3604, 1509.758
294.8425, 1498.206
295.3246, 1488.908
295.8068, 1481.180
296.2889, 1472.909
296.7710, 1463.456
297.2531, 1453.255
297.7352, 1442.782
298.2173, 1432.158
298.6995, 1421.986
299.1816, 1412.931
299.6637, 1404.672
300.1458, 1396.874
300.6279, 1389.570
301.1100, 1382.265
301.5922, 1374.180
302.0743, 1365.515
302.5564, 1357.174
303.0385, 1349.717
303.5206, 1342.830
304.0027, 1335.935
304.4849, 1329.014
304.9670, 1322.074
305.4491, 1315.176
305.9312, 1308.340
306.4133, 1301.619
306.8954, 1295.234
307.3776, 1288.893
307.8597, 1282.437
308.3418, 1275.813
308.8239, 1269.075
309.3060, 1262.329
309.7881, 1255.440
310.2703, 1248.399
310.7524, 1239.850
311.2345, 1232.055
311.7166, 1227.083
312.1987, 1224.881
312.6808, 1223.259
313.1630, 1221.575
313.6451, 1219.562
314.1272, 1216.908
314.6093, 1213.004
315.0914, 1208.921
315.5735, 1205.251
316.0557, 1201.898
316.5378, 1198.385
317.0199, 1193.485
317.5020, 1188.951
317.9841, 1186.197
318.4662, 1187.401
318.9484, 1187.718
319.4305, 1184.924
319.9126, 1179.982
320.3947, 1175.417
320.8768, 1171.771
321.3589, 1168.835
321.8411, 1166.582
322.3232, 1165.281
322.8053, 1164.049
323.2874, 1163.010
323.7695, 1161.882
324.2516, 1160.222
324.7338, 1157.340
325.2159, 1154.477
325.6980, 1152.184
326.1801, 1150.758
326.6622, 1148.602
327.1443, 1143.865
327.6265, 1139.085
328.1086, 1136.837
328.5907, 1140.536
329.0728, 1142.999
329.5549, 1142.545
330.0370, 1139.133
330.5192, 1137.055
331.0013, 1137.235
331.4834, 1137.958
331.9655, 1138.007
332.4476, 1136.657
332.9297, 1135.888
333.4119, 1136.050
333.8940, 1136.932
334.3761, 1137.652
334.8582, 1138.198
335.3403, 1138.557
335.8224, 1138.666
336.3046, 1138.379
336.7867, 1138.225
337.2688, 1138.179
337.7509, 1138.281
338.2330, 1138.745
338.7151, 1139.797
339.1973, 1140.483
339.6794, 1140.187
340.1615, 1138.833
340.6436, 1138.451
341.1257, 1139.242
341.6078, 1140.621
342.0900, 1142.117
342.5721, 1143.785
343.0542, 1144.729
343.5363, 1144.403
344.0184, 1143.179
344.5005, 1142.618
344.9827, 1142.761
345.4648, 1143.335
345.9469, 1144.055
346.4290, 1144.959
346.9111, 1146.389
347.3932, 1148.664
347.8754, 1151.116
348.3575, 1152.347
348.8396, 1152.407
349.3217, 1152.087
349.8038, 1151.357
350.2859, 1150.637
350.7681, 1151.193
351.2502, 1153.400
351.7323, 1155.957
352.2144, 1157.594
352.6965, 1158.404
353.1786, 1158.624
353.6608, 1157.399
354.1429, 1156.128
354.6250, 1156.932
355.1071, 1159.970
355.5892, 1163.160
356.0714, 1164.682
356.5535, 1165.388
357.0356, 1166.530
357.5177, 1168.999
357.9998, 1171.728
358.4819, 1173.851
358.9641, 1175.483
359.4462, 1177.208
359.9283, 1179.166
360.4104, 1181.424
360.8925, 1184.071
361.3746, 1187.314
361.8568, 1190.588
362.3389, 1193.710
362.8210, 1196.663
363.3031, 1199.492
363.7852, 1202.164
364.2673, 1204.735
364.7495, 1207.099
365.2316, 1209.035
365.7137, 1211.555
366.1958, 1215.294
366.6779, 1219.541
367.1600, 1223.491
367.6422, 1227.623
368.1243, 1230.868
368.6064, 1232.245
369.0885, 1231.598
369.5706, 1233.041
370.0527, 1238.848
370.5349, 1245.006
371.0170, 1248.909
371.4991, 1249.018
371.9812, 1249.409
372.4633, 1250.172
372.9454, 1251.427
373.4276, 1253.646
373.9097, 1257.317
374.3918, 1261.170
374.8739, 1264.680
375.3560, 1267.989
375.8381, 1270.363
376.3203, 1271.331
376.8024, 1271.929
377.2845, 1274.003
377.7666, 1277.893
378.2487, 1281.233
378.7308, 1282.962
379.2130, 1283.379
379.6951, 1284.446
380.1772, 1286.274
380.6593, 1288.186
381.1414, 1289.570
381.6235, 1290.459
382.1057, 1291.361
382.5878, 1292.566
383.0699, 1293.573
383.5520, 1293.391
384.0341, 1292.076
384.5162, 1290.172
384.9984, 1287.556
385.4805, 1284.651
385.9626, 1282.693
386.4447, 1282.067
386.9268, 1280.948
387.4089, 1277.120
387.8911, 1271.344
388.3732, 1265.422
388.8553, 1259.590
389.3374, 1254.309
389.8195, 1250.690
390.3016, 1248.632
390.7838, 1245.790
391.2659, 1239.400
391.7480, 1232.067
392.2301, 1226.618
392.7122, 1225.307
393.1943, 1224.006
393.6765, 1221.073
394.1586, 1216.679
394.6407, 1211.374
395.1228, 1203.231
395.6049, 1195.895
396.0870, 1191.520
396.5692, 1191.480
397.0513, 1190.835
397.5334, 1188.336
398.0155, 1184.813
398.4976, 1181.339
398.9797, 1177.648
399.4619, 1174.360
399.9440, 1171.657
400.4261, 1169.523
400.9082, 1167.428
401.3903, 1165.218
401.8724, 1163.157
402.3546, 1161.500
402.8367, 1160.808
403.3188, 1159.245
403.8009, 1156.303
404.2830, 1152.608
404.7651, 1149.666
405.2473, 1147.499
405.7294, 1146.121
406.2115, 1145.773
406.6936, 1146.501
407.1757, 1146.918
407.6578, 1147.036
408.1400, 1146.837
408.6221, 1146.070
409.1042, 1144.759
409.5863, 1143.892
410.0684, 1143.717
410.5505, 1144.161
411.0327, 1145.353
411.5148, 1147.265
411.9969, 1148.880
412.4790, 1148.784
412.9611, 1147.914
413.4432, 1148.670
413.9254, 1151.624
414.4075, 1155.289
414.8896, 1158.316
415.3717, 1160.837
415.8538, 1163.136
416.3359, 1164.801
416.8181, 1166.636
417.3002, 1169.111
417.7823, 1172.290
418.2644, 1176.567
418.7465, 1183.201
419.2286, 1190.640
419.7108, 1197.300
420.1929, 1202.557
420.6750, 1207.350
421.1571, 1211.610
421.6392, 1215.655
422.1213, 1220.216
422.6035, 1225.445
423.0856, 1231.243
423.5677, 1237.895
424.0498, 1245.879
424.5319, 1252.923
425.0140, 1258.447
425.4962, 1263.236
425.9783, 1268.063
426.4604, 1272.588
426.9425, 1277.700
427.4246, 1283.567
427.9067, 1290.191
428.3889, 1297.246
428.8710, 1305.079
429.3531, 1312.716
429.8352, 1319.664
430.3173, 1325.686
430.7994, 1331.707
431.2816, 1337.802
431.7637, 1343.759
432.2458, 1349.265
432.7279, 1354.332
433.2100, 1358.422
433.6921, 1360.733
434.1743, 1362.000
434.6564, 1365.234
435.1385, 1370.533
435.6206, 1375.839
436.1027, 1379.562
436.5848, 1381.937
437.0670, 1383.631
437.5491, 1384.865
438.0312, 1385.264
438.5133, 1383.718
438.9954, 1380.920
439.4775, 1378.774
439.9597, 1379.783
440.4418, 1380.949
440.9239, 1379.186
441.4060, 1374.328
441.8881, 1369.272
442.3702, 1366.266
442.8524, 1363.653
443.3345, 1359.808
443.8166, 1353.926
444.2987, 1347.174
444.7808, 1339.902
445.2629, 1332.009
445.7451, 1323.143
446.2272, 1312.846
446.7093, 1302.084
447.1914, 1291.143
447.6735, 1279.862
448.1556, 1268.843
448.6378, 1258.109
449.1199, 1247.720
449.6020, 1237.771
450.0841, 1228.777
450.5662, 1219.697
451.0483, 1210.967
451.5305, 1201.981
452.0126, 1189.749
452.4947, 1173.068
452.9768, 1156.534
453.4589, 1142.805
453.9410, 1131.847
454.4232, 1120.328
454.9053, 1107.692
455.3874, 1095.475
455.8695, 1085.705
456.3516, 1078.093
456.8337, 1070.940
457.3159, 1063.813
457.7980, 1056.613
458.2801, 1048.937
458.7622, 1040.911
459.2443, 1033.113
459.7264, 1026.096
460.2086, 1019.573
460.6907, 1013.383
461.1728, 1007.629
461.6549, 1001.720
462.1370, 994.8505
462.6191, 987.7359
463.1013, 981.5798
463.5834, 976.8443
464.0655, 973.1252
464.5476, 970.6635
465.0297, 969.3090
465.5118, 967.8324
465.9940, 966.3704
466.4761, 964.3727
466.9582, 961.3463
467.4403, 955.3347
467.9224, 951.7275
468.4045, 952.2111
468.8867, 954.4557
469.3688, 955.0939
469.8509, 953.1342
470.3330, 951.3512
470.8151, 950.3542
471.2972, 950.0967
471.7794, 949.9816
472.2615, 949.9130
472.7436, 950.2750
473.2257, 951.5750
473.7078, 953.8435
474.1899, 955.5523
474.6721, 956.4919
475.1542, 957.1328
475.6363, 958.0775
476.1184, 959.3122
476.6005, 960.7665
477.0826, 962.4074
477.5648, 964.2455
478.0469, 966.3096
478.5290, 968.6044
479.0111, 971.1776
479.4932, 974.8129
479.9753, 978.4249
480.4575, 980.4784
480.9396, 980.2117
481.4217, 980.0284
481.9038, 981.6480
482.3859, 984.2256
482.8680, 986.5064
483.3502, 987.7838
483.8323, 988.9657
484.3144, 990.3235
484.7965, 991.8464
485.2786, 993.4944
485.7607, 995.0279
486.2429, 996.8344
486.7250, 999.2217
487.2071, 1002.961
487.6892, 1005.532
488.1713, 1006.522
488.6534, 1006.645
489.1356, 1006.844
489.6177, 1007.010
490.0998, 1007.703
490.5819, 1009.280
491.0640, 1011.518
491.5461, 1013.206
492.0283, 1014.344
492.5104, 1015.131
492.9925, 1015.397
493.4746, 1015.339
493.9567, 1016.144
494.4388, 1018.074
494.9210, 1019.937
495.4031, 1019.828
495.8852, 1018.551
496.3673, 1018.203
496.8494, 1020.445
497.3315, 1023.062
497.8137, 1023.886
498.2958, 1023.206
498.7779, 1022.216
499.2600, 1021.202
499.7421, 1020.322
500.2242, 1019.745
500.7064, 1019.570
501.1885, 1019.342
501.6706, 1018.759
502.1527, 1018.155
502.6348, 1017.878
503.1169, 1018.884
503.5991, 1019.135
504.0812, 1017.698
504.5633, 1015.290
505.0454, 1014.623
505.5275, 1016.451
506.0096, 1018.762
506.4918, 1020.859
506.9739, 1022.763
507.4560, 1024.286
507.9381, 1025.310
508.4202, 1026.253
508.9023, 1027.145
509.3845, 1028.065
509.8666, 1030.603
510.3487, 1035.400
510.8308, 1041.309
511.3129, 1046.581
511.7950, 1051.315
512.2772, 1055.945
512.7593, 1060.500
513.2414, 1065.180
513.7235, 1070.127
514.2056, 1075.369
514.6877, 1081.349
515.1699, 1089.176
515.6520, 1097.429
516.1341, 1104.805
516.6162, 1110.914
517.0983, 1116.331
517.5804, 1120.886
518.0626, 1124.972
518.5447, 1129.237
519.0268, 1133.281
519.5089, 1138.075
519.9910, 1144.107
520.4731, 1151.284
520.9553, 1157.878
521.4374, 1163.666
521.9195, 1169.108
522.4016, 1174.334
522.8837, 1179.150
523.3658, 1184.607
523.8480, 1190.806
524.3301, 1197.522
524.8122, 1204.672
525.2943, 1212.184
525.7764, 1219.054
526.2585, 1224.717
526.7407, 1229.943
527.2228, 1236.331
527.7049, 1243.759
528.1870, 1251.272
528.6691, 1258.661
529.1512, 1265.718
529.6334, 1272.331
530.1155, 1278.549
530.5976, 1283.859
531.0797, 1287.383
531.5618, 1290.168
532.0439, 1293.265
532.5261, 1298.038
533.0082, 1301.578
533.4903, 1302.388
533.9724, 1301.552
534.4545, 1301.432
534.9366, 1303.128
535.4188, 1304.558
535.9009, 1305.510
536.3830, 1305.977
536.8651, 1304.685
537.3472, 1300.567
537.8293, 1296.852
538.3115, 1296.167
538.7936, 1298.822
539.2757, 1300.163
539.7578, 1299.691
540.2399, 1298.687
540.7220, 1299.138
541.2042, 1300.718
541.6863, 1301.500
542.1684, 1300.394
542.6505, 1298.781
543.1326, 1298.713
543.6147, 1299.878
544.0969, 1301.121
544.5790, 1302.364
545.0611, 1302.956
545.5432, 1301.572
546.0253, 1297.948
546.5074, 1296.039
546.9896, 1298.891
547.4717, 1303.398
547.9538, 1307.058
548.4359, 1308.786
548.9180, 1310.581
549.4001, 1312.798
549.8823, 1315.149
550.3644, 1317.071
550.8465, 1318.128
551.3286, 1319.676
551.8107, 1322.275
552.2928, 1325.729
552.7750, 1328.232
553.2571, 1329.523
553.7392, 1331.223
554.2213, 1334.900
554.7034, 1340.064
555.1855, 1343.968
555.6677, 1346.369
556.1498, 1348.280
556.6319, 1350.755
557.1140, 1353.505
557.5961, 1355.901
558.0782, 1357.662
558.5604, 1359.175
559.0425, 1360.600
559.5246, 1362.000
560.0067, 1363.514
560.4888, 1365.875
560.9709, 1367.730
561.4531, 1368.090
561.9352, 1366.947
562.4173, 1366.371
562.8994, 1367.431
563.3815, 1368.496
563.8636, 1368.754
564.3458, 1367.970
564.8279, 1367.054
565.3100, 1366.084
565.7921, 1364.890
566.2742, 1363.739
566.7563, 1362.892
567.2385, 1359.397
567.7206, 1352.001
568.2027, 1342.403
568.6848, 1334.349
569.1669, 1327.627
569.6490, 1321.492
570.1312, 1316.476
570.6133, 1311.281
571.0954, 1303.612
571.5775, 1293.489
572.0596, 1283.510
572.5417, 1275.895
573.0239, 1268.697
573.5060, 1260.191
573.9881, 1249.370
574.4702, 1238.969
574.9523, 1229.762
575.4344, 1221.317
575.9166, 1213.205
576.3987, 1205.641
576.8808, 1197.828
577.3629, 1189.031
577.8450, 1179.948
578.3271, 1172.887
578.8093, 1168.351
579.2914, 1164.366
579.7735, 1160.200
580.2556, 1155.939
580.7377, 1151.969
581.2198, 1148.332
581.7020, 1144.555
582.1841, 1139.769
582.6662, 1134.592
583.1483, 1130.613
583.6304, 1128.275
584.1125, 1126.183
584.5947, 1123.311
585.0768, 1119.869
585.5589, 1116.129
586.0410, 1110.854
586.5231, 1106.844
587.0052, 1106.004
587.4874, 1107.422
587.9695, 1108.623
