##NAMES=Calzirtite
##RRUFFID=R080084
##IDEAL CHEMISTRY=Ca_2_Zr^4+^_5_Ti^4+^_2_O_16_
##LOCALITY=Jacupiranga mine, Cajati, SÃ£o Paulo, Brazil
##OWNER=RRUFF
##SOURCE=Luiz Menezes
##DESCRIPTION=Black rounded crystals associated with dark brown phlogopite, green granular diopside and black magnetite octahedra
##STATUS=The identification of this mineral has been confirmed by single-crystal X-ray diffraction.
##URL=rruff.info/R080084
92.52344, 1066.063
93.00555, 1057.641
93.48767, 1059.292
93.96979, 1094.508
94.45190, 1130.184
94.93402, 1161.447
95.41614, 1174.650
95.89825, 1176.520
96.38037, 1177.187
96.86249, 1176.407
97.34460, 1174.078
97.82672, 1171.539
98.30884, 1168.651
98.79095, 1165.522
99.27307, 1160.674
99.75519, 1153.483
100.2373, 1147.060
100.7194, 1142.410
101.2015, 1139.407
101.6837, 1138.566
102.1658, 1138.231
102.6479, 1136.720
103.1300, 1133.743
103.6121, 1131.623
104.0942, 1132.911
104.5764, 1136.034
105.0585, 1138.812
105.5406, 1139.775
106.0227, 1139.699
106.5048, 1141.128
106.9869, 1144.909
107.4691, 1148.352
107.9512, 1150.061
108.4333, 1150.412
108.9154, 1150.391
109.3975, 1150.486
109.8796, 1150.449
110.3618, 1151.898
110.8439, 1156.461
111.3260, 1161.077
111.8081, 1164.527
112.2902, 1166.589
112.7723, 1167.718
113.2544, 1168.552
113.7366, 1169.356
114.2187, 1169.207
114.7008, 1167.481
115.1829, 1165.189
115.6650, 1163.170
116.1471, 1161.715
116.6293, 1160.684
117.1114, 1159.814
117.5935, 1159.119
118.0756, 1158.495
118.5577, 1157.717
119.0398, 1156.959
119.5220, 1156.569
120.0041, 1156.505
120.4862, 1157.186
120.9683, 1159.224
121.4504, 1163.125
121.9325, 1167.452
122.4147, 1171.024
122.8968, 1173.770
123.3789, 1176.535
123.8610, 1179.945
124.3431, 1183.510
124.8252, 1186.585
125.3074, 1188.582
125.7895, 1190.447
126.2716, 1194.313
126.7537, 1201.215
127.2358, 1208.359
127.7179, 1215.402
128.2001, 1221.988
128.6822, 1227.632
129.1643, 1231.845
129.6464, 1234.797
130.1285, 1238.420
130.6107, 1242.877
131.0928, 1247.966
131.5749, 1254.214
132.0570, 1261.127
132.5391, 1267.734
133.0212, 1273.077
133.5034, 1276.923
133.9855, 1281.222
134.4676, 1285.301
134.9497, 1290.240
135.4318, 1297.557
135.9139, 1307.020
136.3960, 1316.082
136.8782, 1321.301
137.3603, 1321.521
137.8424, 1324.311
138.3245, 1331.739
138.8066, 1341.308
139.2887, 1350.447
139.7709, 1358.757
140.2530, 1365.859
140.7351, 1370.651
141.2172, 1373.350
141.6993, 1376.168
142.1814, 1380.117
142.6636, 1384.930
143.1457, 1389.663
143.6278, 1394.051
144.1099, 1398.335
144.5920, 1402.733
145.0741, 1407.236
145.5563, 1411.862
146.0384, 1416.831
146.5205, 1422.249
147.0026, 1427.038
147.4847, 1430.389
147.9668, 1433.453
148.4490, 1436.948
148.9311, 1440.978
149.4132, 1445.044
149.8953, 1448.096
150.3774, 1448.696
150.8595, 1451.420
151.3417, 1457.973
151.8238, 1465.581
152.3059, 1471.913
152.7880, 1476.081
153.2701, 1479.079
153.7522, 1483.360
154.2344, 1491.652
154.7165, 1498.070
155.1986, 1501.896
155.6807, 1503.892
156.1628, 1504.954
156.6449, 1505.502
157.1271, 1505.495
157.6092, 1504.663
158.0913, 1502.989
158.5734, 1500.730
159.0555, 1497.905
159.5376, 1494.546
160.0198, 1490.644
160.5019, 1486.024
160.9840, 1480.938
161.4661, 1476.455
161.9482, 1473.909
162.4303, 1470.588
162.9125, 1463.837
163.3946, 1453.820
163.8767, 1444.507
164.3588, 1438.660
164.8409, 1435.032
165.3230, 1431.508
165.8052, 1428.090
166.2873, 1424.344
166.7694, 1419.041
167.2515, 1411.116
167.7336, 1405.313
168.2157, 1405.492
168.6979, 1408.559
169.1800, 1411.000
169.6621, 1411.013
170.1442, 1409.683
170.6263, 1410.254
171.1084, 1414.333
171.5906, 1417.797
172.0727, 1418.237
172.5548, 1417.526
173.0369, 1418.370
173.5190, 1422.620
174.0011, 1429.839
174.4833, 1436.331
174.9654, 1441.869
175.4475, 1446.809
175.9296, 1450.570
176.4117, 1453.778
176.8938, 1457.528
177.3760, 1462.670
177.8581, 1469.240
178.3402, 1475.842
178.8223, 1482.784
179.3044, 1489.452
179.7865, 1495.338
180.2687, 1500.678
180.7508, 1506.129
181.2329, 1512.203
181.7150, 1518.988
182.1971, 1526.022
182.6792, 1534.699
183.1614, 1542.472
183.6435, 1547.406
184.1256, 1549.605
184.6077, 1551.152
185.0898, 1553.999
185.5719, 1558.208
186.0541, 1561.164
186.5362, 1562.316
187.0183, 1562.457
187.5004, 1562.368
187.9825, 1562.152
188.4646, 1561.269
188.9468, 1559.073
189.4289, 1555.736
189.9110, 1551.678
190.3931, 1547.097
190.8752, 1541.818
191.3573, 1535.505
191.8395, 1528.063
192.3216, 1519.731
192.8037, 1510.001
193.2858, 1499.536
193.7679, 1489.846
194.2500, 1482.584
194.7322, 1476.756
195.2143, 1468.696
195.6964, 1456.687
196.1785, 1445.068
196.6606, 1436.203
197.1427, 1429.402
197.6249, 1423.252
198.1070, 1416.678
198.5891, 1409.826
199.0712, 1404.272
199.5533, 1400.823
200.0354, 1397.912
200.5176, 1394.923
200.9997, 1391.979
201.4818, 1389.458
201.9639, 1387.736
202.4460, 1386.828
202.9281, 1385.917
203.4103, 1384.638
203.8924, 1383.712
204.3745, 1383.364
204.8566, 1383.570
205.3387, 1384.223
205.8208, 1385.239
206.3030, 1386.638
206.7851, 1388.330
207.2672, 1390.721
207.7493, 1393.010
208.2314, 1394.685
208.7135, 1395.905
209.1957, 1397.302
209.6778, 1399.558
210.1599, 1402.922
210.6420, 1404.982
211.1241, 1404.580
211.6062, 1404.130
212.0884, 1404.543
212.5705, 1405.987
213.0526, 1408.570
213.5347, 1412.630
214.0168, 1418.407
214.4989, 1423.150
214.9811, 1426.777
215.4632, 1429.561
215.9453, 1431.418
216.4274, 1432.434
216.9095, 1433.260
217.3916, 1434.617
217.8737, 1436.452
218.3559, 1437.184
218.8380, 1434.899
219.3201, 1432.738
219.8022, 1433.963
220.2843, 1438.816
220.7664, 1444.010
221.2486, 1446.826
221.7307, 1447.748
222.2128, 1448.828
222.6949, 1450.103
223.1770, 1451.798
223.6591, 1454.186
224.1413, 1457.299
224.6234, 1460.897
225.1055, 1465.087
225.5876, 1469.612
226.0697, 1474.039
226.5518, 1478.407
227.0340, 1482.508
227.5161, 1485.878
227.9982, 1488.299
228.4803, 1490.723
228.9624, 1493.734
229.4445, 1497.052
229.9267, 1500.372
230.4088, 1503.471
230.8909, 1506.570
231.3730, 1510.244
231.8551, 1514.963
232.3372, 1519.028
232.8194, 1521.154
233.3015, 1522.510
233.7836, 1524.524
234.2657, 1527.944
234.7478, 1532.106
235.2299, 1535.434
235.7121, 1537.459
236.1942, 1539.625
236.6763, 1542.884
237.1584, 1546.292
237.6405, 1548.685
238.1227, 1549.445
238.6048, 1549.395
239.0869, 1550.883
239.5690, 1555.848
240.0511, 1558.852
240.5332, 1558.272
241.0154, 1555.847
241.4975, 1553.037
241.9796, 1550.456
242.4617, 1548.194
242.9438, 1546.613
243.4259, 1546.651
243.9081, 1545.845
244.3902, 1543.646
244.8723, 1540.721
245.3544, 1537.640
245.8365, 1534.617
246.3186, 1531.628
246.8008, 1528.590
247.2829, 1525.606
247.7650, 1522.400
248.2471, 1519.003
248.7292, 1515.372
249.2113, 1511.101
249.6935, 1506.133
250.1756, 1501.312
250.6577, 1498.348
251.1398, 1499.274
251.6219, 1499.205
252.1040, 1497.366
252.5862, 1494.989
253.0683, 1492.846
253.5504, 1491.248
254.0325, 1490.547
254.5146, 1491.406
254.9967, 1495.057
255.4789, 1498.115
255.9610, 1499.846
256.4431, 1501.411
256.9252, 1503.739
257.4073, 1507.078
257.8894, 1511.240
258.3716, 1516.036
258.8537, 1521.755
259.3358, 1527.477
259.8179, 1532.535
260.3000, 1538.016
260.7821, 1545.027
261.2643, 1553.737
261.7464, 1563.241
262.2285, 1572.618
262.7106, 1581.849
263.1927, 1591.377
263.6748, 1600.974
264.1570, 1610.984
264.6391, 1621.805
265.1212, 1633.431
265.6033, 1645.334
266.0854, 1657.211
266.5675, 1668.956
267.0497, 1679.146
267.5318, 1686.835
268.0139, 1693.535
268.4960, 1699.978
268.9781, 1706.282
269.4602, 1713.326
269.9424, 1722.089
270.4245, 1732.317
270.9066, 1741.797
271.3887, 1750.647
271.8708, 1758.649
272.3529, 1765.366
272.8351, 1770.895
273.3172, 1776.111
273.7993, 1781.595
274.2814, 1787.144
274.7635, 1792.207
275.2456, 1796.544
275.7278, 1800.633
276.2099, 1805.230
276.6920, 1810.148
277.1741, 1813.789
277.6562, 1815.102
278.1383, 1814.703
278.6205, 1814.231
279.1026, 1813.713
279.5847, 1813.040
280.0668, 1812.480
280.5489, 1811.854
281.0310, 1810.105
281.5132, 1806.724
281.9953, 1802.050
282.4774, 1797.045
282.9595, 1791.884
283.4416, 1785.450
283.9237, 1776.698
284.4059, 1766.021
284.8880, 1754.804
285.3701, 1742.950
285.8522, 1731.319
286.3343, 1721.236
286.8164, 1712.606
287.2986, 1703.099
287.7807, 1691.221
288.2628, 1677.436
288.7449, 1663.252
289.2270, 1648.522
289.7091, 1633.985
290.1913, 1619.723
290.6734, 1605.929
291.1555, 1593.115
291.6376, 1582.373
292.1197, 1572.797
292.6018, 1561.829
293.0840, 1548.796
293.5661, 1535.873
294.0482, 1524.476
294.5303, 1514.213
295.0124, 1504.371
295.4945, 1495.255
295.9767, 1486.194
296.4588, 1475.540
296.9409, 1462.542
297.4230, 1450.520
297.9051, 1441.310
298.3872, 1433.947
298.8694, 1427.737
299.3515, 1423.000
299.8336, 1418.443
300.3157, 1412.162
300.7978, 1403.843
301.2799, 1395.447
301.7621, 1387.106
302.2442, 1379.341
302.7263, 1372.922
303.2084, 1368.176
303.6905, 1363.594
304.1726, 1357.098
304.6548, 1348.564
305.1369, 1341.484
305.6190, 1338.126
306.1011, 1335.365
306.5832, 1330.400
307.0653, 1323.144
307.5475, 1316.289
308.0296, 1312.432
308.5117, 1311.305
308.9938, 1309.529
309.4759, 1306.479
309.9580, 1302.899
310.4402, 1299.385
310.9223, 1295.870
311.4044, 1292.041
311.8865, 1287.205
312.3686, 1281.791
312.8507, 1277.708
313.3329, 1275.534
313.8150, 1273.786
314.2971, 1271.595
314.7792, 1269.191
315.2613, 1267.020
315.7434, 1265.450
316.2256, 1264.111
316.7077, 1262.136
317.1898, 1259.280
317.6719, 1256.404
318.1540, 1253.760
318.6361, 1251.340
319.1183, 1249.313
319.6004, 1247.914
320.0825, 1246.370
320.5646, 1243.386
321.0467, 1238.687
321.5288, 1234.294
322.0110, 1230.773
322.4931, 1227.896
322.9752, 1225.686
323.4573, 1224.169
323.9394, 1222.848
324.4215, 1221.642
324.9037, 1220.539
325.3858, 1218.104
325.8679, 1213.144
326.3500, 1207.680
326.8321, 1202.540
327.3142, 1197.947
327.7964, 1194.923
328.2785, 1195.392
328.7606, 1198.385
329.2427, 1199.034
329.7248, 1196.245
330.2069, 1192.486
330.6891, 1188.583
331.1712, 1184.920
331.6533, 1182.406
332.1354, 1182.041
332.6175, 1182.781
333.0996, 1182.531
333.5818, 1181.127
334.0639, 1179.241
334.5460, 1176.508
335.0281, 1173.722
335.5102, 1171.889
335.9923, 1171.414
336.4745, 1171.584
336.9566, 1171.844
337.4387, 1172.239
337.9208, 1171.878
338.4029, 1169.706
338.8850, 1167.181
339.3671, 1165.858
339.8492, 1165.928
340.3314, 1166.130
340.8135, 1165.133
341.2956, 1163.254
341.7777, 1162.740
342.2598, 1164.930
342.7419, 1167.210
343.2241, 1167.221
343.7062, 1165.318
344.1883, 1163.173
344.6704, 1161.308
345.1525, 1159.794
345.6346, 1159.013
346.1168, 1159.291
346.5989, 1159.300
347.0810, 1157.334
347.5631, 1154.487
348.0452, 1152.743
348.5273, 1153.063
349.0095, 1154.285
349.4916, 1155.713
349.9737, 1157.385
350.4558, 1157.308
350.9379, 1153.202
351.4200, 1147.559
351.9022, 1144.468
352.3843, 1144.698
352.8664, 1145.877
353.3485, 1146.838
353.8306, 1147.545
354.3127, 1147.824
354.7949, 1147.561
355.2770, 1146.951
355.7591, 1145.911
356.2412, 1144.419
356.7233, 1143.809
357.2054, 1145.598
357.6876, 1148.235
358.1697, 1148.961
358.6518, 1147.197
359.1339, 1145.144
359.6160, 1144.777
360.0981, 1145.821
360.5803, 1146.756
361.0624, 1147.542
361.5445, 1148.053
362.0266, 1147.951
362.5087, 1147.341
362.9908, 1147.042
363.4730, 1147.637
363.9551, 1148.791
364.4372, 1149.441
364.9193, 1149.300
365.4014, 1149.174
365.8835, 1149.422
366.3657, 1149.910
366.8478, 1150.292
367.3299, 1150.390
367.8120, 1150.604
368.2941, 1151.830
368.7762, 1154.556
369.2584, 1156.097
369.7405, 1155.243
370.2226, 1153.525
370.7047, 1152.330
371.1868, 1151.850
371.6689, 1151.722
372.1511, 1151.681
372.6332, 1151.734
373.1153, 1151.573
373.5974, 1150.972
374.0795, 1150.411
374.5616, 1149.942
375.0438, 1149.690
375.5259, 1150.048
376.0080, 1151.337
376.4901, 1153.142
376.9722, 1153.967
377.4543, 1152.234
377.9365, 1151.554
378.4186, 1153.380
378.9007, 1155.941
379.3828, 1157.180
379.8649, 1156.563
380.3470, 1155.148
380.8292, 1154.421
381.3113, 1154.700
381.7934, 1154.720
382.2755, 1154.431
382.7576, 1153.969
383.2397, 1153.311
383.7219, 1152.536
384.2040, 1151.820
384.6861, 1151.287
385.1682, 1150.946
385.6503, 1150.942
386.1324, 1151.533
386.6146, 1152.210
387.0967, 1153.267
387.5788, 1154.237
388.0609, 1154.443
388.5430, 1153.598
389.0251, 1152.201
389.5073, 1151.227
389.9894, 1150.751
390.4715, 1150.563
390.9536, 1150.832
391.4357, 1151.182
391.9178, 1151.394
392.4000, 1151.435
392.8821, 1151.354
393.3642, 1151.039
393.8463, 1150.457
394.3284, 1150.769
394.8105, 1153.123
395.2927, 1155.054
395.7748, 1155.399
396.2569, 1154.834
396.7390, 1154.549
397.2211, 1155.201
397.7032, 1156.337
398.1854, 1156.734
398.6675, 1155.852
399.1496, 1155.905
399.6317, 1158.688
400.1138, 1161.939
400.5959, 1163.958
401.0781, 1164.459
401.5602, 1164.309
402.0423, 1164.190
402.5244, 1164.092
403.0065, 1163.813
403.4886, 1162.997
403.9708, 1162.511
404.4529, 1163.205
404.9350, 1164.697
405.4171, 1165.904
405.8992, 1165.837
406.3813, 1165.484
406.8635, 1166.781
407.3456, 1169.969
407.8277, 1172.558
408.3098, 1172.906
408.7919, 1172.088
409.2740, 1171.984
409.7562, 1172.900
410.2383, 1173.999
410.7204, 1174.795
411.2025, 1175.379
411.6846, 1175.922
412.1667, 1176.358
412.6489, 1177.102
413.1310, 1178.982
413.6131, 1181.973
414.0952, 1184.385
414.5773, 1185.665
415.0594, 1186.427
415.5416, 1186.862
416.0237, 1187.124
416.5058, 1188.122
416.9879, 1190.660
417.4700, 1194.365
417.9521, 1197.181
418.4343, 1198.027
418.9164, 1199.423
419.3985, 1202.257
419.8806, 1205.998
420.3627, 1210.043
420.8448, 1214.198
421.3270, 1218.100
421.8091, 1221.095
422.2912, 1222.439
422.7733, 1225.060
423.2554, 1229.945
423.7375, 1235.123
424.2197, 1239.382
424.7018, 1242.833
425.1839, 1246.299
425.6660, 1250.449
426.1481, 1255.050
426.6302, 1258.591
427.1124, 1259.676
427.5945, 1261.360
428.0766, 1264.174
428.5587, 1267.664
429.0408, 1271.461
429.5229, 1275.424
430.0051, 1279.522
430.4872, 1283.895
430.9693, 1288.815
431.4514, 1292.811
431.9335, 1295.750
432.4156, 1297.791
432.8978, 1298.235
433.3799, 1297.777
433.8620, 1298.057
434.3441, 1300.253
434.8262, 1303.750
435.3083, 1307.024
435.7905, 1310.451
436.2726, 1312.551
436.7547, 1312.046
437.2368, 1310.357
437.7189, 1308.540
438.2010, 1306.777
438.6832, 1305.018
439.1653, 1303.676
439.6474, 1302.468
440.1295, 1299.549
440.6116, 1293.861
441.0938, 1287.923
441.5759, 1284.149
442.0580, 1281.936
442.5401, 1279.538
443.0222, 1277.392
443.5043, 1274.227
443.9865, 1268.115
444.4686, 1259.386
444.9507, 1250.843
445.4328, 1243.963
445.9149, 1237.893
446.3970, 1230.668
446.8792, 1222.026
447.3613, 1213.309
447.8434, 1204.764
448.3255, 1196.393
448.8076, 1188.247
449.2897, 1180.289
449.7719, 1172.412
450.2540, 1164.594
450.7361, 1156.830
451.2182, 1148.397
451.7003, 1138.057
452.1824, 1128.505
452.6646, 1121.412
453.1467, 1115.579
453.6288, 1108.899
454.1109, 1100.426
454.5930, 1091.182
455.0751, 1083.182
455.5573, 1077.331
456.0394, 1070.981
456.5215, 1063.964
457.0036, 1056.677
457.4857, 1048.898
457.9678, 1040.976
458.4500, 1033.715
458.9321, 1027.782
459.4142, 1023.021
459.8963, 1018.484
460.3784, 1014.338
460.8605, 1010.141
461.3427, 1005.701
461.8248, 1001.162
462.3069, 996.7999
462.7890, 992.6818
463.2711, 988.1684
463.7532, 981.9586
464.2354, 974.2550
464.7175, 968.6720
465.1996, 966.6788
465.6817, 965.1954
466.1638, 961.6100
466.6459, 956.7851
467.1281, 952.9365
467.6102, 951.3964
468.0923, 950.6083
468.5744, 948.9200
469.0565, 946.3952
469.5386, 943.8336
470.0208, 941.5167
470.5029, 939.3520
470.9850, 936.9944
471.4671, 934.1607
471.9492, 932.4330
472.4313, 933.3282
472.9135, 934.8666
473.3956, 934.9788
473.8777, 933.4940
474.3598, 931.1498
474.8419, 928.3112
475.3240, 925.1098
475.8062, 922.9011
476.2883, 922.0121
476.7704, 921.5661
477.2525, 921.6401
477.7346, 921.9681
478.2167, 922.1486
478.6989, 922.1123
479.1810, 922.2853
479.6631, 923.3734
480.1452, 925.7517
480.6273, 927.0611
481.1094, 926.2322
481.5916, 925.4046
482.0737, 925.0132
482.5558, 925.1467
483.0379, 925.9553
483.5200, 927.5854
484.0021, 929.5455
484.4843, 930.7574
484.9664, 930.9355
485.4485, 931.7131
485.9306, 934.0245
486.4127, 936.5141
486.8948, 938.2440
487.3770, 939.2952
487.8591, 940.3261
488.3412, 941.5641
488.8233, 943.0756
489.3054, 945.2553
489.7875, 948.2182
490.2697, 950.5990
490.7518, 951.4442
491.2339, 951.3661
491.7160, 951.5670
492.1981, 951.8505
492.6802, 952.9791
493.1624, 956.0792
493.6445, 959.9227
494.1266, 962.3145
494.6087, 962.9402
495.0908, 963.8515
495.5729, 967.1415
496.0551, 972.7534
496.5372, 976.6156
497.0193, 976.9326
497.5014, 977.8571
497.9835, 981.7382
498.4656, 986.6265
498.9478, 989.5240
499.4299, 989.5195
499.9120, 988.3871
500.3941, 988.7394
500.8762, 991.0946
501.3583, 992.8738
501.8405, 993.4576
502.3226, 994.0856
502.8047, 995.3907
503.2868, 997.0291
503.7689, 998.1454
504.2510, 998.1866
504.7331, 998.1229
505.2152, 1000.006
505.6974, 1004.233
506.1795, 1008.020
506.6616, 1011.268
507.1437, 1013.371
507.6258, 1013.182
508.1079, 1011.215
508.5901, 1010.175
509.0722, 1011.772
509.5543, 1014.855
510.0364, 1018.114
510.5185, 1021.514
511.0006, 1024.230
511.4828, 1025.641
511.9649, 1026.317
512.4470, 1027.315
512.9291, 1028.425
513.4113, 1030.404
513.8934, 1034.302
514.3755, 1038.633
514.8576, 1041.658
515.3397, 1043.368
515.8218, 1045.083
516.3040, 1047.884
516.7861, 1051.517
517.2682, 1054.107
517.7503, 1054.080
518.2324, 1054.961
518.7145, 1057.574
519.1967, 1060.945
519.6788, 1064.405
520.1609, 1067.698
520.6430, 1070.534
521.1251, 1072.344
521.6072, 1073.203
522.0894, 1075.537
522.5715, 1080.727
523.0536, 1085.203
523.5357, 1086.976
524.0178, 1087.822
524.4999, 1089.964
524.9821, 1094.071
525.4642, 1098.384
525.9463, 1101.375
526.4284, 1103.215
526.9105, 1104.658
527.3926, 1105.670
527.8748, 1106.670
528.3569, 1107.975
528.8390, 1109.542
529.3211, 1111.248
529.8032, 1113.481
530.2853, 1115.390
530.7675, 1116.001
531.2496, 1116.039
531.7317, 1117.141
532.2138, 1119.803
532.6959, 1122.760
533.1780, 1124.423
533.6602, 1124.554
534.1423, 1124.834
534.6244, 1125.779
535.1065, 1126.285
535.5886, 1126.053
536.0707, 1125.077
536.5529, 1123.065
537.0350, 1119.959
537.5171, 1116.763
537.9992, 1115.343
538.4813, 1116.176
538.9634, 1116.383
539.4456, 1116.289
539.9277, 1114.991
540.4098, 1110.892
540.8919, 1105.500
541.3740, 1101.905
541.8561, 1101.770
542.3383, 1102.923
542.8204, 1103.289
543.3025, 1102.798
543.7846, 1100.400
544.2667, 1094.994
544.7488, 1089.266
545.2310, 1086.501
545.7131, 1086.349
546.1952, 1085.865
546.6773, 1084.871
547.1594, 1083.192
547.6415, 1079.992
548.1237, 1076.032
548.6058, 1073.311
549.0879, 1072.694
549.5700, 1072.837
550.0521, 1071.388
550.5342, 1067.261
551.0164, 1064.938
551.4985, 1066.441
551.9806, 1067.424
552.4627, 1065.615
552.9448, 1061.939
553.4269, 1058.219
553.9091, 1055.288
554.3912, 1053.008
554.8733, 1051.229
555.3554, 1050.003
555.8375, 1048.836
556.3196, 1047.478
556.8018, 1046.394
557.2839, 1046.643
557.7660, 1047.418
558.2481, 1046.378
558.7302, 1041.749
559.2123, 1036.096
559.6945, 1031.859
560.1766, 1028.850
560.6587, 1026.388
561.1408, 1024.401
561.6229, 1022.446
562.1050, 1019.931
562.5872, 1016.769
563.0693, 1013.632
563.5514, 1010.320
564.0335, 1007.259
564.5156, 1004.923
564.9977, 1002.953
565.4799, 1000.647
565.9620, 997.7377
566.4441, 994.5648
566.9262, 991.6946
567.4083, 989.2527
567.8904, 986.5894
568.3726, 983.7575
568.8547, 980.6149
569.3368, 977.0814
569.8189, 973.2015
570.3010, 968.9576
570.7831, 964.2032
571.2653, 959.5990
571.7474, 955.5891
572.2295, 952.2723
572.7116, 950.8035
573.1937, 952.3558
573.6758, 953.3233
574.1580, 949.9615
574.6401, 943.3606
575.1222, 937.7883
575.6043, 934.6251
576.0864, 931.4567
576.5685, 926.6356
577.0507, 921.1953
577.5328, 916.9448
578.0149, 914.3063
578.4970, 912.3461
578.9791, 910.1119
579.4612, 907.5969
579.9434, 905.0194
580.4255, 901.6691
580.9076, 899.1207
581.3897, 898.2800
581.8718, 898.0468
582.3539, 897.2726
582.8361, 895.6830
583.3182, 893.7162
583.8003, 891.4190
584.2824, 888.9642
584.7645, 887.8520
585.2466, 888.5423
585.7288, 889.2587
586.2108, 889.2153
586.6929, 888.6208
587.1750, 887.7183
587.6572, 886.4547
588.1393, 885.1700
