##NAMES=Cancrinite
##RRUFFID=R100110
##IDEAL CHEMISTRY=(Na,Ca,[box])_8_(Al_6_Si_6_)O_24_(CO_3_,S^6+^O_4_)_2_&#183;2H_2_O
##LOCALITY=French River, Ontario, Canada
##OWNER=RRUFF
##SOURCE=Robert Woodside
##DESCRIPTION=Brownish-orange massive. One of 4 specimens collected by Sam Gordon in 1932 for the Philadelphia Academy of Sciences (#21833)
##STATUS=The identification of this mineral has been confirmed only by single crystal X-ray diffraction.
##URL=rruff.info/R100110
128.5794, 19.52833
129.0615, 20.91129
129.5436, 21.93225
130.0258, 22.20700
130.5079, 22.20683
130.9900, 22.79271
131.4721, 23.95921
131.9542, 25.34421
132.4363, 26.72538
132.9185, 28.08921
133.4006, 29.29210
133.8827, 30.02815
134.3648, 30.61020
134.8469, 32.42951
135.3290, 35.68399
135.8112, 39.32137
136.2933, 41.88754
136.7754, 43.29117
137.2575, 45.22820
137.7396, 48.31214
138.2217, 52.47054
138.7039, 57.10295
139.1860, 62.26799
139.6681, 67.82984
140.1502, 73.71781
140.6323, 79.89437
141.1144, 86.32803
141.5966, 93.09708
142.0787, 100.2759
142.5608, 107.3363
143.0429, 114.3636
143.5250, 121.2110
144.0071, 127.4646
144.4893, 132.8834
144.9714, 138.0113
145.4535, 143.0001
145.9356, 147.8447
146.4177, 152.6340
146.8998, 157.1548
147.3820, 161.6029
147.8641, 167.0406
148.3462, 174.0332
148.8283, 181.4135
149.3104, 188.6233
149.7925, 194.8835
150.2747, 201.9460
150.7568, 210.0063
151.2389, 218.9942
151.7210, 228.1302
152.2031, 237.0477
152.6852, 246.2361
153.1674, 256.1031
153.6495, 267.8672
154.1316, 278.9662
154.6137, 289.2333
155.0958, 298.6667
155.5779, 306.8053
156.0601, 312.3341
156.5422, 317.1283
157.0243, 322.7250
157.5064, 330.1034
157.9885, 337.6587
158.4706, 345.2641
158.9528, 353.0270
159.4349, 359.6954
159.9170, 364.0442
160.3991, 367.3952
160.8812, 371.2766
161.3633, 376.5974
161.8455, 382.1648
162.3276, 387.3480
162.8097, 391.8416
163.2918, 396.8486
163.7739, 403.1514
164.2560, 409.7524
164.7382, 413.2137
165.2203, 415.0552
165.7024, 416.8860
166.1845, 419.2955
166.6666, 422.6639
167.1487, 425.6354
167.6309, 427.0194
168.1130, 427.4930
168.5951, 428.4589
169.0772, 430.9904
169.5593, 434.0713
170.0414, 436.8549
170.5236, 439.1675
171.0057, 441.2513
171.4878, 443.5387
171.9699, 445.8334
172.4520, 447.4857
172.9341, 447.1240
173.4163, 446.3022
173.8984, 447.0300
174.3805, 450.4775
174.8626, 454.3388
175.3447, 456.3286
175.8268, 456.7723
176.3090, 457.1801
176.7911, 458.6949
177.2732, 460.8124
177.7553, 462.7340
178.2374, 464.3108
178.7195, 465.5491
179.2017, 466.3145
179.6838, 466.6577
180.1659, 467.0048
180.6480, 467.6286
181.1301, 468.5027
181.6122, 469.6301
182.0944, 471.2974
182.5765, 473.0060
183.0586, 473.7897
183.5407, 473.6480
184.0228, 473.3698
184.5049, 473.5170
184.9871, 474.0751
185.4692, 475.0221
185.9513, 476.6098
186.4334, 478.4839
186.9155, 479.8876
187.3976, 480.8080
187.8798, 481.3541
188.3619, 481.4219
188.8440, 481.1065
189.3261, 481.0147
189.8082, 481.3936
190.2903, 482.1506
190.7725, 483.1196
191.2546, 484.4040
191.7367, 485.4239
192.2188, 485.2237
192.7009, 483.8796
193.1830, 482.9011
193.6652, 483.1614
194.1473, 484.3752
194.6294, 484.5738
195.1115, 483.5419
195.5936, 482.2163
196.0757, 481.8524
196.5579, 482.4734
197.0400, 483.3121
197.5221, 484.2201
198.0042, 485.1690
198.4863, 485.6747
198.9684, 485.6582
199.4506, 485.3755
199.9327, 485.1095
200.4148, 484.8314
200.8969, 484.8047
201.3790, 485.3244
201.8611, 486.4228
202.3433, 486.8419
202.8254, 486.3155
203.3075, 485.5184
203.7896, 485.8105
204.2717, 487.4637
204.7538, 488.7833
205.2360, 488.7886
205.7181, 487.2507
206.2002, 486.5481
206.6823, 486.9243
207.1644, 487.8347
207.6465, 488.1777
208.1287, 487.7239
208.6108, 487.5073
209.0929, 488.1400
209.5750, 489.8792
210.0571, 491.1110
210.5392, 491.7246
211.0214, 491.9601
211.5035, 492.2057
211.9856, 492.3257
212.4677, 492.8452
212.9498, 494.2038
213.4319, 496.7513
213.9141, 498.5982
214.3962, 499.5762
214.8783, 499.9442
215.3604, 500.2644
215.8425, 500.5363
216.3246, 500.7462
216.8067, 500.8202
217.2889, 500.6065
217.7710, 500.7359
218.2531, 501.2273
218.7352, 502.0439
219.2173, 503.1236
219.6994, 504.4721
220.1816, 506.0680
220.6637, 508.1234
221.1458, 511.2224
221.6279, 513.0649
222.1100, 513.3176
222.5921, 512.4416
223.0743, 511.5528
223.5564, 510.5305
224.0385, 509.7462
224.5206, 509.3718
225.0027, 509.3932
225.4848, 509.9004
225.9670, 511.0861
226.4491, 512.6976
226.9312, 514.2059
227.4133, 515.9857
227.8954, 517.0345
228.3775, 516.5981
228.8597, 513.4460
229.3418, 511.8631
229.8239, 512.5096
230.3060, 514.5627
230.7881, 515.6931
231.2702, 515.3376
231.7524, 514.8956
232.2345, 515.0297
232.7166, 516.0837
233.1987, 516.9081
233.6808, 517.5590
234.1629, 517.9617
234.6451, 517.8709
235.1272, 517.0284
235.6093, 516.1030
236.0914, 515.3185
236.5735, 514.4250
237.0556, 514.3611
237.5378, 515.6688
238.0199, 517.6703
238.5020, 518.5902
238.9841, 517.9413
239.4662, 516.9683
239.9483, 516.1331
240.4305, 515.3297
240.9126, 514.9308
241.3947, 515.0001
241.8768, 515.4414
242.3589, 516.0818
242.8410, 517.1630
243.3232, 518.0475
243.8053, 518.3422
244.2874, 517.4642
244.7695, 517.4597
245.2516, 518.8333
245.7337, 520.8795
246.2159, 521.9420
246.6980, 521.3537
247.1801, 520.8392
247.6622, 521.0469
248.1443, 522.1049
248.6264, 523.5983
249.1086, 525.7781
249.5907, 528.2874
250.0728, 530.3920
250.5549, 531.9941
251.0370, 533.3494
251.5191, 534.4285
252.0013, 534.9186
252.4834, 536.1498
252.9655, 538.3112
253.4476, 541.0709
253.9297, 543.9365
254.4118, 547.2351
254.8940, 549.9460
255.3761, 551.4929
255.8582, 551.3906
256.3403, 552.1811
256.8224, 554.3699
257.3046, 557.0704
257.7867, 558.5367
258.2688, 557.7891
258.7509, 557.9359
259.2330, 560.3098
259.7151, 565.4710
260.1973, 569.6786
260.6794, 572.6946
261.1615, 574.9257
261.6436, 576.7125
262.1257, 577.6922
262.6078, 579.1649
263.0900, 581.6934
263.5721, 585.4662
264.0542, 588.5060
264.5363, 590.3989
265.0184, 592.0710
265.5005, 595.0001
265.9827, 599.7699
266.4648, 603.9619
266.9469, 606.5541
267.4290, 607.4733
267.9111, 609.6730
268.3932, 613.6471
268.8754, 618.1063
269.3575, 621.5923
269.8396, 623.9727
270.3217, 625.9655
270.8038, 627.5917
271.2859, 628.9062
271.7681, 630.7008
272.2502, 633.1109
272.7323, 635.7278
273.2144, 638.1377
273.6965, 640.3729
274.1786, 642.2869
274.6608, 643.7869
275.1429, 644.9317
275.6250, 646.2911
276.1071, 648.0208
276.5892, 649.5248
277.0714, 650.1932
277.5535, 649.9775
278.0356, 649.4678
278.5177, 648.7858
278.9998, 647.8967
279.4819, 646.6305
279.9641, 644.9532
280.4462, 643.0182
280.9283, 641.0464
281.4104, 639.0781
281.8925, 636.4036
282.3746, 632.6889
282.8568, 628.3734
283.3389, 624.7541
283.8210, 621.8990
284.3031, 619.1719
284.7852, 616.1391
285.2673, 612.8297
285.7495, 609.3175
286.2316, 605.4157
286.7137, 601.5709
287.1958, 598.8258
287.6779, 597.1979
288.1600, 595.8976
288.6422, 594.3962
289.1243, 592.7469
289.6064, 591.5356
290.0885, 590.9043
290.5706, 590.4468
291.0527, 589.3332
291.5349, 587.6306
292.0170, 586.2477
292.4991, 586.2662
292.9812, 587.1132
293.4633, 586.5573
293.9454, 584.3232
294.4276, 581.3929
294.9097, 578.7861
295.3918, 576.5215
295.8739, 574.7613
296.3560, 574.2361
296.8381, 574.2079
297.3203, 572.6943
297.8024, 569.5251
298.2845, 566.1228
298.7666, 564.1326
299.2487, 563.1817
299.7308, 562.0714
300.2130, 560.1748
300.6951, 557.8693
301.1772, 555.6743
301.6593, 553.6018
302.1414, 551.7325
302.6235, 550.3145
303.1057, 549.1650
303.5878, 547.9384
304.0699, 546.3575
304.5520, 544.7637
305.0341, 543.6053
305.5162, 542.8465
305.9984, 542.1248
306.4805, 541.4034
306.9626, 540.5023
307.4447, 539.0716
307.9268, 536.3566
308.4089, 533.9285
308.8911, 533.4882
309.3732, 534.6390
309.8553, 535.7644
310.3374, 536.1396
310.8195, 535.9123
311.3016, 535.1378
311.7838, 533.6056
312.2659, 532.0182
312.7480, 531.0427
313.2301, 530.4062
313.7122, 529.4052
314.1943, 526.8862
314.6765, 524.4143
315.1586, 523.1254
315.6407, 523.3431
316.1228, 524.1837
316.6049, 525.8678
317.0870, 527.8244
317.5692, 529.0916
318.0513, 528.6672
318.5334, 528.0140
319.0155, 527.7911
319.4976, 528.0712
319.9797, 528.5890
320.4619, 529.4115
320.9440, 530.3611
321.4261, 531.2300
321.9082, 532.5107
322.3903, 533.1816
322.8724, 532.2960
323.3546, 529.7974
323.8367, 528.7348
324.3188, 531.3528
324.8009, 534.7341
325.2830, 536.6254
325.7651, 534.6145
326.2473, 533.5219
326.7294, 534.6558
327.2115, 537.6749
327.6936, 539.7914
328.1757, 540.1474
328.6578, 540.0667
329.1400, 540.1962
329.6221, 540.5419
330.1042, 541.0898
330.5863, 542.0356
331.0684, 543.1846
331.5505, 543.8945
332.0327, 543.2838
332.5148, 543.2590
332.9969, 544.7404
333.4790, 548.5010
333.9611, 551.5630
334.4432, 554.0041
334.9254, 555.6978
335.4075, 556.2467
335.8896, 554.9733
336.3717, 553.9394
336.8538, 553.8635
337.3359, 554.8522
337.8180, 555.6224
338.3001, 555.9513
338.7823, 556.4111
339.2644, 557.8475
339.7465, 560.6127
340.2286, 562.8567
340.7107, 564.0660
341.1928, 564.3649
341.6750, 564.3226
342.1571, 563.7350
342.6392, 563.5359
343.1213, 564.8254
343.6034, 567.6165
344.0855, 569.9044
344.5677, 571.3308
345.0498, 572.0624
345.5319, 572.2004
346.0140, 571.7137
346.4961, 571.5225
346.9782, 572.7916
347.4604, 575.0589
347.9425, 575.7961
348.4246, 574.4998
348.9067, 572.4969
349.3888, 571.9037
349.8709, 572.4397
350.3531, 572.5154
350.8352, 570.9114
351.3173, 568.4097
351.7994, 566.4050
352.2815, 564.9566
352.7636, 563.9899
353.2458, 564.2213
353.7279, 564.8770
354.2100, 564.2539
354.6921, 560.3601
355.1742, 555.7946
355.6563, 553.7108
356.1385, 553.8666
356.6206, 553.6636
357.1027, 550.4309
357.5848, 546.1676
358.0669, 543.2758
358.5490, 543.1474
359.0312, 543.4044
359.5133, 542.5891
359.9954, 540.9329
360.4775, 539.1588
360.9596, 537.1896
361.4417, 535.4967
361.9239, 534.4020
362.4060, 534.0374
362.8881, 534.0266
363.3702, 534.8159
363.8523, 535.7596
364.3344, 535.8692
364.8166, 533.8588
365.2987, 531.8605
365.7808, 530.7182
366.2629, 530.5330
366.7450, 530.6046
367.2271, 531.3987
367.7093, 532.1318
368.1914, 532.1156
368.6735, 530.7952
369.1556, 529.2684
369.6377, 527.1746
370.1198, 524.7017
370.6020, 523.7812
371.0841, 525.6271
371.5662, 527.9022
372.0483, 529.3536
372.5304, 529.6409
373.0125, 529.7622
373.4947, 529.7391
373.9768, 529.5583
374.4589, 529.1083
374.9410, 528.1185
375.4231, 527.4180
375.9052, 527.4319
376.3874, 528.2953
376.8695, 528.7285
377.3516, 528.5022
377.8337, 528.2424
378.3158, 528.8892
378.7979, 530.6017
379.2801, 532.0486
379.7622, 532.8184
380.2443, 533.0485
380.7264, 533.4083
381.2085, 533.9209
381.6906, 534.3649
382.1728, 534.2503
382.6549, 533.7582
383.1370, 534.2283
383.6191, 536.2507
384.1012, 538.6819
384.5833, 539.3289
385.0655, 538.4333
385.5476, 537.8256
386.0297, 538.9125
386.5118, 540.9195
386.9939, 542.4712
387.4760, 543.4213
387.9582, 544.1163
388.4403, 544.9221
388.9224, 545.7222
389.4045, 546.2717
389.8866, 545.9987
390.3687, 545.7641
390.8509, 546.5232
391.3330, 548.1766
391.8151, 549.6400
392.2972, 550.0580
392.7793, 550.0573
393.2614, 550.2305
393.7436, 550.7235
394.2257, 551.4184
394.7078, 552.4531
395.1899, 553.6703
395.6720, 554.6557
396.1541, 554.9698
396.6363, 555.2762
397.1184, 555.8719
397.6005, 556.8062
398.0826, 557.9883
398.5647, 559.4902
399.0468, 561.2076
399.5290, 563.0137
400.0111, 565.4981
400.4932, 567.4161
400.9753, 568.2667
401.4574, 568.0579
401.9395, 568.4772
402.4217, 569.9069
402.9038, 571.5543
403.3859, 572.9067
403.8680, 573.8967
404.3501, 574.7014
404.8322, 575.1514
405.3144, 575.4994
405.7965, 576.4338
406.2786, 578.0656
406.7607, 579.9277
407.2428, 581.9642
407.7249, 584.2023
408.2071, 585.7825
408.6892, 586.5463
409.1713, 587.1412
409.6534, 588.5317
410.1355, 590.6610
410.6176, 592.3895
411.0998, 592.9312
411.5819, 593.1612
412.0640, 595.7638
412.5461, 600.6149
413.0282, 605.1045
413.5103, 606.7155
413.9925, 606.5409
414.4746, 606.9317
414.9567, 608.4493
415.4388, 610.0773
415.9209, 610.5598
416.4030, 610.3134
416.8852, 610.3873
417.3673, 612.1358
417.8494, 613.8780
418.3315, 613.9055
418.8136, 612.0988
419.2957, 610.4514
419.7779, 610.5055
420.2600, 611.1014
420.7421, 611.0787
421.2242, 609.5696
421.7063, 607.9558
422.1884, 606.7908
422.6706, 605.9127
423.1527, 604.6530
423.6348, 602.7198
424.1169, 600.5109
424.5990, 598.0408
425.0811, 594.7501
425.5633, 592.5692
426.0454, 592.5059
426.5275, 593.1841
427.0096, 592.7772
427.4917, 590.0197
427.9738, 588.1504
428.4560, 588.2924
428.9381, 590.3004
429.4202, 590.6454
429.9023, 588.5014
430.3844, 586.2057
430.8665, 585.7018
431.3487, 587.3975
431.8308, 588.2753
432.3129, 587.8385
432.7950, 586.7584
433.2771, 586.6039
433.7592, 587.4238
434.2414, 587.8467
434.7235, 586.8222
435.2056, 584.8229
435.6877, 583.8553
436.1698, 583.9708
436.6519, 584.4537
437.1341, 584.7406
437.6162, 584.8422
438.0983, 584.7023
438.5804, 583.9387
439.0625, 583.4633
439.5446, 585.0367
440.0268, 588.0138
440.5089, 590.0259
440.9910, 588.9537
441.4731, 586.7468
441.9552, 585.0570
442.4373, 584.1434
442.9195, 583.5145
443.4016, 582.7302
443.8837, 582.1580
444.3658, 582.2439
444.8479, 584.1729
445.3300, 585.7219
445.8122, 585.9100
446.2943, 584.9022
446.7764, 584.2920
447.2585, 584.6116
447.7406, 585.1484
448.2227, 585.5302
448.7049, 585.4734
449.1870, 585.7850
449.6691, 586.5167
450.1512, 587.5906
450.6333, 588.9404
451.1154, 590.8487
451.5976, 592.4524
452.0797, 593.5352
452.5618, 594.1095
453.0439, 594.0505
453.5260, 593.0497
454.0081, 592.3707
454.4903, 593.2402
454.9724, 595.6269
455.4545, 597.8887
455.9366, 599.8663
456.4187, 601.5258
456.9008, 602.6502
457.3830, 603.3072
457.8651, 603.9059
458.3472, 604.7355
458.8293, 605.6214
459.3114, 606.3846
459.7935, 607.0126
460.2757, 607.1863
460.7578, 606.1035
461.2399, 604.5656
461.7220, 603.7432
462.2041, 604.2842
462.6862, 604.9997
463.1684, 605.4630
463.6505, 605.5233
464.1326, 604.8193
464.6147, 602.4670
465.0968, 599.9074
465.5789, 597.6680
466.0611, 595.6915
466.5432, 594.7809
467.0253, 596.5543
467.5074, 598.6844
467.9895, 599.2053
468.4716, 595.4662
468.9538, 593.4080
469.4359, 594.2847
469.9180, 597.0839
470.4001, 598.5629
470.8822, 598.2444
471.3643, 597.4260
471.8465, 596.2665
472.3286, 594.5734
472.8107, 594.9771
473.2928, 598.0953
473.7749, 601.8015
474.2570, 603.7471
474.7392, 603.9466
475.2213, 603.4558
475.7034, 602.2563
476.1855, 600.7991
476.6676, 599.7673
477.1497, 599.2026
477.6319, 599.5187
478.1140, 601.6146
478.5961, 604.5354
479.0782, 606.7132
479.5603, 608.0184
480.0424, 608.8722
480.5246, 608.9456
481.0067, 608.9600
481.4888, 609.9667
481.9709, 613.1422
482.4530, 616.4228
482.9352, 618.7069
483.4173, 620.2283
483.8994, 621.7294
484.3815, 623.3549
484.8636, 625.1070
485.3457, 627.1037
485.8279, 629.5693
486.3100, 631.4794
486.7921, 632.1625
487.2742, 632.5739
487.7563, 633.5262
488.2384, 634.9785
488.7206, 637.1482
489.2027, 640.5543
489.6848, 644.6208
490.1669, 646.8989
490.6490, 646.5834
491.1311, 646.8939
491.6133, 649.8452
492.0954, 655.3902
492.5775, 659.6146
493.0596, 662.4347
493.5417, 664.1937
494.0238, 664.7346
494.5060, 664.3751
494.9881, 664.6563
495.4702, 666.2196
495.9523, 668.1803
496.4344, 669.1262
496.9165, 669.3144
497.3987, 669.7113
497.8808, 671.0484
498.3629, 672.7375
498.8450, 674.3433
499.3271, 675.8544
499.8092, 676.9437
500.2914, 677.6922
500.7735, 677.8127
501.2556, 677.0307
501.7377, 674.0109
502.2198, 671.6069
502.7019, 670.8588
503.1841, 671.1887
503.6662, 671.0136
504.1483, 670.3147
504.6304, 668.9727
505.1125, 666.8641
505.5946, 663.9430
506.0768, 660.8553
506.5589, 657.2443
507.0410, 654.0497
507.5231, 652.3145
508.0052, 652.3743
508.4873, 651.7208
508.9695, 650.0054
509.4516, 647.6133
509.9337, 645.0236
510.4158, 642.2666
510.8979, 639.9422
511.3800, 638.4652
511.8622, 637.5267
512.3443, 636.5263
512.8264, 635.4599
513.3085, 634.1638
513.7906, 632.3580
514.2728, 630.3065
514.7549, 628.3188
515.2370, 626.4073
515.7191, 624.7112
516.2012, 623.5281
516.6833, 622.5800
517.1655, 621.4197
517.6476, 619.3855
518.1297, 617.6401
518.6118, 616.8450
519.0939, 616.8955
519.5760, 616.4962
520.0582, 615.3502
520.5403, 613.8420
521.0224, 611.9977
521.5045, 609.3271
521.9866, 607.7558
522.4688, 607.6104
522.9509, 608.1949
523.4330, 608.7948
523.9151, 609.4879
524.3972, 609.6635
524.8793, 608.9211
525.3615, 607.8021
525.8436, 607.9057
526.3257, 609.2152
526.8078, 610.5224
527.2899, 611.2990
527.7720, 611.5494
528.2542, 611.0814
528.7363, 609.8712
529.2184, 608.6815
529.7005, 608.0197
530.1826, 607.8314
530.6647, 608.1500
531.1469, 609.5304
531.6290, 610.5030
532.1111, 609.6288
532.5932, 607.7911
533.0753, 606.7943
533.5574, 608.3152
534.0396, 609.6378
534.5217, 609.7344
535.0038, 608.4919
535.4859, 607.2172
535.9680, 605.5953
536.4501, 604.2893
536.9323, 603.8038
537.4144, 604.6867
537.8965, 604.7376
538.3786, 603.5629
538.8607, 602.0339
539.3428, 601.7353
539.8250, 602.8072
540.3071, 603.1191
540.7892, 601.6622
541.2713, 599.3893
541.7534, 598.9233
542.2355, 600.1053
542.7177, 601.2164
543.1998, 601.1271
543.6819, 600.2936
544.1640, 599.2581
544.6461, 598.0394
545.1282, 597.0989
545.6104, 597.0928
546.0925, 597.4162
546.5746, 597.3522
547.0567, 596.0706
547.5388, 595.2526
548.0209, 595.7792
548.5031, 597.1549
548.9852, 598.2983
549.4673, 599.3487
549.9494, 599.8198
550.4315, 599.4727
550.9136, 598.3118
551.3958, 597.0428
551.8779, 595.2524
552.3600, 594.0533
552.8421, 594.3934
553.3242, 596.4886
553.8063, 598.0551
554.2885, 598.9358
554.7706, 599.4550
555.2527, 600.1171
555.7348, 600.8463
556.2169, 601.1210
556.6990, 600.5771
557.1812, 599.7698
557.6633, 599.5636
558.1454, 599.8039
558.6275, 599.9114
559.1096, 599.0262
559.5917, 598.2370
560.0739, 598.6834
560.5560, 600.4631
561.0381, 601.9862
561.5202, 602.7611
562.0023, 602.9230
562.4844, 602.5011
562.9666, 600.3380
563.4487, 599.3879
563.9308, 600.7193
564.4129, 602.9242
564.8950, 603.7165
565.3771, 602.1306
565.8593, 601.3340
566.3414, 602.3750
566.8235, 604.6946
567.3056, 605.7516
567.7877, 605.4142
568.2698, 604.6881
568.7520, 604.0217
569.2341, 603.4412
569.7162, 602.8625
570.1983, 602.2532
570.6804, 602.2433
571.1625, 604.2153
571.6447, 606.9888
572.1268, 608.5765
572.6089, 608.1446
573.0910, 607.2646
573.5731, 606.8507
574.0552, 606.7056
574.5374, 606.4720
575.0195, 606.0289
575.5016, 605.5009
575.9837, 604.7223
576.4658, 603.7721
576.9479, 603.4833
577.4301, 604.2872
577.9122, 605.2719
578.3943, 606.1592
578.8764, 607.0323
579.3585, 607.1623
579.8406, 606.2260
580.3228, 605.2616
580.8049, 605.4160
581.2870, 606.6289
581.7691, 608.0782
582.2512, 609.8071
582.7333, 611.2397
583.2155, 610.9901
583.6976, 609.6229
584.1797, 608.9217
584.6617, 610.4268
585.1439, 612.4362
585.6260, 613.5145
586.1081, 613.7482
586.5902, 613.6166
587.0723, 612.9865
587.5544, 612.3351
588.0366, 611.6869
588.5187, 610.7459
589.0008, 611.2035
589.4829, 615.3044
589.9650, 619.5084
590.4471, 621.0925
590.9293, 618.9102
591.4114, 616.6639
591.8935, 614.2935
592.3756, 612.2711
592.8577, 611.7005
593.3398, 612.6816
593.8220, 613.5182
594.3041, 613.6028
594.7862, 613.2365
595.2683, 613.0917
595.7504, 613.1449
596.2325, 613.2141
596.7147, 613.2098
597.1968, 613.1488
597.6789, 612.8883
598.1610, 612.4118
598.6431, 612.4138
599.1252, 614.1816
599.6074, 616.0733
600.0895, 616.6120
600.5716, 614.0844
601.0537, 612.7444
601.5358, 614.5978
602.0179, 617.4443
602.5001, 618.3153
602.9822, 615.8049
603.4643, 614.1552
603.9464, 614.3458
604.4285, 615.7573
604.9106, 616.2357
605.3928, 615.6362
605.8749, 615.3124
606.3570, 616.0566
606.8391, 617.5771
607.3212, 619.1963
607.8033, 620.8793
608.2855, 621.9598
608.7676, 621.4053
609.2497, 620.1498
609.7318, 619.3994
610.2139, 619.3982
610.6960, 619.5633
611.1782, 619.5239
611.6603, 619.5053
612.1424, 619.7481
612.6245, 621.0784
613.1066, 621.7355
613.5887, 620.7178
614.0709, 619.0388
614.5530, 618.8774
615.0351, 621.2309
615.5172, 622.9661
615.9993, 623.1098
616.4814, 621.9604
616.9636, 620.9700
617.4457, 620.1137
617.9278, 619.7482
618.4099, 620.5004
618.8920, 621.8929
619.3741, 622.5586
619.8563, 622.4470
620.3384, 622.1751
620.8205, 622.1099
621.3026, 622.2316
621.7847, 622.5972
622.2668, 623.4235
622.7490, 623.9241
623.2311, 623.2946
