##NAMES=Cancrinite
##RRUFFID=R050352
##IDEAL CHEMISTRY=(Na,Ca,[box])_8_(Al_6_Si_6_)O_24_(CO_3_,S^6+^O_4_)_2_&#183;2H_2_O
##LOCALITY=York River, quarry #2, Dungannon Township, Ontario, Canada
##OWNER=RRUFF
##SOURCE=California Institute of Technology
##DESCRIPTION=Pink fragment
##STATUS=The identification of this mineral has been confirmed by X-ray diffraction and chemical analysis
##URL=rruff.info/R050352
##MEASURED CHEMISTRY=(Na_6.07_Ca_1.62_[box]_0.31_)_Σ=8_(Al_0.99_Si_1.01_O_4_)_6_((CO_3_)_0.84_[box]_0.16_)_Σ=2_·2H_2_O
109.2276, 775.6887
109.7097, 802.6361
110.1918, 831.5160
110.6740, 862.5756
111.1561, 894.9365
111.6382, 930.4725
112.1203, 968.4189
112.6024, 1009.442
113.0845, 1055.532
113.5667, 1110.172
114.0488, 1168.023
114.5309, 1226.131
115.0130, 1283.484
115.4951, 1340.789
115.9772, 1399.645
116.4594, 1460.430
116.9415, 1518.051
117.4236, 1569.169
117.9057, 1616.701
118.3878, 1663.570
118.8699, 1715.932
119.3521, 1764.661
119.8342, 1804.797
120.3163, 1835.695
120.7984, 1861.588
121.2805, 1885.098
121.7626, 1905.345
122.2448, 1920.824
122.7269, 1929.512
123.2090, 1933.728
123.6911, 1935.393
124.1732, 1934.512
124.6553, 1931.906
125.1375, 1927.103
125.6196, 1920.869
126.1017, 1915.627
126.5838, 1912.544
127.0659, 1911.464
127.5480, 1912.128
128.0302, 1914.600
128.5123, 1918.568
128.9944, 1923.727
129.4765, 1930.059
129.9586, 1937.402
130.4407, 1946.576
130.9229, 1956.943
131.4050, 1966.141
131.8871, 1973.966
132.3692, 1979.916
132.8513, 1982.571
133.3334, 1978.803
133.8156, 1963.470
134.2977, 1940.113
134.7798, 1915.614
135.2619, 1888.711
135.7440, 1858.542
136.2261, 1826.155
136.7083, 1793.390
137.1904, 1760.054
137.6725, 1726.765
138.1546, 1693.624
138.6367, 1660.437
139.1188, 1627.868
139.6010, 1596.161
140.0831, 1565.449
140.5652, 1532.301
141.0473, 1494.724
141.5294, 1456.861
142.0115, 1424.782
142.4937, 1399.614
142.9758, 1376.536
143.4579, 1353.881
143.9400, 1331.514
144.4221, 1310.361
144.9042, 1289.870
145.3864, 1270.721
145.8685, 1254.760
146.3506, 1243.720
146.8327, 1233.211
147.3148, 1221.716
147.7969, 1208.945
148.2791, 1195.939
148.7612, 1181.530
149.2433, 1167.036
149.7254, 1155.319
150.2075, 1148.832
150.6896, 1143.068
151.1718, 1136.438
151.6539, 1127.708
152.1360, 1119.938
152.6181, 1113.081
153.1002, 1107.195
153.5823, 1102.489
154.0645, 1099.731
154.5466, 1097.525
155.0287, 1095.241
155.5108, 1093.193
155.9929, 1090.525
156.4750, 1086.882
156.9572, 1082.432
157.4393, 1077.968
157.9214, 1072.937
158.4035, 1068.310
158.8856, 1064.675
159.3677, 1063.051
159.8499, 1061.524
160.3320, 1059.258
160.8141, 1056.476
161.2962, 1054.534
161.7783, 1054.833
162.2604, 1055.777
162.7426, 1056.049
163.2247, 1054.272
163.7068, 1052.615
164.1889, 1052.365
164.6710, 1053.410
165.1531, 1054.048
165.6353, 1053.288
166.1174, 1051.734
166.5995, 1050.040
167.0816, 1049.502
167.5637, 1048.099
168.0458, 1043.933
168.5280, 1037.027
169.0101, 1030.095
169.4922, 1025.279
169.9743, 1021.483
170.4564, 1017.205
170.9385, 1011.111
171.4207, 1004.704
171.9028, 999.0403
172.3849, 994.1713
172.8670, 990.4528
173.3491, 988.2648
173.8312, 987.3851
174.3134, 987.3922
174.7955, 988.9145
175.2776, 990.8641
175.7597, 991.7500
176.2418, 991.3874
176.7239, 991.0101
177.2061, 991.9444
177.6882, 993.8213
178.1703, 995.6094
178.6524, 996.6862
179.1345, 997.4070
179.6166, 998.2522
180.0988, 999.2122
180.5809, 1000.525
181.0630, 1002.749
181.5451, 1005.676
182.0272, 1008.382
182.5093, 1009.899
182.9915, 1010.886
183.4736, 1012.935
183.9557, 1016.237
184.4378, 1020.322
184.9199, 1025.031
185.4020, 1030.164
185.8842, 1034.964
186.3663, 1039.075
186.8484, 1042.509
187.3305, 1044.867
187.8126, 1045.828
188.2947, 1046.560
188.7769, 1049.182
189.2590, 1053.613
189.7411, 1058.050
190.2232, 1061.327
190.7053, 1063.649
191.1874, 1066.333
191.6696, 1069.443
192.1517, 1073.100
192.6338, 1077.979
193.1159, 1084.144
193.5980, 1089.851
194.0801, 1093.433
194.5623, 1095.102
195.0444, 1098.354
195.5265, 1103.797
196.0086, 1110.486
196.4907, 1116.690
196.9728, 1122.434
197.4550, 1127.435
197.9371, 1130.694
198.4192, 1132.144
198.9013, 1136.163
199.3834, 1143.820
199.8655, 1153.502
200.3477, 1161.290
200.8298, 1166.805
201.3119, 1172.069
201.7940, 1178.148
202.2761, 1185.026
202.7582, 1193.055
203.2404, 1202.541
203.7225, 1213.009
204.2046, 1223.133
204.6867, 1232.825
205.1688, 1242.555
205.6509, 1252.455
206.1331, 1262.555
206.6152, 1272.939
207.0973, 1283.483
207.5794, 1294.386
208.0615, 1306.367
208.5436, 1319.670
209.0258, 1333.463
209.5079, 1347.227
209.9900, 1360.938
210.4721, 1374.446
210.9542, 1387.748
211.4363, 1400.816
211.9185, 1413.453
212.4006, 1425.387
212.8827, 1437.555
213.3648, 1450.364
213.8469, 1464.213
214.3290, 1477.764
214.8112, 1491.207
215.2933, 1504.158
215.7754, 1515.711
216.2575, 1525.747
216.7396, 1534.623
217.2217, 1542.185
217.7038, 1547.701
218.1860, 1554.241
218.6681, 1562.781
219.1502, 1572.341
219.6323, 1579.080
220.1144, 1582.098
220.5965, 1583.769
221.0787, 1585.436
221.5608, 1587.481
222.0429, 1588.507
222.5250, 1588.227
223.0071, 1586.913
223.4892, 1585.654
223.9714, 1584.971
224.4535, 1583.558
224.9356, 1580.491
225.4177, 1574.841
225.8998, 1569.958
226.3819, 1566.724
226.8641, 1564.266
227.3462, 1559.533
227.8283, 1551.506
228.3104, 1542.758
228.7925, 1534.683
229.2746, 1527.479
229.7568, 1520.278
230.2389, 1513.269
230.7210, 1506.129
231.2031, 1498.168
231.6852, 1489.734
232.1673, 1479.973
232.6495, 1468.161
233.1316, 1452.450
233.6137, 1438.906
234.0958, 1428.555
234.5779, 1420.425
235.0600, 1411.984
235.5422, 1402.924
236.0243, 1393.874
236.5064, 1385.019
236.9885, 1376.096
237.4706, 1368.020
237.9527, 1361.309
238.4349, 1355.405
238.9170, 1348.923
239.3991, 1341.328
239.8812, 1333.951
240.3633, 1327.369
240.8454, 1321.859
241.3276, 1316.344
241.8097, 1310.109
242.2918, 1304.209
242.7739, 1301.167
243.2560, 1302.172
243.7381, 1304.208
244.2203, 1306.232
244.7024, 1308.242
245.1845, 1310.169
245.6666, 1311.460
246.1487, 1312.933
246.6308, 1316.160
247.1130, 1321.274
247.5951, 1327.962
248.0772, 1336.203
248.5593, 1346.368
249.0414, 1356.729
249.5235, 1366.523
250.0057, 1376.966
250.4878, 1390.459
250.9699, 1408.281
251.4520, 1426.926
251.9341, 1444.971
252.4162, 1462.091
252.8984, 1480.657
253.3805, 1500.844
253.8626, 1522.519
254.3447, 1544.768
254.8268, 1567.398
255.3089, 1591.636
255.7911, 1617.586
256.2732, 1645.379
256.7553, 1674.864
257.2374, 1706.814
257.7195, 1739.831
258.2017, 1772.168
258.6838, 1803.656
259.1659, 1835.459
259.6480, 1868.077
260.1301, 1901.213
260.6122, 1935.634
261.0944, 1972.024
261.5765, 2009.053
262.0586, 2045.332
262.5407, 2080.164
263.0228, 2115.942
263.5049, 2152.825
263.9871, 2191.117
264.4692, 2230.062
264.9513, 2270.241
265.4334, 2310.704
265.9155, 2351.519
266.3976, 2392.133
266.8798, 2432.439
267.3619, 2471.798
267.8440, 2510.687
268.3261, 2550.490
268.8082, 2591.945
269.2903, 2632.587
269.7725, 2670.155
270.2546, 2703.932
270.7367, 2735.931
271.2188, 2766.618
271.7009, 2795.345
272.1830, 2820.236
272.6652, 2841.238
273.1473, 2857.977
273.6294, 2871.253
274.1115, 2881.770
274.5936, 2883.731
275.0757, 2876.386
275.5579, 2860.325
276.0400, 2837.655
276.5221, 2808.646
277.0042, 2771.854
277.4863, 2725.992
277.9684, 2670.850
278.4506, 2608.806
278.9327, 2538.597
279.4148, 2463.406
279.8969, 2389.010
280.3790, 2315.229
280.8611, 2243.692
281.3433, 2175.197
281.8254, 2109.481
282.3075, 2046.337
282.7896, 1984.983
283.2717, 1926.992
283.7538, 1875.029
284.2360, 1829.167
284.7181, 1787.460
285.2002, 1748.703
285.6823, 1713.125
286.1644, 1682.957
286.6465, 1658.694
287.1287, 1639.001
287.6108, 1622.550
288.0929, 1609.330
288.5750, 1599.432
289.0571, 1593.067
289.5392, 1590.033
290.0214, 1590.038
290.5035, 1593.215
290.9856, 1598.194
291.4677, 1603.802
291.9498, 1610.079
292.4319, 1617.113
292.9141, 1625.559
293.3962, 1634.517
293.8783, 1641.828
294.3604, 1647.454
294.8425, 1652.341
295.3246, 1658.494
295.8068, 1664.863
296.2889, 1667.541
296.7710, 1664.612
297.2531, 1658.814
297.7352, 1654.831
298.2173, 1652.422
298.6995, 1649.322
299.1816, 1644.384
299.6637, 1637.527
300.1458, 1628.835
300.6279, 1618.459
301.1100, 1605.723
301.5922, 1588.953
302.0743, 1568.824
302.5564, 1548.215
303.0385, 1528.716
303.5206, 1509.690
304.0027, 1489.873
304.4849, 1469.289
304.9670, 1447.882
305.4491, 1425.746
305.9312, 1402.965
306.4133, 1379.732
306.8954, 1355.550
307.3776, 1331.277
307.8597, 1308.087
308.3418, 1285.863
308.8239, 1264.702
309.3060, 1244.748
309.7881, 1225.700
310.2703, 1207.715
310.7524, 1191.145
311.2345, 1175.188
311.7166, 1159.224
312.1987, 1143.280
312.6808, 1128.449
313.1630, 1115.283
313.6451, 1103.421
314.1272, 1092.356
314.6093, 1082.086
315.0914, 1072.539
315.5735, 1063.729
316.0557, 1055.676
316.5378, 1048.529
317.0199, 1042.497
317.5020, 1037.330
317.9841, 1032.730
318.4662, 1028.405
318.9484, 1025.159
319.4305, 1023.795
319.9126, 1023.775
320.3947, 1023.681
320.8768, 1022.586
321.3589, 1021.709
321.8411, 1021.575
322.3232, 1022.116
322.8053, 1023.737
323.2874, 1026.644
323.7695, 1030.650
324.2516, 1035.457
324.7338, 1041.382
325.2159, 1047.759
325.6980, 1054.309
326.1801, 1060.921
326.6622, 1068.246
327.1443, 1076.102
327.6265, 1084.830
328.1086, 1094.815
328.5907, 1106.108
329.0728, 1118.500
329.5549, 1132.470
330.0370, 1148.109
330.5192, 1162.777
331.0013, 1175.943
331.4834, 1188.709
331.9655, 1201.996
332.4476, 1216.288
332.9297, 1230.325
333.4119, 1243.829
333.8940, 1256.923
334.3761, 1270.021
334.8582, 1282.982
335.3403, 1295.692
335.8224, 1308.000
336.3046, 1319.829
336.7867, 1331.505
337.2688, 1343.051
337.7509, 1354.490
338.2330, 1366.206
338.7151, 1378.227
339.1973, 1390.170
339.6794, 1401.748
340.1615, 1412.795
340.6436, 1425.253
341.1257, 1439.168
341.6078, 1454.167
342.0899, 1470.277
342.5721, 1487.378
343.0542, 1503.767
343.5363, 1518.311
344.0184, 1531.635
344.5005, 1547.474
344.9826, 1566.107
345.4648, 1584.339
345.9469, 1599.757
346.4290, 1612.426
346.9111, 1621.206
347.3932, 1625.472
347.8753, 1626.429
348.3575, 1627.407
348.8396, 1628.013
349.3217, 1623.785
349.8038, 1610.309
350.2859, 1589.786
350.7680, 1567.227
351.2502, 1542.989
351.7323, 1517.610
352.2144, 1492.291
352.6965, 1466.349
353.1786, 1438.451
353.6607, 1406.482
354.1429, 1372.851
354.6250, 1340.307
355.1071, 1308.990
355.5892, 1278.723
356.0713, 1249.481
356.5534, 1221.197
357.0356, 1193.767
357.5177, 1167.427
357.9998, 1141.577
358.4819, 1115.811
358.9640, 1090.307
359.4461, 1066.752
359.9283, 1046.438
360.4104, 1028.211
360.8925, 1011.196
361.3746, 995.5443
361.8567, 980.4417
362.3388, 965.2067
362.8210, 950.3215
363.3031, 936.5324
363.7852, 923.5657
364.2673, 912.1653
364.7494, 903.1505
365.2315, 897.4437
365.7137, 890.9755
366.1958, 881.9291
366.6779, 872.1399
367.1600, 863.6827
367.6421, 857.3307
368.1242, 851.7773
368.6064, 846.6477
369.0885, 841.9042
369.5706, 838.4186
370.0527, 837.1663
370.5348, 836.4056
371.0169, 834.9362
371.4991, 831.8834
371.9812, 829.6688
372.4633, 828.7233
372.9454, 828.7229
373.4275, 828.5857
373.9096, 828.4021
374.3918, 827.9304
374.8739, 827.0472
375.3560, 825.6832
375.8381, 824.0530
376.3202, 821.8129
376.8023, 819.7677
377.2845, 819.2268
377.7666, 820.3427
378.2487, 822.1877
378.7308, 824.7945
379.2129, 827.9495
379.6950, 829.7699
380.1772, 830.0546
380.6593, 830.0906
381.1414, 830.8517
381.6235, 832.3433
382.1056, 834.8141
382.5877, 838.5712
383.0699, 842.9612
383.5520, 846.9167
384.0341, 850.4670
384.5162, 853.5266
384.9983, 855.3917
385.4804, 856.8459
385.9626, 859.8617
386.4447, 864.8651
386.9268, 870.1705
387.4089, 873.9573
387.8910, 876.7416
388.3731, 879.5988
388.8553, 883.0147
389.3374, 886.7246
389.8195, 890.4188
390.3016, 894.0591
390.7837, 897.9276
391.2658, 901.8599
391.7480, 906.2098
392.2301, 911.4395
392.7122, 918.5722
393.1943, 925.3802
393.6764, 930.1119
394.1585, 933.5899
394.6407, 938.0356
395.1228, 945.2551
395.6049, 952.8507
396.0870, 959.5463
396.5691, 964.6639
397.0512, 970.5161
397.5334, 977.4016
398.0155, 985.3367
398.4976, 994.2359
398.9797, 1005.895
399.4618, 1016.638
399.9439, 1025.169
400.4261, 1031.490
400.9082, 1039.294
401.3903, 1049.625
401.8724, 1060.415
402.3545, 1070.286
402.8366, 1078.244
403.3188, 1087.202
403.8009, 1097.411
404.2830, 1108.667
404.7651, 1120.430
405.2472, 1132.392
405.7293, 1145.427
406.2115, 1160.308
406.6936, 1176.985
407.1757, 1192.656
407.6578, 1206.930
408.1399, 1221.394
408.6220, 1238.250
409.1042, 1257.461
409.5863, 1277.276
410.0684, 1297.670
410.5505, 1318.002
411.0326, 1337.408
411.5147, 1356.014
411.9969, 1374.976
412.4790, 1395.349
412.9611, 1416.946
413.4432, 1439.337
413.9253, 1463.086
414.4074, 1486.139
414.8896, 1506.283
415.3717, 1524.117
415.8538, 1540.890
416.3359, 1557.671
416.8180, 1573.216
417.3001, 1586.531
417.7823, 1597.701
418.2644, 1605.752
418.7465, 1610.463
419.2286, 1611.869
419.7107, 1609.987
420.1928, 1604.850
420.6750, 1596.330
421.1571, 1583.995
421.6392, 1568.151
422.1213, 1549.892
422.6034, 1528.312
423.0855, 1505.492
423.5677, 1482.078
424.0498, 1458.396
424.5319, 1433.775
425.0140, 1406.891
425.4961, 1379.471
425.9782, 1353.085
426.4604, 1326.782
426.9425, 1302.988
427.4246, 1282.628
427.9067, 1265.167
428.3888, 1247.999
428.8709, 1230.588
429.3531, 1214.470
429.8352, 1200.438
430.3173, 1188.990
430.7994, 1177.984
431.2815, 1167.180
431.7636, 1157.080
432.2458, 1149.237
432.7279, 1143.813
433.2100, 1137.598
433.6921, 1128.570
434.1742, 1117.963
434.6563, 1110.909
435.1385, 1107.392
435.6206, 1104.818
436.1027, 1101.347
436.5848, 1097.081
437.0669, 1092.167
437.5490, 1086.406
438.0312, 1080.576
438.5133, 1075.084
438.9954, 1070.132
439.4775, 1066.255
439.9596, 1064.477
440.4417, 1063.447
440.9239, 1061.332
441.4060, 1058.035
441.8881, 1056.642
442.3702, 1060.292
442.8523, 1066.085
443.3344, 1071.260
443.8166, 1074.566
444.2987, 1077.742
444.7808, 1080.652
445.2629, 1083.735
445.7450, 1088.332
446.2271, 1094.639
446.7093, 1102.440
447.1914, 1111.788
447.6735, 1123.019
448.1556, 1134.736
448.6377, 1146.330
449.1198, 1158.693
449.6020, 1172.943
450.0841, 1189.718
450.5662, 1206.305
451.0483, 1221.585
451.5304, 1236.461
452.0125, 1254.682
452.4947, 1276.977
452.9768, 1300.828
453.4589, 1324.250
453.9410, 1347.350
454.4231, 1375.685
454.9052, 1410.639
455.3874, 1447.876
455.8695, 1482.378
456.3516, 1514.642
456.8337, 1546.883
457.3158, 1579.201
457.7979, 1612.912
458.2801, 1652.517
458.7622, 1696.900
459.2443, 1739.641
459.7264, 1776.134
460.2085, 1808.105
460.6906, 1837.703
461.1728, 1865.713
461.6549, 1889.097
462.1370, 1906.711
462.6191, 1917.725
463.1012, 1920.392
463.5833, 1911.262
464.0655, 1896.332
464.5476, 1878.745
465.0297, 1858.233
465.5118, 1831.042
465.9939, 1793.703
466.4760, 1751.649
466.9582, 1707.685
467.4403, 1659.163
467.9224, 1613.016
468.4045, 1569.290
468.8866, 1528.208
469.3687, 1489.247
469.8509, 1452.115
470.3330, 1418.863
470.8151, 1390.052
471.2972, 1365.609
471.7793, 1345.089
472.2614, 1328.858
472.7436, 1315.053
473.2257, 1302.198
473.7078, 1290.225
474.1899, 1280.908
474.6720, 1274.420
475.1541, 1270.274
475.6363, 1268.173
476.1184, 1267.958
476.6005, 1268.622
477.0826, 1269.379
477.5647, 1270.994
478.0468, 1274.636
478.5290, 1280.292
479.0111, 1287.871
479.4932, 1299.342
479.9753, 1311.829
480.4574, 1321.352
480.9395, 1326.047
481.4217, 1331.698
481.9038, 1341.515
482.3859, 1354.493
482.8680, 1369.086
483.3501, 1386.377
483.8322, 1403.629
484.3144, 1419.437
484.7965, 1433.816
485.2786, 1449.486
485.7607, 1467.145
486.2428, 1485.740
486.7249, 1504.817
487.2071, 1524.226
487.6892, 1543.899
488.1713, 1563.452
488.6534, 1583.528
489.1355, 1605.820
489.6176, 1631.739
490.0998, 1656.207
490.5819, 1678.371
491.0640, 1698.527
491.5461, 1717.235
492.0282, 1734.498
492.5103, 1751.289
492.9925, 1768.508
493.4746, 1786.004
493.9567, 1801.860
494.4388, 1816.303
494.9209, 1828.384
495.4030, 1836.805
495.8852, 1842.079
496.3673, 1845.770
496.8494, 1848.522
497.3315, 1849.715
497.8136, 1849.260
498.2957, 1846.870
498.7779, 1841.471
499.2600, 1831.749
499.7421, 1819.263
500.2242, 1804.777
500.7063, 1787.917
501.1884, 1770.640
501.6706, 1754.458
502.1527, 1737.884
502.6348, 1719.678
503.1169, 1698.177
503.5990, 1676.919
504.0811, 1657.208
504.5633, 1638.327
505.0454, 1616.712
505.5275, 1590.890
506.0096, 1565.526
506.4917, 1542.949
506.9738, 1523.291
507.4560, 1501.857
507.9381, 1477.807
508.4202, 1454.212
508.9023, 1435.124
509.3844, 1420.216
509.8665, 1403.490
510.3487, 1383.077
510.8308, 1361.761
511.3129, 1344.505
511.7950, 1330.649
512.2772, 1317.093
512.7593, 1301.902
513.2414, 1286.304
513.7235, 1271.385
514.2056, 1257.185
514.6877, 1243.812
515.1699, 1231.783
515.6520, 1220.366
516.1341, 1208.952
516.6162, 1197.602
517.0983, 1185.782
517.5804, 1172.656
518.0626, 1158.978
518.5447, 1145.992
519.0268, 1133.555
519.5089, 1122.173
519.9910, 1112.356
520.4731, 1103.957
520.9553, 1095.226
521.4374, 1085.884
521.9195, 1076.786
522.4016, 1068.521
522.8837, 1061.400
523.3658, 1053.807
523.8480, 1045.483
524.3301, 1037.218
524.8122, 1030.198
525.2943, 1024.407
525.7764, 1019.051
526.2585, 1014.032
526.7407, 1009.217
527.2228, 1003.994
527.7049, 998.5048
528.1870, 993.7288
528.6691, 990.7932
529.1512, 988.5461
529.6334, 985.6453
530.1155, 981.9481
530.5976, 978.0089
531.0797, 973.8085
531.5618, 969.6175
532.0439, 965.7419
532.5261, 962.0900
533.0082, 958.9061
533.4903, 956.4554
533.9724, 954.4550
534.4545, 952.2461
534.9366, 949.8211
535.4188, 947.1356
535.9009, 943.9550
536.3830, 940.3181
536.8651, 937.6511
537.3472, 936.2039
537.8293, 935.2775
538.3115, 934.8157
538.7936, 934.9694
539.2757, 933.3622
539.7578, 929.4098
540.2399, 925.0814
540.7220, 923.4561
541.2042, 924.0282
541.6863, 923.6466
542.1684, 920.5612
542.6505, 916.9496
543.1326, 916.4288
543.6147, 918.2493
544.0969, 919.5618
544.5790, 918.1616
545.0611, 915.8792
545.5432, 914.1113
546.0253, 912.9882
546.5074, 912.1692
546.9896, 911.5358
547.4717, 911.1459
547.9538, 911.0724
548.4359, 912.2870
548.9180, 912.5015
549.4001, 910.7966
549.8823, 908.2364
550.3644, 906.6627
550.8465, 906.6445
551.3286, 906.5020
551.8107, 905.6268
552.2928, 904.2256
552.7750, 903.9587
553.2571, 905.0167
553.7392, 906.2656
554.2213, 907.1730
554.7034, 907.6865
555.1855, 907.3533
555.6677, 906.0445
556.1498, 904.6584
556.6319, 904.3250
557.1140, 904.6037
557.5961, 904.5714
558.0782, 903.8014
558.5604, 902.9010
559.0425, 902.3920
559.5246, 902.1274
560.0067, 901.7871
560.4888, 900.5975
560.9709, 899.8905
561.4531, 900.9115
561.9352, 903.6700
562.4173, 904.8484
562.8994, 901.4915
563.3815, 898.5086
563.8636, 898.6967
564.3458, 904.1862
564.8279, 906.9847
565.3100, 906.2693
565.7921, 903.9537
566.2742, 902.3889
566.7563, 901.6298
567.2385, 901.0159
567.7206, 900.3675
568.2027, 899.8494
568.6848, 900.0477
569.1669, 900.8505
569.6490, 901.4031
570.1312, 900.7444
570.6133, 899.7912
571.0954, 900.1013
571.5775, 901.6224
572.0596, 903.0206
572.5417, 903.3171
573.0239, 903.1913
573.5060, 903.2684
573.9881, 903.8349
574.4702, 904.1285
574.9523, 903.4809
575.4344, 902.6060
575.9166, 902.4137
576.3987, 903.3998
576.8808, 904.5250
577.3629, 905.9893
577.8450, 907.4875
578.3271, 907.8798
578.8093, 906.7469
579.2914, 905.7244
579.7735, 905.4965
580.2556, 905.9693
580.7377, 906.4658
581.2198, 906.9623
581.7020, 907.5881
582.1841, 908.9276
582.6662, 910.4205
583.1483, 910.5190
583.6304, 908.8060
584.1125, 906.8437
584.5947, 905.8009
585.0768, 905.4654
585.5589, 905.5317
586.0410, 906.1383
586.5231, 906.8906
587.0052, 907.8055
587.4873, 908.7795
587.9694, 909.4921
588.4515, 909.9477
588.9337, 910.0956
589.4158, 909.7003
589.8979, 908.7574
590.3800, 908.6877
590.8621, 909.8679
591.3442, 911.2380
591.8264, 912.2285
592.3085, 912.8435
592.7906, 912.5599
593.2727, 911.0271
593.7548, 909.7224
594.2369, 910.9991
594.7191, 914.1025
595.2012, 916.0639
595.6833, 915.8544
596.1654, 914.8318
596.6475, 914.2598
597.1296, 914.0383
597.6118, 913.9222
598.0939, 913.8223
598.5760, 913.8060
599.0581, 913.7214
599.5402, 913.6668
600.0223, 914.3329
600.5045, 916.9169
600.9866, 919.3835
601.4687, 920.7782
601.9508, 920.8398
602.4329, 921.0098
