##NAMES=Cancrinite
##RRUFFID=R100110
##IDEAL CHEMISTRY=(Na,Ca,[box])_8_(Al_6_Si_6_)O_24_(CO_3_,S^6+^O_4_)_2_&#183;2H_2_O
##LOCALITY=French River, Ontario, Canada
##OWNER=RRUFF
##SOURCE=Robert Woodside
##DESCRIPTION=Brownish-orange massive. One of 4 specimens collected by Sam Gordon in 1932 for the Philadelphia Academy of Sciences (#21833)
##STATUS=The identification of this mineral has been confirmed only by single crystal X-ray diffraction.
##URL=rruff.info/R100110
91.53320, 455.4619
92.01532, 452.0942
92.49744, 449.6854
92.97955, 455.4541
93.46167, 462.7515
93.94379, 465.5436
94.42590, 466.7195
94.90802, 466.4560
95.39014, 463.8123
95.87225, 458.7118
96.35437, 452.2362
96.83649, 444.3556
97.31860, 436.1594
97.80072, 428.8349
98.28284, 422.8036
98.76495, 417.2587
99.24707, 410.1991
99.72919, 399.5835
100.2113, 389.8595
100.6934, 382.2447
101.1755, 376.2434
101.6577, 370.8416
102.1398, 365.0291
102.6219, 358.5359
103.1040, 353.0674
103.5861, 348.7261
104.0682, 344.9003
104.5504, 341.2821
105.0325, 337.8066
105.5146, 334.5182
105.9967, 331.5227
106.4788, 329.0218
106.9609, 326.1636
107.4431, 322.3032
107.9252, 318.1771
108.4073, 314.7758
108.8894, 312.4148
109.3715, 310.9047
109.8536, 310.2055
110.3358, 310.6729
110.8179, 310.4312
111.3000, 307.9633
111.7821, 303.5129
112.2642, 299.4722
112.7463, 296.9559
113.2285, 295.1927
113.7106, 293.4210
114.1927, 291.5146
114.6748, 289.6129
115.1569, 288.0203
115.6390, 286.9738
116.1212, 285.5605
116.6033, 283.4076
117.0854, 280.8437
117.5675, 278.1049
118.0496, 275.2504
118.5317, 272.3649
119.0139, 269.9097
119.4960, 268.6853
119.9781, 267.0462
120.4602, 264.2581
120.9423, 260.8435
121.4244, 257.8098
121.9066, 256.0235
122.3887, 255.6465
122.8708, 254.0979
123.3529, 250.7139
123.8350, 247.0479
124.3171, 243.8159
124.7993, 241.0402
125.2814, 238.3334
125.7635, 235.2729
126.2456, 231.7509
126.7277, 228.3728
127.2098, 225.0445
127.6920, 221.9117
128.1741, 219.0747
128.6562, 216.5541
129.1383, 214.3952
129.6204, 212.9770
130.1025, 212.2148
130.5847, 211.0590
131.0668, 208.6988
131.5489, 205.5230
132.0310, 202.9456
132.5131, 201.5866
132.9952, 200.5557
133.4774, 199.0004
133.9595, 196.9106
134.4416, 194.8034
134.9237, 193.1375
135.4058, 191.9509
135.8879, 190.9082
136.3701, 190.3623
136.8522, 189.6883
137.3343, 188.4068
137.8164, 186.4101
138.2985, 184.1321
138.7806, 182.2729
139.2628, 180.9475
139.7449, 179.8999
140.2270, 179.2568
140.7091, 178.7507
141.1912, 178.0615
141.6733, 177.0495
142.1555, 175.9185
142.6376, 175.3915
143.1197, 176.5255
143.6018, 177.1133
144.0839, 176.7222
144.5660, 175.6514
145.0482, 174.3195
145.5303, 172.9175
146.0124, 171.5047
146.4945, 170.5100
146.9766, 170.3551
147.4587, 170.1095
147.9409, 169.0903
148.4230, 167.5073
148.9051, 166.3658
149.3872, 166.5189
149.8693, 167.7793
150.3514, 168.6011
150.8336, 168.7152
151.3157, 168.5339
151.7978, 168.4258
152.2799, 168.4168
152.7620, 168.3420
153.2441, 167.9520
153.7263, 167.4118
154.2084, 167.0006
154.6905, 166.8419
155.1726, 166.8726
155.6547, 166.9886
156.1368, 167.2858
156.6190, 167.4843
157.1011, 167.1642
157.5832, 166.6394
158.0653, 166.5451
158.5474, 167.4656
159.0295, 169.3074
159.5117, 170.8414
159.9938, 172.1904
160.4759, 173.0401
160.9580, 172.9640
161.4401, 172.2421
161.9222, 171.5715
162.4044, 171.6947
162.8865, 172.8741
163.3686, 173.2758
163.8507, 171.7531
164.3328, 170.4864
164.8149, 170.8015
165.2971, 172.5369
165.7792, 174.4164
166.2613, 174.9326
166.7434, 173.5314
167.2255, 172.2139
167.7076, 170.9195
168.1898, 169.7282
168.6719, 168.6632
169.1540, 167.7364
169.6361, 167.0301
170.1182, 166.7222
170.6003, 167.1441
171.0825, 167.0898
171.5646, 165.8531
172.0467, 164.3665
172.5288, 163.8559
173.0109, 164.7565
173.4930, 166.1568
173.9752, 166.4718
174.4573, 165.6066
174.9394, 164.8239
175.4215, 164.4272
175.9036, 164.3748
176.3857, 164.6050
176.8679, 165.1676
177.3500, 165.9244
177.8321, 166.7333
178.3142, 167.6206
178.7963, 168.3673
179.2784, 168.6722
179.7606, 168.6195
180.2427, 168.8957
180.7248, 169.9013
181.2069, 171.1331
181.6890, 172.1219
182.1711, 172.8305
182.6533, 173.4940
183.1354, 174.4627
183.6175, 175.8293
184.0996, 176.7681
184.5817, 176.4398
185.0638, 176.0146
185.5460, 176.3013
186.0281, 177.4533
186.5102, 178.8101
186.9923, 179.3204
187.4744, 178.4481
187.9565, 178.1716
188.4387, 179.2103
188.9208, 180.5628
189.4029, 181.6008
189.8850, 182.1178
190.3671, 182.1993
190.8492, 181.9778
191.3314, 181.2123
191.8135, 180.5174
192.2956, 179.9493
192.7777, 179.4520
193.2598, 179.0395
193.7419, 178.7092
194.2241, 178.3425
194.7062, 177.6539
195.1883, 176.0873
195.6704, 174.8270
196.1525, 174.0996
196.6346, 173.6298
197.1168, 173.1403
197.5989, 172.5175
198.0810, 171.7457
198.5631, 170.7573
199.0452, 169.2840
199.5273, 167.9600
200.0095, 166.8307
200.4916, 165.9236
200.9737, 165.3472
201.4558, 165.2126
201.9379, 165.3071
202.4200, 164.9741
202.9022, 163.9712
203.3843, 163.0641
203.8664, 162.6709
204.3485, 162.6023
204.8306, 162.2779
205.3127, 161.3039
205.7949, 160.0947
206.2770, 159.5840
206.7591, 160.0421
207.2412, 160.5354
207.7233, 160.4676
208.2054, 159.9257
208.6876, 159.4548
209.1697, 159.3152
209.6518, 159.3324
210.1339, 159.2219
210.6160, 158.9293
211.0981, 158.6378
211.5803, 158.5541
212.0624, 158.6796
212.5445, 158.6650
213.0266, 158.0992
213.5087, 157.5273
213.9908, 157.4702
214.4730, 158.0375
214.9551, 158.9383
215.4372, 159.9685
215.9193, 161.1930
216.4014, 162.1691
216.8836, 162.5513
217.3657, 162.7558
217.8478, 163.0741
218.3299, 163.5775
218.8120, 164.0742
219.2941, 164.1671
219.7763, 163.5673
220.2584, 163.5380
220.7405, 164.9184
221.2226, 166.5337
221.7047, 167.6291
222.1868, 167.9934
222.6690, 167.8461
223.1511, 167.4832
223.6332, 166.7862
224.1153, 166.1311
224.5974, 165.5418
225.0795, 165.0097
225.5617, 164.5157
226.0438, 164.0594
226.5259, 163.6770
227.0080, 163.4437
227.4901, 163.4702
227.9722, 163.4563
228.4544, 163.1637
228.9365, 162.9661
229.4186, 163.2060
229.9007, 163.9588
230.3828, 164.9973
230.8649, 165.9453
231.3471, 166.9836
231.8292, 167.5877
232.3113, 167.5514
232.7934, 167.2437
233.2755, 166.8609
233.7576, 166.4883
234.2398, 166.2548
234.7219, 166.4088
235.2040, 167.4699
235.6861, 167.9574
236.1682, 167.4775
236.6503, 166.6520
237.1325, 165.8774
237.6146, 165.2903
238.0967, 165.1025
238.5788, 165.7446
239.0609, 167.9415
239.5430, 169.2277
240.0252, 168.6784
240.5073, 167.5920
240.9894, 167.2941
241.4715, 168.0982
241.9536, 169.3709
242.4357, 170.3121
242.9179, 170.8540
243.4000, 171.3307
243.8821, 171.7209
244.3642, 172.0820
244.8463, 172.5471
245.3284, 173.1577
245.8106, 173.6400
246.2927, 173.5227
246.7748, 172.7675
247.2569, 172.4011
247.7390, 172.7139
248.2211, 173.4334
248.7033, 174.2609
249.1854, 175.1577
249.6675, 176.1400
250.1496, 177.2762
250.6317, 178.5481
251.1138, 179.7833
251.5960, 181.0126
252.0781, 182.1621
252.5602, 183.0977
253.0423, 183.7684
253.5244, 184.4167
254.0065, 185.0341
254.4887, 185.7486
254.9708, 187.0549
255.4529, 189.5720
255.9350, 192.5516
256.4171, 194.8417
256.8992, 196.2610
257.3813, 197.6703
257.8635, 199.7777
258.3456, 202.2934
258.8277, 204.7858
259.3098, 206.9167
259.7919, 209.0657
260.2740, 211.9179
260.7562, 215.6638
261.2383, 219.2773
261.7204, 222.2090
262.2025, 224.6509
262.6846, 226.8051
263.1667, 228.7831
263.6489, 230.4275
264.1310, 231.2851
264.6131, 231.0710
265.0952, 231.3139
265.5773, 232.8127
266.0594, 235.0813
266.5416, 237.9131
267.0237, 241.4456
267.5058, 245.0180
267.9879, 247.5446
268.4700, 248.6885
268.9521, 250.3333
269.4343, 253.3442
269.9164, 257.0242
270.3985, 261.1743
270.8806, 265.8303
271.3627, 270.1570
271.8448, 272.7769
272.3270, 273.2499
272.8091, 274.3724
273.2912, 277.6849
273.7733, 281.3120
274.2554, 284.1111
274.7375, 285.9037
275.2197, 287.2552
275.7018, 288.8460
276.1839, 290.7539
276.6660, 292.3456
277.1481, 293.4644
277.6302, 294.2569
278.1124, 294.9384
278.5945, 295.4384
279.0766, 295.2840
279.5587, 293.8783
280.0408, 291.1034
280.5229, 288.1446
281.0051, 285.0668
281.4872, 281.7769
281.9693, 278.1472
282.4514, 274.2513
282.9335, 270.2918
283.4156, 266.5358
283.8978, 262.9963
284.3799, 258.9993
284.8620, 253.3258
285.3441, 248.4612
285.8262, 245.8753
286.3083, 244.7813
286.7905, 243.3830
287.2726, 240.2425
287.7547, 235.6148
288.2368, 232.0300
288.7189, 230.0692
289.2010, 228.5783
289.6832, 227.4721
290.1653, 226.5708
290.6474, 225.6427
291.1295, 224.5619
291.6116, 223.3609
292.0938, 222.2024
292.5759, 221.3806
293.0580, 220.1474
293.5401, 218.1719
294.0222, 215.8250
294.5043, 213.5577
294.9865, 211.5765
295.4686, 209.6873
295.9507, 207.3447
296.4328, 203.9772
296.9149, 201.2106
297.3970, 199.5830
297.8792, 198.3550
298.3613, 197.0055
298.8434, 195.3442
299.3255, 193.3544
299.8076, 190.8809
300.2897, 187.3793
300.7719, 184.6597
301.2540, 183.5124
301.7361, 182.5267
302.2182, 180.6874
302.7003, 177.8998
303.1824, 174.8601
303.6646, 172.4474
304.1467, 170.9470
304.6288, 169.0617
305.1109, 166.2601
305.5930, 163.5462
306.0751, 161.3340
306.5573, 159.6497
307.0394, 158.3875
307.5215, 157.5948
308.0036, 157.3517
308.4857, 156.2963
308.9678, 153.4105
309.4500, 150.6763
309.9321, 148.5224
310.4142, 146.9557
310.8963, 145.9302
311.3784, 145.4871
311.8605, 145.5107
312.3427, 145.0986
312.8248, 143.9412
313.3069, 142.6567
313.7890, 141.1421
314.2711, 139.6326
314.7532, 138.4182
315.2354, 137.6555
315.7175, 137.2219
316.1996, 136.8150
316.6817, 136.7059
317.1638, 136.1493
317.6459, 134.3650
318.1281, 132.5224
318.6102, 131.8403
319.0923, 132.6523
319.5744, 134.1187
320.0565, 134.8430
320.5386, 134.4812
321.0208, 134.1417
321.5029, 133.7852
321.9850, 133.5192
322.4671, 133.5094
322.9492, 133.7160
323.4313, 133.8589
323.9135, 133.5252
324.3956, 132.5036
324.8777, 132.0973
325.3598, 132.7536
325.8419, 133.6098
326.3240, 134.3336
326.8062, 134.9767
327.2883, 135.8387
327.7704, 137.3018
328.2525, 139.2770
328.7346, 140.2042
329.2167, 139.0638
329.6989, 137.9610
330.1810, 137.3512
330.6631, 137.1173
331.1452, 137.1134
331.6273, 137.3012
332.1094, 137.5327
332.5916, 137.3213
333.0737, 136.4108
333.5558, 135.4699
334.0379, 134.2655
334.5200, 133.2616
335.0021, 133.0233
335.4843, 133.7107
335.9664, 134.8019
336.4485, 135.5650
336.9306, 136.1271
337.4127, 135.9514
337.8948, 134.1565
338.3770, 132.2731
338.8591, 131.1885
339.3412, 130.9715
339.8233, 131.1547
340.3055, 131.3779
340.7876, 131.6700
341.2697, 131.6948
341.7518, 131.2235
342.2339, 130.6885
342.7160, 130.1150
343.1982, 129.6045
343.6803, 129.3721
344.1624, 129.6590
344.6445, 130.3258
345.1266, 130.6486
345.6087, 130.4096
346.0909, 130.1688
346.5730, 130.2031
347.0551, 130.3153
347.5372, 130.2484
348.0193, 129.8828
348.5014, 129.3436
348.9836, 128.8131
349.4657, 128.2473
349.9478, 127.8495
350.4299, 128.1698
350.9120, 128.3719
351.3941, 127.6391
351.8763, 125.8465
352.3584, 123.9258
352.8405, 122.8831
353.3226, 122.7385
353.8047, 122.6105
354.2868, 122.5152
354.7690, 122.2663
355.2511, 121.7340
355.7332, 120.9489
356.2153, 120.0581
356.6974, 119.1771
357.1795, 118.2702
357.6617, 117.1235
358.1438, 115.5277
358.6259, 114.1462
359.1080, 113.5430
359.5901, 113.3567
360.0722, 113.0269
360.5544, 112.3770
361.0365, 111.4729
361.5186, 110.2235
362.0007, 108.5414
362.4828, 107.2637
362.9649, 106.9153
363.4471, 107.0700
363.9292, 107.3650
364.4113, 107.8684
364.8934, 108.0366
365.3755, 107.0542
365.8576, 105.2101
366.3398, 104.2165
366.8219, 104.8821
367.3040, 105.8902
367.7861, 105.7812
368.2682, 104.6653
368.7503, 103.5395
369.2325, 102.7850
369.7146, 102.2731
370.1967, 101.7440
370.6788, 101.1405
371.1609, 100.7413
371.6430, 101.0037
372.1252, 101.6645
372.6073, 101.8331
373.0894, 100.7221
373.5715, 99.61597
374.0536, 99.81358
374.5357, 101.0769
375.0179, 101.9257
375.5000, 101.4682
375.9821, 100.3058
376.4642, 99.93014
376.9463, 100.7223
377.4284, 101.3134
377.9106, 100.6527
378.3927, 99.57920
378.8748, 99.86279
379.3569, 102.1177
379.8390, 104.6479
380.3211, 105.1152
380.8033, 103.0529
381.2854, 101.5907
381.7675, 101.2860
382.2496, 101.4183
382.7317, 101.3524
383.2138, 101.1051
383.6960, 101.2103
384.1781, 102.1605
384.6602, 103.8693
385.1423, 105.0919
385.6244, 105.7847
386.1065, 106.1478
386.5887, 105.8259
387.0708, 105.2888
387.5529, 105.4481
388.0350, 106.7359
388.5171, 108.5412
388.9992, 109.5125
389.4814, 108.7874
389.9635, 108.5133
390.4456, 108.9997
390.9277, 109.7243
391.4098, 110.2915
391.8919, 110.6354
392.3741, 110.9012
392.8562, 111.2225
393.3383, 111.5907
393.8204, 112.1037
394.3025, 112.7328
394.7846, 113.5250
395.2668, 114.7299
395.7489, 116.0892
396.2310, 117.0911
396.7131, 117.4016
397.1952, 117.2823
397.6773, 117.6460
398.1595, 118.6874
398.6416, 119.9351
399.1237, 121.5869
399.6058, 123.2349
400.0879, 124.4789
400.5700, 125.2498
401.0522, 125.8623
401.5343, 126.7897
402.0164, 128.1502
402.4985, 129.0844
402.9806, 129.2491
403.4627, 129.2503
403.9449, 129.2711
404.4270, 129.3351
404.9091, 129.4233
405.3912, 129.4191
405.8733, 129.4833
406.3554, 130.1708
406.8376, 131.6857
407.3197, 133.3351
407.8018, 134.8303
408.2839, 136.3199
408.7660, 138.0040
409.2481, 139.9942
409.7303, 141.9167
410.2124, 143.2761
410.6945, 144.1208
411.1766, 145.2747
411.6587, 147.0903
412.1408, 149.0508
412.6230, 150.6997
413.1051, 152.0618
413.5872, 153.2883
414.0693, 154.3024
414.5514, 155.2738
415.0335, 156.5161
415.5157, 158.0723
415.9978, 159.6306
416.4799, 161.1254
416.9620, 162.4253
417.4441, 163.2108
417.9262, 163.1579
418.4084, 163.0042
418.8905, 163.4456
419.3726, 164.1210
419.8547, 164.0578
420.3368, 162.8830
420.8189, 160.9723
421.3011, 158.7752
421.7832, 156.1120
422.2653, 153.9497
422.7474, 152.8835
423.2295, 152.0313
423.7116, 150.5908
424.1938, 148.5436
424.6759, 146.3324
425.1580, 144.2131
425.6401, 142.2165
426.1222, 140.8752
426.6043, 141.0432
427.0865, 140.7688
427.5686, 139.1604
428.0507, 136.9422
428.5328, 135.1348
429.0149, 134.1247
429.4970, 133.5759
429.9792, 132.8981
430.4613, 131.9998
430.9434, 131.1605
431.4255, 130.1707
431.9076, 129.4031
432.3897, 129.3065
432.8719, 129.6702
433.3540, 129.8047
433.8361, 129.1296
434.3182, 127.7658
434.8003, 126.5374
435.2824, 125.2524
435.7646, 124.4529
436.2467, 124.7865
436.7288, 125.3678
437.2109, 125.0498
437.6930, 123.4596
438.1751, 121.7668
438.6573, 121.6348
439.1394, 123.2028
439.6215, 124.4229
440.1036, 125.1883
440.5857, 125.3125
441.0678, 124.3457
441.5500, 122.6023
442.0321, 121.2430
442.5142, 121.1867
442.9963, 121.7486
443.4784, 121.4971
443.9605, 120.2752
444.4427, 119.5082
444.9248, 120.3920
445.4069, 121.9302
445.8890, 122.3258
446.3711, 121.1528
446.8532, 119.8317
447.3354, 119.1170
447.8175, 118.8234
448.2996, 118.6357
448.7817, 118.5280
449.2638, 118.2275
449.7459, 117.2685
450.2281, 115.5975
450.7102, 114.6212
451.1923, 114.9645
451.6744, 115.5063
452.1565, 115.6149
452.6386, 115.3350
453.1208, 114.8864
453.6029, 114.3604
454.0850, 113.8119
454.5671, 113.3942
455.0492, 113.1542
455.5313, 112.9943
456.0135, 113.0433
456.4956, 113.0848
456.9777, 112.7276
457.4598, 112.0645
457.9419, 111.7992
458.4240, 112.7631
458.9062, 114.9862
459.3883, 116.1279
459.8704, 114.9996
460.3525, 114.0814
460.8346, 114.2063
461.3167, 114.7349
461.7989, 114.7213
462.2810, 113.7933
462.7631, 112.6491
463.2452, 112.4712
463.7273, 113.4630
464.2094, 114.2192
464.6916, 114.6350
465.1737, 114.6734
465.6558, 113.9057
466.1379, 112.6592
466.6200, 112.0609
467.1021, 113.2822
467.5843, 115.3013
468.0664, 115.8783
468.5485, 114.7968
469.0306, 113.8645
469.5127, 114.0149
469.9948, 114.7270
470.4770, 115.1975
470.9591, 115.3977
471.4412, 115.3672
471.9233, 114.7871
472.4054, 114.0722
472.8875, 114.1163
473.3697, 115.1155
473.8518, 116.2795
474.3339, 116.9114
474.8160, 116.9984
475.2981, 117.1132
475.7802, 117.0247
476.2624, 117.2014
476.7445, 117.9484
477.2266, 119.0959
477.7087, 120.3712
478.1908, 121.6790
478.6729, 122.9255
479.1551, 123.9471
479.6372, 124.7534
480.1193, 125.2799
480.6014, 124.7227
481.0835, 124.6390
481.5656, 126.3058
482.0478, 129.2311
482.5299, 131.9613
483.0120, 133.5117
483.4941, 134.1969
483.9762, 135.1621
484.4583, 136.6164
484.9405, 137.9233
485.4226, 138.5649
485.9047, 139.2920
486.3868, 140.8061
486.8689, 143.1453
487.3510, 145.6019
487.8332, 147.4945
488.3153, 148.9644
488.7974, 150.8212
489.2795, 153.2456
489.7616, 155.6729
490.2437, 157.5042
490.7259, 159.1783
491.2080, 161.5332
491.6901, 165.1428
492.1722, 168.5700
492.6543, 170.4422
493.1364, 171.2775
493.6186, 172.5989
494.1007, 174.8528
494.5828, 177.4883
495.0649, 179.9352
495.5470, 182.1776
496.0291, 184.3511
496.5113, 186.8548
496.9934, 188.9359
497.4755, 190.0466
497.9576, 190.3847
498.4397, 190.3823
498.9218, 190.2255
499.4040, 190.0446
499.8861, 190.1949
500.3682, 191.4343
500.8503, 191.5477
501.3324, 189.9276
501.8145, 187.8404
502.2967, 186.0157
502.7788, 184.4295
503.2609, 182.6686
503.7430, 180.3989
504.2251, 177.7729
504.7072, 175.4326
505.1894, 173.5231
505.6715, 171.5441
506.1536, 169.3614
506.6357, 167.0618
507.1178, 164.7446
507.5999, 162.4138
508.0821, 159.9362
508.5642, 157.0564
509.0463, 153.9627
509.5284, 151.2081
510.0105, 148.8745
510.4926, 146.6898
510.9748, 144.5869
511.4569, 142.5040
511.9390, 140.2572
512.4211, 137.6335
512.9032, 135.2489
513.3853, 133.8164
513.8674, 132.7205
514.3495, 130.6696
514.8317, 127.3626
515.3138, 124.1375
515.7959, 122.4702
516.2780, 122.5123
516.7601, 121.7293
517.2422, 119.4771
517.7244, 117.2581
518.2065, 115.4130
518.6886, 113.9699
519.1707, 113.0724
519.6528, 112.7358
520.1349, 112.5043
520.6171, 111.5908
521.0992, 109.7011
521.5813, 108.3353
522.0634, 108.0180
522.5455, 107.7291
523.0276, 106.8495
523.5098, 105.7720
523.9919, 105.3285
524.4740, 106.0163
524.9561, 107.1039
525.4382, 107.5192
525.9203, 107.2477
526.4025, 106.9571
526.8846, 106.8365
527.3667, 106.6908
527.8488, 106.1560
528.3309, 105.3360
528.8130, 104.9591
529.2952, 105.7270
529.7773, 106.6537
530.2594, 106.7100
530.7415, 106.0656
531.2236, 105.5690
531.7057, 105.5954
532.1879, 105.9745
532.6700, 106.4517
533.1521, 107.4243
533.6342, 107.5069
534.1163, 106.0102
534.5984, 104.1832
535.0806, 102.7236
535.5627, 101.6494
536.0448, 100.7755
536.5269, 100.0146
537.0090, 99.28555
537.4911, 98.35484
537.9733, 97.16653
538.4554, 95.87265
538.9375, 94.24596
539.4196, 92.72520
539.9017, 91.55528
540.3839, 90.74046
540.8660, 90.18926
541.3481, 89.95765
541.8302, 89.88547
542.3123, 89.73447
542.7944, 89.55982
543.2766, 88.76172
543.7587, 86.54855
544.2408, 84.05718
544.7229, 83.11395
545.2050, 83.93150
545.6871, 84.31182
546.1693, 82.86625
546.6514, 81.00782
547.1335, 80.33265
547.6156, 80.83327
548.0977, 81.66811
548.5798, 82.42979
549.0620, 82.99084
549.5441, 82.91930
550.0262, 81.37763
550.5083, 80.30575
550.9904, 80.10546
551.4725, 80.07661
551.9547, 79.55374
552.4368, 78.65205
552.9189, 78.06467
553.4010, 78.39527
553.8831, 79.34441
554.3652, 79.63137
554.8474, 78.89882
555.3295, 78.40551
555.8116, 78.95556
556.2937, 79.52374
556.7758, 79.18334
557.2579, 77.96343
557.7401, 76.93555
558.2222, 76.86443
558.7043, 77.33448
559.1864, 77.73166
559.6685, 78.03699
560.1506, 78.00684
560.6328, 77.33398
561.1149, 76.43179
561.5970, 76.30771
562.0791, 77.25660
562.5612, 77.87582
563.0433, 77.65273
563.5255, 77.19057
564.0076, 77.00336
564.4897, 77.07092
564.9718, 77.04239
565.4539, 76.66246
565.9360, 76.12570
566.4182, 76.14869
566.9003, 77.34375
567.3824, 77.93311
567.8645, 77.44687
568.3466, 76.69172
568.8287, 75.94576
569.3109, 75.35999
569.7930, 75.24016
570.2751, 75.91745
570.7572, 77.02750
571.2393, 77.92440
571.7214, 78.63515
572.2036, 78.74709
572.6857, 77.79092
573.1678, 76.53600
573.6499, 75.93530
574.1320, 75.96941
574.6141, 75.92177
575.0963, 75.46857
575.5784, 74.95872
576.0605, 74.67569
576.5426, 74.59880
577.0247, 74.58644
577.5068, 74.56438
577.9890, 74.64964
578.4711, 75.10222
578.9532, 76.23190
579.4353, 76.92929
579.9174, 76.83469
580.3995, 76.72517
580.8817, 77.12168
581.3638, 77.75610
581.8459, 78.02880
582.3280, 77.63015
582.8101, 76.97377
583.2922, 76.77233
583.7744, 77.06742
584.2565, 77.22651
584.7386, 77.21474
585.2207, 76.97795
585.7029, 76.30437
586.1850, 75.38757
