##NAMES=Cancrinite
##RRUFFID=R050352
##IDEAL CHEMISTRY=(Na,Ca,[box])_8_(Al_6_Si_6_)O_24_(CO_3_,S^6+^O_4_)_2_&#183;2H_2_O
##LOCALITY=York River, quarry #2, Dungannon Township, Ontario, Canada
##OWNER=RRUFF
##SOURCE=California Institute of Technology
##DESCRIPTION=Pink fragment
##STATUS=The identification of this mineral has been confirmed by X-ray diffraction and chemical analysis
##URL=rruff.info/R050352
##MEASURED CHEMISTRY=(Na_6.07_Ca_1.62_[box]_0.31_)_Σ=8_(Al_0.99_Si_1.01_O_4_)_6_((CO_3_)_0.84_[box]_0.16_)_Σ=2_·2H_2_O
106.0227, 825.9990
106.5048, 825.8297
106.9869, 824.8185
107.4691, 823.9659
107.9512, 823.4041
108.4333, 823.2747
108.9154, 823.9284
109.3975, 825.8636
109.8796, 829.3004
110.3617, 832.3898
110.8439, 835.2181
111.3260, 837.6134
111.8081, 839.5534
112.2902, 840.9793
112.7723, 841.7837
113.2544, 841.8293
113.7366, 841.1381
114.2187, 839.3981
114.7008, 836.0246
115.1829, 831.9831
115.6650, 828.1736
116.1471, 824.9061
116.6293, 821.8536
117.1114, 818.2379
117.5935, 814.0397
118.0756, 809.4574
118.5577, 804.7198
119.0398, 799.6396
119.5220, 793.5272
120.0041, 785.6234
120.4862, 776.8933
120.9683, 769.5866
121.4504, 764.3069
121.9325, 759.3888
122.4147, 753.8921
122.8968, 747.8571
123.3789, 740.6951
123.8610, 731.2371
124.3431, 720.7181
124.8252, 709.9679
125.3074, 698.7748
125.7895, 688.0496
126.2716, 679.9713
126.7537, 676.1925
127.2358, 672.3391
127.7179, 666.9971
128.2001, 660.7548
128.6822, 654.2816
129.1643, 647.9827
129.6464, 641.8363
130.1285, 635.9028
130.6106, 631.7342
131.0928, 626.2250
131.5749, 618.0488
132.0570, 607.8503
132.5391, 596.9974
133.0212, 586.6550
133.5033, 576.7453
133.9855, 567.9328
134.4676, 560.8029
134.9497, 554.0569
135.4318, 547.2255
135.9139, 540.1832
136.3960, 532.6583
136.8782, 524.1842
137.3603, 514.4332
137.8424, 505.5905
138.3245, 498.2809
138.8066, 491.7672
139.2887, 485.2638
139.7709, 478.6105
140.2530, 472.0465
140.7351, 465.6561
141.2172, 459.4281
141.6993, 454.0259
142.1814, 450.3509
142.6636, 447.9222
143.1457, 444.8853
143.6278, 440.5661
144.1099, 435.8401
144.5920, 431.1599
145.0741, 426.5878
145.5563, 422.6628
146.0384, 420.2150
146.5205, 419.4869
147.0026, 418.2055
147.4847, 415.2800
147.9668, 412.1253
148.4490, 409.4204
148.9311, 407.3367
149.4132, 405.6912
149.8953, 404.2669
150.3774, 403.2018
150.8595, 402.0652
151.3417, 400.4367
151.8238, 398.9388
152.3059, 398.1585
152.7880, 398.3007
153.2701, 399.0218
153.7522, 399.4590
154.2344, 399.4045
154.7165, 399.2514
155.1986, 398.8993
155.6807, 398.4841
156.1628, 398.1103
156.6449, 397.8082
157.1271, 397.6634
157.6092, 398.0846
158.0913, 399.3672
158.5734, 400.7591
159.0555, 401.8429
159.5376, 402.8411
160.0198, 404.3907
160.5019, 406.9665
160.9840, 410.3273
161.4661, 413.3831
161.9482, 415.8761
162.4303, 418.3513
162.9125, 421.0970
163.3946, 424.1103
163.8767, 427.4174
164.3588, 431.4758
164.8409, 435.6785
165.3230, 439.0926
165.8052, 441.6754
166.2873, 443.2816
166.7694, 443.6974
167.2515, 442.9189
167.7336, 440.8949
168.2157, 436.6246
168.6979, 431.4323
169.1800, 426.7813
169.6621, 423.2877
170.1442, 420.7381
170.6263, 418.4996
171.1084, 416.4373
171.5906, 415.0014
172.0727, 414.5720
172.5548, 414.6981
173.0369, 414.6908
173.5190, 414.0263
174.0011, 412.8733
174.4833, 412.6699
174.9654, 414.6715
175.4475, 416.4454
175.9296, 417.2184
176.4117, 417.3868
176.8938, 417.7605
177.3760, 418.9757
177.8581, 421.0610
178.3402, 422.8743
178.8223, 424.0996
179.3044, 425.3905
179.7865, 427.1535
180.2687, 429.2258
180.7508, 431.0694
181.2329, 432.1655
181.7150, 432.4238
182.1971, 433.1051
182.6792, 434.3014
183.1614, 435.7669
183.6435, 437.5768
184.1256, 439.6474
184.6077, 441.4974
185.0898, 442.6063
185.5719, 442.9106
186.0540, 443.5258
186.5362, 444.5991
187.0183, 445.9160
187.5004, 447.2868
187.9825, 448.6928
188.4646, 450.1740
188.9467, 451.8536
189.4289, 453.6657
189.9110, 455.3734
190.3931, 456.9641
190.8752, 458.4047
191.3573, 459.5790
191.8394, 460.3610
192.3216, 461.2158
192.8037, 462.4440
193.2858, 463.9915
193.7679, 465.8209
194.2500, 468.4637
194.7321, 471.4337
195.2143, 473.1161
195.6964, 472.9863
196.1785, 472.2186
196.6606, 471.2897
197.1427, 470.3083
197.6248, 469.5372
198.1070, 469.3141
198.5891, 469.5449
199.0712, 469.2685
199.5533, 468.1284
200.0354, 466.8127
200.5175, 465.3919
200.9997, 463.9989
201.4818, 462.8828
201.9639, 462.2975
202.4460, 462.2569
202.9281, 462.1397
203.4102, 461.5318
203.8924, 461.2353
204.3745, 461.5949
204.8566, 462.4999
205.3387, 463.6219
205.8208, 464.6734
206.3029, 465.6334
206.7851, 466.7892
207.2672, 468.0478
207.7493, 469.5624
208.2314, 471.5661
208.7135, 473.9264
209.1956, 476.2319
209.6778, 478.0684
210.1599, 479.3143
210.6420, 481.0439
211.1241, 483.4668
211.6062, 486.0713
212.0883, 488.5646
212.5705, 490.9564
213.0526, 493.5248
213.5347, 496.6378
214.0168, 500.3963
214.4989, 503.2804
214.9810, 504.7377
215.4632, 505.8427
215.9453, 507.1604
216.4274, 508.7668
216.9095, 510.6794
217.3916, 513.0707
217.8737, 515.9312
218.3559, 518.1742
218.8380, 519.4127
219.3201, 520.2914
219.8022, 521.4642
220.2843, 522.9811
220.7664, 524.2123
221.2486, 524.2921
221.7307, 523.5903
222.2128, 523.6876
222.6949, 525.6349
223.1770, 528.0591
223.6591, 529.3464
224.1413, 529.3407
224.6234, 528.9950
225.1055, 529.0603
225.5876, 529.2538
226.0697, 529.0035
226.5518, 527.7756
227.0340, 526.2184
227.5161, 525.5003
227.9982, 525.9805
228.4803, 526.0286
228.9624, 524.2012
229.4445, 521.4842
229.9267, 519.0837
230.4088, 517.4665
230.8909, 516.4003
231.3730, 515.5591
231.8551, 515.1105
232.3372, 514.4605
232.8194, 513.1956
233.3015, 511.6591
233.7836, 510.1576
234.2657, 508.7079
234.7478, 507.5413
235.2299, 507.4601
235.7121, 509.5963
236.1942, 510.4638
236.6763, 508.0685
237.1584, 504.4829
237.6405, 501.8550
238.1227, 501.1282
238.6048, 501.7462
239.0869, 502.2937
239.5690, 502.5438
240.0511, 503.1596
240.5332, 504.3368
241.0154, 505.8389
241.4975, 507.4094
241.9796, 508.9348
242.4617, 510.5234
242.9438, 512.4095
243.4259, 514.5624
243.9081, 517.1455
244.3902, 520.4720
244.8723, 524.0323
245.3544, 527.1915
245.8365, 529.7377
246.3186, 532.1544
246.8007, 535.6108
247.2829, 540.8643
247.7650, 546.1474
248.2471, 551.0582
248.7292, 556.1073
249.2113, 561.7480
249.6934, 568.1374
250.1756, 575.1442
250.6577, 582.5550
251.1398, 590.7772
251.6219, 598.7677
252.1040, 605.7743
252.5861, 612.8910
253.0683, 621.2602
253.5504, 631.1282
254.0325, 641.7297
254.5146, 651.7937
254.9967, 660.6720
255.4788, 670.1543
255.9610, 680.4184
256.4431, 691.1202
256.9252, 702.0843
257.4073, 713.2693
257.8894, 724.5496
258.3716, 735.7652
258.8537, 746.7965
259.3358, 758.1328
259.8179, 769.6388
260.3000, 781.5724
260.7821, 794.5211
261.2643, 808.5326
261.7464, 822.4703
262.2285, 835.1171
262.7106, 846.2117
263.1927, 857.2282
263.6748, 867.8826
264.1570, 878.6240
264.6391, 890.0081
265.1212, 902.0334
265.6033, 913.8229
266.0854, 924.3844
266.5675, 933.6009
267.0497, 942.8282
267.5318, 951.8146
268.0139, 960.9652
268.4960, 970.9144
268.9781, 981.6028
269.4602, 991.9609
269.9424, 1001.388
270.4245, 1009.679
270.9066, 1016.691
271.3887, 1022.783
271.8708, 1027.337
272.3529, 1029.671
272.8351, 1029.871
273.3172, 1028.931
273.7993, 1027.804
274.2814, 1025.649
274.7635, 1020.743
275.2456, 1012.589
275.7278, 1002.235
276.2099, 990.4069
276.6920, 977.0581
277.1741, 961.6229
277.6562, 943.3445
278.1383, 922.9772
278.6204, 902.8301
279.1025, 882.9025
279.5847, 862.7687
280.0668, 841.9152
280.5489, 820.4103
281.0310, 799.0009
281.5131, 777.2096
281.9952, 756.5290
282.4774, 738.9556
282.9595, 724.8181
283.4416, 711.7123
283.9237, 697.5941
284.4058, 683.1469
284.8879, 671.1855
285.3701, 662.7718
285.8522, 656.8264
286.3343, 652.1342
286.8164, 648.6425
287.2985, 645.8624
287.7806, 643.7061
288.2628, 642.0771
288.7449, 640.5898
289.2270, 638.9315
289.7091, 637.9250
290.1912, 638.1187
290.6733, 639.3990
291.1555, 641.5728
291.6376, 644.9965
292.1197, 649.1935
292.6018, 653.1715
293.0839, 656.9513
293.5660, 660.2857
294.0482, 663.4108
294.5303, 665.9999
295.0124, 667.2933
295.4945, 666.7314
295.9766, 664.8212
296.4587, 662.4327
296.9409, 659.5909
297.4230, 656.1691
297.9051, 651.8169
298.3872, 646.9006
298.8693, 641.8760
299.3514, 637.1295
299.8336, 631.8682
300.3157, 624.7117
300.7978, 615.2870
301.2799, 605.9490
301.7620, 597.4886
302.2441, 589.5574
302.7263, 582.0065
303.2084, 574.8854
303.6905, 567.6243
304.1726, 559.4701
304.6547, 550.4000
305.1368, 541.3478
305.6190, 532.2072
306.1011, 523.4116
306.5832, 515.3820
307.0653, 508.1309
307.5474, 501.2197
308.0295, 494.3908
308.5117, 487.6494
308.9938, 480.8089
309.4759, 473.4822
309.9580, 466.5542
310.4401, 460.6034
310.9222, 455.5285
311.4044, 450.9040
311.8865, 446.5630
312.3686, 442.5016
312.8507, 438.6194
313.3328, 434.8857
313.8149, 431.4058
314.2971, 428.2087
314.7792, 425.2428
315.2613, 422.3902
315.7434, 419.5055
316.2255, 416.7436
316.7076, 414.4821
317.1898, 412.8348
317.6719, 411.3232
318.1540, 409.4216
318.6361, 407.6481
319.1182, 406.6968
319.6003, 406.9149
320.0825, 407.6046
320.5646, 407.9126
321.0467, 407.8304
321.5288, 407.4056
322.0109, 405.9984
322.4930, 404.6611
322.9752, 404.2302
323.4573, 404.8427
323.9394, 406.0833
324.4215, 407.7349
324.9036, 409.7791
325.3857, 411.7826
325.8679, 413.5457
326.3500, 415.3817
326.8321, 417.4796
327.3142, 419.8373
327.7963, 422.3763
328.2784, 424.9759
328.7606, 427.6923
329.2427, 430.9076
329.7248, 434.9883
330.2069, 438.9590
330.6890, 442.2587
331.1711, 445.0348
331.6533, 447.5967
332.1354, 450.1765
332.6175, 452.5834
333.0996, 454.2898
333.5817, 455.0528
334.0638, 455.9258
334.5460, 457.8090
335.0281, 459.9674
335.5102, 461.5975
335.9923, 462.5198
336.4744, 462.8165
336.9565, 462.4678
337.4387, 461.4456
337.9208, 460.2528
338.4029, 458.7768
338.8850, 457.4058
339.3671, 456.5278
339.8492, 456.1857
340.3314, 456.1081
340.8135, 456.0434
341.2956, 456.0400
341.7777, 456.4586
342.2598, 457.5807
342.7419, 458.8350
343.2241, 459.6989
343.7062, 460.2442
344.1883, 460.8048
344.6704, 461.6904
345.1525, 462.6781
345.6346, 463.3272
346.1168, 463.6444
346.5989, 463.5278
347.0810, 462.7509
347.5631, 461.4973
348.0452, 460.0195
348.5273, 458.6408
349.0095, 456.8338
349.4916, 453.6824
349.9737, 449.1651
350.4558, 444.9037
350.9379, 441.9176
351.4200, 439.5005
351.9022, 436.5321
352.3843, 432.9223
352.8664, 428.9086
353.3485, 424.3888
353.8306, 419.5387
354.3127, 415.0766
354.7949, 411.2310
355.2770, 407.7690
355.7591, 404.4288
356.2412, 401.2159
356.7233, 397.9380
357.2054, 394.6137
357.6876, 391.1534
358.1697, 387.2018
358.6518, 382.6003
359.1339, 378.3148
359.6160, 375.3700
360.0981, 373.5506
360.5803, 371.7540
361.0624, 369.8330
361.5445, 367.9111
362.0266, 365.9650
362.5087, 364.0434
362.9908, 362.5831
363.4730, 362.0360
363.9551, 362.0002
364.4372, 361.1905
364.9193, 359.1019
365.4014, 357.1548
365.8835, 355.8130
366.3657, 355.0401
366.8478, 354.9101
367.3299, 355.5534
367.8120, 356.4111
368.2941, 356.4760
368.7762, 355.4469
369.2584, 355.0023
369.7405, 355.8533
370.2226, 357.1094
370.7047, 357.9471
371.1868, 358.2579
371.6689, 358.2974
372.1511, 358.2410
372.6332, 358.0857
373.1153, 358.1327
373.5974, 358.6282
374.0795, 359.0674
374.5616, 359.0672
375.0438, 358.8063
375.5259, 358.7649
376.0080, 359.2189
376.4901, 360.0432
376.9722, 360.8026
377.4543, 361.2739
377.9365, 361.9614
378.4186, 363.1371
378.9007, 364.4534
379.3828, 365.3681
379.8649, 365.7755
380.3470, 366.2692
380.8292, 367.7553
381.3113, 370.8236
381.7934, 373.1288
382.2755, 374.1518
382.7576, 374.9738
383.2397, 376.2064
383.7219, 377.8121
384.2040, 379.3954
384.6861, 380.6167
385.1682, 381.5172
385.6503, 382.7029
386.1324, 384.5730
386.6146, 386.2965
387.0967, 387.4458
387.5788, 388.4536
388.0609, 389.9658
388.5430, 392.2484
389.0251, 394.8755
389.5073, 396.9230
389.9894, 397.8108
390.4715, 399.3602
390.9536, 402.0175
391.4357, 404.9852
391.9178, 407.8541
392.4000, 410.5366
392.8821, 413.0928
393.3642, 415.4625
393.8463, 417.6268
394.3284, 420.3775
394.8105, 424.0295
395.2927, 427.9896
395.7748, 432.0858
396.2569, 436.3236
396.7390, 440.7982
397.2211, 445.6025
397.7032, 450.5727
398.1854, 455.3342
398.6675, 459.9232
399.1496, 464.2475
399.6317, 467.9924
400.1138, 471.6718
400.5959, 475.6663
401.0780, 480.0334
401.5602, 484.5808
402.0423, 489.2814
402.5244, 494.0775
403.0065, 498.3036
403.4886, 501.2743
403.9707, 504.5490
404.4529, 509.4686
404.9350, 515.5382
405.4171, 521.4313
405.8992, 526.4159
406.3813, 530.9523
406.8634, 535.6074
407.3456, 540.3282
407.8277, 545.7407
408.3098, 552.3966
408.7919, 559.9470
409.2740, 567.7565
409.7561, 575.9542
410.2383, 584.0424
410.7204, 591.7687
411.2025, 599.1967
411.6846, 606.5695
412.1667, 613.9646
412.6488, 621.3792
413.1310, 628.8094
413.6131, 636.2879
414.0952, 643.8065
414.5773, 651.3130
415.0594, 658.9025
415.5415, 666.7821
416.0237, 674.8876
416.5058, 682.8700
416.9879, 690.8608
417.4700, 698.4066
417.9521, 703.0940
418.4342, 704.8079
418.9164, 704.3912
419.3985, 701.0112
419.8806, 695.9421
420.3627, 691.2128
420.8448, 687.4520
421.3269, 683.5909
421.8091, 678.0349
422.2912, 670.3893
422.7733, 661.9636
423.2554, 652.5298
423.7375, 642.6190
424.2196, 632.4686
424.7018, 622.1752
425.1839, 611.8104
425.6660, 601.3781
426.1481, 591.0028
426.6302, 581.1987
427.1123, 571.7391
427.5945, 563.3496
428.0766, 556.7445
428.5587, 550.9413
429.0408, 544.7784
429.5229, 537.9694
430.0050, 531.2125
430.4872, 525.4685
430.9693, 520.8757
431.4514, 516.8275
431.9335, 513.8746
432.4156, 510.9706
432.8977, 507.5258
433.3799, 503.7740
433.8620, 500.2907
434.3441, 497.4040
434.8262, 495.0807
435.3083, 493.4516
435.7904, 492.9823
436.2726, 491.9213
436.7547, 488.7582
437.2368, 485.1729
437.7189, 482.7575
438.2010, 481.8578
438.6831, 481.3210
439.1653, 480.0421
439.6474, 478.2240
440.1295, 476.9773
440.6116, 476.5563
441.0937, 476.5822
441.5758, 476.7581
442.0580, 477.1000
442.5401, 477.7379
443.0222, 478.7283
443.5043, 480.0148
443.9864, 481.5697
444.4685, 483.3814
444.9507, 485.4146
445.4328, 487.6599
445.9149, 490.1169
446.3970, 492.7446
446.8791, 495.4418
447.3612, 498.5051
447.8434, 502.3099
448.3255, 506.3918
448.8076, 510.0311
449.2897, 513.1636
449.7718, 516.5255
450.2539, 520.8781
450.7361, 526.3023
451.2182, 531.4084
451.7003, 535.1660
452.1824, 539.7659
452.6645, 546.0244
453.1466, 553.6823
453.6288, 562.3970
454.1109, 572.0448
454.5930, 582.1539
455.0751, 591.6795
455.5572, 598.9251
456.0393, 609.0717
456.5215, 623.2791
457.0036, 638.8687
457.4857, 654.2850
457.9678, 669.6024
458.4499, 685.9633
458.9320, 704.3494
459.4142, 724.4653
459.8963, 744.9158
460.3784, 766.4072
460.8605, 786.8356
461.3426, 806.8395
461.8247, 825.2372
462.3069, 841.1984
462.7890, 854.5117
463.2711, 864.7306
463.7532, 872.0838
464.2353, 876.4206
464.7174, 874.5880
465.1996, 865.1743
465.6817, 850.9287
466.1638, 832.8192
466.6459, 811.7330
467.1280, 789.5721
467.6101, 766.2100
468.0923, 742.8008
468.5744, 720.3650
469.0565, 698.8235
469.5386, 679.1357
470.0207, 661.5483
470.5028, 646.1646
470.9850, 633.5320
471.4671, 623.6073
471.9492, 615.1495
472.4313, 608.1865
472.9134, 602.2937
473.3955, 597.0177
473.8777, 592.3257
474.3598, 588.3709
474.8419, 585.2954
475.3240, 583.0842
475.8061, 581.6700
476.2882, 580.8171
476.7704, 580.9235
477.2525, 582.8727
477.7346, 585.4857
478.2167, 587.0643
478.6988, 587.2792
479.1809, 587.5640
479.6631, 589.8622
480.1452, 594.5695
480.6273, 599.2076
481.1094, 603.4647
481.5915, 607.9489
482.0736, 612.9498
482.5558, 618.2982
483.0379, 623.7145
483.5200, 629.0975
484.0021, 634.4435
484.4842, 639.4440
484.9663, 643.7015
485.4485, 649.5992
485.9306, 659.4632
486.4127, 669.5427
486.8948, 677.0937
487.3769, 682.4304
487.8590, 687.7854
488.3412, 694.4724
488.8233, 701.9961
489.3054, 709.4810
489.7875, 716.8914
490.2696, 724.1540
490.7517, 731.2592
491.2339, 738.1010
491.7160, 744.7354
492.1981, 751.3389
492.6802, 757.1229
493.1623, 761.4205
493.6444, 764.7623
494.1266, 768.0598
494.6087, 771.4623
495.0908, 774.2304
495.5729, 775.7805
496.0550, 776.0852
496.5371, 775.2039
497.0193, 773.1552
497.5014, 770.1200
497.9835, 765.8563
498.4656, 760.7314
498.9477, 755.2613
499.4298, 749.6066
499.9120, 743.4728
500.3941, 736.3383
500.8762, 727.6918
501.3583, 719.8847
501.8404, 714.3674
502.3225, 708.2318
502.8047, 700.1048
503.2868, 690.6497
503.7689, 681.2562
504.2510, 672.5224
504.7331, 664.2514
505.2152, 656.1282
505.6974, 648.1671
506.1795, 640.1293
506.6616, 631.7632
507.1437, 623.5513
507.6258, 615.9304
508.1079, 608.7770
508.5901, 601.7202
509.0722, 594.3963
509.5543, 587.1504
510.0364, 580.5125
510.5185, 574.4894
511.0006, 568.5131
511.4828, 562.2239
511.9649, 555.9443
512.4470, 550.4310
512.9291, 545.8190
513.4112, 541.3007
513.8933, 536.4613
514.3754, 531.7750
514.8575, 528.1378
515.3397, 525.3920
515.8218, 522.1494
516.3039, 517.2455
516.7860, 510.9737
517.2681, 505.5412
517.7502, 501.0470
518.2324, 497.3341
518.7145, 494.8951
519.1966, 492.8987
519.6787, 490.6072
520.1608, 487.8748
520.6429, 484.9717
521.1251, 482.2341
521.6072, 479.6270
522.0893, 476.3804
522.5714, 471.5091
523.0535, 467.5915
523.5356, 466.1496
524.0178, 465.7110
524.4999, 464.5067
524.9820, 462.0297
525.4641, 459.4045
525.9462, 457.8289
526.4283, 457.0316
526.9105, 455.6118
527.3926, 453.1685
527.8747, 450.7630
528.3568, 449.2835
528.8389, 448.5304
529.3210, 447.7841
529.8032, 446.9920
530.2853, 446.1825
530.7674, 445.5151
531.2495, 444.8207
531.7316, 443.6352
532.2137, 441.8097
532.6959, 439.9225
533.1780, 438.6531
533.6601, 438.0195
534.1422, 437.9371
534.6243, 439.4579
535.1064, 440.2983
535.5886, 438.9622
536.0707, 436.5726
536.5528, 434.9035
537.0349, 434.6607
537.5170, 435.1186
537.9991, 435.1445
538.4813, 434.6335
538.9634, 434.2372
539.4455, 434.0296
539.9276, 433.8980
540.4097, 433.7969
540.8918, 433.7330
541.3740, 433.7581
541.8561, 433.9803
542.3382, 434.1134
542.8203, 433.6622
543.3024, 432.7061
543.7845, 432.0348
544.2667, 431.8983
544.7488, 431.9881
545.2309, 432.0262
545.7130, 432.0129
546.1951, 431.9132
546.6772, 431.5745
547.1594, 431.2842
547.6415, 431.3136
548.1236, 431.5397
548.6057, 431.6107
549.0878, 431.3775
549.5699, 431.0663
550.0521, 431.0478
550.5342, 431.3882
551.0163, 431.8422
551.4984, 432.5275
551.9805, 433.1873
552.4626, 433.7096
552.9448, 434.1263
553.4269, 434.5648
553.9090, 435.0997
554.3911, 435.5259
554.8732, 435.4612
555.3553, 434.8547
555.8375, 434.0411
556.3196, 432.5683
556.8017, 431.4889
557.2838, 431.6102
557.7659, 432.6151
558.2480, 433.6033
558.7302, 434.1130
559.2123, 434.6414
559.6944, 435.9945
560.1765, 437.8964
560.6586, 439.0347
561.1407, 438.9328
561.6229, 438.1993
562.1050, 437.4903
562.5871, 436.7961
563.0692, 436.3120
563.5513, 436.0672
564.0334, 436.0105
564.5156, 436.1244
564.9977, 436.4063
565.4798, 436.9181
565.9619, 437.6759
566.4440, 438.4844
566.9261, 439.0328
567.4083, 439.2760
567.8904, 439.4361
568.3725, 439.5450
568.8546, 439.5235
569.3367, 438.7304
569.8188, 437.9442
570.3010, 438.7158
570.7831, 441.9064
571.2652, 445.3024
571.7473, 445.9912
572.2294, 444.3267
572.7115, 443.2424
573.1937, 443.3400
573.6758, 443.7489
574.1579, 443.7375
574.6400, 443.4366
575.1221, 443.3615
575.6042, 443.6942
576.0864, 444.1112
576.5685, 444.6059
577.0506, 445.0354
577.5327, 445.0532
578.0148, 444.6020
578.4969, 444.1124
578.9791, 443.9958
579.4612, 444.2443
579.9433, 445.0901
580.4254, 447.6527
580.9075, 449.4922
581.3896, 449.7947
581.8718, 449.3525
582.3539, 448.9249
582.8360, 448.7276
583.3181, 448.7218
583.8002, 448.7730
584.2823, 448.9396
584.7645, 449.7966
585.2466, 451.6863
585.7287, 453.3022
586.2108, 454.0305
586.6929, 454.0652
587.1750, 453.4428
587.6572, 451.8595
588.1393, 450.9553
588.6214, 452.1263
589.1035, 454.0728
589.5856, 455.0130
590.0677, 454.8533
590.5499, 454.5260
591.0320, 454.5984
591.5141, 455.0142
591.9962, 455.5674
592.4783, 456.3846
592.9604, 457.1664
593.4426, 458.1295
593.9247, 458.8827
594.4068, 459.0870
594.8889, 458.8236
595.3710, 458.3897
595.8531, 457.9204
596.3353, 457.5259
596.8174, 457.3864
597.2995, 457.4449
597.7816, 458.1947
598.2637, 460.5103
598.7458, 462.7166
599.2280, 463.1268
