##NAMES=Carlosturanite
##RRUFFID=R060259
##IDEAL CHEMISTRY=(Mg,Fe^2+^,Ti^4+^)_21_(Si,Al)_12_O_28_(OH)_34_&#183;H_2_O
##LOCALITY=Val Varaita, near Sempeyre, Piedmont, Italy
##OWNER=RRUFF
##SOURCE=Michael Scott
##DESCRIPTION=Pale green fibrous bundle
##STATUS=The identification of this mineral has been made only by X-ray diffraction.
##URL=rruff.info/R060259
91.53320, 4434.494
92.01532, 4410.113
92.49744, 4389.974
92.97955, 4442.985
93.46167, 4505.453
93.94379, 4520.615
94.42590, 4511.968
94.90802, 4492.772
95.39014, 4466.142
95.87225, 4431.578
96.35437, 4394.101
96.83649, 4357.351
97.31860, 4322.750
97.80072, 4291.405
98.28284, 4259.154
98.76495, 4222.685
99.24707, 4187.200
99.72919, 4151.932
100.2113, 4120.333
100.6934, 4093.005
101.1755, 4068.939
101.6577, 4046.590
102.1398, 4023.688
102.6219, 3998.222
103.1040, 3982.275
103.5861, 3978.896
104.0682, 3978.763
104.5504, 3976.807
105.0325, 3972.116
105.5146, 3966.861
105.9967, 3963.872
106.4788, 3964.719
106.9609, 3962.488
107.4431, 3954.457
107.9252, 3943.519
108.4073, 3933.490
108.8894, 3925.492
109.3715, 3918.809
109.8536, 3912.243
110.3358, 3905.552
110.8179, 3899.316
111.3000, 3893.662
111.7821, 3888.611
112.2642, 3884.565
112.7463, 3882.622
113.2285, 3881.244
113.7106, 3878.690
114.1927, 3874.353
114.6748, 3869.662
115.1569, 3866.576
115.6390, 3865.307
116.1212, 3865.100
116.6033, 3866.381
117.0854, 3868.137
117.5675, 3869.486
118.0496, 3870.050
118.5317, 3869.754
119.0139, 3868.291
119.4960, 3863.506
119.9781, 3859.744
120.4602, 3858.015
120.9423, 3857.823
121.4244, 3858.273
121.9066, 3858.719
122.3887, 3859.154
122.8708, 3859.559
123.3529, 3860.171
123.8350, 3860.552
124.3171, 3860.319
124.7993, 3859.535
125.2814, 3858.715
125.7635, 3858.402
126.2456, 3858.734
126.7277, 3858.813
127.2098, 3857.954
127.6920, 3857.104
128.1741, 3857.520
128.6562, 3859.619
129.1383, 3862.020
129.6204, 3863.275
130.1025, 3863.550
130.5847, 3862.477
131.0668, 3860.022
131.5489, 3856.122
132.0310, 3850.337
132.5131, 3841.145
132.9952, 3831.460
133.4774, 3823.277
133.9595, 3816.685
134.4416, 3811.976
134.9237, 3810.265
135.4058, 3812.183
135.8879, 3812.882
136.3701, 3810.193
136.8522, 3806.897
137.3343, 3804.598
137.8164, 3803.690
138.2985, 3803.442
138.7806, 3802.668
139.2628, 3801.509
139.7449, 3799.449
140.2270, 3796.017
140.7091, 3792.024
141.1912, 3787.828
141.6733, 3783.608
142.1555, 3779.796
142.6376, 3778.014
143.1197, 3780.215
143.6018, 3782.352
144.0839, 3784.569
144.5660, 3786.357
145.0482, 3786.770
145.5303, 3785.048
146.0124, 3781.613
146.4945, 3779.746
146.9766, 3780.823
147.4587, 3781.718
147.9409, 3781.044
148.4230, 3778.989
148.9051, 3776.565
149.3872, 3774.361
149.8693, 3772.370
150.3514, 3770.329
150.8336, 3768.299
151.3157, 3766.199
151.7978, 3763.666
152.2799, 3760.544
152.7620, 3758.034
153.2441, 3757.606
153.7263, 3758.414
154.2084, 3759.156
154.6905, 3759.675
155.1726, 3759.810
155.6547, 3758.837
156.1368, 3755.579
156.6190, 3753.457
157.1011, 3755.482
157.5832, 3759.816
158.0653, 3762.835
158.5474, 3761.432
159.0295, 3756.049
159.5117, 3752.699
159.9938, 3753.484
160.4759, 3754.352
160.9580, 3753.780
161.4401, 3752.022
161.9222, 3750.059
162.4044, 3748.942
162.8865, 3749.024
163.3686, 3747.690
163.8507, 3741.813
164.3328, 3737.227
164.8149, 3737.960
165.2971, 3743.331
165.7792, 3748.953
166.2613, 3749.494
166.7434, 3742.347
167.2255, 3737.466
167.7076, 3735.996
168.1898, 3735.649
168.6719, 3735.390
169.1540, 3734.851
169.6361, 3733.413
170.1182, 3729.843
170.6003, 3722.233
171.0825, 3717.669
171.5646, 3719.209
172.0467, 3722.925
172.5288, 3724.190
173.0109, 3721.558
173.4930, 3717.152
173.9752, 3714.199
174.4573, 3712.635
174.9394, 3711.728
175.4215, 3711.512
175.9036, 3711.779
176.3857, 3711.816
176.8679, 3710.827
177.3500, 3710.548
177.8321, 3714.121
178.3142, 3722.073
178.7963, 3728.287
179.2784, 3727.844
179.7606, 3721.595
180.2427, 3716.565
180.7248, 3715.555
181.2069, 3715.663
181.6890, 3714.077
182.1711, 3710.523
182.6533, 3707.015
183.1354, 3705.848
183.6175, 3707.410
184.0996, 3708.300
184.5817, 3706.726
185.0638, 3704.874
185.5460, 3704.276
186.0281, 3705.220
186.5102, 3706.398
186.9923, 3705.604
187.4744, 3701.436
187.9565, 3699.064
188.4387, 3700.966
188.9208, 3703.518
189.4029, 3703.867
189.8850, 3701.205
190.3671, 3697.153
190.8492, 3694.833
191.3314, 3695.837
191.8135, 3696.071
192.2956, 3694.204
192.7777, 3692.077
193.2598, 3691.633
193.7419, 3693.588
194.2241, 3696.765
194.7062, 3698.323
195.1883, 3696.261
195.6704, 3694.764
196.1525, 3694.367
196.6346, 3694.438
197.1168, 3694.292
197.5989, 3693.642
198.0810, 3692.542
198.5631, 3691.113
199.0452, 3689.425
199.5273, 3687.352
200.0095, 3684.515
200.4916, 3681.326
200.9737, 3678.295
201.4558, 3675.516
201.9379, 3673.284
202.4200, 3672.573
202.9022, 3674.061
203.3843, 3675.524
203.8664, 3676.219
204.3485, 3676.302
204.8306, 3676.077
205.3127, 3675.413
205.7949, 3674.833
206.2770, 3675.565
206.7591, 3678.442
207.2412, 3680.759
207.7233, 3680.171
208.2054, 3677.228
208.6876, 3675.493
209.1697, 3677.223
209.6518, 3680.307
210.1339, 3681.682
210.6160, 3681.080
211.0981, 3679.193
211.5803, 3675.935
212.0624, 3671.308
212.5445, 3667.417
213.0266, 3664.419
213.5087, 3663.080
213.9908, 3664.400
214.4730, 3668.782
214.9551, 3674.514
215.4372, 3680.675
215.9193, 3687.877
216.4014, 3691.898
216.8836, 3688.017
217.3657, 3682.397
217.8478, 3678.760
218.3299, 3678.006
218.8120, 3679.236
219.2941, 3681.763
219.7763, 3686.345
220.2584, 3689.614
220.7405, 3689.534
221.2226, 3688.869
221.7047, 3689.417
222.1868, 3691.666
222.6690, 3695.031
223.1511, 3698.926
223.6332, 3704.387
224.1153, 3707.885
224.5974, 3708.981
225.0795, 3708.464
225.5617, 3706.221
226.0438, 3702.437
226.5259, 3698.400
227.0080, 3696.484
227.4901, 3698.296
227.9722, 3699.469
228.4544, 3699.649
228.9365, 3699.392
229.4186, 3699.355
229.9007, 3699.650
230.3828, 3699.601
230.8649, 3697.925
231.3471, 3692.715
231.8292, 3688.911
232.3113, 3687.784
232.7934, 3687.182
233.2755, 3685.092
233.7576, 3681.035
234.2398, 3676.245
234.7219, 3672.819
235.2040, 3671.533
235.6861, 3670.352
236.1682, 3669.562
236.6503, 3668.702
237.1325, 3667.136
237.6146, 3664.745
238.0967, 3662.302
238.5788, 3661.179
239.0609, 3662.946
239.5430, 3662.128
240.0252, 3657.163
240.5073, 3650.214
240.9894, 3642.810
241.4715, 3635.305
241.9536, 3628.790
242.4357, 3625.214
242.9179, 3625.657
243.4000, 3624.244
243.8821, 3618.890
244.3642, 3612.145
244.8463, 3606.672
245.3284, 3602.988
245.8106, 3600.325
246.2927, 3597.600
246.7748, 3594.722
247.2569, 3593.664
247.7390, 3597.537
248.2211, 3602.174
248.7033, 3601.836
249.1854, 3595.217
249.6675, 3587.125
250.1496, 3581.741
250.6317, 3578.815
251.1138, 3578.010
251.5960, 3581.262
252.0781, 3585.757
252.5602, 3587.769
253.0423, 3586.738
253.5244, 3584.521
254.0065, 3582.260
254.4887, 3580.013
254.9708, 3577.973
255.4529, 3575.917
255.9350, 3574.223
256.4171, 3573.728
256.8992, 3574.745
257.3813, 3575.655
257.8635, 3575.112
258.3456, 3573.676
258.8277, 3572.139
259.3098, 3570.327
259.7919, 3568.757
260.2740, 3568.248
260.7562, 3568.925
261.2383, 3570.052
261.7204, 3572.003
262.2025, 3573.935
262.6846, 3574.711
263.1667, 3573.817
263.6489, 3571.832
264.1310, 3569.245
264.6131, 3565.781
265.0952, 3562.907
265.5773, 3562.003
266.0594, 3561.781
266.5416, 3561.073
267.0237, 3559.547
267.5058, 3557.571
267.9879, 3555.591
268.4700, 3553.653
268.9521, 3551.652
269.4343, 3549.193
269.9164, 3546.888
270.3985, 3545.501
270.8806, 3545.312
271.3627, 3545.137
271.8448, 3543.260
272.3270, 3539.254
272.8091, 3535.665
273.2912, 3532.704
273.7733, 3530.583
274.2554, 3529.648
274.7375, 3529.910
275.2197, 3530.797
275.7018, 3531.919
276.1839, 3533.399
276.6660, 3534.184
277.1481, 3534.063
277.6302, 3533.164
278.1124, 3531.103
278.5945, 3528.044
279.0766, 3524.988
279.5587, 3522.594
280.0408, 3520.750
280.5229, 3520.659
281.0051, 3525.141
281.4872, 3529.118
281.9693, 3530.192
282.4514, 3528.747
282.9335, 3526.688
283.4156, 3525.958
283.8978, 3526.630
284.3799, 3525.171
284.8620, 3518.861
285.3441, 3513.033
285.8262, 3509.314
286.3083, 3507.483
286.7905, 3506.908
287.2726, 3507.511
287.7547, 3509.038
288.2368, 3509.052
288.7189, 3506.197
289.2010, 3503.300
289.6832, 3500.979
290.1653, 3499.155
290.6474, 3497.573
291.1295, 3496.056
291.6116, 3494.774
292.0938, 3494.557
292.5759, 3496.844
293.0580, 3498.151
293.5401, 3497.852
294.0222, 3496.332
294.5043, 3493.627
294.9865, 3489.690
295.4686, 3485.499
295.9507, 3483.670
296.4328, 3486.359
296.9149, 3487.585
297.3970, 3485.181
297.8792, 3482.022
298.3613, 3480.948
298.8434, 3482.715
299.3255, 3485.417
299.8076, 3485.735
300.2897, 3482.255
300.7719, 3479.504
301.2540, 3477.394
301.7361, 3476.137
302.2182, 3476.198
302.7003, 3477.477
303.1824, 3479.101
303.6646, 3479.942
304.1467, 3479.591
304.6288, 3479.917
305.1109, 3481.461
305.5930, 3483.161
306.0751, 3485.429
306.5573, 3487.623
307.0394, 3487.933
307.5215, 3484.166
308.0036, 3475.838
308.4857, 3470.226
308.9678, 3468.458
309.4500, 3468.440
309.9321, 3471.047
310.4142, 3474.962
310.8963, 3477.844
311.3784, 3478.066
311.8605, 3475.914
312.3427, 3473.633
312.8248, 3470.619
313.3069, 3468.212
313.7890, 3466.756
314.2711, 3466.012
314.7532, 3465.859
315.2354, 3466.295
315.7175, 3466.868
316.1996, 3466.124
316.6817, 3462.514
317.1638, 3460.089
317.6459, 3459.796
318.1281, 3460.479
318.6102, 3461.371
319.0923, 3462.161
319.5744, 3462.581
320.0565, 3461.970
320.5386, 3459.354
321.0208, 3458.000
321.5029, 3458.419
321.9850, 3459.603
322.4671, 3461.976
322.9492, 3464.978
323.4313, 3466.406
323.9135, 3463.154
324.3956, 3453.751
324.8777, 3447.102
325.3598, 3445.055
325.8419, 3444.007
326.3240, 3443.177
326.8062, 3442.232
327.2883, 3440.802
327.7704, 3438.491
328.2525, 3435.376
328.7346, 3432.634
329.2167, 3430.172
329.6989, 3428.293
330.1810, 3427.898
330.6631, 3427.968
331.1452, 3426.894
331.6273, 3423.708
332.1094, 3419.212
332.5916, 3415.826
333.0737, 3413.706
333.5558, 3412.610
334.0379, 3412.986
334.5200, 3413.931
335.0021, 3414.366
335.4843, 3413.976
335.9664, 3413.759
336.4485, 3415.945
336.9306, 3422.374
337.4127, 3425.594
337.8948, 3422.205
338.3770, 3417.578
338.8591, 3414.420
339.3412, 3413.140
339.8233, 3413.012
340.3055, 3413.909
340.7876, 3416.118
341.2697, 3416.337
341.7518, 3412.656
342.2339, 3408.722
342.7160, 3405.076
343.1982, 3402.270
343.6803, 3401.420
344.1624, 3404.034
344.6445, 3409.101
345.1266, 3411.445
345.6087, 3409.981
346.0909, 3407.373
346.5730, 3403.782
347.0551, 3400.031
347.5372, 3397.121
348.0193, 3395.412
348.5014, 3394.789
348.9836, 3395.633
349.4657, 3399.032
349.9478, 3400.209
350.4299, 3396.140
350.9120, 3390.453
351.3941, 3384.990
351.8763, 3380.190
352.3584, 3377.130
352.8405, 3378.071
353.3226, 3383.183
353.8047, 3386.047
354.2868, 3384.952
354.7690, 3382.128
355.2511, 3377.763
355.7332, 3372.594
356.2153, 3369.336
356.6974, 3371.258
357.1795, 3376.759
357.6617, 3379.303
358.1438, 3377.581
358.6259, 3375.433
359.1080, 3375.054
359.5901, 3375.702
360.0722, 3376.301
360.5544, 3376.718
361.0365, 3376.625
361.5186, 3374.987
362.0007, 3371.457
362.4828, 3369.207
362.9649, 3370.449
363.4471, 3373.170
363.9292, 3375.074
364.4113, 3375.796
364.8934, 3376.300
365.3755, 3377.655
365.8576, 3379.571
366.3398, 3380.335
366.8219, 3379.087
367.3040, 3377.253
367.7861, 3375.649
368.2682, 3374.352
368.7503, 3375.199
369.2325, 3381.339
369.7146, 3389.403
370.1967, 3393.092
370.6788, 3391.348
371.1609, 3388.588
371.6430, 3388.393
372.1252, 3389.918
372.6073, 3390.312
373.0894, 3387.300
373.5715, 3384.562
374.0536, 3385.647
374.5357, 3389.956
375.0179, 3393.853
375.5000, 3395.260
375.9821, 3395.439
376.4642, 3397.805
376.9463, 3404.191
377.4284, 3408.337
377.9106, 3405.551
378.3927, 3399.521
378.8748, 3396.800
379.3569, 3399.282
379.8390, 3404.193
380.3211, 3408.673
380.8033, 3413.048
381.2854, 3414.499
381.7675, 3410.534
382.2496, 3405.198
382.7317, 3400.762
383.2138, 3397.735
383.6960, 3397.168
384.1781, 3400.368
384.6602, 3406.933
385.1423, 3411.186
385.6244, 3411.395
386.1065, 3411.648
386.5887, 3414.130
387.0708, 3417.377
387.5529, 3418.666
388.0350, 3416.740
388.5171, 3412.918
388.9992, 3410.148
389.4814, 3410.583
389.9635, 3408.659
390.4456, 3402.091
390.9277, 3394.735
391.4098, 3390.777
391.8919, 3390.165
392.3741, 3388.475
392.8562, 3380.646
393.3383, 3365.450
393.8204, 3353.399
394.3025, 3346.291
394.7846, 3340.222
395.2668, 3334.414
395.7489, 3328.604
396.2310, 3322.527
396.7131, 3315.971
397.1952, 3309.189
397.6773, 3303.111
398.1595, 3298.594
398.6416, 3293.290
399.1237, 3284.848
399.6058, 3276.792
400.0879, 3272.656
400.5700, 3273.030
401.0522, 3274.982
401.5343, 3274.842
402.0164, 3272.126
402.4985, 3270.215
402.9806, 3271.106
403.4627, 3270.956
403.9449, 3266.974
404.4270, 3260.495
404.9091, 3255.042
405.3912, 3252.915
405.8733, 3253.311
406.3554, 3253.953
406.8376, 3255.102
407.3197, 3255.812
407.8018, 3256.130
408.2839, 3255.635
408.7660, 3253.404
409.2481, 3248.890
409.7303, 3244.358
410.2124, 3242.229
410.6945, 3242.380
411.1766, 3242.764
411.6587, 3243.460
412.1408, 3243.606
412.6230, 3242.539
413.1051, 3240.334
413.5872, 3237.321
414.0693, 3232.490
414.5514, 3227.363
415.0335, 3224.727
415.5157, 3224.918
415.9978, 3225.595
416.4799, 3225.652
416.9620, 3224.938
417.4441, 3223.259
417.9262, 3219.969
418.4084, 3216.534
418.8905, 3213.000
419.3726, 3209.937
419.8547, 3209.356
420.3368, 3212.413
420.8189, 3216.644
421.3011, 3217.778
421.7832, 3214.819
422.2653, 3213.245
422.7474, 3216.164
423.2295, 3219.023
423.7116, 3216.847
424.1938, 3209.957
424.6759, 3203.395
425.1580, 3201.250
425.6401, 3203.217
426.1222, 3203.532
426.6043, 3200.492
427.0865, 3198.017
427.5686, 3197.407
428.0507, 3197.813
428.5328, 3197.872
429.0149, 3197.077
429.4970, 3196.182
429.9792, 3196.796
430.4613, 3201.030
430.9434, 3201.980
431.4255, 3197.295
431.9076, 3192.005
432.3897, 3188.746
432.8719, 3187.495
433.3540, 3187.091
433.8361, 3186.911
434.3182, 3186.748
434.8003, 3184.695
435.2824, 3178.046
435.7646, 3173.825
436.2467, 3176.169
436.7288, 3180.388
437.2109, 3181.260
437.6930, 3177.125
438.1751, 3171.039
438.6573, 3166.334
439.1394, 3163.005
439.6215, 3161.363
440.1036, 3163.212
440.5857, 3164.785
441.0678, 3162.547
441.5500, 3157.681
442.0321, 3154.742
442.5142, 3158.069
442.9963, 3163.957
443.4784, 3165.073
443.9605, 3160.788
444.4427, 3156.589
444.9248, 3155.073
445.4069, 3155.458
445.8890, 3156.567
446.3711, 3159.098
446.8532, 3160.294
447.3354, 3157.412
447.8175, 3152.237
448.2996, 3148.694
448.7817, 3147.740
449.2638, 3147.968
449.7459, 3148.087
450.2281, 3148.089
450.7102, 3147.870
451.1923, 3146.747
451.6744, 3145.998
452.1565, 3147.344
452.6386, 3149.855
453.1208, 3150.673
453.6029, 3148.221
454.0850, 3143.437
454.5671, 3138.894
455.0492, 3133.766
455.5313, 3130.115
456.0135, 3128.793
456.4956, 3128.401
456.9777, 3128.055
457.4598, 3127.507
457.9419, 3126.630
458.4240, 3125.184
458.9062, 3123.161
459.3883, 3122.010
459.8704, 3122.614
460.3525, 3123.157
460.8346, 3123.508
461.3167, 3123.481
461.7989, 3122.754
462.2810, 3121.184
462.7631, 3119.300
463.2452, 3117.995
463.7273, 3117.416
464.2094, 3116.464
464.6916, 3114.613
465.1737, 3112.667
465.6558, 3110.876
466.1379, 3109.333
466.6200, 3108.307
467.1021, 3108.540
467.5843, 3109.099
468.0664, 3107.924
468.5485, 3104.791
469.0306, 3101.464
469.5127, 3098.401
469.9948, 3095.850
470.4770, 3094.509
470.9591, 3095.026
471.4412, 3094.479
471.9233, 3090.091
472.4054, 3083.994
472.8875, 3080.262
473.3697, 3079.698
473.8518, 3080.373
474.3339, 3080.795
474.8160, 3080.939
475.2981, 3080.737
475.7802, 3081.184
476.2624, 3080.250
476.7445, 3075.823
477.2266, 3069.524
477.7087, 3064.209
478.1908, 3060.951
478.6729, 3059.558
479.1551, 3059.968
479.6372, 3064.099
480.1193, 3065.335
480.6014, 3061.552
481.0835, 3057.172
481.5656, 3054.412
482.0478, 3053.202
482.5299, 3052.718
483.0120, 3052.572
483.4941, 3052.465
483.9762, 3051.230
484.4583, 3048.583
484.9405, 3045.389
485.4226, 3040.251
485.9047, 3035.742
486.3868, 3034.417
486.8689, 3036.382
487.3510, 3038.990
487.8332, 3040.142
488.3153, 3040.064
488.7974, 3040.056
489.2795, 3040.597
489.7616, 3040.106
490.2437, 3036.170
490.7259, 3030.879
491.2080, 3027.535
491.6901, 3027.448
492.1722, 3027.968
492.6543, 3027.055
493.1364, 3025.222
493.6186, 3024.023
494.1007, 3023.917
494.5828, 3024.212
495.0649, 3024.145
495.5470, 3023.672
496.0291, 3023.268
496.5113, 3023.874
496.9934, 3023.700
497.4755, 3020.899
497.9576, 3016.496
498.4397, 3013.265
498.9218, 3012.645
499.4040, 3013.082
499.8861, 3010.898
500.3682, 3002.790
500.8503, 2998.273
501.3324, 3000.122
501.8145, 3002.728
502.2967, 3003.261
502.7788, 3001.451
503.2609, 2997.594
503.7430, 2991.197
504.2251, 2983.704
504.7072, 2981.326
505.1894, 2986.696
505.6715, 2991.138
506.1536, 2992.804
506.6357, 2992.480
507.1178, 2989.909
507.5999, 2985.277
508.0821, 2980.996
508.5642, 2979.195
509.0463, 2979.127
509.5284, 2978.394
510.0105, 2976.622
510.4926, 2975.378
510.9748, 2976.397
511.4569, 2978.430
511.9390, 2978.535
512.4211, 2975.935
512.9032, 2972.520
513.3853, 2967.960
513.8674, 2963.519
514.3495, 2962.000
514.8317, 2963.991
515.3138, 2966.640
515.7959, 2967.153
516.2780, 2965.411
516.7601, 2962.814
517.2422, 2958.383
517.7244, 2954.313
518.2065, 2951.501
518.6886, 2949.463
519.1707, 2947.392
519.6528, 2945.030
520.1349, 2942.856
520.6171, 2941.744
521.0992, 2942.074
521.5813, 2942.013
522.0634, 2942.400
522.5455, 2941.507
523.0276, 2937.053
523.5098, 2931.112
523.9919, 2927.808
524.4740, 2929.508
524.9561, 2932.954
525.4382, 2933.083
525.9203, 2929.813
526.4025, 2927.429
526.8846, 2927.254
527.3667, 2927.813
527.8488, 2927.927
528.3309, 2927.581
528.8130, 2926.570
529.2952, 2924.278
529.7773, 2921.707
530.2594, 2919.800
530.7415, 2918.450
531.2236, 2917.124
531.7057, 2915.659
532.1879, 2913.875
532.6700, 2911.254
533.1521, 2906.556
533.6342, 2904.005
534.1163, 2905.686
534.5984, 2907.845
535.0806, 2908.280
535.5627, 2907.034
536.0448, 2904.850
536.5269, 2902.107
537.0090, 2899.103
537.4911, 2896.981
537.9733, 2896.806
538.4554, 2895.064
538.9375, 2888.547
539.4196, 2882.706
539.9017, 2881.913
540.3839, 2885.311
540.8660, 2888.054
541.3481, 2886.458
541.8302, 2882.447
542.3123, 2880.819
542.7944, 2882.042
543.2766, 2881.510
543.7587, 2876.133
544.2408, 2869.155
544.7229, 2865.118
545.2050, 2864.153
545.6871, 2864.614
546.1693, 2867.382
546.6514, 2870.427
547.1335, 2871.382
547.6156, 2870.289
548.0977, 2868.646
548.5798, 2867.298
549.0620, 2866.125
549.5441, 2864.765
550.0262, 2862.093
550.5083, 2860.747
550.9904, 2862.132
551.4725, 2863.750
551.9547, 2863.597
552.4368, 2861.788
552.9189, 2859.676
553.4010, 2858.227
553.8831, 2857.316
554.3652, 2856.621
554.8474, 2856.626
555.3295, 2855.670
555.8116, 2851.608
556.2937, 2847.659
556.7758, 2846.396
557.2579, 2847.868
557.7401, 2849.940
558.2222, 2852.176
558.7043, 2853.898
559.1864, 2853.722
559.6685, 2851.605
560.1506, 2848.854
560.6328, 2845.819
561.1149, 2842.803
561.5970, 2840.541
562.0791, 2839.274
562.5612, 2837.781
563.0433, 2835.436
563.5255, 2833.056
564.0076, 2831.446
564.4897, 2830.481
564.9718, 2829.406
565.4539, 2827.728
565.9360, 2825.630
566.4182, 2823.707
566.9003, 2821.790
567.3824, 2820.421
567.8645, 2821.130
568.3466, 2821.118
568.8287, 2817.373
569.3109, 2811.052
569.7930, 2806.714
570.2751, 2808.156
570.7572, 2812.304
571.2393, 2812.312
571.7214, 2807.827
572.2036, 2803.463
572.6857, 2800.302
573.1678, 2798.319
573.6499, 2797.475
574.1320, 2797.724
574.6141, 2798.679
575.0963, 2802.062
575.5784, 2804.640
576.0605, 2802.652
576.5426, 2797.268
577.0247, 2792.521
577.5068, 2790.223
577.9890, 2789.715
578.4711, 2789.839
578.9532, 2790.871
579.4353, 2791.898
579.9174, 2794.177
580.3995, 2795.239
580.8817, 2793.186
581.3638, 2789.160
581.8459, 2785.407
582.3280, 2782.999
582.8101, 2781.144
583.2922, 2777.676
583.7744, 2772.229
584.2565, 2771.027
584.7386, 2777.367
585.2207, 2784.596
585.7029, 2788.789
586.1850, 2790.236
586.6671, 2789.299
587.1492, 2784.581
587.6313, 2779.484
588.1135, 2775.960
588.5956, 2773.976
589.0777, 2773.971
