##NAMES=Carletonite
##RRUFFID=R050255
##IDEAL CHEMISTRY=KNa_4_Ca_4_Si_8_O_18_(CO_3_)_4_(F,OH)&#183;H_2_O
##LOCALITY=Mont Saint-Hilaire, Rouville County, Quebec, Canada
##OWNER=RRUFF
##SOURCE=Marcus Origlieri
##DESCRIPTION=Group of blue prismatic single crystals
##STATUS=The identification of this mineral has been confirmed by X-ray diffraction and chemical analysis
##URL=rruff.info/R050255
##MEASURED CHEMISTRY=(K_0.86_Na_0.14_)_Σ=1_Na_4.00_Ca_4.00_Si_8.00_O_18_(CO_3_)_4_(F_0.51_(OH)_0.49_)_Σ=1_·H_2_O
92.52344, 869.7146
93.00555, 859.4237
93.48767, 858.3225
93.96979, 875.9716
94.45190, 883.7855
94.93402, 873.1684
95.41614, 853.7980
95.89825, 833.0182
96.38037, 814.1085
96.86249, 796.9282
97.34460, 781.1105
97.82672, 767.9584
98.30884, 755.5084
98.79095, 742.6747
99.27307, 728.8056
99.75519, 714.6689
100.2373, 703.2133
100.7194, 695.3327
101.2015, 688.4086
101.6837, 683.1083
102.1658, 678.0618
102.6479, 671.8708
103.1300, 664.0346
103.6121, 655.4191
104.0942, 647.9291
104.5764, 641.9524
105.0585, 634.7121
105.5406, 625.0455
106.0227, 613.2092
106.5048, 600.2576
106.9869, 586.4365
107.4691, 571.3489
107.9512, 554.5238
108.4333, 535.4359
108.9154, 515.8942
109.3975, 497.4531
109.8796, 479.9903
110.3618, 464.0728
110.8439, 450.6400
111.3260, 438.3196
111.8081, 425.9820
112.2902, 413.0971
112.7723, 400.1960
113.2544, 389.0443
113.7366, 380.9753
114.2187, 373.1376
114.7008, 364.6206
115.1829, 355.9843
115.6650, 348.2013
116.1471, 341.9799
116.6293, 337.3261
117.1114, 332.0295
117.5935, 325.0998
118.0756, 318.5729
118.5577, 313.0236
119.0398, 308.5255
119.5220, 304.8932
120.0041, 301.9766
120.4862, 299.8778
120.9683, 298.7414
121.4504, 298.9798
121.9325, 299.9102
122.4147, 301.0835
122.8968, 302.4628
123.3789, 303.7648
123.8610, 304.1373
124.3431, 303.7763
124.8252, 304.5385
125.3074, 307.5734
125.7895, 312.2559
126.2716, 316.7946
126.7537, 320.5913
127.2358, 324.5563
127.7179, 329.3485
128.2001, 334.9199
128.6822, 340.9978
129.1643, 347.4843
129.6464, 354.4706
130.1285, 361.2515
130.6107, 367.3001
131.0928, 373.4512
131.5749, 380.2285
132.0570, 387.6868
132.5391, 395.4292
133.0212, 402.6674
133.5034, 408.7057
133.9855, 415.7168
134.4676, 424.5680
134.9497, 433.8798
135.4318, 442.4809
135.9139, 449.8979
136.3960, 456.5619
136.8782, 463.5843
137.3603, 472.5163
137.8424, 480.0278
138.3245, 484.7594
138.8066, 488.0406
139.2887, 491.8801
139.7709, 497.4209
140.2530, 504.1808
140.7351, 509.8739
141.2172, 513.6314
141.6993, 517.4066
142.1814, 522.0832
142.6636, 527.4979
143.1457, 532.9179
143.6278, 537.8009
144.1099, 542.3444
144.5920, 547.2554
145.0741, 552.9305
145.5563, 558.6807
146.0384, 563.9576
146.5205, 568.7969
147.0026, 572.9212
147.4847, 575.9311
147.9668, 578.1668
148.4490, 579.9139
148.9311, 581.1221
149.4132, 581.9667
149.8953, 583.0857
150.3774, 585.4815
150.8595, 586.3348
151.3417, 584.1458
151.8238, 579.9936
152.3059, 575.6497
152.7880, 572.5360
153.2701, 570.4661
153.7522, 566.4882
154.2344, 559.1031
154.7165, 550.9655
155.1986, 542.8672
155.6807, 534.5622
156.1628, 525.2620
156.6449, 514.1506
157.1271, 500.8513
157.6092, 488.2737
158.0913, 476.7085
158.5734, 465.3795
159.0555, 453.7947
159.5376, 442.0252
160.0198, 430.5825
160.5019, 419.9625
160.9840, 410.1459
161.4661, 401.7116
161.9482, 394.9738
162.4303, 389.3142
162.9125, 384.2977
163.3946, 379.8308
163.8767, 376.3575
164.3588, 373.2326
164.8409, 371.4562
165.3230, 370.1314
165.8052, 369.5636
166.2873, 369.3026
166.7694, 368.5422
167.2515, 366.9026
167.7336, 365.2819
168.2157, 364.8952
168.6979, 365.6152
169.1800, 366.2500
169.6621, 366.0585
170.1442, 365.2590
170.6263, 364.7734
171.1084, 364.7682
171.5906, 365.1747
172.0727, 366.0436
172.5548, 367.3234
173.0369, 368.5042
173.5190, 369.2310
174.0011, 369.5021
174.4833, 369.3514
174.9654, 367.7778
175.4475, 366.5154
175.9296, 366.6801
176.4117, 368.2888
176.8938, 370.3329
177.3760, 371.5840
177.8581, 371.7340
178.3402, 372.0106
178.8223, 372.2740
179.3044, 372.8063
179.7865, 374.0513
180.2687, 375.9903
180.7508, 377.9819
181.2329, 378.9521
181.7150, 378.2137
182.1971, 377.5252
182.6792, 376.3865
183.1614, 375.5629
183.6435, 376.0034
184.1256, 377.9283
184.6077, 380.3675
185.0898, 381.4473
185.5719, 379.9961
186.0541, 378.7022
186.5362, 377.6642
187.0183, 376.7870
187.5004, 376.2149
187.9825, 376.0588
188.4646, 375.7056
188.9468, 373.5511
189.4289, 368.8286
189.9110, 364.3160
190.3931, 360.8784
190.8752, 358.0369
191.3573, 354.8979
191.8395, 351.1372
192.3216, 346.9010
192.8037, 342.4808
193.2858, 337.8760
193.7679, 333.1943
194.2500, 328.4849
194.7322, 323.7531
195.2143, 318.8784
195.6964, 313.6353
196.1785, 308.4687
196.6606, 303.8284
197.1427, 299.6745
197.6249, 296.1262
198.1070, 293.4826
198.5891, 291.7132
199.0712, 289.8714
199.5533, 287.0479
200.0354, 284.5595
200.5176, 283.8017
200.9997, 285.0176
201.4818, 286.6259
201.9639, 286.7002
202.4460, 284.8745
202.9281, 283.8731
203.4103, 284.9016
203.8924, 286.6295
204.3745, 288.3972
204.8566, 290.0652
205.3387, 291.7129
205.8208, 293.3144
206.3030, 294.5597
206.7851, 296.7383
207.2672, 301.3293
207.7493, 305.9572
208.2314, 308.6676
208.7135, 309.0671
209.1957, 308.6027
209.6778, 309.8133
210.1599, 314.1966
210.6420, 317.3574
211.1241, 318.1931
211.6062, 318.4919
212.0884, 319.8002
212.5705, 322.5007
213.0526, 325.6611
213.5347, 327.5937
214.0168, 327.1885
214.4989, 327.0779
214.9811, 327.6989
215.4632, 328.3606
215.9453, 328.3540
216.4274, 327.4749
216.9095, 326.2003
217.3916, 325.4157
217.8737, 325.8996
218.3559, 325.5984
218.8380, 324.1344
219.3201, 322.0127
219.8022, 319.5947
220.2843, 316.9848
220.7664, 314.4841
221.2486, 312.7270
221.7307, 312.1041
222.2128, 311.1154
222.6949, 309.6100
223.1770, 307.6050
223.6591, 304.9314
224.1413, 301.4378
224.6234, 297.7924
225.1055, 295.3212
225.5876, 294.1965
226.0697, 292.6548
226.5518, 289.7584
227.0340, 286.2440
227.5161, 283.5219
227.9982, 282.1464
228.4803, 281.0780
228.9624, 278.8065
229.4445, 275.4228
229.9267, 272.1863
230.4088, 269.8990
230.8909, 268.1139
231.3730, 265.6921
231.8551, 262.1514
232.3372, 258.4747
232.8194, 255.5126
233.3015, 253.2033
233.7836, 251.2667
234.2657, 249.8263
234.7478, 248.6910
235.2299, 247.1602
235.7121, 244.9133
236.1942, 242.6134
236.6763, 240.6601
237.1584, 239.0379
237.6405, 237.6819
238.1227, 236.6444
238.6048, 235.8731
239.0869, 235.0826
239.5690, 234.2700
240.0511, 233.4168
240.5332, 232.4995
241.0154, 231.5359
241.4975, 230.5932
241.9796, 229.7549
242.4617, 228.9885
242.9438, 228.0419
243.4259, 226.5520
243.9081, 225.3557
244.3902, 225.0436
244.8723, 225.2399
245.3544, 225.1849
245.8365, 224.2457
246.3186, 222.5945
246.8008, 221.6273
247.2829, 222.1892
247.7650, 222.4550
248.2471, 221.5062
248.7292, 219.9610
249.2113, 218.8970
249.6935, 219.0926
250.1756, 220.3048
250.6577, 220.8387
251.1398, 219.8768
251.6219, 219.1502
252.1040, 219.1581
252.5862, 219.5934
253.0683, 219.8857
253.5504, 219.6388
254.0325, 219.1372
254.5146, 219.8617
254.9967, 223.9383
255.4789, 226.8346
255.9610, 227.3273
256.4431, 226.4628
256.9252, 225.5261
257.4073, 225.1706
257.8894, 225.2858
258.3716, 225.4591
258.8537, 225.9698
259.3358, 226.2030
259.8179, 225.5769
260.3000, 224.8289
260.7821, 225.0762
261.2643, 226.8273
261.7464, 229.2744
262.2285, 230.3025
262.7106, 227.5355
263.1927, 226.1238
263.6748, 227.3130
264.1570, 229.4923
264.6391, 230.7971
265.1212, 230.5720
265.6033, 229.6405
266.0854, 229.6535
266.5675, 231.2959
267.0497, 232.9072
267.5318, 234.7134
268.0139, 236.3483
268.4960, 237.3015
268.9781, 237.4428
269.4602, 237.3002
269.9424, 237.6860
270.4245, 238.9353
270.9066, 239.9435
271.3887, 240.2260
271.8708, 240.5117
272.3529, 241.7258
272.8351, 244.0013
273.3172, 246.3400
273.7993, 247.5443
274.2814, 247.2761
274.7635, 247.0622
275.2456, 246.5739
275.7278, 246.3725
276.2099, 247.2966
276.6920, 249.3465
277.1741, 251.2110
277.6562, 251.6256
278.1383, 250.3902
278.6205, 249.1629
279.1026, 247.9889
279.5847, 246.7785
280.0668, 245.5106
280.5489, 244.1648
281.0310, 242.6229
281.5132, 240.7163
281.9953, 238.4966
282.4774, 236.5516
282.9595, 235.8075
283.4416, 234.5571
283.9237, 231.3692
284.4059, 226.5065
284.8880, 221.5116
285.3701, 217.1915
285.8522, 213.5009
286.3343, 210.0788
286.8164, 207.1475
287.2986, 204.1950
287.7807, 200.6856
288.2628, 196.8260
288.7449, 193.5595
289.2270, 191.4646
289.7091, 190.0299
290.1913, 188.0726
290.6734, 185.4145
291.1555, 182.7876
291.6376, 180.5727
292.1197, 178.6782
292.6018, 176.7731
293.0840, 174.6851
293.5661, 172.7032
294.0482, 171.3027
294.5303, 170.5069
295.0124, 169.7857
295.4945, 168.9067
295.9767, 167.9626
296.4588, 167.2273
296.9409, 166.8648
297.4230, 166.4311
297.9051, 165.3302
298.3872, 163.6651
298.8694, 161.9235
299.3515, 160.2152
299.8336, 158.5407
300.3157, 156.8534
300.7978, 155.1081
301.2799, 153.4945
301.7621, 152.4368
302.2442, 151.6796
302.7263, 150.4142
303.2084, 148.1187
303.6905, 145.4001
304.1726, 142.8945
304.6548, 140.6209
305.1369, 138.5458
305.6190, 136.6601
306.1011, 134.9617
306.5832, 133.4519
307.0653, 132.1374
307.5475, 131.0054
308.0296, 130.0162
308.5117, 129.1755
308.9938, 128.6075
309.4759, 128.4983
309.9580, 128.6334
310.4402, 128.6752
310.9223, 128.6297
311.4044, 128.4419
311.8865, 127.9302
312.3686, 127.1829
312.8507, 126.7290
313.3329, 126.9376
313.8150, 127.2324
314.2971, 126.8480
314.7792, 125.7590
315.2613, 124.6927
315.7434, 124.0991
316.2256, 123.8080
316.7077, 123.3126
317.1898, 122.4266
317.6719, 121.5333
318.1540, 121.0629
318.6361, 120.9214
319.1183, 120.7244
319.6004, 120.1986
320.0825, 119.5744
320.5646, 119.3315
321.0467, 119.6039
321.5288, 119.7643
322.0110, 119.2295
322.4931, 118.2446
322.9752, 117.2891
323.4573, 116.3706
323.9394, 115.6041
324.4215, 115.2391
324.9037, 115.2898
325.3858, 115.1812
325.8679, 114.4810
326.3500, 113.4988
326.8321, 112.7867
327.3142, 112.4524
327.7964, 112.2314
328.2785, 112.0130
328.7606, 111.7742
329.2427, 111.3756
329.7248, 110.7890
330.2069, 109.9853
330.6891, 108.8360
331.1712, 107.2767
331.6533, 105.9765
332.1354, 105.3882
332.6175, 105.2969
333.0996, 105.1452
333.5818, 104.7627
334.0639, 104.4687
334.5460, 104.7510
335.0281, 105.4842
335.5102, 106.0570
335.9923, 106.1916
336.4745, 106.1104
336.9566, 106.1368
337.4387, 106.3093
337.9208, 106.4233
338.4029, 106.2373
338.8850, 105.8738
339.3671, 105.7214
339.8492, 105.9648
340.3314, 106.3147
340.8135, 106.4765
341.2956, 106.4874
341.7777, 106.7204
342.2598, 107.5430
342.7419, 108.5584
343.2241, 108.8835
343.7062, 108.2774
344.1883, 107.5758
344.6704, 106.9863
345.1525, 106.6072
345.6346, 106.7931
346.1168, 107.7865
346.5989, 109.0576
347.0810, 109.8185
347.5631, 110.0986
348.0452, 110.1563
348.5273, 109.8685
349.0095, 109.4735
349.4916, 109.2637
349.9737, 109.2844
350.4558, 109.4814
350.9379, 109.8478
351.4200, 110.3819
351.9022, 110.8926
352.3843, 111.4300
352.8664, 111.8932
353.3485, 112.1901
353.8306, 112.3332
354.3127, 112.4371
354.7949, 112.6342
355.2770, 112.8035
355.7591, 112.4622
356.2412, 110.9990
356.7233, 109.8685
357.2054, 109.9461
357.6876, 110.6827
358.1697, 110.9650
358.6518, 110.3380
359.1339, 109.2915
359.6160, 108.7880
360.0981, 109.1794
360.5803, 109.0836
361.0624, 107.7245
361.5445, 106.1395
362.0266, 105.4485
362.5087, 105.8028
362.9908, 106.5324
363.4730, 107.0070
363.9551, 107.2006
364.4372, 107.1828
364.9193, 106.6565
365.4014, 106.2088
365.8835, 106.1757
366.3657, 106.4988
366.8478, 106.9533
367.3299, 107.4040
367.8120, 107.8568
368.2941, 108.3553
368.7762, 108.3722
369.2584, 109.0618
369.7405, 111.4045
370.2226, 114.2632
370.7047, 116.0827
371.1868, 116.3197
371.6689, 115.7543
372.1511, 115.7630
372.6332, 116.6459
373.1153, 117.5716
373.5974, 118.4800
374.0795, 119.4770
374.5616, 120.7271
375.0438, 122.1812
375.5259, 123.5993
376.0080, 124.7295
376.4901, 125.5494
376.9722, 126.4394
377.4543, 127.3106
377.9365, 128.3406
378.4186, 129.8295
378.9007, 131.4802
379.3828, 132.7190
379.8649, 133.1978
380.3470, 133.2290
380.8292, 133.8479
381.3113, 135.5566
381.7934, 137.0823
382.2755, 138.5227
382.7576, 139.6133
383.2397, 140.0254
383.7219, 139.7325
384.2040, 139.1028
384.6861, 138.7357
385.1682, 138.8897
385.6503, 138.2041
386.1324, 135.8648
386.6146, 133.3653
387.0967, 131.1647
387.5788, 129.3081
388.0609, 127.7632
388.5430, 126.6657
389.0251, 125.8300
389.5073, 124.2905
389.9894, 121.6252
390.4715, 118.9679
390.9536, 116.7656
391.4357, 114.7294
391.9178, 112.4405
392.4000, 109.7188
392.8821, 107.0485
393.3642, 105.2506
393.8463, 104.4678
394.3284, 103.3466
394.8105, 101.1631
395.2927, 98.91635
395.7748, 97.42102
396.2569, 96.63200
396.7390, 95.77099
397.2211, 94.05452
397.7032, 91.81673
398.1854, 90.30870
398.6675, 89.73000
399.1496, 89.54308
399.6317, 89.82130
400.1138, 90.19039
400.5959, 89.88057
401.0781, 88.18798
401.5602, 86.31687
402.0423, 85.65837
402.5244, 86.15957
403.0065, 86.79290
403.4886, 87.34155
403.9708, 87.63271
404.4529, 87.42034
404.9350, 86.64920
405.4171, 85.73222
405.8992, 84.64818
406.3813, 83.59062
406.8635, 82.95269
407.3456, 82.83581
407.8277, 82.92891
408.3098, 83.04019
408.7919, 83.14526
409.2740, 82.93058
409.7562, 81.82687
410.2383, 80.85987
410.7204, 81.00611
411.2025, 81.99512
411.6846, 82.62329
412.1667, 82.18651
412.6489, 81.04198
413.1310, 80.33028
413.6131, 80.16856
414.0952, 80.16604
414.5773, 80.16927
415.0594, 80.33859
415.5416, 81.03306
416.0237, 82.28086
416.5058, 83.47996
416.9879, 83.86110
417.4700, 83.17263
417.9521, 82.92990
418.4343, 83.46522
418.9164, 84.04330
419.3985, 84.02772
419.8806, 83.78893
420.3627, 84.31506
420.8448, 86.27500
421.3270, 89.14133
421.8091, 90.86299
422.2912, 90.34579
422.7733, 90.21610
423.2554, 90.71135
423.7375, 91.64099
424.2197, 93.02239
424.7018, 94.76545
425.1839, 96.45036
425.6660, 97.56810
426.1481, 98.05522
426.6302, 98.42374
427.1124, 98.24947
427.5945, 98.39806
428.0766, 99.44746
428.5587, 101.0130
429.0408, 102.3480
429.5229, 102.9945
430.0051, 103.2616
430.4872, 103.9056
430.9693, 105.0838
431.4514, 106.0976
431.9335, 106.3635
432.4156, 106.6064
432.8978, 107.5213
433.3799, 109.1885
433.8620, 110.7976
434.3441, 111.5190
434.8262, 111.5926
435.3083, 112.1673
435.7905, 113.5897
436.2726, 115.0117
436.7547, 115.6749
437.2368, 115.8557
437.7189, 116.1599
438.2010, 116.9797
438.6832, 117.7665
439.1653, 118.0712
439.6474, 117.8992
440.1295, 117.2203
440.6116, 115.8660
441.0938, 114.1814
441.5759, 112.8588
442.0580, 111.9836
442.5401, 111.0028
443.0222, 109.5934
443.5043, 108.0888
443.9865, 106.8562
444.4686, 105.9534
444.9507, 105.2564
445.4328, 104.6422
445.9149, 104.1220
446.3970, 103.9849
446.8792, 104.0650
447.3613, 104.6399
447.8434, 106.1255
448.3255, 108.0981
448.8076, 109.9210
449.2897, 111.3478
449.7719, 112.4680
450.2540, 113.4302
450.7361, 114.1207
451.2182, 114.9067
451.7003, 115.6094
452.1824, 116.5439
452.6646, 117.9305
453.1467, 119.7261
453.6288, 121.7451
454.1109, 123.8769
454.5930, 126.0997
455.0751, 128.3547
455.5573, 130.7542
456.0394, 132.9895
456.5215, 134.8065
457.0036, 136.5571
457.4857, 138.4877
457.9678, 140.6685
458.4500, 143.2654
458.9321, 146.7955
459.4142, 151.2335
459.8963, 154.7818
460.3784, 156.9716
460.8605, 158.6746
461.3427, 160.3094
461.8248, 161.9214
462.3069, 163.6923
462.7890, 166.1217
463.2711, 168.2773
463.7532, 168.8920
464.2354, 168.0018
464.7175, 166.5127
465.1996, 164.6168
465.6817, 162.4065
466.1638, 160.1043
466.6459, 157.7707
467.1281, 154.9733
467.6102, 150.9161
468.0923, 146.6405
468.5744, 143.5342
469.0565, 141.6968
469.5386, 140.4306
470.0208, 139.2839
470.5029, 138.2544
470.9850, 137.3401
471.4671, 136.1286
471.9492, 135.4900
472.4313, 135.5845
472.9135, 136.4194
473.3956, 138.0913
473.8777, 140.5981
474.3598, 143.6389
474.8419, 146.6933
475.3240, 149.3970
475.8062, 153.7260
476.2883, 160.9023
476.7704, 168.2579
477.2525, 174.6014
477.7346, 180.3479
478.2167, 186.5610
478.6989, 193.9202
479.1810, 201.5702
479.6631, 207.5445
480.1452, 211.2434
480.6273, 214.7903
481.1094, 218.3733
481.5916, 221.9833
482.0737, 225.3154
482.5558, 228.5464
483.0379, 232.5149
483.5200, 237.9906
484.0021, 244.6574
484.4843, 251.4067
484.9664, 258.0350
485.4485, 265.6061
485.9306, 275.3086
486.4127, 286.0146
486.8948, 296.2194
487.3770, 305.7575
487.8591, 315.0137
488.3412, 323.9015
488.8233, 332.6970
489.3054, 341.9174
489.7875, 351.5674
490.2697, 361.9712
490.7518, 373.8844
491.2339, 387.1502
491.7160, 398.4973
492.1981, 408.9396
492.6802, 416.3810
493.1624, 420.3338
493.6445, 420.3994
494.1266, 415.8454
494.6087, 406.3603
495.0908, 392.3934
495.5729, 374.3905
496.0551, 351.4318
496.5372, 326.6633
497.0193, 297.6816
497.5014, 269.4884
497.9835, 243.8919
498.4656, 221.1054
498.9478, 200.8287
499.4299, 182.9108
499.9120, 167.2568
500.3941, 153.8857
500.8762, 143.1301
501.3583, 133.6108
501.8405, 125.1627
502.3226, 117.8267
502.8047, 111.9260
503.2868, 107.3157
503.7689, 103.4418
504.2510, 99.99668
504.7331, 96.96119
505.2152, 94.35249
505.6974, 92.25841
506.1795, 90.12605
506.6616, 87.35873
507.1437, 84.57926
507.6258, 82.90183
508.1079, 82.73675
508.5901, 82.37785
509.0722, 80.43709
509.5543, 77.89138
510.0364, 76.51523
510.5185, 76.59863
511.0006, 77.05859
511.4828, 77.03947
511.9649, 76.55334
512.4470, 75.98654
512.9291, 75.08907
513.4113, 74.41007
513.8934, 74.42976
514.3755, 74.65209
514.8576, 74.26939
515.3397, 73.09886
515.8218, 71.84275
516.3040, 71.44384
516.7861, 72.08961
517.2682, 72.48668
517.7503, 72.31697
518.2324, 72.23003
518.7145, 72.58248
519.1967, 73.09023
519.6788, 73.18295
520.1609, 72.58415
520.6430, 71.99348
521.1251, 72.61330
521.6072, 74.55948
522.0894, 76.15231
522.5715, 76.90754
523.0536, 77.58237
523.5357, 78.74068
524.0178, 80.25551
524.4999, 81.71972
524.9821, 82.58986
525.4642, 83.71904
525.9463, 86.32861
526.4284, 90.14533
526.9105, 93.62706
527.3926, 96.09600
527.8748, 98.20090
528.3569, 100.9770
528.8390, 104.5399
529.3211, 107.9833
529.8032, 110.9788
530.2853, 114.0225
530.7675, 117.6159
531.2496, 121.5599
531.7317, 125.2077
532.2138, 128.2103
532.6959, 130.8064
533.1780, 133.5763
533.6602, 136.3592
534.1423, 139.6571
534.6244, 143.8563
535.1065, 148.1872
535.5886, 152.2238
536.0707, 155.9696
536.5529, 159.5309
537.0350, 162.8248
537.5171, 166.1583
537.9992, 170.4862
538.4813, 176.1666
538.9634, 181.2983
539.4456, 184.6288
539.9277, 187.7449
540.4098, 192.1430
540.8919, 197.7961
541.3740, 203.2446
541.8561, 207.8701
542.3383, 211.8479
542.8204, 215.5557
543.3025, 218.9637
543.7846, 221.3922
544.2667, 222.5614
544.7488, 222.4621
545.2310, 220.9441
545.7131, 218.0641
546.1952, 213.9468
546.6773, 208.2892
547.1594, 201.6621
547.6415, 194.2966
548.1237, 186.3759
548.6058, 178.0082
549.0879, 169.2251
549.5700, 160.2924
550.0521, 152.4346
550.5342, 146.4469
551.0164, 140.2243
551.4985, 132.9058
551.9806, 125.8625
552.4627, 120.0734
552.9448, 115.5182
553.4269, 111.3981
553.9091, 107.1540
554.3912, 102.9235
554.8733, 99.04476
555.3554, 95.47012
555.8375, 92.44359
556.3196, 90.31957
556.8018, 88.61939
557.2839, 86.60547
557.7660, 84.20615
558.2481, 82.19015
558.7302, 81.05811
559.2123, 80.35159
559.6945, 79.69439
560.1766, 79.00736
560.6587, 78.01705
561.1408, 76.49160
561.6229, 74.68449
562.1050, 73.30149
562.5872, 72.56819
563.0693, 71.94937
563.5514, 71.78855
564.0335, 71.46316
564.5156, 70.25478
564.9977, 68.43852
565.4799, 66.96502
565.9620, 66.51286
566.4441, 66.77133
566.9262, 66.78048
567.4083, 66.40962
567.8904, 66.17670
568.3726, 66.40111
568.8547, 66.62739
569.3368, 66.60449
569.8189, 66.32182
570.3010, 65.83656
570.7831, 64.99173
571.2653, 64.06847
571.7474, 63.48043
572.2295, 63.20940
572.7116, 62.99890
573.1937, 62.74738
573.6758, 62.51773
574.1580, 62.44464
574.6401, 62.57594
575.1222, 62.58872
575.6043, 62.38470
576.0864, 62.11431
576.5685, 61.81213
577.0507, 61.52779
577.5328, 61.38537
578.0149, 61.44866
578.4970, 61.57867
578.9791, 61.45012
579.4612, 60.83630
579.9434, 60.60314
580.4255, 61.40541
580.9076, 61.95841
581.3897, 61.61211
581.8718, 60.65271
582.3539, 59.63740
582.8361, 58.72755
583.3182, 58.06530
583.8003, 57.83739
584.2824, 58.02894
584.7645, 58.62215
585.2466, 59.90197
585.7288, 60.90056
586.2108, 60.45033
586.6929, 58.84952
