##NAMES=Carminite
##RRUFFID=R061061
##IDEAL CHEMISTRY=Pb^2+^Fe^3+^_2_(As^5+^O_4_)_2_(OH)_2_
##LOCALITY=San Nicolas mine, Badajoz Province, Spain
##OWNER=RRUFF
##SOURCE=Bob Jenkins
##DESCRIPTION=Red prismatic
##STATUS=The identification of this mineral is confirmed by single-crystal X-ray diffraction and chemical analysis.
##URL=rruff.info/R061061
##MEASURED CHEMISTRY=Pb_1.00_(Fe^3+^_1.98_[box]_0.02_)_Σ=2_((As_0.97_S_0.03_)_Σ=1_O_4_)_2_(OH)_2_; (lighter phase) : (Pb_0.98_Cu_0.02_)_Σ=1_(Fe^3+^_1.99_[box]_0.01_)_Σ=2_((As_0.99_S_0.01_)_Σ=1_O_4_)_2_(OH)_2_ (darker phase); OH estimated by difference and charge balance
138.8843, 4337.572
139.3664, 4435.229
139.8486, 4586.222
140.3307, 4780.200
140.8128, 5000.393
141.2949, 5254.041
141.7770, 5529.375
142.2591, 5832.128
142.7413, 6152.781
143.2234, 6488.874
143.7055, 6839.147
144.1876, 7191.373
144.6697, 7524.101
145.1518, 7827.101
145.6340, 8130.991
146.1161, 8435.835
146.5982, 8633.936
147.0803, 8709.329
147.5624, 8771.306
148.0445, 8811.659
148.5267, 8802.444
149.0088, 8726.968
149.4909, 8661.708
149.9730, 8636.677
150.4551, 8631.394
150.9372, 8607.840
151.4194, 8550.364
151.9015, 8468.132
152.3836, 8376.261
152.8657, 8260.565
153.3478, 8158.432
153.8299, 8095.473
154.3121, 8056.180
154.7942, 7997.744
155.2763, 7894.568
155.7584, 7769.756
156.2405, 7676.224
156.7226, 7623.044
157.2048, 7574.452
157.6869, 7508.165
158.1690, 7429.352
158.6511, 7360.440
159.1332, 7315.564
159.6153, 7282.806
160.0975, 7236.286
160.5796, 7165.738
161.0617, 7102.692
161.5438, 7070.158
162.0259, 7065.276
162.5080, 7067.492
162.9902, 7076.524
163.4723, 7083.538
163.9544, 7075.160
164.4365, 7048.721
164.9186, 7014.536
165.4007, 6980.027
165.8829, 6945.543
166.3650, 6909.257
166.8471, 6870.621
167.3292, 6830.556
167.8113, 6788.973
168.2934, 6743.162
168.7756, 6701.376
169.2577, 6671.760
169.7398, 6654.280
170.2219, 6641.441
170.7040, 6627.292
171.1861, 6617.752
171.6683, 6622.238
172.1504, 6648.664
172.6325, 6676.376
173.1146, 6682.023
173.5967, 6663.541
174.0788, 6643.538
174.5610, 6629.153
175.0431, 6618.397
175.5252, 6611.345
176.0073, 6611.792
176.4894, 6607.480
176.9715, 6580.937
177.4537, 6528.819
177.9358, 6477.430
178.4179, 6449.200
178.9000, 6421.894
179.3821, 6368.130
179.8642, 6271.671
180.3464, 6169.088
180.8285, 6110.126
181.3106, 6102.548
181.7927, 6093.402
182.2748, 6057.922
182.7569, 6012.310
183.2391, 5969.002
183.7212, 5930.315
184.2033, 5897.479
184.6854, 5869.653
185.1675, 5844.676
185.6496, 5835.800
186.1318, 5857.900
186.6139, 5894.705
187.0960, 5935.704
187.5781, 5979.727
188.0602, 6022.739
188.5423, 6059.983
189.0245, 6090.616
189.5066, 6118.418
189.9887, 6084.258
190.4708, 6181.007
190.9529, 6265.747
191.4350, 6339.121
191.9172, 6367.108
192.3993, 6453.708
192.8814, 6516.810
193.3635, 6578.950
193.8456, 6673.801
194.3277, 6708.375
194.8099, 6802.723
195.2920, 6873.201
195.7741, 6954.594
196.2562, 7012.349
196.7383, 7055.419
197.2204, 7112.420
197.7026, 7181.556
198.1847, 7254.685
198.6668, 7328.531
199.1489, 7403.576
199.6310, 7473.526
200.1131, 7529.439
200.5953, 7568.701
201.0774, 7607.919
201.5595, 7648.457
202.0416, 7692.369
202.5237, 7742.985
203.0058, 7801.697
203.4880, 7860.107
203.9701, 7909.551
204.4522, 7949.874
204.9343, 7982.238
205.4164, 7988.166
205.8985, 7997.542
206.3807, 8037.529
206.8628, 8113.373
207.3449, 8191.363
207.8270, 8229.794
208.3091, 8223.549
208.7912, 8230.802
209.2734, 8275.662
209.7555, 8329.726
210.2376, 8376.709
210.7197, 8414.521
211.2018, 8443.937
211.6839, 8468.543
212.1660, 8488.987
212.6482, 8487.379
213.1303, 8387.533
213.6124, 8346.679
214.0945, 8293.813
214.5766, 8229.583
215.0587, 8119.950
215.5409, 8068.932
216.0230, 7994.432
216.5051, 7918.967
216.9872, 7876.214
217.4693, 7773.184
217.9514, 7729.911
218.4336, 7648.044
218.9157, 7580.771
219.3978, 7493.950
219.8799, 7391.668
220.3620, 7314.465
220.8441, 7282.150
221.3263, 7257.492
221.8084, 7218.142
222.2905, 7164.700
222.7726, 7102.935
223.2547, 7029.996
223.7368, 6949.267
224.2190, 6878.813
224.7011, 6822.673
225.1832, 6772.630
225.6653, 6721.687
226.1474, 6670.983
226.6295, 6624.425
227.1117, 6584.483
227.5938, 6550.397
228.0759, 6519.623
228.5580, 6491.828
229.0401, 6468.219
229.5222, 6449.441
230.0044, 6434.910
230.4865, 6424.265
230.9686, 6412.619
231.4507, 6405.635
231.9328, 6417.666
232.4149, 6454.132
232.8971, 6493.975
233.3792, 6521.271
233.8613, 6543.185
234.3434, 6572.217
234.8255, 6611.834
235.3076, 6660.820
235.7898, 6722.987
236.2719, 6802.198
236.7540, 6872.755
237.2361, 6909.211
237.7182, 6930.305
238.2003, 6966.924
238.6825, 7032.207
239.1646, 7107.250
239.6467, 7171.120
240.1288, 7223.818
240.6109, 7280.964
241.0930, 7359.017
241.5752, 7442.192
242.0573, 7503.245
242.5394, 7533.849
243.0215, 7553.030
243.5036, 7569.833
243.9857, 7585.404
244.4679, 7610.043
244.9500, 7653.972
245.4321, 7704.103
245.9142, 7738.078
246.3963, 7754.435
246.8784, 7758.973
247.3606, 7746.439
247.8427, 7723.176
248.3248, 7709.751
248.8069, 7715.484
249.2890, 7729.803
249.7711, 7734.188
250.2533, 7725.671
250.7354, 7721.990
251.2175, 7733.514
251.6996, 7753.245
252.1817, 7768.505
252.6638, 7775.609
253.1460, 7779.376
253.6281, 7787.655
254.1102, 7801.966
254.5923, 7809.014
255.0744, 7805.781
255.5565, 7794.407
256.0387, 7776.586
256.5208, 7752.729
257.0029, 7724.656
257.4850, 7694.931
257.9671, 7663.980
258.4492, 7624.688
258.9314, 7574.231
259.4135, 7517.542
259.8956, 7458.154
260.3777, 7396.191
260.8598, 7329.857
261.3419, 7255.480
261.8241, 7173.226
262.3062, 7097.543
262.7883, 7044.155
263.2704, 6982.683
263.7525, 6892.598
264.2346, 6780.130
264.7168, 6664.407
265.1989, 6556.665
265.6810, 6456.583
266.1631, 6366.609
266.6452, 6295.654
267.1273, 6222.366
267.6095, 6138.916
268.0916, 6049.664
268.5737, 5960.530
269.0558, 5874.105
269.5379, 5791.955
270.0201, 5721.088
270.5022, 5677.560
270.9843, 5626.275
271.4664, 5557.973
271.9485, 5484.540
272.4306, 5417.507
272.9128, 5361.180
273.3949, 5312.750
273.8770, 5268.549
274.3591, 5233.260
274.8412, 5193.325
275.3233, 5141.438
275.8055, 5090.588
276.2876, 5050.363
276.7697, 5021.677
277.2518, 4998.922
277.7339, 4975.927
278.2160, 4953.022
278.6982, 4928.931
279.1803, 4908.915
279.6624, 4883.254
280.1445, 4844.310
280.6266, 4795.134
281.1087, 4745.177
281.5909, 4701.097
282.0730, 4662.891
282.5551, 4631.548
283.0372, 4613.146
283.5193, 4594.465
284.0014, 4570.505
284.4836, 4543.459
284.9657, 4517.583
285.4478, 4496.130
285.9299, 4476.632
286.4120, 4451.086
286.8941, 4414.155
287.3763, 4383.321
287.8584, 4365.106
288.3405, 4355.330
288.8226, 4352.295
289.3047, 4357.668
289.7868, 4362.066
290.2690, 4347.656
290.7511, 4310.780
291.2332, 4288.164
291.7153, 4309.703
292.1974, 4337.368
292.6795, 4333.642
293.1617, 4292.438
293.6438, 4245.179
294.1259, 4212.712
294.6080, 4193.872
295.0901, 4183.441
295.5722, 4185.185
296.0544, 4187.858
296.5365, 4177.876
297.0186, 4156.354
297.5007, 4138.079
297.9828, 4130.664
298.4649, 4129.524
298.9471, 4129.200
299.4292, 4130.042
299.9113, 4125.254
300.3934, 4104.867
300.8755, 4071.682
301.3576, 4046.878
301.8398, 4034.086
302.3219, 4029.508
302.8040, 4035.499
303.2861, 4049.654
303.7682, 4056.663
304.2503, 4043.814
304.7325, 4017.332
305.2146, 4009.472
305.6967, 4037.056
306.1788, 4061.525
306.6609, 4061.337
307.1430, 4035.418
307.6252, 4073.948
308.1073, 4100.466
308.5894, 4115.619
309.0715, 4085.370
309.5536, 4113.749
310.0357, 4118.633
310.5179, 4122.556
311.0000, 4159.187
311.4821, 4135.541
311.9642, 4164.789
312.4463, 4182.485
312.9284, 4197.040
313.4106, 4207.233
313.8927, 4218.414
314.3748, 4239.829
314.8569, 4253.767
315.3390, 4247.735
315.8211, 4225.751
316.3033, 4201.476
316.7854, 4185.685
317.2675, 4177.297
317.7496, 4163.167
318.2317, 4145.895
318.7138, 4118.390
319.1960, 4072.758
319.6781, 4018.430
320.1602, 3966.518
320.6423, 3921.356
321.1244, 3883.898
321.6065, 3857.499
322.0887, 3844.950
322.5708, 3834.991
323.0529, 3830.717
323.5350, 3824.449
324.0171, 3805.454
324.4992, 3771.770
324.9814, 3744.356
325.4635, 3749.776
325.9456, 3784.670
326.4277, 3804.652
326.9098, 3795.927
327.3919, 3780.019
327.8741, 3772.670
328.3562, 3773.334
328.8383, 3779.771
329.3204, 3793.052
329.8025, 3810.866
330.2846, 3830.405
330.7668, 3851.780
331.2489, 3871.766
331.7310, 3886.365
332.2131, 3897.491
332.6952, 3912.760
333.1773, 3930.910
333.6595, 3954.863
334.1415, 3986.010
334.6237, 4024.362
335.1058, 4072.281
335.5879, 4134.289
336.0700, 4200.650
336.5521, 4242.435
337.0342, 4234.402
337.5164, 4249.548
337.9985, 4308.257
338.4806, 4392.696
338.9627, 4489.815
339.4448, 4594.582
339.9269, 4695.663
340.4091, 4776.455
340.8912, 4825.297
341.3733, 4896.906
341.8554, 4997.195
342.3375, 5110.739
342.8196, 5233.709
343.3018, 5363.160
343.7839, 5496.999
344.2660, 5634.813
344.7481, 5775.013
345.2302, 5903.796
345.7123, 5996.298
346.1945, 6110.180
346.6766, 6274.865
347.1587, 6458.806
347.6408, 6628.267
348.1229, 6771.609
348.6050, 6894.063
349.0872, 7002.973
349.5693, 7098.194
350.0514, 7183.465
350.5335, 7269.688
351.0156, 7336.880
351.4977, 7372.986
351.9799, 7377.483
352.4620, 7354.801
352.9441, 7300.271
353.4262, 7219.993
353.9083, 7136.799
354.3904, 7053.550
354.8726, 6963.585
355.3547, 6857.086
355.8368, 6740.114
356.3189, 6627.115
356.8010, 6518.043
357.2831, 6416.092
357.7653, 6321.375
358.2474, 6235.014
358.7295, 6165.014
359.2116, 6117.704
359.6937, 6086.414
360.1758, 6052.531
360.6580, 6008.766
361.1401, 5976.596
361.6222, 5971.359
362.1043, 5976.988
362.5864, 5970.111
363.0685, 5945.699
363.5507, 5920.472
364.0328, 5914.887
364.5149, 5933.476
364.9970, 5953.952
365.4791, 5977.082
365.9612, 6001.267
366.4434, 6027.932
366.9255, 6055.142
367.4076, 6078.011
367.8897, 6093.045
368.3718, 6102.104
368.8539, 6114.671
369.3361, 6139.746
369.8182, 6153.870
370.3003, 6142.841
370.7824, 6125.914
371.2645, 6122.928
371.7466, 6139.272
372.2288, 6160.965
372.7109, 6172.427
373.1930, 6173.476
373.6751, 6167.079
374.1572, 6144.846
374.6393, 6125.031
375.1215, 6121.765
375.6036, 6131.586
376.0857, 6140.121
376.5678, 6140.102
377.0499, 6134.351
377.5320, 6128.297
378.0142, 6122.317
378.4963, 6112.673
378.9784, 6098.505
379.4605, 6078.044
379.9426, 6048.379
380.4247, 6000.423
380.9069, 5956.970
381.3890, 5933.390
381.8711, 5921.231
382.3532, 5903.230
382.8353, 5873.903
383.3174, 5838.580
383.7996, 5805.731
384.2817, 5780.425
384.7638, 5739.626
385.2459, 5664.381
385.7280, 5589.711
386.2101, 5545.974
386.6923, 5525.032
387.1744, 5493.565
387.6565, 5425.402
388.1386, 5327.420
388.6207, 5248.942
389.1028, 5214.626
389.5850, 5167.627
390.0671, 5082.603
390.5492, 4989.799
391.0313, 4923.884
391.5134, 4894.770
391.9955, 4875.071
392.4777, 4826.481
392.9598, 4745.356
393.4419, 4678.470
393.9240, 4642.725
394.4061, 4608.658
394.8882, 4554.437
395.3704, 4485.720
395.8525, 4423.577
396.3346, 4378.955
396.8167, 4346.368
397.2988, 4320.941
397.7809, 4303.213
398.2631, 4280.977
398.7452, 4244.695
399.2273, 4201.618
399.7094, 4168.874
400.1915, 4149.659
400.6736, 4134.076
401.1558, 4117.414
401.6379, 4102.129
402.1200, 4095.149
402.6021, 4097.856
403.0842, 4098.252
403.5663, 4080.609
404.0485, 4038.693
404.5306, 4010.856
405.0127, 4006.642
405.4948, 4004.743
405.9769, 4000.028
406.4590, 3989.802
406.9412, 3968.054
407.4233, 3930.291
407.9054, 3885.468
408.3875, 3860.692
408.8696, 3863.480
409.3517, 3871.244
409.8339, 3887.940
410.3160, 3903.109
410.7981, 3908.361
411.2802, 3903.264
411.7623, 3894.500
412.2444, 3885.717
412.7266, 3877.576
413.2087, 3873.088
413.6908, 3872.848
414.1729, 3875.309
414.6550, 3879.828
415.1371, 3886.379
415.6193, 3895.904
416.1014, 3913.314
416.5835, 3927.554
417.0656, 3926.203
417.5477, 3914.430
418.0298, 3907.673
418.5120, 3910.548
418.9941, 3922.229
419.4762, 3943.085
419.9583, 3978.211
420.4404, 4006.510
420.9225, 4027.982
421.4047, 4041.994
421.8868, 4040.662
422.3689, 4029.993
422.8510, 4030.423
423.3331, 4058.283
423.8152, 4105.692
424.2974, 4129.297
424.7795, 4107.675
425.2616, 4093.773
425.7437, 4098.867
426.2258, 4111.858
426.7079, 4123.867
427.1901, 4132.667
427.6722, 4139.850
428.1543, 4146.599
428.6364, 4152.941
429.1185, 4160.379
429.6006, 4171.440
430.0828, 4179.114
430.5649, 4174.051
431.0470, 4162.705
431.5291, 4159.160
432.0112, 4172.922
432.4933, 4188.898
432.9755, 4193.380
433.4576, 4188.801
433.9397, 4184.335
434.4218, 4182.747
434.9039, 4183.958
435.3860, 4188.559
435.8682, 4198.682
436.3503, 4205.370
436.8324, 4201.943
437.3145, 4199.928
437.7966, 4210.216
438.2787, 4230.187
438.7609, 4248.715
439.2430, 4258.477
439.7251, 4260.774
440.2072, 4261.635
440.6893, 4257.861
441.1714, 4258.128
441.6536, 4261.242
442.1357, 4269.872
442.6178, 4289.654
443.0999, 4320.165
443.5820, 4349.462
444.0641, 4362.885
444.5463, 4364.021
445.0284, 4377.158
445.5105, 4408.974
445.9926, 4439.149
446.4747, 4447.312
446.9568, 4445.690
447.4390, 4457.958
447.9211, 4492.609
448.4032, 4535.198
448.8853, 4581.523
449.3674, 4628.354
449.8495, 4668.178
450.3317, 4698.087
450.8138, 4722.902
451.2959, 4747.295
451.7780, 4768.861
452.2601, 4801.263
452.7422, 4852.487
453.2244, 4905.752
453.7065, 4954.375
454.1886, 4998.322
454.6707, 5037.221
455.1528, 5069.823
455.6349, 5103.226
456.1171, 5156.771
456.5992, 5240.150
457.0813, 5315.861
457.5634, 5370.658
458.0455, 5422.887
458.5276, 5483.242
459.0098, 5551.416
459.4919, 5620.113
459.9740, 5687.935
460.4561, 5752.614
460.9382, 5806.008
461.4203, 5847.303
461.9025, 5894.188
462.3846, 5960.841
462.8667, 6035.589
463.3488, 6090.548
463.8309, 6120.349
464.3130, 6145.608
464.7952, 6174.388
465.2773, 6200.206
465.7594, 6210.959
466.2415, 6207.660
466.7236, 6208.387
467.2057, 6230.741
467.6879, 6273.040
468.1700, 6299.916
468.6521, 6294.555
469.1342, 6293.250
469.6163, 6312.764
470.0984, 6333.387
470.5806, 6330.156
471.0627, 6297.611
471.5448, 6260.422
472.0269, 6247.590
472.5090, 6256.618
472.9911, 6259.063
473.4733, 6252.506
473.9554, 6240.383
474.4375, 6225.682
474.9196, 6206.905
475.4017, 6179.081
475.8839, 6130.591
476.3660, 6087.059
476.8481, 6069.325
477.3302, 6068.303
477.8123, 6064.707
478.2944, 6053.107
478.7766, 6036.755
479.2587, 6019.767
479.7408, 6002.465
480.2229, 5982.554
480.7050, 5951.987
481.1871, 5927.687
481.6693, 5919.525
482.1514, 5921.667
482.6335, 5925.387
483.1156, 5927.020
483.5977, 5925.585
484.0798, 5917.579
484.5620, 5901.322
485.0441, 5890.607
485.5262, 5888.549
486.0083, 5891.086
486.4904, 5897.432
486.9725, 5906.122
487.4547, 5912.081
487.9368, 5911.316
488.4189, 5908.878
488.9010, 5907.381
489.3831, 5907.922
489.8652, 5915.538
490.3474, 5932.299
490.8295, 5956.373
491.3116, 5985.286
491.7937, 6019.296
492.2758, 6058.503
492.7579, 6110.196
493.2401, 6160.158
493.7222, 6197.097
494.2043, 6226.031
494.6864, 6259.734
495.1685, 6305.200
495.6506, 6359.716
496.1328, 6418.510
496.6149, 6484.069
497.0970, 6546.221
497.5791, 6600.577
498.0612, 6653.401
498.5433, 6707.903
499.0254, 6764.239
499.5075, 6821.359
499.9897, 6883.507
500.4718, 6943.217
500.9539, 6991.509
501.4360, 7028.854
501.9181, 7061.508
502.4002, 7094.953
502.8824, 7118.407
503.3645, 7111.248
503.8466, 7063.437
504.3287, 7007.518
504.8108, 6942.461
505.2929, 6871.164
505.7751, 6799.512
506.2572, 6723.344
506.7393, 6629.309
507.2214, 6509.200
507.7035, 6372.020
508.1856, 6239.578
508.6678, 6111.462
509.1499, 5990.850
509.6320, 5889.656
510.1141, 5785.864
510.5962, 5658.688
511.0783, 5512.882
511.5605, 5376.667
512.0426, 5270.020
512.5247, 5173.072
513.0068, 5062.031
513.4890, 4939.063
513.9711, 4815.028
514.4532, 4691.841
514.9353, 4577.186
515.4174, 4487.517
515.8995, 4434.313
516.3817, 4378.729
516.8638, 4318.363
517.3459, 4258.132
517.8280, 4200.365
518.3101, 4145.360
518.7922, 4094.454
519.2744, 4048.525
519.7565, 4004.421
520.2386, 3950.774
520.7207, 3882.847
521.2028, 3837.312
521.6849, 3831.399
522.1671, 3837.682
522.6492, 3836.745
523.1313, 3829.641
523.6134, 3821.078
524.0955, 3812.029
524.5776, 3802.482
525.0598, 3789.490
525.5419, 3775.654
526.0240, 3769.262
526.5061, 3773.350
526.9882, 3784.413
527.4703, 3798.089
527.9525, 3816.256
528.4346, 3829.859
528.9167, 3826.823
529.3988, 3832.552
529.8809, 3864.691
530.3630, 3909.977
530.8452, 3946.054
531.3273, 3963.402
531.8094, 3975.190
532.2915, 4001.314
532.7736, 4040.807
533.2557, 4068.889
533.7379, 4075.955
534.2200, 4085.336
534.7021, 4115.303
535.1842, 4162.285
535.6663, 4214.985
536.1484, 4287.798
536.6306, 4348.260
537.1127, 4367.437
537.5948, 4369.365
538.0769, 4392.542
538.5590, 4445.004
539.0411, 4504.658
539.5233, 4549.141
540.0054, 4578.121
540.4875, 4605.622
540.9696, 4638.466
541.4517, 4659.301
541.9338, 4653.953
542.4160, 4640.887
542.8981, 4642.104
543.3802, 4661.987
543.8623, 4678.469
544.3444, 4673.282
544.8265, 4652.565
545.3087, 4628.081
545.7908, 4600.223
546.2729, 4577.010
546.7550, 4566.417
547.2371, 4561.633
547.7192, 4540.782
548.2014, 4499.036
548.6835, 4451.204
549.1656, 4396.018
549.6477, 4337.697
550.1298, 4276.836
550.6119, 4215.632
551.0941, 4159.738
551.5762, 4114.285
552.0583, 4074.517
552.5404, 4027.750
553.0225, 3972.976
553.5046, 3916.884
553.9868, 3862.206
554.4689, 3805.953
554.9510, 3742.696
555.4331, 3674.205
555.9152, 3612.268
556.3973, 3567.782
556.8795, 3525.239
557.3616, 3468.099
557.8437, 3402.813
558.3258, 3346.930
558.8079, 3306.563
559.2900, 3276.389
559.7722, 3249.987
560.2543, 3230.087
560.7364, 3200.248
561.2185, 3144.816
561.7006, 3096.082
562.1827, 3066.615
562.6649, 3048.361
563.1470, 3032.065
563.6291, 3015.348
564.1112, 2993.562
564.5933, 2957.966
565.0754, 2913.660
565.5576, 2878.051
566.0397, 2853.618
566.5218, 2831.489
567.0039, 2805.666
567.4860, 2777.422
567.9681, 2752.314
568.4503, 2726.291
568.9324, 2708.497
569.4145, 2705.826
569.8966, 2707.856
570.3787, 2706.024
570.8608, 2700.205
571.3430, 2695.559
571.8251, 2697.011
572.3072, 2700.160
572.7893, 2689.029
573.2714, 2659.036
573.7535, 2644.799
574.2357, 2668.372
574.7178, 2695.700
575.1999, 2689.479
575.6820, 2653.743
576.1641, 2623.177
576.6462, 2606.141
577.1284, 2596.355
577.6105, 2591.859
578.0926, 2591.187
578.5747, 2591.911
579.0568, 2593.232
579.5389, 2595.904
580.0211, 2602.533
580.5032, 2614.367
580.9852, 2613.237
581.4673, 2588.284
581.9495, 2565.679
582.4316, 2552.561
582.9137, 2546.740
583.3958, 2546.636
583.8779, 2552.277
584.3600, 2559.323
584.8422, 2567.323
585.3243, 2573.985
585.8064, 2575.609
586.2885, 2572.105
586.7706, 2565.009
587.2527, 2554.813
587.7349, 2542.481
588.2170, 2530.426
588.6991, 2516.753
589.1812, 2507.099
589.6633, 2504.455
590.1454, 2502.604
590.6276, 2498.238
591.1097, 2492.079
591.5918, 2485.410
592.0739, 2477.689
592.5560, 2473.432
593.0381, 2484.249
593.5203, 2505.262
594.0024, 2508.472
594.4845, 2485.877
594.9666, 2460.825
595.4487, 2452.568
595.9308, 2459.272
596.4130, 2462.342
596.8951, 2462.603
597.3772, 2458.654
597.8593, 2443.793
598.3414, 2428.970
598.8235, 2426.719
599.3057, 2435.830
599.7878, 2443.669
600.2699, 2441.244
600.7520, 2430.720
601.2341, 2391.857
601.7162, 2413.220
602.1984, 2422.572
602.6805, 2420.561
603.1626, 2373.147
603.6447, 2384.361
604.1268, 2372.081
604.6089, 2358.836
605.0911, 2378.300
605.5732, 2337.490
606.0553, 2356.437
606.5374, 2351.530
607.0195, 2357.542
607.5016, 2339.911
607.9838, 2329.581
608.4659, 2342.902
608.9480, 2343.127
609.4301, 2322.776
609.9122, 2329.481
610.3943, 2287.844
610.8765, 2288.626
611.3586, 2307.712
611.8407, 2288.549
612.3228, 2295.686
612.8049, 2277.816
613.2870, 2278.634
613.7692, 2278.232
614.2513, 2277.720
614.7334, 2276.474
615.2155, 2272.177
615.6976, 2263.935
616.1797, 2255.176
616.6619, 2251.721
617.1440, 2254.405
617.6261, 2254.476
618.1082, 2252.079
618.5903, 2246.778
619.0724, 2235.885
619.5546, 2223.145
620.0367, 2214.031
620.5188, 2210.324
621.0009, 2204.486
621.4830, 2186.744
621.9651, 2169.399
622.4473, 2172.125
622.9294, 2189.638
623.4115, 2196.759
623.8936, 2179.995
624.3757, 2150.691
624.8578, 2130.385
625.3400, 2120.008
625.8221, 2116.139
626.3042, 2126.034
626.7863, 2133.380
627.2684, 2130.803
627.7505, 2121.007
628.2327, 2106.664
628.7148, 2085.170
629.1969, 2070.417
629.6790, 2077.092
630.1611, 2091.997
