##NAMES=Carminite
##RRUFFID=R050528
##IDEAL CHEMISTRY=Pb^2+^Fe^3+^_2_(As^5+^O_4_)_2_(OH)_2_
##LOCALITY=Las Animas mine, Benjamin Hill, Sonora, Mexico
##OWNER=RRUFF
##SOURCE=University of Arizona Mineral Museum
##DESCRIPTION=Red prismatic crystals
##STATUS=The identification of this mineral is confirmed by single-crystal X-ray diffraction and chemical analysis.
##URL=rruff.info/R050528
##MEASURED CHEMISTRY=(Pb_0.99_Cu_0.01_)_Σ=1_(Fe^3+^_1.99_Al_0.01_)_Σ=2_(As_1.00_O_4_)_2_(OH)_2_ ; (core) :  (Pb_0.70_Ca_0.30_)_Σ=1_(Fe^3+^_1.99_Al_0.01_)_Σ=2_(As_1.00_O_4_)_2_(OH)_2_ (rim)
90.92609, 0.0000000E+00
91.40820, 6.512940
91.89032, 6.735817
92.37244, 6.622231
92.85455, 6.225840
93.33667, 5.867499
93.81879, 5.830620
94.30090, 6.022296
94.78302, 6.153752
95.26514, 6.133352
95.74725, 6.039920
96.22937, 6.066821
96.71149, 6.223927
97.19360, 6.386633
97.67572, 6.435721
98.15784, 6.371782
98.63995, 6.272175
99.12207, 6.121632
99.60419, 5.939185
100.0863, 5.908448
100.5684, 6.076445
101.0505, 6.302474
101.5327, 6.397356
102.0148, 6.320518
102.4969, 6.247406
102.9790, 6.252021
103.4611, 6.364878
103.9432, 6.374209
104.4253, 6.215171
104.9075, 5.987551
105.3896, 5.901737
105.8717, 6.049301
106.3538, 6.213393
106.8359, 6.309403
107.3180, 6.260342
107.8002, 6.273860
108.2823, 6.331664
108.7644, 6.447813
109.2465, 6.679075
109.7286, 7.131136
110.2107, 7.619562
110.6929, 8.073048
111.1750, 8.420034
111.6571, 8.803793
112.1392, 9.175220
112.6213, 9.559599
113.1034, 10.14938
113.5856, 11.20453
114.0677, 12.36349
114.5498, 13.35940
115.0319, 13.75977
115.5140, 14.35775
115.9961, 15.45152
116.4783, 17.04037
116.9604, 18.68792
117.4425, 20.26530
117.9246, 21.82790
118.4067, 23.42336
118.8888, 25.03445
119.3710, 26.72448
119.8531, 28.57187
120.3352, 30.59062
120.8173, 32.59424
121.2994, 34.45943
121.7815, 36.21421
122.2637, 37.91450
122.7458, 39.64429
123.2279, 41.28701
123.7100, 42.64012
124.1921, 43.60300
124.6742, 44.60860
125.1564, 46.02349
125.6385, 47.80422
126.1206, 49.82232
126.6027, 51.95068
127.0848, 54.25791
127.5669, 56.82498
128.0491, 59.62640
128.5312, 62.76929
129.0133, 66.50609
129.4954, 70.77084
129.9775, 75.26641
130.4596, 80.01637
130.9418, 84.85412
131.4239, 89.31824
131.9060, 93.33582
132.3881, 96.92838
132.8702, 100.1209
133.3523, 102.9402
133.8345, 105.2431
134.3166, 106.7739
134.7987, 107.5466
135.2808, 108.1704
135.7629, 108.7786
136.2450, 109.3552
136.7272, 109.7527
137.2093, 109.9093
137.6914, 110.0836
138.1735, 110.6125
138.6556, 111.5850
139.1377, 112.4313
139.6199, 112.9990
140.1020, 113.2847
140.5841, 113.5146
141.0662, 113.6064
141.5483, 113.7490
142.0304, 114.1347
142.5126, 114.6634
142.9947, 115.6089
143.4768, 116.6926
143.9589, 117.6623
144.4410, 119.0351
144.9231, 120.9166
145.4053, 123.1189
145.8874, 125.3846
146.3695, 127.5124
146.8516, 129.9680
147.3337, 132.9193
147.8158, 136.7813
148.2980, 140.2111
148.7801, 143.3497
149.2622, 146.0741
149.7443, 148.0457
150.2264, 148.7559
150.7085, 149.2242
151.1907, 149.7719
151.6728, 150.4595
152.1549, 151.1362
152.6370, 151.7288
153.1191, 152.3033
153.6012, 153.0123
154.0834, 154.0052
154.5655, 155.0172
155.0476, 156.0093
155.5297, 157.9119
156.0118, 158.5032
156.4939, 156.9736
156.9761, 153.7969
157.4582, 150.5717
157.9403, 147.4280
158.4224, 144.4792
158.9045, 141.7665
159.3866, 139.0009
159.8688, 136.8452
160.3509, 135.5459
160.8330, 135.0375
161.3151, 135.0390
161.7972, 135.7879
162.2793, 136.8271
162.7615, 137.8100
163.2436, 138.7418
163.7257, 139.5050
164.2078, 140.2292
164.6899, 140.8497
165.1720, 140.8849
165.6541, 139.8882
166.1363, 138.2793
166.6184, 136.4716
167.1005, 134.1471
167.5826, 132.0219
168.0647, 130.5189
168.5468, 129.6160
169.0290, 129.0516
169.5111, 128.6559
169.9932, 128.4997
170.4753, 128.6787
170.9574, 129.2899
171.4395, 130.2069
171.9217, 131.3874
172.4038, 132.8289
172.8859, 134.3790
173.3680, 135.8637
173.8501, 137.3761
174.3322, 139.1082
174.8144, 141.4573
175.2965, 143.9394
175.7786, 145.9147
176.2607, 147.3897
176.7428, 148.5709
177.2249, 149.7730
177.7071, 150.8342
178.1892, 151.3872
178.6713, 151.2474
179.1534, 150.4970
179.6355, 149.1265
180.1176, 147.0686
180.5998, 144.8750
181.0819, 142.8428
181.5640, 141.0756
182.0461, 139.8773
182.5282, 139.7332
183.0103, 140.2381
183.4925, 140.4112
183.9746, 140.1504
184.4567, 139.8994
184.9388, 140.1507
185.4209, 140.8812
185.9030, 141.9361
186.3852, 143.3164
186.8673, 144.9702
187.3494, 146.7012
187.8315, 148.4393
188.3136, 150.4600
188.7957, 153.4388
189.2779, 157.2802
189.7600, 161.0263
190.2421, 163.7091
190.7242, 165.6547
191.2063, 168.9936
191.6884, 174.0447
192.1706, 179.8886
192.6527, 185.3804
193.1348, 190.4907
193.6169, 195.3982
194.0990, 200.2177
194.5811, 204.9271
195.0633, 209.5831
195.5454, 214.2106
196.0275, 218.7370
196.5096, 222.7412
196.9917, 226.1860
197.4738, 229.7312
197.9560, 233.8822
198.4381, 238.6261
198.9202, 242.9517
199.4023, 246.8359
199.8844, 250.2349
200.3665, 252.9572
200.8487, 254.9828
201.3308, 256.5978
201.8129, 257.9132
202.2950, 258.9258
202.7771, 259.7007
203.2592, 260.1967
203.7414, 260.5149
204.2235, 260.8527
204.7056, 261.1916
205.1877, 261.5947
205.6698, 262.0472
206.1519, 262.5099
206.6341, 263.2684
207.1162, 264.3666
207.5983, 265.7160
208.0804, 267.1181
208.5625, 268.5380
209.0446, 270.0674
209.5268, 271.8702
210.0089, 274.1184
210.4910, 275.7708
210.9731, 276.5946
211.4552, 276.9594
211.9373, 277.9394
212.4195, 280.0583
212.9016, 281.4807
213.3837, 281.3502
213.8658, 279.5293
214.3479, 276.5882
214.8300, 272.3464
215.3121, 267.0892
215.7943, 261.4045
216.2764, 255.1667
216.7585, 248.8554
217.2406, 242.5898
217.7227, 236.3957
218.2048, 230.3327
218.6870, 224.3214
219.1691, 218.4893
219.6512, 212.9914
220.1333, 207.8009
220.6154, 202.9585
221.0975, 198.4931
221.5797, 194.7642
222.0618, 190.4508
222.5439, 185.2226
223.0260, 179.5826
223.5081, 174.4902
223.9902, 170.0367
224.4724, 166.0406
224.9545, 162.5779
225.4366, 159.7886
225.9187, 156.9466
226.4008, 153.7751
226.8829, 150.6588
227.3651, 148.4070
227.8472, 147.1908
228.3293, 146.5159
228.8114, 146.2384
229.2935, 146.4524
229.7757, 146.7666
230.2578, 147.1699
230.7399, 147.6713
231.2220, 148.2650
231.7041, 148.7738
232.1862, 149.6536
232.6684, 151.1481
233.1505, 153.5160
233.6326, 155.6404
234.1147, 157.3707
234.5968, 158.9409
235.0789, 160.7433
235.5611, 162.8581
236.0432, 165.0675
236.5253, 167.3538
237.0074, 169.7202
237.4895, 172.0483
237.9716, 174.4341
238.4538, 176.7253
238.9359, 178.6334
239.4180, 179.9289
239.9001, 181.2535
240.3822, 182.8606
240.8643, 184.8542
241.3465, 186.5849
241.8286, 188.0457
242.3107, 189.2485
242.7928, 190.2241
243.2749, 191.0490
243.7570, 191.5098
244.2392, 191.5131
244.7213, 191.0064
245.2034, 190.3447
245.6855, 189.5205
246.1676, 188.5460
246.6497, 187.3997
247.1319, 185.9042
247.6140, 184.5602
248.0961, 183.4548
248.5782, 182.5750
249.0603, 182.1037
249.5424, 182.3298
250.0246, 182.6887
250.5067, 182.4949
250.9888, 181.3255
251.4709, 180.4351
251.9530, 180.1090
252.4351, 180.3669
252.9173, 180.7953
253.3994, 181.4057
253.8815, 182.1694
254.3636, 183.0970
254.8457, 184.3004
255.3278, 185.4000
255.8100, 186.4012
256.2921, 187.2944
256.7742, 187.6689
257.2563, 187.3722
257.7384, 186.7623
258.2205, 186.2077
258.7026, 185.9557
259.1848, 185.1264
259.6669, 183.5330
260.1490, 181.2202
260.6311, 178.6342
261.1132, 175.6586
261.5953, 172.6149
262.0775, 169.7869
262.5596, 167.2090
263.0417, 164.6984
263.5238, 162.2990
264.0059, 159.9500
264.4880, 157.2185
264.9702, 154.0358
265.4523, 150.6296
265.9344, 147.1480
266.4165, 143.5624
266.8986, 139.8831
267.3807, 136.0409
267.8629, 132.1015
268.3450, 128.2687
268.8271, 124.5631
269.3092, 120.8136
269.7913, 116.7405
270.2734, 112.2119
270.7556, 108.1528
271.2377, 104.6335
271.7198, 101.5422
272.2019, 98.60453
272.6840, 95.83190
273.1661, 93.17678
273.6483, 90.58669
274.1304, 88.04749
274.6125, 85.75574
275.0946, 83.74129
275.5767, 81.95914
276.0588, 80.34204
276.5410, 78.89822
277.0231, 77.58454
277.5052, 76.45045
277.9873, 75.49300
278.4694, 74.44585
278.9515, 73.26096
279.4337, 72.08401
279.9158, 71.16325
280.3979, 70.52969
280.8800, 69.85194
281.3621, 68.97995
281.8442, 67.94519
282.3264, 67.06416
282.8085, 66.33730
283.2906, 65.76793
283.7727, 65.42361
284.2548, 65.30798
284.7369, 65.14452
285.2191, 64.83679
285.7012, 64.42342
286.1833, 64.03654
286.6654, 63.67441
287.1475, 63.35035
287.6296, 63.12373
288.1118, 62.97735
288.5939, 62.73486
289.0760, 62.31637
289.5581, 61.80487
290.0402, 61.38570
290.5223, 61.05780
291.0045, 60.80127
291.4866, 60.61602
291.9687, 60.49163
292.4508, 60.39223
292.9329, 60.33705
293.4150, 60.26402
293.8972, 60.01717
294.3793, 59.61330
294.8614, 59.24159
295.3435, 59.08433
295.8256, 59.06190
296.3077, 58.94419
296.7899, 58.68710
297.2720, 58.38200
297.7541, 58.15878
298.2362, 58.00206
298.7183, 57.83769
299.2004, 57.63136
299.6826, 57.38874
300.1647, 57.08950
300.6468, 56.71849
301.1289, 56.38292
301.6110, 56.17367
302.0931, 56.08337
302.5753, 56.08783
303.0574, 56.24163
303.5395, 56.45585
304.0216, 56.60300
304.5037, 56.68015
304.9858, 56.76225
305.4680, 56.93150
305.9501, 57.14714
306.4322, 57.33864
306.9143, 57.47964
307.3964, 57.58873
307.8785, 57.64759
308.3607, 57.66796
308.8428, 57.75758
309.3249, 58.02476
309.8070, 58.38818
310.2891, 58.74566
310.7712, 59.02245
311.2534, 59.34984
311.7355, 59.88681
312.2176, 60.57504
312.6997, 61.18208
313.1818, 61.57580
313.6639, 61.83386
314.1461, 61.97193
314.6282, 61.85198
315.1103, 61.91867
315.5924, 62.67806
316.0745, 63.78173
316.5566, 64.51406
317.0388, 64.28292
317.5209, 63.81100
318.0030, 63.49923
318.4851, 63.42915
318.9672, 63.38500
319.4493, 63.32436
319.9315, 63.23989
320.4136, 63.12049
320.8957, 62.90202
321.3778, 62.70465
321.8599, 62.57714
322.3420, 62.52715
322.8242, 62.48411
323.3063, 62.41449
323.7884, 62.35421
324.2705, 62.33455
324.7526, 62.28075
325.2347, 62.35271
325.7169, 62.59552
326.1990, 63.00279
326.6811, 63.48985
327.1632, 64.11439
327.6453, 64.77371
328.1274, 65.41085
328.6096, 66.05097
329.0917, 66.63771
329.5738, 67.08251
330.0559, 67.45924
330.5380, 68.01377
331.0201, 68.76374
331.5023, 69.67329
331.9844, 70.75515
332.4665, 72.09156
332.9486, 73.37467
333.4307, 74.56564
333.9128, 75.71748
334.3950, 76.86800
334.8771, 77.92106
335.3592, 79.17752
335.8413, 80.78327
336.3234, 82.79897
336.8055, 84.59581
337.2877, 86.04601
337.7698, 87.42809
338.2519, 89.09678
338.7340, 91.11821
339.2161, 93.09334
339.6982, 94.82632
340.1803, 96.42717
340.6624, 98.56704
341.1446, 101.4304
341.6267, 104.3053
342.1088, 106.6430
342.5909, 108.4020
343.0730, 110.3058
343.5551, 112.4904
344.0373, 114.8022
344.5194, 116.7670
345.0015, 118.3826
345.4836, 120.0463
345.9657, 122.1330
346.4478, 124.5246
346.9300, 126.5949
347.4121, 128.3347
347.8942, 129.7202
348.3763, 130.6971
348.8584, 131.2894
349.3405, 131.6658
349.8227, 131.9619
350.3048, 132.0850
350.7869, 131.8454
351.2690, 131.2471
351.7511, 130.3161
352.2332, 128.9781
352.7154, 127.3335
353.1975, 125.5931
353.6796, 123.8035
354.1617, 121.9641
354.6438, 119.9915
355.1259, 117.9265
355.6081, 116.0042
356.0902, 114.4507
356.5723, 113.0696
357.0544, 111.6167
357.5365, 110.0278
358.0186, 108.4291
358.5008, 106.7047
358.9829, 105.0336
359.4650, 103.8014
359.9471, 103.5597
360.4292, 103.5420
360.9113, 103.1848
361.3935, 102.3609
361.8756, 101.7788
362.3577, 101.8276
362.8398, 102.2399
363.3219, 102.7118
363.8040, 103.1076
364.2862, 103.6039
364.7683, 104.3653
365.2504, 105.3719
365.7325, 106.1638
366.2146, 106.3604
366.6967, 106.5088
367.1789, 106.9487
367.6610, 108.0180
368.1431, 109.0230
368.6252, 109.9602
369.1073, 110.8110
369.5894, 111.5021
370.0716, 111.8290
370.5537, 112.2123
371.0358, 112.8321
371.5179, 113.8176
372.0000, 114.6551
372.4821, 115.3614
372.9643, 115.8994
373.4464, 116.1726
373.9285, 116.0003
374.4106, 115.9390
374.8927, 116.1358
375.3748, 116.5824
375.8570, 117.0078
376.3391, 117.3529
376.8212, 117.8033
377.3033, 118.6339
377.7854, 119.9369
378.2675, 120.8488
378.7497, 121.1245
379.2318, 121.0714
379.7139, 121.6003
380.1960, 122.7699
380.6781, 123.7857
381.1602, 124.0911
381.6424, 123.7934
382.1245, 123.5226
382.6066, 123.2826
383.0887, 123.1743
383.5708, 123.4625
384.0529, 124.0477
384.5351, 124.4559
385.0172, 124.3931
385.4993, 124.0795
385.9814, 123.9577
386.4635, 124.0129
386.9456, 123.9146
387.4278, 123.2812
387.9099, 122.3440
388.3920, 121.5001
388.8741, 120.9928
389.3562, 120.3598
389.8383, 119.1852
390.3205, 117.5442
390.8026, 115.6799
391.2847, 113.5267
391.7668, 111.3309
392.2489, 109.2535
392.7310, 107.3359
393.2132, 105.4843
393.6953, 103.6315
394.1774, 101.8495
394.6595, 100.2119
395.1416, 98.70568
395.6237, 97.40343
396.1059, 96.42826
396.5880, 95.75569
397.0701, 94.99389
397.5522, 93.83891
398.0343, 92.73048
398.5164, 91.93117
398.9986, 91.60899
399.4807, 91.41216
399.9628, 91.47541
400.4449, 91.64663
400.9270, 91.55689
401.4091, 90.95248
401.8913, 90.41875
402.3734, 90.15820
402.8555, 90.22107
403.3376, 90.27135
403.8197, 90.28889
404.3018, 90.31631
404.7840, 90.43874
405.2661, 90.73697
405.7482, 90.82597
406.2303, 90.55019
406.7124, 90.02659
407.1945, 89.74245
407.6767, 89.71825
408.1588, 89.82659
408.6409, 90.02480
409.1230, 90.30323
409.6051, 90.51738
410.0872, 90.63132
410.5694, 90.75288
411.0515, 91.01046
411.5336, 91.40658
412.0157, 91.95644
412.4978, 92.82008
412.9799, 93.80030
413.4621, 94.43410
413.9442, 94.73607
414.4263, 95.06950
414.9084, 95.77509
415.3905, 96.70360
415.8727, 97.64104
416.3548, 98.58263
416.8369, 99.43781
417.3190, 100.0133
417.8011, 100.4270
418.2832, 101.0042
418.7654, 102.0099
419.2475, 103.1577
419.7296, 104.2464
420.2117, 105.2562
420.6938, 106.2536
421.1759, 107.1630
421.6581, 108.1096
422.1402, 109.2390
422.6223, 110.7912
423.1044, 112.3002
423.5865, 113.7244
424.0686, 115.0323
424.5508, 116.0560
425.0329, 116.5079
425.5150, 116.8802
425.9971, 117.3764
426.4792, 117.9614
426.9613, 118.7656
427.4435, 120.0091
427.9256, 121.3467
428.4077, 122.1795
428.8898, 122.2534
429.3719, 122.4074
429.8540, 122.8635
430.3362, 123.6041
430.8183, 124.4629
431.3004, 125.4847
431.7825, 126.4826
432.2646, 127.3004
432.7467, 127.9350
433.2289, 128.5615
433.7110, 129.2957
434.1931, 129.8456
434.6752, 129.4740
435.1573, 128.2630
435.6394, 127.1192
436.1216, 126.6242
436.6036, 126.5082
437.0858, 126.1836
437.5679, 125.6350
438.0500, 125.0119
438.5321, 124.3478
439.0142, 123.7170
439.4963, 123.2525
439.9785, 123.0473
440.4606, 122.9475
440.9427, 122.8662
441.4248, 122.7983
441.9069, 122.7270
442.3890, 122.3820
442.8712, 122.2214
443.3533, 122.5975
443.8354, 123.6352
444.3175, 124.7790
444.7996, 125.9117
445.2817, 127.0183
445.7639, 128.0924
446.2460, 128.8509
446.7281, 129.8865
447.2102, 131.4887
447.6923, 133.5539
448.1744, 135.2782
448.6566, 136.2822
449.1387, 137.3454
449.6208, 138.8509
450.1029, 141.0350
450.5850, 142.9310
451.0671, 144.2976
451.5493, 145.5987
452.0314, 147.6712
452.5135, 150.8011
452.9956, 153.3558
453.4777, 154.7163
453.9598, 155.1801
454.4420, 156.0160
454.9241, 157.2271
455.4062, 158.7178
455.8883, 160.4841
456.3704, 162.4810
456.8525, 164.4892
457.3347, 166.4465
457.8168, 168.4215
458.2989, 170.5045
458.7810, 172.6591
459.2631, 174.7095
459.7452, 176.6105
460.2274, 178.3844
460.7095, 180.0175
461.1916, 181.5378
461.6737, 182.9797
462.1558, 184.4472
462.6379, 185.8218
463.1201, 186.9984
463.6022, 187.9596
464.0843, 188.7413
464.5664, 189.5897
465.0485, 190.2234
465.5306, 190.1941
466.0128, 188.5567
466.4949, 187.0747
466.9770, 186.5590
467.4591, 187.0749
467.9412, 186.7258
468.4233, 184.9897
468.9055, 182.8007
469.3876, 180.6302
469.8697, 178.3610
470.3518, 176.3754
470.8339, 174.6633
471.3160, 173.2378
471.7982, 172.1972
472.2803, 171.6727
472.7624, 170.9960
473.2445, 169.8749
473.7266, 168.4056
474.2087, 167.2048
474.6909, 166.2958
475.1730, 165.4730
475.6551, 164.5586
476.1372, 163.5859
476.6193, 162.7037
477.1014, 161.9520
477.5836, 161.2594
478.0657, 160.5836
478.5478, 159.9006
479.0299, 159.1586
479.5120, 158.2265
479.9941, 157.2844
480.4763, 156.5829
480.9584, 156.0893
481.4405, 155.4851
481.9226, 154.3654
482.4047, 153.1985
482.8868, 152.4065
483.3690, 152.3392
483.8511, 152.1126
484.3332, 151.2867
484.8153, 150.1867
485.2974, 149.3244
485.7795, 148.9548
486.2617, 148.6529
486.7438, 148.4259
487.2259, 148.2647
487.7080, 147.7173
488.1901, 146.3954
488.6722, 145.1864
489.1544, 144.6825
489.6365, 145.1199
490.1186, 145.3401
490.6007, 145.2288
491.0828, 145.0081
491.5649, 144.9877
492.0471, 145.1665
492.5292, 145.5667
493.0113, 146.2485
493.4934, 147.1221
493.9755, 148.0247
494.4576, 148.9410
494.9398, 149.7416
495.4219, 150.0804
495.9040, 150.2890
496.3861, 150.9869
496.8682, 152.3005
497.3503, 153.8455
497.8325, 155.5040
498.3146, 157.1504
498.7967, 158.6243
499.2788, 159.7073
499.7609, 160.7345
500.2430, 161.9353
500.7252, 163.2424
501.2073, 164.3766
501.6894, 165.2691
502.1715, 165.9480
502.6536, 166.4315
503.1357, 166.7082
503.6179, 166.8130
504.1000, 166.8166
504.5821, 166.6092
505.0642, 166.0974
505.5463, 165.3376
506.0284, 164.1290
506.5106, 162.3437
506.9927, 160.1247
507.4748, 157.9854
507.9569, 155.9871
508.4390, 153.7583
508.9211, 151.0633
509.4033, 147.9447
509.8854, 144.7041
510.3675, 141.3208
510.8496, 137.9909
511.3317, 134.8345
511.8138, 131.8720
512.2960, 129.2623
512.7781, 127.1009
513.2602, 125.0643
513.7423, 122.6997
514.2244, 120.1802
514.7065, 117.9267
515.1887, 116.1662
515.6708, 114.7143
516.1529, 113.5273
516.6350, 112.5878
517.1171, 111.7278
517.5992, 110.8498
518.0814, 110.0674
518.5635, 109.4575
519.0456, 109.0530
519.5277, 108.7859
520.0098, 108.6712
520.4919, 108.6810
520.9741, 108.7739
521.4562, 108.9244
521.9383, 109.1995
522.4204, 109.5864
522.9025, 110.1045
523.3846, 110.9082
523.8668, 112.0237
524.3489, 113.2909
524.8310, 114.6891
525.3131, 116.1971
525.7952, 117.4905
526.2773, 118.5033
526.7595, 119.6505
527.2416, 121.5396
527.7237, 123.9232
528.2058, 126.1854
528.6879, 127.9947
529.1700, 129.7809
529.6522, 131.9043
530.1343, 134.3264
530.6164, 137.0027
531.0985, 140.0926
531.5806, 143.2639
532.0627, 146.2215
532.5449, 148.9114
533.0270, 151.8320
533.5091, 155.3336
533.9912, 158.9606
534.4733, 162.3395
534.9554, 165.2635
535.4376, 168.2596
535.9197, 171.3216
536.4018, 174.4373
536.8839, 177.4988
537.3660, 180.5280
537.8481, 183.5075
538.3303, 186.4704
538.8124, 189.3953
539.2945, 192.3004
539.7766, 195.2141
540.2587, 197.8667
540.7408, 200.0839
541.2230, 201.9021
541.7051, 203.3750
542.1872, 204.5094
542.6693, 205.2952
543.1514, 205.6408
543.6335, 205.6501
544.1157, 205.5539
544.5978, 205.6438
545.0799, 205.3394
545.5620, 204.1676
546.0441, 202.2866
546.5262, 200.0871
547.0084, 197.7450
547.4905, 195.0973
547.9726, 191.9194
548.4547, 188.1707
548.9368, 184.5188
549.4189, 181.2411
549.9011, 177.8885
550.3832, 174.1842
550.8653, 169.9463
551.3474, 165.7602
551.8295, 161.6965
552.3116, 157.6665
552.7938, 153.5344
553.2759, 149.2788
553.7580, 145.1270
554.2401, 141.1303
554.7222, 137.2842
555.2043, 133.5809
555.6865, 130.0463
556.1686, 126.6056
556.6507, 123.1371
557.1328, 119.7843
557.6149, 116.7795
558.0970, 114.1393
558.5792, 111.4944
559.0613, 108.4445
559.5434, 105.3566
560.0255, 102.6141
560.5076, 100.4474
560.9897, 98.43516
561.4719, 96.51569
561.9540, 94.64433
562.4361, 92.77558
562.9182, 90.73295
563.4003, 88.86658
563.8824, 87.23215
564.3646, 85.82682
564.8467, 84.56367
565.3288, 83.51675
565.8109, 82.44936
566.2930, 81.16514
566.7751, 79.65264
567.2573, 78.41326
567.7394, 77.46769
568.2215, 76.65032
568.7036, 75.80241
569.1857, 74.93478
569.6678, 74.04520
570.1500, 73.12422
570.6321, 72.22717
571.1142, 71.38379
571.5963, 70.62395
572.0784, 70.01687
572.5605, 69.76085
573.0427, 69.51529
573.5248, 69.01748
574.0069, 68.31589
574.4890, 67.71399
574.9711, 67.38120
575.4532, 67.12315
575.9354, 66.84875
576.4175, 66.53453
576.8996, 66.26638
577.3817, 66.00106
577.8638, 65.82681
578.3459, 65.89825
578.8281, 66.36120
579.3102, 66.42357
579.7923, 65.88653
580.2744, 65.07890
580.7565, 64.61832
581.2386, 64.49121
581.7208, 64.47512
582.2029, 64.55461
582.6850, 64.64240
583.1671, 64.58151
