##NAMES=Carminite
##RRUFFID=R050528
##IDEAL CHEMISTRY=Pb^2+^Fe^3+^_2_(As^5+^O_4_)_2_(OH)_2_
##LOCALITY=Las Animas mine, Benjamin Hill, Sonora, Mexico
##OWNER=RRUFF
##SOURCE=University of Arizona Mineral Museum
##DESCRIPTION=Red prismatic crystals
##STATUS=The identification of this mineral is confirmed by single-crystal X-ray diffraction and chemical analysis.
##URL=rruff.info/R050528
##MEASURED CHEMISTRY=(Pb_0.99_Cu_0.01_)_Σ=1_(Fe^3+^_1.99_Al_0.01_)_Σ=2_(As_1.00_O_4_)_2_(OH)_2_ ; (core) :  (Pb_0.70_Ca_0.30_)_Σ=1_(Fe^3+^_1.99_Al_0.01_)_Σ=2_(As_1.00_O_4_)_2_(OH)_2_ (rim)
92.37695, 290.0108
92.85907, 290.7690
93.34119, 291.0170
93.82330, 288.2047
94.30542, 283.6862
94.78754, 278.7817
95.26965, 273.9209
95.75177, 268.5378
96.23389, 262.2806
96.71600, 255.7836
97.19812, 249.7111
97.68024, 244.1469
98.16235, 239.1425
98.64447, 234.7221
99.12659, 230.7845
99.60870, 227.1198
100.0908, 225.0495
100.5729, 223.4379
101.0551, 220.9984
101.5372, 216.9493
102.0193, 211.6964
102.5014, 207.5666
102.9835, 204.7469
103.4656, 202.8755
103.9478, 202.4119
104.4299, 202.8420
104.9120, 203.2646
105.3941, 202.9157
105.8762, 201.6548
106.3583, 201.1400
106.8405, 201.9069
107.3226, 202.7572
107.8047, 202.9368
108.2868, 202.3987
108.7689, 201.6995
109.2510, 201.4400
109.7332, 201.6418
110.2153, 201.9544
110.6974, 202.3357
111.1795, 202.7981
111.6616, 203.3799
112.1437, 204.1079
112.6259, 204.9085
113.1080, 205.6882
113.5901, 206.4448
114.0722, 207.2536
114.5543, 208.3423
115.0364, 209.6792
115.5185, 210.4939
116.0007, 210.2637
116.4828, 209.6847
116.9649, 209.2734
117.4470, 209.0875
117.9291, 208.6889
118.4112, 207.3157
118.8934, 204.3037
119.3755, 201.9537
119.8576, 200.4331
120.3397, 199.5871
120.8218, 199.4687
121.3039, 200.0835
121.7861, 201.1473
122.2682, 201.8430
122.7503, 201.3939
123.2324, 201.4043
123.7145, 202.0019
124.1966, 203.1250
124.6788, 204.6828
125.1609, 206.6510
125.6430, 209.0111
126.1251, 211.6077
126.6072, 214.4678
127.0893, 217.4700
127.5715, 220.5514
128.0536, 223.7291
128.5357, 227.0618
129.0178, 230.6569
129.4999, 234.4856
129.9821, 238.2717
130.4642, 242.3713
130.9463, 246.2629
131.4284, 249.4649
131.9105, 251.9543
132.3926, 253.7735
132.8748, 254.8938
133.3569, 255.4115
133.8390, 255.2787
134.3211, 253.9589
134.8032, 251.8961
135.2853, 250.5955
135.7674, 250.2146
136.2496, 250.5259
136.7317, 251.4953
137.2138, 252.9854
137.6959, 254.6659
138.1780, 256.2700
138.6601, 257.7701
139.1423, 259.4993
139.6244, 261.5893
140.1065, 263.8141
140.5886, 266.1142
141.0707, 268.4754
141.5528, 270.9265
142.0350, 273.4697
142.5171, 275.9959
142.9992, 278.9804
143.4813, 282.2166
143.9634, 285.9193
144.4455, 290.4420
144.9277, 295.7926
145.4098, 301.5254
145.8919, 306.9160
146.3740, 311.6908
146.8561, 316.6059
147.3382, 322.1793
147.8204, 327.7702
148.3025, 332.7422
148.7846, 336.9457
149.2667, 340.1788
149.7488, 341.8019
150.2309, 341.7899
150.7131, 341.1226
151.1952, 339.8599
151.6773, 338.1620
152.1594, 336.4585
152.6415, 334.5836
153.1236, 333.1752
153.6058, 332.9789
154.0879, 334.1718
154.5700, 336.0313
155.0521, 338.3026
155.5342, 341.0197
156.0163, 343.2420
156.4985, 344.8487
156.9806, 345.5882
157.4627, 345.1348
157.9448, 343.3686
158.4269, 340.5605
158.9090, 336.9135
159.3912, 332.0517
159.8733, 327.2980
160.3554, 322.3577
160.8375, 317.9237
161.3196, 314.6537
161.8017, 312.8705
162.2839, 312.3052
162.7660, 312.2259
163.2481, 313.2158
163.7302, 313.9268
164.2123, 314.3970
164.6944, 314.4398
165.1766, 313.8866
165.6587, 312.6498
166.1408, 310.7157
166.6229, 307.8874
167.1050, 303.2343
167.5871, 298.7039
168.0693, 294.1366
168.5514, 289.9714
169.0335, 287.0039
169.5156, 285.8459
169.9977, 286.4014
170.4798, 286.9625
170.9620, 287.2451
171.4441, 287.7904
171.9262, 288.8932
172.4083, 290.4990
172.8904, 292.3810
173.3725, 294.5089
173.8547, 296.7803
174.3368, 298.5748
174.8189, 299.6889
175.3010, 300.4842
175.7831, 301.5394
176.2652, 302.9116
176.7474, 303.4328
177.2295, 302.0253
177.7116, 299.0476
178.1937, 295.3177
178.6758, 290.9470
179.1579, 285.9255
179.6401, 280.0511
180.1222, 273.1295
180.6043, 265.9736
181.0864, 258.7042
181.5685, 251.5853
182.0506, 245.2014
182.5328, 239.8861
183.0149, 235.4941
183.4970, 231.4948
183.9791, 227.6819
184.4612, 224.7329
184.9433, 222.9489
185.4255, 222.0675
185.9076, 221.6171
186.3897, 221.2503
186.8718, 221.0238
187.3539, 221.5572
187.8360, 223.2836
188.3182, 225.4216
188.8003, 227.7057
189.2824, 230.2114
189.7645, 233.1481
190.2466, 236.7082
190.7287, 240.9322
191.2109, 245.1460
191.6930, 249.2568
192.1751, 253.4740
192.6572, 257.9403
193.1393, 262.5701
193.6214, 267.1788
194.1036, 271.5643
194.5857, 275.7105
195.0678, 279.9057
195.5499, 284.4854
196.0320, 288.8166
196.5141, 292.3387
196.9963, 295.2123
197.4784, 298.2100
197.9605, 302.0632
198.4426, 306.9231
198.9247, 311.5927
199.4068, 316.1754
199.8890, 320.5114
200.3711, 324.4629
200.8532, 328.0367
201.3353, 331.3641
201.8174, 334.5820
202.2995, 337.6721
202.7817, 340.5213
203.2638, 343.3384
203.7459, 345.7911
204.2280, 347.3692
204.7101, 347.9881
205.1922, 348.5063
205.6744, 349.8643
206.1565, 351.8596
206.6386, 353.4792
207.1207, 354.4021
207.6028, 354.8903
208.0849, 355.3831
208.5671, 356.0217
209.0492, 356.2496
209.5313, 355.3640
210.0134, 353.7321
210.4955, 352.0417
210.9776, 350.6320
211.4598, 349.3200
211.9419, 347.7479
212.4240, 346.0223
212.9061, 343.7715
213.3882, 340.6226
213.8703, 336.8672
214.3525, 333.0167
214.8346, 329.5782
215.3167, 326.2446
215.7988, 321.8253
216.2809, 315.4696
216.7630, 309.2939
217.2451, 304.1426
217.7273, 299.7688
218.2094, 295.7128
218.6915, 291.6874
219.1736, 287.7460
219.6557, 284.3016
220.1378, 281.9299
220.6200, 279.3791
221.1021, 276.1894
221.5842, 272.5915
222.0663, 268.9672
222.5484, 265.6065
223.0305, 262.4586
223.5127, 259.0064
223.9948, 254.4072
224.4769, 250.4475
224.9590, 247.6470
225.4411, 245.7212
225.9232, 244.1628
226.4054, 242.6222
226.8875, 241.1367
227.3696, 240.0606
227.8517, 239.4592
228.3338, 239.2314
228.8159, 239.3086
229.2981, 239.7583
229.7802, 240.7466
230.2623, 242.4185
230.7444, 244.7124
231.2265, 246.8857
231.7086, 249.0756
232.1908, 251.0114
232.6729, 252.3070
233.1550, 253.3081
233.6371, 254.6565
234.1192, 256.7421
234.6013, 259.5065
235.0835, 262.5668
235.5656, 266.4995
236.0477, 270.0690
236.5298, 272.6099
237.0119, 274.4965
237.4940, 276.5923
237.9762, 279.3954
238.4583, 282.7545
238.9404, 285.9681
239.4225, 289.1279
239.9046, 292.0681
240.3867, 294.5635
240.8689, 296.7719
241.3510, 299.1157
241.8331, 301.8895
242.3152, 304.8382
242.7973, 307.2412
243.2794, 309.0324
243.7616, 310.5069
244.2437, 311.7718
244.7258, 312.8060
245.2079, 313.5338
245.6900, 313.8989
246.1721, 313.9483
246.6543, 313.8860
247.1364, 313.8834
247.6185, 313.3866
248.1006, 312.0334
248.5827, 309.9407
249.0648, 307.4326
249.5470, 304.3868
250.0291, 301.2177
250.5112, 298.5357
250.9933, 296.3678
251.4754, 294.3715
251.9576, 292.2278
252.4397, 290.0492
252.9218, 288.3317
253.4039, 287.4589
253.8860, 286.7910
254.3681, 285.5000
254.8503, 283.5836
255.3324, 281.9057
255.8145, 281.2651
256.2966, 281.4203
256.7787, 281.1266
257.2608, 280.0480
257.7430, 278.5963
258.2251, 277.2413
258.7072, 275.9338
259.1893, 274.3332
259.6714, 272.2526
260.1535, 269.7122
260.6357, 266.7647
261.1178, 263.3524
261.5999, 259.5729
262.0820, 255.3953
262.5641, 250.9265
263.0462, 246.4896
263.5284, 242.4093
264.0105, 238.5969
264.4926, 234.3960
264.9747, 229.6731
265.4568, 224.7466
265.9389, 219.7578
266.4211, 214.7081
266.9032, 209.6245
267.3853, 204.5102
267.8674, 199.3798
268.3495, 194.2263
268.8316, 188.9250
269.3138, 183.7928
269.7959, 178.7812
270.2780, 174.0122
270.7601, 169.6895
271.2422, 165.9767
271.7243, 162.7258
272.2065, 159.4491
272.6886, 155.8378
273.1707, 152.8094
273.6528, 150.8180
274.1349, 149.3563
274.6170, 147.8428
275.0992, 145.9858
275.5813, 144.0265
276.0634, 142.6071
276.5455, 142.0028
277.0276, 141.4467
277.5097, 140.8827
277.9919, 140.2480
278.4740, 139.4386
278.9561, 138.4163
279.4382, 137.3320
279.9203, 136.5026
280.4024, 136.1824
280.8846, 135.5709
281.3667, 134.4047
281.8488, 133.0877
282.3309, 131.9582
282.8130, 131.0844
283.2951, 130.2440
283.7773, 129.0488
284.2594, 127.2080
284.7415, 125.7495
285.2236, 124.8989
285.7057, 124.2233
286.1878, 123.4568
286.6700, 122.5803
287.1521, 121.7571
287.6342, 121.2087
288.1163, 121.0599
288.5984, 120.7043
289.0805, 119.9751
289.5627, 119.2078
290.0448, 118.4997
290.5269, 117.8823
291.0090, 117.3918
291.4911, 117.0925
291.9732, 117.0152
292.4554, 116.7364
292.9375, 116.0192
293.4196, 115.3385
293.9017, 114.8945
294.3838, 114.6110
294.8659, 114.3049
295.3481, 113.8480
295.8302, 113.2469
296.3123, 112.6134
296.7944, 111.8853
297.2765, 111.1892
297.7586, 110.5339
298.2408, 109.9305
298.7229, 109.4343
299.2050, 109.0884
299.6871, 108.8107
300.1692, 108.2830
300.6513, 107.2952
301.1335, 106.2900
301.6156, 105.2046
302.0977, 104.1688
302.5798, 103.3174
303.0619, 102.7064
303.5440, 102.2815
304.0262, 101.9316
304.5083, 101.7706
304.9904, 101.5145
305.4725, 101.0483
305.9546, 100.5618
306.4367, 100.1830
306.9189, 99.95229
307.4010, 99.85918
307.8831, 99.90273
308.3652, 100.1546
308.8473, 100.3598
309.3294, 100.3997
309.8116, 100.4940
310.2937, 100.8459
310.7758, 101.4185
311.2579, 101.9746
311.7400, 102.2640
312.2221, 102.2401
312.7043, 102.2928
313.1864, 102.5455
313.6685, 102.7439
314.1506, 102.7442
314.6327, 102.6026
315.1148, 102.4726
315.5970, 102.4708
316.0791, 102.5848
316.5612, 102.6411
317.0433, 102.8804
317.5254, 102.7943
318.0075, 102.0859
318.4897, 101.0203
318.9718, 99.96481
319.4539, 99.10439
319.9360, 98.41728
320.4181, 97.82887
320.9002, 97.43122
321.3824, 97.03226
321.8645, 96.45527
322.3466, 95.95177
322.8287, 95.81379
323.3108, 96.12589
323.7929, 96.67871
324.2751, 97.08958
324.7572, 97.08967
325.2393, 97.49600
325.7214, 98.42326
326.2035, 99.60941
326.6856, 100.9156
327.1678, 102.3051
327.6499, 103.7786
328.1320, 105.3102
328.6141, 106.8237
329.0962, 108.8273
329.5783, 111.5357
330.0605, 114.4562
330.5426, 117.3370
331.0247, 120.2539
331.5068, 123.4209
331.9889, 127.0126
332.4710, 131.0112
332.9532, 135.1265
333.4353, 139.5965
333.9174, 143.9666
334.3995, 148.2363
334.8816, 152.3191
335.3637, 156.0688
335.8459, 159.3814
336.3280, 162.3986
336.8101, 165.4390
337.2922, 168.5004
337.7743, 171.6142
338.2564, 174.7439
338.7386, 177.9570
339.2206, 181.2949
339.7028, 184.7851
340.1849, 188.3993
340.6670, 192.0880
341.1491, 195.7652
341.6312, 199.7273
342.1133, 204.3286
342.5955, 208.8625
343.0776, 212.8155
343.5597, 216.2680
344.0418, 219.7330
344.5239, 223.7211
345.0060, 228.2701
345.4882, 232.6736
345.9703, 236.7660
346.4524, 240.8709
346.9345, 245.0424
347.4166, 249.2927
347.8987, 253.7275
348.3809, 258.4772
348.8630, 263.3065
349.3451, 267.1486
349.8272, 269.7308
350.3093, 271.6829
350.7914, 273.6390
351.2736, 274.8911
351.7557, 274.6852
352.2378, 272.7668
352.7199, 269.5023
353.2020, 265.4818
353.6841, 260.7231
354.1663, 255.1087
354.6484, 247.7208
355.1305, 240.1820
355.6126, 233.2599
356.0947, 227.1122
356.5768, 221.6979
357.0590, 217.0300
357.5411, 213.1446
358.0232, 209.7014
358.5053, 206.5272
358.9874, 204.0965
359.4695, 202.6685
359.9517, 202.0901
360.4338, 202.0754
360.9159, 202.5325
361.3980, 203.3875
361.8801, 204.4060
362.3622, 205.5090
362.8444, 206.9600
363.3265, 209.0114
363.8086, 211.3549
364.2907, 213.6583
364.7728, 215.8092
365.2549, 218.0308
365.7371, 220.7180
366.2192, 223.9567
366.7013, 226.9630
367.1834, 229.4721
367.6655, 231.7380
368.1476, 233.9356
368.6298, 236.0827
369.1119, 238.1208
369.5940, 240.0841
370.0761, 241.9251
370.5582, 243.3657
371.0403, 244.2882
371.5225, 244.9664
372.0046, 245.5133
372.4867, 245.9749
372.9688, 246.4702
373.4509, 247.1987
373.9330, 247.8881
374.4152, 248.0597
374.8973, 247.6573
375.3794, 247.1968
375.8615, 246.8702
376.3436, 246.6710
376.8257, 246.5903
377.3079, 246.6544
377.7900, 246.7674
378.2721, 247.0050
378.7542, 247.2753
379.2363, 247.1443
379.7184, 246.3942
380.2006, 245.3502
380.6827, 244.5033
381.1648, 243.8672
381.6469, 242.8777
382.1290, 241.1779
382.6111, 239.0842
383.0933, 237.1155
383.5754, 235.3400
384.0575, 233.3306
384.5396, 230.6713
385.0217, 227.4078
385.5038, 224.0825
385.9860, 220.7296
386.4681, 217.3196
386.9502, 213.9468
387.4323, 210.5373
387.9144, 206.7654
388.3965, 202.4580
388.8787, 197.7541
389.3608, 192.9761
389.8429, 187.9809
390.3250, 183.1597
390.8071, 178.5379
391.2892, 174.1531
391.7714, 170.1813
392.2535, 166.6456
392.7356, 163.1039
393.2177, 159.0101
393.6998, 154.1620
394.1819, 149.7577
394.6641, 145.7847
395.1462, 142.1982
395.6283, 139.0182
396.1104, 136.2252
396.5925, 133.8501
397.0746, 131.9248
397.5568, 130.3915
398.0389, 128.8584
398.5210, 127.1853
399.0031, 125.7012
399.4852, 124.4961
399.9673, 123.4711
400.4495, 122.4938
400.9316, 121.5310
401.4137, 120.6641
401.8958, 120.0254
402.3779, 119.6737
402.8600, 119.4047
403.3422, 119.3459
403.8243, 119.2429
404.3064, 118.9420
404.7885, 118.4750
405.2706, 117.9718
405.7527, 117.5338
406.2349, 117.1478
406.7170, 116.7156
407.1991, 116.0578
407.6812, 115.6307
408.1633, 115.6557
408.6454, 115.8928
409.1276, 116.0649
409.6097, 116.0702
410.0918, 116.0481
410.5739, 116.2681
411.0560, 116.8186
411.5381, 117.1290
412.0203, 116.7697
412.5024, 116.4326
412.9845, 116.5065
413.4666, 116.9750
413.9487, 117.6187
414.4308, 118.3992
414.9130, 119.2460
415.3951, 119.8393
415.8772, 120.0400
416.3593, 120.3293
416.8414, 121.1175
417.3235, 122.1145
417.8057, 122.9203
418.2878, 123.3779
418.7699, 123.7434
419.2520, 124.1823
419.7341, 124.7111
420.2162, 125.5663
420.6984, 127.0535
421.1805, 128.5794
421.6626, 129.2719
422.1447, 129.1381
422.6268, 129.1399
423.1089, 129.8321
423.5911, 130.7678
424.0732, 131.3167
424.5553, 131.4071
425.0374, 131.3737
425.5195, 131.4568
426.0016, 131.6314
426.4838, 131.7196
426.9659, 131.7372
427.4480, 131.6563
427.9301, 131.4314
428.4122, 131.1013
428.8943, 130.7279
429.3765, 130.3265
429.8586, 129.9417
430.3407, 129.6339
430.8228, 129.3138
431.3049, 129.3241
431.7870, 130.0674
432.2692, 130.8437
432.7513, 131.0860
433.2334, 130.8258
433.7155, 130.4787
434.1976, 130.3698
434.6797, 130.4857
435.1619, 130.6349
435.6440, 131.0531
436.1261, 131.2243
436.6082, 130.8191
437.0903, 130.2230
437.5724, 129.8696
438.0546, 129.9127
438.5367, 130.2105
439.0188, 130.5567
439.5009, 130.9543
439.9830, 131.3876
440.4651, 131.6690
440.9473, 132.1596
441.4294, 133.0538
441.9115, 134.3075
442.3936, 135.7603
442.8757, 137.2901
443.3578, 138.9463
443.8400, 140.8477
444.3221, 143.0190
444.8042, 145.4036
445.2863, 148.1380
445.7684, 150.9999
446.2505, 153.7417
446.7327, 156.3017
447.2148, 158.8897
447.6969, 161.6565
448.1790, 164.5876
448.6611, 167.6884
449.1432, 171.0633
449.6254, 174.3829
450.1075, 177.1891
450.5896, 179.6703
451.0717, 182.4700
451.5538, 185.9634
452.0359, 189.6941
452.5181, 193.2087
453.0002, 196.5414
453.4823, 199.9113
453.9644, 203.4418
454.4465, 207.0373
454.9286, 210.4641
455.4108, 213.6186
455.8929, 216.8934
456.3750, 220.5543
456.8571, 224.2798
457.3392, 227.7134
457.8214, 230.8127
458.3035, 233.7856
458.7856, 236.7483
459.2677, 239.7003
459.7498, 243.3736
460.2319, 248.7800
460.7141, 253.6335
461.1962, 257.1779
461.6783, 259.8187
462.1604, 262.1069
462.6425, 264.2607
463.1246, 266.1750
463.6068, 267.7141
464.0889, 268.9980
464.5710, 269.5324
465.0531, 269.3207
465.5352, 268.4166
466.0173, 266.5702
466.4995, 264.0272
466.9816, 261.3223
467.4637, 258.7536
467.9458, 256.3234
468.4279, 254.0678
468.9100, 252.0916
469.3922, 249.9957
469.8743, 247.5702
470.3564, 245.0176
470.8385, 242.5610
471.3206, 240.2257
471.8027, 237.7021
472.2849, 234.5877
472.7670, 231.0556
473.2491, 227.8341
473.7312, 225.0427
474.2133, 222.3979
474.6954, 219.6836
475.1776, 216.9605
475.6597, 214.4125
476.1418, 212.0957
476.6239, 209.9443
477.1060, 207.8598
477.5881, 205.9088
478.0703, 204.2930
478.5524, 203.1384
479.0345, 202.1782
479.5166, 201.0326
479.9987, 199.6330
480.4808, 198.3602
480.9630, 197.1952
481.4451, 196.2010
481.9272, 195.4391
482.4093, 194.8943
482.8914, 194.5374
483.3735, 194.3665
483.8557, 194.3184
484.3378, 194.1541
484.8199, 193.5180
485.3020, 193.2941
485.7841, 193.7270
486.2662, 194.4120
486.7484, 195.0802
487.2305, 195.6775
487.7126, 196.2250
488.1947, 196.6515
488.6768, 197.0024
489.1589, 198.0473
489.6411, 200.3642
490.1232, 202.4688
490.6053, 203.5908
491.0874, 204.4227
491.5695, 205.8227
492.0516, 208.0595
492.5338, 210.4589
493.0159, 212.2012
493.4980, 213.3935
493.9801, 215.0005
494.4622, 217.3858
494.9443, 219.7768
495.4265, 221.4582
495.9086, 222.6336
496.3907, 223.7991
496.8728, 224.9599
497.3549, 226.2591
497.8370, 227.9062
498.3192, 229.8078
498.8013, 231.6464
499.2834, 233.3212
499.7655, 234.8083
500.2476, 236.0988
500.7297, 237.2430
501.2119, 237.9756
501.6940, 238.0495
502.1761, 237.8923
502.6582, 237.9934
503.1403, 238.1665
503.6224, 237.7330
504.1045, 236.2324
504.5866, 233.9223
505.0688, 231.7542
505.5509, 230.2767
506.0330, 228.0193
506.5151, 224.8029
506.9972, 220.9221
507.4793, 216.4775
507.9615, 211.5526
508.4436, 206.3260
508.9257, 200.9867
509.4078, 195.4549
509.8899, 189.3361
510.3720, 182.1460
510.8542, 175.3965
511.3363, 169.9370
511.8184, 165.0337
512.3005, 159.9944
512.7827, 154.6722
513.2648, 149.3813
513.7469, 144.1149
514.2290, 139.0522
514.7111, 134.7058
515.1932, 131.1971
515.6754, 128.1039
516.1575, 125.0798
516.6396, 122.2224
517.1217, 119.8895
517.6038, 118.3772
518.0859, 117.0744
518.5681, 115.6518
519.0502, 114.2698
519.5323, 113.2653
520.0144, 112.7231
520.4965, 112.3254
520.9786, 111.6379
521.4608, 110.5241
521.9429, 109.9754
522.4250, 110.0979
522.9071, 110.5651
523.3892, 111.4016
523.8713, 112.4660
524.3535, 113.5974
524.8356, 114.7210
525.3177, 115.8225
525.7998, 116.7880
526.2819, 117.5117
526.7640, 118.6251
527.2462, 120.4387
527.7283, 122.3721
528.2104, 124.1525
528.6925, 125.8315
529.1746, 127.5389
529.6567, 129.2674
530.1389, 131.1475
530.6210, 133.4241
531.1031, 136.0726
531.5852, 138.6467
532.0673, 140.9690
532.5494, 143.2414
533.0316, 145.7561
533.5137, 148.4802
533.9958, 151.2041
534.4779, 154.0691
534.9600, 156.7611
535.4421, 158.9395
535.9243, 160.7256
536.4064, 162.6116
536.8885, 164.8340
537.3706, 167.2156
537.8527, 169.3498
538.3348, 171.1020
538.8170, 172.9021
539.2991, 174.9104
539.7812, 176.8126
540.2633, 178.4271
540.7454, 179.7872
541.2275, 181.0776
541.7097, 182.4397
542.1918, 183.7094
542.6739, 184.4215
543.1560, 184.4532
543.6381, 184.3315
544.1202, 184.3320
544.6024, 184.0468
545.0845, 183.1888
545.5666, 181.7832
546.0487, 180.0737
546.5308, 178.2111
547.0129, 176.1002
547.4951, 173.4629
547.9772, 170.3115
548.4593, 167.3658
548.9414, 165.1519
549.4235, 163.0496
549.9056, 159.8086
550.3878, 155.2893
550.8699, 150.8922
551.3520, 147.1257
551.8341, 143.4195
552.3162, 139.1865
552.7983, 134.5517
553.2805, 130.0770
553.7626, 126.0659
554.2447, 122.4364
554.7268, 118.9415
555.2089, 115.6788
555.6910, 112.3876
556.1732, 108.8163
556.6553, 105.4124
557.1374, 102.4926
557.6195, 99.97388
558.1016, 97.54110
558.5837, 94.94749
559.0659, 92.35779
559.5480, 90.22032
560.0301, 88.62692
560.5122, 86.97839
560.9943, 85.02706
561.4764, 83.05041
561.9586, 81.30511
562.4407, 79.78881
562.9228, 78.38232
563.4049, 77.02646
563.8870, 75.76895
564.3691, 74.70470
564.8513, 73.80759
565.3334, 72.94530
565.8155, 72.06606
566.2976, 71.16531
566.7797, 70.20207
567.2618, 69.00941
567.7440, 68.18813
568.2261, 68.11729
568.7082, 68.07200
569.1903, 67.56825
569.6724, 66.74823
570.1545, 66.00657
570.6367, 65.55802
571.1188, 65.29581
571.6009, 65.00448
572.0830, 64.66550
572.5651, 64.35655
573.0472, 64.06665
573.5294, 63.83129
574.0115, 63.67648
574.4936, 63.58953
574.9757, 63.54115
575.4578, 63.54699
575.9399, 63.54817
576.4221, 63.43103
576.9042, 63.23006
577.3863, 63.17183
577.8684, 63.36423
578.3505, 63.59127
578.8326, 63.61102
579.3148, 63.40783
579.7969, 63.12550
580.2790, 62.52626
580.7611, 62.10095
581.2432, 62.20033
581.7253, 62.60119
582.2075, 62.95998
582.6896, 63.14843
583.1717, 63.19128
583.6538, 63.06717
584.1359, 62.70831
584.6180, 62.68054
