##NAMES=Carnallite
##RRUFFID=R070291
##IDEAL CHEMISTRY=KMgCl_3_&#183;6H_2_O
##LOCALITY=Leopoldshall, Stassfurt, Stassfurt Deposit, Saxony-Anhalt, Germany
##OWNER=RRUFF
##SOURCE=Michael Scott
##DESCRIPTION=Pink to grey coarse grained, poorly consolidated, melted surface, associated with kainite R100021 and pentahydrite R100022.
##STATUS=The identification of this mineral has been confirmed by single-crystal X-ray diffraction.
##URL=rruff.info/R070291
167.7847, 1787.940
168.2668, 1803.329
168.7490, 1818.270
169.2311, 1834.226
169.7132, 1846.259
170.1953, 1849.397
170.6774, 1847.639
171.1595, 1847.227
171.6417, 1852.233
172.1238, 1859.904
172.6059, 1862.791
173.0880, 1858.326
173.5701, 1854.149
174.0522, 1853.220
174.5344, 1854.747
175.0165, 1857.953
175.4986, 1863.185
175.9807, 1869.418
176.4628, 1874.067
176.9449, 1877.415
177.4271, 1878.362
177.9092, 1873.755
178.3913, 1867.508
178.8734, 1865.226
179.3555, 1870.419
179.8376, 1880.610
180.3197, 1888.760
180.8019, 1894.930
181.2840, 1898.607
181.7661, 1896.192
182.2482, 1892.634
182.7303, 1895.008
183.2124, 1908.093
183.6946, 1927.097
184.1767, 1937.888
184.6588, 1935.791
185.1409, 1933.086
185.6230, 1934.483
186.1051, 1936.764
186.5873, 1934.986
187.0694, 1925.827
187.5515, 1914.233
188.0336, 1914.367
188.5157, 1935.157
188.9978, 1952.592
189.4800, 1959.854
189.9621, 1962.275
190.4442, 1965.669
190.9263, 1972.691
191.4084, 1981.086
191.8905, 1985.195
192.3727, 1982.660
192.8548, 1979.766
193.3369, 1977.733
193.8190, 1975.871
194.3011, 1973.143
194.7832, 1969.108
195.2654, 1964.952
195.7475, 1962.873
196.2296, 1961.471
196.7117, 1965.375
197.1938, 1981.909
197.6759, 1999.461
198.1581, 2005.979
198.6402, 1997.726
199.1223, 1983.498
199.6044, 1980.125
200.0865, 1994.054
200.5686, 2006.472
201.0508, 2014.152
201.5329, 2020.911
202.0150, 2031.249
202.4971, 2045.945
202.9792, 2059.622
203.4613, 2063.312
203.9435, 2053.383
204.4256, 2040.989
204.9077, 2018.467
205.3898, 1999.552
205.8719, 1996.769
206.3540, 2011.135
206.8362, 2030.628
207.3183, 2039.040
207.8004, 2033.021
208.2825, 2023.583
208.7646, 1998.970
209.2467, 1980.268
209.7289, 1986.641
210.2110, 2016.350
210.6931, 2047.460
211.1752, 2051.685
211.6573, 2017.856
212.1395, 1998.219
212.6216, 2005.949
213.1037, 2015.642
213.5858, 2011.598
214.0679, 1996.113
214.5500, 1984.193
215.0322, 1992.785
215.5143, 2026.473
215.9964, 2049.982
216.4785, 2058.972
216.9606, 2062.114
217.4427, 2059.852
217.9249, 2054.025
218.4070, 2047.910
218.8891, 2044.116
219.3712, 2042.679
219.8533, 2042.313
220.3354, 2043.682
220.8176, 2045.555
221.2997, 2047.179
221.7818, 2049.071
222.2639, 2052.430
222.7460, 2058.292
223.2281, 2066.386
223.7103, 2073.325
224.1924, 2080.767
224.6745, 2084.904
225.1566, 2084.587
225.6387, 2080.591
226.1208, 2073.103
226.6030, 2061.593
227.0851, 2048.181
227.5672, 2041.943
228.0493, 2047.473
228.5314, 2054.685
229.0135, 2063.664
229.4957, 2072.592
229.9778, 2079.390
230.4599, 2083.087
230.9420, 2084.634
231.4241, 2086.371
231.9062, 2088.676
232.3884, 2090.478
232.8705, 2092.858
233.3526, 2094.135
233.8347, 2092.131
234.3168, 2086.260
234.7989, 2079.005
235.2811, 2074.391
235.7632, 2072.343
236.2453, 2073.387
236.7274, 2079.784
237.2095, 2087.321
237.6916, 2094.279
238.1738, 2099.881
238.6559, 2102.889
239.1380, 2100.809
239.6201, 2091.603
240.1022, 2084.861
240.5843, 2082.041
241.0665, 2080.831
241.5486, 2081.448
242.0307, 2083.139
242.5128, 2083.575
242.9949, 2079.562
243.4770, 2070.455
243.9592, 2064.610
244.4413, 2064.225
244.9234, 2065.287
245.4055, 2067.149
245.8876, 2069.325
246.3697, 2070.895
246.8519, 2070.639
247.3340, 2069.002
247.8161, 2070.304
248.2982, 2078.195
248.7803, 2084.111
249.2624, 2083.482
249.7446, 2079.384
250.2267, 2077.172
250.7088, 2080.543
251.1909, 2086.737
251.6730, 2086.689
252.1551, 2075.161
252.6373, 2068.218
253.1194, 2076.160
253.6015, 2088.724
254.0836, 2094.141
254.5657, 2087.278
255.0478, 2075.254
255.5300, 2069.283
256.0121, 2070.624
256.4942, 2073.370
256.9763, 2076.793
257.4584, 2080.481
257.9406, 2083.913
258.4227, 2086.941
258.9048, 2090.693
259.3869, 2098.106
259.8690, 2109.567
260.3511, 2115.566
260.8333, 2111.039
261.3154, 2103.055
261.7975, 2095.028
262.2796, 2087.526
262.7617, 2083.500
263.2438, 2083.946
263.7260, 2071.726
264.2081, 2092.833
264.6902, 2104.680
265.1723, 2107.764
265.6544, 2075.843
266.1365, 2089.124
266.6187, 2084.290
267.1008, 2078.713
267.5829, 2098.357
268.0650, 2071.527
268.5471, 2090.771
269.0292, 2091.623
269.5114, 2100.892
269.9935, 2091.934
270.4756, 2088.606
270.9577, 2103.511
271.4398, 2088.299
271.9219, 2093.206
272.4041, 2103.623
272.8862, 2110.365
273.3683, 2105.455
273.8504, 2095.570
274.3325, 2094.602
274.8146, 2109.565
275.2968, 2121.833
275.7789, 2111.944
276.2610, 2086.729
276.7431, 2076.504
277.2252, 2097.658
277.7073, 2130.923
278.1895, 2143.607
278.6716, 2133.204
279.1537, 2120.163
279.6358, 2109.706
280.1179, 2101.821
280.6000, 2095.817
281.0822, 2091.139
281.5643, 2090.797
282.0464, 2101.443
282.5285, 2124.522
283.0106, 2139.299
283.4927, 2137.066
283.9749, 2129.576
284.4570, 2127.662
284.9391, 2131.999
285.4212, 2136.654
285.9033, 2136.626
286.3854, 2131.969
286.8676, 2129.198
287.3497, 2130.621
287.8318, 2131.516
288.3139, 2128.561
288.7960, 2123.104
289.2781, 2118.693
289.7603, 2117.156
290.2424, 2118.356
290.7245, 2121.923
291.2066, 2134.002
291.6887, 2140.763
292.1708, 2138.527
292.6530, 2130.401
293.1351, 2117.551
293.6172, 2100.663
294.0993, 2085.877
294.5814, 2085.144
295.0635, 2113.293
295.5457, 2127.213
296.0278, 2116.281
296.5099, 2099.868
296.9920, 2091.121
297.4741, 2091.583
297.9562, 2095.477
298.4384, 2096.853
298.9205, 2095.143
299.4026, 2094.896
299.8847, 2100.044
300.3668, 2102.706
300.8489, 2096.342
301.3311, 2085.370
301.8131, 2079.827
302.2953, 2087.386
302.7774, 2104.528
303.2595, 2112.665
303.7416, 2103.263
304.2237, 2097.230
304.7058, 2102.150
305.1880, 2110.856
305.6701, 2115.317
306.1522, 2112.484
306.6343, 2106.198
307.1164, 2102.695
307.5985, 2102.721
308.0807, 2102.810
308.5628, 2103.057
309.0449, 2102.684
309.5270, 2099.835
310.0091, 2094.862
310.4912, 2092.032
310.9734, 2096.236
311.4555, 2106.770
311.9376, 2116.072
312.4197, 2124.357
312.9018, 2130.053
313.3839, 2134.337
313.8661, 2135.904
314.3482, 2130.724
314.8303, 2109.165
315.3124, 2083.172
315.7945, 2076.543
316.2766, 2092.542
316.7588, 2108.815
317.2409, 2113.101
317.7230, 2109.973
318.2051, 2106.610
318.6872, 2102.740
319.1693, 2100.685
319.6515, 2104.307
320.1336, 2111.946
320.6157, 2116.111
321.0978, 2113.908
321.5799, 2107.655
322.0620, 2098.651
322.5442, 2084.881
323.0263, 2079.358
323.5084, 2092.672
323.9905, 2113.340
324.4726, 2127.985
324.9547, 2134.373
325.4369, 2132.683
325.9190, 2120.077
326.4011, 2095.021
326.8832, 2083.825
327.3653, 2100.477
327.8474, 2117.553
328.3296, 2118.290
328.8117, 2106.187
329.2938, 2093.511
329.7759, 2087.097
330.2580, 2086.165
330.7401, 2087.424
331.2223, 2094.374
331.7044, 2099.185
332.1865, 2098.433
332.6686, 2096.355
333.1507, 2098.547
333.6328, 2106.372
334.1150, 2115.288
334.5971, 2118.336
335.0792, 2113.161
335.5613, 2108.287
336.0434, 2103.626
336.5255, 2099.309
337.0077, 2094.820
337.4898, 2090.650
337.9719, 2087.862
338.4540, 2086.776
338.9361, 2087.761
339.4182, 2094.883
339.9004, 2114.437
340.3825, 2130.721
340.8646, 2138.900
341.3467, 2141.750
341.8288, 2143.099
342.3109, 2144.669
342.7931, 2143.950
343.2752, 2134.953
343.7573, 2115.747
344.2394, 2102.263
344.7215, 2104.643
345.2036, 2109.032
345.6858, 2102.159
346.1679, 2083.800
346.6500, 2068.515
347.1321, 2067.854
347.6142, 2077.227
348.0963, 2083.828
348.5785, 2085.757
349.0606, 2087.007
349.5427, 2090.891
350.0248, 2096.644
350.5069, 2102.066
350.9890, 2108.440
351.4712, 2113.048
351.9533, 2112.910
352.4354, 2108.712
352.9175, 2104.353
353.3996, 2102.216
353.8817, 2100.409
354.3639, 2093.008
354.8460, 2076.217
355.3281, 2063.030
355.8102, 2059.833
356.2923, 2060.188
356.7744, 2053.929
357.2566, 2039.599
357.7387, 2028.743
358.2208, 2035.970
358.7029, 2066.847
359.1850, 2084.538
359.6671, 2086.194
360.1493, 2079.734
360.6314, 2062.815
361.1135, 2040.773
361.5956, 2023.770
362.0777, 2018.029
362.5598, 2020.644
363.0420, 2020.633
363.5241, 2013.282
364.0062, 2011.161
364.4883, 2023.339
364.9704, 2036.063
365.4525, 2036.258
365.9347, 2021.848
366.4168, 2002.891
366.8989, 1989.904
367.3810, 1982.990
367.8631, 1978.862
368.3452, 1978.765
368.8274, 1980.001
369.3095, 1983.354
369.7916, 1986.913
370.2737, 1986.083
370.7558, 1977.098
371.2379, 1963.831
371.7201, 1950.484
372.2022, 1936.207
372.6843, 1930.790
373.1664, 1945.258
373.6485, 1966.995
374.1306, 1975.945
374.6128, 1968.147
375.0949, 1959.724
375.5770, 1960.521
376.0591, 1966.346
376.5412, 1968.367
377.0233, 1964.453
377.5055, 1959.427
377.9876, 1958.834
378.4697, 1963.311
378.9518, 1963.660
379.4339, 1956.890
379.9160, 1948.561
380.3982, 1940.923
380.8803, 1934.406
381.3624, 1929.843
381.8445, 1927.843
382.3266, 1927.525
382.8087, 1926.062
383.2909, 1915.275
383.7730, 1914.790
384.2551, 1939.977
384.7372, 1965.760
385.2193, 1967.348
385.7014, 1943.593
386.1836, 1916.126
386.6657, 1909.090
387.1478, 1924.035
387.6299, 1929.851
388.1120, 1917.315
388.5941, 1905.991
389.0763, 1903.537
389.5584, 1906.133
390.0405, 1907.589
390.5226, 1905.188
391.0047, 1900.762
391.4868, 1896.820
391.9690, 1893.327
392.4511, 1890.773
392.9332, 1889.336
393.4153, 1888.959
393.8974, 1891.088
394.3795, 1895.601
394.8617, 1896.003
395.3438, 1885.210
395.8259, 1869.625
396.3080, 1859.017
396.7901, 1854.209
397.2722, 1855.513
397.7544, 1866.484
398.2365, 1883.926
398.7186, 1891.533
399.2007, 1880.704
399.6828, 1869.867
400.1649, 1867.653
400.6471, 1869.761
401.1292, 1867.014
401.6113, 1856.331
402.0934, 1846.790
402.5755, 1853.412
403.0576, 1886.855
403.5398, 1903.316
404.0219, 1892.591
404.5040, 1877.030
404.9861, 1865.763
405.4682, 1859.336
405.9503, 1856.184
406.4325, 1855.645
406.9146, 1856.862
407.3967, 1856.759
407.8788, 1854.655
408.3609, 1852.606
408.8430, 1850.113
409.3252, 1848.392
409.8073, 1848.886
410.2894, 1851.663
410.7715, 1854.680
411.2536, 1857.257
411.7357, 1858.892
412.2179, 1856.118
412.7000, 1846.962
413.1821, 1837.617
413.6642, 1830.696
414.1463, 1826.765
414.6284, 1828.126
415.1106, 1837.701
415.5927, 1849.630
416.0748, 1861.577
416.5569, 1872.632
417.0390, 1880.051
417.5211, 1882.987
418.0033, 1881.396
418.4854, 1874.103
418.9675, 1858.050
419.4496, 1846.992
419.9317, 1843.833
420.4138, 1843.892
420.8960, 1845.662
421.3781, 1848.010
421.8602, 1848.717
422.3423, 1846.223
422.8244, 1841.244
423.3065, 1836.742
423.7887, 1831.201
424.2708, 1828.720
424.7529, 1833.105
425.2350, 1838.152
425.7171, 1836.761
426.1992, 1829.035
426.6814, 1823.524
427.1635, 1833.805
427.6456, 1857.355
428.1277, 1860.175
428.6098, 1829.768
429.0919, 1802.637
429.5741, 1803.304
430.0562, 1817.554
430.5383, 1824.075
431.0204, 1814.736
431.5025, 1803.506
431.9846, 1803.002
432.4668, 1810.396
432.9489, 1815.777
433.4310, 1816.698
433.9131, 1814.641
434.3952, 1810.521
434.8773, 1804.020
435.3595, 1799.312
435.8416, 1796.701
436.3237, 1795.895
436.8058, 1798.474
437.2879, 1802.729
437.7701, 1804.577
438.2522, 1801.858
438.7343, 1786.338
439.2164, 1796.678
439.6985, 1802.001
440.1806, 1802.578
440.6628, 1784.193
441.1449, 1790.294
441.6270, 1786.582
442.1091, 1782.468
442.5912, 1792.015
443.0733, 1776.388
443.5555, 1785.718
444.0376, 1785.086
444.5197, 1789.013
445.0018, 1783.067
445.4839, 1780.171
445.9660, 1787.151
446.4482, 1788.662
446.9303, 1781.580
447.4124, 1785.797
447.8945, 1769.825
448.3766, 1771.570
448.8587, 1780.957
449.3409, 1774.371
449.8230, 1778.769
450.3051, 1778.983
450.7872, 1760.187
451.2693, 1775.898
451.7514, 1789.952
452.2336, 1796.007
452.7157, 1781.287
453.1978, 1758.679
453.6799, 1746.750
454.1620, 1750.607
454.6441, 1761.552
455.1263, 1769.118
455.6084, 1773.428
456.0905, 1773.624
456.5726, 1765.449
457.0547, 1757.353
457.5368, 1751.587
458.0190, 1747.647
458.5011, 1744.232
458.9832, 1740.609
459.4653, 1738.222
459.9474, 1741.097
460.4295, 1749.385
460.9117, 1751.531
461.3938, 1742.590
461.8759, 1730.537
462.3580, 1718.887
462.8401, 1708.877
463.3222, 1708.756
463.8044, 1731.989
464.2865, 1757.239
464.7686, 1763.436
465.2507, 1754.383
465.7328, 1746.494
466.2149, 1747.097
466.6971, 1751.794
467.1792, 1751.835
467.6613, 1742.848
468.1434, 1738.512
468.6255, 1745.535
469.1076, 1751.315
469.5898, 1744.814
470.0719, 1729.869
470.5540, 1718.986
471.0361, 1720.495
471.5182, 1730.054
472.0003, 1735.276
472.4825, 1735.429
472.9646, 1733.115
473.4467, 1726.799
473.9288, 1719.598
474.4109, 1712.323
474.8930, 1705.517
475.3752, 1701.759
475.8573, 1704.542
476.3394, 1710.510
476.8215, 1714.700
477.3036, 1716.982
477.7857, 1716.058
478.2679, 1710.243
478.7500, 1701.653
479.2321, 1695.186
479.7142, 1690.653
480.1963, 1688.241
480.6784, 1689.625
481.1606, 1692.052
481.6427, 1692.278
482.1248, 1690.682
482.6069, 1690.978
483.0890, 1696.497
483.5711, 1705.635
484.0533, 1709.262
484.5354, 1702.930
485.0175, 1698.289
485.4996, 1699.105
485.9817, 1700.593
486.4638, 1697.580
486.9460, 1690.270
487.4281, 1684.989
487.9102, 1689.677
488.3923, 1700.057
488.8744, 1701.419
489.3565, 1691.716
489.8387, 1684.611
490.3208, 1690.091
490.8029, 1700.855
491.2850, 1700.906
491.7671, 1685.583
492.2492, 1673.213
492.7314, 1672.004
493.2135, 1675.893
493.6956, 1678.733
494.1777, 1679.651
494.6598, 1679.750
495.1419, 1679.748
495.6241, 1679.719
496.1062, 1680.188
496.5883, 1681.975
497.0704, 1683.089
497.5525, 1682.152
498.0346, 1681.310
498.5168, 1683.571
498.9989, 1688.489
499.4810, 1691.513
499.9631, 1688.410
500.4452, 1680.426
500.9273, 1671.168
501.4095, 1659.380
501.8916, 1651.956
502.3737, 1655.800
502.8558, 1663.459
503.3379, 1660.993
503.8200, 1643.764
504.3022, 1635.210
504.7843, 1655.935
505.2664, 1683.185
505.7485, 1687.228
506.2306, 1668.518
506.7127, 1649.390
507.1949, 1644.690
507.6770, 1651.479
508.1591, 1657.123
508.6412, 1664.399
509.1233, 1666.091
509.6054, 1654.149
510.0876, 1642.658
510.5697, 1645.420
511.0518, 1660.047
511.5339, 1671.030
512.0161, 1665.899
512.4982, 1649.997
512.9803, 1636.475
513.4624, 1624.934
513.9445, 1619.128
514.4266, 1623.374
514.9088, 1631.588
515.3909, 1635.349
515.8730, 1634.238
516.3551, 1634.383
516.8372, 1640.012
517.3193, 1645.964
517.8015, 1647.978
518.2836, 1645.965
518.7657, 1640.027
519.2478, 1629.608
519.7299, 1618.139
520.2120, 1614.172
520.6942, 1623.022
521.1763, 1629.333
521.6584, 1632.481
522.1405, 1633.997
522.6226, 1633.574
523.1047, 1632.217
523.5869, 1632.501
524.0690, 1636.795
524.5511, 1641.145
525.0332, 1637.771
525.5153, 1626.734
525.9974, 1617.820
526.4796, 1613.654
526.9617, 1611.787
527.4438, 1610.011
527.9259, 1608.338
528.4080, 1607.107
528.8901, 1606.350
529.3723, 1606.067
529.8544, 1607.630
530.3365, 1609.411
530.8186, 1606.571
531.3007, 1597.708
531.7828, 1590.101
532.2650, 1595.697
532.7471, 1618.688
533.2292, 1628.717
533.7113, 1613.977
534.1934, 1599.376
534.6755, 1591.512
535.1577, 1588.641
535.6398, 1588.047
536.1219, 1588.958
536.6040, 1592.070
537.0861, 1601.977
537.5682, 1614.748
538.0504, 1615.534
538.5325, 1601.227
539.0146, 1585.431
539.4967, 1577.071
539.9788, 1575.284
540.4609, 1575.550
540.9431, 1579.781
541.4252, 1583.209
541.9073, 1586.277
542.3894, 1587.220
542.8715, 1581.971
543.3536, 1571.885
543.8358, 1564.726
544.3179, 1567.499
544.8000, 1577.368
545.2821, 1581.492
545.7642, 1577.606
546.2463, 1574.208
546.7285, 1575.443
547.2106, 1576.386
547.6927, 1570.095
548.1748, 1557.740
548.6569, 1553.135
549.1390, 1569.219
549.6211, 1591.219
550.1032, 1605.538
550.5853, 1611.843
551.0674, 1608.842
551.5496, 1595.014
552.0317, 1576.638
552.5138, 1563.654
552.9959, 1557.123
553.4780, 1552.512
553.9601, 1549.846
554.4423, 1548.746
554.9244, 1550.425
555.4065, 1553.144
555.8886, 1553.828
556.3707, 1551.275
556.8528, 1548.681
557.3350, 1551.181
557.8171, 1557.814
558.2992, 1560.251
558.7813, 1556.717
559.2634, 1552.148
559.7455, 1549.252
560.2277, 1547.898
560.7098, 1547.364
561.1919, 1547.714
561.6740, 1548.752
562.1561, 1553.157
562.6382, 1556.550
563.1204, 1552.128
563.6025, 1540.948
564.0846, 1531.680
564.5667, 1530.984
565.0488, 1536.385
565.5309, 1537.481
566.0131, 1530.984
566.4952, 1528.504
566.9773, 1536.569
567.4594, 1545.659
567.9415, 1550.451
568.4236, 1551.011
568.9058, 1549.194
569.3879, 1544.076
569.8700, 1538.441
570.3521, 1535.012
570.8342, 1533.416
571.3163, 1532.036
571.7985, 1530.244
572.2806, 1530.118
572.7627, 1534.963
573.2448, 1545.921
573.7269, 1551.090
574.2090, 1545.944
574.6912, 1540.780
575.1733, 1538.693
575.6554, 1537.638
576.1375, 1534.675
576.6196, 1529.372
577.1017, 1524.692
577.5839, 1524.271
578.0660, 1526.609
578.5481, 1525.999
579.0302, 1521.877
579.5123, 1519.387
579.9944, 1521.996
580.4766, 1526.617
580.9587, 1526.677
581.4408, 1520.766
581.9229, 1517.082
582.4050, 1518.261
582.8871, 1520.642
583.3693, 1521.190
583.8514, 1521.072
584.3335, 1524.131
584.8156, 1532.158
585.2977, 1540.634
585.7798, 1542.016
586.2620, 1535.740
586.7441, 1528.859
587.2262, 1521.923
587.7083, 1513.922
588.1904, 1500.325
588.6725, 1486.299
589.1547, 1481.909
589.6368, 1492.862
590.1189, 1501.761
590.6010, 1495.041
591.0831, 1484.377
591.5652, 1487.738
592.0474, 1504.018
592.5295, 1516.444
593.0116, 1513.428
593.4937, 1499.989
593.9758, 1492.107
594.4579, 1494.369
594.9401, 1491.360
595.4222, 1474.332
595.9043, 1458.622
596.3864, 1451.593
596.8685, 1452.074
597.3506, 1456.582
597.8328, 1465.360
598.3149, 1474.763
598.7970, 1480.362
599.2791, 1484.139
599.7612, 1493.706
600.2433, 1510.604
600.7255, 1522.128
601.2076, 1515.819
601.6897, 1494.657
602.1718, 1483.039
602.6539, 1490.421
603.1360, 1494.715
603.6182, 1493.790
604.1003, 1489.638
604.5824, 1480.773
605.0645, 1469.536
605.5466, 1463.801
606.0287, 1470.931
606.5109, 1482.076
606.9930, 1481.309
607.4751, 1470.747
607.9572, 1469.533
608.4393, 1485.214
608.9214, 1499.972
609.4036, 1493.649
609.8857, 1466.125
610.3678, 1450.648
610.8499, 1454.255
611.3320, 1459.780
611.8141, 1466.547
612.2963, 1471.304
612.7784, 1469.750
613.2605, 1462.319
613.7426, 1453.963
614.2247, 1447.467
614.7068, 1443.482
615.1890, 1444.210
615.6711, 1449.818
616.1532, 1457.041
616.6353, 1466.468
617.1174, 1474.404
617.5995, 1475.940
618.0817, 1470.914
618.5638, 1466.557
619.0459, 1462.659
619.5280, 1460.031
620.0101, 1460.767
620.4922, 1462.068
620.9744, 1458.797
621.4565, 1451.044
621.9386, 1445.920
622.4207, 1451.108
622.9028, 1463.494
623.3849, 1471.821
623.8671, 1476.549
624.3492, 1473.162
624.8313, 1452.787
625.3134, 1432.247
625.7955, 1437.049
626.2776, 1465.458
626.7598, 1482.135
627.2419, 1472.250
627.7240, 1460.323
628.2061, 1460.457
628.6882, 1465.627
629.1703, 1463.949
629.6525, 1453.391
630.1346, 1442.450
630.6167, 1440.278
631.0988, 1444.754
631.5809, 1442.306
632.0630, 1429.415
632.5452, 1423.968
633.0273, 1437.760
633.5094, 1455.127
633.9915, 1458.130
634.4736, 1447.530
634.9557, 1436.010
635.4379, 1422.202
635.9200, 1412.193
636.4021, 1413.521
636.8842, 1419.382
637.3663, 1417.225
637.8484, 1405.149
638.3306, 1394.369
638.8127, 1397.090
639.2948, 1410.664
639.7769, 1418.795
640.2590, 1420.453
640.7411, 1420.225
641.2233, 1417.731
641.7054, 1415.474
642.1875, 1418.017
642.6696, 1424.609
643.1517, 1425.075
643.6339, 1409.909
644.1160, 1396.024
644.5981, 1393.482
645.0802, 1397.911
645.5623, 1403.711
646.0444, 1409.037
646.5266, 1412.788
647.0087, 1413.560
647.4908, 1412.104
647.9729, 1412.533
648.4550, 1416.052
648.9371, 1416.120
649.4193, 1406.811
649.9014, 1398.149
650.3835, 1403.514
650.8656, 1420.088
651.3477, 1427.401
651.8298, 1415.591
652.3120, 1401.170
652.7941, 1389.462
653.2762, 1380.892
653.7583, 1376.683
654.2404, 1376.478
654.7225, 1377.605
655.2047, 1377.801
655.6868, 1377.828
656.1689, 1380.536
656.6510, 1386.401
657.1331, 1392.204
657.6152, 1398.088
658.0974, 1402.530
658.5795, 1403.171
659.0616, 1400.901
659.5437, 1399.614
660.0258, 1402.711
660.5079, 1403.043
660.9901, 1394.934
661.4722, 1384.935
661.9543, 1380.782
662.4364, 1382.128
662.9185, 1382.543
