##NAMES=Carnotite
##RRUFFID=R070345
##IDEAL CHEMISTRY=K_2_(U^6+^O_2_)_2_(V^5+^O_4_)_2_&#183;3H_2_O
##LOCALITY=Pick's Delta Mine (Delta Mine; Pick's Mine), Delta, San Rafael District (San Rafael Swell), Emery County, Utah, USA
##OWNER=RRUFF
##SOURCE=Michael Scott
##DESCRIPTION=Lemon-yellow fine-grained massive
##STATUS=The identification of this mineral has been made only by X-ray diffraction.
##URL=rruff.info/R070345
150.1439, 4642.519
150.6261, 4716.465
151.1082, 4787.544
151.5903, 4853.503
152.0724, 4909.603
152.5545, 4970.870
153.0366, 5043.190
153.5188, 5120.926
154.0009, 5192.697
154.4830, 5257.596
154.9651, 5316.409
155.4472, 5369.864
155.9293, 5415.311
156.4115, 5459.235
156.8936, 5503.068
157.3757, 5546.526
157.8578, 5589.293
158.3399, 5635.997
158.8221, 5679.183
159.3042, 5714.442
159.7863, 5734.157
160.2684, 5752.164
160.7505, 5770.003
161.2326, 5788.568
161.7148, 5813.600
162.1969, 5862.413
162.6790, 5913.321
163.1611, 5944.875
163.6432, 5922.359
164.1253, 5901.096
164.6075, 5914.512
165.0896, 5963.948
165.5717, 6015.665
166.0538, 6055.214
166.5359, 6084.425
167.0180, 6106.166
167.5002, 6119.461
167.9823, 6127.345
168.4644, 6131.036
168.9465, 6130.138
169.4286, 6128.415
169.9107, 6124.250
170.3929, 6121.099
170.8750, 6126.159
171.3571, 6153.199
171.8392, 6185.913
172.3213, 6204.939
172.8034, 6204.471
173.2856, 6200.859
173.7677, 6207.329
174.2498, 6222.864
174.7319, 6243.743
175.2140, 6279.768
175.6961, 6317.023
176.1783, 6331.328
176.6604, 6311.167
177.1425, 6279.394
177.6246, 6257.821
178.1067, 6247.046
178.5888, 6249.689
179.0710, 6275.870
179.5531, 6316.854
180.0352, 6353.615
180.5173, 6382.269
180.9994, 6403.515
181.4815, 6414.223
181.9637, 6414.840
182.4458, 6416.423
182.9279, 6428.194
183.4100, 6448.811
183.8921, 6473.919
184.3742, 6506.128
184.8564, 6540.398
185.3385, 6562.819
185.8206, 6572.960
186.3027, 6578.844
186.7848, 6590.514
187.2669, 6606.542
187.7491, 6616.057
188.2312, 6607.221
188.7133, 6588.564
189.1954, 6595.126
189.6775, 6630.365
190.1596, 6675.339
190.6418, 6711.238
191.1239, 6737.837
191.6060, 6754.629
192.0881, 6756.874
192.5702, 6746.644
193.0524, 6741.626
193.5345, 6741.787
194.0166, 6747.207
194.4987, 6763.486
194.9808, 6792.041
195.4629, 6810.075
195.9451, 6799.924
196.4272, 6762.244
196.9093, 6738.776
197.3914, 6732.401
197.8735, 6737.766
198.3556, 6746.817
198.8378, 6760.189
199.3199, 6772.996
199.8020, 6782.925
200.2841, 6789.890
200.7662, 6794.124
201.2483, 6795.691
201.7305, 6794.483
202.2126, 6788.426
202.6947, 6775.456
203.1768, 6765.347
203.6589, 6765.355
204.1410, 6777.088
204.6232, 6787.330
205.1053, 6794.135
205.5874, 6799.049
206.0695, 6807.914
206.5516, 6822.278
207.0337, 6836.521
207.5159, 6844.750
207.9980, 6843.707
208.4801, 6851.744
208.9622, 6872.903
209.4443, 6904.815
209.9264, 6937.341
210.4086, 6972.959
210.8907, 7004.313
211.3728, 7024.199
211.8549, 7029.523
212.3370, 7034.009
212.8191, 7037.533
213.3013, 7041.152
213.7834, 7054.694
214.2655, 7080.245
214.7476, 7112.515
215.2297, 7147.431
215.7118, 7186.589
216.1940, 7225.107
216.6761, 7262.824
217.1582, 7299.741
217.6403, 7330.984
218.1224, 7352.295
218.6045, 7373.128
219.0867, 7403.667
219.5688, 7448.702
220.0509, 7491.816
220.5330, 7529.650
221.0151, 7562.720
221.4972, 7587.610
221.9794, 7596.461
222.4615, 7606.125
222.9436, 7637.313
223.4257, 7703.472
223.9078, 7764.119
224.3899, 7809.205
224.8721, 7838.459
225.3542, 7862.769
225.8363, 7878.255
226.3184, 7892.663
226.8005, 7915.841
227.2827, 7950.867
227.7648, 7988.864
228.2469, 8030.125
228.7290, 8076.411
229.2111, 8110.554
229.6932, 8126.858
230.1754, 8135.240
230.6575, 8150.170
231.1396, 8180.371
231.6217, 8201.071
232.1038, 8201.227
232.5859, 8173.895
233.0681, 8164.749
233.5502, 8183.872
234.0323, 8213.894
234.5144, 8228.628
234.9965, 8216.728
235.4786, 8208.594
235.9608, 8214.882
236.4429, 8239.699
236.9250, 8258.838
237.4071, 8267.934
237.8892, 8273.932
238.3713, 8288.968
238.8535, 8320.879
239.3356, 8348.535
239.8177, 8362.414
240.2998, 8355.216
240.7819, 8363.476
241.2640, 8395.218
241.7462, 8437.871
242.2283, 8468.311
242.7104, 8474.137
243.1925, 8488.249
243.6746, 8523.563
244.1567, 8588.059
244.6389, 8647.025
245.1210, 8697.385
245.6031, 8743.919
246.0852, 8794.206
246.5673, 8847.571
247.0494, 8905.946
247.5316, 8971.754
248.0137, 9049.464
248.4958, 9120.016
248.9779, 9183.193
249.4600, 9238.941
249.9421, 9284.747
250.4243, 9316.472
250.9064, 9346.277
251.3885, 9379.388
251.8706, 9418.966
252.3527, 9452.774
252.8348, 9485.233
253.3170, 9509.255
253.7991, 9507.828
254.2812, 9467.700
254.7633, 9427.721
255.2454, 9406.179
255.7275, 9414.615
256.2097, 9397.257
256.6918, 9342.925
257.1739, 9270.703
257.6560, 9215.586
258.1381, 9183.243
258.6202, 9156.225
259.1024, 9128.437
259.5845, 9100.386
260.0666, 9071.644
260.5487, 9045.922
261.0308, 9016.705
261.5129, 8967.162
261.9951, 8887.566
262.4772, 8811.949
262.9593, 8756.923
263.4414, 8728.222
263.9235, 8688.132
264.4056, 8627.071
264.8878, 8563.127
265.3699, 8530.687
265.8520, 8540.873
266.3341, 8550.054
266.8162, 8540.580
267.2983, 8509.608
267.7805, 8477.922
268.2626, 8444.180
268.7447, 8411.523
269.2268, 8387.761
269.7089, 8376.853
270.1910, 8360.700
270.6732, 8330.117
271.1553, 8283.375
271.6374, 8239.729
272.1195, 8198.699
272.6016, 8161.380
273.0837, 8134.307
273.5659, 8120.844
274.0480, 8099.768
274.5301, 8057.367
275.0122, 7992.564
275.4943, 7944.231
275.9764, 7915.059
276.4586, 7897.298
276.9407, 7882.718
277.4228, 7872.635
277.9049, 7855.961
278.3870, 7822.114
278.8691, 7772.667
279.3513, 7747.221
279.8334, 7751.057
280.3155, 7765.305
280.7976, 7763.404
281.2798, 7744.607
281.7619, 7727.671
282.2440, 7721.657
282.7261, 7724.576
283.2082, 7718.552
283.6903, 7700.711
284.1725, 7684.516
284.6546, 7689.609
285.1367, 7715.165
285.6188, 7740.306
286.1009, 7753.797
286.5830, 7760.521
287.0652, 7785.311
287.5473, 7830.594
288.0294, 7878.073
288.5115, 7903.082
288.9936, 7908.914
289.4757, 7921.694
289.9579, 7951.854
290.4400, 7994.836
290.9221, 8036.935
291.4042, 8077.411
291.8863, 8126.221
292.3684, 8201.700
292.8506, 8296.854
293.3327, 8381.845
293.8148, 8441.894
294.2969, 8489.648
294.7790, 8552.425
295.2611, 8630.542
295.7433, 8710.527
296.2254, 8775.517
296.7075, 8833.739
297.1896, 8905.935
297.6717, 9004.146
298.1538, 9115.961
298.6360, 9223.297
299.1181, 9327.202
299.6002, 9428.446
300.0823, 9529.250
300.5644, 9628.704
301.0465, 9725.004
301.5287, 9812.979
302.0108, 9903.398
302.4929, 10012.84
302.9750, 10138.28
303.4571, 10256.22
303.9392, 10348.71
304.4214, 10425.71
304.9035, 10502.14
305.3856, 10578.54
305.8677, 10657.23
306.3498, 10748.83
306.8319, 10846.00
307.3141, 10924.66
307.7962, 10964.10
308.2783, 10980.00
308.7604, 10987.51
309.2425, 10989.26
309.7246, 10983.33
310.2068, 10966.08
310.6889, 10939.82
311.1710, 10910.54
311.6531, 10895.85
312.1352, 10870.23
312.6173, 10811.42
313.0995, 10707.87
313.5816, 10596.68
314.0637, 10487.81
314.5458, 10383.28
315.0279, 10285.96
315.5100, 10225.62
315.9922, 10151.17
316.4743, 10024.69
316.9564, 9824.811
317.4385, 9643.734
317.9206, 9524.681
318.4027, 9439.727
318.8849, 9349.851
319.3670, 9228.415
319.8491, 9114.512
320.3312, 9026.670
320.8133, 8970.876
321.2954, 8910.854
321.7776, 8833.372
322.2597, 8750.128
322.7418, 8673.591
323.2239, 8600.297
323.7060, 8539.111
324.1881, 8495.631
324.6703, 8471.433
325.1524, 8445.994
325.6345, 8405.313
326.1166, 8369.887
326.5987, 8356.125
327.0808, 8394.918
327.5630, 8418.726
328.0451, 8404.396
328.5272, 8355.440
329.0093, 8350.871
329.4914, 8429.505
329.9735, 8517.262
330.4557, 8563.519
330.9378, 8532.052
331.4199, 8522.108
331.9020, 8543.531
332.3841, 8592.701
332.8662, 8653.827
333.3484, 8732.122
333.8305, 8813.563
334.3126, 8893.372
334.7947, 8974.641
335.2768, 9040.089
335.7589, 9079.764
336.2411, 9108.035
336.7232, 9166.278
337.2053, 9264.245
337.6874, 9362.509
338.1695, 9439.207
338.6516, 9489.324
339.1338, 9557.952
339.6159, 9649.884
340.0980, 9753.151
340.5801, 9844.226
341.0622, 9922.630
341.5443, 10003.59
342.0265, 10097.04
342.5086, 10200.62
342.9907, 10301.13
343.4728, 10397.82
343.9549, 10491.04
344.4370, 10576.76
344.9192, 10655.72
345.4013, 10740.19
345.8834, 10835.15
346.3655, 10937.38
346.8476, 11034.59
347.3297, 11126.25
347.8119, 11217.51
348.2940, 11312.94
348.7761, 11411.40
349.2582, 11506.42
349.7403, 11594.00
350.2225, 11682.06
350.7046, 11779.63
351.1867, 11887.75
351.6688, 12007.64
352.1509, 12142.65
352.6331, 12289.62
353.1152, 12446.00
353.5973, 12617.26
354.0794, 12786.36
354.5615, 12935.06
355.0436, 13068.41
355.5258, 13201.83
356.0079, 13340.24
356.4900, 13484.39
356.9721, 13631.68
357.4542, 13776.75
357.9363, 13941.81
358.4185, 14163.52
358.9006, 14411.09
359.3827, 14631.28
359.8648, 14766.81
360.3469, 14898.54
360.8290, 15073.65
361.3112, 15303.46
361.7933, 15527.92
362.2754, 15725.23
362.7575, 15910.11
363.2396, 16099.33
363.7217, 16321.05
364.2039, 16520.51
364.6860, 16672.39
365.1681, 16776.53
365.6502, 16892.55
366.1323, 17056.70
366.6144, 17218.00
367.0966, 17341.52
367.5787, 17392.40
368.0608, 17445.82
368.5429, 17521.70
369.0250, 17608.77
369.5071, 17647.42
369.9893, 17619.77
370.4714, 17564.85
370.9535, 17501.96
371.4356, 17441.87
371.9177, 17350.49
372.3998, 17223.68
372.8820, 17066.54
373.3641, 16891.56
373.8462, 16699.12
374.3283, 16489.20
374.8104, 16261.22
375.2925, 16011.67
375.7747, 15765.50
376.2568, 15527.15
376.7389, 15279.31
377.2210, 14992.13
377.7031, 14662.01
378.1852, 14346.38
378.6674, 14064.42
379.1495, 13810.41
379.6316, 13544.71
380.1137, 13267.74
380.5958, 12995.45
381.0779, 12752.43
381.5601, 12529.96
382.0422, 12302.12
382.5243, 12052.29
383.0064, 11800.99
383.4885, 11581.95
383.9706, 11391.22
384.4528, 11215.04
384.9349, 11049.26
385.4170, 10888.99
385.8991, 10715.97
386.3812, 10516.62
386.8633, 10334.54
387.3455, 10226.64
387.8276, 10167.88
388.3097, 10099.15
388.7918, 9971.303
389.2739, 9834.864
389.7560, 9731.769
390.2382, 9667.094
390.7203, 9613.193
391.2024, 9554.296
391.6845, 9498.462
392.1666, 9454.294
392.6487, 9435.818
393.1309, 9419.552
393.6130, 9396.762
394.0951, 9367.688
394.5772, 9338.313
395.0593, 9300.831
395.5414, 9269.372
396.0236, 9253.195
396.5057, 9265.452
396.9878, 9278.930
397.4699, 9291.590
397.9520, 9303.766
398.4341, 9316.198
398.9163, 9324.064
399.3984, 9337.223
399.8805, 9360.359
400.3626, 9398.090
400.8447, 9431.602
401.3268, 9456.783
401.8090, 9480.755
402.2911, 9516.218
402.7732, 9569.906
403.2553, 9616.377
403.7374, 9647.084
404.2195, 9662.979
404.7017, 9681.019
405.1838, 9701.290
405.6659, 9723.727
406.1480, 9750.842
406.6301, 9782.949
407.1122, 9806.988
407.5944, 9819.007
408.0765, 9823.313
408.5586, 9833.253
409.0407, 9848.614
409.5228, 9853.813
410.0049, 9834.031
410.4871, 9796.078
410.9692, 9758.918
411.4513, 9724.988
411.9334, 9689.247
412.4155, 9645.371
412.8976, 9594.136
413.3798, 9539.799
413.8619, 9485.048
414.3440, 9426.799
414.8261, 9361.124
415.3082, 9287.631
415.7903, 9208.585
416.2725, 9116.407
416.7546, 9022.300
417.2367, 8937.297
417.7188, 8877.232
418.2009, 8815.694
418.6830, 8735.291
419.1652, 8642.043
419.6473, 8561.193
420.1294, 8505.100
420.6115, 8459.960
421.0937, 8419.192
421.5758, 8388.577
422.0579, 8349.720
422.5400, 8295.663
423.0221, 8232.863
423.5042, 8170.437
423.9864, 8096.582
424.4685, 8037.630
424.9506, 8005.179
425.4327, 8002.969
425.9148, 7983.533
426.3969, 7937.884
426.8791, 7885.294
427.3612, 7842.107
427.8433, 7809.477
428.3254, 7783.310
428.8075, 7764.759
429.2896, 7751.803
429.7718, 7739.585
430.2539, 7729.203
430.7360, 7713.898
431.2181, 7685.148
431.7002, 7644.552
432.1823, 7616.576
432.6645, 7603.962
433.1466, 7598.825
433.6287, 7591.523
434.1108, 7582.577
434.5929, 7574.650
435.0750, 7571.630
435.5572, 7569.171
436.0393, 7557.355
436.5214, 7536.671
437.0035, 7517.436
437.4856, 7509.858
437.9677, 7508.275
438.4499, 7504.692
438.9320, 7495.643
439.4141, 7486.577
439.8962, 7478.747
440.3783, 7473.705
440.8604, 7475.222
441.3426, 7489.332
441.8247, 7507.171
442.3068, 7524.804
442.7889, 7542.480
443.2710, 7556.573
443.7531, 7564.849
444.2353, 7569.506
444.7174, 7573.117
445.1995, 7569.265
445.6816, 7571.747
446.1637, 7584.913
446.6458, 7607.658
447.1280, 7630.180
447.6101, 7653.304
448.0922, 7675.376
448.5743, 7694.881
449.0564, 7710.295
449.5385, 7727.150
450.0207, 7743.759
450.5028, 7763.428
450.9849, 7794.600
451.4670, 7839.617
451.9491, 7883.091
452.4312, 7922.035
452.9134, 7955.179
453.3955, 7968.455
453.8776, 7958.643
454.3597, 7951.561
454.8418, 7976.509
455.3239, 8027.014
455.8061, 8074.665
456.2882, 8111.490
456.7703, 8145.993
457.2524, 8191.219
457.7345, 8245.050
458.2166, 8300.084
458.6988, 8350.912
459.1809, 8400.672
459.6630, 8453.680
460.1451, 8512.046
460.6272, 8565.153
461.1093, 8600.676
461.5915, 8628.580
462.0736, 8660.534
462.5557, 8703.263
463.0378, 8747.946
463.5199, 8789.779
464.0020, 8829.455
464.4842, 8874.219
464.9663, 8937.576
465.4484, 8997.070
465.9305, 9040.885
466.4126, 9062.623
466.8947, 9079.888
467.3769, 9089.713
467.8590, 9096.313
468.3411, 9108.010
468.8232, 9131.712
469.3053, 9146.156
469.7874, 9142.844
470.2696, 9123.049
470.7517, 9111.653
471.2338, 9111.363
471.7159, 9111.229
472.1980, 9097.685
472.6801, 9071.285
473.1623, 9060.355
473.6444, 9073.847
474.1265, 9094.533
474.6086, 9093.270
475.0907, 9072.066
475.5728, 9043.940
476.0550, 9008.985
476.5371, 8973.726
477.0192, 8952.924
477.5013, 8947.187
477.9834, 8938.359
478.4655, 8909.154
478.9477, 8869.344
479.4298, 8831.984
479.9119, 8800.412
480.3940, 8772.260
480.8761, 8750.809
481.3582, 8732.580
481.8404, 8707.789
482.3225, 8671.485
482.8046, 8629.351
483.2867, 8581.192
483.7688, 8522.418
484.2509, 8473.655
484.7331, 8441.595
485.2152, 8417.990
485.6973, 8394.279
486.1794, 8365.582
486.6615, 8345.738
487.1436, 8340.990
487.6258, 8346.688
488.1079, 8340.154
488.5900, 8318.722
489.0721, 8292.432
489.5542, 8264.569
490.0363, 8234.937
490.5185, 8212.478
491.0006, 8198.670
491.4827, 8188.518
491.9648, 8173.150
492.4470, 8154.670
492.9291, 8145.523
493.4112, 8153.824
493.8933, 8170.587
494.3754, 8183.871
494.8575, 8193.786
495.3397, 8200.248
495.8218, 8195.186
496.3039, 8190.655
496.7860, 8202.080
497.2681, 8236.017
497.7502, 8269.305
498.2324, 8290.504
498.7145, 8303.563
499.1966, 8314.256
499.6787, 8314.099
500.1608, 8321.906
500.6429, 8350.806
501.1251, 8398.666
501.6072, 8430.550
502.0893, 8421.948
502.5714, 8416.838
503.0535, 8436.700
503.5356, 8492.546
504.0178, 8547.256
504.4999, 8601.216
504.9820, 8653.211
505.4641, 8703.367
505.9462, 8752.588
506.4283, 8792.896
506.9105, 8813.448
507.3926, 8824.952
507.8747, 8873.958
508.3568, 8962.193
508.8389, 9060.944
509.3210, 9157.006
509.8032, 9248.371
510.2853, 9329.770
510.7674, 9399.535
511.2495, 9463.652
511.7316, 9526.398
512.2137, 9588.371
512.6959, 9649.759
513.1780, 9700.716
513.6601, 9760.061
514.1422, 9845.008
514.6243, 9952.208
515.1064, 10058.21
515.5886, 10148.99
516.0707, 10239.54
516.5528, 10339.84
517.0349, 10463.67
517.5170, 10572.90
517.9991, 10651.51
518.4813, 10717.67
518.9634, 10793.36
519.4455, 10881.39
519.9276, 10974.59
520.4097, 11075.25
520.8918, 11179.80
521.3740, 11272.54
521.8561, 11347.51
522.3382, 11430.36
522.8203, 11549.88
523.3024, 11701.28
523.7845, 11815.38
524.2667, 11884.09
524.7488, 11933.85
525.2309, 11994.66
525.7130, 12065.20
526.1951, 12140.24
526.6772, 12226.83
527.1594, 12309.68
527.6415, 12368.32
528.1236, 12405.81
528.6057, 12436.94
529.0878, 12476.32
529.5699, 12508.01
530.0521, 12517.96
530.5342, 12501.41
531.0163, 12477.47
531.4984, 12444.12
531.9805, 12409.78
532.4626, 12383.30
532.9448, 12393.72
533.4269, 12378.30
533.9090, 12326.14
534.3911, 12242.67
534.8732, 12147.96
535.3553, 12028.98
535.8375, 11921.48
536.3196, 11851.23
536.8017, 11820.80
537.2838, 11749.63
537.7659, 11629.30
538.2480, 11493.71
538.7302, 11378.13
539.2123, 11279.20
539.6944, 11182.49
540.1765, 11088.25
540.6586, 10988.54
541.1407, 10854.96
541.6229, 10700.31
542.1050, 10568.34
542.5871, 10509.11
543.0692, 10465.52
543.5513, 10381.77
544.0334, 10255.97
544.5156, 10135.81
544.9977, 10045.23
545.4798, 9968.544
545.9619, 9894.719
546.4440, 9822.805
546.9261, 9751.883
547.4083, 9676.051
547.8904, 9602.104
548.3725, 9544.129
548.8546, 9511.789
549.3367, 9478.269
549.8188, 9432.321
550.3010, 9376.806
550.7831, 9351.509
551.2652, 9366.833
551.7473, 9377.618
552.2294, 9337.452
552.7115, 9254.395
553.1937, 9216.667
553.6758, 9237.474
554.1579, 9277.788
554.6400, 9290.898
555.1221, 9284.485
555.6042, 9280.354
556.0864, 9287.738
556.5685, 9299.290
557.0506, 9303.564
557.5327, 9304.696
558.0148, 9318.190
558.4969, 9362.929
558.9791, 9413.974
559.4612, 9456.899
559.9433, 9489.600
560.4254, 9516.493
560.9075, 9533.104
561.3896, 9547.063
561.8718, 9565.363
562.3539, 9590.539
562.8360, 9615.983
563.3181, 9641.784
563.8002, 9667.036
564.2823, 9686.920
564.7645, 9697.450
565.2466, 9720.620
565.7287, 9773.176
566.2108, 9845.959
566.6929, 9889.594
567.1750, 9902.733
567.6572, 9909.292
568.1393, 9927.252
568.6214, 9953.076
569.1035, 9980.892
569.5856, 10011.75
570.0677, 10037.42
570.5499, 10047.51
571.0320, 10048.93
571.5141, 10052.72
571.9962, 10063.93
572.4783, 10077.30
572.9604, 10093.23
573.4426, 10110.35
573.9247, 10122.26
574.4068, 10128.19
574.8889, 10128.17
575.3710, 10122.00
575.8531, 10109.51
576.3353, 10092.36
576.8174, 10070.14
577.2995, 10044.12
577.7816, 10012.40
578.2637, 9973.792
578.7458, 9946.066
579.2280, 9935.497
579.7101, 9930.114
580.1922, 9907.479
580.6743, 9870.015
581.1564, 9831.403
581.6385, 9798.227
582.1207, 9767.283
582.6028, 9734.305
583.0849, 9699.961
583.5670, 9667.231
584.0491, 9643.626
584.5313, 9618.742
585.0134, 9584.098
585.4955, 9536.776
585.9776, 9485.491
586.4597, 9421.872
586.9418, 9360.095
587.4240, 9317.257
587.9061, 9302.493
588.3882, 9293.449
588.8703, 9297.484
589.3524, 9303.078
589.8345, 9269.614
590.3167, 9184.956
590.7988, 9107.559
591.2809, 9066.630
591.7630, 9054.988
592.2451, 9039.184
592.7272, 9019.079
593.2094, 8998.163
593.6915, 8979.283
594.1736, 8961.670
594.6557, 8945.104
595.1378, 8931.339
595.6199, 8912.316
596.1021, 8869.699
596.5842, 8821.334
597.0663, 8792.567
597.5485, 8826.593
598.0306, 8845.255
598.5127, 8811.308
598.9948, 8738.008
599.4769, 8683.691
599.9590, 8665.277
600.4412, 8649.261
600.9233, 8624.663
601.4054, 8590.568
601.8875, 8561.183
602.3696, 8538.281
602.8517, 8516.211
603.3339, 8489.425
603.8160, 8458.384
604.2981, 8432.314
604.7802, 8412.749
605.2623, 8397.347
605.7444, 8385.063
606.2266, 8374.778
606.7087, 8364.358
607.1908, 8356.970
607.6729, 8344.765
608.1550, 8314.364
608.6371, 8272.701
609.1193, 8241.258
609.6014, 8240.227
610.0835, 8241.752
610.5656, 8229.154
611.0477, 8197.630
611.5298, 8183.249
612.0120, 8203.989
612.4941, 8225.374
612.9762, 8221.856
613.4583, 8182.959
613.9404, 8157.911
614.4225, 8151.534
614.9047, 8154.601
615.3868, 8152.195
615.8689, 8145.288
616.3510, 8148.328
616.8331, 8171.347
617.3152, 8198.805
617.7974, 8206.334
618.2795, 8197.193
618.7616, 8184.623
619.2437, 8166.831
619.7258, 8155.149
620.2079, 8160.131
620.6901, 8182.201
621.1722, 8207.098
621.6543, 8241.942
622.1364, 8269.621
622.6185, 8275.088
623.1006, 8234.113
623.5828, 8225.275
624.0649, 8265.660
624.5470, 8322.512
625.0291, 8355.634
625.5112, 8360.313
625.9933, 8365.994
626.4755, 8376.828
626.9576, 8392.889
627.4397, 8414.919
627.9218, 8442.646
628.4039, 8473.978
628.8860, 8510.349
629.3682, 8548.579
629.8503, 8580.448
630.3324, 8607.808
630.8145, 8643.870
631.2966, 8705.299
631.7787, 8771.483
632.2609, 8828.082
632.7430, 8872.112
633.2251, 8911.172
633.7072, 8943.173
634.1893, 8972.395
634.6714, 9002.046
635.1536, 9029.877
635.6357, 9063.094
636.1178, 9101.550
636.5999, 9145.850
637.0820, 9198.640
637.5641, 9260.031
638.0463, 9321.998
638.5284, 9383.360
639.0105, 9443.009
639.4926, 9501.973
639.9747, 9559.495
640.4568, 9609.574
640.9390, 9638.328
641.4211, 9665.401
641.9032, 9714.249
642.3853, 9786.234
642.8674, 9849.336
643.3495, 9885.718
643.8317, 9911.948
644.3138, 9938.991
644.7959, 9962.505
645.2780, 9998.001
645.7601, 10050.75
646.2422, 10110.64
