##NAMES=Carnotite
##RRUFFID=R070647
##IDEAL CHEMISTRY=K_2_(U^6+^O_2_)_2_(V^5+^O_4_)_2_&#183;3H_2_O
##LOCALITY=Anderson mine, Yavapai County, Arizona, USA
##OWNER=RRUFF
##SOURCE=Lloyd Twaites
##DESCRIPTION=Orange blocky crystals associated with yellow platy weeksite, R050330
##STATUS=The identification of this mineral has been confirmed by single-crystal X-ray diffraction.
##URL=rruff.info/R070647
142.3047, 8138.591
142.7868, 8111.511
143.2689, 8098.916
143.7510, 8105.300
144.2331, 8122.507
144.7152, 8141.063
145.1974, 8165.099
145.6795, 8184.574
146.1616, 8195.900
146.6437, 8194.592
147.1258, 8196.528
147.6079, 8206.439
148.0901, 8219.380
148.5722, 8221.158
149.0543, 8191.881
149.5364, 8168.673
150.0185, 8167.938
150.5006, 8227.843
150.9828, 8264.845
151.4649, 8257.127
151.9470, 8210.854
152.4291, 8198.162
152.9112, 8247.120
153.3933, 8316.212
153.8755, 8376.707
154.3576, 8433.001
154.8397, 8472.865
155.3218, 8483.253
155.8039, 8456.225
156.2860, 8452.065
156.7682, 8497.765
157.2503, 8567.381
157.7324, 8629.179
158.2145, 8672.973
158.6966, 8709.284
159.1787, 8743.831
159.6609, 8782.329
160.1430, 8808.203
160.6251, 8798.619
161.1072, 8771.387
161.5893, 8767.848
162.0714, 8823.317
162.5536, 8896.540
163.0357, 8959.669
163.5178, 8999.531
163.9999, 9035.966
164.4820, 9075.562
164.9641, 9118.573
165.4463, 9165.438
165.9284, 9221.736
166.4105, 9280.187
166.8926, 9332.904
167.3747, 9367.544
167.8568, 9401.914
168.3390, 9452.600
168.8211, 9520.387
169.3032, 9582.327
169.7853, 9615.585
170.2674, 9632.830
170.7495, 9656.300
171.2317, 9696.425
171.7138, 9747.916
172.1959, 9811.107
172.6780, 9892.460
173.1601, 9963.025
173.6422, 9993.118
174.1244, 9990.463
174.6065, 9979.407
175.0886, 9969.902
175.5707, 9962.231
176.0528, 9957.196
176.5349, 9956.503
177.0171, 9956.247
177.4992, 9952.355
177.9813, 9944.793
178.4634, 9933.962
178.9455, 9918.953
179.4276, 9900.611
179.9098, 9880.646
180.3919, 9857.809
180.8740, 9834.253
181.3561, 9810.804
181.8382, 9787.291
182.3203, 9769.243
182.8025, 9767.896
183.2846, 9779.011
183.7667, 9785.036
184.2488, 9768.663
184.7309, 9741.593
185.2130, 9744.582
185.6951, 9785.652
186.1773, 9829.178
186.6594, 9813.755
187.1415, 9745.986
187.6236, 9695.443
188.1057, 9706.307
188.5878, 9768.197
189.0700, 9832.788
189.5521, 9894.364
190.0342, 9956.438
190.5163, 10029.98
190.9984, 10114.62
191.4805, 10194.48
191.9627, 10255.58
192.4448, 10298.83
192.9269, 10338.49
193.4090, 10376.90
193.8911, 10412.94
194.3732, 10444.61
194.8554, 10472.75
195.3375, 10493.87
195.8196, 10505.05
196.3017, 10506.49
196.7838, 10500.42
197.2659, 10488.17
197.7481, 10469.60
198.2302, 10440.78
198.7123, 10400.59
199.1944, 10354.65
199.6765, 10308.08
200.1586, 10260.01
200.6408, 10215.78
201.1229, 10178.13
201.6050, 10147.45
202.0871, 10114.70
202.5692, 10078.10
203.0513, 10041.73
203.5335, 10011.75
204.0156, 9987.861
204.4977, 9970.412
204.9798, 9957.938
205.4619, 9949.236
205.9440, 9954.669
206.4262, 9978.139
206.9083, 10012.87
207.3904, 10040.85
207.8725, 10058.49
208.3546, 10078.51
208.8367, 10109.73
209.3189, 10155.59
209.8010, 10197.18
210.2831, 10227.46
210.7652, 10253.18
211.2473, 10309.56
211.7294, 10411.43
212.2116, 10515.63
212.6937, 10585.40
213.1758, 10609.50
213.6579, 10638.56
214.1400, 10677.78
214.6221, 10728.23
215.1043, 10802.17
215.5864, 10913.98
216.0685, 11030.55
216.5506, 11115.14
217.0327, 11155.63
217.5148, 11196.91
217.9970, 11244.92
218.4791, 11297.99
218.9612, 11380.16
219.4433, 11506.21
219.9254, 11644.68
220.4075, 11753.19
220.8897, 11819.02
221.3718, 11877.89
221.8539, 11935.48
222.3360, 11988.58
222.8181, 12058.56
223.3002, 12152.85
223.7824, 12258.69
224.2645, 12351.31
224.7466, 12428.71
225.2287, 12498.18
225.7108, 12561.67
226.1929, 12616.55
226.6750, 12675.84
227.1572, 12754.93
227.6393, 12833.76
228.1214, 12859.82
228.6035, 12820.61
229.0856, 12747.12
229.5677, 12652.00
230.0499, 12532.32
230.5320, 12400.03
231.0141, 12252.40
231.4962, 12093.37
231.9783, 11935.88
232.4604, 11784.53
232.9426, 11630.77
233.4247, 11462.80
233.9068, 11261.10
234.3889, 11092.13
234.8710, 10970.28
235.3531, 10889.78
235.8353, 10807.29
236.3174, 10719.41
236.7995, 10633.71
237.2816, 10555.12
237.7637, 10481.25
238.2458, 10419.15
238.7280, 10368.73
239.2101, 10330.08
239.6922, 10308.61
240.1743, 10307.96
240.6564, 10320.72
241.1385, 10341.13
241.6207, 10374.39
242.1028, 10406.09
242.5849, 10432.28
243.0670, 10452.01
243.5491, 10476.11
244.0313, 10497.46
244.5134, 10529.11
244.9955, 10590.85
245.4776, 10711.02
245.9597, 10811.70
246.4418, 10864.91
246.9240, 10855.82
247.4061, 10889.16
247.8882, 10987.53
248.3703, 11111.73
248.8524, 11205.21
249.3345, 11259.61
249.8167, 11297.47
250.2988, 11321.43
250.7809, 11324.22
251.2630, 11342.48
251.7451, 11381.67
252.2272, 11432.63
252.7094, 11481.49
253.1915, 11537.16
253.6736, 11575.30
254.1557, 11589.07
254.6378, 11581.48
255.1199, 11536.30
255.6021, 11432.96
256.0842, 11302.42
256.5663, 11215.83
257.0484, 11193.47
257.5305, 11179.59
258.0126, 11150.37
258.4948, 11100.05
258.9769, 11051.08
259.4590, 11007.10
259.9411, 10963.57
260.4232, 10902.92
260.9053, 10811.46
261.3875, 10728.05
261.8696, 10674.69
262.3517, 10664.00
262.8338, 10645.36
263.3159, 10610.88
263.7980, 10568.06
264.2802, 10546.34
264.7623, 10555.07
265.2444, 10565.41
265.7265, 10558.64
266.2086, 10529.21
266.6907, 10503.12
267.1729, 10485.19
267.6550, 10471.53
268.1371, 10442.26
268.6192, 10385.95
269.1013, 10339.61
269.5834, 10340.81
270.0656, 10408.20
270.5477, 10433.38
271.0298, 10389.85
271.5119, 10296.47
271.9940, 10238.18
272.4761, 10230.17
272.9583, 10220.12
273.4404, 10162.26
273.9225, 10046.19
274.4046, 9942.066
274.8867, 9863.744
275.3688, 9804.867
275.8510, 9731.364
276.3331, 9638.207
276.8152, 9547.077
277.2973, 9480.265
277.7794, 9441.094
278.2615, 9393.691
278.7437, 9327.741
279.2258, 9248.809
279.7079, 9184.137
280.1900, 9136.891
280.6721, 9091.813
281.1542, 9031.889
281.6364, 8955.920
282.1185, 8889.743
282.6006, 8841.896
283.0827, 8807.175
283.5648, 8761.830
284.0469, 8703.330
284.5291, 8647.579
285.0112, 8614.272
285.4933, 8602.521
285.9754, 8583.746
286.4575, 8547.442
286.9396, 8499.564
287.4217, 8457.842
287.9038, 8421.132
288.3860, 8397.504
288.8681, 8398.918
289.3502, 8423.142
289.8323, 8451.919
290.3144, 8482.216
290.7965, 8512.250
291.2787, 8537.623
291.7608, 8558.485
292.2429, 8573.428
292.7250, 8575.033
293.2071, 8567.324
293.6892, 8570.447
294.1714, 8595.413
294.6535, 8633.647
295.1356, 8667.143
295.6177, 8696.071
296.0998, 8724.097
296.5819, 8755.994
297.0641, 8790.676
297.5462, 8823.146
298.0283, 8845.890
298.5104, 8868.582
298.9925, 8910.051
299.4746, 8970.623
299.9568, 9036.194
300.4389, 9094.217
300.9210, 9147.866
301.4031, 9206.200
301.8852, 9270.806
302.3673, 9341.562
302.8495, 9424.051
303.3316, 9517.071
303.8137, 9605.644
304.2958, 9670.250
304.7779, 9721.766
305.2600, 9778.384
305.7422, 9846.084
306.2243, 9922.400
306.7064, 10006.69
307.1885, 10099.35
307.6706, 10194.12
308.1527, 10290.35
308.6349, 10385.74
309.1170, 10475.09
309.5991, 10558.71
310.0812, 10635.48
310.5633, 10704.80
311.0454, 10767.54
311.5276, 10825.89
312.0097, 10875.17
312.4918, 10922.87
312.9739, 10978.05
313.4560, 11063.24
313.9381, 11140.56
314.4203, 11182.29
314.9024, 11191.58
315.3845, 11201.02
315.8666, 11245.55
316.3487, 11289.13
316.8308, 11297.72
317.3130, 11233.91
317.7951, 11158.17
318.2772, 11097.05
318.7593, 11048.36
319.2414, 10987.79
319.7235, 10910.77
320.2057, 10816.92
320.6878, 10705.97
321.1699, 10564.12
321.6520, 10418.81
322.1341, 10270.80
322.6162, 10121.65
323.0984, 9991.994
323.5805, 9891.867
324.0626, 9809.175
324.5447, 9735.769
325.0268, 9680.253
325.5089, 9623.509
325.9911, 9553.025
326.4732, 9472.887
326.9553, 9419.862
327.4374, 9410.796
327.9195, 9419.463
328.4016, 9430.585
328.8838, 9454.174
329.3659, 9466.755
329.8480, 9457.091
330.3301, 9430.912
330.8122, 9424.966
331.2943, 9448.851
331.7765, 9483.070
332.2586, 9517.991
332.7407, 9559.140
333.2228, 9590.515
333.7049, 9605.947
334.1870, 9610.983
334.6692, 9628.706
335.1513, 9663.312
335.6334, 9704.589
336.1155, 9745.425
336.5976, 9782.164
337.0797, 9831.229
337.5619, 9893.703
338.0440, 9968.783
338.5261, 10055.14
339.0082, 10156.47
339.4903, 10256.81
339.9724, 10342.81
340.4546, 10412.25
340.9367, 10493.39
341.4188, 10591.30
341.9009, 10698.43
342.3830, 10799.34
342.8651, 10892.95
343.3473, 10988.59
343.8294, 11092.31
344.3115, 11204.27
344.7936, 11307.45
345.2757, 11397.08
345.7578, 11490.44
346.2400, 11622.14
346.7221, 11788.93
347.2042, 11960.33
347.6863, 12124.12
348.1684, 12281.18
348.6505, 12434.61
349.1327, 12584.59
349.6148, 12735.75
350.0969, 12897.69
350.5790, 13066.89
351.0611, 13230.86
351.5432, 13379.51
352.0254, 13519.22
352.5075, 13663.07
352.9896, 13811.10
353.4717, 13958.13
353.9538, 14095.62
354.4359, 14228.42
354.9181, 14362.02
355.4002, 14509.97
355.8823, 14653.76
356.3644, 14770.24
356.8465, 14859.21
357.3286, 14950.96
357.8108, 15086.13
358.2929, 15231.10
358.7750, 15344.70
359.2571, 15362.74
359.7392, 15386.48
360.2213, 15485.79
360.7035, 15655.47
361.1856, 15811.49
361.6677, 15902.72
362.1498, 15970.18
362.6319, 16050.48
363.1140, 16163.97
363.5962, 16280.05
364.0783, 16385.19
364.5604, 16482.30
365.0425, 16592.82
365.5246, 16731.12
366.0067, 16878.68
366.4889, 17023.85
366.9710, 17181.59
367.4531, 17319.51
367.9352, 17432.25
368.4173, 17522.40
368.8994, 17600.56
369.3815, 17644.18
369.8636, 17695.67
370.3458, 17775.62
370.8279, 17927.53
371.3100, 18034.34
371.7921, 18086.95
372.2742, 18097.08
372.7563, 18095.09
373.2385, 18091.95
373.7206, 18058.10
374.2027, 17979.22
374.6848, 17848.79
375.1669, 17702.41
375.6490, 17540.86
376.1312, 17362.34
376.6133, 17158.11
377.0954, 16923.18
377.5775, 16680.24
378.0596, 16439.42
378.5417, 16203.88
379.0239, 15930.85
379.5060, 15617.10
379.9881, 15282.67
380.4702, 14952.79
380.9523, 14624.87
381.4344, 14307.10
381.9166, 13994.20
382.3987, 13694.43
382.8808, 13414.11
383.3629, 13155.68
383.8450, 12912.51
384.3271, 12679.83
384.8093, 12458.49
385.2914, 12257.83
385.7735, 12084.35
386.2556, 11931.31
386.7377, 11798.79
387.2198, 11685.62
387.7020, 11577.79
388.1841, 11467.56
388.6662, 11357.98
389.1483, 11250.33
389.6304, 11140.37
390.1125, 11042.07
390.5947, 10965.65
391.0768, 10908.51
391.5589, 10864.54
392.0410, 10831.06
392.5231, 10809.50
393.0052, 10799.86
393.4874, 10800.50
393.9695, 10817.83
394.4516, 10871.46
394.9337, 10941.61
395.4158, 10992.21
395.8979, 10994.72
396.3801, 10991.06
396.8622, 10994.52
397.3443, 11003.41
397.8264, 11029.04
398.3085, 11081.50
398.7906, 11148.05
399.2728, 11213.15
399.7549, 11260.63
400.2370, 11324.52
400.7191, 11419.28
401.2012, 11548.48
401.6833, 11656.55
402.1655, 11733.73
402.6476, 11798.71
403.1297, 11867.31
403.6118, 11943.36
404.0939, 12014.00
404.5760, 12073.60
405.0582, 12125.80
405.5403, 12190.40
406.0224, 12270.14
406.5045, 12352.29
406.9866, 12436.36
407.4688, 12524.53
407.9509, 12575.21
408.4330, 12580.82
408.9151, 12551.84
409.3972, 12503.54
409.8793, 12435.99
410.3615, 12364.54
410.8436, 12309.83
411.3257, 12258.93
411.8078, 12164.89
412.2899, 12019.63
412.7720, 11852.54
413.2542, 11694.79
413.7363, 11545.00
414.2184, 11395.60
414.7005, 11243.41
415.1826, 11091.53
415.6647, 10944.45
416.1469, 10803.53
416.6290, 10662.83
417.1111, 10522.11
417.5932, 10378.17
418.0753, 10231.62
418.5574, 10049.06
419.0396, 9890.328
419.5217, 9797.240
420.0038, 9761.604
420.4859, 9722.896
420.9680, 9660.628
421.4501, 9585.623
421.9323, 9506.457
422.4144, 9415.274
422.8965, 9331.620
423.3786, 9256.907
423.8607, 9192.045
424.3428, 9138.299
424.8250, 9106.850
425.3071, 9076.533
425.7892, 9040.743
426.2713, 8997.333
426.7534, 8951.761
427.2355, 8893.748
427.7177, 8839.643
428.1998, 8818.761
428.6819, 8850.790
429.1640, 8870.127
429.6461, 8850.148
430.1282, 8792.220
430.6104, 8768.749
431.0925, 8786.816
431.5746, 8820.116
432.0567, 8847.585
432.5388, 8869.305
433.0209, 8874.283
433.5031, 8853.222
433.9852, 8819.718
434.4673, 8810.214
434.9494, 8824.318
435.4315, 8838.961
435.9136, 8835.125
436.3958, 8819.417
436.8779, 8808.056
437.3600, 8803.709
437.8421, 8804.249
438.3242, 8810.544
438.8063, 8820.441
439.2885, 8827.691
439.7706, 8822.357
440.2527, 8816.854
440.7348, 8824.411
441.2169, 8847.178
441.6990, 8870.210
442.1812, 8877.380
442.6633, 8882.526
443.1454, 8902.235
443.6275, 8973.510
444.1096, 9029.023
444.5917, 9034.164
445.0739, 8992.689
445.5560, 8963.686
446.0381, 8968.483
446.5202, 8982.734
447.0023, 8992.209
447.4844, 8989.962
447.9666, 8991.042
448.4487, 8998.492
448.9308, 9009.316
449.4129, 9014.918
449.8950, 9012.207
450.3771, 9009.509
450.8593, 9010.499
451.3413, 9016.187
451.8235, 9018.291
452.3056, 9012.410
452.7877, 9010.055
453.2698, 9030.650
453.7519, 9076.366
454.2340, 9118.853
454.7162, 9148.703
455.1983, 9169.271
455.6804, 9195.948
456.1625, 9229.454
456.6446, 9257.148
457.1267, 9260.469
457.6089, 9249.215
458.0910, 9251.240
458.5731, 9274.164
459.0552, 9309.078
459.5373, 9353.170
460.0194, 9401.974
460.5016, 9441.403
460.9837, 9451.112
461.4658, 9454.603
461.9479, 9475.546
462.4300, 9520.110
462.9121, 9562.040
463.3943, 9576.813
463.8764, 9584.067
464.3585, 9608.965
464.8406, 9685.381
465.3227, 9754.832
465.8048, 9796.329
466.2870, 9809.421
466.7691, 9819.336
467.2512, 9814.909
467.7333, 9817.894
468.2154, 9841.687
468.6975, 9897.098
469.1797, 9956.042
469.6618, 10018.74
470.1439, 10083.16
470.6260, 10145.92
471.1081, 10213.14
471.5902, 10263.23
472.0724, 10275.48
472.5545, 10245.31
473.0366, 10263.29
473.5187, 10341.05
474.0008, 10433.64
474.4829, 10482.63
474.9651, 10491.66
475.4472, 10504.53
475.9293, 10539.61
476.4114, 10583.62
476.8935, 10601.99
477.3756, 10597.44
477.8578, 10604.04
478.3399, 10668.24
478.8220, 10753.37
479.3041, 10803.64
479.7862, 10802.48
480.2683, 10780.16
480.7505, 10741.01
481.2326, 10697.75
481.7147, 10676.76
482.1968, 10706.36
482.6789, 10745.99
483.1610, 10781.73
483.6432, 10814.50
484.1253, 10820.92
484.6074, 10761.04
485.0895, 10689.04
485.5716, 10651.53
486.0537, 10702.35
486.5359, 10727.54
487.0180, 10705.93
487.5001, 10648.98
487.9822, 10610.69
488.4643, 10601.40
488.9464, 10594.63
489.4286, 10577.37
489.9107, 10547.98
490.3928, 10517.39
490.8749, 10483.45
491.3570, 10452.79
491.8391, 10438.93
492.3213, 10442.04
492.8034, 10438.04
493.2855, 10410.00
493.7676, 10372.72
494.2497, 10368.06
494.7318, 10395.54
495.2140, 10426.53
495.6961, 10432.48
496.1782, 10427.18
496.6603, 10436.34
497.1424, 10472.67
497.6245, 10508.37
498.1067, 10512.41
498.5888, 10498.70
499.0709, 10499.83
499.5530, 10544.69
500.0351, 10595.68
500.5172, 10637.00
500.9994, 10667.35
501.4815, 10678.32
501.9636, 10644.72
502.4457, 10602.33
502.9278, 10583.43
503.4099, 10606.31
503.8921, 10632.95
504.3742, 10665.83
504.8563, 10701.22
505.3384, 10724.00
505.8205, 10736.75
506.3026, 10733.40
506.7848, 10704.31
507.2669, 10643.02
507.7490, 10608.64
508.2311, 10609.25
508.7132, 10618.82
509.1953, 10592.30
509.6775, 10534.63
510.1596, 10503.32
510.6417, 10530.41
511.1238, 10586.48
511.6059, 10617.94
512.0880, 10625.33
512.5701, 10617.49
513.0522, 10580.70
513.5344, 10539.78
514.0165, 10530.44
514.4986, 10568.74
514.9807, 10609.36
515.4628, 10620.25
515.9449, 10615.21
516.4271, 10617.60
516.9092, 10633.93
517.3913, 10660.73
517.8734, 10701.95
518.3555, 10758.53
518.8376, 10807.31
519.3198, 10843.25
519.8019, 10872.72
520.2840, 10899.37
520.7661, 10920.16
521.2482, 10943.40
521.7303, 10967.87
522.2125, 10995.91
522.6946, 11031.40
523.1767, 11073.73
523.6588, 11126.39
524.1409, 11197.19
524.6230, 11281.16
525.1052, 11347.33
525.5873, 11393.80
526.0694, 11437.91
526.5515, 11492.74
527.0336, 11558.21
527.5157, 11636.72
527.9979, 11735.32
528.4800, 11832.52
528.9621, 11894.88
529.4442, 11934.33
529.9263, 11988.10
530.4084, 12102.63
530.8906, 12218.22
531.3727, 12283.43
531.8548, 12287.13
532.3369, 12304.18
532.8190, 12364.33
533.3011, 12446.50
533.7833, 12530.48
534.2654, 12639.01
534.7475, 12718.63
535.2296, 12758.55
535.7117, 12766.17
536.1938, 12767.70
536.6760, 12764.53
537.1581, 12752.85
537.6402, 12728.92
538.1223, 12691.77
538.6044, 12658.07
539.0865, 12628.90
539.5687, 12599.49
540.0508, 12569.38
540.5329, 12536.57
541.0150, 12487.49
541.4971, 12416.98
541.9792, 12331.14
542.4614, 12232.14
542.9435, 12124.09
543.4256, 12025.95
543.9077, 11961.54
544.3898, 11905.34
544.8719, 11831.98
545.3541, 11737.24
545.8362, 11637.60
546.3183, 11530.98
546.8004, 11426.65
547.2825, 11333.77
547.7646, 11267.54
548.2468, 11199.45
548.7289, 11113.38
549.2110, 11018.26
549.6931, 10954.42
550.1752, 10943.12
550.6573, 10934.27
551.1395, 10907.11
551.6216, 10858.48
552.1037, 10809.02
552.5858, 10756.45
553.0679, 10707.53
553.5500, 10672.53
554.0322, 10651.19
554.5143, 10626.71
554.9964, 10590.81
555.4785, 10555.27
555.9606, 10545.28
556.4427, 10557.17
556.9249, 10571.42
557.4070, 10575.80
557.8891, 10576.27
558.3712, 10578.10
558.8533, 10581.31
559.3354, 10589.59
559.8176, 10606.92
560.2997, 10629.26
560.7818, 10652.55
561.2639, 10665.23
561.7460, 10689.88
562.2281, 10745.42
562.7103, 10819.21
563.1924, 10862.87
563.6745, 10853.77
564.1566, 10843.76
564.6387, 10848.23
565.1208, 10866.84
565.6030, 10904.76
566.0851, 10964.01
566.5672, 11037.51
567.0493, 11134.58
567.5314, 11251.03
568.0135, 11318.13
568.4957, 11308.69
568.9778, 11268.92
569.4599, 11269.47
569.9420, 11305.02
570.4241, 11352.67
570.9063, 11408.51
571.3884, 11465.53
571.8705, 11515.77
572.3526, 11558.52
572.8347, 11606.77
573.3168, 11673.08
573.7990, 11744.17
574.2811, 11808.02
574.7632, 11862.45
575.2453, 11910.32
575.7274, 11943.67
576.2095, 11972.49
576.6917, 12017.89
577.1738, 12101.54
577.6559, 12165.22
578.1380, 12185.29
578.6201, 12165.38
579.1022, 12167.89
579.5844, 12197.15
580.0665, 12232.41
580.5486, 12261.02
581.0307, 12282.80
581.5128, 12294.26
581.9949, 12294.11
582.4771, 12286.78
582.9592, 12278.20
583.4413, 12266.84
583.9234, 12248.85
584.4055, 12226.50
584.8876, 12193.99
585.3698, 12137.35
585.8519, 12062.81
586.3340, 12001.88
586.8161, 11986.17
587.2982, 11975.34
587.7803, 11946.63
588.2625, 11891.73
588.7446, 11834.03
589.2267, 11768.52
589.7088, 11704.82
590.1909, 11652.83
590.6730, 11613.96
591.1552, 11585.46
591.6373, 11572.05
592.1194, 11565.53
592.6015, 11537.61
593.0836, 11486.52
593.5657, 11439.60
594.0479, 11418.28
594.5300, 11411.13
595.0121, 11385.93
595.4942, 11341.34
595.9763, 11293.54
596.4584, 11251.74
596.9406, 11216.37
597.4227, 11187.65
597.9048, 11166.93
598.3869, 11150.42
598.8690, 11141.17
599.3511, 11134.27
599.8333, 11120.03
600.3154, 11097.97
600.7975, 11066.63
601.2796, 11021.06
601.7617, 10961.89
602.2438, 10916.64
602.7260, 10895.98
603.2081, 10871.73
603.6902, 10815.84
604.1723, 10722.28
604.6544, 10681.22
605.1365, 10708.01
605.6187, 10755.03
606.1008, 10756.98
606.5829, 10723.37
607.0650, 10694.66
607.5471, 10692.18
608.0292, 10690.91
608.5114, 10652.91
608.9935, 10589.00
609.4756, 10536.81
609.9577, 10523.03
610.4398, 10522.59
610.9219, 10522.65
611.4041, 10522.27
611.8862, 10519.14
612.3683, 10500.60
612.8504, 10486.94
613.3325, 10495.35
613.8146, 10549.39
614.2968, 10577.88
614.7789, 10569.93
615.2610, 10541.37
615.7431, 10523.92
616.2252, 10519.30
616.7073, 10508.17
617.1895, 10473.67
617.6716, 10432.06
618.1537, 10435.57
618.6358, 10480.98
619.1179, 10528.66
619.6000, 10547.81
620.0822, 10554.53
620.5643, 10571.29
621.0464, 10604.34
621.5285, 10628.39
622.0106, 10620.69
622.4927, 10600.57
622.9749, 10588.70
623.4570, 10585.69
623.9391, 10596.18
624.4212, 10630.08
624.9033, 10676.90
625.3854, 10708.46
625.8676, 10714.97
626.3497, 10727.71
626.8318, 10763.91
627.3139, 10818.69
627.7960, 10836.25
628.2781, 10811.09
628.7603, 10793.20
629.2424, 10836.50
629.7245, 10917.94
630.2066, 10976.77
630.6887, 11002.05
631.1708, 11019.10
631.6530, 11050.58
632.1351, 11088.52
632.6172, 11120.99
633.0993, 11137.80
633.5814, 11154.27
634.0635, 11174.51
634.5457, 11198.73
635.0278, 11227.89
635.5099, 11278.41
635.9920, 11314.71
636.4741, 11318.95
636.9562, 11288.05
637.4384, 11284.92
637.9205, 11317.35
638.4026, 11355.54
638.8847, 11375.91
