##NAMES=Carnallite
##RRUFFID=R050353
##IDEAL CHEMISTRY=KMgCl_3_&#183;6H_2_O
##LOCALITY=Strassfurt, Germany
##OWNER=RRUFF
##SOURCE=California Institute of Technology
##DESCRIPTION=Colorless single crystals and grains associated with halite, sylvite, and anhydrite.
##STATUS=The identification of this mineral has been confirmed by X-ray diffraction.
##URL=rruff.info/R050353
174.5224, 61777.95
175.0045, 61783.29
175.4866, 61810.00
175.9687, 61859.32
176.4508, 61938.71
176.9330, 62049.50
177.4151, 62169.88
177.8972, 62276.86
178.3793, 62378.12
178.8614, 62492.76
179.3435, 62618.51
179.8257, 62766.36
180.3078, 62968.67
180.7899, 63241.03
181.2720, 63519.52
181.7541, 63698.27
182.2362, 63801.17
182.7184, 63955.25
183.2005, 64305.84
183.6826, 64770.20
184.1647, 65112.93
184.6468, 65245.02
185.1289, 65322.83
185.6111, 65627.01
186.0932, 66152.73
186.5753, 66693.83
187.0574, 67094.68
187.5395, 67376.65
188.0216, 67654.66
188.5037, 67930.41
188.9859, 68225.20
189.4680, 68608.46
189.9501, 69082.02
190.4322, 69586.23
190.9143, 70072.02
191.3964, 70535.43
191.8786, 70965.24
192.3607, 71350.08
192.8428, 71691.05
193.3249, 71981.00
193.8070, 72205.80
194.2891, 72422.38
194.7713, 72739.58
195.2534, 73167.25
195.7355, 73519.49
196.2176, 73686.35
196.6997, 73678.05
197.1818, 73718.98
197.6640, 73825.74
198.1461, 73961.18
198.6282, 74064.20
199.1103, 74134.48
199.5924, 74175.30
200.0745, 74184.66
200.5567, 74160.16
201.0388, 74109.59
201.5209, 74016.98
202.0030, 73906.13
202.4851, 73874.26
202.9672, 73956.38
203.4494, 73978.36
203.9315, 73774.67
204.4136, 73296.30
204.8957, 72926.67
205.3778, 72762.88
205.8599, 72743.82
206.3421, 72552.86
206.8242, 72150.24
207.3063, 71677.90
207.7884, 71253.66
208.2705, 70885.14
208.7526, 70537.27
209.2348, 70200.45
209.7169, 69876.27
210.1990, 69588.13
210.6811, 69353.73
211.1632, 69126.87
211.6453, 68857.98
212.1275, 68547.81
212.6096, 68185.27
213.0917, 67744.39
213.5738, 67217.75
214.0559, 66736.55
214.5380, 66308.27
215.0202, 65916.23
215.5023, 65537.74
215.9844, 65183.39
216.4665, 64825.58
216.9486, 64460.00
217.4307, 64091.30
217.9129, 63703.59
218.3950, 63284.45
218.8771, 62856.14
219.3592, 62459.18
219.8413, 62109.87
220.3234, 61759.85
220.8056, 61380.30
221.2877, 60937.45
221.7698, 60556.65
222.2519, 60288.84
222.7340, 60074.00
223.2161, 59675.86
223.6983, 58959.30
224.1804, 58271.46
224.6625, 57837.28
225.1446, 57792.25
225.6267, 57676.52
226.1088, 57455.80
226.5910, 57137.39
227.0731, 56738.73
227.5552, 56207.73
228.0373, 55667.96
228.5194, 55223.97
229.0015, 54957.65
229.4836, 54619.14
229.9658, 54148.52
230.4479, 53553.18
230.9300, 53050.97
231.4121, 52681.00
231.8942, 52362.70
232.3763, 52031.97
232.8585, 51693.84
233.3406, 51340.88
233.8227, 50955.01
234.3048, 50530.05
234.7869, 50199.52
235.2690, 50014.74
235.7512, 49876.59
236.2333, 49672.05
236.7154, 49366.59
237.1975, 49056.46
237.6796, 48759.60
238.1617, 48480.82
238.6439, 48190.25
239.1260, 47861.35
239.6081, 47540.01
240.0902, 47296.19
240.5723, 47176.00
241.0544, 47053.56
241.5366, 46879.42
242.0187, 46620.47
242.5008, 46445.57
242.9829, 46414.43
243.4650, 46435.05
243.9471, 46335.00
244.4293, 46033.50
244.9114, 45734.78
245.3935, 45513.83
245.8756, 45393.34
246.3577, 45276.58
246.8398, 45145.06
247.3220, 45022.89
247.8041, 44973.69
248.2862, 45054.11
248.7683, 45121.22
249.2504, 45106.11
249.7325, 44956.90
250.2147, 44851.11
250.6968, 44805.49
251.1789, 44801.22
251.6610, 44785.21
252.1431, 44759.43
252.6252, 44720.18
253.1074, 44673.41
253.5895, 44646.28
254.0716, 44536.77
254.5537, 44280.50
255.0358, 43944.15
255.5179, 43795.27
256.0001, 43928.29
256.4822, 44107.50
256.9643, 44199.87
257.4464, 44177.45
257.9285, 44135.31
258.4106, 44066.25
258.8928, 43981.01
259.3749, 43944.39
259.8570, 43984.85
260.3391, 44026.74
260.8212, 44011.37
261.3033, 43909.96
261.7855, 43829.52
262.2676, 43784.11
262.7497, 43769.20
263.2318, 43753.03
263.7139, 43724.38
264.1960, 43711.61
264.6782, 43742.16
265.1603, 43832.72
265.6424, 43916.19
266.1245, 43986.47
266.6066, 44043.04
267.0887, 44087.65
267.5709, 44127.89
268.0530, 44142.80
268.5351, 44101.87
269.0172, 43983.36
269.4993, 43893.75
269.9814, 43865.14
270.4636, 43888.95
270.9457, 43864.77
271.4278, 43768.35
271.9099, 43674.48
272.3920, 43666.99
272.8741, 43765.99
273.3563, 43858.31
273.8384, 43920.02
274.3205, 43953.07
274.8026, 43972.42
275.2847, 43968.42
275.7668, 43972.42
276.2490, 44030.59
276.7311, 44155.27
277.2132, 44251.34
277.6953, 44289.09
278.1774, 44274.27
278.6595, 44242.79
279.1417, 44179.58
279.6238, 44140.97
280.1059, 44205.37
280.5880, 44382.00
281.0701, 44555.66
281.5522, 44694.40
282.0344, 44802.02
282.5165, 44897.09
282.9986, 44980.80
283.4807, 45050.22
283.9628, 45093.58
284.4449, 45110.61
284.9271, 45137.30
285.4092, 45178.71
285.8913, 45237.89
286.3734, 45345.23
286.8555, 45510.09
287.3376, 45680.71
287.8198, 45788.09
288.3019, 45835.55
288.7840, 45888.42
289.2661, 45976.95
289.7482, 46088.85
290.2303, 46169.26
290.7124, 46209.71
291.1945, 46260.28
291.6767, 46404.05
292.1588, 46624.70
292.6409, 46806.55
293.1230, 46872.33
293.6051, 46867.36
294.0872, 46932.09
294.5694, 47075.02
295.0515, 47223.99
295.5336, 47286.25
296.0157, 47283.09
296.4978, 47304.02
296.9799, 47429.28
297.4621, 47597.68
297.9442, 47644.88
298.4263, 47562.65
298.9084, 47487.51
299.3905, 47607.78
299.8727, 47856.84
300.3548, 48042.00
300.8369, 48025.07
301.3190, 47914.00
301.8011, 47885.89
302.2832, 47947.26
302.7654, 48000.63
303.2475, 47913.91
303.7296, 47752.17
304.2117, 47654.89
304.6938, 47750.27
305.1759, 47906.73
305.6581, 47945.00
306.1402, 47857.71
306.6223, 47792.72
307.1044, 47933.34
307.5865, 48167.93
308.0686, 48305.37
308.5508, 48178.73
309.0329, 47978.09
309.5150, 47878.30
309.9971, 47883.45
310.4792, 47888.09
310.9613, 47804.50
311.4435, 47683.04
311.9256, 47593.11
312.4077, 47604.10
312.8898, 47624.64
313.3719, 47593.80
313.8540, 47510.10
314.3362, 47416.19
314.8183, 47315.09
315.3004, 47220.54
315.7825, 47147.57
316.2646, 47169.46
316.7467, 47154.48
317.2289, 46988.34
317.7110, 46670.08
318.1931, 46447.30
318.6752, 46516.41
319.1573, 46682.44
319.6394, 46760.20
320.1216, 46586.42
320.6037, 46425.88
321.0858, 46394.36
321.5679, 46491.30
322.0500, 46526.68
322.5321, 46411.27
323.0143, 46239.96
323.4964, 46088.39
323.9785, 45951.82
324.4606, 45854.50
324.9427, 45817.68
325.4248, 45838.91
325.9070, 45846.67
326.3891, 45847.74
326.8712, 45823.52
327.3533, 45761.12
327.8354, 45582.67
328.3175, 45451.01
328.7997, 45399.70
329.2818, 45422.33
329.7639, 45429.46
330.2460, 45404.13
330.7281, 45377.07
331.2102, 45369.02
331.6924, 45402.89
332.1745, 45421.40
332.6566, 45416.84
333.1387, 45392.97
333.6208, 45371.04
334.1029, 45354.56
334.5851, 45337.80
335.0672, 45318.17
335.5493, 45298.27
336.0314, 45265.61
336.5135, 45193.52
336.9956, 45111.04
337.4778, 45151.42
337.9599, 45383.18
338.4420, 45587.31
338.9241, 45602.36
339.4062, 45371.18
339.8883, 45264.08
340.3705, 45349.25
340.8526, 45542.57
341.3347, 45619.27
341.8168, 45553.12
342.2989, 45491.11
342.7810, 45541.71
343.2632, 45705.53
343.7453, 45783.50
344.2274, 45735.56
344.7095, 45645.37
345.1916, 45665.91
345.6737, 45799.27
346.1559, 45971.80
346.6380, 46168.04
347.1201, 46376.42
347.6022, 46560.12
348.0843, 46720.98
348.5664, 46835.49
349.0486, 46824.29
349.5307, 46712.96
350.0128, 46661.38
350.4949, 46809.82
350.9770, 47061.39
351.4591, 47205.07
351.9413, 47220.23
352.4234, 47209.86
352.9055, 47285.92
353.3876, 47421.50
353.8697, 47543.88
354.3518, 47587.12
354.8340, 47621.01
355.3161, 47759.81
355.7982, 48014.05
356.2803, 48220.65
356.7624, 48200.20
357.2445, 48062.73
357.7267, 47978.23
358.2088, 47997.05
358.6909, 48102.35
359.1730, 48325.22
359.6551, 48660.52
360.1372, 48959.31
360.6194, 49119.53
361.1015, 49212.55
361.5836, 49311.19
362.0657, 49472.86
362.5478, 49607.85
363.0299, 49663.67
363.5121, 49648.93
363.9942, 49648.25
364.4763, 49692.27
364.9584, 49756.02
365.4405, 49822.54
365.9226, 49889.72
366.4048, 49958.18
366.8869, 50048.46
367.3690, 50148.70
367.8511, 50195.80
368.3332, 50134.08
368.8153, 50057.11
369.2975, 50009.04
369.7796, 49975.75
370.2617, 49996.44
370.7438, 50118.48
371.2259, 50294.72
371.7080, 50390.09
372.1902, 50360.58
372.6722, 50307.77
373.1544, 50272.13
373.6365, 50265.98
374.1186, 50237.39
374.6007, 50162.28
375.0828, 50080.61
375.5649, 50081.76
376.0471, 50204.00
376.5292, 50296.89
377.0113, 50275.92
377.4934, 50126.67
377.9755, 50103.07
378.4576, 50242.14
378.9398, 50424.44
379.4219, 50478.86
379.9040, 50396.02
380.3861, 50328.34
380.8682, 50344.99
381.3503, 50419.49
381.8325, 50425.45
382.3146, 50358.00
382.7967, 50256.22
383.2788, 50134.60
383.7609, 50005.39
384.2430, 49923.01
384.7252, 49916.58
385.2073, 49958.01
385.6894, 50015.89
386.1715, 50088.63
386.6536, 50136.02
387.1357, 50120.80
387.6179, 50062.20
388.1000, 49988.29
388.5821, 49892.36
389.0642, 49807.47
389.5463, 49767.75
390.0284, 49768.44
390.5106, 49791.88
390.9927, 49860.09
391.4748, 49930.09
391.9569, 49956.82
392.4390, 49912.95
392.9211, 49873.73
393.4033, 49858.50
393.8854, 49875.14
394.3675, 49939.60
394.8496, 50158.39
395.3317, 50342.89
395.8138, 50383.52
396.2960, 50225.02
396.7781, 50088.38
397.2602, 50037.73
397.7423, 50030.87
398.2244, 50013.17
398.7065, 49940.92
399.1887, 49894.08
399.6708, 49901.36
400.1529, 49970.11
400.6350, 50024.28
401.1171, 50067.19
401.5992, 50094.18
402.0814, 50098.96
402.5635, 50065.68
403.0456, 50042.01
403.5277, 50047.91
404.0098, 50073.41
404.4919, 50031.47
404.9741, 49871.63
405.4562, 49740.91
405.9383, 49779.25
406.4204, 50031.93
406.9025, 50154.39
407.3846, 50083.70
407.8668, 49897.00
408.3489, 49765.03
408.8310, 49691.04
409.3131, 49650.78
409.7952, 49638.08
410.2773, 49650.31
410.7595, 49676.91
411.2416, 49721.00
411.7237, 49764.41
412.2058, 49776.43
412.6879, 49763.16
413.1700, 49755.21
413.6522, 49788.43
414.1343, 49826.58
414.6164, 49792.14
415.0985, 49680.25
415.5806, 49588.96
416.0627, 49635.00
416.5449, 49747.71
417.0270, 49817.07
417.5091, 49795.32
417.9912, 49724.70
418.4733, 49595.20
418.9554, 49424.96
419.4376, 49314.70
419.9197, 49385.65
420.4018, 49499.62
420.8839, 49543.44
421.3660, 49424.25
421.8481, 49334.57
422.3303, 49345.55
422.8124, 49428.11
423.2945, 49501.43
423.7766, 49549.95
424.2587, 49584.98
424.7408, 49613.98
425.2230, 49650.65
425.7051, 49643.76
426.1872, 49552.93
426.6693, 49433.45
427.1514, 49364.36
427.6335, 49378.88
428.1157, 49390.55
428.5978, 49376.46
429.0799, 49336.23
429.5620, 49309.09
430.0441, 49305.68
430.5262, 49301.11
431.0084, 49269.52
431.4905, 49206.88
431.9726, 49150.71
432.4547, 49117.50
432.9368, 49091.02
433.4189, 48997.79
433.9011, 48831.75
434.3832, 48694.70
434.8653, 48667.24
435.3474, 48730.97
435.8295, 48812.52
436.3116, 48912.33
436.7938, 48999.99
437.2759, 49021.83
437.7580, 48992.06
438.2401, 48962.28
438.7222, 48952.14
439.2043, 48960.42
439.6865, 49008.82
440.1686, 49105.05
440.6507, 49151.32
441.1328, 49015.92
441.6149, 48803.91
442.0970, 48655.56
442.5792, 48644.48
443.0613, 48687.95
443.5434, 48778.51
444.0255, 48905.13
444.5076, 48984.41
444.9897, 48957.81
445.4719, 48893.91
445.9540, 48836.77
446.4361, 48792.69
446.9182, 48755.27
447.4003, 48724.66
447.8824, 48700.52
448.3646, 48682.78
448.8467, 48694.45
449.3288, 48688.00
449.8109, 48646.58
450.2930, 48564.13
450.7751, 48464.75
451.2573, 48309.61
451.7394, 48180.82
452.2215, 48213.56
452.7036, 48457.17
453.1857, 48646.40
453.6678, 48689.14
454.1500, 48618.90
454.6321, 48619.21
455.1142, 48702.59
455.5963, 48764.19
456.0784, 48683.21
456.5605, 48489.40
457.0426, 48338.18
457.5247, 48249.17
458.0069, 48226.22
458.4890, 48322.93
458.9711, 48508.51
459.4532, 48651.52
459.9353, 48640.40
460.4174, 48558.30
460.8996, 48501.27
461.3817, 48479.16
461.8638, 48474.83
462.3459, 48494.80
462.8280, 48520.30
463.3102, 48525.05
463.7923, 48478.95
464.2744, 48428.61
464.7565, 48393.29
465.2386, 48373.30
465.7207, 48358.32
466.2029, 48361.51
466.6850, 48359.93
467.1671, 48339.51
467.6492, 48277.80
468.1313, 48225.14
468.6134, 48182.75
469.0956, 48150.99
469.5777, 48131.58
470.0598, 48125.80
470.5419, 48130.55
471.0240, 48142.81
471.5061, 48160.35
471.9883, 48203.12
472.4704, 48282.41
472.9525, 48364.46
473.4346, 48410.11
473.9167, 48418.52
474.3988, 48396.19
474.8810, 48330.99
475.3631, 48243.62
475.8452, 48195.21
476.3273, 48185.73
476.8094, 48185.20
477.2915, 48149.21
477.7737, 48109.27
478.2558, 48150.84
478.7379, 48316.10
479.2200, 48478.40
479.7021, 48496.83
480.1842, 48416.49
480.6664, 48340.29
481.1485, 48313.38
481.6306, 48311.59
482.1127, 48320.29
482.5948, 48337.74
483.0769, 48363.73
483.5591, 48431.73
484.0412, 48489.37
484.5233, 48489.92
485.0054, 48325.78
485.4875, 48211.50
485.9696, 48195.52
486.4518, 48261.95
486.9339, 48330.04
487.4160, 48405.21
487.8981, 48475.93
488.3802, 48543.77
488.8623, 48624.79
489.3445, 48644.05
489.8266, 48572.97
490.3087, 48477.71
490.7908, 48474.74
491.2729, 48587.77
491.7550, 48632.48
492.2372, 48520.56
492.7193, 48306.12
493.2014, 48221.89
493.6835, 48270.47
494.1656, 48349.68
494.6477, 48383.41
495.1299, 48384.23
495.6120, 48386.72
496.0941, 48398.08
496.5762, 48409.67
497.0583, 48408.76
497.5404, 48400.73
498.0226, 48399.09
498.5047, 48414.78
498.9868, 48436.52
499.4689, 48466.82
499.9510, 48507.70
500.4331, 48516.35
500.9153, 48456.90
501.3974, 48367.39
501.8795, 48280.56
502.3616, 48144.61
502.8437, 48080.26
503.3258, 48150.85
503.8080, 48318.55
504.2901, 48429.40
504.7722, 48459.05
505.2543, 48462.49
505.7364, 48459.09
506.2185, 48449.32
506.7007, 48429.77
507.1828, 48395.34
507.6649, 48357.88
508.1470, 48324.19
508.6291, 48291.05
509.1112, 48292.17
509.5934, 48337.60
510.0755, 48420.28
510.5576, 48551.74
511.0397, 48728.25
511.5218, 48851.13
512.0039, 48805.77
512.4860, 48664.56
512.9681, 48560.08
513.4503, 48509.97
513.9324, 48499.03
514.4145, 48527.43
514.8966, 48584.79
515.3787, 48652.32
515.8608, 48743.80
516.3430, 48826.79
516.8251, 48887.98
517.3072, 48927.85
517.7893, 48943.09
518.2714, 48903.84
518.7535, 48860.57
519.2357, 48845.98
519.7178, 48915.09
520.1999, 48940.86
520.6820, 48891.85
521.1641, 48809.93
521.6462, 48779.41
522.1284, 48823.98
522.6105, 48868.73
523.0926, 48887.65
523.5747, 48881.86
524.0568, 48893.74
524.5389, 48929.07
525.0211, 48957.75
525.5032, 48939.62
525.9853, 48883.29
526.4674, 48843.86
526.9495, 48824.39
527.4316, 48839.60
527.9138, 48949.11
528.3959, 49121.79
528.8780, 49249.64
529.3601, 49230.02
529.8422, 49162.56
530.3243, 49144.32
530.8065, 49182.65
531.2886, 49227.96
531.7707, 49261.90
532.2528, 49286.23
532.7349, 49303.73
533.2170, 49325.80
533.6992, 49329.51
534.1813, 49300.10
534.6634, 49247.89
535.1455, 49206.02
535.6276, 49156.85
536.1097, 49141.96
536.5919, 49190.98
537.0740, 49321.57
537.5561, 49385.14
538.0382, 49355.15
538.5203, 49307.64
539.0024, 49336.54
539.4846, 49448.66
539.9667, 49508.83
540.4488, 49470.06
540.9309, 49391.54
541.4130, 49410.89
541.8951, 49516.05
542.3773, 49603.49
542.8594, 49575.38
543.3415, 49504.69
543.8236, 49510.82
544.3057, 49606.04
544.7878, 49700.78
545.2700, 49725.83
545.7521, 49716.29
546.2342, 49713.38
546.7163, 49754.60
547.1984, 49776.98
547.6805, 49756.54
548.1627, 49699.73
548.6448, 49629.04
549.1269, 49505.70
549.6090, 49408.72
550.0911, 49375.89
550.5732, 49428.89
551.0554, 49440.47
551.5375, 49376.50
552.0196, 49314.69
552.5017, 49357.93
552.9838, 49535.24
553.4659, 49625.96
553.9481, 49572.31
554.4302, 49432.73
554.9123, 49324.48
555.3944, 49248.02
555.8765, 49215.68
556.3586, 49268.17
556.8408, 49358.59
557.3229, 49398.42
557.8050, 49381.76
558.2871, 49357.82
558.7692, 49378.29
559.2513, 49409.30
559.7335, 49405.15
560.2156, 49303.80
560.6977, 49229.88
561.1798, 49256.29
561.6619, 49349.53
562.1440, 49418.26
562.6262, 49448.89
563.1083, 49448.10
563.5904, 49401.12
564.0725, 49292.49
564.5546, 49252.97
565.0367, 49308.00
565.5189, 49397.15
566.0010, 49470.00
566.4831, 49522.06
566.9652, 49587.49
567.4473, 49691.80
567.9294, 49779.52
568.4116, 49718.45
568.8937, 49520.63
569.3758, 49336.08
569.8579, 49238.52
570.3400, 49200.93
570.8221, 49182.08
571.3043, 49182.41
571.7864, 49192.76
572.2685, 49222.94
572.7506, 49254.07
573.2327, 49262.48
573.7148, 49225.70
574.1970, 49201.70
574.6791, 49223.51
575.1612, 49270.11
575.6433, 49303.82
576.1254, 49303.29
576.6075, 49304.48
577.0897, 49315.51
577.5718, 49335.32
578.0539, 49348.38
578.5360, 49346.47
579.0181, 49351.35
579.5002, 49382.62
579.9824, 49443.08
580.4645, 49490.03
580.9466, 49523.43
581.4287, 49538.80
581.9108, 49513.28
582.3929, 49458.77
582.8751, 49433.46
583.3572, 49491.55
583.8393, 49557.98
584.3214, 49503.86
584.8035, 49360.21
585.2856, 49272.84
585.7678, 49366.88
586.2499, 49516.65
586.7320, 49641.10
587.2141, 49734.01
587.6962, 49776.02
588.1783, 49714.69
588.6605, 49622.52
589.1426, 49573.33
589.6247, 49566.24
590.1068, 49612.59
590.5889, 49757.63
591.0710, 49946.98
591.5532, 50000.52
592.0353, 49879.97
592.5174, 49768.71
592.9995, 49756.50
593.4816, 49828.52
593.9637, 49882.83
594.4459, 49920.08
594.9280, 49932.63
595.4101, 49869.94
595.8922, 49783.65
596.3743, 49794.77
596.8564, 49969.39
597.3386, 50144.89
597.8207, 50158.48
598.3028, 50082.87
598.7849, 50052.18
599.2670, 50198.44
599.7491, 50319.68
600.2313, 50315.69
600.7134, 50189.88
601.1955, 50102.79
601.6776, 50048.02
602.1597, 50052.04
602.6418, 50145.84
603.1240, 50375.20
603.6061, 50521.31
604.0882, 50564.21
604.5703, 50555.16
605.0524, 50533.23
605.5345, 50499.91
606.0167, 50552.31
606.4988, 50761.96
606.9809, 51012.51
607.4630, 51088.11
607.9451, 51019.75
608.4272, 50952.84
608.9094, 50947.00
609.3915, 50999.88
609.8736, 51145.46
610.3557, 51390.00
610.8378, 51573.16
611.3199, 51525.54
611.8021, 51447.12
612.2842, 51498.95
612.7663, 51883.28
613.2484, 52144.20
613.7305, 52218.29
614.2126, 52177.04
614.6948, 52130.58
615.1769, 52051.62
615.6590, 52037.29
616.1411, 52126.13
616.6232, 52297.02
617.1053, 52462.43
617.5875, 52623.09
618.0696, 52758.04
618.5517, 52830.79
619.0338, 52871.91
619.5159, 52964.31
619.9980, 53122.91
620.4802, 53257.31
620.9623, 53247.80
621.4444, 53190.00
621.9265, 53210.77
622.4086, 53440.12
622.8907, 53637.07
623.3729, 53720.26
623.8550, 53714.46
624.3371, 53678.51
624.8192, 53534.07
625.3013, 53459.38
625.7834, 53510.72
626.2656, 53683.98
626.7477, 53877.59
627.2298, 54104.05
627.7119, 54312.74
628.1940, 54448.20
628.6761, 54518.77
629.1583, 54638.07
629.6404, 54824.27
630.1225, 55016.21
630.6046, 55153.79
631.0867, 55248.30
631.5688, 55325.30
632.0510, 55400.58
632.5331, 55453.38
633.0152, 55437.04
633.4973, 55383.88
633.9794, 55386.43
634.4615, 55494.43
634.9437, 55646.59
635.4258, 55850.79
635.9079, 56122.08
636.3900, 56278.37
636.8721, 56239.16
637.3542, 56190.88
637.8364, 56276.36
638.3185, 56521.91
638.8006, 56699.55
639.2827, 56784.63
639.7648, 56829.39
640.2469, 56904.67
640.7291, 57004.00
641.2112, 57096.61
641.6933, 57176.36
642.1754, 57239.66
642.6575, 57262.84
643.1396, 57261.77
643.6218, 57286.76
644.1039, 57374.67
644.5860, 57485.77
645.0681, 57612.89
645.5502, 57756.46
646.0323, 57863.55
646.5145, 57899.68
646.9966, 57917.71
647.4787, 57938.32
647.9608, 57937.36
648.4429, 58019.32
648.9250, 58229.61
649.4072, 58455.97
649.8893, 58526.03
650.3714, 58447.20
650.8535, 58389.03
651.3356, 58412.87
651.8177, 58457.09
652.2999, 58393.18
652.7820, 58254.61
653.2641, 58170.87
653.7462, 58262.13
654.2283, 58393.75
654.7104, 58476.26
655.1926, 58504.77
655.6747, 58509.73
656.1568, 58498.61
656.6389, 58468.54
657.1210, 58413.87
657.6031, 58315.15
658.0853, 58245.04
658.5674, 58220.66
659.0495, 58204.46
659.5316, 58136.32
660.0137, 58007.04
660.4958, 57941.31
660.9779, 57988.13
661.4600, 58071.22
661.9421, 58027.76
662.4243, 57890.52
662.9064, 57799.91
663.3885, 57916.40
663.8706, 58047.43
664.3527, 57987.88
664.8348, 57756.46
665.3170, 57544.79
665.7991, 57438.73
666.2812, 57370.18
666.7633, 57306.68
667.2454, 57256.57
667.7275, 57176.69
668.2097, 57062.22
668.6918, 56922.76
669.1739, 56771.32
669.6560, 56612.79
670.1381, 56409.26
670.6202, 56136.97
671.1024, 55857.65
671.5845, 55695.17
