##NAMES=Carnotite
##RRUFFID=R070647
##IDEAL CHEMISTRY=K_2_(U^6+^O_2_)_2_(V^5+^O_4_)_2_&#183;3H_2_O
##LOCALITY=Anderson mine, Yavapai County, Arizona, USA
##OWNER=RRUFF
##SOURCE=Lloyd Twaites
##DESCRIPTION=Orange blocky crystals associated with yellow platy weeksite, R050330
##STATUS=The identification of this mineral has been confirmed by single-crystal X-ray diffraction.
##URL=rruff.info/R070647
111.8096, 17472.92
112.2917, 17440.89
112.7738, 17400.13
113.2559, 17417.94
113.7380, 17547.43
114.2202, 17670.25
114.7023, 17749.09
115.1844, 17800.94
115.6665, 17878.14
116.1486, 18033.62
116.6307, 18241.35
117.1129, 18320.59
117.5950, 18209.34
118.0771, 18023.56
118.5592, 17865.63
119.0413, 17746.27
119.5234, 17564.50
120.0056, 17181.14
120.4877, 16656.00
120.9698, 16144.38
121.4519, 15664.56
121.9340, 15231.65
122.4161, 14887.69
122.8982, 14662.41
123.3804, 14497.46
123.8625, 14355.83
124.3446, 14232.51
124.8267, 14102.79
125.3088, 13935.80
125.7909, 13726.69
126.2731, 13548.01
126.7552, 13429.82
127.2373, 13331.49
127.7194, 13243.26
128.2015, 13160.59
128.6837, 13075.26
129.1658, 12970.52
129.6479, 12824.26
130.1300, 12703.07
130.6121, 12607.30
131.0942, 12536.20
131.5764, 12495.33
132.0585, 12487.40
132.5406, 12500.62
133.0227, 12493.84
133.5048, 12459.63
133.9869, 12411.41
134.4691, 12323.57
134.9512, 12224.07
135.4333, 12164.05
135.9154, 12182.19
136.3975, 12272.05
136.8796, 12311.08
137.3618, 12259.58
137.8439, 12204.65
138.3260, 12190.24
138.8081, 12214.81
139.2902, 12248.71
139.7723, 12269.95
140.2545, 12277.62
140.7366, 12279.79
141.2187, 12270.93
141.7008, 12259.40
142.1829, 12252.07
142.6650, 12248.58
143.1472, 12254.55
143.6293, 12287.17
144.1114, 12339.74
144.5935, 12377.93
145.0756, 12369.66
145.5577, 12332.54
146.0399, 12330.34
146.5220, 12401.08
147.0041, 12476.18
147.4862, 12498.15
147.9683, 12468.71
148.4504, 12428.86
148.9326, 12411.19
149.4147, 12417.12
149.8968, 12428.64
150.3789, 12460.61
150.8610, 12485.87
151.3431, 12482.20
151.8252, 12445.64
152.3074, 12400.15
152.7895, 12384.45
153.2716, 12414.26
153.7537, 12441.36
154.2358, 12460.04
154.7179, 12473.88
155.2001, 12483.62
155.6822, 12489.54
156.1643, 12495.52
156.6464, 12513.47
157.1285, 12554.43
157.6106, 12596.65
158.0928, 12622.95
158.5749, 12651.86
159.0570, 12713.71
159.5391, 12829.63
160.0212, 12992.49
160.5033, 13116.56
160.9855, 13174.42
161.4676, 13228.00
161.9497, 13288.01
162.4318, 13358.07
162.9139, 13444.98
163.3960, 13557.82
163.8782, 13697.69
164.3603, 13816.70
164.8424, 13884.00
165.3245, 13956.54
165.8066, 14084.18
166.2887, 14267.75
166.7709, 14446.85
167.2530, 14551.73
167.7351, 14584.67
168.2172, 14664.07
168.6993, 14836.00
169.1814, 15047.84
169.6636, 15239.31
170.1457, 15402.29
170.6278, 15543.81
171.1099, 15666.75
171.5920, 15774.35
172.0741, 15873.09
172.5563, 15962.77
173.0384, 16045.50
173.5205, 16127.13
174.0026, 16212.25
174.4847, 16291.56
174.9668, 16357.51
175.4490, 16410.98
175.9311, 16460.23
176.4132, 16522.57
176.8953, 16596.93
177.3774, 16630.33
177.8595, 16573.94
178.3417, 16503.29
178.8238, 16464.38
179.3059, 16461.70
179.7880, 16475.73
180.2701, 16488.52
180.7522, 16501.67
181.2344, 16506.57
181.7165, 16491.63
182.1986, 16474.80
182.6807, 16464.93
183.1628, 16464.84
183.6449, 16475.11
184.1271, 16497.96
184.6092, 16539.50
185.0913, 16582.46
185.5734, 16621.44
186.0555, 16662.23
186.5376, 16709.22
187.0198, 16764.34
187.5019, 16826.84
187.9840, 16895.57
188.4661, 16961.58
188.9482, 17047.73
189.4303, 17175.65
189.9125, 17318.19
190.3946, 17436.88
190.8767, 17511.53
191.3588, 17557.85
191.8409, 17653.55
192.3230, 17827.11
192.8052, 18017.88
193.2873, 18238.33
193.7694, 18467.07
194.2515, 18670.85
194.7336, 18831.32
195.2157, 18949.36
195.6979, 19033.77
196.1800, 19083.68
196.6621, 19110.46
197.1442, 19120.51
197.6263, 19111.42
198.1084, 19075.18
198.5906, 19004.94
199.0727, 18899.47
199.5548, 18774.42
200.0369, 18632.62
200.5190, 18472.71
201.0011, 18283.56
201.4833, 18068.47
201.9654, 17854.38
202.4475, 17655.43
202.9296, 17475.68
203.4117, 17318.04
203.8938, 17209.63
204.3760, 17106.57
204.8581, 16958.41
205.3402, 16759.07
205.8223, 16571.93
206.3044, 16456.33
206.7865, 16396.50
207.2687, 16338.92
207.7508, 16256.66
208.2329, 16178.11
208.7150, 16142.35
209.1971, 16154.89
209.6792, 16196.92
210.1614, 16264.88
210.6435, 16351.33
211.1256, 16442.58
211.6077, 16527.84
212.0898, 16615.03
212.5719, 16720.53
213.0541, 16844.23
213.5362, 16989.95
214.0183, 17174.23
214.5004, 17381.78
214.9825, 17574.97
215.4646, 17714.53
215.9468, 17818.11
216.4289, 17961.72
216.9110, 18179.94
217.3931, 18393.98
217.8752, 18558.46
218.3573, 18684.13
218.8395, 18801.07
219.3216, 18920.73
219.8037, 19044.43
220.2858, 19196.53
220.7679, 19426.96
221.2500, 19631.41
221.7322, 19749.70
222.2143, 19798.97
222.6964, 19837.28
223.1785, 19915.26
223.6606, 20035.53
224.1427, 20136.41
224.6249, 20207.79
225.1070, 20266.15
225.5891, 20305.24
226.0712, 20333.01
226.5533, 20372.06
227.0354, 20456.68
227.5176, 20601.15
227.9997, 20687.28
228.4818, 20702.33
228.9639, 20666.55
229.4460, 20584.01
229.9281, 20455.34
230.4103, 20278.69
230.8924, 20055.51
231.3745, 19788.48
231.8566, 19453.30
232.3387, 18993.57
232.8208, 18516.77
233.3030, 18061.97
233.7851, 17634.94
234.2672, 17230.15
234.7493, 16838.65
235.2314, 16453.34
235.7135, 16111.89
236.1957, 15834.30
236.6778, 15574.94
237.1599, 15303.50
237.6420, 15022.51
238.1241, 14763.88
238.6062, 14568.08
239.0884, 14453.52
239.5705, 14345.40
240.0526, 14222.71
240.5347, 14121.22
241.0168, 14064.84
241.4989, 14054.39
241.9811, 14074.76
242.4632, 14110.95
242.9453, 14171.10
243.4274, 14222.31
243.9095, 14254.91
244.3916, 14286.79
244.8738, 14321.95
245.3559, 14364.37
245.8380, 14427.31
246.3201, 14529.88
246.8022, 14692.31
247.2843, 14829.79
247.7665, 14918.70
248.2486, 15002.46
248.7307, 15111.27
249.2128, 15249.11
249.6949, 15401.92
250.1770, 15557.08
250.6592, 15721.33
251.1413, 15857.18
251.6234, 15954.85
252.1055, 16032.61
252.5876, 16099.81
253.0697, 16158.94
253.5519, 16217.51
254.0340, 16288.35
254.5161, 16383.72
254.9982, 16425.58
255.4803, 16385.57
255.9624, 16312.32
256.4445, 16242.54
256.9267, 16181.23
257.4088, 16111.13
257.8909, 16011.32
258.3730, 15872.79
258.8551, 15748.78
259.3372, 15642.73
259.8194, 15549.36
260.3015, 15468.89
260.7836, 15400.28
261.2657, 15333.29
261.7478, 15259.22
262.2299, 15177.00
262.7121, 15086.51
263.1942, 14974.60
263.6763, 14863.40
264.1584, 14766.18
264.6405, 14685.20
265.1227, 14627.05
265.6048, 14606.28
266.0869, 14626.06
266.5690, 14620.60
267.0511, 14568.85
267.5332, 14504.60
268.0154, 14453.16
268.4975, 14416.67
268.9796, 14389.45
269.4617, 14372.48
269.9438, 14363.99
270.4259, 14334.48
270.9081, 14264.72
271.3902, 14186.57
271.8723, 14135.71
272.3544, 14110.77
272.8365, 14064.36
273.3186, 13950.56
273.8008, 13775.08
274.2829, 13629.79
274.7650, 13550.41
275.2471, 13476.04
275.7292, 13363.48
276.2113, 13212.95
276.6935, 13039.62
277.1756, 12846.42
277.6577, 12637.12
278.1398, 12447.33
278.6219, 12295.30
279.1040, 12147.19
279.5862, 11974.19
280.0683, 11779.49
280.5504, 11592.81
281.0325, 11432.88
281.5146, 11297.56
281.9967, 11167.46
282.4789, 11048.35
282.9610, 10928.35
283.4431, 10793.19
283.9252, 10647.02
284.4073, 10517.02
284.8894, 10422.45
285.3716, 10352.02
285.8537, 10266.62
286.3358, 10157.74
286.8179, 10045.61
287.3000, 9933.019
287.7821, 9823.797
288.2643, 9737.337
288.7464, 9686.562
289.2285, 9660.654
289.7106, 9629.077
290.1927, 9584.383
290.6748, 9547.619
291.1570, 9530.294
291.6391, 9529.134
292.1212, 9533.895
292.6033, 9539.968
293.0854, 9551.215
293.5675, 9576.354
294.0497, 9619.702
294.5318, 9663.116
295.0139, 9696.361
295.4960, 9724.446
295.9781, 9759.717
296.4602, 9807.535
296.9424, 9861.231
297.4245, 9904.569
297.9066, 9931.103
298.3887, 9975.722
298.8708, 10058.27
299.3529, 10164.34
299.8351, 10265.03
300.3172, 10349.37
300.7993, 10439.84
301.2814, 10578.81
301.7635, 10769.71
302.2456, 10949.65
302.7278, 11094.24
303.2099, 11222.51
303.6920, 11354.04
304.1741, 11491.35
304.6562, 11643.01
305.1383, 11829.01
305.6205, 12051.36
306.1026, 12258.34
306.5847, 12421.80
307.0668, 12578.25
307.5489, 12771.58
308.0310, 13008.01
308.5132, 13247.18
308.9953, 13448.62
309.4774, 13610.73
309.9595, 13790.76
310.4416, 14005.24
310.9237, 14228.28
311.4059, 14441.23
311.8880, 14642.39
312.3701, 14838.35
312.8522, 15033.05
313.3343, 15226.20
313.8164, 15427.56
314.2986, 15680.62
314.7807, 15902.24
315.2628, 16027.95
315.7449, 16073.12
316.2270, 16114.51
316.7091, 16209.73
317.1913, 16335.41
317.6734, 16360.25
318.1555, 16245.56
318.6376, 16090.40
319.1197, 15921.28
319.6018, 15739.22
320.0840, 15546.65
320.5661, 15348.75
321.0482, 15136.67
321.5303, 14881.17
322.0124, 14563.37
322.4945, 14236.35
322.9767, 13907.99
323.4588, 13577.86
323.9409, 13237.18
324.4230, 12879.69
324.9051, 12530.31
325.3872, 12238.16
325.8694, 12039.19
326.3515, 11836.94
326.8336, 11610.06
327.3157, 11385.67
327.7978, 11187.76
328.2799, 11023.53
328.7621, 10890.03
329.2442, 10783.02
329.7263, 10712.39
330.2084, 10650.41
330.6905, 10592.11
331.1726, 10545.42
331.6548, 10519.51
332.1369, 10513.47
332.6190, 10514.72
333.1011, 10508.79
333.5832, 10490.39
334.0653, 10497.18
334.5475, 10532.54
335.0296, 10584.42
335.5117, 10653.06
335.9938, 10733.98
336.4759, 10818.25
336.9580, 10898.75
337.4402, 10975.61
337.9223, 11057.81
338.4044, 11133.61
338.8865, 11226.62
339.3686, 11341.87
339.8507, 11479.38
340.3329, 11641.04
340.8150, 11830.66
341.2971, 12039.87
341.7792, 12233.47
342.2613, 12384.22
342.7434, 12553.84
343.2256, 12753.25
343.7077, 12971.88
344.1898, 13197.59
344.6719, 13425.63
345.1540, 13660.41
345.6361, 13913.70
346.1183, 14193.12
346.6004, 14476.62
347.0825, 14770.64
347.5646, 15060.22
348.0467, 15330.03
348.5288, 15577.83
349.0110, 15825.46
349.4931, 16098.01
349.9752, 16400.52
350.4573, 16711.68
350.9394, 17036.75
351.4215, 17369.40
351.9037, 17706.06
352.3858, 18048.11
352.8679, 18400.50
353.3500, 18776.25
353.8321, 19172.95
354.3142, 19528.93
354.7964, 19799.91
355.2785, 20080.64
355.7606, 20419.95
356.2427, 20795.78
356.7248, 21164.80
357.2069, 21498.44
357.6891, 21809.13
358.1712, 22131.89
358.6533, 22478.00
359.1354, 22814.12
359.6175, 23117.57
360.0996, 23407.16
360.5818, 23705.17
361.0639, 24022.51
361.5460, 24341.44
362.0281, 24633.43
362.5102, 24896.65
362.9923, 25158.15
363.4745, 25403.36
363.9566, 25668.43
364.4387, 25991.37
364.9208, 26381.69
365.4029, 26787.14
365.8850, 27169.10
366.3672, 27531.95
366.8493, 27909.72
367.3314, 28312.68
367.8135, 28726.35
368.2956, 29147.65
368.7777, 29574.39
369.2599, 29971.07
369.7420, 30313.24
370.2241, 30616.07
370.7062, 30902.28
371.1883, 31174.64
371.6704, 31431.03
372.1526, 31676.85
372.6347, 31908.59
373.1168, 32104.34
373.5989, 32291.81
374.0810, 32420.34
374.5631, 32448.28
375.0453, 32377.17
375.5274, 32232.34
376.0095, 32027.71
376.4916, 31756.22
376.9737, 31403.42
377.4558, 30965.38
377.9380, 30461.01
378.4201, 29894.66
378.9022, 29265.97
379.3843, 28575.12
379.8664, 27821.29
380.3485, 27012.16
380.8307, 26174.46
381.3128, 25291.11
381.7949, 24404.07
382.2770, 23468.47
382.7591, 22554.08
383.2412, 21753.36
383.7234, 21074.25
384.2055, 20439.54
384.6876, 19759.18
385.1697, 19004.47
385.6518, 18326.13
386.1339, 17735.79
386.6161, 17195.03
387.0982, 16688.15
387.5803, 16212.97
388.0624, 15777.97
388.5445, 15388.03
389.0266, 15040.97
389.5088, 14720.98
389.9909, 14438.00
390.4730, 14174.29
390.9551, 13906.58
391.4372, 13664.11
391.9193, 13490.23
392.4015, 13404.90
392.8836, 13374.33
393.3657, 13326.52
393.8478, 13241.43
394.3299, 13190.43
394.8120, 13192.96
395.2942, 13223.11
395.7763, 13263.02
396.2584, 13310.78
396.7405, 13379.00
397.2226, 13477.12
397.7047, 13604.64
398.1869, 13775.76
398.6690, 14039.13
399.1511, 14289.52
399.6332, 14455.78
400.1153, 14559.75
400.5974, 14666.79
401.0796, 14799.10
401.5617, 14961.21
402.0438, 15172.48
402.5259, 15444.48
403.0080, 15720.48
403.4901, 15966.90
403.9723, 16199.27
404.4544, 16439.25
404.9365, 16697.19
405.4186, 16952.99
405.9007, 17188.90
406.3828, 17406.72
406.8650, 17619.39
407.3471, 17837.74
407.8292, 18042.26
408.3113, 18205.43
408.7934, 18329.68
409.2755, 18416.14
409.7577, 18476.81
410.2398, 18494.17
410.7219, 18446.09
411.2040, 18328.88
411.6861, 18143.25
412.1682, 17883.58
412.6504, 17540.52
413.1325, 17171.64
413.6146, 16768.21
414.0967, 16347.60
414.5788, 15917.58
415.0609, 15477.48
415.5431, 15016.29
416.0252, 14522.48
416.5073, 14009.78
416.9894, 13534.32
417.4715, 13102.52
417.9536, 12699.35
418.4358, 12338.93
418.9179, 11999.91
419.4000, 11653.92
419.8821, 11293.76
420.3642, 10938.82
420.8463, 10619.26
421.3285, 10346.30
421.8106, 10082.25
422.2927, 9814.881
422.7748, 9567.344
423.2569, 9354.735
423.7390, 9173.912
424.2212, 9009.532
424.7033, 8850.186
425.1854, 8697.701
425.6675, 8558.195
426.1496, 8427.073
426.6317, 8320.320
427.1139, 8240.915
427.5960, 8186.723
428.0781, 8164.759
428.5602, 8191.339
429.0423, 8212.637
429.5244, 8147.958
430.0066, 7995.141
430.4887, 7855.553
430.9708, 7757.137
431.4529, 7685.424
431.9350, 7621.468
432.4171, 7564.954
432.8993, 7518.538
433.3814, 7488.734
433.8635, 7468.657
434.3456, 7443.746
434.8277, 7411.161
435.3098, 7382.808
435.7920, 7371.696
436.2741, 7376.201
436.7562, 7371.822
437.2383, 7349.982
437.7204, 7326.221
438.2025, 7306.704
438.6847, 7292.404
439.1668, 7286.066
439.6489, 7289.980
440.1310, 7300.032
440.6131, 7304.938
441.0952, 7291.947
441.5774, 7292.042
442.0595, 7320.454
442.5416, 7354.479
443.0237, 7373.792
443.5058, 7374.882
443.9879, 7365.608
444.4701, 7352.271
444.9522, 7332.264
445.4343, 7327.276
445.9164, 7350.578
446.3985, 7375.751
446.8806, 7396.826
447.3628, 7413.407
447.8449, 7426.607
448.3270, 7437.425
448.8091, 7444.390
449.2912, 7442.156
449.7733, 7425.878
450.2555, 7413.932
450.7376, 7407.290
451.2197, 7409.236
451.7018, 7428.223
452.1839, 7465.200
452.6660, 7498.554
453.1482, 7505.974
453.6303, 7493.622
454.1124, 7489.302
454.5945, 7495.752
455.0766, 7511.551
455.5587, 7538.593
456.0409, 7574.463
456.5230, 7613.256
457.0051, 7665.304
457.4872, 7711.383
457.9693, 7726.098
458.4514, 7715.702
458.9336, 7716.253
459.4156, 7747.020
459.8978, 7796.926
460.3799, 7835.654
460.8620, 7851.144
461.3441, 7879.704
461.8262, 7938.403
462.3083, 8007.503
462.7905, 8065.726
463.2726, 8109.528
463.7547, 8148.265
464.2368, 8191.278
464.7189, 8238.371
465.2010, 8290.792
465.6832, 8347.971
466.1653, 8410.166
466.6474, 8481.861
467.1295, 8557.538
467.6116, 8629.460
468.0938, 8692.894
468.5759, 8751.470
469.0580, 8813.070
469.5401, 8880.348
470.0222, 8943.625
470.5043, 8990.132
470.9865, 9039.985
471.4686, 9108.683
471.9507, 9195.994
472.4328, 9287.846
472.9149, 9374.959
473.3970, 9458.013
473.8792, 9540.288
474.3613, 9623.404
474.8434, 9701.069
475.3255, 9764.530
475.8076, 9820.169
476.2897, 9881.922
476.7719, 9953.099
477.2540, 10029.27
477.7361, 10112.37
478.2182, 10198.61
478.7003, 10276.22
479.1824, 10340.37
479.6646, 10396.07
480.1467, 10449.37
480.6288, 10498.72
481.1109, 10551.64
481.5930, 10629.45
482.0751, 10694.41
482.5573, 10712.01
483.0394, 10688.76
483.5215, 10659.28
484.0036, 10649.33
484.4857, 10653.87
484.9678, 10639.47
485.4500, 10593.39
485.9321, 10543.75
486.4142, 10487.49
486.8963, 10433.23
487.3784, 10393.99
487.8605, 10371.51
488.3427, 10346.54
488.8248, 10294.75
489.3069, 10215.01
489.7890, 10132.57
490.2711, 10033.96
490.7532, 9953.581
491.2354, 9913.343
491.7175, 9902.896
492.1996, 9898.156
492.6817, 9896.818
493.1638, 9890.435
493.6459, 9858.051
494.1281, 9802.964
494.6102, 9774.413
495.0923, 9799.245
495.5744, 9850.320
496.0565, 9878.494
496.5386, 9878.000
497.0208, 9885.842
497.5029, 9915.833
497.9850, 9954.902
498.4671, 9995.672
498.9492, 10034.59
499.4313, 10058.40
499.9135, 10051.21
500.3956, 10017.82
500.8777, 10023.76
501.3598, 10106.09
501.8419, 10183.29
502.3240, 10246.82
502.8062, 10296.36
503.2883, 10329.09
503.7704, 10345.30
504.2525, 10356.33
504.7346, 10379.93
505.2167, 10419.72
505.6989, 10445.78
506.1810, 10457.93
506.6631, 10454.18
507.1452, 10432.17
507.6273, 10394.87
508.1094, 10348.25
508.5916, 10292.97
509.0737, 10231.95
509.5558, 10169.66
510.0379, 10106.20
510.5200, 10035.71
511.0021, 9948.048
511.4843, 9862.188
511.9664, 9815.550
512.4485, 9816.120
512.9306, 9792.070
513.4127, 9694.337
513.8948, 9583.619
514.3770, 9520.615
514.8591, 9506.711
515.3412, 9511.500
515.8233, 9516.150
516.3054, 9519.738
516.7875, 9516.129
517.2697, 9490.336
517.7518, 9475.967
518.2339, 9478.491
518.7160, 9492.579
519.1981, 9514.217
519.6802, 9542.022
520.1624, 9574.695
520.6445, 9610.587
521.1266, 9649.632
521.6087, 9695.084
522.0908, 9750.120
522.5729, 9806.669
523.0551, 9851.439
523.5372, 9897.470
524.0193, 9966.162
524.5014, 10067.74
524.9835, 10185.21
525.4656, 10303.56
525.9478, 10423.23
526.4299, 10551.06
526.9120, 10690.69
527.3941, 10832.29
527.8762, 10962.85
528.3583, 11081.68
528.8405, 11204.15
529.3226, 11325.75
529.8047, 11457.04
530.2868, 11609.99
530.7689, 11779.12
531.2510, 11951.39
531.7332, 12120.63
532.2153, 12286.15
532.6974, 12445.54
533.1795, 12591.74
533.6616, 12744.80
534.1437, 12915.47
534.6259, 13083.82
535.1080, 13246.27
535.5901, 13396.68
536.0722, 13517.83
536.5543, 13592.51
537.0364, 13631.59
537.5186, 13666.54
538.0007, 13697.95
538.4828, 13724.42
538.9649, 13760.50
539.4470, 13780.79
539.9291, 13754.46
540.4113, 13676.16
540.8934, 13576.03
541.3755, 13468.77
541.8576, 13349.13
542.3397, 13210.40
542.8218, 13051.70
543.3040, 12873.16
543.7861, 12673.05
544.2682, 12452.97
544.7503, 12225.71
545.2324, 11980.80
545.7145, 11742.15
546.1967, 11516.00
546.6788, 11299.35
547.1609, 11089.68
547.6430, 10886.98
548.1251, 10690.37
548.6072, 10500.80
549.0894, 10318.31
549.5715, 10130.48
550.0536, 9914.796
550.5357, 9726.876
551.0178, 9601.217
551.4999, 9506.338
551.9821, 9395.277
552.4642, 9250.192
552.9463, 9106.898
553.4284, 9004.876
553.9105, 8884.586
554.3926, 8816.832
554.8748, 8741.444
555.3569, 8659.390
555.8390, 8523.430
556.3211, 8477.805
556.8032, 8408.659
557.2853, 8347.236
557.7675, 8340.201
558.2496, 8258.666
558.7317, 8269.028
559.2138, 8259.419
559.6959, 8249.247
560.1780, 8242.450
560.6602, 8221.172
561.1423, 8174.936
561.6244, 8156.395
562.1065, 8190.823
562.5886, 8229.503
563.0707, 8252.288
563.5529, 8268.193
564.0350, 8296.755
564.5171, 8348.828
564.9992, 8408.979
565.4813, 8454.284
565.9634, 8486.084
566.4456, 8526.286
566.9277, 8581.147
567.4098, 8643.746
567.8919, 8712.090
568.3740, 8784.786
568.8561, 8845.340
569.3383, 8871.454
569.8204, 8903.230
570.3025, 8971.795
570.7846, 9066.910
571.2667, 9161.764
571.7488, 9244.885
572.2310, 9324.771
572.7131, 9415.970
573.1952, 9526.383
573.6773, 9627.731
574.1594, 9711.621
574.6415, 9795.254
575.1237, 9889.507
575.6058, 9988.817
576.0879, 10079.33
576.5700, 10151.16
577.0521, 10219.50
577.5342, 10316.82
578.0164, 10443.24
578.4985, 10544.06
578.9806, 10599.75
579.4627, 10635.43
579.9448, 10672.58
580.4269, 10711.33
580.9091, 10755.58
581.3912, 10827.99
581.8733, 10886.54
582.3554, 10895.11
582.8375, 10866.84
583.3196, 10837.01
583.8018, 10820.51
584.2839, 10806.75
584.7660, 10778.35
585.2481, 10736.45
585.7302, 10676.06
586.2123, 10578.58
586.6945, 10482.03
587.1766, 10411.86
587.6587, 10352.79
588.1408, 10270.38
588.6229, 10144.18
589.1050, 10003.47
589.5872, 9891.204
590.0693, 9805.793
590.5514, 9721.468
591.0335, 9635.074
591.5156, 9543.781
591.9977, 9438.887
592.4799, 9323.191
592.9620, 9220.872
593.4441, 9154.822
593.9262, 9083.963
594.4083, 8964.147
594.8904, 8825.340
595.3726, 8736.052
595.8547, 8719.660
596.3368, 8732.365
596.8189, 8713.285
597.3010, 8659.614
597.7831, 8587.892
598.2653, 8469.233
598.7474, 8362.937
599.2295, 8291.125
599.7116, 8243.241
600.1937, 8203.919
600.6758, 8169.799
601.1580, 8134.573
601.6401, 8087.721
602.1222, 8032.870
602.6043, 7992.085
603.0864, 7974.328
603.5685, 7949.115
604.0507, 7882.113
604.5328, 7780.216
605.0149, 7711.480
605.4970, 7717.711
605.9791, 7707.747
606.4612, 7631.008
606.9434, 7528.964
607.4255, 7453.357
607.9076, 7416.299
608.3897, 7398.491
