##NAMES=Carpholite
##RRUFFID=R060608
##IDEAL CHEMISTRY=Mn^2+^Al_2_Si_2_O_6_(OH)_4_
##LOCALITY=Schlaggenwald, Bohemia, Czechoslovakia
##OWNER=RRUFF
##SOURCE=Michael Scott
##DESCRIPTION=Tan colored radiating tufts of acicular crystals
##STATUS=The identification of this mineral is confirmed by single-crystal X-ray diffraction and chemical analysis.
##URL=rruff.info/R060608
##MEASURED CHEMISTRY=(Mn^2+^_0.90_Fe^2+^_0.09_Mg_0.01_)_Î£=1_Al_2.00_Si_2.00_O_6_(OH)_4_
9.059570e+001, 3.926715e+003
9.107782e+001, 3.924631e+003
9.155994e+001, 3.924082e+003
9.204205e+001, 3.932906e+003
9.252417e+001, 3.937601e+003
9.300629e+001, 3.929947e+003
9.348840e+001, 3.889216e+003
9.397052e+001, 3.798918e+003
9.445264e+001, 3.665272e+003
9.493475e+001, 3.543597e+003
9.541687e+001, 3.426639e+003
9.589898e+001, 3.312928e+003
9.638110e+001, 3.206800e+003
9.686321e+001, 3.112653e+003
9.734533e+001, 3.029923e+003
9.782745e+001, 2.950417e+003
9.830956e+001, 2.876481e+003
9.879168e+001, 2.807818e+003
9.927380e+001, 2.743474e+003
9.975591e+001, 2.682305e+003
1.002380e+002, 2.623991e+003
1.007201e+002, 2.569081e+003
1.012023e+002, 2.516632e+003
1.016844e+002, 2.468366e+003
1.021665e+002, 2.427598e+003
1.026486e+002, 2.395965e+003
1.031307e+002, 2.369761e+003
1.036128e+002, 2.346377e+003
1.040950e+002, 2.325731e+003
1.045771e+002, 2.306744e+003
1.050592e+002, 2.288403e+003
1.055413e+002, 2.270488e+003
1.060234e+002, 2.252951e+003
1.065055e+002, 2.233836e+003
1.069877e+002, 2.214562e+003
1.074698e+002, 2.201474e+003
1.079519e+002, 2.198094e+003
1.084340e+002, 2.196938e+003
1.089161e+002, 2.193901e+003
1.093982e+002, 2.190027e+003
1.098804e+002, 2.188124e+003
1.103625e+002, 2.190071e+003
1.108446e+002, 2.195312e+003
1.113267e+002, 2.207520e+003
1.118088e+002, 2.236921e+003
1.122909e+002, 2.264520e+003
1.127731e+002, 2.286845e+003
1.132552e+002, 2.300559e+003
1.137373e+002, 2.299270e+003
1.142194e+002, 2.273101e+003
1.147015e+002, 2.206205e+003
1.151836e+002, 2.138534e+003
1.156658e+002, 2.066299e+003
1.161479e+002, 1.994714e+003
1.166300e+002, 1.927796e+003
1.171121e+002, 1.866597e+003
1.175942e+002, 1.811939e+003
1.180763e+002, 1.767720e+003
1.185584e+002, 1.734249e+003
1.190406e+002, 1.706607e+003
1.195227e+002, 1.683949e+003
1.200048e+002, 1.666171e+003
1.204869e+002, 1.653281e+003
1.209690e+002, 1.646702e+003
1.214511e+002, 1.644512e+003
1.219333e+002, 1.641931e+003
1.224154e+002, 1.639253e+003
1.228975e+002, 1.635662e+003
1.233796e+002, 1.630962e+003
1.238617e+002, 1.625317e+003
1.243438e+002, 1.617024e+003
1.248260e+002, 1.602844e+003
1.253081e+002, 1.586400e+003
1.257902e+002, 1.570329e+003
1.262723e+002, 1.555166e+003
1.267544e+002, 1.541528e+003
1.272365e+002, 1.530906e+003
1.277187e+002, 1.523252e+003
1.282008e+002, 1.519288e+003
1.286829e+002, 1.521240e+003
1.291650e+002, 1.525891e+003
1.296471e+002, 1.529388e+003
1.301292e+002, 1.529675e+003
1.306114e+002, 1.526672e+003
1.310935e+002, 1.518980e+003
1.315756e+002, 1.502854e+003
1.320577e+002, 1.485259e+003
1.325398e+002, 1.467241e+003
1.330219e+002, 1.449049e+003
1.335041e+002, 1.430588e+003
1.339862e+002, 1.411420e+003
1.344683e+002, 1.390869e+003
1.349504e+002, 1.374427e+003
1.354325e+002, 1.364997e+003
1.359146e+002, 1.356470e+003
1.363968e+002, 1.344850e+003
1.368789e+002, 1.329980e+003
1.373610e+002, 1.315021e+003
1.378431e+002, 1.303966e+003
1.383252e+002, 1.297764e+003
1.388073e+002, 1.290766e+003
1.392895e+002, 1.281430e+003
1.397716e+002, 1.271600e+003
1.402537e+002, 1.263666e+003
1.407358e+002, 1.258447e+003
1.412179e+002, 1.254120e+003
1.417000e+002, 1.248365e+003
1.421821e+002, 1.241344e+003
1.426643e+002, 1.234244e+003
1.431464e+002, 1.227596e+003
1.436285e+002, 1.221276e+003
1.441106e+002, 1.214629e+003
1.445927e+002, 1.206765e+003
1.450748e+002, 1.199514e+003
1.455570e+002, 1.194956e+003
1.460391e+002, 1.193074e+003
1.465212e+002, 1.190837e+003
1.470033e+002, 1.184793e+003
1.474854e+002, 1.174336e+003
1.479675e+002, 1.165942e+003
1.484497e+002, 1.163459e+003
1.489318e+002, 1.161743e+003
1.494139e+002, 1.157928e+003
1.498960e+002, 1.151459e+003
1.503781e+002, 1.143826e+003
1.508602e+002, 1.137205e+003
1.513424e+002, 1.131714e+003
1.518245e+002, 1.126996e+003
1.523066e+002, 1.123248e+003
1.527887e+002, 1.119930e+003
1.532708e+002, 1.116399e+003
1.537529e+002, 1.112467e+003
1.542351e+002, 1.108660e+003
1.547172e+002, 1.106314e+003
1.551993e+002, 1.106259e+003
1.556814e+002, 1.106943e+003
1.561635e+002, 1.108489e+003
1.566456e+002, 1.110652e+003
1.571278e+002, 1.113453e+003
1.576099e+002, 1.116990e+003
1.580920e+002, 1.120758e+003
1.585741e+002, 1.122480e+003
1.590562e+002, 1.119064e+003
1.595383e+002, 1.117325e+003
1.600205e+002, 1.119584e+003
1.605026e+002, 1.124809e+003
1.609847e+002, 1.130833e+003
1.614668e+002, 1.136748e+003
1.619489e+002, 1.142244e+003
1.624310e+002, 1.146254e+003
1.629131e+002, 1.150496e+003
1.633953e+002, 1.151913e+003
1.638774e+002, 1.148320e+003
1.643595e+002, 1.139959e+003
1.648416e+002, 1.129106e+003
1.653237e+002, 1.116623e+003
1.658058e+002, 1.102484e+003
1.662880e+002, 1.086816e+003
1.667701e+002, 1.067923e+003
1.672522e+002, 1.048755e+003
1.677343e+002, 1.033012e+003
1.682164e+002, 1.021279e+003
1.686985e+002, 1.010310e+003
1.691807e+002, 9.973103e+002
1.696628e+002, 9.841848e+002
1.701449e+002, 9.735271e+002
1.706270e+002, 9.670396e+002
1.711091e+002, 9.632397e+002
1.715912e+002, 9.587577e+002
1.720734e+002, 9.532072e+002
1.725555e+002, 9.476599e+002
1.730376e+002, 9.423660e+002
1.735197e+002, 9.373352e+002
1.740018e+002, 9.324923e+002
1.744839e+002, 9.276712e+002
1.749661e+002, 9.230342e+002
1.754482e+002, 9.196805e+002
1.759303e+002, 9.187568e+002
1.764124e+002, 9.179590e+002
1.768945e+002, 9.169429e+002
1.773766e+002, 9.155994e+002
1.778588e+002, 9.138230e+002
1.783409e+002, 9.114905e+002
1.788230e+002, 9.085916e+002
1.793051e+002, 9.057156e+002
1.797872e+002, 9.031287e+002
1.802693e+002, 9.002982e+002
1.807515e+002, 8.968481e+002
1.812336e+002, 8.929738e+002
1.817157e+002, 8.892372e+002
1.821978e+002, 8.861602e+002
1.826799e+002, 8.838614e+002
1.831620e+002, 8.809955e+002
1.836441e+002, 8.758840e+002
1.841263e+002, 8.717658e+002
1.846084e+002, 8.710311e+002
1.850905e+002, 8.732415e+002
1.855726e+002, 8.756000e+002
1.860547e+002, 8.753313e+002
1.865368e+002, 8.719169e+002
1.870190e+002, 8.704216e+002
1.875011e+002, 8.718682e+002
1.879832e+002, 8.744155e+002
1.884653e+002, 8.768908e+002
1.889474e+002, 8.791365e+002
1.894296e+002, 8.813857e+002
1.899117e+002, 8.839934e+002
1.903938e+002, 8.869191e+002
1.908759e+002, 8.893067e+002
1.913580e+002, 8.901689e+002
1.918401e+002, 8.908491e+002
1.923223e+002, 8.930208e+002
1.928044e+002, 8.970458e+002
1.932865e+002, 9.016813e+002
1.937686e+002, 9.058375e+002
1.942507e+002, 9.096589e+002
1.947328e+002, 9.135455e+002
1.952150e+002, 9.175807e+002
1.956971e+002, 9.217772e+002
1.961792e+002, 9.262527e+002
1.966613e+002, 9.311769e+002
1.971434e+002, 9.360092e+002
1.976255e+002, 9.402881e+002
1.981077e+002, 9.441827e+002
1.985898e+002, 9.480158e+002
1.990719e+002, 9.516250e+002
1.995540e+002, 9.552419e+002
2.000361e+002, 9.599203e+002
2.005182e+002, 9.663587e+002
2.010004e+002, 9.730043e+002
2.014825e+002, 9.787063e+002
2.019646e+002, 9.838677e+002
2.024467e+002, 9.894370e+002
2.029288e+002, 9.962415e+002
2.034109e+002, 1.004211e+003
2.038930e+002, 1.011870e+003
2.043752e+002, 1.018507e+003
2.048573e+002, 1.025575e+003
2.053394e+002, 1.033572e+003
2.058215e+002, 1.042391e+003
2.063036e+002, 1.051778e+003
2.067857e+002, 1.061557e+003
2.072679e+002, 1.071746e+003
2.077500e+002, 1.081985e+003
2.082321e+002, 1.094103e+003
2.087142e+002, 1.104567e+003
2.091963e+002, 1.112550e+003
2.096784e+002, 1.117866e+003
2.101606e+002, 1.120512e+003
2.106427e+002, 1.120462e+003
2.111248e+002, 1.117705e+003
2.116069e+002, 1.112178e+003
2.120890e+002, 1.104499e+003
2.125711e+002, 1.093877e+003
2.130533e+002, 1.079050e+003
2.135354e+002, 1.060714e+003
2.140175e+002, 1.040656e+003
2.144996e+002, 1.020464e+003
2.149817e+002, 1.000164e+003
2.154638e+002, 9.792386e+002
2.159460e+002, 9.565598e+002
2.164281e+002, 9.343353e+002
2.169102e+002, 9.132266e+002
2.173923e+002, 8.934782e+002
2.178744e+002, 8.750046e+002
2.183565e+002, 8.577578e+002
2.188387e+002, 8.417941e+002
2.193208e+002, 8.281815e+002
2.198029e+002, 8.173814e+002
2.202850e+002, 8.081557e+002
2.207671e+002, 8.001416e+002
2.212492e+002, 7.931547e+002
2.217314e+002, 7.865582e+002
2.222135e+002, 7.796462e+002
2.226956e+002, 7.724620e+002
2.231777e+002, 7.668121e+002
2.236598e+002, 7.635690e+002
2.241419e+002, 7.611798e+002
2.246240e+002, 7.584608e+002
2.251062e+002, 7.553622e+002
2.255883e+002, 7.526467e+002
2.260704e+002, 7.509619e+002
2.265525e+002, 7.503031e+002
2.270346e+002, 7.499969e+002
2.275167e+002, 7.496422e+002
2.279989e+002, 7.498582e+002
2.284810e+002, 7.517199e+002
2.289631e+002, 7.553351e+002
2.294452e+002, 7.586102e+002
2.299273e+002, 7.598242e+002
2.304094e+002, 7.594709e+002
2.308916e+002, 7.589554e+002
2.313737e+002, 7.584234e+002
2.318558e+002, 7.578641e+002
2.323379e+002, 7.571992e+002
2.328200e+002, 7.563909e+002
2.333021e+002, 7.557424e+002
2.337843e+002, 7.557687e+002
2.342664e+002, 7.560192e+002
2.347485e+002, 7.557864e+002
2.352306e+002, 7.548440e+002
2.357127e+002, 7.533803e+002
2.361948e+002, 7.513326e+002
2.366770e+002, 7.483730e+002
2.371591e+002, 7.461617e+002
2.376412e+002, 7.464573e+002
2.381233e+002, 7.477008e+002
2.386054e+002, 7.481130e+002
2.390875e+002, 7.468262e+002
2.395697e+002, 7.449447e+002
2.400518e+002, 7.443625e+002
2.405339e+002, 7.455190e+002
2.410160e+002, 7.465687e+002
2.414981e+002, 7.465251e+002
2.419802e+002, 7.461429e+002
2.424624e+002, 7.461219e+002
2.429445e+002, 7.467150e+002
2.434266e+002, 7.477076e+002
2.439087e+002, 7.487154e+002
2.443908e+002, 7.496361e+002
2.448729e+002, 7.508566e+002
2.453550e+002, 7.532494e+002
2.458372e+002, 7.555746e+002
2.463193e+002, 7.567054e+002
2.468014e+002, 7.562391e+002
2.472835e+002, 7.547229e+002
2.477656e+002, 7.529260e+002
2.482477e+002, 7.505193e+002
2.487299e+002, 7.486614e+002
2.492120e+002, 7.482801e+002
2.496941e+002, 7.480391e+002
2.501762e+002, 7.467404e+002
2.506583e+002, 7.440464e+002
2.511404e+002, 7.408257e+002
2.516226e+002, 7.384763e+002
2.521047e+002, 7.372121e+002
2.525868e+002, 7.364474e+002
2.530689e+002, 7.358305e+002
2.535510e+002, 7.357780e+002
2.540331e+002, 7.368177e+002
2.545153e+002, 7.389977e+002
2.549974e+002, 7.416518e+002
2.554795e+002, 7.437811e+002
2.559616e+002, 7.451379e+002
2.564437e+002, 7.464637e+002
2.569258e+002, 7.478065e+002
2.574080e+002, 7.491125e+002
2.578901e+002, 7.505615e+002
2.583722e+002, 7.520799e+002
2.588543e+002, 7.532150e+002
2.593364e+002, 7.533202e+002
2.598185e+002, 7.520585e+002
2.603007e+002, 7.505239e+002
2.607828e+002, 7.488984e+002
2.612649e+002, 7.469166e+002
2.617470e+002, 7.443244e+002
2.622291e+002, 7.411433e+002
2.627112e+002, 7.377031e+002
2.631934e+002, 7.343937e+002
2.636755e+002, 7.313987e+002
2.641576e+002, 7.277963e+002
2.646397e+002, 7.229601e+002
2.651218e+002, 7.181705e+002
2.656039e+002, 7.140422e+002
2.660861e+002, 7.106561e+002
2.665682e+002, 7.078411e+002
2.670503e+002, 7.054645e+002
2.675324e+002, 7.035750e+002
2.680145e+002, 7.019181e+002
2.684966e+002, 7.004222e+002
2.689788e+002, 6.991645e+002
2.694609e+002, 6.979687e+002
2.699430e+002, 6.969906e+002
2.704251e+002, 6.967963e+002
2.709072e+002, 6.980174e+002
2.713893e+002, 7.007332e+002
2.718715e+002, 7.022160e+002
2.723536e+002, 7.011299e+002
2.728357e+002, 7.003900e+002
2.733178e+002, 7.010114e+002
2.737999e+002, 7.029760e+002
2.742820e+002, 7.060953e+002
2.747642e+002, 7.103966e+002
2.752463e+002, 7.157508e+002
2.757284e+002, 7.204581e+002
2.762105e+002, 7.234305e+002
2.766926e+002, 7.270827e+002
2.771747e+002, 7.326754e+002
2.776568e+002, 7.395931e+002
2.781389e+002, 7.464279e+002
2.786211e+002, 7.524305e+002
2.791032e+002, 7.577531e+002
2.795853e+002, 7.630710e+002
2.800674e+002, 7.696160e+002
2.805495e+002, 7.747886e+002
2.810316e+002, 7.784774e+002
2.815138e+002, 7.803047e+002
2.819959e+002, 7.794213e+002
2.824780e+002, 7.753489e+002
2.829601e+002, 7.687394e+002
2.834422e+002, 7.609438e+002
2.839243e+002, 7.503923e+002
2.844065e+002, 7.416622e+002
2.848886e+002, 7.364597e+002
2.853707e+002, 7.334357e+002
2.858528e+002, 7.305804e+002
2.863349e+002, 7.271962e+002
2.868170e+002, 7.240440e+002
2.872992e+002, 7.225899e+002
2.877813e+002, 7.233231e+002
2.882634e+002, 7.239118e+002
2.887455e+002, 7.238183e+002
2.892276e+002, 7.234673e+002
2.897097e+002, 7.233403e+002
2.901919e+002, 7.235443e+002
2.906740e+002, 7.239998e+002
2.911561e+002, 7.247685e+002
2.916382e+002, 7.259547e+002
2.921203e+002, 7.265234e+002
2.926024e+002, 7.264338e+002
2.930846e+002, 7.256437e+002
2.935667e+002, 7.239202e+002
2.940488e+002, 7.212443e+002
2.945309e+002, 7.182328e+002
2.950130e+002, 7.152802e+002
2.954951e+002, 7.124271e+002
2.959773e+002, 7.101953e+002
2.964594e+002, 7.087762e+002
2.969415e+002, 7.078569e+002
2.974236e+002, 7.072679e+002
2.979057e+002, 7.069843e+002
2.983878e+002, 7.069216e+002
2.988700e+002, 7.070667e+002
2.993521e+002, 7.073992e+002
2.998342e+002, 7.077207e+002
3.003163e+002, 7.078817e+002
3.007984e+002, 7.081588e+002
3.012805e+002, 7.086319e+002
3.017627e+002, 7.093318e+002
3.022448e+002, 7.104430e+002
3.027269e+002, 7.122048e+002
3.032090e+002, 7.143569e+002
3.036911e+002, 7.161080e+002
3.041732e+002, 7.173000e+002
3.046554e+002, 7.184205e+002
3.051375e+002, 7.197577e+002
3.056196e+002, 7.212000e+002
3.061017e+002, 7.223635e+002
3.065838e+002, 7.229714e+002
3.070659e+002, 7.234901e+002
3.075481e+002, 7.250634e+002
3.080302e+002, 7.281339e+002
3.085123e+002, 7.304143e+002
3.089944e+002, 7.306612e+002
3.094765e+002, 7.297434e+002
3.099586e+002, 7.290436e+002
3.104408e+002, 7.288745e+002
3.109229e+002, 7.291395e+002
3.114050e+002, 7.298605e+002
3.118871e+002, 7.310472e+002
3.123692e+002, 7.321454e+002
3.128513e+002, 7.333429e+002
3.133335e+002, 7.342528e+002
3.138156e+002, 7.343209e+002
3.142977e+002, 7.334453e+002
3.147798e+002, 7.321747e+002
3.152619e+002, 7.309069e+002
3.157440e+002, 7.296439e+002
3.162262e+002, 7.284582e+002
3.167083e+002, 7.276031e+002
3.171904e+002, 7.266497e+002
3.176725e+002, 7.253369e+002
3.181546e+002, 7.236321e+002
3.186367e+002, 7.213312e+002
3.191188e+002, 7.178542e+002
3.196010e+002, 7.137354e+002
3.200831e+002, 7.112403e+002
3.205652e+002, 7.116718e+002
3.210473e+002, 7.123630e+002
3.215294e+002, 7.118038e+002
3.220115e+002, 7.102755e+002
3.224937e+002, 7.087332e+002
3.229758e+002, 7.075930e+002
3.234579e+002, 7.067552e+002
3.239400e+002, 7.059763e+002
3.244221e+002, 7.051914e+002
3.249042e+002, 7.045764e+002
3.253864e+002, 7.038439e+002
3.258685e+002, 7.033695e+002
3.263506e+002, 7.040082e+002
3.268327e+002, 7.061614e+002
3.273148e+002, 7.090255e+002
3.277969e+002, 7.114010e+002
3.282791e+002, 7.132357e+002
3.287612e+002, 7.150397e+002
3.292433e+002, 7.167990e+002
3.297254e+002, 7.186190e+002
3.302075e+002, 7.206230e+002
3.306896e+002, 7.228326e+002
3.311718e+002, 7.251627e+002
3.316539e+002, 7.273927e+002
3.321360e+002, 7.295186e+002
3.326181e+002, 7.326606e+002
3.331002e+002, 7.374487e+002
3.335823e+002, 7.427894e+002
3.340645e+002, 7.478204e+002
3.345466e+002, 7.525638e+002
3.350287e+002, 7.577522e+002
3.355108e+002, 7.638737e+002
3.359929e+002, 7.708973e+002
3.364750e+002, 7.781496e+002
3.369572e+002, 7.853635e+002
3.374393e+002, 7.931113e+002
3.379214e+002, 8.018143e+002
3.384035e+002, 8.112623e+002
3.388856e+002, 8.209631e+002
3.393677e+002, 8.307599e+002
3.398499e+002, 8.404797e+002
3.403320e+002, 8.494696e+002
3.408141e+002, 8.566562e+002
3.412962e+002, 8.650837e+002
3.417783e+002, 8.763125e+002
3.422604e+002, 8.887577e+002
3.427426e+002, 9.008395e+002
3.432247e+002, 9.120703e+002
3.437068e+002, 9.216548e+002
3.441889e+002, 9.284293e+002
3.446710e+002, 9.317118e+002
3.451531e+002, 9.332953e+002
3.456353e+002, 9.341544e+002
3.461174e+002, 9.326282e+002
3.465995e+002, 9.272490e+002
3.470816e+002, 9.180569e+002
3.475637e+002, 9.060357e+002
3.480458e+002, 8.920397e+002
3.485280e+002, 8.759385e+002
3.490101e+002, 8.583639e+002
3.494922e+002, 8.382618e+002
3.499743e+002, 8.180341e+002
3.504564e+002, 7.983985e+002
3.509385e+002, 7.795953e+002
3.514207e+002, 7.616837e+002
3.519028e+002, 7.447053e+002
3.523849e+002, 7.288975e+002
3.528670e+002, 7.152211e+002
3.533491e+002, 7.051349e+002
3.538312e+002, 6.953899e+002
3.543134e+002, 6.854279e+002
3.547955e+002, 6.756960e+002
3.552776e+002, 6.666316e+002
3.557597e+002, 6.584088e+002
3.562418e+002, 6.509797e+002
3.567239e+002, 6.441749e+002
3.572061e+002, 6.378331e+002
3.576882e+002, 6.326329e+002
3.581703e+002, 6.290627e+002
3.586524e+002, 6.261380e+002
3.591345e+002, 6.232404e+002
3.596166e+002, 6.202921e+002
3.600987e+002, 6.176218e+002
3.605808e+002, 6.156338e+002
3.610630e+002, 6.144776e+002
3.615451e+002, 6.125014e+002
3.620272e+002, 6.083541e+002
3.625093e+002, 6.048403e+002
3.629914e+002, 6.031977e+002
3.634735e+002, 6.028547e+002
3.639557e+002, 6.026852e+002
3.644378e+002, 6.020071e+002
3.649199e+002, 6.009640e+002
3.654020e+002, 6.001462e+002
3.658841e+002, 5.993785e+002
3.663662e+002, 5.991461e+002
3.668484e+002, 5.998494e+002
3.673305e+002, 6.009091e+002
3.678126e+002, 6.018226e+002
3.682947e+002, 6.024119e+002
3.687768e+002, 6.027441e+002
3.692589e+002, 6.028822e+002
3.697411e+002, 6.027250e+002
3.702232e+002, 6.026496e+002
3.707053e+002, 6.025753e+002
3.711874e+002, 6.026540e+002
3.716695e+002, 6.030018e+002
3.721516e+002, 6.035949e+002
3.726338e+002, 6.043607e+002
3.731159e+002, 6.055101e+002
3.735980e+002, 6.069892e+002
3.740801e+002, 6.069216e+002
3.745622e+002, 6.042875e+002
3.750443e+002, 6.012266e+002
3.755265e+002, 5.983427e+002
3.760086e+002, 5.955500e+002
3.764907e+002, 5.927263e+002
3.769728e+002, 5.898217e+002
3.774549e+002, 5.867819e+002
3.779370e+002, 5.832722e+002
3.784192e+002, 5.788082e+002
3.789013e+002, 5.752776e+002
3.793834e+002, 5.739809e+002
3.798655e+002, 5.733307e+002
3.803476e+002, 5.721002e+002
3.808297e+002, 5.700501e+002
3.813119e+002, 5.678621e+002
3.817940e+002, 5.661768e+002
3.822761e+002, 5.649866e+002
3.827582e+002, 5.640434e+002
3.832403e+002, 5.632498e+002
3.837224e+002, 5.628257e+002
3.842046e+002, 5.629503e+002
3.846867e+002, 5.635324e+002
3.851688e+002, 5.642466e+002
3.856509e+002, 5.648994e+002
3.861330e+002, 5.655613e+002
3.866151e+002, 5.662477e+002
3.870973e+002, 5.667693e+002
3.875794e+002, 5.679981e+002
3.880615e+002, 5.713414e+002
3.885436e+002, 5.754758e+002
3.890257e+002, 5.784213e+002
3.895078e+002, 5.793265e+002
3.899900e+002, 5.798407e+002
3.904721e+002, 5.814448e+002
3.909542e+002, 5.840154e+002
3.914363e+002, 5.864334e+002
3.919184e+002, 5.879449e+002
3.924005e+002, 5.896685e+002
3.928827e+002, 5.933848e+002
3.933648e+002, 5.992271e+002
3.938469e+002, 6.048312e+002
3.943290e+002, 6.087595e+002
3.948111e+002, 6.120389e+002
3.952932e+002, 6.163284e+002
3.957754e+002, 6.219605e+002
3.962575e+002, 6.279543e+002
3.967396e+002, 6.332738e+002
3.972217e+002, 6.381121e+002
3.977038e+002, 6.442650e+002
3.981859e+002, 6.525828e+002
3.986681e+002, 6.616310e+002
3.991501e+002, 6.702727e+002
3.996323e+002, 6.787997e+002
4.001144e+002, 6.884158e+002
4.005965e+002, 6.998246e+002
4.010786e+002, 7.125324e+002
4.015607e+002, 7.251312e+002
4.020428e+002, 7.387454e+002
4.025250e+002, 7.503884e+002
4.030071e+002, 7.595959e+002
4.034892e+002, 7.665447e+002
4.039713e+002, 7.715621e+002
4.044534e+002, 7.746573e+002
4.049355e+002, 7.752079e+002
4.054177e+002, 7.723262e+002
4.058998e+002, 7.655159e+002
4.063819e+002, 7.572914e+002
4.068640e+002, 7.480295e+002
4.073461e+002, 7.372616e+002
4.078282e+002, 7.235732e+002
4.083104e+002, 7.081057e+002
4.087925e+002, 6.934484e+002
4.092746e+002, 6.810849e+002
4.097567e+002, 6.707182e+002
4.102388e+002, 6.607100e+002
4.107209e+002, 6.500748e+002
4.112031e+002, 6.412656e+002
4.116852e+002, 6.349860e+002
4.121673e+002, 6.302916e+002
4.126494e+002, 6.262587e+002
4.131315e+002, 6.226528e+002
4.136136e+002, 6.198839e+002
4.140958e+002, 6.186647e+002
4.145779e+002, 6.194037e+002
