##NAMES=Carpathite
##RRUFFID=R060162
##IDEAL CHEMISTRY=C_24_H_12_
##LOCALITY=Picacho mine, San Benito County, California, USA
##OWNER=RRUFF
##SOURCE=Marcus Origlieri
##DESCRIPTION=Colorless to pale yellow splintery fractured aggregates associated with cinnabar on quartz
##STATUS=The identification of this mineral has been confirmed by single-crystal X-ray diffraction.
##URL=rruff.info/R060162
92.02539, 2880.523
92.50751, 3047.562
92.98962, 3147.431
93.47174, 3083.430
93.95386, 2943.831
94.43597, 2784.781
94.91809, 2629.503
95.40021, 2480.869
95.88232, 2338.300
96.36444, 2200.051
96.84656, 2070.869
97.32867, 1952.845
97.81078, 1844.727
98.29290, 1744.618
98.77502, 1649.613
99.25713, 1556.293
99.73925, 1473.472
100.2214, 1401.797
100.7035, 1336.402
101.1856, 1275.360
101.6677, 1217.957
102.1498, 1164.756
102.6320, 1116.587
103.1141, 1074.146
103.5962, 1035.519
104.0783, 1001.380
104.5604, 970.2921
105.0425, 941.0973
105.5247, 913.3127
106.0068, 886.9399
106.4889, 862.0657
106.9710, 838.4724
107.4531, 815.8409
107.9352, 793.7188
108.4173, 772.2250
108.8995, 751.9711
109.3816, 733.4885
109.8637, 716.1934
110.3458, 699.4172
110.8279, 682.9988
111.3100, 667.0942
111.7922, 651.7903
112.2743, 637.1080
112.7564, 623.2186
113.2385, 610.6447
113.7206, 598.5637
114.2027, 586.1959
114.6849, 573.2047
115.1670, 559.8336
115.6491, 547.2182
116.1312, 535.8155
116.6133, 524.5694
117.0954, 513.3660
117.5776, 502.1489
118.0597, 490.7505
118.5418, 478.9342
119.0239, 466.6511
119.5060, 455.6800
119.9881, 446.0496
120.4703, 437.3430
120.9524, 429.7307
121.4345, 423.0430
121.9166, 416.6495
122.3987, 410.0603
122.8808, 403.2367
123.3630, 396.2718
123.8451, 388.7440
124.3272, 381.2677
124.8093, 374.5666
125.2914, 368.7744
125.7735, 363.4674
126.2557, 358.3076
126.7378, 353.2755
127.2199, 348.3731
127.7020, 343.6641
128.1841, 339.1095
128.6662, 334.6454
129.1483, 330.1631
129.6305, 325.9047
130.1126, 322.0575
130.5947, 318.5832
131.0768, 315.2008
131.5589, 311.6857
132.0410, 308.0296
132.5232, 304.3238
133.0053, 300.1866
133.4874, 296.2521
133.9695, 292.9214
134.4516, 290.2481
134.9337, 287.9791
135.4159, 285.7237
135.8980, 283.4330
136.3801, 281.2394
136.8622, 279.1796
137.3443, 277.1803
137.8264, 275.1374
138.3086, 273.0152
138.7907, 270.9233
139.2728, 269.2160
139.7549, 268.1856
140.2370, 267.2187
140.7191, 266.3329
141.2013, 265.4723
141.6834, 264.5426
142.1655, 263.4878
142.6476, 262.3477
143.1297, 261.3156
143.6118, 260.4208
144.0939, 259.5799
144.5761, 258.8100
145.0582, 258.0891
145.5403, 257.2973
146.0224, 256.3198
146.5045, 255.2312
146.9866, 254.2580
147.4688, 253.5072
147.9509, 252.7969
148.4330, 251.8688
148.9151, 250.6568
149.3972, 249.6358
149.8793, 249.4208
150.3615, 249.5045
150.8436, 249.2332
151.3257, 248.2153
151.8078, 246.7762
152.2899, 245.7143
152.7720, 245.3065
153.2542, 244.7690
153.7363, 243.6242
154.2184, 242.1826
154.7005, 240.9170
155.1826, 240.1774
155.6647, 239.8986
156.1469, 239.4257
156.6290, 238.6422
157.1111, 237.7516
157.5932, 236.7267
158.0753, 235.6292
158.5574, 234.5512
159.0396, 233.5317
159.5217, 232.5278
160.0038, 232.0176
160.4859, 232.3211
160.9680, 232.7521
161.4501, 233.1354
161.9323, 233.4066
162.4144, 233.5072
162.8965, 233.3656
163.3786, 232.9181
163.8607, 232.4421
164.3428, 231.6245
164.8250, 230.9885
165.3071, 231.1727
165.7892, 232.2205
166.2713, 233.2307
166.7534, 232.8792
167.2355, 230.8579
167.7177, 229.8754
168.1998, 231.4099
168.6819, 233.7222
169.1640, 234.3632
169.6461, 232.5815
170.1282, 230.0566
170.6104, 228.8250
171.0925, 228.7177
171.5746, 228.7995
172.0567, 228.7728
172.5388, 228.6650
173.0209, 228.5190
173.5031, 228.2122
173.9852, 228.0742
174.4673, 228.4611
174.9494, 229.3183
175.4315, 230.1408
175.9136, 230.3708
176.3958, 230.0442
176.8779, 230.2698
177.3600, 231.6917
177.8421, 233.3325
178.3242, 234.6252
178.8063, 235.5583
179.2885, 236.4269
179.7706, 237.5858
180.2527, 239.1435
180.7348, 240.5258
181.2169, 242.1403
181.6990, 243.2561
182.1812, 243.4650
182.6633, 242.6998
183.1454, 241.1367
183.6275, 238.9475
184.1096, 235.8335
184.5917, 232.6758
185.0738, 229.4497
185.5560, 226.2137
186.0381, 222.8539
186.5202, 219.4037
187.0023, 216.2024
187.4844, 213.8589
187.9665, 212.8963
188.4487, 212.0709
188.9308, 211.5198
189.4129, 211.0374
189.8950, 210.4421
190.3771, 209.6760
190.8592, 208.7823
191.3414, 207.8115
191.8235, 206.5204
192.3056, 205.6249
192.7877, 205.4872
193.2698, 205.7130
193.7519, 205.7707
194.2341, 205.4603
194.7162, 204.9595
195.1983, 204.6304
195.6804, 204.5017
196.1625, 204.3778
196.6446, 204.3404
197.1268, 204.2661
197.6089, 203.7806
198.0910, 202.5630
198.5731, 201.1937
199.0552, 200.6173
199.5373, 200.9139
200.0195, 201.3505
200.5016, 201.6499
200.9837, 201.7970
201.4658, 201.6797
201.9479, 201.0843
202.4300, 200.3812
202.9122, 199.9581
203.3943, 199.8307
203.8764, 199.8972
204.3585, 200.2159
204.8406, 200.7849
205.3227, 201.0767
205.8048, 200.7549
206.2870, 200.2493
206.7691, 199.8368
207.2512, 199.5514
207.7333, 199.3376
208.2154, 199.1366
208.6975, 198.9395
209.1797, 198.8069
209.6618, 198.7749
210.1439, 198.7943
210.6260, 198.8443
211.1081, 198.9206
211.5902, 199.0297
212.0724, 199.1851
212.5545, 199.3977
213.0366, 199.6208
213.5187, 199.6929
214.0008, 199.8788
214.4829, 200.3671
214.9651, 201.1828
215.4472, 202.2005
215.9293, 203.2569
216.4114, 204.4074
216.8935, 205.4779
217.3756, 206.3526
217.8578, 207.2420
218.3399, 208.3370
218.8220, 209.6563
219.3041, 211.0522
219.7862, 212.3031
220.2683, 213.4428
220.7505, 214.3201
221.2326, 214.7592
221.7147, 215.0799
222.1968, 215.4854
222.6789, 216.0380
223.1610, 216.7361
223.6432, 217.5838
224.1253, 218.6570
224.6074, 219.7490
225.0895, 220.8537
225.5716, 221.9809
226.0537, 223.1015
226.5358, 224.2167
227.0180, 225.4036
227.5001, 226.7639
227.9822, 228.2900
228.4643, 230.0549
228.9464, 232.1786
229.4285, 234.4899
229.9107, 236.7315
230.3928, 238.8358
230.8749, 241.0522
231.3570, 243.6721
231.8391, 246.6837
232.3212, 250.0892
232.8034, 253.7405
233.2855, 257.8402
233.7676, 262.7374
234.2497, 268.5517
234.7318, 274.8252
235.2139, 281.4777
235.6961, 288.4273
236.1782, 294.5090
236.6603, 300.6151
237.1424, 305.3159
237.6245, 306.3128
238.1066, 303.0204
238.5888, 296.9668
239.0709, 288.2520
239.5530, 277.6564
240.0351, 267.3154
240.5172, 257.4703
240.9993, 248.4270
241.4815, 240.8257
241.9636, 234.7134
242.4457, 230.0042
242.9278, 227.0610
243.4099, 225.3758
243.8920, 224.0686
244.3742, 222.7923
244.8563, 221.6474
245.3384, 220.8873
245.8205, 220.5872
246.3026, 220.5250
246.7847, 220.7403
247.2668, 221.0688
247.7490, 221.2367
248.2311, 221.0829
248.7132, 220.7091
249.1953, 220.3213
249.6774, 219.8293
250.1595, 219.5281
250.6417, 219.6382
251.1238, 219.9585
251.6059, 220.2715
252.0880, 220.5349
252.5701, 220.6614
253.0522, 220.4123
253.5344, 219.6705
254.0165, 218.7581
254.4986, 217.8675
254.9807, 216.8615
255.4628, 215.5464
255.9449, 213.8187
256.4271, 211.8321
256.9092, 209.8904
257.3913, 207.8866
257.8734, 206.1755
258.3555, 205.0154
258.8376, 204.0327
259.3198, 202.8004
259.8019, 201.1515
260.2840, 199.3935
260.7661, 198.2132
261.2482, 197.9981
261.7303, 197.6415
262.2125, 196.8900
262.6946, 196.0302
263.1767, 195.2494
263.6588, 194.6154
264.1409, 194.1683
264.6230, 194.0584
265.1052, 194.7789
265.5873, 194.8266
266.0694, 193.5361
266.5515, 192.0587
267.0336, 191.3091
267.5157, 191.4601
267.9979, 191.9674
268.4800, 192.0081
268.9621, 191.2599
269.4442, 190.7364
269.9263, 190.5637
270.4084, 190.4771
270.8906, 190.3438
271.3727, 190.1280
271.8548, 189.8320
272.3369, 189.4343
272.8190, 188.8461
273.3011, 188.4790
273.7833, 188.3986
274.2654, 188.4375
274.7475, 188.5417
275.2296, 188.6860
275.7117, 188.8499
276.1938, 189.0333
276.6760, 189.2785
277.1581, 189.2601
277.6402, 188.6512
278.1223, 188.1414
278.6044, 188.1084
279.0865, 188.4807
279.5686, 188.9375
280.0508, 189.2223
280.5329, 189.3293
281.0150, 189.4897
281.4971, 189.6467
281.9792, 189.8985
282.4613, 190.3150
282.9435, 190.8573
283.4256, 191.4157
283.9077, 191.9015
284.3898, 192.3508
284.8719, 193.0738
285.3540, 194.3628
285.8362, 195.5543
286.3183, 196.3590
286.8004, 196.9568
287.2825, 197.7397
287.7646, 198.9480
288.2467, 200.3655
288.7289, 201.2283
289.2110, 201.0480
289.6931, 200.9643
290.1752, 201.3108
290.6573, 201.8133
291.1394, 202.0320
291.6216, 201.7835
292.1037, 201.3301
292.5858, 201.2174
293.0679, 201.6204
293.5500, 202.0305
294.0321, 202.1890
294.5143, 202.4227
294.9964, 203.1367
295.4785, 204.4424
295.9606, 206.0685
296.4427, 207.6084
296.9248, 208.8943
297.4070, 210.6987
297.8891, 213.2693
298.3712, 216.2377
298.8533, 219.3490
299.3354, 222.5351
299.8175, 225.7801
300.2997, 229.0930
300.7818, 232.4970
301.2639, 235.7084
301.7460, 239.2636
302.2281, 242.1966
302.7102, 243.6360
303.1924, 243.6775
303.6745, 243.3697
304.1566, 243.6004
304.6387, 244.2592
305.1208, 243.7858
305.6029, 242.7769
306.0851, 240.2255
306.5672, 235.0294
307.0493, 227.7397
307.5314, 219.8969
308.0135, 212.1092
308.4956, 204.6477
308.9778, 198.8297
309.4599, 195.0910
309.9420, 192.0733
310.4241, 189.4501
310.9062, 187.2428
311.3883, 185.5890
311.8705, 184.5961
312.3526, 184.0446
312.8347, 183.4947
313.3168, 182.9312
313.7989, 182.3986
314.2810, 181.8403
314.7632, 181.3415
315.2453, 181.0298
315.7274, 180.9454
316.2095, 180.9888
316.6916, 181.0412
317.1737, 181.1083
317.6559, 181.1592
318.1380, 181.2869
318.6201, 181.3410
319.1022, 181.1220
319.5843, 180.6194
320.0664, 180.0895
320.5485, 179.7992
321.0306, 179.7738
321.5128, 179.5223
321.9949, 178.5577
322.4770, 177.7784
322.9591, 178.0732
323.4412, 179.2139
323.9233, 179.9699
324.4055, 179.3829
324.8876, 177.7227
325.3697, 176.9942
325.8518, 177.8932
326.3339, 178.8073
326.8160, 179.0459
327.2982, 178.8578
327.7803, 178.8326
328.2624, 179.2726
328.7445, 179.9651
329.2266, 180.3378
329.7087, 180.3308
330.1909, 180.1756
330.6730, 179.6944
331.1551, 179.1639
331.6372, 178.9895
332.1193, 179.2926
332.6014, 179.8080
333.0836, 180.1853
333.5657, 180.4265
334.0478, 180.4662
334.5299, 179.9711
335.0120, 179.4882
335.4941, 179.5481
335.9763, 180.1742
336.4584, 180.9388
336.9405, 181.4777
337.4226, 181.7776
337.9047, 181.8141
338.3868, 181.1988
338.8690, 180.7123
339.3511, 180.8159
339.8332, 181.4034
340.3153, 182.1377
340.7974, 182.8545
341.2795, 183.5044
341.7617, 183.7236
342.2438, 183.0728
342.7259, 182.5782
343.2080, 182.5991
343.6901, 182.8875
344.1722, 182.9964
344.6544, 182.7316
345.1365, 182.3959
345.6186, 182.6175
346.1007, 183.6739
346.5828, 184.9511
347.0649, 186.1534
347.5471, 187.7402
348.0292, 190.0165
348.5113, 193.0647
348.9934, 196.9903
349.4755, 201.8844
349.9576, 207.8609
350.4398, 214.6160
350.9219, 223.5001
351.4040, 231.8289
351.8861, 238.8521
352.3682, 244.1131
352.8503, 246.6922
353.3325, 245.5793
353.8146, 241.0716
354.2967, 237.8177
354.7788, 235.9572
355.2609, 235.1784
355.7430, 235.3120
356.2252, 236.5272
356.7073, 239.3103
357.1894, 243.9152
357.6715, 249.6540
358.1536, 254.8214
358.6357, 258.5692
359.1179, 263.0589
359.5999, 268.4318
360.0821, 274.4720
360.5642, 280.6825
361.0463, 287.1378
361.5284, 294.5674
362.0105, 303.6509
362.4926, 313.8202
362.9748, 328.1176
363.4569, 346.0483
363.9390, 368.1625
364.4211, 395.9449
364.9032, 428.4447
365.3853, 462.9879
365.8675, 497.9535
366.3496, 533.2008
366.8317, 567.7284
367.3138, 607.1885
367.7959, 637.8998
368.2780, 667.6697
368.7602, 683.8016
369.2423, 668.1575
369.7244, 612.3483
370.2065, 530.8398
370.6886, 447.5147
371.1707, 354.0325
371.6529, 281.3700
372.1350, 240.0009
372.6171, 214.5494
373.0992, 197.9473
373.5813, 188.1524
374.0634, 182.5045
374.5456, 179.2392
375.0277, 178.4805
375.5098, 177.4600
375.9919, 175.6909
376.4740, 174.1245
376.9561, 173.2749
377.4383, 172.9520
377.9204, 172.7138
378.4025, 172.3245
378.8846, 171.8341
379.3667, 171.3456
379.8488, 170.7896
380.3310, 170.4214
380.8131, 170.4390
381.2952, 170.6487
381.7773, 170.9129
382.2594, 171.2295
382.7415, 171.4435
383.2237, 171.3156
383.7058, 170.8482
384.1879, 170.4674
384.6700, 170.3467
385.1521, 170.2711
385.6342, 169.9708
386.1164, 169.4729
386.5985, 169.1418
387.0806, 169.3344
387.5627, 169.8264
388.0448, 170.0856
388.5269, 170.0472
389.0091, 169.8477
389.4912, 169.3986
389.9733, 168.8630
390.4554, 168.6406
390.9375, 169.0805
391.4196, 169.6165
391.9018, 169.7097
392.3839, 169.4002
392.8660, 169.0073
393.3481, 168.5225
393.8302, 168.1870
394.3123, 168.5577
394.7945, 169.9429
395.2766, 170.9798
395.7587, 170.8985
396.2408, 170.1787
396.7229, 169.4961
397.2050, 168.9565
397.6872, 168.8166
398.1693, 169.4373
398.6514, 170.8958
399.1335, 172.4173
399.6156, 174.8465
400.0977, 176.6362
400.5798, 176.2530
401.0620, 174.0694
401.5441, 171.8396
402.0262, 170.6172
402.5083, 170.2328
402.9904, 169.8894
403.4725, 169.6658
403.9547, 169.3796
404.4368, 168.7758
404.9189, 168.1734
405.4010, 168.1197
405.8831, 168.7547
406.3652, 169.5135
406.8474, 169.5202
407.3295, 168.3514
407.8116, 167.6552
408.2937, 167.7713
408.7758, 168.0005
409.2579, 167.9452
409.7401, 167.6417
410.2222, 167.3242
410.7043, 167.1464
411.1864, 167.1159
411.6685, 167.2896
412.1506, 167.8768
412.6328, 168.4221
413.1149, 169.0642
413.5970, 169.5415
414.0791, 169.4245
414.5612, 168.5988
415.0433, 167.6185
415.5255, 167.4413
416.0076, 168.4035
416.4897, 169.0021
416.9718, 168.7173
417.4539, 168.4123
417.9360, 168.5790
418.4182, 169.1127
418.9003, 169.5423
419.3824, 169.4568
419.8645, 169.0020
420.3466, 168.8878
420.8287, 169.3688
421.3109, 169.6538
421.7930, 169.1911
422.2751, 168.4704
422.7572, 168.0430
423.2393, 168.0806
423.7214, 168.3284
424.2036, 168.5018
424.6857, 168.6093
425.1678, 168.8999
425.6499, 169.5462
426.1320, 170.2463
426.6141, 170.6027
427.0963, 170.6840
427.5784, 171.0601
428.0605, 172.1295
428.5426, 173.5770
429.0247, 174.8504
429.5068, 175.9067
429.9890, 177.1958
430.4711, 179.0568
430.9532, 181.3699
431.4353, 183.6466
431.9174, 185.9858
432.3995, 188.1433
432.8817, 189.9867
433.3638, 191.5515
433.8459, 192.8814
434.3280, 193.9625
434.8101, 194.9279
435.2922, 195.9071
435.7744, 196.8262
436.2565, 198.1302
436.7386, 200.0916
437.2207, 202.2350
437.7028, 204.1145
438.1849, 205.8253
438.6671, 207.7870
439.1492, 210.2462
439.6313, 213.2268
440.1134, 216.8260
440.5955, 221.3676
441.0776, 226.1607
441.5598, 230.8548
442.0418, 235.8958
442.5240, 241.7791
443.0061, 248.5817
443.4882, 255.9862
443.9703, 263.5542
444.4524, 271.3080
444.9345, 279.2260
445.4167, 287.4589
445.8988, 295.6922
446.3809, 304.6210
446.8630, 313.3290
447.3451, 320.4048
447.8272, 325.0560
448.3094, 327.3411
448.7915, 327.5337
449.2736, 325.9559
449.7557, 321.3054
450.2378, 311.8451
450.7199, 300.0614
451.2021, 286.7844
451.6842, 272.3438
452.1663, 258.4255
452.6484, 245.9715
453.1305, 235.0612
453.6126, 226.5191
454.0948, 220.7315
454.5769, 216.6048
455.0590, 213.8842
455.5411, 212.2634
456.0232, 211.4163
456.5053, 211.4656
456.9875, 212.0122
457.4696, 212.8084
457.9517, 213.8371
458.4338, 215.0452
458.9159, 216.4378
459.3980, 217.9617
459.8802, 219.3949
460.3623, 220.6091
460.8444, 222.6588
461.3265, 225.8443
461.8086, 229.8624
462.2907, 234.3083
462.7729, 239.2491
463.2550, 245.1312
463.7371, 252.2289
464.2192, 260.5717
464.7013, 270.6698
465.1834, 283.2008
465.6656, 296.4765
466.1477, 311.5320
466.6298, 326.7033
467.1119, 340.4330
467.5940, 352.3111
468.0761, 362.3118
468.5583, 370.2323
469.0404, 375.8318
469.5225, 381.2937
470.0046, 386.6219
470.4867, 391.8093
470.9688, 396.1357
471.4510, 400.4638
471.9331, 405.9346
472.4152, 413.0348
472.8973, 421.8972
473.3794, 432.8892
473.8615, 446.1790
474.3437, 460.7653
474.8258, 475.7015
475.3079, 492.6306
475.7900, 511.9470
476.2721, 533.8851
476.7542, 559.8364
477.2364, 589.2087
477.7185, 623.3274
478.2006, 666.0946
478.6827, 717.8760
479.1648, 775.2793
479.6469, 838.6309
480.1291, 905.9953
480.6112, 974.5302
481.0933, 1046.951
481.5754, 1112.310
482.0575, 1174.191
482.5396, 1223.094
483.0217, 1242.243
483.5038, 1228.318
483.9860, 1184.365
484.4681, 1107.909
484.9502, 997.2991
485.4323, 890.4875
485.9144, 784.8565
486.3965, 685.7154
486.8787, 593.3922
487.3608, 509.0233
487.8429, 434.2531
488.3250, 369.4505
488.8071, 315.0984
489.2892, 272.8680
489.7714, 245.2680
490.2535, 223.7265
490.7356, 209.7390
491.2177, 199.3555
491.6998, 191.5633
492.1819, 185.7472
492.6641, 181.2687
493.1462, 177.8311
493.6283, 175.2849
494.1104, 173.2899
494.5925, 172.0691
495.0746, 170.8071
495.5568, 169.1511
496.0389, 167.5128
496.5210, 166.1907
497.0031, 165.2030
497.4852, 164.3519
497.9673, 163.4089
498.4495, 162.5107
498.9316, 162.1875
499.4137, 162.6209
499.8958, 162.8408
500.3779, 162.0741
500.8600, 160.7836
501.3422, 159.9607
501.8243, 159.8389
502.3064, 159.7793
502.7885, 159.3573
503.2706, 158.8071
503.7527, 158.6376
504.2349, 158.9657
504.7170, 159.2863
505.1991, 159.0684
505.6812, 158.2705
506.1633, 157.7048
506.6454, 157.4775
507.1276, 157.3362
507.6097, 157.2309
508.0918, 157.1396
508.5739, 157.0478
509.0560, 156.9487
509.5381, 156.8240
510.0203, 156.6254
510.5024, 156.2883
510.9845, 156.0997
511.4666, 156.2302
511.9487, 156.3410
512.4308, 156.3225
512.9130, 156.1831
513.3951, 155.9211
513.8772, 155.4888
514.3593, 155.0733
514.8414, 155.1220
515.3235, 155.7325
515.8057, 156.0510
516.2878, 155.7417
516.7699, 155.2073
517.2520, 154.7630
517.7341, 154.4063
518.2162, 154.0856
518.6984, 153.6552
519.1805, 153.3176
519.6626, 153.4582
520.1447, 154.0367
520.6268, 154.4612
521.1089, 154.4222
521.5911, 154.0943
522.0732, 153.8811
522.5553, 153.8558
523.0374, 153.7136
523.5195, 153.2579
524.0016, 152.7677
524.4838, 152.4776
524.9659, 152.4009
525.4480, 152.4752
525.9301, 152.6909
526.4122, 152.9734
526.8943, 152.9221
527.3765, 152.2078
527.8586, 151.6214
528.3407, 151.0810
528.8228, 150.7860
529.3049, 151.0965
529.7870, 151.9204
530.2692, 152.6187
530.7513, 152.5497
531.2334, 151.8621
531.7155, 151.4379
532.1976, 151.3455
532.6797, 151.3623
533.1619, 151.5310
533.6440, 151.6964
534.1261, 151.6793
534.6082, 151.4377
535.0903, 151.1435
535.5724, 150.8378
536.0546, 150.5728
536.5367, 150.4696
537.0188, 150.5482
537.5009, 150.7274
537.9830, 150.9986
538.4651, 151.3200
538.9473, 151.4692
539.4294, 151.3837
539.9115, 151.2220
540.3936, 150.8788
540.8757, 150.5522
541.3578, 150.5598
541.8400, 150.9265
542.3221, 151.3261
542.8042, 151.4219
543.2863, 151.2093
543.7684, 150.9806
544.2505, 150.6806
544.7326, 150.4359
545.2147, 150.2670
545.6968, 150.1684
546.1790, 150.1663
546.6611, 150.2575
547.1432, 150.3377
547.6253, 150.2817
548.1074, 150.1014
548.5895, 149.9296
549.0717, 149.7670
549.5538, 149.6244
550.0359, 149.4779
550.5180, 149.3640
551.0001, 149.3752
551.4822, 149.6161
551.9644, 149.7618
552.4465, 149.4932
552.9286, 149.0061
553.4107, 148.7155
553.8928, 148.7037
554.3749, 148.7742
554.8571, 148.7400
555.3392, 148.6077
555.8213, 148.6384
556.3034, 149.1685
556.7855, 149.4289
557.2676, 148.9755
557.7498, 148.2640
558.2319, 147.8543
558.7140, 147.8643
559.1961, 148.0049
559.6782, 147.9389
560.1603, 147.6619
560.6425, 147.5872
561.1246, 147.8135
561.6067, 148.1106
562.0888, 148.5705
562.5709, 148.9759
563.0530, 149.0285
563.5352, 148.6467
564.0173, 148.1947
564.4994, 147.9781
564.9815, 147.9409
565.4636, 147.9058
565.9457, 147.8570
566.4279, 147.8050
566.9100, 147.7627
567.3921, 147.7210
567.8742, 147.6416
568.3563, 147.4168
568.8384, 147.3319
569.3206, 147.6520
569.8027, 148.0798
570.2848, 148.2285
570.7669, 148.0586
571.2490, 147.8071
571.7311, 147.6785
572.2133, 147.6584
572.6954, 147.5965
573.1775, 147.4038
573.6596, 147.2934
574.1417, 147.3152
574.6238, 147.4104
575.1060, 147.5829
575.5881, 147.8011
576.0702, 147.9294
576.5523, 147.8344
577.0344, 147.5619
577.5165, 147.2225
577.9987, 146.7522
578.4808, 146.5088
578.9629, 146.7741
579.4450, 147.2730
579.9271, 147.6317
580.4092, 147.8393
580.8914, 147.9433
581.3735, 147.8107
581.8556, 147.6773
582.3377, 147.8701
582.8198, 148.3507
583.3019, 148.7766
583.7841, 148.9321
584.2662, 148.9467
584.7483, 149.1853
585.2304, 149.9068
585.7125, 150.4269
586.1946, 150.6412
586.6768, 150.7618
587.1589, 150.8613
587.6410, 150.9804
588.1231, 151.1922
588.6052, 151.5615
