##NAMES=Carpathite
##RRUFFID=R060660
##IDEAL CHEMISTRY=C_24_H_12_
##LOCALITY=Prospect 500 meters north of Picachos mine, south of New Idria, San Benito County, California, USA
##OWNER=RRUFF
##SOURCE=Michael Scott
##DESCRIPTION=Aggregate of light tan colored platy crystals
##STATUS=The identification of this mineral has been confirmed by single-crystal X-ray diffraction.
##URL=rruff.info/R060660
103.208, 183.806
103.690, 188.633
104.172, 193.183
104.654, 198.200
105.136, 201.464
105.618, 198.261
106.100, 190.116
106.582, 186.055
107.064, 191.026
107.547, 203.617
108.029, 218.755
108.511, 235.417
108.993, 255.284
109.475, 276.386
109.957, 299.207
110.439, 330.066
110.921, 376.981
111.404, 439.898
111.886, 501.439
112.368, 553.245
112.850, 606.507
113.332, 664.578
113.814, 728.373
114.296, 804.259
114.778, 906.749
115.260, 1047.953
115.743, 1167.602
116.225, 1274.006
116.707, 1346.237
117.189, 1361.870
117.671, 1315.011
118.153, 1227.117
118.635, 1128.990
119.117, 1005.399
119.600, 905.240
120.082, 827.949
120.564, 775.552
121.046, 751.871
121.528, 758.640
122.010, 790.619
122.492, 833.408
122.974, 873.686
123.456, 946.979
123.939, 1059.355
124.421, 1202.969
124.903, 1370.491
125.385, 1556.697
125.867, 1762.938
126.349, 1991.828
126.831, 2264.183
127.313, 2540.092
127.796, 2820.792
128.278, 3100.257
128.760, 3372.441
129.242, 3631.352
129.724, 3879.172
130.206, 4128.274
130.688, 4413.486
131.170, 4666.771
131.652, 4898.858
132.135, 5087.019
132.617, 5177.911
133.099, 5127.082
133.581, 4931.783
134.063, 4717.264
134.545, 4470.953
135.027, 4220.720
135.509, 3966.567
135.992, 3716.231
136.474, 3492.675
136.956, 3316.029
137.438, 3191.804
137.920, 3091.712
138.402, 3004.686
138.884, 2947.316
139.366, 2933.345
139.848, 2962.497
140.331, 3021.621
140.813, 3101.021
141.295, 3203.945
141.777, 3323.359
142.259, 3454.883
142.741, 3605.098
143.223, 3783.738
143.705, 3992.056
144.188, 4212.722
144.670, 4434.183
145.152, 4655.901
145.634, 4871.267
146.116, 5082.441
146.598, 5285.426
147.080, 5478.941
147.562, 5665.532
148.044, 5832.237
148.527, 5964.666
149.009, 6067.072
149.491, 6137.395
149.973, 6169.722
150.455, 6171.686
150.937, 6153.879
151.419, 6115.700
151.901, 6063.689
152.383, 6004.903
152.866, 5939.809
153.348, 5860.273
153.830, 5752.537
154.312, 5628.978
154.794, 5516.335
155.276, 5418.772
155.758, 5334.038
156.240, 5264.396
156.723, 5207.754
157.205, 5148.619
157.687, 5071.098
158.169, 4983.641
158.651, 4914.260
159.133, 4866.215
159.615, 4841.339
160.097, 4842.954
160.579, 4868.361
161.062, 4897.073
161.544, 4916.073
162.026, 4927.119
162.508, 4940.999
162.990, 4958.870
163.472, 4980.629
163.954, 5005.967
164.436, 5034.570
164.919, 5064.964
165.401, 5097.699
165.883, 5132.309
166.365, 5163.083
166.847, 5190.549
167.329, 5211.645
167.811, 5222.798
168.293, 5224.841
168.775, 5225.177
169.258, 5231.107
169.740, 5242.534
170.222, 5248.996
170.704, 5250.285
171.186, 5244.733
171.668, 5227.437
172.150, 5200.046
172.632, 5174.925
173.115, 5166.237
173.597, 5175.113
174.079, 5176.435
174.561, 5161.975
175.043, 5143.625
175.525, 5122.892
176.007, 5101.803
176.489, 5089.619
176.971, 5095.671
177.454, 5120.915
177.936, 5154.189
178.418, 5206.579
178.900, 5257.414
179.382, 5294.387
179.864, 5318.169
180.346, 5340.128
180.828, 5378.065
181.311, 5437.202
181.793, 5469.729
182.275, 5462.671
182.757, 5432.414
183.239, 5380.215
183.721, 5308.147
184.203, 5223.723
184.685, 5128.823
185.167, 5020.149
185.650, 4924.023
186.132, 4847.883
186.614, 4781.014
187.096, 4718.829
187.578, 4661.235
188.060, 4611.472
188.542, 4575.660
189.024, 4557.709
189.507, 4531.446
189.989, 4479.083
190.471, 4432.174
190.953, 4410.161
191.435, 4409.842
191.917, 4410.040
192.399, 4384.645
192.881, 4326.318
193.363, 4289.778
193.846, 4298.618
194.328, 4310.913
194.810, 4309.906
195.292, 4296.237
195.774, 4280.322
196.256, 4271.946
196.738, 4272.058
197.220, 4272.168
197.702, 4273.989
198.185, 4274.348
198.667, 4270.949
199.149, 4264.625
199.631, 4258.506
200.113, 4256.254
200.595, 4258.574
201.077, 4256.501
201.559, 4245.417
202.042, 4233.505
202.524, 4221.671
203.006, 4210.997
203.488, 4203.550
203.970, 4201.566
204.452, 4205.173
204.934, 4208.940
205.416, 4217.845
205.898, 4221.779
206.380, 4217.114
206.863, 4204.657
207.345, 4186.643
207.827, 4163.262
208.309, 4134.756
208.791, 4110.629
209.273, 4091.452
209.755, 4076.708
210.238, 4070.938
210.720, 4069.520
211.202, 4062.385
211.684, 4038.628
212.166, 4001.980
212.648, 3990.253
213.130, 4034.601
213.612, 4068.585
214.094, 4066.244
214.577, 4041.714
215.059, 4018.493
215.541, 4010.567
216.023, 4016.299
216.505, 4027.958
216.987, 4052.631
217.469, 4073.713
217.951, 4085.707
218.434, 4092.075
218.916, 4096.583
219.398, 4099.818
219.880, 4104.766
220.362, 4122.801
220.844, 4164.100
221.326, 4202.960
221.808, 4227.904
222.290, 4248.867
222.773, 4276.698
223.255, 4316.289
223.737, 4366.482
224.219, 4425.369
224.701, 4498.149
225.183, 4569.952
225.665, 4629.240
226.147, 4689.740
226.629, 4763.687
227.112, 4855.186
227.594, 4963.633
228.076, 5089.718
228.558, 5235.117
229.040, 5393.340
229.522, 5553.171
230.004, 5729.002
230.486, 5931.981
230.969, 6165.380
231.451, 6425.362
231.933, 6707.110
232.415, 7007.731
232.897, 7340.496
233.379, 7708.390
233.861, 8108.026
234.343, 8551.071
234.825, 9038.061
235.307, 9537.559
235.790, 10064.980
236.272, 10644.250
236.754, 11039.390
237.236, 11236.320
237.718, 11199.910
238.200, 10849.950
238.682, 10202.520
239.165, 9439.161
239.647, 8665.324
240.129, 7881.281
240.611, 7211.471
241.093, 6680.392
241.575, 6265.014
242.057, 5958.918
242.539, 5749.810
243.021, 5590.834
243.503, 5459.114
243.986, 5353.294
244.468, 5268.038
244.950, 5211.188
245.432, 5163.819
245.914, 5116.431
246.396, 5068.593
246.878, 5018.225
247.361, 4960.649
247.843, 4900.059
248.325, 4846.853
248.807, 4801.214
249.289, 4762.922
249.771, 4738.159
250.253, 4719.876
250.735, 4694.321
251.217, 4652.468
251.699, 4603.379
252.182, 4557.246
252.664, 4512.800
253.146, 4479.431
253.628, 4472.755
254.110, 4478.591
254.592, 4473.916
255.074, 4449.195
255.556, 4418.975
256.039, 4397.816
256.521, 4385.515
257.003, 4373.127
257.485, 4356.510
257.967, 4337.388
258.449, 4318.539
258.931, 4298.368
259.413, 4281.927
259.896, 4277.453
260.378, 4281.103
260.860, 4275.411
261.342, 4251.631
261.824, 4218.571
262.306, 4189.914
262.788, 4164.935
263.270, 4145.830
263.752, 4138.325
264.234, 4136.648
264.717, 4127.741
265.199, 4106.678
265.681, 4082.788
266.163, 4070.228
266.645, 4070.095
267.127, 4068.717
267.609, 4062.096
268.091, 4053.582
268.574, 4048.855
269.056, 4048.847
269.538, 4045.687
270.020, 4029.829
270.502, 3998.218
270.984, 3973.901
271.466, 3957.970
271.948, 3948.603
272.431, 3947.458
272.913, 3953.095
273.395, 3958.536
273.877, 3958.445
274.359, 3952.780
274.841, 3946.448
275.323, 3940.781
275.805, 3933.209
276.287, 3918.708
276.770, 3901.280
277.252, 3890.006
277.734, 3890.225
278.216, 3900.372
278.698, 3912.974
279.180, 3934.837
279.662, 3950.928
280.144, 3952.870
280.626, 3949.844
281.109, 3954.143
281.591, 3970.754
282.073, 3994.651
282.555, 4015.157
283.037, 4035.059
283.519, 4046.467
284.001, 4042.434
284.483, 4034.907
284.966, 4031.225
285.448, 4033.851
285.930, 4043.832
286.412, 4065.629
286.894, 4108.762
287.376, 4133.063
287.858, 4125.916
288.340, 4112.465
288.823, 4101.122
289.305, 4093.923
289.787, 4091.033
290.269, 4091.585
290.751, 4095.672
291.233, 4110.795
291.715, 4142.509
292.197, 4180.161
292.679, 4223.704
293.161, 4269.926
293.644, 4311.889
294.126, 4340.548
294.608, 4367.067
295.090, 4424.219
295.572, 4517.534
296.054, 4630.951
296.536, 4760.020
297.018, 4904.317
297.501, 5061.512
297.983, 5229.194
298.465, 5418.068
298.947, 5640.854
299.429, 5899.201
299.911, 6185.439
300.393, 6527.404
300.875, 6873.882
301.358, 7175.052
301.840, 7424.097
302.322, 7657.563
302.804, 7888.246
303.286, 8121.233
303.768, 8405.029
304.250, 8817.239
304.732, 9153.239
305.214, 9216.419
305.697, 9034.043
306.179, 8673.480
306.661, 8040.989
307.143, 7290.502
307.625, 6601.019
308.107, 5989.033
308.589, 5474.573
309.071, 5087.479
309.553, 4826.784
310.036, 4625.304
310.518, 4510.665
311.000, 4427.854
311.482, 4352.148
311.964, 4281.036
312.446, 4207.342
312.928, 4123.967
313.410, 4039.312
313.892, 3986.353
314.375, 3983.170
314.857, 3981.755
315.339, 3972.994
315.821, 3960.531
316.303, 3949.396
316.785, 3941.284
317.267, 3933.886
317.750, 3923.066
318.232, 3904.559
318.714, 3892.118
319.196, 3890.222
319.678, 3890.609
320.160, 3887.068
320.642, 3879.670
321.124, 3872.986
321.606, 3871.503
322.089, 3875.527
322.571, 3880.281
323.053, 3887.490
323.535, 3893.560
324.017, 3896.813
324.499, 3898.136
324.981, 3899.462
325.463, 3902.122
325.945, 3904.988
326.428, 3903.780
326.910, 3894.966
327.392, 3888.861
327.874, 3888.835
328.356, 3891.659
328.838, 3895.593
329.320, 3900.276
329.802, 3902.694
330.284, 3896.958
330.767, 3882.253
331.249, 3872.847
331.731, 3871.484
332.213, 3876.576
332.695, 3890.710
333.177, 3912.196
333.659, 3927.734
334.141, 3925.684
334.624, 3912.248
335.106, 3902.613
335.588, 3898.118
336.070, 3896.607
336.552, 3900.362
337.034, 3906.254
337.516, 3904.902
337.998, 3887.904
338.480, 3868.372
338.963, 3856.344
339.445, 3851.301
339.927, 3849.145
340.409, 3847.150
340.891, 3847.491
341.373, 3857.448
341.855, 3885.280
342.337, 3906.493
342.819, 3911.543
343.302, 3907.077
343.784, 3900.342
344.266, 3893.348
344.748, 3888.572
345.230, 3888.810
345.712, 3893.191
346.194, 3907.177
346.677, 3942.510
347.159, 3976.574
347.641, 3995.803
348.123, 4001.203
348.605, 4001.170
349.087, 4001.742
349.569, 4002.782
350.051, 4002.610
350.533, 3998.788
351.016, 3996.669
351.498, 3994.968
351.980, 3996.276
352.462, 4004.214
352.944, 4020.311
353.426, 4041.481
353.908, 4061.056
354.390, 4076.265
354.872, 4100.326
355.355, 4128.476
355.837, 4172.014
356.319, 4236.332
356.801, 4322.558
357.283, 4432.146
357.765, 4553.796
358.247, 4696.572
358.729, 4904.873
359.211, 5187.175
359.694, 5520.201
360.176, 5885.369
360.658, 6288.751
361.140, 6758.397
361.622, 7286.946
362.104, 7895.641
362.586, 8601.572
363.069, 9406.872
363.551, 10329.500
364.033, 11429.070
364.515, 12591.690
364.997, 13542.170
365.479, 14211.310
365.961, 14894.640
366.443, 15710.010
366.925, 16569.500
367.408, 17609.381
367.890, 18809.609
368.372, 19410.279
368.854, 18462.609
369.336, 15652.420
369.818, 12984.560
370.300, 10135.210
370.782, 7729.930
371.264, 6129.017
371.747, 5205.210
372.229, 4664.131
372.711, 4352.045
373.193, 4225.377
373.675, 4127.419
374.157, 4069.790
374.639, 4025.247
375.121, 3989.888
375.603, 3964.395
376.086, 3954.059
376.568, 3958.529
377.050, 3963.034
377.532, 3946.766
378.014, 3908.784
378.496, 3884.967
378.978, 3887.175
379.460, 3892.357
379.943, 3886.011
380.425, 3871.488
380.907, 3858.225
381.389, 3849.473
381.871, 3844.692
382.353, 3843.065
382.835, 3844.597
383.317, 3850.024
383.799, 3863.622
384.282, 3878.944
384.764, 3882.723
385.246, 3871.424
385.728, 3857.381
386.210, 3842.891
386.692, 3829.729
387.174, 3821.890
387.656, 3820.415
388.138, 3820.724
388.621, 3816.936
389.103, 3807.174
389.585, 3804.510
390.067, 3815.630
390.549, 3826.947
391.031, 3828.792
391.513, 3825.131
391.996, 3827.457
392.478, 3843.297
392.960, 3867.146
393.442, 3878.900
393.924, 3869.071
394.406, 3862.230
394.888, 3862.953
395.370, 3866.091
395.852, 3867.656
396.335, 3866.885
396.817, 3865.320
397.299, 3866.631
397.781, 3870.607
398.263, 3863.912
398.745, 3835.889
399.227, 3812.794
399.709, 3811.196
400.191, 3824.121
400.674, 3837.777
401.156, 3848.595
401.638, 3856.589
402.120, 3862.005
402.602, 3864.759
403.084, 3863.059
403.566, 3853.910
404.048, 3842.642
404.530, 3839.402
405.013, 3845.789
405.495, 3851.644
405.977, 3855.341
406.459, 3856.715
406.941, 3853.995
407.423, 3847.681
407.905, 3843.193
408.387, 3846.369
408.870, 3857.181
409.352, 3858.323
409.834, 3835.431
410.316, 3820.338
410.798, 3826.138
411.280, 3842.882
411.762, 3858.176
412.244, 3867.139
412.727, 3870.935
413.209, 3870.000
413.691, 3861.496
414.173, 3858.181
414.655, 3864.273
415.137, 3873.027
415.619, 3882.620
416.101, 3892.372
416.583, 3901.358
417.065, 3909.734
417.548, 3916.549
418.030, 3919.460
418.512, 3918.125
418.994, 3914.687
419.476, 3907.603
419.958, 3900.395
420.440, 3898.528
420.922, 3902.644
421.405, 3910.759
421.887, 3926.770
422.369, 3944.849
422.851, 3955.239
423.333, 3955.986
423.815, 3949.816
424.297, 3936.669
424.779, 3914.973
425.262, 3910.068
425.744, 3941.898
426.226, 3967.278
426.708, 3963.507
427.190, 3942.617
427.672, 3925.221
428.154, 3920.674
428.636, 3925.884
429.118, 3936.191
429.601, 3955.873
430.083, 3969.556
430.565, 3966.271
431.047, 3965.323
431.529, 3978.624
432.011, 4004.405
432.493, 4031.892
432.975, 4048.751
433.457, 4064.018
433.940, 4102.309
434.422, 4165.948
434.904, 4241.172
435.386, 4316.948
435.868, 4403.940
436.350, 4516.306
436.832, 4654.571
437.314, 4817.169
437.797, 4994.440
438.279, 5197.945
438.761, 5444.507
439.243, 5739.434
439.725, 6074.309
440.207, 6439.521
440.689, 6836.000
441.171, 7290.159
441.654, 7803.184
442.136, 8364.833
442.618, 8978.326
443.100, 9636.567
443.582, 10335.690
444.064, 11072.120
444.546, 11833.610
445.028, 12613.920
445.510, 13452.450
445.992, 14168.170
446.475, 14736.540
446.957, 15183.020
447.439, 15533.930
447.921, 15771.500
448.403, 15851.560
448.885, 15791.560
449.367, 15528.280
449.849, 14912.570
450.332, 13938.370
450.814, 12812.560
451.296, 11527.490
451.778, 10220.510
452.260, 9068.342
452.742, 8062.912
453.224, 7239.284
453.706, 6651.905
454.189, 6225.651
454.671, 5900.388
455.153, 5662.318
455.635, 5487.788
456.117, 5363.205
456.599, 5285.515
457.081, 5231.629
457.563, 5207.336
458.045, 5201.382
458.528, 5224.646
459.010, 5259.032
459.492, 5285.272
459.974, 5300.388
460.456, 5318.838
460.938, 5359.616
461.420, 5422.417
461.902, 5475.579
462.384, 5512.319
462.867, 5551.108
463.349, 5605.428
463.831, 5666.609
464.313, 5720.129
464.795, 5759.726
465.277, 5796.823
465.759, 5832.237
466.241, 5871.806
466.724, 5934.965
467.206, 6027.771
467.688, 6138.273
468.170, 6252.680
468.652, 6369.457
469.134, 6510.974
469.616, 6669.576
470.098, 6858.645
470.580, 7070.166
471.063, 7319.456
471.545, 7626.220
472.027, 7997.212
472.509, 8454.588
472.991, 9027.722
473.473, 9708.864
473.955, 10544.110
474.437, 11568.460
474.919, 12735.920
475.402, 14045.600
475.884, 15489.970
476.366, 17027.869
476.848, 18601.070
477.330, 20306.170
477.812, 22270.131
478.294, 24500.600
478.776, 27029.311
479.259, 29850.090
479.741, 32978.828
480.223, 36540.750
480.705, 40608.852
481.187, 44556.352
481.669, 49058.629
482.151, 52773.590
482.633, 54813.590
483.116, 55058.039
483.598, 53336.340
484.080, 49409.148
484.562, 43845.711
485.044, 38592.000
485.526, 33684.750
486.008, 29063.869
486.490, 24603.689
486.972, 20512.561
487.454, 16884.461
487.937, 13748.910
488.419, 11172.770
488.901, 9292.188
489.383, 7991.726
489.865, 6995.864
490.347, 6328.508
490.829, 5830.517
491.311, 5478.566
491.794, 5238.801
492.276, 5045.245
492.758, 4904.471
493.240, 4781.904
493.722, 4668.590
494.204, 4564.702
494.686, 4470.615
495.168, 4386.083
495.651, 4311.715
496.133, 4248.066
496.615, 4194.583
497.097, 4151.255
497.579, 4127.284
498.061, 4100.688
498.543, 4063.786
499.025, 4027.648
499.507, 4001.431
499.990, 3985.935
500.472, 3976.227
500.954, 3973.430
501.436, 3973.055
501.918, 3953.510
502.400, 3907.930
502.882, 3872.199
503.364, 3868.629
503.846, 3881.905
504.329, 3884.924
504.811, 3874.011
505.293, 3863.816
505.775, 3859.303
506.257, 3858.749
506.739, 3862.083
507.221, 3868.281
507.703, 3872.571
508.185, 3871.670
508.668, 3865.692
509.150, 3855.126
509.632, 3834.687
510.114, 3816.985
510.596, 3796.341
511.078, 3783.492
511.560, 3793.610
512.042, 3824.046
512.525, 3850.694
513.007, 3849.787
513.489, 3830.564
513.971, 3824.335
514.453, 3833.778
514.935, 3841.865
515.417, 3844.444
515.899, 3838.490
516.381, 3816.922
516.864, 3773.048
517.346, 3739.000
517.828, 3728.271
518.310, 3729.991
518.792, 3737.451
519.274, 3747.772
519.756, 3753.992
520.239, 3750.935
520.721, 3741.311
521.203, 3735.985
521.685, 3735.840
522.167, 3738.668
522.649, 3751.430
523.131, 3761.041
523.613, 3755.479
524.095, 3736.898
524.578, 3719.210
525.060, 3711.732
525.542, 3710.820
526.024, 3710.224
526.506, 3709.972
526.988, 3708.918
527.470, 3707.347
527.952, 3703.921
528.434, 3695.346
528.917, 3680.614
529.399, 3667.420
529.881, 3652.367
530.363, 3643.020
530.845, 3647.389
531.327, 3662.231
531.809, 3680.317
532.291, 3698.504
532.773, 3712.562
533.256, 3710.904
533.738, 3687.240
534.220, 3668.444
534.702, 3653.768
535.184, 3647.843
535.666, 3658.250
536.148, 3679.679
536.630, 3697.360
537.112, 3704.697
537.595, 3706.743
538.077, 3706.878
538.559, 3705.819
539.041, 3708.144
539.523, 3716.285
540.005, 3721.629
540.487, 3711.467
540.969, 3681.432
541.452, 3667.585
541.934, 3684.799
542.416, 3699.954
542.898, 3700.216
543.380, 3691.639
543.862, 3682.681
544.344, 3676.326
544.826, 3672.142
545.308, 3671.332
545.791, 3673.622
546.273, 3669.286
546.755, 3653.499
547.237, 3641.109
547.719, 3646.060
548.201, 3658.835
548.683, 3661.580
549.166, 3647.538
549.648, 3634.423
550.130, 3630.933
550.612, 3632.694
551.094, 3632.706
551.576, 3630.762
552.058, 3635.033
552.540, 3654.576
553.022, 3683.752
553.505, 3685.395
553.987, 3628.479
554.469, 3595.893
554.951, 3617.290
555.433, 3649.129
555.915, 3657.124
556.397, 3641.481
556.879, 3627.252
557.362, 3632.445
557.844, 3647.406
558.326, 3657.866
558.808, 3663.797
559.290, 3662.479
559.772, 3650.270
560.254, 3635.809
560.736, 3633.284
561.218, 3647.586
561.701, 3657.235
562.183, 3656.859
562.665, 3656.807
563.147, 3663.882
563.629, 3674.795
564.111, 3683.618
564.593, 3687.920
565.075, 3687.909
565.557, 3679.047
566.040, 3660.618
566.522, 3664.361
567.004, 3709.460
567.486, 3745.749
567.968, 3730.435
568.450, 3684.966
568.932, 3650.200
569.414, 3633.131
569.896, 3623.618
570.379, 3617.772
570.861, 3616.252
571.343, 3621.317
571.825, 3632.534
572.307, 3646.411
572.789, 3661.428
573.271, 3675.608
573.753, 3676.719
574.235, 3654.563
574.718, 3638.640
575.200, 3632.584
575.682, 3634.899
576.164, 3651.372
576.646, 3678.135
577.128, 3694.886
577.610, 3679.825
578.093, 3656.642
578.575, 3656.382
579.057, 3675.333
579.539, 3695.232
580.021, 3710.276
580.503, 3720.874
580.985, 3727.174
581.467, 3728.438
581.949, 3728.881
582.432, 3724.091
582.914, 3723.506
583.396, 3734.817
583.878, 3750.363
584.360, 3757.001
584.842, 3751.374
585.324, 3748.950
585.806, 3768.339
586.289, 3804.719
586.771, 3837.198
587.253, 3863.885
587.735, 3893.223
588.217, 3935.623
588.699, 3980.516
589.181, 3998.893
589.663, 3979.313
590.145, 3964.442
590.628, 3962.493
591.110, 3966.291
591.592, 3970.304
592.074, 3975.256
592.556, 3985.306
593.038, 4003.151
593.520, 4025.104
594.002, 4041.311
594.484, 4049.802
594.967, 4074.488
595.449, 4126.349
595.931, 4182.888
596.413, 4229.206
596.895, 4267.233
597.377, 4300.624
597.859, 4326.289
598.341, 4352.160
598.823, 4386.815
599.306, 4421.652
599.788, 4441.658
600.270, 4446.724
600.752, 4452.334
601.234, 4471.526
601.716, 4501.657
602.198, 4531.079
602.680, 4563.748
603.162, 4585.838
603.645, 4584.496
604.127, 4579.472
604.609, 4585.691
605.091, 4601.850
605.573, 4615.976
606.055, 4622.671
606.537, 4626.293
607.019, 4633.246
607.502, 4639.791
607.984, 4635.478
608.466, 4617.275
608.948, 4592.940
609.430, 4571.469
609.912, 4553.077
610.394, 4528.687
610.876, 4495.789
611.359, 4460.128
611.841, 4423.928
612.323, 4385.108
612.805, 4340.374
613.287, 4289.668
613.769, 4239.130
614.251, 4197.417
614.733, 4154.599
615.216, 4092.105
615.698, 4014.003
616.180, 3943.621
616.662, 3890.918
617.144, 3848.936
617.626, 3808.025
618.108, 3768.612
618.590, 3729.192
619.072, 3687.302
619.555, 3648.461
620.037, 3608.384
620.519, 3574.970
621.001, 3561.861
621.483, 3572.319
621.965, 3583.673
622.447, 3574.331
622.929, 3554.656
623.411, 3544.287
623.894, 3544.199
624.376, 3553.438
624.858, 3574.678
625.340, 3597.783
625.822, 3601.148
626.304, 3571.929
