##NAMES=Carpathite
##RRUFFID=R060162
##IDEAL CHEMISTRY=C_24_H_12_
##LOCALITY=Picacho mine, San Benito County, California, USA
##OWNER=RRUFF
##SOURCE=Marcus Origlieri
##DESCRIPTION=Colorless to pale yellow splintery fractured aggregates associated with cinnabar on quartz
##STATUS=The identification of this mineral has been confirmed by single-crystal X-ray diffraction.
##URL=rruff.info/R060162
90.26367, 775.5735
90.74579, 773.6180
91.22791, 773.8526
91.71002, 776.1609
92.19214, 779.6077
92.67426, 783.3104
93.15637, 787.5481
93.63850, 793.0447
94.12061, 801.5545
94.60273, 811.1356
95.08485, 816.3378
95.56696, 816.5558
96.04908, 816.1616
96.53120, 821.0813
97.01331, 830.9609
97.49543, 840.4028
97.97755, 846.6572
98.45966, 849.8783
98.94178, 854.1271
99.42390, 859.7614
99.90602, 865.9598
100.3881, 871.1109
100.8703, 874.9258
101.3524, 878.8312
101.8345, 883.7823
102.3166, 890.0388
102.7987, 895.9895
103.2808, 901.2361
103.7630, 906.1035
104.2451, 911.6384
104.7272, 917.5017
105.2093, 924.5557
105.6914, 933.6855
106.1735, 945.9460
106.6557, 958.1678
107.1378, 967.6970
107.6199, 974.2924
108.1020, 989.9860
108.5841, 1019.808
109.0662, 1056.234
109.5484, 1092.866
110.0305, 1124.402
110.5126, 1161.802
110.9947, 1205.797
111.4768, 1255.993
111.9590, 1316.633
112.4411, 1387.318
112.9232, 1469.400
113.4053, 1562.495
113.8874, 1666.065
114.3695, 1781.776
114.8517, 1908.368
115.3338, 2042.911
115.8159, 2194.982
116.2980, 2365.870
116.7801, 2557.802
117.2622, 2773.381
117.7444, 3007.302
118.2265, 3270.642
118.7086, 3568.764
119.1907, 3903.506
119.6728, 4277.841
120.1549, 4691.721
120.6371, 5146.263
121.1192, 5648.197
121.6013, 6212.068
122.0834, 6817.225
122.5655, 7438.904
123.0477, 8074.398
123.5298, 8719.269
124.0119, 9374.621
124.4940, 10039.51
124.9761, 10703.39
125.4582, 11361.94
125.9404, 12009.03
126.4225, 12626.75
126.9046, 13196.24
127.3867, 13735.74
127.8688, 14264.49
128.3509, 14780.02
128.8331, 15308.82
129.3152, 15867.19
129.7973, 16461.39
130.2794, 17106.77
130.7615, 17814.65
131.2436, 18580.69
131.7258, 19384.42
132.2079, 20227.97
132.6900, 21100.69
133.1721, 21995.32
133.6542, 22908.20
134.1364, 23824.55
134.6185, 24757.56
135.1006, 25708.83
135.5827, 26611.81
136.0648, 27466.33
136.5469, 28274.48
137.0291, 29041.85
137.5112, 29762.79
137.9933, 30445.35
138.4754, 31101.97
138.9575, 31727.58
139.4396, 32322.84
139.9218, 32878.74
140.4039, 33401.49
140.8860, 33907.87
141.3681, 34386.41
141.8502, 34863.29
142.3323, 35342.76
142.8145, 35823.54
143.2966, 36326.43
143.7787, 36848.62
144.2608, 37394.75
144.7429, 37964.50
145.2251, 38567.57
145.7072, 39192.52
146.1893, 39830.07
146.6714, 40468.52
147.1535, 41135.82
147.6356, 41838.00
148.1178, 42576.64
148.5999, 43321.74
149.0820, 44075.23
149.5641, 44831.64
150.0462, 45577.12
150.5283, 46312.96
151.0105, 47027.11
151.4926, 47285.16
151.9747, 47444.42
152.4568, 47604.63
152.9389, 47793.79
153.4210, 47979.70
153.9032, 48119.48
154.3853, 48179.70
154.8674, 48218.79
155.3495, 48253.65
155.8316, 48285.44
156.3138, 48314.00
156.7959, 48337.10
157.2780, 48356.38
157.7601, 48375.22
158.2422, 48386.39
158.7243, 48401.79
159.2065, 48426.60
159.6886, 48461.10
160.1707, 48503.25
160.6528, 48549.97
161.1349, 48602.41
161.6170, 48664.80
162.0992, 48740.36
162.5813, 48824.34
163.0634, 48914.30
163.5455, 49015.88
164.0276, 49114.34
164.5097, 49201.05
164.9919, 49278.46
165.4740, 49356.06
165.9561, 49443.79
166.4382, 49531.70
166.9203, 49611.76
167.4025, 49678.43
167.8846, 49740.73
168.3667, 49802.48
168.8488, 49864.38
169.3309, 49930.34
169.8130, 50005.29
170.2952, 50084.79
170.7773, 50162.50
171.2594, 50241.09
171.7415, 50313.29
172.2236, 50370.00
172.7057, 50411.70
173.1879, 50452.05
173.6700, 50493.80
174.1521, 50540.94
174.6342, 50600.58
175.1163, 50687.52
175.5984, 50781.86
176.0806, 50858.99
176.5627, 50918.97
177.0448, 50971.50
177.5269, 51025.50
178.0090, 51078.52
178.4911, 51126.23
178.9733, 51169.07
179.4554, 51204.73
179.9375, 51229.63
180.4196, 51243.68
180.9017, 51249.46
181.3839, 51258.30
181.8660, 51264.39
182.3481, 51245.48
182.8302, 51177.49
183.3123, 51080.04
183.7944, 50995.95
184.2766, 50926.52
184.7587, 50869.52
185.2408, 50819.65
185.7229, 50778.38
186.2050, 50750.70
186.6871, 50744.49
187.1693, 50754.74
187.6514, 50761.47
188.1335, 50761.04
188.6156, 50764.38
189.0977, 50790.07
189.5798, 50836.50
190.0620, 50886.18
190.5441, 50930.27
191.0262, 50968.98
191.5083, 51010.17
191.9904, 51058.03
192.4725, 51099.93
192.9547, 51108.55
193.4368, 51083.06
193.9189, 51058.73
194.4010, 51055.63
194.8831, 51073.00
195.3652, 51094.18
195.8474, 51118.08
196.3295, 51146.33
196.8116, 51186.00
197.2937, 51238.89
197.7758, 51286.29
198.2579, 51313.52
198.7401, 51319.91
199.2222, 51329.58
199.7043, 51343.27
200.1864, 51360.91
200.6685, 51383.56
201.1507, 51411.11
201.6328, 51441.08
202.1149, 51476.27
202.5970, 51518.60
203.0791, 51541.28
203.5612, 51535.24
204.0434, 51513.45
204.5255, 51513.08
205.0076, 51539.47
205.4897, 51570.07
205.9718, 51591.43
206.4539, 51602.45
206.9361, 51613.87
207.4182, 51628.63
207.9003, 51644.12
208.3824, 51649.75
208.8645, 51641.68
209.3466, 51634.81
209.8288, 51637.38
210.3109, 51649.55
210.7930, 51671.71
211.2751, 51707.78
211.7572, 51752.85
212.2393, 51789.81
212.7215, 51816.00
213.2036, 51838.54
213.6857, 51861.18
214.1678, 51883.38
214.6499, 51905.80
215.1321, 51926.37
215.6142, 51946.91
216.0963, 51976.92
216.5784, 52019.46
217.0605, 52064.62
217.5426, 52105.41
218.0248, 52138.46
218.5069, 52176.76
218.9890, 52226.02
219.4711, 52281.81
219.9532, 52321.75
220.4353, 52338.14
220.9175, 52352.76
221.3996, 52379.71
221.8817, 52422.41
222.3638, 52470.11
222.8459, 52527.05
223.3280, 52589.26
223.8102, 52629.04
224.2923, 52632.11
224.7744, 52635.05
225.2565, 52661.49
225.7386, 52719.95
226.2208, 52779.21
226.7029, 52834.61
227.1850, 52887.89
227.6671, 52948.40
228.1492, 53023.90
228.6313, 53095.38
229.1135, 53150.78
229.5956, 53185.87
230.0777, 53214.01
230.5598, 53225.01
231.0419, 53228.92
231.5240, 53276.51
232.0062, 53386.35
232.4883, 53515.82
232.9704, 53641.34
233.4525, 53763.36
233.9346, 53880.90
234.4167, 53991.34
234.8989, 54096.61
235.3810, 54210.91
235.8631, 54369.03
236.3452, 54491.13
236.8273, 54534.32
237.3095, 54491.84
237.7916, 54380.15
238.2737, 54173.45
238.7558, 53895.18
239.2379, 53638.21
239.7200, 53391.96
240.2022, 53179.90
240.6843, 53015.02
241.1664, 52912.83
241.6485, 52824.83
242.1306, 52753.34
242.6127, 52694.77
243.0949, 52636.34
243.5770, 52574.10
244.0591, 52519.54
244.5412, 52480.46
245.0233, 52463.71
245.5054, 52449.76
245.9876, 52440.96
246.4697, 52435.19
246.9518, 52423.34
247.4339, 52399.20
247.9160, 52378.30
248.3981, 52367.11
248.8803, 52363.52
249.3624, 52373.93
249.8445, 52403.96
250.3266, 52445.46
250.8087, 52476.59
251.2909, 52491.02
251.7730, 52502.54
252.2551, 52516.80
252.7372, 52534.77
253.2193, 52551.30
253.7014, 52566.27
254.1836, 52579.31
254.6657, 52590.15
255.1478, 52600.74
255.6299, 52605.98
256.1120, 52602.31
256.5941, 52585.27
257.0763, 52575.89
257.5584, 52577.90
258.0405, 52585.98
258.5226, 52588.43
259.0047, 52582.10
259.4868, 52577.73
259.9690, 52581.83
260.4511, 52599.04
260.9332, 52601.91
261.4153, 52580.89
261.8974, 52553.87
262.3795, 52554.51
262.8617, 52595.90
263.3438, 52632.76
263.8259, 52647.06
264.3080, 52633.83
264.7901, 52632.49
265.2722, 52648.18
265.7544, 52669.00
266.2365, 52676.04
266.7186, 52663.91
267.2007, 52654.68
267.6829, 52660.37
268.1650, 52683.30
268.6471, 52677.38
269.1292, 52631.45
269.6113, 52574.54
270.0934, 52544.37
270.5756, 52547.49
271.0577, 52551.31
271.5398, 52545.06
272.0219, 52529.32
272.5040, 52525.81
272.9861, 52537.03
273.4683, 52555.02
273.9504, 52575.05
274.4325, 52599.33
274.9146, 52611.02
275.3967, 52602.68
275.8788, 52576.93
276.3610, 52553.45
276.8431, 52529.48
277.3252, 52516.66
277.8073, 52532.38
278.2894, 52580.15
278.7715, 52618.98
279.2537, 52638.82
279.7358, 52645.05
280.2179, 52662.23
280.7000, 52694.18
281.1821, 52722.29
281.6642, 52724.36
282.1464, 52700.30
282.6285, 52694.34
283.1106, 52714.52
283.5927, 52756.23
284.0748, 52812.60
284.5569, 52885.24
285.0391, 52954.85
285.5212, 53003.14
286.0033, 53031.89
286.4854, 53070.95
286.9675, 53126.86
287.4496, 53188.64
287.9318, 53237.05
288.4139, 53272.07
288.8960, 53294.32
289.3781, 53298.07
289.8602, 53287.98
290.3424, 53288.64
290.8245, 53305.05
291.3066, 53327.17
291.7887, 53338.22
292.2708, 53339.74
292.7530, 53341.85
293.2351, 53350.53
293.7172, 53364.60
294.1993, 53377.48
294.6814, 53387.48
295.1635, 53403.40
295.6457, 53430.23
296.1278, 53469.80
296.6099, 53531.73
297.0920, 53631.96
297.5741, 53753.56
298.0562, 53864.18
298.5384, 53962.05
299.0205, 54051.36
299.5026, 54132.76
299.9847, 54207.93
300.4668, 54285.10
300.9489, 54400.34
301.4311, 54501.79
301.9132, 54504.63
302.3953, 54411.70
302.8774, 54283.38
303.3595, 54141.05
303.8416, 54000.48
304.3238, 53887.18
304.8059, 53829.11
305.2880, 53785.77
305.7701, 53717.86
306.2522, 53627.60
306.7343, 53533.38
307.2165, 53436.01
307.6986, 53344.00
308.1807, 53267.56
308.6628, 53207.84
309.1449, 53163.65
309.6270, 53136.42
310.1092, 53123.15
310.5913, 53116.15
311.0734, 53110.77
311.5555, 53109.15
312.0376, 53115.71
312.5197, 53136.32
313.0019, 53150.18
313.4840, 53138.97
313.9661, 53112.83
314.4482, 53092.52
314.9304, 53097.24
315.4125, 53103.87
315.8946, 53095.86
316.3767, 53067.86
316.8588, 53045.29
317.3409, 53054.60
317.8231, 53071.93
318.3052, 53065.71
318.7873, 53002.15
319.2694, 52934.74
319.7515, 52880.69
320.2336, 52840.75
320.7158, 52821.01
321.1979, 52841.56
321.6800, 52874.57
322.1621, 52894.83
322.6442, 52888.91
323.1263, 52877.71
323.6085, 52858.17
324.0906, 52832.00
324.5727, 52824.13
325.0548, 52851.45
325.5369, 52890.15
326.0190, 52926.02
326.5012, 52966.52
326.9833, 52995.35
327.4654, 53004.21
327.9475, 52998.94
328.4296, 53002.12
328.9117, 53022.13
329.3939, 53043.23
329.8760, 53059.45
330.3581, 53071.66
330.8402, 53074.95
331.3223, 53060.62
331.8044, 53038.25
332.2866, 53027.98
332.7687, 53032.86
333.2508, 53042.91
333.7329, 53055.64
334.2150, 53071.76
334.6971, 53085.03
335.1793, 53100.11
335.6614, 53108.16
336.1435, 53096.86
336.6256, 53062.15
337.1077, 53021.21
337.5899, 52976.25
338.0720, 52928.61
338.5541, 52899.93
339.0362, 52897.13
339.5183, 52901.49
340.0005, 52895.37
340.4826, 52877.49
340.9647, 52862.93
341.4468, 52852.96
341.9289, 52848.96
342.4110, 52859.14
342.8932, 52885.50
343.3753, 52908.59
343.8574, 52906.58
344.3395, 52881.27
344.8216, 52873.55
345.3037, 52886.72
345.7859, 52917.30
346.2680, 52965.50
346.7501, 53030.00
347.2322, 53092.08
347.7143, 53130.28
348.1964, 53157.36
348.6786, 53214.12
349.1607, 53303.22
349.6428, 53420.43
350.1249, 53554.96
350.6070, 53712.89
351.0891, 53917.96
351.5713, 54221.45
352.0534, 54555.34
352.5355, 54843.93
353.0176, 55082.40
353.4997, 55242.31
353.9818, 55246.63
354.4640, 55169.46
354.9461, 55125.67
355.4282, 55164.84
355.9103, 55228.45
356.3924, 55258.00
356.8745, 55265.52
357.3567, 55297.09
357.8388, 55380.30
358.3209, 55497.98
358.8030, 55634.71
359.2851, 55782.14
359.7672, 55962.44
360.2494, 56163.45
360.7315, 56408.61
361.2136, 56736.84
361.6957, 57137.40
362.1779, 57647.18
362.6600, 58310.98
363.1421, 59148.45
363.6242, 60002.24
364.1063, 60865.11
364.5884, 61707.81
365.0706, 62493.09
365.5527, 63047.42
366.0348, 63713.20
366.5169, 64640.71
366.9990, 65809.56
367.4811, 66862.70
367.9633, 68587.94
368.4454, 69625.41
368.9275, 69165.01
369.4096, 66036.89
369.8917, 63030.04
370.3738, 59945.34
370.8560, 57008.55
371.3381, 54916.66
371.8202, 53977.89
372.3023, 53440.56
372.7844, 53068.99
373.2665, 52897.56
373.7487, 52757.82
374.2308, 52654.77
374.7129, 52578.86
375.1950, 52517.32
375.6771, 52471.99
376.1592, 52436.82
376.6414, 52415.23
377.1235, 52404.80
377.6056, 52373.68
378.0877, 52314.64
378.5698, 52258.93
379.0519, 52239.41
379.5341, 52256.74
380.0162, 52264.34
380.4983, 52253.18
380.9804, 52229.54
381.4625, 52205.41
381.9446, 52180.48
382.4268, 52159.26
382.9089, 52146.26
383.3910, 52138.99
383.8731, 52127.89
384.3553, 52111.02
384.8374, 52095.46
385.3195, 52091.15
385.8016, 52095.13
386.2837, 52098.88
386.7658, 52098.05
387.2480, 52095.07
387.7301, 52095.23
388.2122, 52098.14
388.6943, 52095.32
389.1764, 52074.87
389.6585, 52046.89
390.1407, 52025.18
390.6228, 52019.32
391.1049, 52012.32
391.5870, 51993.31
392.0691, 51964.14
392.5512, 51930.63
393.0334, 51883.69
393.5155, 51841.47
393.9976, 51818.76
394.4797, 51824.54
394.9618, 51825.48
395.4439, 51801.41
395.9261, 51769.18
396.4082, 51751.33
396.8903, 51772.86
397.3724, 51789.42
397.8545, 51785.82
398.3366, 51760.93
398.8188, 51740.88
399.3009, 51742.06
399.7830, 51738.85
400.2651, 51713.55
400.7472, 51630.87
401.2293, 51579.29
401.7115, 51574.45
402.1936, 51601.86
402.6757, 51618.04
403.1578, 51617.80
403.6399, 51614.73
404.1220, 51615.57
404.6042, 51622.46
405.0863, 51618.49
405.5684, 51600.64
406.0505, 51576.57
406.5326, 51556.41
407.0147, 51540.85
407.4969, 51524.45
407.9790, 51505.07
408.4611, 51484.22
408.9432, 51466.70
409.4254, 51452.80
409.9075, 51443.55
410.3896, 51442.60
410.8717, 51447.94
411.3538, 51448.54
411.8359, 51440.38
412.3181, 51433.14
412.8002, 51449.25
413.2823, 51480.86
413.7644, 51497.83
414.2465, 51469.76
414.7286, 51423.84
415.2108, 51395.80
415.6929, 51387.63
416.1750, 51385.59
416.6571, 51386.00
417.1392, 51384.16
417.6213, 51373.31
418.1035, 51341.62
418.5856, 51310.64
419.0677, 51291.72
419.5498, 51283.83
420.0319, 51283.64
420.5140, 51304.13
420.9962, 51321.86
421.4783, 51322.00
421.9604, 51298.24
422.4425, 51268.80
422.9246, 51233.63
423.4067, 51196.40
423.8889, 51161.63
424.3710, 51125.18
424.8531, 51096.54
425.3352, 51080.64
425.8173, 51077.46
426.2994, 51072.23
426.7816, 51059.69
427.2637, 51050.48
427.7458, 51053.08
428.2279, 51076.15
428.7100, 51089.39
429.1921, 51088.15
429.6743, 51077.82
430.1564, 51069.30
430.6385, 51061.23
431.1206, 51060.24
431.6028, 51069.74
432.0849, 51089.56
432.5670, 51114.46
433.0491, 51145.37
433.5312, 51178.51
434.0133, 51212.16
434.4955, 51245.90
434.9776, 51274.84
435.4597, 51295.04
435.9418, 51314.00
436.4239, 51343.66
436.9060, 51383.42
437.3882, 51430.29
437.8703, 51486.79
438.3524, 51547.18
438.8345, 51599.11
439.3166, 51638.20
439.7987, 51686.92
440.2809, 51762.95
440.7630, 51860.17
441.2451, 51968.35
441.7272, 52092.46
442.2093, 52217.49
442.6914, 52330.68
443.1736, 52434.92
443.6557, 52549.91
444.1378, 52696.04
444.6199, 52847.45
445.1020, 52987.35
445.5841, 53110.07
446.0663, 53228.88
446.5484, 53351.10
447.0305, 53470.32
447.5126, 53577.31
447.9947, 53711.05
448.4768, 53784.73
448.9590, 53775.78
449.4411, 53682.98
449.9232, 53541.45
450.4053, 53334.21
450.8874, 53099.03
451.3695, 52852.65
451.8517, 52576.50
452.3338, 52362.95
452.8159, 52227.31
453.2980, 52151.63
453.7801, 52103.89
454.2622, 52084.89
454.7444, 52084.91
455.2265, 52104.42
455.7086, 52140.29
456.1907, 52179.82
456.6729, 52224.05
457.1550, 52268.42
457.6371, 52302.72
458.1192, 52334.90
458.6013, 52388.87
459.0834, 52481.59
459.5656, 52576.57
460.0477, 52619.64
460.5298, 52629.53
461.0119, 52659.13
461.4940, 52731.73
461.9761, 52838.64
462.4583, 52969.70
462.9404, 53124.15
463.4225, 53318.85
463.9046, 53532.14
464.3867, 53804.76
464.8688, 54169.80
465.3510, 54640.31
465.8331, 55200.14
466.3152, 55876.02
466.7973, 56643.59
467.2794, 57412.44
467.7615, 58257.05
468.2437, 59034.18
468.7258, 59692.80
469.2079, 60205.36
469.6900, 60690.39
470.1721, 61141.74
470.6542, 61567.35
471.1364, 61968.38
471.6185, 62333.73
472.1006, 62710.15
472.5827, 63082.28
473.0648, 63485.12
473.5469, 64008.48
474.0291, 64649.22
474.5112, 65448.32
474.9933, 66430.02
475.4754, 67590.25
475.9575, 68922.99
476.4396, 70433.61
476.9218, 72081.98
477.4039, 73808.27
477.8860, 75626.88
478.3681, 77554.18
478.8503, 79584.11
479.3324, 81737.79
479.8145, 84130.34
480.2966, 86709.74
480.7787, 89174.54
481.2608, 91888.86
481.7430, 94126.20
482.2251, 95570.13
482.7072, 96307.84
483.1893, 95500.13
483.6714, 92011.64
484.1535, 87197.57
484.6357, 82437.78
485.1178, 77745.97
485.5999, 73321.38
486.0820, 69130.20
486.5641, 65233.46
487.0462, 61751.52
487.5284, 58590.68
488.0105, 55970.46
488.4926, 53994.14
488.9747, 52741.39
489.4568, 51739.50
489.9389, 51027.71
490.4211, 50511.10
490.9032, 50120.18
491.3853, 49856.82
491.8674, 49648.35
492.3495, 49487.37
492.8316, 49366.32
493.3138, 49278.25
493.7959, 49220.29
494.2780, 49168.67
494.7601, 49106.83
495.2422, 49042.31
495.7243, 48990.94
496.2065, 48952.80
496.6886, 48923.94
497.1707, 48909.21
497.6528, 48898.23
498.1349, 48875.77
498.6170, 48827.53
499.0992, 48781.08
499.5813, 48754.40
500.0634, 48740.77
500.5455, 48723.38
501.0276, 48689.88
501.5097, 48657.81
501.9919, 48637.14
502.4740, 48631.75
502.9561, 48615.90
503.4382, 48579.30
503.9203, 48537.64
504.4025, 48501.83
504.8846, 48478.48
505.3667, 48448.61
505.8488, 48409.96
506.3309, 48365.48
506.8130, 48319.05
507.2952, 48268.64
507.7773, 48227.31
508.2594, 48204.70
508.7415, 48196.51
509.2236, 48173.98
509.7057, 48136.10
510.1879, 48098.13
510.6700, 48075.81
511.1521, 48063.60
511.6342, 48044.39
512.1163, 48015.45
512.5984, 47980.75
513.0806, 47932.09
513.5627, 47881.16
514.0448, 47852.46
514.5269, 47897.25
515.0090, 47934.08
515.4911, 47891.56
515.9733, 47781.62
516.4554, 47690.73
516.9375, 47663.62
517.4196, 47655.86
517.9017, 47642.25
518.3839, 47618.20
518.8660, 47591.01
519.3481, 47564.05
519.8302, 47532.95
520.3123, 47492.18
520.7944, 47429.75
521.2766, 47380.59
521.7587, 47354.62
522.2408, 47346.27
522.7229, 47333.76
523.2050, 47319.59
523.6871, 47295.52
524.1693, 47249.14
524.6514, 47184.80
525.1335, 47144.12
525.6156, 47128.60
526.0977, 47128.12
526.5798, 47143.24
527.0620, 47165.63
527.5441, 47169.04
528.0262, 47142.59
528.5083, 47103.70
528.9904, 47058.46
529.4725, 47014.13
529.9547, 46989.66
530.4368, 47019.39
530.9189, 47051.16
531.4010, 47046.44
531.8831, 47004.09
532.3652, 46964.57
532.8474, 46936.67
533.3295, 46917.98
533.8116, 46907.88
534.2937, 46919.98
534.7758, 46918.05
535.2579, 46897.73
535.7401, 46865.68
536.2222, 46831.67
536.7043, 46794.85
537.1865, 46759.13
537.6686, 46725.54
538.1507, 46694.66
538.6328, 46667.95
539.1149, 46645.42
539.5970, 46629.27
540.0792, 46624.61
540.5613, 46628.51
541.0434, 46626.62
541.5255, 46617.80
542.0076, 46607.00
542.4897, 46598.24
542.9719, 46590.51
543.4540, 46582.15
543.9361, 46572.86
544.4182, 46561.24
544.9003, 46540.18
545.3824, 46515.46
545.8646, 46500.59
546.3467, 46511.05
546.8288, 46522.81
547.3109, 46522.37
547.7930, 46508.79
548.2751, 46501.48
548.7573, 46526.31
549.2394, 46540.19
549.7215, 46517.71
550.2036, 46435.82
550.6857, 46371.63
551.1678, 46331.51
551.6500, 46303.52
552.1321, 46271.71
552.6142, 46235.32
553.0963, 46202.43
553.5784, 46176.66
554.0605, 46154.84
554.5427, 46128.20
555.0248, 46097.02
555.5069, 46064.25
555.9890, 46026.70
556.4711, 45990.46
556.9532, 45968.38
557.4354, 45960.62
557.9175, 45956.29
558.3996, 45949.92
558.8817, 45940.79
559.3638, 45927.46
559.8459, 45906.82
560.3281, 45887.38
560.8102, 45878.31
561.2923, 45871.55
561.7744, 45854.39
562.2565, 45815.15
562.7386, 45775.83
563.2208, 45736.97
563.7029, 45700.64
564.1850, 45680.93
564.6671, 45691.93
565.1492, 45695.34
565.6313, 45665.23
566.1135, 45597.32
566.5956, 45561.47
567.0777, 45563.63
567.5598, 45577.48
568.0419, 45577.13
568.5240, 45564.33
569.0062, 45547.56
569.4883, 45526.38
569.9704, 45506.86
570.4525, 45504.48
570.9346, 45510.83
571.4167, 45504.40
571.8989, 45454.82
572.3810, 45406.17
572.8631, 45398.23
573.3452, 45424.13
573.8273, 45434.22
574.3094, 45390.51
574.7916, 45341.53
575.2737, 45314.54
575.7558, 45319.82
576.2379, 45322.91
576.7200, 45326.43
577.2021, 45324.48
577.6843, 45308.39
578.1664, 45267.43
578.6485, 45244.24
579.1306, 45245.97
579.6127, 45263.44
580.0948, 45284.81
580.5770, 45309.92
581.0591, 45317.83
581.5412, 45291.36
582.0233, 45247.00
582.5054, 45220.75
582.9875, 45211.19
583.4697, 45205.25
583.9518, 45194.14
584.4340, 45182.45
584.9161, 45173.43
585.3982, 45167.07
585.8803, 45170.36
586.3624, 45211.31
586.8445, 45251.69
