##NAMES=Carpholite
##RRUFFID=R060608
##IDEAL CHEMISTRY=Mn^2+^Al_2_Si_2_O_6_(OH)_4_
##LOCALITY=Schlaggenwald, Bohemia, Czechoslovakia
##OWNER=RRUFF
##SOURCE=Michael Scott
##DESCRIPTION=Tan colored radiating tufts of acicular crystals
##STATUS=The identification of this mineral is confirmed by single-crystal X-ray diffraction and chemical analysis.
##URL=rruff.info/R060608
##MEASURED CHEMISTRY=(Mn^2+^_0.90_Fe^2+^_0.09_Mg_0.01_)_Î£=1_Al_2.00_Si_2.00_O_6_(OH)_4_
118.629, 2343.299
119.112, 2383.366
119.594, 2419.136
120.076, 2475.986
120.558, 2578.621
121.040, 2701.318
121.522, 2824.060
122.004, 2949.715
122.486, 3062.626
122.968, 3151.493
123.451, 3216.735
123.933, 3262.572
124.415, 3276.665
124.897, 3274.296
125.379, 3278.199
125.861, 3280.976
126.343, 3303.045
126.825, 3390.875
127.307, 3545.073
127.790, 3695.105
128.272, 3782.524
128.754, 3811.979
129.236, 3802.508
129.718, 3752.323
130.200, 3668.537
130.682, 3565.933
131.164, 3442.337
131.646, 3312.651
132.129, 3192.670
132.611, 3082.134
133.093, 2988.278
133.575, 2916.096
134.057, 2865.108
134.539, 2823.723
135.021, 2792.517
135.503, 2768.640
135.986, 2746.548
136.468, 2725.922
136.950, 2707.420
137.432, 2689.946
137.914, 2672.487
138.396, 2664.464
138.878, 2670.957
139.360, 2688.013
139.842, 2693.538
140.325, 2684.116
140.807, 2669.589
141.289, 2650.417
141.771, 2608.363
142.253, 2609.066
142.735, 2610.343
143.217, 2616.513
143.699, 2621.495
144.182, 2625.354
144.664, 2624.723
145.146, 2629.890
145.628, 2632.732
146.110, 2635.480
146.592, 2640.183
147.074, 2668.998
147.556, 2697.837
148.038, 2730.698
148.521, 2762.719
149.003, 2784.684
149.485, 2778.665
149.967, 2779.472
150.449, 2799.046
150.931, 2851.977
151.413, 2900.885
151.895, 2934.514
152.378, 2962.483
152.860, 3012.016
153.342, 3094.552
153.824, 3191.781
154.306, 3294.870
154.788, 3407.882
155.270, 3521.209
155.752, 3634.973
156.234, 3749.001
156.717, 3864.700
157.199, 3982.509
157.681, 4101.518
158.163, 4219.593
158.645, 4327.101
159.127, 4442.677
159.609, 4583.096
160.091, 4747.228
160.574, 4888.721
161.056, 5002.325
161.538, 5081.213
162.020, 5118.407
162.502, 5121.441
162.984, 5073.420
163.466, 4955.495
163.948, 4761.736
164.430, 4544.802
164.913, 4310.793
165.395, 4073.669
165.877, 3850.234
166.359, 3639.026
166.841, 3450.133
167.323, 3294.156
167.805, 3176.693
168.287, 3074.336
168.770, 2966.732
169.252, 2863.634
169.734, 2784.535
170.216, 2761.236
170.698, 2757.124
171.180, 2732.765
171.662, 2671.599
172.144, 2612.256
172.626, 2592.679
173.109, 2604.232
173.591, 2616.006
174.073, 2604.092
174.555, 2582.083
175.037, 2569.555
175.519, 2574.861
176.001, 2585.708
176.483, 2588.926
176.965, 2585.068
177.448, 2577.994
177.930, 2568.456
178.412, 2557.826
178.894, 2549.107
179.376, 2544.505
179.858, 2541.253
180.340, 2531.179
180.822, 2514.628
181.305, 2505.437
181.787, 2524.964
182.269, 2563.904
182.751, 2592.990
183.233, 2594.120
183.715, 2580.839
184.197, 2582.468
184.679, 2599.535
185.161, 2626.180
185.644, 2659.827
186.126, 2698.870
186.608, 2737.941
187.090, 2774.559
187.572, 2809.033
188.054, 2840.969
188.536, 2868.478
189.018, 2900.308
189.501, 2949.033
189.983, 3013.225
190.465, 3082.974
190.947, 3151.303
191.429, 3220.187
191.911, 3300.735
192.393, 3395.538
192.875, 3495.815
193.357, 3584.465
193.840, 3660.375
194.322, 3747.871
194.804, 3868.698
195.286, 4020.531
195.768, 4158.127
196.250, 4275.437
196.732, 4382.931
197.214, 4503.646
197.697, 4639.116
198.179, 4777.538
198.661, 4909.865
199.143, 5035.430
199.625, 5178.792
200.107, 5350.416
200.589, 5535.860
201.071, 5693.547
201.553, 5816.553
202.036, 5941.590
202.518, 6090.883
203.000, 6264.721
203.482, 6463.160
203.964, 6693.812
204.446, 6946.253
204.928, 7183.739
205.410, 7405.103
205.893, 7614.670
206.375, 7814.868
206.857, 8008.528
207.339, 8183.156
207.821, 8340.476
208.303, 8477.329
208.785, 8582.664
209.267, 8668.522
209.749, 8697.859
210.232, 8635.260
210.714, 8466.759
211.196, 8260.042
211.678, 8023.385
212.160, 7756.565
212.642, 7468.685
213.124, 7157.226
213.606, 6825.298
214.089, 6472.155
214.571, 6078.080
215.053, 5711.577
215.535, 5383.819
216.017, 5093.239
216.499, 4825.917
216.981, 4582.240
217.463, 4357.903
217.945, 4145.573
218.428, 3944.515
218.910, 3766.589
219.392, 3618.292
219.874, 3499.490
220.356, 3393.762
220.838, 3303.123
221.320, 3224.365
221.802, 3155.804
222.285, 3099.659
222.767, 3049.177
223.249, 3002.322
223.731, 2957.921
224.213, 2924.241
224.695, 2896.699
225.177, 2883.792
225.659, 2899.893
226.141, 2963.421
226.624, 3021.158
227.106, 3056.162
227.588, 3063.078
228.070, 3081.040
228.552, 3112.085
229.034, 3152.511
229.516, 3198.686
229.998, 3259.135
230.480, 3310.099
230.963, 3344.368
231.445, 3359.928
231.927, 3367.235
232.409, 3361.742
232.891, 3350.889
233.373, 3345.936
233.855, 3350.340
234.337, 3355.123
234.820, 3357.800
235.302, 3358.156
235.784, 3356.712
236.266, 3349.121
236.748, 3342.365
237.230, 3348.523
237.712, 3374.396
238.194, 3402.746
238.676, 3426.838
239.159, 3443.379
239.641, 3466.772
240.123, 3488.679
240.605, 3522.089
241.087, 3594.082
241.569, 3738.695
242.051, 3871.030
242.533, 3964.264
243.016, 4018.717
243.498, 4031.539
243.980, 3978.093
244.462, 3895.396
244.944, 3853.841
245.426, 3881.876
245.908, 3906.035
246.390, 3897.792
246.872, 3843.605
247.355, 3799.695
247.837, 3768.600
248.319, 3746.600
248.801, 3727.350
249.283, 3710.792
249.765, 3696.970
250.247, 3687.591
250.729, 3687.188
251.212, 3675.120
251.694, 3642.814
252.176, 3603.962
252.658, 3585.373
253.140, 3595.135
253.622, 3611.481
254.104, 3626.609
254.586, 3638.352
255.068, 3657.840
255.551, 3690.834
256.033, 3728.073
256.515, 3752.189
256.997, 3762.013
257.479, 3761.041
257.961, 3748.619
258.443, 3720.332
258.925, 3696.117
259.408, 3677.549
259.890, 3661.364
260.372, 3641.130
260.854, 3615.227
261.336, 3588.063
261.818, 3559.785
262.300, 3528.827
262.782, 3504.786
263.264, 3491.372
263.746, 3481.526
264.229, 3460.317
264.711, 3418.900
265.193, 3387.434
265.675, 3380.981
266.157, 3406.218
266.639, 3416.870
267.121, 3406.159
267.603, 3388.115
268.086, 3386.404
268.568, 3404.847
269.050, 3428.220
269.532, 3448.667
270.014, 3463.891
270.496, 3496.857
270.978, 3551.344
271.460, 3617.580
271.943, 3682.969
272.425, 3747.914
272.907, 3808.836
273.389, 3860.441
273.871, 3900.818
274.353, 3961.840
274.835, 4045.100
275.317, 4144.612
275.799, 4254.178
276.282, 4373.744
276.764, 4501.862
277.246, 4647.392
277.728, 4808.686
278.210, 4937.730
278.692, 5033.605
279.174, 5093.837
279.656, 5113.940
280.138, 5093.396
280.621, 5035.623
281.103, 4930.357
281.585, 4782.672
282.067, 4643.291
282.549, 4509.205
283.031, 4391.734
283.513, 4287.273
283.995, 4195.131
284.478, 4178.099
284.960, 4166.814
285.442, 4191.011
285.924, 4206.594
286.406, 4214.027
286.888, 4188.899
287.370, 4205.817
287.852, 4205.886
288.335, 4214.297
288.817, 4232.373
289.299, 4265.640
289.781, 4285.807
290.263, 4292.173
290.745, 4292.341
291.227, 4295.185
291.709, 4299.180
292.191, 4295.309
292.674, 4279.673
293.156, 4255.302
293.638, 4225.819
294.120, 4191.301
294.602, 4160.350
295.084, 4138.602
295.566, 4126.454
296.048, 4127.004
296.530, 4145.620
297.013, 4173.143
297.495, 4194.416
297.977, 4210.000
298.459, 4222.852
298.941, 4230.953
299.423, 4238.597
299.905, 4255.274
300.387, 4284.399
300.870, 4322.153
301.352, 4370.094
301.834, 4426.028
302.316, 4474.772
302.798, 4496.565
303.280, 4506.272
303.762, 4529.354
304.244, 4576.442
304.727, 4627.181
305.209, 4659.341
305.691, 4676.230
306.173, 4690.829
306.655, 4710.300
307.137, 4731.512
307.619, 4750.997
308.101, 4768.514
308.583, 4783.101
309.065, 4794.066
309.548, 4801.536
310.030, 4805.443
310.512, 4805.051
310.994, 4801.783
311.476, 4794.437
311.958, 4780.157
312.440, 4773.192
312.922, 4799.110
313.405, 4836.824
313.887, 4848.603
314.369, 4796.396
314.851, 4729.275
315.333, 4676.321
315.815, 4641.917
316.297, 4611.787
316.779, 4587.361
317.262, 4561.750
317.744, 4525.529
318.226, 4458.344
318.708, 4395.006
319.190, 4352.798
319.672, 4334.619
320.154, 4315.487
320.636, 4281.945
321.118, 4246.542
321.601, 4221.640
322.083, 4224.772
322.565, 4224.151
323.047, 4208.415
323.529, 4177.174
324.011, 4149.536
324.493, 4127.113
324.975, 4109.951
325.457, 4098.078
325.940, 4089.928
326.422, 4088.676
326.904, 4095.709
327.386, 4110.678
327.868, 4129.569
328.350, 4154.705
328.832, 4181.956
329.314, 4208.906
329.797, 4229.410
330.279, 4258.531
330.761, 4299.428
331.243, 4349.438
331.725, 4396.867
332.207, 4432.894
332.689, 4477.118
333.171, 4538.804
333.654, 4625.310
334.136, 4714.391
334.618, 4804.046
335.100, 4896.266
335.582, 5001.005
336.064, 5130.232
336.546, 5244.514
337.028, 5317.255
337.510, 5331.366
337.992, 5398.183
338.475, 5536.292
338.957, 5704.663
339.439, 5846.694
339.921, 5956.891
340.403, 6060.156
340.885, 6165.286
341.367, 6272.307
341.849, 6364.173
342.332, 6441.364
342.814, 6504.299
343.296, 6561.806
343.778, 6613.886
344.260, 6625.917
344.742, 6581.766
345.224, 6491.502
345.706, 6392.341
346.189, 6284.422
346.671, 6158.013
347.153, 5997.182
347.635, 5807.227
348.117, 5621.896
348.599, 5448.788
349.081, 5283.719
349.563, 5121.621
350.045, 4962.839
350.528, 4812.275
351.010, 4672.031
351.492, 4542.421
351.974, 4424.320
352.456, 4316.115
352.938, 4220.338
353.420, 4145.234
353.902, 4086.154
354.384, 4026.607
354.867, 3952.346
355.349, 3876.319
355.831, 3812.186
356.313, 3761.462
356.795, 3722.894
357.277, 3702.637
357.759, 3693.208
358.241, 3682.072
358.724, 3667.311
359.206, 3646.696
359.688, 3613.458
360.170, 3566.621
360.652, 3529.745
361.134, 3503.449
361.616, 3492.055
362.098, 3484.829
362.581, 3476.592
363.063, 3467.398
363.545, 3454.378
364.027, 3446.298
364.509, 3436.239
364.991, 3426.096
365.473, 3417.621
365.955, 3419.766
366.437, 3417.961
366.919, 3413.621
367.402, 3406.263
367.884, 3396.377
368.366, 3385.691
368.848, 3370.210
369.330, 3357.558
369.812, 3351.057
370.294, 3355.188
370.776, 3356.572
371.259, 3355.188
371.741, 3351.127
372.223, 3344.039
372.705, 3331.058
373.187, 3319.916
373.669, 3314.829
374.151, 3317.711
374.633, 3309.140
375.116, 3284.661
375.598, 3254.885
376.080, 3230.962
376.562, 3212.423
377.044, 3201.635
377.526, 3203.172
378.008, 3213.252
378.490, 3206.720
378.973, 3179.765
379.455, 3153.490
379.937, 3148.615
380.419, 3163.775
380.901, 3171.306
381.383, 3163.801
381.865, 3150.767
382.347, 3151.995
382.829, 3166.935
383.311, 3185.182
383.794, 3201.440
384.276, 3216.232
384.758, 3229.667
385.240, 3240.374
385.722, 3255.421
386.204, 3285.392
386.686, 3326.565
387.168, 3369.216
387.651, 3405.652
388.133, 3443.057
388.615, 3488.992
389.097, 3543.998
389.579, 3606.543
390.061, 3678.603
390.543, 3756.078
391.025, 3835.794
391.508, 3911.210
391.990, 3992.568
392.472, 4084.290
392.954, 4186.966
393.436, 4299.405
393.918, 4423.815
394.400, 4556.264
394.882, 4696.361
395.364, 4850.792
395.847, 5000.896
396.329, 5134.703
396.811, 5262.243
397.293, 5406.390
397.775, 5580.202
398.257, 5763.903
398.739, 5952.934
399.221, 6155.313
399.703, 6339.078
400.186, 6502.246
400.668, 6647.346
401.150, 6778.652
401.632, 6910.817
402.114, 7006.954
402.596, 7064.243
403.078, 7082.213
403.560, 7039.704
404.043, 6923.305
404.525, 6768.077
405.007, 6597.730
405.489, 6414.330
405.971, 6201.468
406.453, 5942.630
406.935, 5666.166
407.417, 5435.666
407.900, 5255.980
408.382, 5098.439
408.864, 4948.710
409.346, 4807.287
409.828, 4681.063
410.310, 4566.650
410.792, 4477.435
411.274, 4440.714
411.756, 4447.429
412.238, 4453.630
412.721, 4437.094
413.203, 4412.069
413.685, 4400.826
414.167, 4403.319
414.649, 4415.841
415.131, 4440.847
415.613, 4472.852
416.095, 4503.380
416.578, 4530.256
417.060, 4555.498
417.542, 4598.654
418.024, 4644.587
418.506, 4649.690
418.988, 4541.292
419.470, 4420.738
419.952, 4363.656
420.435, 4396.680
420.917, 4419.789
421.399, 4388.590
421.881, 4331.183
422.363, 4283.922
422.845, 4261.904
423.327, 4243.637
423.809, 4221.655
424.291, 4195.595
424.774, 4180.764
425.256, 4176.919
425.738, 4185.343
426.220, 4207.238
426.702, 4246.418
427.184, 4291.411
427.666, 4334.882
428.148, 4385.464
428.630, 4472.527
429.113, 4608.921
429.595, 4752.274
430.077, 4882.789
430.559, 4997.348
431.041, 5115.994
431.523, 5236.634
432.005, 5368.410
432.487, 5525.417
432.970, 5707.702
433.452, 5901.946
433.934, 6106.559
434.416, 6318.744
434.898, 6531.756
435.380, 6747.540
435.862, 6979.259
436.344, 7257.004
436.827, 7558.042
437.309, 7836.354
437.791, 8094.589
438.273, 8301.819
438.755, 8427.124
439.237, 8478.011
439.719, 8473.946
440.201, 8431.235
440.683, 8333.445
441.165, 8155.390
441.648, 7891.194
442.130, 7600.464
442.612, 7300.637
443.094, 6995.769
443.576, 6691.167
444.058, 6372.559
444.540, 6070.795
445.022, 5796.237
445.505, 5544.540
445.987, 5308.293
446.469, 5066.857
446.951, 4851.902
447.433, 4674.049
447.915, 4520.302
448.397, 4439.003
448.879, 4339.015
449.362, 4264.478
449.844, 4183.767
450.326, 4097.204
450.808, 3987.270
451.290, 3907.511
451.772, 3815.670
452.254, 3729.810
452.736, 3645.707
453.218, 3594.382
453.701, 3573.316
454.183, 3582.589
454.665, 3592.311
455.147, 3598.797
455.629, 3602.814
456.111, 3604.223
456.593, 3603.455
457.075, 3604.732
457.557, 3610.071
458.040, 3619.115
458.522, 3630.915
459.004, 3645.509
459.486, 3663.916
459.968, 3693.489
460.450, 3726.268
460.932, 3748.752
461.414, 3747.680
461.897, 3744.922
462.379, 3751.464
462.861, 3767.625
463.343, 3794.307
463.825, 3849.377
464.307, 3902.772
464.789, 3933.463
465.271, 3928.484
465.754, 3931.536
466.236, 3967.719
466.718, 4011.350
467.200, 4029.466
467.682, 3990.825
468.164, 3959.775
468.646, 3950.900
469.128, 3962.464
469.610, 3964.269
470.093, 3957.544
470.575, 3939.164
471.057, 3904.395
471.539, 3848.717
472.021, 3797.224
472.503, 3751.723
472.985, 3709.550
473.467, 3666.702
473.949, 3623.676
474.432, 3576.234
474.914, 3521.194
475.396, 3460.619
475.878, 3398.059
476.360, 3333.239
476.842, 3276.627
477.324, 3242.513
477.806, 3223.281
478.289, 3205.184
478.771, 3188.025
479.253, 3165.414
479.735, 3122.352
480.217, 3068.271
480.699, 3027.314
481.181, 3014.792
481.663, 3017.034
482.146, 3032.250
482.628, 3062.392
483.110, 3075.705
483.592, 3044.466
484.074, 2999.518
484.556, 2968.375
485.038, 2969.170
485.520, 2967.560
486.002, 2953.574
486.484, 2933.230
486.967, 2926.818
487.449, 2950.279
487.931, 2966.057
488.413, 2956.967
488.895, 2917.360
489.377, 2887.573
489.859, 2869.955
490.341, 2859.266
490.824, 2851.201
491.306, 2846.157
491.788, 2840.691
492.270, 2835.309
492.752, 2828.159
493.234, 2812.253
493.716, 2788.425
494.198, 2766.052
494.681, 2748.940
495.163, 2738.054
495.645, 2738.900
496.127, 2753.471
496.609, 2766.461
497.091, 2762.957
497.573, 2749.268
498.055, 2734.884
498.537, 2714.545
499.020, 2702.783
499.502, 2713.723
499.984, 2692.753
500.466, 2715.232
500.948, 2727.164
501.430, 2729.116
501.912, 2691.196
502.394, 2704.762
502.876, 2697.695
503.359, 2689.782
503.841, 2710.595
504.323, 2678.474
504.805, 2698.831
505.287, 2698.240
505.769, 2707.237
506.251, 2695.473
506.733, 2690.121
507.216, 2705.536
507.698, 2709.453
508.180, 2695.298
508.662, 2704.905
509.144, 2672.059
509.626, 2679.915
510.108, 2693.331
510.590, 2708.905
511.073, 2724.552
511.555, 2731.561
512.037, 2723.135
512.519, 2708.477
513.001, 2696.754
513.483, 2688.433
513.965, 2685.857
514.447, 2694.372
514.929, 2706.871
515.412, 2717.917
515.894, 2726.928
516.376, 2733.737
516.858, 2737.055
517.340, 2738.461
517.822, 2739.716
518.304, 2734.196
518.786, 2736.156
519.268, 2756.107
519.751, 2788.115
520.233, 2803.005
520.715, 2784.213
521.197, 2770.736
521.679, 2782.339
522.161, 2825.975
522.643, 2856.656
523.125, 2872.112
523.607, 2879.657
524.090, 2887.072
524.572, 2894.347
525.054, 2900.383
525.536, 2902.729
526.018, 2906.490
526.500, 2924.865
526.982, 2955.864
527.464, 2985.702
527.947, 3005.878
528.429, 3019.567
528.911, 3027.635
529.393, 3029.363
529.875, 3038.594
530.357, 3073.299
530.839, 3117.145
531.321, 3150.986
531.804, 3153.477
532.286, 3164.951
532.768, 3206.938
533.250, 3268.477
533.732, 3317.900
534.214, 3340.583
534.696, 3360.747
535.178, 3383.281
535.661, 3406.674
536.143, 3444.901
536.625, 3503.024
537.107, 3568.823
537.589, 3633.228
538.071, 3695.387
538.553, 3760.784
539.035, 3833.432
539.517, 3905.648
540.000, 3956.585
540.482, 3988.332
540.964, 4031.877
541.446, 4104.818
541.928, 4197.995
542.410, 4293.188
542.892, 4390.500
543.374, 4491.867
543.856, 4592.952
544.339, 4702.220
544.821, 4834.616
545.303, 5001.780
545.785, 5166.890
546.267, 5302.736
546.749, 5428.550
547.231, 5574.173
547.713, 5768.126
548.195, 5960.784
548.678, 6134.941
549.160, 6293.654
549.642, 6470.549
550.124, 6679.538
550.606, 6888.291
551.088, 7082.096
551.570, 7255.345
552.052, 7435.583
552.534, 7624.375
553.017, 7813.368
553.499, 7984.917
553.981, 8139.010
554.463, 8323.601
554.945, 8584.069
555.427, 8838.013
555.909, 8915.680
556.391, 8842.014
556.874, 8734.131
557.356, 8660.739
557.838, 8588.190
558.320, 8484.254
558.802, 8347.789
559.284, 8174.317
559.766, 7944.091
560.248, 7686.931
560.731, 7427.411
561.213, 7157.076
561.695, 6908.720
562.177, 6693.008
562.659, 6502.421
563.141, 6322.867
563.623, 6147.833
564.105, 5988.784
564.588, 5839.064
565.070, 5701.600
565.552, 5622.629
566.034, 5543.659
566.516, 5464.688
566.998, 5385.728
567.480, 5306.737
567.962, 5227.776
568.444, 5148.806
568.927, 5069.836
569.409, 4971.886
569.891, 4928.288
570.373, 4903.430
570.855, 4891.090
571.337, 4885.172
571.819, 4880.294
572.301, 4877.041
572.783, 4877.075
573.266, 4886.650
573.748, 4895.324
574.230, 4895.981
574.712, 4886.787
575.194, 4879.919
575.676, 4885.550
576.158, 4888.686
576.640, 4877.676
577.122, 4839.117
577.605, 4815.136
578.087, 4815.234
578.569, 4824.657
579.051, 4814.540
579.533, 4782.370
580.015, 4749.920
580.497, 4724.457
580.979, 4703.699
581.461, 4679.518
581.944, 4652.378
582.426, 4631.123
582.908, 4629.778
583.390, 4635.239
583.872, 4623.795
584.354, 4590.751
584.836, 4561.027
585.318, 4558.963
585.801, 4566.353
586.283, 4562.835
586.765, 4522.991
587.247, 4494.451
587.729, 4493.800
588.211, 4512.997
588.693, 4531.615
589.175, 4554.200
589.657, 4568.411
590.140, 4565.906
590.622, 4547.673
591.104, 4550.606
591.586, 4581.542
592.068, 4613.994
592.550, 4628.994
593.032, 4627.509
593.515, 4617.711
593.997, 4596.310
594.479, 4585.132
594.961, 4618.781
595.443, 4682.813
595.925, 4742.851
596.407, 4791.892
596.889, 4827.364
597.371, 4837.704
597.854, 4832.340
598.336, 4836.729
598.818, 4865.888
599.300, 4903.103
599.782, 4943.301
600.264, 4986.699
600.746, 5026.401
601.228, 5057.277
601.710, 5089.234
602.193, 5128.844
602.675, 5182.257
603.157, 5224.330
603.639, 5249.353
604.121, 5271.701
604.603, 5313.471
605.085, 5373.942
605.567, 5433.009
606.049, 5485.115
606.532, 5532.772
607.014, 5581.605
607.496, 5629.610
607.978, 5666.800
608.460, 5677.166
608.942, 5680.594
609.424, 5699.012
609.906, 5732.594
610.388, 5756.032
610.871, 5749.797
611.353, 5735.195
611.835, 5727.064
612.317, 5733.690
612.799, 5734.178
613.281, 5736.336
613.763, 5726.663
614.245, 5684.168
614.728, 5595.504
615.210, 5519.820
615.692, 5474.198
616.174, 5442.811
616.656, 5381.566
617.138, 5290.851
617.620, 5196.726
618.102, 5103.275
618.584, 5017.944
619.067, 4963.083
619.549, 4936.280
620.031, 4907.032
620.513, 4855.442
620.995, 4790.484
621.477, 4719.434
621.959, 4642.302
622.442, 4565.840
622.924, 4489.837
623.406, 4416.746
623.888, 4349.343
624.370, 4290.617
624.852, 4232.814
625.334, 4170.411
625.816, 4110.332
626.298, 4074.732
626.781, 4071.261
627.263, 4057.779
627.745, 4015.330
628.227, 3952.815
628.709, 3900.863
629.191, 3859.470
629.673, 3827.543
630.155, 3805.435
630.638, 3792.214
631.120, 3788.721
631.602, 3795.593
632.084, 3803.911
632.566, 3815.270
633.048, 3821.622
633.530, 3814.167
634.012, 3775.797
634.494, 3746.799
634.977, 3736.635
635.459, 3739.767
635.941, 3747.068
636.423, 3757.719
636.905, 3774.736
637.387, 3801.572
637.869, 3834.251
638.351, 3855.778
638.833, 3864.549
639.316, 3877.031
639.798, 3906.675
640.280, 3946.172
640.762, 3975.607
641.244, 3994.791
