##NAMES=Carrollite
##RRUFFID=R050089
##IDEAL CHEMISTRY=Cu^1+^Co^3+^_2_S_4_
##LOCALITY=Kambove, Katanga, Democratic Republic of the Congo
##OWNER=RRUFF
##SOURCE=Rock Currier
##DESCRIPTION=Steel-gray octahedral crystal associated with calcite
##STATUS=The identification of this mineral has been confirmed by X-ray diffraction and chemical analysis
##URL=rruff.info/R050089
##MEASURED CHEMISTRY=(Cu_0.96_Fe^2+^_0.04_)_Σ=1_Co_2.00_S_4.00_ ; the vein is pyrite: (Fe_0.99_Co_0.01_)_Σ=1_S_2.00_
174.5441, 1391.158
175.0262, 1399.710
175.5084, 1397.364
175.9905, 1387.958
176.4726, 1381.339
176.9547, 1376.197
177.4368, 1376.942
177.9189, 1389.316
178.4010, 1406.653
178.8832, 1419.332
179.3653, 1421.209
179.8474, 1416.896
180.3295, 1421.316
180.8116, 1442.467
181.2937, 1458.000
181.7759, 1457.535
182.2580, 1449.392
182.7401, 1443.691
183.2222, 1445.467
183.7043, 1452.562
184.1864, 1459.274
184.6686, 1466.813
185.1507, 1471.480
185.6328, 1471.533
186.1149, 1468.990
186.5970, 1465.489
187.0791, 1461.321
187.5613, 1457.963
188.0434, 1460.080
188.5255, 1472.770
189.0076, 1482.067
189.4897, 1481.407
189.9718, 1477.795
190.4540, 1478.860
190.9361, 1488.184
191.4182, 1502.529
191.9003, 1514.678
192.3824, 1526.565
192.8645, 1532.125
193.3467, 1529.437
193.8288, 1521.647
194.3109, 1509.073
194.7930, 1491.633
195.2751, 1475.526
195.7572, 1476.199
196.2394, 1508.215
196.7215, 1529.698
197.2036, 1530.112
197.6857, 1522.414
198.1678, 1516.680
198.6499, 1516.453
199.1321, 1520.350
199.6142, 1526.654
200.0963, 1539.006
200.5784, 1546.157
201.0605, 1542.998
201.5426, 1537.826
202.0248, 1538.387
202.5069, 1546.383
202.9890, 1555.692
203.4711, 1555.219
203.9532, 1537.286
204.4353, 1527.006
204.9175, 1528.321
205.3996, 1534.364
205.8817, 1542.210
206.3638, 1550.551
206.8459, 1557.645
207.3280, 1560.892
207.8102, 1558.864
208.2923, 1556.372
208.7744, 1551.527
209.2565, 1547.728
209.7386, 1547.407
210.2207, 1550.586
210.7029, 1555.339
211.1850, 1560.418
211.6671, 1567.746
212.1492, 1567.868
212.6313, 1548.366
213.1134, 1532.657
213.5956, 1535.605
214.0777, 1554.978
214.5598, 1576.974
215.0419, 1588.110
215.5240, 1586.944
216.0061, 1583.981
216.4883, 1573.730
216.9704, 1566.757
217.4525, 1569.839
217.9346, 1580.294
218.4167, 1589.819
218.8988, 1590.697
219.3810, 1582.538
219.8631, 1579.999
220.3452, 1588.591
220.8273, 1597.784
221.3094, 1605.185
221.7915, 1611.018
222.2737, 1616.328
222.7558, 1621.787
223.2379, 1627.390
223.7200, 1632.616
224.2021, 1638.596
224.6842, 1642.812
225.1664, 1644.562
225.6485, 1644.286
226.1306, 1642.132
226.6127, 1637.839
227.0948, 1632.533
227.5770, 1631.079
228.0591, 1636.702
228.5412, 1642.105
229.0233, 1643.655
229.5054, 1645.159
229.9875, 1652.506
230.4697, 1668.631
230.9518, 1688.184
231.4339, 1696.954
231.9160, 1684.492
232.3981, 1679.178
232.8802, 1690.142
233.3624, 1705.696
233.8445, 1715.131
234.3266, 1715.015
234.8087, 1710.852
235.2908, 1712.438
235.7729, 1723.101
236.2551, 1731.687
236.7372, 1734.472
237.2193, 1737.098
237.7014, 1743.887
238.1835, 1755.408
238.6656, 1768.511
239.1478, 1780.003
239.6299, 1790.454
240.1120, 1797.056
240.5941, 1797.526
241.0762, 1795.917
241.5583, 1791.813
242.0405, 1786.562
242.5226, 1784.348
243.0047, 1790.422
243.4868, 1805.703
243.9689, 1818.375
244.4510, 1826.816
244.9332, 1834.039
245.4153, 1842.007
245.8974, 1849.792
246.3795, 1854.731
246.8616, 1853.957
247.3437, 1848.314
247.8259, 1845.190
248.3080, 1843.296
248.7901, 1846.254
249.2722, 1857.206
249.7543, 1872.978
250.2364, 1889.028
250.7186, 1904.051
251.2007, 1916.675
251.6828, 1921.809
252.1649, 1914.341
252.6470, 1909.832
253.1291, 1915.298
253.6113, 1925.105
254.0934, 1933.219
254.5755, 1937.261
255.0576, 1939.639
255.5397, 1945.020
256.0219, 1955.023
256.5040, 1961.768
256.9861, 1959.587
257.4682, 1955.184
257.9503, 1954.203
258.4324, 1957.969
258.9146, 1960.950
259.3967, 1955.353
259.8788, 1940.595
260.3609, 1931.047
260.8430, 1935.329
261.3251, 1940.346
261.8073, 1933.610
262.2894, 1915.813
262.7715, 1902.268
263.2536, 1909.538
263.7357, 1932.828
264.2178, 1942.908
264.7000, 1930.633
265.1821, 1913.951
265.6642, 1905.620
266.1463, 1903.864
266.6284, 1903.231
267.1105, 1903.848
267.5927, 1903.368
268.0748, 1895.578
268.5569, 1878.351
269.0390, 1860.362
269.5211, 1847.802
270.0032, 1838.614
270.4854, 1829.329
270.9675, 1815.941
271.4496, 1804.654
271.9317, 1805.707
272.4138, 1819.576
272.8959, 1829.022
273.3781, 1822.630
273.8602, 1807.523
274.3423, 1798.397
274.8244, 1799.193
275.3065, 1799.988
275.7886, 1794.056
276.2708, 1782.503
276.7529, 1768.844
277.2350, 1752.150
277.7171, 1736.947
278.1992, 1731.880
278.6813, 1738.838
279.1635, 1744.563
279.6456, 1742.778
280.1277, 1737.005
280.6098, 1733.331
281.0919, 1733.206
281.5740, 1734.544
282.0562, 1735.716
282.5383, 1736.974
283.0204, 1734.753
283.5025, 1720.049
283.9846, 1707.141
284.4667, 1713.599
284.9489, 1739.102
285.4310, 1762.991
285.9131, 1767.660
286.3952, 1753.147
286.8773, 1743.494
287.3594, 1743.446
287.8416, 1743.175
288.3237, 1736.262
288.8058, 1725.067
289.2879, 1716.318
289.7700, 1713.842
290.2521, 1716.440
290.7343, 1719.258
291.2164, 1723.626
291.6985, 1726.583
292.1806, 1729.675
292.6627, 1730.401
293.1448, 1723.073
293.6270, 1705.966
294.1091, 1687.187
294.5912, 1681.994
295.0733, 1704.257
295.5554, 1713.728
296.0375, 1698.854
296.5197, 1680.482
297.0018, 1673.493
297.4839, 1679.205
297.9660, 1689.863
298.4481, 1698.019
298.9302, 1703.713
299.4124, 1706.482
299.8945, 1703.080
300.3766, 1700.084
300.8587, 1699.544
301.3408, 1701.196
301.8229, 1704.218
302.3050, 1708.311
302.7871, 1713.078
303.2693, 1716.698
303.7514, 1720.679
304.2335, 1720.867
304.7156, 1713.485
305.1977, 1703.602
305.6798, 1696.431
306.1620, 1693.901
306.6441, 1694.630
307.1262, 1697.524
307.6083, 1704.212
308.0904, 1706.904
308.5725, 1699.295
309.0547, 1690.634
309.5368, 1686.946
310.0189, 1688.519
310.5010, 1690.676
310.9831, 1689.138
311.4652, 1684.272
311.9474, 1680.266
312.4295, 1678.307
312.9116, 1675.907
313.3937, 1670.710
313.8758, 1663.825
314.3579, 1658.207
314.8401, 1654.975
315.3222, 1653.908
315.8043, 1656.293
316.2864, 1663.372
316.7685, 1666.403
317.2506, 1656.126
317.7328, 1640.253
318.2149, 1632.345
318.6970, 1638.537
319.1791, 1644.940
319.6612, 1638.076
320.1433, 1621.516
320.6255, 1611.763
321.1076, 1615.905
321.5897, 1626.951
322.0718, 1635.726
322.5539, 1643.598
323.0360, 1643.832
323.5182, 1626.521
324.0003, 1603.889
324.4824, 1593.176
324.9645, 1597.185
325.4466, 1604.655
325.9287, 1604.642
326.4109, 1596.187
326.8930, 1591.345
327.3751, 1594.633
327.8572, 1597.237
328.3393, 1592.783
328.8214, 1583.233
329.3036, 1574.888
329.7857, 1571.369
330.2678, 1571.937
330.7499, 1573.379
331.2320, 1577.240
331.7141, 1580.068
332.1963, 1581.309
332.6784, 1581.445
333.1605, 1581.268
333.6426, 1580.936
334.1247, 1579.495
334.6068, 1574.828
335.0890, 1563.821
335.5711, 1558.301
336.0532, 1564.421
336.5353, 1569.940
337.0174, 1565.845
337.4995, 1554.855
337.9817, 1547.687
338.4638, 1555.239
338.9459, 1574.594
339.4280, 1578.032
339.9101, 1550.396
340.3922, 1529.105
340.8744, 1529.802
341.3565, 1540.632
341.8386, 1546.353
342.3207, 1540.792
342.8028, 1530.525
343.2849, 1525.849
343.7671, 1527.849
344.2492, 1527.479
344.7313, 1518.965
345.2134, 1510.269
345.6955, 1509.030
346.1776, 1515.358
346.6598, 1520.555
347.1419, 1518.057
347.6240, 1510.266
348.1061, 1503.132
348.5882, 1496.565
349.0703, 1492.787
349.5525, 1497.085
350.0346, 1506.047
350.5167, 1509.103
350.9988, 1497.607
351.4809, 1484.924
351.9630, 1483.902
352.4452, 1492.300
352.9273, 1497.962
353.4094, 1494.664
353.8915, 1485.696
354.3736, 1478.945
354.8557, 1471.846
355.3379, 1471.274
355.8200, 1487.838
356.3021, 1507.671
356.7842, 1511.705
357.2663, 1496.644
357.7484, 1476.815
358.2306, 1468.658
358.7127, 1475.292
359.1948, 1476.258
359.6769, 1465.306
360.1590, 1455.751
360.6411, 1456.527
361.1233, 1463.278
361.6054, 1465.297
362.0875, 1455.730
362.5696, 1438.644
363.0517, 1428.818
363.5338, 1428.913
364.0160, 1432.691
364.4981, 1441.918
364.9802, 1452.460
365.4623, 1462.034
365.9444, 1469.682
366.4265, 1473.817
366.9087, 1471.314
367.3908, 1461.648
367.8729, 1453.628
368.3550, 1446.950
368.8371, 1442.935
369.3192, 1444.173
369.8014, 1448.355
370.2835, 1449.903
370.7656, 1444.858
371.2477, 1436.800
371.7298, 1431.393
372.2119, 1428.702
372.6941, 1428.239
373.1762, 1431.428
373.6583, 1435.816
374.1404, 1437.333
374.6225, 1434.881
375.1046, 1433.087
375.5868, 1436.285
376.0689, 1441.513
376.5510, 1441.539
377.0331, 1424.985
377.5152, 1437.004
377.9973, 1443.742
378.4795, 1445.484
378.9616, 1427.264
379.4437, 1434.820
379.9258, 1432.046
380.4079, 1428.849
380.8900, 1440.034
381.3722, 1424.717
381.8543, 1435.673
382.3364, 1436.142
382.8185, 1441.411
383.3006, 1436.285
383.7827, 1434.370
384.2649, 1442.853
384.7470, 1445.578
385.2291, 1439.256
385.7112, 1444.830
386.1933, 1429.150
386.6754, 1432.120
387.1576, 1443.138
387.6397, 1437.339
388.1218, 1432.453
388.6039, 1429.413
389.0860, 1421.852
389.5681, 1412.008
390.0503, 1403.014
390.5324, 1395.712
391.0145, 1391.026
391.4966, 1391.412
391.9787, 1397.514
392.4608, 1402.592
392.9430, 1404.941
393.4251, 1405.417
393.9072, 1404.519
394.3893, 1402.294
394.8714, 1400.367
395.3535, 1400.410
395.8357, 1400.962
396.3178, 1399.075
396.7999, 1394.354
397.2820, 1389.839
397.7641, 1387.767
398.2462, 1387.728
398.7284, 1387.088
399.2105, 1383.912
399.6926, 1382.299
400.1747, 1387.171
400.6568, 1393.882
401.1389, 1392.695
401.6211, 1380.338
402.1032, 1365.977
402.5853, 1363.498
403.0674, 1377.929
403.5495, 1389.450
404.0316, 1399.860
404.5138, 1406.276
404.9959, 1405.518
405.4780, 1399.500
405.9601, 1392.852
406.4422, 1388.590
406.9243, 1385.678
407.4065, 1380.023
407.8886, 1368.732
408.3707, 1360.751
408.8528, 1361.536
409.3349, 1363.539
409.8170, 1359.222
410.2992, 1347.974
410.7813, 1338.288
411.2634, 1339.036
411.7455, 1348.124
412.2276, 1354.491
412.7097, 1356.257
413.1919, 1358.086
413.6740, 1365.648
414.1561, 1375.412
414.6382, 1379.529
415.1203, 1372.142
415.6024, 1364.148
416.0846, 1365.042
416.5667, 1372.023
417.0488, 1376.413
417.5309, 1375.173
418.0130, 1370.494
418.4951, 1364.761
418.9773, 1356.247
419.4594, 1353.294
419.9415, 1362.843
420.4236, 1372.614
420.9057, 1374.332
421.3878, 1368.770
421.8700, 1360.488
422.3521, 1352.126
422.8342, 1343.910
423.3163, 1336.545
423.7984, 1326.686
424.2805, 1323.367
424.7627, 1331.162
425.2448, 1342.733
425.7269, 1354.992
426.2090, 1366.074
426.6911, 1370.909
427.1732, 1360.476
427.6554, 1336.618
428.1375, 1322.466
428.6196, 1319.716
429.1017, 1323.676
429.5838, 1337.707
430.0659, 1355.183
430.5481, 1365.897
431.0302, 1366.292
431.5123, 1362.004
431.9944, 1355.408
432.4765, 1347.613
432.9586, 1342.780
433.4408, 1342.241
433.9229, 1344.084
434.4050, 1346.939
434.8871, 1351.097
435.3692, 1352.269
435.8513, 1344.755
436.3335, 1339.112
436.8156, 1345.035
437.2977, 1358.226
437.7798, 1366.745
438.2619, 1364.181
438.7440, 1355.188
439.2262, 1351.581
439.7083, 1356.249
440.1904, 1361.439
440.6725, 1367.551
441.1546, 1373.616
441.6367, 1380.673
442.1189, 1387.484
442.6010, 1389.990
443.0831, 1383.252
443.5652, 1370.538
444.0473, 1364.398
444.5294, 1365.617
445.0116, 1371.309
445.4937, 1389.247
445.9758, 1406.513
446.4579, 1406.215
446.9400, 1383.449
447.4221, 1365.863
447.9043, 1377.844
448.3864, 1405.552
448.8685, 1417.646
449.3506, 1408.971
449.8327, 1400.261
450.3148, 1409.593
450.7970, 1434.439
451.2791, 1447.987
451.7612, 1437.278
452.2433, 1431.223
452.7254, 1444.428
453.2076, 1466.125
453.6897, 1480.287
454.1718, 1482.594
454.6539, 1481.561
455.1360, 1488.756
455.6181, 1506.458
456.1003, 1519.410
456.5824, 1523.332
457.0645, 1526.550
457.5466, 1528.821
458.0287, 1532.690
458.5108, 1542.850
458.9930, 1562.206
459.4751, 1584.095
459.9572, 1597.293
460.4393, 1601.541
460.9214, 1612.520
461.4035, 1638.204
461.8857, 1664.599
462.3678, 1677.759
462.8499, 1680.123
463.3320, 1684.276
463.8141, 1691.864
464.2962, 1704.085
464.7784, 1725.855
465.2605, 1754.116
465.7426, 1776.175
466.2247, 1785.605
466.7068, 1789.197
467.1889, 1800.080
467.6711, 1823.184
468.1532, 1843.580
468.6353, 1863.562
469.1174, 1878.979
469.5995, 1883.659
470.0816, 1881.138
470.5638, 1882.099
471.0459, 1894.507
471.5280, 1911.694
472.0101, 1913.459
472.4922, 1895.136
472.9743, 1874.032
473.4565, 1850.468
473.9386, 1827.665
474.4207, 1809.992
474.9028, 1796.571
475.3849, 1778.809
475.8670, 1746.978
476.3492, 1709.629
476.8313, 1683.856
477.3134, 1670.203
477.7955, 1650.689
478.2776, 1612.945
478.7597, 1566.517
479.2419, 1535.360
479.7240, 1525.636
480.2061, 1513.500
480.6882, 1490.010
481.1703, 1465.158
481.6524, 1448.328
482.1346, 1439.663
482.6167, 1434.114
483.0988, 1428.228
483.5809, 1421.842
484.0630, 1413.726
484.5451, 1401.919
485.0273, 1391.611
485.5094, 1381.281
485.9915, 1374.065
486.4736, 1375.566
486.9557, 1384.748
487.4378, 1390.874
487.9200, 1382.125
488.4021, 1364.028
488.8842, 1353.756
489.3663, 1352.396
489.8484, 1353.664
490.3305, 1356.617
490.8127, 1359.070
491.2948, 1356.593
491.7769, 1347.567
492.2590, 1338.407
492.7411, 1327.790
493.2232, 1320.166
493.7054, 1323.627
494.1875, 1337.167
494.6696, 1349.207
495.1517, 1350.439
495.6338, 1342.922
496.1159, 1340.217
496.5981, 1348.694
497.0802, 1353.047
497.5623, 1350.994
498.0444, 1345.001
498.5265, 1335.146
499.0086, 1322.623
499.4908, 1312.051
499.9729, 1308.032
500.4550, 1308.969
500.9371, 1308.658
501.4192, 1306.493
501.9013, 1305.846
502.3835, 1310.342
502.8656, 1315.887
503.3477, 1314.878
503.8298, 1304.620
504.3119, 1298.745
504.7940, 1309.060
505.2762, 1322.605
505.7583, 1321.255
506.2404, 1305.862
506.7225, 1293.377
507.2046, 1295.727
507.6867, 1309.093
508.1689, 1316.721
508.6510, 1313.790
509.1331, 1311.973
509.6152, 1314.126
510.0973, 1315.865
510.5794, 1312.638
511.0616, 1305.367
511.5437, 1299.567
512.0258, 1299.748
512.5079, 1303.888
512.9901, 1306.829
513.4722, 1308.588
513.9543, 1308.665
514.4364, 1304.986
514.9185, 1283.420
515.4006, 1305.177
515.8828, 1317.333
516.3649, 1320.405
516.8470, 1287.182
517.3291, 1300.825
517.8112, 1295.687
518.2933, 1289.778
518.7755, 1310.018
519.2576, 1282.074
519.7397, 1301.900
520.2218, 1302.656
520.7039, 1312.140
521.1860, 1302.726
521.6682, 1299.149
522.1503, 1314.476
522.6324, 1319.336
523.1145, 1307.746
523.5966, 1317.785
524.0787, 1289.180
524.5609, 1294.486
525.0430, 1314.422
525.5251, 1303.782
526.0072, 1314.167
526.4893, 1316.544
526.9714, 1282.533
527.4536, 1311.805
527.9357, 1313.709
528.4178, 1287.512
528.8999, 1314.616
529.3820, 1292.293
529.8641, 1287.612
530.3463, 1296.209
530.8284, 1290.964
531.3105, 1307.541
531.7926, 1303.096
532.2747, 1296.773
532.7568, 1298.646
533.2390, 1277.293
533.7211, 1299.030
534.2032, 1291.332
534.6853, 1301.846
535.1674, 1313.448
535.6495, 1319.692
536.1317, 1317.713
536.6138, 1311.811
537.0959, 1302.709
537.5780, 1292.792
538.0601, 1291.734
538.5422, 1301.875
539.0244, 1311.501
539.5065, 1311.886
539.9886, 1304.890
540.4707, 1300.036
540.9528, 1298.322
541.4349, 1297.049
541.9171, 1295.353
542.3992, 1294.062
542.8813, 1295.476
543.3634, 1298.706
543.8455, 1298.401
544.3276, 1288.763
544.8098, 1273.655
545.2919, 1271.763
545.7740, 1289.580
546.2561, 1302.807
546.7382, 1302.439
547.2203, 1297.170
547.7025, 1291.930
548.1846, 1287.327
548.6666, 1285.679
549.1487, 1291.184
549.6309, 1297.932
550.1130, 1299.312
550.5951, 1296.045
551.0772, 1291.834
551.5593, 1288.140
552.0414, 1283.943
552.5236, 1276.982
553.0057, 1264.458
553.4878, 1258.814
553.9699, 1264.305
554.4520, 1271.049
554.9341, 1274.099
555.4163, 1276.085
555.8984, 1283.459
556.3805, 1298.896
556.8626, 1312.062
557.3447, 1307.210
557.8268, 1287.018
558.3090, 1273.174
558.7911, 1267.872
559.2732, 1268.502
559.7553, 1276.967
560.2374, 1289.701
560.7195, 1295.377
561.2017, 1291.100
561.6838, 1284.739
562.1659, 1273.217
562.6480, 1264.186
563.1301, 1270.327
563.6122, 1289.276
564.0944, 1303.477
564.5765, 1299.318
565.0586, 1282.027
565.5407, 1272.847
566.0228, 1276.244
566.5049, 1276.433
566.9871, 1262.876
567.4692, 1251.746
567.9513, 1258.547
568.4334, 1278.682
568.9155, 1289.591
569.3976, 1272.757
569.8798, 1250.699
570.3619, 1247.430
570.8440, 1258.332
571.3261, 1268.009
571.8082, 1271.742
572.2903, 1273.348
572.7725, 1277.661
573.2546, 1285.359
573.7367, 1289.394
574.2188, 1287.213
574.7009, 1284.659
575.1830, 1281.728
575.6652, 1279.938
576.1473, 1282.679
576.6294, 1289.964
577.1115, 1294.717
577.5936, 1285.573
578.0757, 1268.816
578.5579, 1268.297
579.0400, 1286.367
579.5221, 1302.891
580.0042, 1309.333
580.4863, 1308.328
580.9684, 1303.163
581.4506, 1291.768
581.9327, 1285.269
582.4148, 1290.079
582.8969, 1295.862
583.3790, 1295.366
583.8611, 1290.415
584.3433, 1285.528
584.8254, 1282.770
585.3075, 1282.339
585.7896, 1285.815
586.2717, 1293.864
586.7538, 1297.371
587.2360, 1292.838
587.7181, 1288.828
588.2002, 1293.943
588.6823, 1301.812
589.1644, 1300.768
589.6465, 1285.315
590.1287, 1271.424
590.6108, 1268.675
591.0929, 1270.766
591.5750, 1268.651
592.0571, 1262.543
592.5392, 1259.987
593.0214, 1266.546
593.5035, 1278.569
593.9856, 1284.490
594.4677, 1281.056
594.9498, 1279.189
595.4319, 1282.902
595.9141, 1285.485
596.3962, 1281.889
596.8783, 1274.505
597.3604, 1270.074
597.8425, 1273.243
598.3246, 1275.910
598.8068, 1266.839
599.2889, 1251.873
599.7710, 1247.312
600.2531, 1256.311
600.7352, 1269.025
601.2173, 1277.893
601.6995, 1282.994
602.1816, 1284.898
602.6637, 1279.568
603.1458, 1276.526
603.6279, 1279.439
604.1100, 1282.528
604.5922, 1279.806
605.0743, 1272.743
605.5564, 1269.020
606.0385, 1275.386
606.5206, 1284.262
607.0027, 1280.418
607.4849, 1266.450
607.9670, 1265.871
608.4491, 1288.001
608.9312, 1310.959
609.4133, 1311.137
609.8954, 1288.395
610.3776, 1274.640
610.8597, 1274.640
611.3418, 1276.683
611.8239, 1280.840
612.3060, 1284.021
612.7881, 1282.350
613.2703, 1276.094
613.7524, 1269.475
614.2345, 1265.669
614.7166, 1263.767
615.1987, 1260.633
615.6808, 1256.026
616.1630, 1256.378
616.6451, 1265.744
617.1272, 1276.782
617.6093, 1281.308
618.0914, 1279.165
618.5735, 1275.893
619.0557, 1268.628
619.5378, 1263.814
620.0199, 1267.567
620.5020, 1273.370
620.9841, 1270.339
621.4662, 1258.174
621.9484, 1249.892
622.4305, 1260.253
622.9126, 1282.561
623.3947, 1288.610
623.8768, 1275.311
624.3589, 1263.528
624.8411, 1258.768
625.3232, 1259.026
625.8053, 1264.441
626.2874, 1274.650
626.7695, 1279.832
627.2516, 1275.498
627.7338, 1269.221
628.2159, 1262.983
628.6980, 1257.953
629.1801, 1254.860
629.6622, 1254.251
630.1443, 1258.421
630.6265, 1272.449
631.1086, 1292.741
631.5907, 1297.047
632.0728, 1280.329
632.5549, 1267.528
633.0370, 1268.496
633.5192, 1274.296
634.0013, 1274.176
634.4834, 1268.560
634.9655, 1266.307
635.4476, 1277.195
635.9297, 1283.445
636.4119, 1265.975
636.8940, 1240.683
637.3761, 1234.961
637.8582, 1253.827
638.3403, 1278.676
638.8224, 1292.696
639.3046, 1296.258
639.7867, 1289.016
640.2688, 1266.412
640.7509, 1249.001
641.2330, 1242.395
641.7151, 1243.877
642.1973, 1253.578
642.6794, 1270.511
643.1615, 1281.684
643.6436, 1281.487
644.1257, 1278.016
644.6078, 1272.745
645.0900, 1268.243
645.5721, 1269.404
646.0542, 1276.554
646.5363, 1284.394
647.0184, 1288.651
647.5005, 1289.106
647.9827, 1282.901
648.4648, 1267.092
648.9469, 1256.657
649.4290, 1256.409
649.9111, 1261.860
650.3932, 1272.382
650.8754, 1286.365
651.3575, 1291.735
651.8396, 1278.965
652.3217, 1265.732
652.8038, 1258.844
653.2859, 1257.123
653.7681, 1260.889
654.2502, 1268.849
654.7323, 1275.460
655.2144, 1275.867
655.6965, 1272.027
656.1786, 1271.005
656.6608, 1273.768
657.1429, 1272.959
657.6250, 1264.824
658.1071, 1255.920
658.5892, 1251.795
659.0714, 1251.881
659.5535, 1254.216
660.0356, 1262.555
660.5177, 1268.229
660.9998, 1265.542
661.4819, 1260.489
661.9641, 1259.243
662.4462, 1262.188
662.9283, 1267.202
663.4104, 1273.813
663.8925, 1278.896
664.3746, 1272.865
664.8568, 1255.137
665.3389, 1246.286
665.8210, 1251.765
666.3031, 1261.240
666.7852, 1269.401
667.2673, 1275.244
667.7495, 1274.952
668.2316, 1261.044
668.7137, 1253.187
