##NAMES=Caryinite
##RRUFFID=R060663
##IDEAL CHEMISTRY=NaCaCaMn^2+^_2_(As^5+^O_4_)_3_
##LOCALITY=Langban, Filipstad, Varmland, Sweden
##OWNER=RRUFF
##SOURCE=Michael Scott
##DESCRIPTION=Brown massive
##STATUS=The identification of this mineral has been confirmed by single-crystal X-ray diffraction.
##URL=rruff.info/R060663
129.719, 1076.645
130.201, 1085.797
130.683, 1101.511
131.165, 1124.700
131.648, 1147.530
132.130, 1159.660
132.612, 1162.073
133.094, 1165.738
133.576, 1174.500
134.058, 1188.178
134.540, 1205.229
135.022, 1226.602
135.504, 1249.545
135.986, 1269.968
136.469, 1287.925
136.951, 1302.498
137.433, 1310.289
137.915, 1309.553
138.397, 1319.100
138.879, 1344.470
139.361, 1378.597
139.843, 1398.792
140.326, 1400.554
140.808, 1399.000
141.290, 1404.655
141.772, 1420.831
142.254, 1434.291
142.736, 1442.521
143.218, 1446.078
143.700, 1451.303
144.182, 1458.882
144.665, 1467.344
145.147, 1474.848
145.629, 1478.535
146.111, 1485.938
146.593, 1500.525
147.075, 1525.065
147.557, 1541.202
148.039, 1544.369
148.521, 1540.970
149.004, 1539.505
149.486, 1544.737
149.968, 1547.150
150.450, 1543.247
150.932, 1527.437
151.414, 1517.617
151.896, 1518.066
152.378, 1524.495
152.861, 1528.252
153.343, 1529.484
153.825, 1527.742
154.307, 1522.425
154.789, 1505.829
155.271, 1496.254
155.753, 1503.322
156.235, 1521.437
156.717, 1529.650
157.200, 1512.118
157.682, 1490.434
158.164, 1477.844
158.646, 1489.878
159.128, 1498.711
159.610, 1493.063
160.092, 1474.423
160.574, 1461.057
161.057, 1463.362
161.539, 1472.076
162.021, 1478.574
162.503, 1478.573
162.985, 1476.907
163.467, 1475.780
163.949, 1475.343
164.431, 1474.083
164.913, 1468.513
165.396, 1462.236
165.878, 1460.180
166.360, 1471.820
166.842, 1483.576
167.324, 1485.617
167.806, 1475.865
168.288, 1462.476
168.770, 1442.270
169.253, 1421.885
169.735, 1415.149
170.217, 1447.279
170.699, 1488.054
171.181, 1506.197
171.663, 1490.872
172.145, 1467.187
172.627, 1454.246
173.109, 1450.243
173.592, 1448.574
174.074, 1445.926
174.556, 1442.976
175.038, 1440.297
175.520, 1436.598
176.002, 1435.140
176.484, 1443.091
176.966, 1458.787
177.449, 1471.161
177.931, 1467.168
178.413, 1453.998
178.895, 1446.873
179.377, 1454.162
179.859, 1466.866
180.341, 1469.355
180.823, 1461.743
181.305, 1454.370
181.788, 1458.009
182.270, 1469.843
182.752, 1480.868
183.234, 1487.848
183.716, 1491.768
184.198, 1494.633
184.680, 1496.460
185.162, 1496.954
185.645, 1495.018
186.127, 1491.062
186.609, 1487.481
187.091, 1484.381
187.573, 1482.292
188.055, 1484.304
188.537, 1491.362
189.019, 1499.398
189.501, 1502.230
189.984, 1500.140
190.466, 1498.494
190.948, 1501.949
191.430, 1509.267
191.912, 1510.226
192.394, 1502.886
192.876, 1492.084
193.358, 1486.058
193.840, 1484.948
194.323, 1485.879
194.805, 1488.895
195.287, 1493.793
195.769, 1493.971
196.251, 1487.348
196.733, 1477.411
197.215, 1472.185
197.697, 1471.788
198.180, 1475.069
198.662, 1483.056
199.144, 1496.258
199.626, 1505.966
200.108, 1510.542
200.590, 1511.193
201.072, 1510.257
201.554, 1506.176
202.036, 1506.100
202.519, 1519.433
203.001, 1549.183
203.483, 1568.834
203.965, 1571.574
204.447, 1560.372
204.929, 1551.472
205.411, 1544.100
205.893, 1540.630
206.376, 1545.095
206.858, 1559.929
207.340, 1571.258
207.822, 1576.177
208.304, 1574.942
208.786, 1569.920
209.268, 1558.912
209.750, 1548.258
210.232, 1545.147
210.714, 1551.421
211.197, 1559.505
211.679, 1569.599
212.161, 1581.933
212.643, 1584.571
213.125, 1573.251
213.607, 1557.989
214.089, 1550.339
214.572, 1551.386
215.054, 1557.593
215.536, 1571.264
216.018, 1594.669
216.500, 1602.456
216.982, 1588.307
217.464, 1564.564
217.946, 1547.053
218.428, 1534.513
218.911, 1531.580
219.393, 1544.233
219.875, 1578.760
220.357, 1594.496
220.839, 1583.971
221.321, 1560.003
221.803, 1543.143
222.285, 1535.127
222.767, 1531.364
223.250, 1531.965
223.732, 1540.312
224.214, 1540.620
224.696, 1529.446
225.178, 1512.216
225.660, 1498.030
226.142, 1484.369
226.624, 1478.366
227.107, 1485.361
227.589, 1514.736
228.071, 1531.213
228.553, 1530.325
229.035, 1517.978
229.517, 1508.885
229.999, 1505.417
230.481, 1501.205
230.963, 1492.033
231.445, 1469.824
231.928, 1461.483
232.410, 1473.655
232.892, 1498.553
233.374, 1512.858
233.856, 1511.438
234.338, 1507.209
234.820, 1502.088
235.303, 1478.047
235.785, 1470.343
236.267, 1478.897
236.749, 1483.504
237.231, 1484.377
237.713, 1470.330
238.195, 1475.549
238.677, 1473.047
239.159, 1470.229
239.641, 1478.159
240.124, 1473.448
240.606, 1464.387
241.088, 1453.034
241.570, 1432.787
242.052, 1419.191
242.534, 1422.908
243.016, 1457.117
243.498, 1480.976
243.981, 1490.151
244.463, 1486.980
244.945, 1481.633
245.427, 1472.185
245.909, 1462.916
246.391, 1455.476
246.873, 1447.071
247.355, 1446.902
247.837, 1459.847
248.320, 1482.274
248.802, 1494.806
249.284, 1491.314
249.766, 1486.000
250.248, 1488.926
250.730, 1509.138
251.212, 1516.928
251.694, 1504.669
252.176, 1477.322
252.659, 1460.221
253.141, 1457.728
253.623, 1459.542
254.105, 1459.199
254.587, 1455.536
255.069, 1452.745
255.551, 1451.726
256.033, 1452.002
256.516, 1450.342
256.998, 1444.169
257.480, 1439.810
257.962, 1442.347
258.444, 1455.641
258.926, 1466.111
259.408, 1473.969
259.890, 1478.141
260.372, 1470.581
260.855, 1442.803
261.337, 1416.877
261.819, 1409.481
262.301, 1428.315
262.783, 1442.661
263.265, 1447.659
263.747, 1445.596
264.229, 1448.769
264.711, 1459.800
265.194, 1471.109
265.676, 1477.797
266.158, 1479.664
266.640, 1477.069
267.122, 1468.339
267.604, 1455.307
268.086, 1446.107
268.569, 1440.494
269.051, 1439.137
269.533, 1444.099
270.015, 1457.681
270.497, 1467.291
270.979, 1470.997
271.461, 1469.911
271.943, 1468.033
272.425, 1465.361
272.908, 1462.008
273.390, 1457.145
273.872, 1450.051
274.354, 1446.624
274.836, 1448.040
275.318, 1453.306
275.800, 1460.563
276.282, 1471.319
276.764, 1478.517
277.247, 1474.279
277.729, 1456.639
278.211, 1447.650
278.693, 1451.708
279.175, 1464.242
279.657, 1473.125
280.139, 1478.166
280.621, 1480.421
281.103, 1478.767
281.586, 1473.091
282.068, 1471.886
282.550, 1477.091
283.032, 1486.132
283.514, 1493.809
283.996, 1500.251
284.478, 1504.163
284.960, 1502.280
285.443, 1495.255
285.925, 1494.603
286.407, 1502.926
286.889, 1515.772
287.371, 1525.604
287.853, 1532.447
288.335, 1535.844
288.817, 1531.557
289.299, 1521.859
289.782, 1522.669
290.264, 1538.368
290.746, 1558.601
291.228, 1565.238
291.710, 1559.044
292.192, 1551.512
292.674, 1548.413
293.156, 1549.286
293.638, 1554.140
294.121, 1564.528
294.603, 1574.180
295.085, 1570.882
295.567, 1557.118
296.049, 1547.816
296.531, 1554.882
297.013, 1572.210
297.496, 1586.056
297.978, 1595.036
298.460, 1601.331
298.942, 1608.622
299.424, 1615.632
299.906, 1617.637
300.388, 1604.976
300.870, 1587.648
301.352, 1584.854
301.835, 1599.461
302.317, 1615.698
302.799, 1614.431
303.281, 1602.553
303.763, 1596.826
304.245, 1614.659
304.727, 1638.477
305.209, 1644.123
305.691, 1629.271
306.174, 1614.317
306.656, 1616.839
307.138, 1630.452
307.620, 1643.712
308.102, 1653.658
308.584, 1660.250
309.066, 1662.582
309.548, 1660.704
310.030, 1658.083
310.513, 1653.403
310.995, 1650.286
311.477, 1653.502
311.959, 1672.342
312.441, 1692.181
312.923, 1696.358
313.405, 1686.595
313.887, 1693.685
314.370, 1744.530
314.852, 1815.423
315.334, 1883.004
315.816, 1946.904
316.298, 1999.423
316.780, 2034.214
317.262, 2053.008
317.744, 2069.337
318.226, 2047.915
318.709, 2056.860
319.191, 2058.434
319.673, 2053.033
320.155, 2019.765
320.637, 2022.482
321.119, 2010.778
321.601, 1998.481
322.083, 2006.262
322.565, 1977.047
323.048, 1984.510
323.530, 1977.332
324.012, 1976.855
324.494, 1958.869
324.976, 1948.896
325.458, 1954.596
325.940, 1958.181
326.422, 1962.324
326.905, 1969.057
327.387, 1987.037
327.869, 1992.843
328.351, 1975.174
328.833, 1946.316
329.315, 1929.756
329.797, 1933.116
330.279, 1940.841
330.762, 1949.603
331.244, 1962.161
331.726, 1967.432
332.208, 1962.260
332.690, 1951.569
333.172, 1942.088
333.654, 1931.905
334.136, 1926.608
334.618, 1930.431
335.100, 1945.573
335.583, 1948.507
336.065, 1933.015
336.547, 1912.568
337.029, 1902.301
337.511, 1904.631
337.993, 1910.115
338.475, 1917.629
338.957, 1926.761
339.440, 1932.694
339.922, 1933.953
340.404, 1935.454
340.886, 1943.644
341.368, 1959.683
341.850, 1969.907
342.332, 1968.702
342.814, 1960.878
343.297, 1963.097
343.779, 1975.907
344.261, 1995.311
344.743, 2022.897
345.225, 2057.232
345.707, 2081.778
346.189, 2090.809
346.671, 2094.273
347.153, 2111.665
347.635, 2142.538
348.118, 2178.071
348.600, 2214.322
349.082, 2251.045
349.564, 2288.620
350.046, 2328.353
350.528, 2366.140
351.010, 2392.180
351.492, 2410.649
351.975, 2437.845
352.457, 2490.049
352.939, 2553.389
353.421, 2600.025
353.903, 2624.199
354.385, 2665.191
354.867, 2694.535
355.349, 2745.153
355.832, 2790.608
356.314, 2831.174
356.796, 2852.216
357.278, 2898.479
357.760, 2934.630
358.242, 2970.366
358.724, 3014.606
359.206, 3042.983
359.688, 3075.834
360.171, 3114.716
360.653, 3150.956
361.135, 3183.271
361.617, 3210.799
362.099, 3227.262
362.581, 3219.998
363.063, 3207.176
363.545, 3201.070
364.027, 3203.854
364.510, 3213.858
364.992, 3241.585
365.474, 3277.814
365.956, 3295.553
366.438, 3272.104
366.920, 3243.296
367.402, 3222.107
367.884, 3202.619
368.366, 3204.327
368.849, 3249.958
369.331, 3313.282
369.813, 3349.710
370.295, 3338.918
370.777, 3325.584
371.259, 3319.629
371.741, 3320.713
372.224, 3331.731
372.706, 3357.149
373.188, 3388.663
373.670, 3416.190
374.152, 3436.454
374.634, 3460.699
375.116, 3493.426
375.598, 3533.215
376.080, 3563.262
376.562, 3581.582
377.045, 3594.069
377.527, 3604.492
378.009, 3612.807
378.491, 3621.203
378.973, 3631.679
379.455, 3641.175
379.937, 3640.862
380.419, 3630.501
380.902, 3614.490
381.384, 3590.339
381.866, 3560.989
382.348, 3545.139
382.830, 3547.386
383.312, 3554.897
383.794, 3550.525
384.276, 3535.426
384.759, 3515.088
385.241, 3488.886
385.723, 3459.957
386.205, 3434.742
386.687, 3413.345
387.169, 3394.505
387.651, 3375.429
388.133, 3358.432
388.615, 3347.654
389.098, 3352.632
389.580, 3358.724
390.062, 3351.156
390.544, 3331.626
391.026, 3313.225
391.508, 3298.397
391.990, 3290.875
392.472, 3294.590
392.954, 3315.831
393.437, 3341.160
393.919, 3364.468
394.401, 3387.247
394.883, 3414.531
395.365, 3457.692
395.847, 3498.126
396.329, 3524.644
396.811, 3528.561
397.293, 3538.018
397.776, 3560.500
398.258, 3590.187
398.740, 3618.823
399.222, 3647.289
399.704, 3672.945
400.186, 3694.333
400.668, 3710.862
401.151, 3729.071
401.633, 3755.173
402.115, 3777.497
402.597, 3783.446
403.079, 3758.245
403.561, 3751.334
404.043, 3778.721
404.525, 3829.871
405.007, 3851.459
405.490, 3835.127
405.972, 3810.606
406.454, 3799.048
406.936, 3802.545
407.418, 3787.931
407.900, 3748.185
408.382, 3697.688
408.864, 3662.549
409.346, 3642.765
409.828, 3621.733
410.311, 3591.542
410.793, 3554.059
411.275, 3512.742
411.757, 3466.599
412.239, 3424.696
412.721, 3401.089
413.203, 3389.113
413.685, 3370.276
414.168, 3336.084
414.650, 3294.213
415.132, 3252.944
415.614, 3211.957
416.096, 3171.914
416.578, 3132.775
417.060, 3094.333
417.542, 3056.935
418.025, 3021.273
418.507, 2985.284
418.989, 2945.526
419.471, 2904.583
419.953, 2866.768
420.435, 2840.546
420.917, 2812.839
421.399, 2775.682
421.881, 2726.326
422.364, 2680.505
422.846, 2644.898
423.328, 2613.133
423.810, 2579.461
424.292, 2539.713
424.774, 2501.473
425.256, 2463.890
425.738, 2427.187
426.220, 2399.526
426.703, 2383.709
427.185, 2373.509
427.667, 2366.518
428.149, 2365.692
428.631, 2360.142
429.113, 2346.787
429.595, 2330.131
430.077, 2320.262
430.560, 2318.176
431.042, 2318.640
431.524, 2321.648
432.006, 2326.827
432.488, 2322.866
432.970, 2307.684
433.452, 2291.562
433.934, 2286.366
434.417, 2291.136
434.899, 2297.090
435.381, 2301.068
435.863, 2305.650
436.345, 2317.257
436.827, 2335.156
437.309, 2352.545
437.791, 2362.200
438.273, 2368.857
438.755, 2380.905
439.238, 2401.708
439.720, 2420.879
440.202, 2422.992
440.684, 2417.537
441.166, 2423.168
441.648, 2458.725
442.130, 2499.585
442.612, 2529.565
443.095, 2547.522
443.577, 2568.689
444.059, 2603.102
444.541, 2641.065
445.023, 2674.472
445.505, 2698.679
445.987, 2721.794
446.469, 2742.763
446.952, 2763.135
447.434, 2789.052
447.916, 2827.990
448.398, 2865.252
448.880, 2894.007
449.362, 2910.023
449.844, 2931.854
450.326, 2964.010
450.808, 2997.663
451.290, 3019.327
451.773, 3024.891
452.255, 3031.970
452.737, 3044.878
453.219, 3062.948
453.701, 3086.079
454.183, 3116.176
454.665, 3140.026
455.147, 3143.926
455.630, 3130.713
456.112, 3118.862
456.594, 3110.786
457.076, 3105.644
457.558, 3107.549
458.040, 3113.284
458.522, 3109.137
459.004, 3078.179
459.487, 3038.020
459.969, 3012.049
460.451, 3001.666
460.933, 2992.729
461.415, 2979.138
461.897, 2960.158
462.379, 2934.549
462.861, 2898.664
463.343, 2859.941
463.826, 2817.160
464.308, 2773.590
464.790, 2739.559
465.272, 2734.532
465.754, 2727.285
466.236, 2699.697
466.718, 2636.490
467.200, 2588.586
467.682, 2568.679
468.165, 2561.524
468.647, 2549.979
469.129, 2532.339
469.611, 2512.940
470.093, 2492.460
470.575, 2470.867
471.057, 2446.741
471.539, 2419.377
472.022, 2391.269
472.504, 2362.365
472.986, 2332.104
473.468, 2310.370
473.950, 2299.984
474.432, 2294.286
474.914, 2283.606
475.396, 2268.185
475.878, 2250.148
476.361, 2228.679
476.843, 2205.750
477.325, 2184.288
477.807, 2164.373
478.289, 2149.944
478.771, 2149.671
479.253, 2155.276
479.735, 2154.585
480.217, 2142.845
480.700, 2127.591
481.182, 2110.508
481.664, 2093.764
482.146, 2082.405
482.628, 2083.303
483.110, 2086.072
483.592, 2086.141
484.074, 2082.975
484.556, 2077.561
485.039, 2066.853
485.521, 2055.624
486.003, 2047.964
486.485, 2047.730
486.967, 2045.784
487.449, 2041.523
487.931, 2035.150
488.414, 2026.596
488.896, 2013.523
489.378, 2003.430
489.860, 2000.810
490.342, 2006.516
490.824, 2010.523
491.306, 2014.880
491.788, 2012.152
492.270, 1985.361
492.753, 1937.650
493.235, 1906.841
493.717, 1908.025
494.199, 1925.978
494.681, 1934.900
495.163, 1935.852
495.645, 1936.524
496.127, 1945.230
496.609, 1955.135
497.092, 1955.101
497.574, 1942.642
498.056, 1930.859
498.538, 1932.617
499.020, 1939.326
499.502, 1939.812
499.984, 1923.200
500.466, 1906.744
500.948, 1895.661
501.431, 1889.877
501.913, 1889.483
502.395, 1898.238
502.877, 1909.376
503.359, 1919.737
503.841, 1928.488
504.323, 1938.516
504.805, 1951.938
505.288, 1964.908
505.770, 1972.251
506.252, 1972.075
506.734, 1972.043
507.216, 1974.802
507.698, 1978.800
508.180, 1974.871
508.662, 1961.492
509.145, 1951.824
509.627, 1956.549
510.109, 1973.017
510.591, 1990.850
511.073, 2010.214
511.555, 2026.193
512.037, 2033.235
512.519, 2032.580
513.001, 2027.001
513.484, 2011.512
513.966, 1996.680
514.448, 1992.214
514.930, 1996.711
515.412, 2003.353
515.894, 2016.510
516.376, 2025.305
516.858, 2019.506
517.341, 1989.920
517.823, 1969.167
518.305, 1969.888
518.787, 1981.098
519.269, 1988.976
519.751, 1990.124
520.233, 1991.648
520.715, 1995.842
521.197, 2001.630
521.680, 2001.797
522.162, 1994.494
522.644, 1985.546
523.126, 1977.655
523.608, 1970.736
524.090, 1965.527
524.572, 1961.717
525.054, 1960.616
525.536, 1966.852
526.019, 1978.557
526.501, 1984.297
526.983, 1978.363
527.465, 1966.929
527.947, 1957.239
528.429, 1949.697
528.911, 1945.409
529.393, 1948.788
529.875, 1953.635
530.358, 1953.459
530.840, 1946.709
531.322, 1940.769
531.804, 1943.805
532.286, 1947.555
532.768, 1943.274
533.250, 1918.126
533.732, 1897.383
534.214, 1885.892
534.697, 1882.426
535.179, 1881.662
535.661, 1884.000
536.143, 1888.680
536.625, 1896.289
537.107, 1907.661
537.589, 1915.390
538.071, 1919.245
538.554, 1920.010
539.036, 1918.952
539.518, 1916.037
540.000, 1907.122
540.482, 1888.967
540.964, 1869.009
541.446, 1860.709
541.928, 1862.434
542.411, 1865.540
542.893, 1866.080
543.375, 1865.092
543.857, 1863.025
544.339, 1859.989
544.821, 1858.367
545.303, 1866.929
545.785, 1873.732
546.268, 1865.992
546.750, 1826.373
547.232, 1797.395
547.714, 1799.695
548.196, 1818.643
548.678, 1827.662
549.160, 1813.075
549.642, 1801.899
550.124, 1802.932
550.606, 1814.993
551.089, 1812.603
551.571, 1787.668
552.053, 1764.547
552.535, 1764.068
553.017, 1788.006
553.499, 1793.652
553.981, 1775.556
554.463, 1748.776
554.945, 1731.227
555.428, 1722.201
555.910, 1719.036
556.392, 1724.858
556.874, 1731.880
557.356, 1729.109
557.838, 1718.328
558.320, 1707.130
558.802, 1697.897
559.284, 1691.377
559.767, 1689.793
560.249, 1694.711
560.731, 1695.373
561.213, 1683.570
561.695, 1668.224
562.177, 1657.353
562.659, 1655.739
563.141, 1653.754
563.624, 1648.689
564.106, 1643.324
564.588, 1645.766
565.070, 1660.286
565.552, 1671.876
566.034, 1674.373
566.516, 1668.661
566.998, 1664.585
567.481, 1662.275
567.963, 1660.912
568.445, 1661.852
568.927, 1663.401
569.409, 1658.870
569.891, 1646.207
570.373, 1631.859
570.855, 1621.103
571.338, 1613.821
571.820, 1610.137
572.302, 1610.677
572.784, 1614.111
573.266, 1622.052
573.748, 1633.039
574.230, 1640.511
574.712, 1642.766
575.194, 1640.678
575.677, 1632.954
576.159, 1616.133
576.641, 1606.700
577.123, 1607.943
577.605, 1613.373
578.087, 1616.990
578.569, 1618.006
579.051, 1620.552
579.533, 1625.352
580.016, 1631.719
580.498, 1639.750
580.980, 1649.245
581.462, 1654.793
581.944, 1654.162
582.426, 1647.870
582.908, 1633.258
583.390, 1611.415
583.872, 1594.000
584.355, 1587.922
584.837, 1591.057
585.319, 1604.196
585.801, 1632.136
586.283, 1653.302
586.765, 1652.927
587.247, 1642.621
587.729, 1636.494
588.211, 1641.482
588.694, 1645.443
589.176, 1645.481
589.658, 1643.264
590.140, 1645.047
590.622, 1653.054
591.104, 1660.419
591.586, 1664.784
592.068, 1666.182
592.551, 1662.172
593.033, 1651.256
593.515, 1643.987
593.997, 1656.049
594.479, 1680.151
594.961, 1691.378
595.443, 1684.167
595.925, 1670.589
596.407, 1658.203
596.890, 1648.672
597.372, 1645.181
597.854, 1659.037
598.336, 1669.590
598.818, 1659.653
599.300, 1635.333
599.782, 1624.740
600.265, 1650.444
600.747, 1676.101
601.229, 1686.593
601.711, 1679.521
602.193, 1671.801
602.675, 1660.632
603.157, 1652.960
603.639, 1657.369
604.121, 1675.755
604.604, 1685.022
605.086, 1680.539
605.568, 1671.156
606.050, 1671.803
606.532, 1680.442
607.014, 1686.724
607.496, 1685.056
607.978, 1680.369
608.460, 1677.313
608.943, 1676.008
609.425, 1677.112
609.907, 1679.814
610.389, 1685.912
610.871, 1700.185
611.353, 1725.622
611.835, 1739.160
612.317, 1725.971
612.799, 1706.188
613.282, 1694.441
613.764, 1695.423
614.246, 1695.180
614.728, 1692.287
615.210, 1689.011
615.692, 1689.808
616.174, 1695.178
616.656, 1699.149
617.138, 1698.571
617.621, 1696.728
618.103, 1705.074
618.585, 1721.460
619.067, 1730.510
619.549, 1713.469
620.031, 1689.259
620.513, 1679.285
620.995, 1685.146
621.477, 1694.376
621.960, 1704.764
622.442, 1713.101
622.924, 1716.245
623.406, 1706.672
623.888, 1704.331
624.370, 1719.530
624.852, 1738.990
625.334, 1744.532
625.817, 1728.068
626.299, 1717.816
626.781, 1721.101
627.263, 1732.518
627.745, 1735.222
628.227, 1728.983
628.709, 1721.641
629.191, 1716.891
629.674, 1714.029
630.156, 1711.045
630.638, 1708.057
631.120, 1707.213
631.602, 1714.922
632.084, 1722.942
632.566, 1722.411
633.048, 1710.047
633.531, 1695.690
634.013, 1673.785
634.495, 1656.054
634.977, 1655.868
635.459, 1697.503
635.941, 1724.201
636.423, 1725.895
636.905, 1712.866
637.387, 1710.444
637.870, 1721.877
638.352, 1729.915
638.834, 1727.818
639.316, 1718.343
639.798, 1708.411
640.280, 1698.253
640.762, 1693.962
641.244, 1705.049
641.726, 1722.257
642.209, 1731.578
642.691, 1731.612
643.173, 1731.362
643.655, 1737.853
644.137, 1745.745
644.619, 1750.364
645.101, 1750.111
645.583, 1747.550
646.065, 1739.318
646.548, 1730.459
647.030, 1728.391
647.512, 1736.960
647.994, 1742.853
648.476, 1741.812
648.958, 1737.444
649.440, 1742.901
649.922, 1758.427
650.404, 1771.011
650.887, 1770.678
651.369, 1763.838
651.851, 1764.570
652.333, 1772.382
652.815, 1781.646
653.297, 1794.869
653.779, 1803.870
654.261, 1796.563
654.744, 1765.230
655.226, 1747.361
655.708, 1766.202
656.190, 1797.143
