##NAMES=Caryochroite
##RRUFFID=R070008
##IDEAL CHEMISTRY=(Na,Sr)_3_(Fe^3+^,Mg)_10_Ti^4+^_2_Si_12_O_37_(H_2_O,O,OH)_17_
##LOCALITY=Umbozero mine, Alluaiv Mt., Lovozero massif, Kola Peninsula, Russia
##OWNER=RRUFF
##SOURCE=Michael Scott
##DESCRIPTION=Dark brown massive, very fine grained
##STATUS=The identification of this mineral is not yet confirmed.
##URL=rruff.info/R070008
161.2709, 6312.846
161.7530, 6362.080
162.2351, 6402.770
162.7172, 6424.873
163.1993, 6431.117
163.6815, 6430.391
164.1636, 6424.086
164.6457, 6413.741
165.1278, 6400.333
165.6099, 6376.411
166.0920, 6357.131
166.5742, 6349.278
167.0563, 6352.945
167.5384, 6368.898
168.0205, 6411.413
168.5026, 6463.574
168.9847, 6502.409
169.4669, 6520.281
169.9490, 6522.045
170.4311, 6498.882
170.9132, 6449.106
171.3953, 6416.967
171.8774, 6459.424
172.3596, 6543.462
172.8417, 6607.123
173.3238, 6613.036
173.8059, 6586.290
174.2880, 6548.904
174.7701, 6498.508
175.2523, 6456.527
175.7344, 6450.888
176.2165, 6473.025
176.6986, 6495.299
177.1807, 6492.420
177.6628, 6481.140
178.1449, 6494.973
178.6271, 6548.794
179.1092, 6605.331
179.5913, 6609.387
180.0734, 6568.152
180.5555, 6527.792
181.0376, 6523.546
181.5198, 6544.677
182.0019, 6563.346
182.4840, 6573.489
182.9661, 6578.895
183.4482, 6582.751
183.9303, 6585.240
184.4125, 6593.558
184.8946, 6617.788
185.3767, 6654.556
185.8588, 6689.718
186.3409, 6723.644
186.8230, 6751.812
187.3052, 6757.792
187.7873, 6740.017
188.2694, 6715.552
188.7515, 6698.367
189.2336, 6688.568
189.7157, 6689.815
190.1979, 6712.083
190.6800, 6747.968
191.1621, 6754.716
191.6442, 6725.238
192.1263, 6693.862
192.6084, 6717.885
193.0906, 6798.000
193.5727, 6862.034
194.0548, 6873.994
194.5369, 6837.211
195.0190, 6798.243
195.5011, 6753.504
195.9832, 6714.402
196.4654, 6705.496
196.9475, 6729.874
197.4296, 6757.391
197.9117, 6769.111
198.3938, 6764.604
198.8759, 6776.691
199.3581, 6813.408
199.8402, 6860.355
200.3223, 6880.624
200.8044, 6867.850
201.2865, 6856.814
201.7686, 6877.417
202.2508, 6935.900
202.7329, 6962.937
203.2150, 6944.488
203.6971, 6893.721
204.1792, 6850.423
204.6613, 6812.024
205.1435, 6788.647
205.6256, 6790.383
206.1077, 6820.932
206.5898, 6858.087
207.0719, 6904.192
207.5540, 6954.994
208.0362, 6983.501
208.5183, 6984.042
209.0004, 6973.904
209.4825, 6966.595
209.9646, 6962.437
210.4467, 6960.354
210.9288, 6960.030
211.4110, 6961.522
211.8931, 6968.238
212.3752, 6986.469
212.8573, 7000.094
213.3394, 6987.925
213.8215, 6936.615
214.3037, 6896.326
214.7858, 6880.716
215.2679, 6890.570
215.7500, 6900.524
216.2321, 6912.829
216.7142, 6922.514
217.1964, 6921.169
217.6785, 6901.661
218.1606, 6887.624
218.6427, 6885.448
219.1248, 6895.918
219.6069, 6913.313
220.0891, 6940.894
220.5712, 6972.651
221.0533, 7001.351
221.5354, 7029.466
222.0175, 7049.104
222.4996, 7056.177
222.9818, 7048.088
223.4639, 7038.816
223.9460, 7028.116
224.4281, 7016.344
224.9102, 7003.435
225.3923, 6987.753
225.8745, 6973.877
226.3566, 6962.761
226.8387, 6951.643
227.3208, 6951.518
227.8029, 6966.577
228.2850, 6991.031
228.7672, 7011.842
229.2493, 7031.103
229.7314, 7043.829
230.2135, 7046.087
230.6956, 7029.061
231.1777, 7022.193
231.6599, 7029.336
232.1420, 7046.200
232.6241, 7061.742
233.1062, 7085.533
233.5883, 7094.478
234.0704, 7069.469
234.5526, 6971.876
235.0347, 6928.542
235.5168, 6971.352
235.9989, 7071.541
236.4810, 7116.725
236.9631, 7070.883
237.4453, 7016.506
237.9274, 7000.118
238.4095, 7040.613
238.8916, 7080.119
239.3737, 7122.227
239.8558, 7161.958
240.3380, 7172.013
240.8201, 7132.926
241.3022, 7088.532
241.7843, 7066.492
242.2664, 7077.084
242.7485, 7089.729
243.2307, 7104.096
243.7128, 7119.177
244.1949, 7126.708
244.6770, 7120.506
245.1591, 7114.307
245.6412, 7118.609
246.1233, 7141.173
246.6055, 7158.763
247.0876, 7170.016
247.5697, 7174.690
248.0518, 7167.866
248.5339, 7137.135
249.0160, 7110.107
249.4982, 7110.771
249.9803, 7157.544
250.4624, 7193.182
250.9445, 7206.669
251.4266, 7199.884
251.9087, 7196.206
252.3909, 7192.849
252.8730, 7196.082
253.3551, 7214.201
253.8372, 7260.453
254.3193, 7291.727
254.8014, 7298.009
255.2836, 7280.749
255.7657, 7262.481
256.2478, 7237.576
256.7299, 7218.908
257.2120, 7218.128
257.6941, 7239.736
258.1762, 7270.119
258.6584, 7315.593
259.1405, 7374.237
259.6226, 7394.456
260.1047, 7354.347
260.5868, 7306.826
261.0689, 7308.711
261.5511, 7389.864
262.0332, 7436.061
262.5153, 7409.009
262.9974, 7314.163
263.4795, 7272.028
263.9616, 7301.823
264.4438, 7355.399
264.9259, 7384.514
265.4080, 7378.150
265.8901, 7383.146
266.3722, 7417.316
266.8543, 7477.663
267.3365, 7502.379
267.8186, 7480.045
268.3007, 7442.945
268.7828, 7421.194
269.2649, 7415.179
269.7470, 7424.068
270.2292, 7456.168
270.7113, 7508.430
271.1934, 7527.226
271.6755, 7505.150
272.1576, 7466.340
272.6397, 7429.447
273.1219, 7391.669
273.6040, 7372.964
274.0861, 7383.773
274.5682, 7420.455
275.0503, 7444.041
275.5324, 7451.317
276.0146, 7454.597
276.4967, 7471.115
276.9788, 7504.536
277.4609, 7520.661
277.9430, 7505.065
278.4251, 7463.734
278.9073, 7433.924
279.3894, 7415.176
279.8715, 7410.475
280.3536, 7429.258
280.8357, 7472.669
281.3178, 7510.858
281.8000, 7540.097
282.2821, 7558.029
282.7642, 7545.486
283.2463, 7496.577
283.7284, 7448.146
284.2105, 7441.424
284.6927, 7474.735
285.1747, 7505.618
285.6569, 7526.435
286.1390, 7536.001
286.6211, 7526.284
287.1032, 7495.290
287.5853, 7459.743
288.0674, 7431.419
288.5496, 7410.633
289.0317, 7400.955
289.5138, 7408.052
289.9959, 7424.300
290.4780, 7425.639
290.9601, 7410.917
291.4423, 7403.306
291.9244, 7436.707
292.4065, 7499.031
292.8886, 7536.480
293.3707, 7524.915
293.8528, 7488.963
294.3350, 7477.885
294.8171, 7491.393
295.2992, 7507.286
295.7813, 7508.002
296.2634, 7496.979
296.7455, 7483.332
297.2277, 7466.298
297.7098, 7450.849
298.1919, 7446.231
298.6740, 7451.704
299.1561, 7459.840
299.6382, 7464.890
300.1204, 7468.599
300.6025, 7475.186
301.0846, 7489.257
301.5667, 7501.687
302.0488, 7498.127
302.5309, 7481.116
303.0131, 7465.976
303.4952, 7466.207
303.9773, 7473.956
304.4594, 7478.702
304.9415, 7479.783
305.4236, 7474.418
305.9058, 7449.607
306.3879, 7412.447
306.8700, 7390.938
307.3521, 7421.487
307.8342, 7468.312
308.3163, 7489.451
308.7985, 7463.362
309.2806, 7436.631
309.7627, 7450.038
310.2448, 7491.160
310.7269, 7524.333
311.2090, 7521.117
311.6912, 7507.402
312.1733, 7506.524
312.6554, 7531.399
313.1375, 7548.210
313.6196, 7526.774
314.1017, 7483.600
314.5839, 7455.737
315.0660, 7482.520
315.5481, 7513.203
316.0302, 7511.625
316.5123, 7458.246
316.9944, 7416.296
317.4766, 7422.273
317.9586, 7453.955
318.4408, 7473.001
318.9229, 7451.168
319.4050, 7427.303
319.8871, 7420.401
320.3692, 7438.118
320.8513, 7452.180
321.3335, 7457.819
321.8156, 7455.757
322.2977, 7446.982
322.7798, 7419.616
323.2619, 7396.638
323.7440, 7385.310
324.2262, 7387.584
324.7083, 7394.124
325.1904, 7409.823
325.6725, 7427.243
326.1546, 7438.155
326.6367, 7442.220
327.1189, 7439.518
327.6010, 7422.686
328.0831, 7387.101
328.5652, 7377.966
329.0473, 7419.261
329.5294, 7472.114
330.0116, 7501.835
330.4937, 7497.860
330.9758, 7485.016
331.4579, 7460.082
331.9400, 7423.520
332.4221, 7413.190
332.9043, 7453.869
333.3864, 7493.128
333.8685, 7484.748
334.3506, 7401.110
334.8327, 7334.872
335.3148, 7297.990
335.7970, 7288.638
336.2791, 7295.472
336.7612, 7324.938
337.2433, 7357.784
337.7254, 7380.898
338.2076, 7392.271
338.6897, 7403.277
339.1718, 7416.113
339.6539, 7428.706
340.1360, 7434.507
340.6181, 7432.080
341.1003, 7429.395
341.5824, 7432.533
342.0645, 7441.546
342.5466, 7447.982
343.0287, 7452.723
343.5108, 7452.139
343.9930, 7432.897
344.4751, 7394.840
344.9572, 7365.893
345.4393, 7368.223
345.9214, 7394.297
346.4035, 7408.154
346.8857, 7406.041
347.3678, 7398.265
347.8499, 7402.684
348.3320, 7415.537
348.8141, 7417.512
349.2962, 7387.296
349.7784, 7342.421
350.2605, 7317.429
350.7426, 7313.678
351.2247, 7323.868
351.7068, 7358.372
352.1889, 7401.950
352.6710, 7420.533
353.1531, 7370.900
353.6353, 7305.733
354.1174, 7290.780
354.5995, 7323.917
355.0816, 7355.075
355.5637, 7338.670
356.0458, 7301.731
356.5280, 7279.025
357.0101, 7292.148
357.4922, 7312.983
357.9743, 7324.458
358.4564, 7327.833
358.9385, 7329.932
359.4207, 7328.016
359.9028, 7329.560
360.3849, 7342.078
360.8670, 7382.361
361.3491, 7411.953
361.8312, 7410.829
362.3134, 7387.220
362.7955, 7364.879
363.2776, 7350.612
363.7597, 7339.644
364.2418, 7328.654
364.7239, 7313.269
365.2061, 7306.191
365.6882, 7318.493
366.1703, 7339.262
366.6524, 7349.101
367.1345, 7323.541
367.6166, 7307.899
368.0988, 7322.000
368.5809, 7382.857
369.0630, 7412.857
369.5451, 7389.327
370.0272, 7347.320
370.5093, 7328.272
370.9915, 7346.072
371.4736, 7365.836
371.9557, 7383.935
372.4378, 7400.772
372.9199, 7397.889
373.4020, 7361.842
373.8842, 7324.559
374.3663, 7318.619
374.8484, 7355.237
375.3305, 7383.384
375.8126, 7394.702
376.2947, 7391.023
376.7769, 7376.038
377.2590, 7346.182
377.7411, 7318.530
378.2232, 7306.930
378.7053, 7311.450
379.1874, 7311.448
379.6696, 7301.257
380.1517, 7269.723
380.6338, 7290.978
381.1159, 7300.725
381.5980, 7299.585
382.0801, 7254.944
382.5623, 7266.474
383.0444, 7255.494
383.5265, 7243.590
384.0086, 7263.027
384.4907, 7224.713
384.9728, 7243.653
385.4549, 7239.738
385.9370, 7246.283
386.4192, 7230.178
386.9013, 7221.068
387.3834, 7234.617
387.8655, 7235.620
388.3476, 7216.908
388.8297, 7224.117
389.3119, 7185.012
389.7940, 7186.548
390.2761, 7205.621
390.7582, 7188.047
391.2403, 7195.672
391.7224, 7193.699
392.2046, 7148.113
392.6867, 7178.375
393.1688, 7175.835
393.6509, 7139.616
394.1330, 7143.732
394.6151, 7136.432
395.0973, 7160.471
395.5794, 7126.759
396.0615, 7150.302
396.5436, 7150.990
397.0257, 7162.137
397.5078, 7150.635
397.9900, 7146.128
398.4721, 7164.279
398.9542, 7169.885
399.4363, 7155.775
399.9184, 7167.587
400.4005, 7133.085
400.8827, 7139.225
401.3648, 7162.899
401.8469, 7149.928
402.3290, 7162.155
402.8111, 7164.785
403.2932, 7123.802
403.7754, 7158.667
404.2575, 7160.729
404.7396, 7129.113
405.2217, 7161.378
405.7038, 7134.404
406.1859, 7128.576
406.6681, 7138.659
407.1502, 7132.155
407.6323, 7151.804
408.1144, 7146.257
408.5965, 7138.459
409.0786, 7140.485
409.5608, 7114.673
410.0429, 7142.629
410.5250, 7154.158
411.0071, 7145.852
411.4892, 7126.066
411.9713, 7113.407
412.4535, 7108.233
412.9356, 7110.801
413.4177, 7134.515
413.8998, 7165.840
414.3819, 7175.172
414.8640, 7127.955
415.3462, 7072.956
415.8283, 7059.487
416.3104, 7082.234
416.7925, 7103.135
417.2746, 7094.482
417.7567, 7076.274
418.2388, 7067.637
418.7209, 7079.875
419.2031, 7091.114
419.6852, 7080.425
420.1673, 7061.247
420.6494, 7065.265
421.1315, 7141.882
421.6136, 7210.590
422.0958, 7230.910
422.5779, 7182.857
423.0600, 7142.610
423.5421, 7119.864
424.0242, 7108.959
424.5063, 7103.058
424.9885, 7103.508
425.4706, 7107.700
425.9527, 7122.690
426.4348, 7147.782
426.9169, 7138.772
427.3990, 7071.016
427.8812, 7002.793
428.3633, 6975.920
428.8454, 7000.200
429.3275, 7033.265
429.8096, 7078.000
430.2917, 7123.978
430.7739, 7139.165
431.2560, 7119.565
431.7381, 7094.632
432.2202, 7079.092
432.7023, 7071.821
433.1844, 7062.893
433.6666, 7051.221
434.1487, 7041.158
434.6308, 7034.146
435.1129, 7032.095
435.5950, 7044.476
436.0771, 7092.586
436.5593, 7146.249
437.0414, 7152.145
437.5235, 7113.818
438.0056, 7073.396
438.4877, 7058.916
438.9698, 7061.396
439.4520, 7070.334
439.9341, 7086.408
440.4162, 7102.531
440.8983, 7120.138
441.3804, 7134.701
441.8625, 7135.387
442.3447, 7099.082
442.8268, 7062.024
443.3089, 7045.158
443.7910, 7054.085
444.2731, 7065.491
444.7552, 7077.780
445.2374, 7088.572
445.7195, 7095.107
446.2016, 7089.492
446.6837, 7088.322
447.1658, 7101.259
447.6479, 7125.397
448.1301, 7126.128
448.6122, 7082.964
449.0943, 7040.964
449.5764, 7028.777
450.0585, 7057.446
450.5406, 7082.849
451.0227, 7104.608
451.5049, 7120.518
451.9870, 7124.911
452.4691, 7116.413
452.9512, 7104.512
453.4333, 7088.079
453.9154, 7069.778
454.3976, 7074.156
454.8797, 7104.224
455.3618, 7137.068
455.8439, 7144.968
456.3260, 7134.454
456.8081, 7130.190
457.2903, 7146.713
457.7724, 7162.597
458.2545, 7136.680
458.7366, 7078.697
459.2187, 7036.349
459.7008, 7047.833
460.1830, 7085.735
460.6651, 7125.340
461.1472, 7165.678
461.6293, 7196.391
462.1114, 7205.801
462.5935, 7202.747
463.0757, 7200.062
463.5578, 7213.840
464.0399, 7217.397
464.5220, 7188.947
465.0041, 7129.077
465.4862, 7096.861
465.9684, 7123.967
466.4505, 7166.454
466.9326, 7196.678
467.4147, 7208.028
467.8968, 7216.142
468.3789, 7223.028
468.8611, 7226.365
469.3432, 7218.191
469.8253, 7189.308
470.3074, 7169.043
470.7895, 7172.483
471.2716, 7200.947
471.7538, 7213.459
472.2359, 7207.510
472.7180, 7192.740
473.2001, 7175.068
473.6822, 7155.125
474.1643, 7146.121
474.6465, 7155.415
475.1286, 7172.447
475.6107, 7169.628
476.0928, 7150.642
476.5749, 7144.184
477.0570, 7194.263
477.5392, 7260.196
478.0213, 7269.891
478.5034, 7206.334
478.9855, 7143.082
479.4676, 7137.286
479.9497, 7168.551
480.4319, 7205.937
480.9140, 7253.093
481.3961, 7289.403
481.8782, 7304.292
482.3603, 7298.783
482.8424, 7282.646
483.3245, 7239.913
483.8066, 7200.663
484.2888, 7183.716
484.7709, 7207.478
485.2530, 7225.989
485.7351, 7235.675
486.2172, 7239.848
486.6993, 7243.751
487.1815, 7245.581
487.6636, 7250.773
488.1457, 7264.687
488.6278, 7286.656
489.1099, 7287.156
489.5920, 7258.977
490.0742, 7228.069
490.5563, 7214.455
491.0384, 7218.047
491.5205, 7239.036
492.0026, 7285.128
492.4847, 7333.553
492.9669, 7337.807
493.4490, 7303.783
493.9311, 7270.281
494.4132, 7249.220
494.8953, 7244.126
495.3774, 7269.579
495.8596, 7325.864
496.3417, 7376.412
496.8238, 7397.017
497.3059, 7394.449
497.7880, 7374.602
498.2701, 7317.994
498.7523, 7272.734
499.2344, 7273.435
499.7165, 7303.587
500.1986, 7319.316
500.6807, 7280.068
501.1628, 7248.469
501.6450, 7257.456
502.1271, 7326.572
502.6092, 7367.732
503.0913, 7362.715
503.5734, 7340.329
504.0555, 7324.833
504.5377, 7315.471
505.0198, 7315.675
505.5019, 7328.966
505.9840, 7351.228
506.4661, 7369.339
506.9482, 7383.883
507.4304, 7390.811
507.9125, 7382.211
508.3946, 7360.816
508.8767, 7355.899
509.3588, 7370.464
509.8409, 7387.357
510.3231, 7383.343
510.8052, 7365.725
511.2873, 7356.390
511.7694, 7367.034
512.2515, 7382.884
512.7336, 7389.912
513.2158, 7388.849
513.6979, 7382.485
514.1800, 7358.353
514.6621, 7338.929
515.1442, 7346.478
515.6263, 7391.753
516.1085, 7424.395
516.5906, 7407.316
517.0727, 7377.627
517.5548, 7374.577
518.0369, 7449.367
518.5190, 7498.542
519.0012, 7496.340
519.4833, 7454.906
519.9654, 7432.738
520.4475, 7441.679
520.9296, 7450.909
521.4117, 7442.073
521.8939, 7408.551
522.3760, 7404.016
522.8581, 7436.949
523.3402, 7478.387
523.8223, 7489.928
524.3044, 7473.430
524.7866, 7463.392
525.2687, 7474.795
525.7508, 7490.908
526.2329, 7468.642
526.7150, 7416.032
527.1971, 7383.697
527.6793, 7426.006
528.1614, 7494.944
528.6435, 7529.639
529.1256, 7521.490
529.6077, 7508.991
530.0898, 7515.673
530.5720, 7531.378
531.0541, 7544.425
531.5362, 7557.354
532.0182, 7561.021
532.5004, 7546.154
532.9825, 7518.326
533.4646, 7499.694
533.9467, 7492.805
534.4288, 7495.212
534.9109, 7510.021
535.3931, 7542.990
535.8752, 7556.867
536.3573, 7543.404
536.8394, 7523.108
537.3215, 7515.694
537.8036, 7521.514
538.2858, 7539.835
538.7679, 7577.141
539.2500, 7618.097
539.7321, 7626.293
540.2142, 7603.880
540.6964, 7573.311
541.1785, 7537.344
541.6606, 7504.630
542.1427, 7493.463
542.6248, 7504.319
543.1069, 7520.945
543.5891, 7534.298
544.0712, 7545.335
544.5533, 7554.657
545.0354, 7559.205
545.5175, 7567.361
545.9996, 7590.385
546.4818, 7619.114
546.9639, 7633.825
547.4460, 7612.567
547.9281, 7594.563
548.4102, 7591.815
548.8923, 7605.097
549.3745, 7621.258
549.8566, 7646.150
550.3387, 7666.429
550.8208, 7670.667
551.3029, 7654.425
551.7850, 7643.993
552.2672, 7640.594
552.7493, 7644.710
553.2314, 7666.640
553.7135, 7704.421
554.1956, 7719.488
554.6777, 7680.572
555.1599, 7619.671
555.6420, 7600.765
556.1241, 7619.473
556.6062, 7638.489
557.0883, 7621.870
557.5704, 7597.018
558.0526, 7596.826
558.5347, 7632.145
559.0168, 7668.205
559.4989, 7697.067
559.9810, 7714.271
560.4631, 7714.334
560.9453, 7671.680
561.4274, 7638.405
561.9095, 7634.595
562.3916, 7651.369
562.8737, 7649.624
563.3558, 7613.726
563.8380, 7582.402
564.3201, 7570.413
564.8022, 7577.903
565.2843, 7608.663
565.7664, 7672.660
566.2485, 7732.232
566.7307, 7737.109
567.2128, 7694.790
567.6949, 7670.773
568.1770, 7682.123
568.6591, 7710.073
569.1412, 7731.425
569.6234, 7746.765
570.1055, 7758.010
570.5876, 7774.775
571.0697, 7781.966
571.5518, 7757.987
572.0339, 7704.544
572.5161, 7661.164
572.9982, 7648.602
573.4803, 7651.397
573.9624, 7658.831
574.4445, 7669.458
574.9266, 7684.794
575.4088, 7718.413
575.8909, 7750.864
576.3730, 7752.873
576.8551, 7702.371
577.3372, 7668.730
577.8193, 7672.703
578.3015, 7703.574
578.7836, 7707.263
579.2657, 7657.247
579.7478, 7681.544
580.2299, 7694.334
580.7120, 7696.237
581.1942, 7654.638
581.6763, 7669.211
582.1584, 7661.273
582.6405, 7652.413
583.1226, 7674.892
583.6047, 7639.621
584.0869, 7661.602
584.5690, 7660.730
585.0511, 7670.318
585.5332, 7657.255
586.0153, 7651.188
586.4974, 7667.780
586.9796, 7671.824
587.4617, 7634.372
587.9438, 7660.025
588.4259, 7675.784
588.9080, 7675.501
589.3901, 7672.549
589.8723, 7675.911
590.3544, 7689.075
590.8365, 7691.971
591.3186, 7681.380
591.8007, 7666.280
592.2828, 7658.895
592.7650, 7658.669
593.2471, 7660.207
593.7292, 7666.076
594.2113, 7667.652
594.6934, 7638.430
595.1755, 7588.959
595.6577, 7561.598
596.1398, 7613.651
596.6219, 7675.490
597.1040, 7678.535
597.5861, 7616.708
598.0682, 7571.756
598.5503, 7595.897
599.0324, 7636.226
599.5145, 7654.471
599.9966, 7621.043
600.4788, 7602.898
600.9609, 7606.274
601.4430, 7622.431
601.9251, 7641.651
602.4072, 7671.133
602.8893, 7679.629
603.3715, 7652.992
603.8536, 7602.728
604.3357, 7568.852
604.8178, 7551.199
605.2999, 7542.384
605.7820, 7544.764
606.2642, 7551.109
606.7463, 7542.498
607.2284, 7517.508
607.7105, 7497.105
608.1926, 7503.142
608.6747, 7519.822
609.1569, 7527.814
609.6390, 7511.064
610.1211, 7505.957
610.6032, 7535.257
611.0853, 7582.340
611.5674, 7619.968
612.0496, 7663.464
612.5317, 7672.435
613.0138, 7620.357
613.4959, 7522.667
613.9780, 7477.075
614.4601, 7498.106
614.9423, 7531.238
615.4244, 7550.299
615.9065, 7555.825
616.3886, 7559.317
616.8707, 7561.498
617.3528, 7555.602
617.8350, 7523.622
618.3171, 7480.060
618.7992, 7456.997
619.2813, 7466.256
619.7634, 7484.685
620.2455, 7493.741
620.7277, 7499.553
621.2098, 7512.817
621.6919, 7563.450
622.1740, 7595.129
622.6561, 7579.825
623.1382, 7523.728
623.6204, 7476.686
624.1025, 7442.871
624.5846, 7415.081
625.0667, 7387.396
625.5488, 7357.806
626.0309, 7356.975
626.5131, 7394.146
626.9952, 7431.755
627.4773, 7424.091
627.9594, 7380.505
628.4415, 7366.062
628.9236, 7395.045
629.4058, 7437.627
629.8879, 7465.709
630.3700, 7481.138
630.8521, 7487.718
631.3342, 7484.573
631.8163, 7475.225
632.2985, 7458.004
632.7806, 7435.597
633.2627, 7417.014
633.7448, 7400.599
634.2269, 7392.355
634.7090, 7397.387
635.1912, 7416.855
635.6733, 7432.799
636.1554, 7449.881
636.6375, 7455.605
637.1196, 7431.638
637.6017, 7374.636
638.0839, 7352.143
638.5660, 7374.427
639.0481, 7410.770
639.5302, 7423.944
640.0123, 7418.859
640.4944, 7411.475
640.9766, 7404.857
641.4587, 7400.339
641.9408, 7405.658
642.4229, 7414.207
642.9050, 7409.933
643.3871, 7377.388
643.8693, 7338.675
644.3514, 7291.978
644.8335, 7238.359
645.3156, 7224.703
645.7977, 7282.852
646.2798, 7345.975
646.7620, 7384.801
647.2441, 7396.591
647.7262, 7397.483
648.2083, 7386.516
648.6904, 7367.236
649.1725, 7332.271
649.6547, 7287.825
650.1368, 7276.933
650.6189, 7317.584
651.1010, 7364.497
651.5831, 7357.913
652.0652, 7317.689
652.5474, 7285.372
653.0295, 7279.519
653.5116, 7284.867
653.9937, 7304.083
654.4758, 7330.486
654.9579, 7338.917
655.4401, 7292.579
655.9222, 7259.289
656.4043, 7269.932
656.8864, 7327.008
657.3685, 7351.430
657.8506, 7333.697
658.3328, 7304.250
