##NAMES=Caryopilite
##RRUFFID=R070180
##IDEAL CHEMISTRY=Mn^2+^_3_Si_2_O_5_(OH)_4_
##LOCALITY=Gambatesa Mine, Graveglia Valley, Ne, Genova Province, Liguria, Italy
##OWNER=RRUFF
##SOURCE=Michael Scott
##DESCRIPTION=Spherical aggregates of brown thin platelets
##STATUS=The identification of this mineral has been confirmed only by X-ray diffraction
##URL=rruff.info/R070180
185.4312, 7157.921
185.9134, 7178.859
186.3955, 7188.022
186.8776, 7197.014
187.3597, 7214.526
187.8418, 7239.208
188.3239, 7263.789
188.8061, 7294.303
189.2882, 7314.635
189.7703, 7303.703
190.2524, 7264.658
190.7345, 7236.780
191.2166, 7257.416
191.6988, 7318.146
192.1809, 7359.938
192.6630, 7367.334
193.1451, 7362.600
193.6272, 7361.815
194.1093, 7364.535
194.5915, 7367.167
195.0736, 7362.080
195.5557, 7352.460
196.0378, 7360.669
196.5199, 7400.652
197.0020, 7443.044
197.4842, 7471.227
197.9663, 7486.405
198.4484, 7493.191
198.9305, 7487.702
199.4126, 7473.946
199.8947, 7475.045
200.3769, 7503.561
200.8590, 7530.144
201.3411, 7536.746
201.8232, 7528.945
202.3053, 7520.180
202.7874, 7517.142
203.2696, 7519.319
203.7517, 7526.211
204.2338, 7545.236
204.7159, 7556.111
205.1980, 7539.848
205.6801, 7510.205
206.1623, 7493.409
206.6444, 7508.047
207.1265, 7544.167
207.6086, 7571.376
208.0907, 7587.176
208.5728, 7598.131
209.0549, 7610.128
209.5371, 7619.300
210.0192, 7618.308
210.5013, 7599.275
210.9834, 7572.272
211.4655, 7562.076
211.9476, 7575.116
212.4298, 7590.890
212.9119, 7604.240
213.3940, 7614.898
213.8761, 7621.646
214.3582, 7623.266
214.8403, 7622.400
215.3225, 7623.334
215.8046, 7625.729
216.2867, 7631.042
216.7688, 7646.642
217.2509, 7662.086
217.7330, 7664.503
218.2152, 7647.759
218.6973, 7628.196
219.1794, 7634.134
219.6615, 7675.019
220.1436, 7702.762
220.6257, 7678.998
221.1079, 7651.358
221.5900, 7660.109
222.0721, 7715.302
222.5542, 7779.807
223.0363, 7807.458
223.5184, 7793.045
224.0006, 7781.548
224.4827, 7787.560
224.9648, 7795.466
225.4469, 7793.232
225.9290, 7780.137
226.4111, 7768.324
226.8933, 7771.083
227.3754, 7788.862
227.8575, 7805.116
228.3396, 7819.354
228.8217, 7829.755
229.3038, 7837.020
229.7860, 7840.443
230.2681, 7836.673
230.7502, 7816.449
231.2323, 7782.315
231.7144, 7763.774
232.1965, 7769.272
232.6787, 7783.491
233.1608, 7801.560
233.6429, 7820.901
234.1250, 7834.662
234.6071, 7836.369
235.0892, 7828.555
235.5714, 7820.965
236.0535, 7808.845
236.5356, 7805.937
237.0177, 7820.106
237.4998, 7847.115
237.9819, 7880.979
238.4641, 7926.538
238.9462, 7973.072
239.4283, 7996.364
239.9104, 7992.277
240.3925, 7975.199
240.8746, 7937.626
241.3568, 7895.798
241.8389, 7871.909
242.3210, 7878.776
242.8031, 7898.223
243.2852, 7902.492
243.7673, 7887.713
244.2495, 7879.169
244.7316, 7896.176
245.2137, 7920.365
245.6958, 7933.079
246.1779, 7928.913
246.6600, 7919.384
247.1422, 7913.480
247.6243, 7911.206
248.1064, 7916.746
248.5885, 7944.810
249.0706, 7969.774
249.5527, 7959.708
250.0349, 7909.044
250.5170, 7864.768
250.9991, 7869.231
251.4812, 7912.540
251.9633, 7938.702
252.4454, 7930.368
252.9276, 7909.721
253.4097, 7897.066
253.8918, 7891.893
254.3739, 7891.168
254.8560, 7895.411
255.3382, 7902.896
255.8203, 7910.668
256.3024, 7919.861
256.7845, 7925.280
257.2666, 7915.839
257.7487, 7897.148
258.2308, 7888.629
258.7130, 7899.323
259.1951, 7921.814
259.6772, 7949.973
260.1593, 7984.765
260.6414, 8014.356
261.1235, 8031.192
261.6057, 8036.052
262.0878, 8032.275
262.5699, 8007.858
263.0520, 7985.083
263.5341, 7987.051
264.0162, 8010.904
264.4984, 8029.370
264.9805, 8025.250
265.4626, 8008.334
265.9447, 8005.198
266.4268, 8023.151
266.9089, 8041.734
267.3911, 8049.758
267.8732, 8050.446
268.3553, 8051.979
268.8374, 8056.757
269.3195, 8064.771
269.8016, 8078.644
270.2838, 8102.115
270.7659, 8117.029
271.2480, 8112.736
271.7301, 8099.176
272.2122, 8090.218
272.6943, 8089.196
273.1765, 8090.862
273.6586, 8089.655
274.1407, 8085.641
274.6228, 8076.718
275.1049, 8052.228
275.5870, 8029.782
276.0692, 8026.449
276.5513, 8042.142
277.0334, 8062.460
277.5155, 8075.917
277.9976, 8082.172
278.4797, 8088.729
278.9619, 8092.052
279.4440, 8099.002
279.9261, 8120.600
280.4082, 8149.206
280.8903, 8161.892
281.3724, 8142.241
281.8546, 8100.539
282.3367, 8089.342
282.8188, 8146.182
283.3009, 8186.788
283.7830, 8183.247
284.2651, 8160.687
284.7473, 8153.904
285.2294, 8176.198
285.7115, 8211.635
286.1936, 8228.010
286.6757, 8205.957
287.1578, 8195.186
287.6400, 8208.367
288.1221, 8223.451
288.6042, 8220.882
289.0863, 8199.365
289.5684, 8174.708
290.0505, 8165.805
290.5327, 8176.734
291.0148, 8184.831
291.4969, 8188.822
291.9790, 8191.474
292.4611, 8194.000
292.9432, 8196.148
293.4254, 8196.682
293.9075, 8194.103
294.3896, 8189.087
294.8717, 8188.673
295.3538, 8200.420
295.8359, 8206.992
296.3181, 8203.044
296.8002, 8192.321
297.2823, 8177.535
297.7644, 8158.831
298.2465, 8142.333
298.7286, 8141.785
299.2108, 8161.965
299.6929, 8185.848
300.1750, 8217.161
300.6571, 8246.110
301.1392, 8264.860
301.6213, 8272.198
302.1035, 8273.132
302.5856, 8271.936
303.0677, 8268.562
303.5498, 8264.565
304.0319, 8259.185
304.5140, 8254.279
304.9962, 8249.476
305.4783, 8245.627
305.9604, 8245.993
306.4425, 8255.307
306.9246, 8270.232
307.4067, 8282.371
307.8889, 8292.792
308.3710, 8296.921
308.8531, 8284.738
309.3352, 8265.324
309.8173, 8252.889
310.2994, 8248.364
310.7816, 8255.270
311.2637, 8289.213
311.7458, 8348.282
312.2279, 8382.871
312.7100, 8358.784
313.1921, 8306.999
313.6743, 8285.563
314.1564, 8302.763
314.6385, 8324.324
315.1206, 8342.786
315.6027, 8353.088
316.0848, 8338.327
316.5670, 8289.253
317.0491, 8234.398
317.5312, 8210.114
318.0133, 8217.585
318.4954, 8235.395
318.9775, 8283.200
319.4597, 8325.607
319.9418, 8320.188
320.4239, 8269.662
320.9060, 8222.132
321.3881, 8217.917
321.8702, 8254.599
322.3524, 8271.252
322.8345, 8253.594
323.3166, 8234.840
323.7987, 8223.624
324.2808, 8220.032
324.7629, 8225.011
325.2451, 8239.534
325.7272, 8258.333
326.2093, 8268.346
326.6914, 8263.200
327.1735, 8256.969
327.6556, 8248.634
328.1378, 8240.025
328.6199, 8233.506
329.1020, 8229.024
329.5841, 8223.289
330.0662, 8210.903
330.5483, 8188.498
331.0305, 8177.688
331.5126, 8191.212
331.9947, 8203.827
332.4768, 8205.597
332.9589, 8199.286
333.4410, 8192.512
333.9232, 8190.292
334.4053, 8191.050
334.8874, 8189.520
335.3695, 8188.211
335.8516, 8179.278
336.3337, 8147.174
336.8159, 8114.004
337.2980, 8105.355
337.7801, 8129.596
338.2622, 8162.254
338.7443, 8172.634
339.2264, 8159.678
339.7086, 8151.870
340.1907, 8157.354
340.6728, 8166.308
341.1549, 8172.969
341.6370, 8176.913
342.1191, 8176.011
342.6013, 8161.048
343.0834, 8142.049
343.5655, 8146.049
344.0476, 8180.364
344.5297, 8207.729
345.0118, 8193.926
345.4940, 8154.713
345.9761, 8131.859
346.4582, 8139.094
346.9403, 8153.621
347.4224, 8163.735
347.9045, 8168.799
348.3867, 8164.699
348.8688, 8147.219
349.3509, 8124.667
349.8330, 8113.469
350.3151, 8114.522
350.7972, 8121.285
351.2794, 8137.628
351.7615, 8156.387
352.2436, 8174.058
352.7257, 8188.702
353.2078, 8191.763
353.6899, 8171.883
354.1721, 8125.550
354.6542, 8098.094
355.1363, 8099.089
355.6184, 8104.881
356.1005, 8108.475
356.5826, 8110.216
357.0648, 8112.150
357.5469, 8115.374
358.0290, 8119.242
358.5111, 8121.503
358.9932, 8118.111
359.4753, 8120.435
359.9575, 8131.470
360.4396, 8146.203
360.9217, 8167.934
361.4038, 8193.370
361.8859, 8205.594
362.3680, 8175.631
362.8502, 8100.722
363.3322, 8063.522
363.8144, 8087.551
364.2965, 8122.542
364.7786, 8154.837
365.2607, 8180.312
365.7428, 8190.687
366.2249, 8176.304
366.7071, 8152.632
367.1892, 8147.507
367.6713, 8163.474
368.1534, 8173.915
368.6355, 8165.777
369.1176, 8149.682
369.5998, 8135.810
370.0819, 8123.099
370.5640, 8122.340
371.0461, 8149.478
371.5282, 8191.120
372.0103, 8218.024
372.4925, 8224.273
372.9746, 8222.827
373.4567, 8225.450
373.9388, 8231.743
374.4209, 8232.364
374.9030, 8220.785
375.3852, 8209.008
375.8673, 8203.125
376.3494, 8202.930
376.8315, 8208.381
377.3136, 8220.484
377.7957, 8234.942
378.2779, 8240.376
378.7600, 8219.139
379.2421, 8213.141
379.7242, 8240.223
380.2063, 8271.657
380.6884, 8278.707
381.1706, 8260.771
381.6527, 8242.631
382.1348, 8251.785
382.6169, 8290.474
383.0990, 8312.434
383.5811, 8298.784
384.0633, 8287.863
384.5454, 8296.485
385.0275, 8312.188
385.5096, 8314.778
385.9917, 8294.181
386.4738, 8262.954
386.9560, 8238.852
387.4381, 8219.999
387.9202, 8220.406
388.4023, 8266.367
388.8844, 8313.618
389.3665, 8328.288
389.8487, 8310.841
390.3308, 8286.618
390.8129, 8257.567
391.2950, 8234.548
391.7771, 8248.710
392.2592, 8308.189
392.7414, 8365.114
393.2235, 8388.159
393.7056, 8384.040
394.1877, 8377.343
394.6698, 8365.047
395.1519, 8355.400
395.6341, 8356.041
396.1162, 8362.073
396.5983, 8360.546
397.0804, 8346.445
397.5625, 8333.064
398.0446, 8341.957
398.5268, 8387.154
399.0089, 8409.039
399.4910, 8388.770
399.9731, 8362.408
400.4552, 8352.205
400.9373, 8354.998
401.4195, 8354.576
401.9016, 8339.318
402.3837, 8315.081
402.8658, 8307.128
403.3479, 8328.237
403.8300, 8346.381
404.3122, 8363.615
404.7943, 8372.901
405.2764, 8363.005
405.7585, 8334.313
406.2406, 8305.959
406.7227, 8302.085
407.2049, 8321.251
407.6870, 8325.812
408.1691, 8308.896
408.6512, 8286.522
409.1333, 8262.918
409.6154, 8241.022
410.0976, 8226.511
410.5797, 8222.650
411.0618, 8224.684
411.5439, 8232.058
412.0260, 8243.024
412.5081, 8243.238
412.9903, 8223.665
413.4724, 8198.505
413.9545, 8193.280
414.4366, 8210.615
414.9187, 8215.961
415.4008, 8189.106
415.8830, 8157.057
416.3651, 8147.390
416.8472, 8158.115
417.3293, 8167.502
417.8114, 8160.882
418.2935, 8140.764
418.7757, 8121.401
419.2578, 8091.271
419.7399, 8076.730
420.2220, 8094.673
420.7041, 8121.309
421.1862, 8134.675
421.6684, 8130.004
422.1505, 8115.751
422.6326, 8100.303
423.1147, 8083.599
423.5968, 8066.148
424.0789, 8042.212
424.5611, 8025.233
425.0432, 8023.195
425.5253, 8030.055
426.0074, 8037.399
426.4895, 8043.303
426.9716, 8045.155
427.4538, 8036.653
427.9359, 8018.413
428.4180, 8005.516
428.9001, 8002.174
429.3822, 8004.761
429.8643, 8014.403
430.3465, 8030.192
430.8286, 8032.623
431.3107, 8001.783
431.7928, 7965.548
432.2749, 7950.736
432.7570, 7956.322
433.2392, 7969.477
433.7213, 7984.707
434.2034, 8000.095
434.6855, 8009.228
435.1676, 8006.755
435.6497, 8005.511
436.1319, 8011.976
436.6140, 8016.058
437.0961, 8004.921
437.5782, 7980.242
438.0603, 7957.868
438.5424, 7953.535
439.0246, 7965.800
439.5067, 7970.876
439.9888, 7967.036
440.4709, 7957.864
440.9530, 7930.479
441.4352, 7905.491
441.9173, 7914.625
442.3994, 7968.266
442.8815, 8016.276
443.3636, 7990.429
443.8457, 7905.083
444.3279, 7868.054
444.8100, 7912.380
445.2921, 7963.991
445.7742, 7949.823
446.2563, 7892.950
446.7384, 7861.978
447.2206, 7896.871
447.7027, 7935.285
448.1848, 7931.374
448.6669, 7898.221
449.1490, 7867.732
449.6311, 7850.394
450.1133, 7845.039
450.5954, 7850.952
451.0775, 7873.931
451.5596, 7891.508
452.0417, 7910.582
452.5238, 7918.439
453.0060, 7895.462
453.4881, 7856.098
453.9702, 7836.787
454.4523, 7861.017
454.9344, 7904.864
455.4165, 7899.255
455.8987, 7815.669
456.3808, 7761.909
456.8629, 7782.252
457.3450, 7818.210
457.8271, 7838.851
458.3092, 7842.839
458.7914, 7841.445
459.2735, 7842.275
459.7556, 7841.999
460.2377, 7827.630
460.7198, 7797.231
461.2019, 7785.690
461.6841, 7820.203
462.1662, 7876.729
462.6483, 7903.855
463.1304, 7893.544
463.6125, 7879.283
464.0946, 7867.482
464.5768, 7858.109
465.0589, 7850.967
465.5410, 7846.158
466.0231, 7844.028
466.5052, 7844.601
466.9873, 7848.168
467.4695, 7857.522
467.9516, 7894.271
468.4337, 7908.637
468.9158, 7874.521
469.3979, 7827.972
469.8800, 7803.373
470.3622, 7806.370
470.8443, 7818.614
471.3264, 7820.396
471.8085, 7813.664
472.2906, 7821.667
472.7727, 7854.404
473.2549, 7879.822
473.7370, 7871.447
474.2191, 7848.090
474.7012, 7836.111
475.1833, 7845.192
475.6654, 7851.011
476.1476, 7829.621
476.6297, 7795.683
477.1118, 7780.519
477.5939, 7790.379
478.0760, 7810.520
478.5581, 7831.333
479.0403, 7852.730
479.5224, 7853.453
480.0045, 7810.339
480.4866, 7777.057
480.9687, 7774.183
481.4508, 7787.380
481.9330, 7799.360
482.4151, 7804.575
482.8972, 7805.482
483.3793, 7803.708
483.8614, 7798.521
484.3435, 7799.324
484.8257, 7812.174
485.3078, 7822.783
485.7899, 7821.936
486.2720, 7816.457
486.7541, 7818.710
487.2362, 7835.750
487.7183, 7849.534
488.2004, 7833.951
488.6826, 7799.846
489.1647, 7792.540
489.6468, 7826.062
490.1289, 7863.529
490.6110, 7868.426
491.0931, 7840.718
491.5753, 7826.627
492.0574, 7836.226
492.5395, 7848.043
493.0216, 7852.412
493.5037, 7853.791
493.9858, 7859.093
494.4680, 7870.451
494.9501, 7885.779
495.4322, 7904.306
495.9143, 7928.286
496.3964, 7938.468
496.8785, 7923.902
497.3607, 7907.458
497.8428, 7893.258
498.3249, 7882.954
498.8070, 7878.519
499.2891, 7880.709
499.7712, 7888.470
500.2534, 7907.835
500.7355, 7933.927
501.2176, 7938.237
501.6997, 7909.963
502.1818, 7880.541
502.6639, 7877.849
503.1461, 7898.854
503.6282, 7913.729
504.1103, 7923.586
504.5924, 7925.208
505.0745, 7912.252
505.5566, 7891.985
506.0388, 7874.636
506.5209, 7862.938
507.0030, 7853.727
507.4851, 7841.953
507.9672, 7826.457
508.4493, 7825.687
508.9315, 7857.011
509.4136, 7881.717
509.8957, 7886.053
510.3778, 7879.957
510.8599, 7875.483
511.3420, 7875.950
511.8242, 7876.219
512.3063, 7867.885
512.7884, 7854.837
513.2705, 7856.911
513.7526, 7880.918
514.2347, 7895.718
514.7169, 7873.860
515.1990, 7825.453
515.6811, 7794.974
516.1632, 7792.056
516.6453, 7792.391
517.1274, 7789.916
517.6096, 7786.043
518.0917, 7785.056
518.5738, 7786.068
519.0559, 7779.770
519.5380, 7755.996
520.0201, 7717.104
520.5023, 7688.079
520.9844, 7668.429
521.4665, 7660.371
521.9486, 7672.201
522.4307, 7689.140
522.9128, 7699.591
523.3950, 7701.644
523.8771, 7697.691
524.3592, 7687.837
524.8413, 7673.557
525.3234, 7654.357
525.8055, 7629.699
526.2877, 7617.113
526.7698, 7631.218
527.2519, 7657.655
527.7340, 7659.309
528.2161, 7624.295
528.6982, 7600.278
529.1804, 7596.217
529.6625, 7603.533
530.1446, 7624.824
530.6267, 7652.416
531.1088, 7665.519
531.5909, 7650.208
532.0731, 7617.602
532.5552, 7597.091
533.0373, 7592.983
533.5194, 7587.340
534.0015, 7568.244
534.4836, 7555.980
534.9658, 7566.871
535.4479, 7595.796
535.9300, 7623.492
536.4121, 7650.585
536.8942, 7664.396
537.3763, 7639.658
537.8585, 7587.125
538.3406, 7552.342
538.8227, 7550.886
539.3048, 7564.460
539.7869, 7571.264
540.2690, 7570.102
540.7512, 7569.279
541.2333, 7573.541
541.7154, 7572.852
542.1975, 7558.102
542.6796, 7538.271
543.1617, 7526.292
543.6439, 7526.160
544.1260, 7530.587
544.6081, 7532.881
545.0902, 7532.877
545.5723, 7524.646
546.0544, 7503.707
546.5366, 7484.101
547.0187, 7472.507
547.5008, 7467.505
547.9829, 7468.105
548.4650, 7476.827
548.9471, 7483.694
549.4293, 7482.948
549.9114, 7478.366
550.3935, 7472.963
550.8756, 7467.932
551.3577, 7467.561
551.8398, 7475.838
552.3220, 7489.443
552.8041, 7494.482
553.2862, 7484.547
553.7683, 7476.880
554.2504, 7470.481
554.7325, 7468.327
555.2147, 7480.391
555.6968, 7499.813
556.1789, 7502.843
556.6610, 7468.173
557.1431, 7419.604
557.6252, 7391.285
558.1074, 7382.499
558.5895, 7388.091
559.0716, 7410.951
559.5537, 7437.130
560.0358, 7450.366
560.5179, 7449.149
561.0001, 7449.268
561.4822, 7454.238
561.9643, 7456.944
562.4464, 7454.650
562.9285, 7448.100
563.4106, 7434.927
563.8928, 7415.874
564.3749, 7402.281
564.8570, 7411.143
565.3391, 7441.551
565.8212, 7458.435
566.3033, 7456.189
566.7855, 7451.912
567.2676, 7454.710
567.7497, 7458.498
568.2318, 7455.398
568.7139, 7443.595
569.1960, 7432.117
569.6782, 7422.909
570.1603, 7417.551
570.6424, 7418.171
571.1245, 7424.539
571.6066, 7435.854
572.0887, 7452.397
572.5709, 7470.437
573.0530, 7480.660
573.5351, 7479.677
574.0172, 7478.015
574.4993, 7473.606
574.9814, 7470.586
575.4636, 7472.168
575.9457, 7476.383
576.4278, 7478.122
576.9099, 7473.625
577.3920, 7471.811
577.8741, 7486.319
578.3563, 7512.452
578.8384, 7532.750
579.3205, 7544.676
579.8026, 7547.511
580.2847, 7538.760
580.7668, 7519.970
581.2490, 7503.461
581.7311, 7477.891
582.2132, 7469.164
582.6953, 7492.614
583.1774, 7526.760
583.6595, 7557.994
584.1417, 7581.797
584.6238, 7594.217
585.1059, 7589.909
585.5880, 7575.582
586.0701, 7569.070
586.5522, 7571.608
587.0344, 7571.041
587.5165, 7559.663
587.9986, 7550.284
588.4807, 7559.794
588.9628, 7585.091
589.4449, 7604.402
589.9271, 7616.730
590.4092, 7619.573
590.8913, 7599.368
591.3734, 7572.832
591.8555, 7571.316
592.3376, 7600.402
592.8198, 7634.122
593.3019, 7644.745
593.7840, 7633.792
594.2661, 7624.703
594.7482, 7613.022
595.2303, 7612.313
595.7125, 7637.352
596.1946, 7668.393
596.6767, 7690.327
597.1588, 7701.962
597.6409, 7705.485
598.1230, 7693.694
598.6052, 7680.405
599.0873, 7677.841
599.5694, 7686.075
600.0515, 7705.883
600.5336, 7738.104
601.0157, 7773.782
601.4979, 7801.333
601.9800, 7821.608
602.4621, 7827.994
602.9442, 7808.470
603.4263, 7788.762
603.9084, 7768.777
604.3906, 7755.417
604.8727, 7760.016
605.3548, 7784.695
605.8369, 7809.714
606.3190, 7818.767
606.8011, 7819.789
607.2833, 7827.943
607.7654, 7843.339
608.2475, 7858.901
608.7296, 7872.333
609.2117, 7881.487
609.6938, 7881.349
610.1760, 7866.345
610.6581, 7857.976
611.1402, 7853.805
611.6223, 7858.180
612.1044, 7885.648
612.5865, 7918.573
613.0687, 7925.260
613.5508, 7895.356
614.0329, 7864.267
614.5150, 7873.722
614.9971, 7910.954
615.4792, 7934.625
615.9614, 7942.252
616.4435, 7934.846
616.9256, 7907.973
617.4077, 7871.310
617.8898, 7847.842
618.3719, 7843.340
618.8541, 7838.294
619.3362, 7824.945
619.8183, 7817.620
620.3004, 7836.335
620.7825, 7864.642
621.2646, 7867.860
621.7468, 7831.460
622.2289, 7785.227
622.7110, 7768.185
623.1931, 7775.766
623.6752, 7775.453
624.1573, 7762.394
624.6395, 7754.156
625.1216, 7764.906
625.6037, 7785.178
626.0858, 7789.300
626.5679, 7770.881
627.0500, 7755.563
627.5322, 7740.485
628.0143, 7735.375
628.4964, 7757.395
628.9785, 7793.469
629.4606, 7814.894
629.9427, 7808.683
630.4249, 7787.147
630.9070, 7763.949
631.3891, 7739.643
631.8712, 7723.619
632.3533, 7719.396
632.8354, 7713.823
633.3176, 7696.086
633.7997, 7673.408
634.2818, 7664.053
634.7639, 7674.979
635.2460, 7679.785
635.7281, 7666.062
636.2103, 7650.812
636.6924, 7647.172
637.1745, 7652.236
637.6566, 7658.189
638.1387, 7661.645
638.6208, 7659.927
639.1030, 7644.844
639.5851, 7617.048
640.0672, 7603.947
640.5493, 7612.221
641.0314, 7620.041
641.5135, 7618.826
641.9957, 7607.565
642.4778, 7581.230
642.9599, 7528.410
643.4420, 7496.587
643.9241, 7510.795
644.4063, 7535.644
644.8884, 7552.454
645.3705, 7558.206
645.8526, 7550.897
646.3347, 7529.735
646.8168, 7500.232
647.2990, 7463.366
647.7811, 7420.636
648.2632, 7404.678
648.7453, 7424.557
649.2274, 7444.344
649.7095, 7443.092
650.1917, 7432.733
650.6738, 7439.867
651.1559, 7473.051
651.6380, 7487.166
652.1201, 7455.191
652.6022, 7420.697
653.0844, 7412.075
653.5665, 7421.680
654.0486, 7437.239
654.5307, 7453.237
655.0128, 7456.815
655.4949, 7422.882
655.9771, 7358.200
656.4592, 7317.534
656.9413, 7303.947
657.4234, 7302.703
657.9055, 7311.358
658.3876, 7325.497
658.8698, 7342.029
659.3519, 7365.169
659.8340, 7366.164
660.3161, 7313.677
660.7982, 7269.036
661.2803, 7273.466
661.7625, 7300.834
662.2446, 7311.531
662.7267, 7295.240
663.2088, 7269.529
663.6909, 7247.473
664.1730, 7230.105
664.6552, 7221.977
665.1373, 7223.616
665.6194, 7227.962
666.1015, 7234.000
666.5836, 7239.284
667.0657, 7242.171
667.5479, 7243.273
668.0300, 7233.062
668.5121, 7197.787
668.9942, 7168.124
669.4763, 7162.040
669.9584, 7161.305
670.4406, 7140.944
670.9227, 7101.218
671.4048, 7068.646
671.8868, 7064.874
672.3690, 7077.435
672.8511, 7082.634
673.3332, 7081.533
673.8153, 7087.365
674.2974, 7106.104
674.7795, 7119.696
675.2617, 7107.952
675.7438, 7072.630
676.2259, 7047.689
676.7080, 7037.896
677.1901, 7032.083
677.6722, 7031.201
678.1544, 7032.307
678.6365, 7036.617
679.1186, 7041.181
679.6007, 7036.781
680.0828, 7014.340
680.5649, 6990.911
681.0471, 6989.961
681.5292, 7002.776
682.0113, 7004.881
682.4934, 6992.445
682.9755, 6973.701
