##NAMES=Caryochroite
##RRUFFID=R070008
##IDEAL CHEMISTRY=(Na,Sr)_3_(Fe^3+^,Mg)_10_Ti^4+^_2_Si_12_O_37_(H_2_O,O,OH)_17_
##LOCALITY=Umbozero mine, Alluaiv Mt., Lovozero massif, Kola Peninsula, Russia
##OWNER=RRUFF
##SOURCE=Michael Scott
##DESCRIPTION=Dark brown massive, very fine grained
##STATUS=The identification of this mineral is not yet confirmed.
##URL=rruff.info/R070008
154.0939, 9189.959
154.5760, 9217.088
155.0581, 9255.198
155.5402, 9302.040
156.0224, 9356.091
156.5045, 9420.358
156.9866, 9495.221
157.4687, 9581.035
157.9508, 9681.594
158.4329, 9802.493
158.9151, 9935.065
159.3972, 10066.46
159.8793, 10198.91
160.3614, 10323.02
160.8435, 10428.98
161.3256, 10519.24
161.8078, 10610.47
162.2899, 10708.37
162.7720, 10808.85
163.2541, 10908.20
163.7362, 11007.79
164.2183, 11100.08
164.7004, 11174.38
165.1826, 11232.18
165.6647, 11298.73
166.1468, 11390.76
166.6289, 11487.83
167.1110, 11572.44
167.5931, 11643.85
168.0753, 11702.11
168.5574, 11740.35
169.0395, 11758.69
169.5216, 11786.84
170.0037, 11840.17
170.4858, 11900.36
170.9680, 11953.91
171.4501, 11999.66
171.9322, 12040.68
172.4143, 12077.25
172.8964, 12108.98
173.3785, 12145.72
173.8607, 12196.21
174.3428, 12247.41
174.8249, 12291.22
175.3070, 12326.58
175.7891, 12357.24
176.2712, 12383.63
176.7534, 12404.69
177.2355, 12433.61
177.7176, 12481.10
178.1997, 12531.13
178.6818, 12575.92
179.1639, 12614.37
179.6461, 12648.86
180.1282, 12675.21
180.6103, 12689.57
181.0924, 12726.09
181.5745, 12822.79
182.0566, 12917.08
182.5388, 12974.76
183.0209, 12996.27
183.5030, 13009.84
183.9851, 13051.18
184.4672, 13129.36
184.9493, 13174.40
185.4315, 13140.32
185.9136, 13104.89
186.3957, 13101.76
186.8778, 13130.72
187.3599, 13171.09
187.8420, 13203.14
188.3242, 13225.40
188.8063, 13250.94
189.2884, 13279.42
189.7705, 13311.94
190.2526, 13350.76
190.7347, 13394.91
191.2169, 13441.07
191.6990, 13489.59
192.1811, 13542.39
192.6632, 13577.20
193.1453, 13565.09
193.6274, 13559.74
194.1096, 13586.04
194.5917, 13636.90
195.0738, 13688.09
195.5559, 13717.94
196.0380, 13725.32
196.5201, 13739.34
197.0022, 13764.67
197.4844, 13793.03
197.9665, 13828.78
198.4486, 13866.17
198.9307, 13892.87
199.4128, 13896.74
199.8949, 13878.58
200.3771, 13873.55
200.8592, 13901.31
201.3413, 13923.98
201.8234, 13926.76
202.3055, 13917.87
202.7876, 13913.60
203.2698, 13925.73
203.7519, 13952.33
204.2340, 13975.14
204.7161, 14001.79
205.1982, 14015.01
205.6803, 14002.85
206.1625, 13976.39
206.6446, 13949.71
207.1267, 13930.02
207.6088, 13919.30
208.0909, 13928.74
208.5730, 13983.89
209.0552, 14029.48
209.5373, 14051.62
210.0194, 14061.21
210.5015, 14073.68
210.9836, 14097.26
211.4657, 14126.38
211.9479, 14141.43
212.4300, 14124.17
212.9121, 14117.34
213.3942, 14128.20
213.8763, 14150.10
214.3584, 14179.03
214.8406, 14213.28
215.3227, 14247.20
215.8048, 14265.37
216.2869, 14245.98
216.7690, 14246.17
217.2511, 14289.24
217.7333, 14341.01
218.2154, 14370.09
218.6975, 14367.05
219.1796, 14347.13
219.6617, 14336.16
220.1438, 14336.19
220.6260, 14342.53
221.1081, 14356.89
221.5902, 14375.04
222.0723, 14399.67
222.5544, 14428.73
223.0365, 14450.03
223.5187, 14442.54
224.0008, 14383.86
224.4829, 14355.78
224.9650, 14373.59
225.4471, 14404.47
225.9292, 14437.27
226.4113, 14467.11
226.8935, 14487.96
227.3756, 14490.86
227.8577, 14469.80
228.3398, 14460.85
228.8219, 14471.80
229.3040, 14486.98
229.7862, 14504.27
230.2683, 14520.78
230.7504, 14530.98
231.2325, 14528.42
231.7146, 14512.18
232.1967, 14505.43
232.6789, 14512.71
233.1610, 14525.63
233.6431, 14546.02
234.1252, 14570.33
234.6073, 14592.81
235.0894, 14609.45
235.5716, 14620.80
236.0537, 14632.22
236.5358, 14652.90
237.0179, 14662.06
237.5000, 14641.10
237.9821, 14609.82
238.4643, 14595.96
238.9464, 14614.64
239.4285, 14657.60
239.9106, 14698.38
240.3927, 14745.04
240.8748, 14775.25
241.3570, 14775.57
241.8391, 14764.60
242.3212, 14762.27
242.8033, 14776.20
243.2854, 14796.12
243.7675, 14799.15
244.2497, 14768.99
244.7318, 14758.25
245.2139, 14794.83
245.6960, 14835.74
246.1781, 14847.21
246.6602, 14822.75
247.1424, 14783.95
247.6245, 14753.33
248.1066, 14725.78
248.5887, 14727.02
249.0708, 14791.59
249.5529, 14858.90
250.0351, 14900.48
250.5172, 14914.37
250.9993, 14913.66
251.4814, 14909.17
251.9635, 14900.88
252.4456, 14888.83
252.9278, 14859.40
253.4099, 14840.19
253.8920, 14842.80
254.3741, 14864.48
254.8562, 14898.23
255.3383, 14947.23
255.8205, 15005.58
256.3026, 15029.87
256.7847, 14988.63
257.2668, 14959.40
257.7489, 14980.78
258.2310, 15028.81
258.7132, 15067.24
259.1953, 15077.06
259.6774, 15068.83
260.1595, 15066.08
260.6416, 15069.10
261.1237, 15077.25
261.6059, 15099.57
262.0880, 15122.45
262.5701, 15128.81
263.0522, 15110.84
263.5343, 15088.91
264.0164, 15094.30
264.4986, 15132.44
264.9807, 15160.71
265.4628, 15157.36
265.9449, 15146.54
266.4270, 15148.07
266.9091, 15164.55
267.3913, 15180.29
267.8734, 15179.02
268.3555, 15162.53
268.8376, 15151.36
269.3197, 15149.62
269.8018, 15153.62
270.2840, 15163.48
270.7661, 15177.50
271.2482, 15185.17
271.7303, 15172.94
272.2124, 15149.96
272.6945, 15142.67
273.1766, 15156.84
273.6588, 15177.16
274.1409, 15189.94
274.6230, 15199.88
275.1051, 15218.90
275.5872, 15267.54
276.0693, 15318.66
276.5515, 15329.20
277.0336, 15295.24
277.5157, 15265.62
277.9978, 15267.34
278.4799, 15293.51
278.9620, 15329.03
279.4442, 15383.55
279.9263, 15432.38
280.4084, 15453.08
280.8905, 15450.14
281.3726, 15447.66
281.8547, 15454.67
282.3369, 15467.50
282.8190, 15480.29
283.3011, 15495.14
283.7832, 15503.84
284.2653, 15500.33
284.7474, 15489.00
285.2296, 15476.43
285.7117, 15463.44
286.1938, 15453.27
286.6759, 15449.88
287.1580, 15453.02
287.6401, 15463.39
288.1223, 15488.74
288.6044, 15516.74
289.0865, 15535.04
289.5686, 15542.73
290.0507, 15548.61
290.5328, 15561.75
291.0150, 15581.96
291.4971, 15587.71
291.9792, 15567.76
292.4613, 15545.51
292.9434, 15533.22
293.4255, 15528.22
293.9077, 15521.47
294.3898, 15507.45
294.8719, 15488.29
295.3540, 15473.15
295.8361, 15442.41
296.3182, 15439.09
296.8004, 15493.67
297.2825, 15570.29
297.7646, 15629.07
298.2467, 15655.45
298.7288, 15654.73
299.2109, 15633.27
299.6931, 15568.02
300.1752, 15527.45
300.6573, 15515.54
301.1394, 15522.25
301.6215, 15552.11
302.1036, 15598.62
302.5858, 15638.21
303.0679, 15644.13
303.5500, 15610.47
304.0321, 15595.37
304.5142, 15614.97
304.9963, 15637.08
305.4785, 15656.55
305.9606, 15670.80
306.4427, 15675.07
306.9248, 15664.52
307.4069, 15645.11
307.8890, 15642.81
308.3712, 15674.07
308.8533, 15695.25
309.3354, 15692.72
309.8175, 15679.73
310.2996, 15666.84
310.7817, 15657.51
311.2639, 15654.75
311.7460, 15668.19
312.2281, 15704.39
312.7102, 15723.46
313.1923, 15703.40
313.6744, 15675.86
314.1566, 15656.07
314.6387, 15645.52
315.1208, 15641.36
315.6029, 15646.38
316.0850, 15657.70
316.5671, 15656.36
317.0493, 15631.24
317.5314, 15612.01
318.0135, 15624.61
318.4956, 15655.62
318.9777, 15676.57
319.4598, 15667.79
319.9420, 15651.20
320.4241, 15661.18
320.9062, 15699.75
321.3883, 15734.70
321.8704, 15752.13
322.3525, 15755.52
322.8347, 15749.79
323.3168, 15726.94
323.7989, 15714.57
324.2810, 15744.22
324.7631, 15797.88
325.2452, 15822.20
325.7274, 15796.57
326.2095, 15752.48
326.6916, 15731.37
327.1737, 15733.37
327.6558, 15743.33
328.1379, 15771.35
328.6201, 15798.66
329.1022, 15799.92
329.5843, 15775.48
330.0664, 15755.06
330.5485, 15763.47
331.0306, 15800.28
331.5128, 15833.89
331.9949, 15874.65
332.4770, 15901.75
332.9591, 15895.13
333.4412, 15870.37
333.9233, 15860.12
334.4054, 15880.80
334.8875, 15916.63
335.3697, 15927.46
335.8518, 15883.58
336.3339, 15854.55
336.8160, 15854.12
337.2981, 15859.82
337.7802, 15850.66
338.2624, 15824.85
338.7445, 15798.29
339.2266, 15789.23
339.7087, 15800.27
340.1908, 15811.91
340.6729, 15820.28
341.1551, 15833.32
341.6372, 15859.68
342.1193, 15892.27
342.6014, 15917.04
343.0835, 15924.45
343.5656, 15920.53
344.0478, 15923.59
344.5299, 15936.15
345.0120, 15950.13
345.4941, 15974.34
345.9762, 15992.82
346.4583, 15984.90
346.9405, 15945.18
347.4226, 15904.85
347.9047, 15899.20
348.3868, 15926.13
348.8689, 15946.98
349.3510, 15952.26
349.8332, 15955.10
350.3153, 15969.04
350.7974, 15990.78
351.2795, 16005.48
351.7616, 16003.42
352.2437, 15992.07
352.7259, 15980.08
353.2080, 15967.36
353.6901, 15960.74
354.1722, 15969.08
354.6543, 15985.34
355.1364, 15987.99
355.6186, 15967.26
356.1007, 15947.20
356.5828, 15934.13
357.0649, 15930.58
357.5470, 15947.98
358.0291, 15993.28
358.5113, 16041.36
358.9934, 16051.73
359.4755, 16004.55
359.9576, 15980.61
360.4397, 16002.42
360.9218, 16033.39
361.4040, 16047.55
361.8861, 16044.56
362.3682, 16036.97
362.8503, 16034.13
363.3324, 16035.65
363.8145, 16036.06
364.2967, 16039.05
364.7788, 16036.51
365.2609, 16016.29
365.7430, 15993.95
366.2251, 15993.22
366.7072, 16021.67
367.1894, 16057.52
367.6715, 16060.33
368.1536, 16012.34
368.6357, 15986.36
369.1178, 16001.53
369.5999, 16026.49
370.0821, 16047.29
370.5642, 16064.41
371.0463, 16085.78
371.5284, 16121.33
372.0105, 16165.13
372.4926, 16192.86
372.9748, 16198.85
373.4569, 16202.71
373.9390, 16222.98
374.4211, 16242.56
374.9032, 16235.71
375.3853, 16187.19
375.8675, 16140.47
376.3496, 16140.49
376.8317, 16178.25
377.3138, 16207.59
377.7959, 16218.85
378.2780, 16214.80
378.7602, 16189.17
379.2423, 16143.35
379.7244, 16113.27
380.2065, 16113.08
380.6886, 16127.76
381.1707, 16147.44
381.6529, 16169.90
382.1350, 16188.35
382.6171, 16198.37
383.0992, 16200.84
383.5813, 16199.95
384.0634, 16190.41
384.5456, 16184.60
385.0277, 16181.61
385.5098, 16185.04
385.9919, 16207.05
386.4740, 16248.42
386.9561, 16284.53
387.4383, 16277.60
387.9204, 16209.24
388.4025, 16171.51
388.8846, 16179.62
389.3667, 16201.29
389.8488, 16243.20
390.3310, 16287.41
390.8131, 16295.94
391.2952, 16237.44
391.7773, 16146.80
392.2594, 16128.90
392.7415, 16216.52
393.2237, 16288.92
393.7058, 16304.85
394.1879, 16300.35
394.6700, 16302.20
395.1521, 16314.01
395.6342, 16319.06
396.1163, 16295.78
396.5984, 16253.88
397.0806, 16232.95
397.5627, 16242.72
398.0448, 16256.14
398.5269, 16249.50
399.0090, 16230.50
399.4911, 16220.66
399.9733, 16229.60
400.4554, 16242.57
400.9375, 16250.03
401.4196, 16253.20
401.9017, 16255.43
402.3839, 16257.73
402.8660, 16260.52
403.3481, 16264.87
403.8302, 16272.36
404.3123, 16277.17
404.7944, 16269.90
405.2766, 16266.76
405.7587, 16293.86
406.2408, 16340.96
406.7229, 16360.77
407.2050, 16311.17
407.6871, 16207.18
408.1693, 16165.69
408.6514, 16253.33
409.1335, 16317.57
409.6156, 16318.07
410.0977, 16297.29
410.5798, 16303.55
411.0620, 16346.94
411.5441, 16388.88
412.0262, 16372.54
412.5083, 16293.93
412.9904, 16258.47
413.4725, 16296.67
413.9547, 16344.71
414.4368, 16370.66
414.9189, 16379.73
415.4010, 16383.39
415.8831, 16384.93
416.3652, 16383.90
416.8474, 16377.49
417.3295, 16366.38
417.8116, 16360.52
418.2937, 16366.18
418.7758, 16374.98
419.2579, 16371.07
419.7401, 16351.72
420.2222, 16341.33
420.7043, 16351.67
421.1864, 16369.76
421.6685, 16384.95
422.1506, 16395.84
422.6328, 16402.70
423.1149, 16404.90
423.5970, 16403.55
424.0791, 16406.28
424.5612, 16412.31
425.0433, 16423.44
425.5255, 16461.26
426.0076, 16492.79
426.4897, 16471.07
426.9718, 16392.50
427.4539, 16312.72
427.9360, 16304.38
428.4182, 16377.08
428.9003, 16405.19
429.3824, 16341.42
429.8645, 16291.37
430.3466, 16312.83
430.8287, 16369.25
431.3109, 16396.90
431.7930, 16363.42
432.2751, 16316.26
432.7572, 16318.17
433.2393, 16366.89
433.7214, 16414.93
434.2036, 16459.63
434.6857, 16486.68
435.1678, 16468.62
435.6499, 16410.07
436.1320, 16366.87
436.6141, 16356.65
437.0963, 16365.35
437.5784, 16389.72
438.0605, 16424.38
438.5426, 16447.59
439.0247, 16445.99
439.5068, 16428.21
439.9890, 16418.89
440.4711, 16426.02
440.9532, 16430.51
441.4353, 16437.91
441.9174, 16438.27
442.3995, 16410.79
442.8817, 16363.37
443.3638, 16335.23
443.8459, 16365.34
444.3280, 16444.74
444.8101, 16491.28
445.2922, 16488.24
445.7744, 16478.75
446.2565, 16466.62
446.7386, 16458.48
447.2207, 16465.15
447.7028, 16489.20
448.1849, 16510.76
448.6671, 16509.16
449.1492, 16489.28
449.6313, 16470.96
450.1134, 16454.12
450.5955, 16446.04
451.0776, 16459.47
451.5598, 16486.94
452.0419, 16502.42
452.5240, 16494.65
453.0061, 16484.17
453.4882, 16481.04
453.9703, 16483.24
454.4525, 16486.89
454.9346, 16490.78
455.4167, 16495.87
455.8988, 16504.34
456.3809, 16519.27
456.8630, 16524.38
457.3452, 16504.96
457.8272, 16492.45
458.3094, 16510.92
458.7915, 16543.75
459.2736, 16556.83
459.7557, 16532.45
460.2378, 16495.04
460.7199, 16493.69
461.2021, 16537.00
461.6842, 16577.24
462.1663, 16622.05
462.6484, 16647.27
463.1305, 16621.25
463.6126, 16559.20
464.0948, 16519.11
464.5769, 16542.76
465.0590, 16592.84
465.5411, 16620.55
466.0232, 16627.14
466.5053, 16630.15
466.9875, 16638.05
467.4696, 16644.06
467.9517, 16630.58
468.4338, 16587.08
468.9159, 16566.95
469.3980, 16603.62
469.8802, 16646.72
470.3623, 16652.63
470.8444, 16625.86
471.3265, 16596.01
471.8086, 16581.52
472.2907, 16580.44
472.7729, 16587.32
473.2550, 16614.26
473.7371, 16627.53
474.2192, 16604.11
474.7013, 16583.05
475.1834, 16601.96
475.6656, 16655.56
476.1477, 16699.87
476.6298, 16692.66
477.1119, 16654.30
477.5940, 16647.59
478.0761, 16678.52
478.5583, 16712.05
479.0404, 16736.91
479.5225, 16753.16
480.0046, 16760.79
480.4867, 16757.56
480.9688, 16755.38
481.4510, 16761.43
481.9331, 16769.71
482.4152, 16771.76
482.8973, 16767.46
483.3794, 16763.79
483.8615, 16766.00
484.3437, 16772.90
484.8258, 16777.72
485.3079, 16768.03
485.7900, 16772.49
486.2721, 16810.45
486.7542, 16851.85
487.2364, 16872.07
487.7185, 16867.95
488.2006, 16850.52
488.6827, 16826.55
489.1648, 16797.46
489.6469, 16769.14
490.1291, 16735.31
490.6112, 16717.79
491.0933, 16736.61
491.5754, 16771.29
492.0575, 16803.99
492.5396, 16834.05
493.0218, 16854.28
493.5039, 16851.01
493.9860, 16838.97
494.4681, 16844.56
494.9502, 16869.84
495.4323, 16896.61
495.9145, 16913.58
496.3966, 16921.11
496.8787, 16920.38
497.3608, 16901.50
497.8429, 16887.96
498.3250, 16882.17
498.8072, 16883.11
499.2893, 16893.02
499.7714, 16909.95
500.2535, 16925.84
500.7356, 16933.82
501.2177, 16934.73
501.6999, 16933.65
502.1820, 16929.36
502.6641, 16925.89
503.1462, 16924.02
503.6283, 16923.86
504.1104, 16926.15
504.5926, 16931.01
505.0747, 16936.09
505.5568, 16939.77
506.0389, 16942.92
506.5210, 16941.79
507.0031, 16937.04
507.4853, 16951.32
507.9674, 17005.30
508.4495, 17081.87
508.9316, 17122.35
509.4137, 17102.33
509.8958, 17086.73
510.3780, 17086.28
510.8601, 17088.39
511.3422, 17079.70
511.8243, 17062.72
512.3064, 17052.64
512.7885, 17062.34
513.2706, 17084.75
513.7527, 17091.93
514.2349, 17075.79
514.7170, 17066.95
515.1991, 17074.38
515.6812, 17091.16
516.1633, 17116.05
516.6454, 17147.69
517.1276, 17176.39
517.6097, 17202.10
518.0918, 17219.52
518.5739, 17216.68
519.0560, 17196.06
519.5381, 17176.71
520.0203, 17166.24
520.5024, 17163.98
520.9845, 17170.34
521.4666, 17197.82
521.9487, 17204.42
522.4308, 17167.15
522.9130, 17130.25
523.3951, 17118.15
523.8772, 17127.53
524.3593, 17147.61
524.8414, 17173.93
525.3235, 17200.14
525.8057, 17207.78
526.2878, 17190.09
526.7699, 17200.62
527.2520, 17272.89
527.7341, 17343.72
528.2162, 17366.58
528.6984, 17352.85
529.1805, 17338.03
529.6626, 17335.41
530.1447, 17332.10
530.6268, 17313.90
531.1089, 17287.12
531.5911, 17265.97
532.0732, 17254.38
532.5553, 17255.38
533.0374, 17277.06
533.5195, 17325.13
534.0016, 17342.05
534.4838, 17289.49
534.9659, 17252.92
535.4480, 17266.81
535.9301, 17305.11
536.4122, 17338.70
536.8943, 17358.40
537.3765, 17367.01
537.8586, 17366.77
538.3407, 17357.81
538.8228, 17337.36
539.3049, 17297.64
539.7870, 17269.69
540.2692, 17282.01
540.7513, 17313.13
541.2334, 17319.68
541.7155, 17289.99
542.1976, 17262.40
542.6797, 17246.51
543.1619, 17242.97
543.6440, 17258.38
544.1261, 17289.41
544.6082, 17319.32
545.0903, 17336.55
545.5724, 17343.09
546.0546, 17347.03
546.5367, 17351.02
547.0188, 17346.97
547.5009, 17322.81
547.9830, 17300.64
548.4651, 17297.58
548.9473, 17309.98
549.4294, 17320.25
549.9115, 17316.78
550.3936, 17308.34
550.8757, 17303.95
551.3578, 17304.52
551.8400, 17321.72
552.3221, 17363.73
552.8042, 17411.99
553.2863, 17447.02
553.7684, 17467.87
554.2505, 17471.93
554.7327, 17436.01
555.2148, 17408.13
555.6969, 17414.69
556.1790, 17440.66
556.6611, 17464.64
557.1432, 17479.04
557.6254, 17486.37
558.1075, 17487.98
558.5896, 17483.81
559.0717, 17482.18
559.5538, 17482.64
560.0359, 17486.54
560.5181, 17495.81
561.0002, 17508.41
561.4823, 17525.00
561.9644, 17548.77
562.4465, 17561.16
562.9286, 17539.78
563.4108, 17508.88
563.8929, 17501.85
564.3750, 17518.68
564.8571, 17539.77
565.3392, 17553.65
565.8214, 17561.90
566.3035, 17569.75
566.7856, 17584.30
567.2677, 17584.56
567.7498, 17550.67
568.2319, 17522.05
568.7141, 17528.16
569.1962, 17556.84
569.6783, 17575.09
570.1604, 17564.51
570.6425, 17543.67
571.1246, 17534.66
571.6068, 17536.54
572.0889, 17542.82
572.5710, 17551.77
573.0531, 17567.79
573.5352, 17601.59
574.0173, 17650.25
574.4995, 17669.88
574.9816, 17619.94
575.4637, 17592.92
575.9458, 17646.95
576.4279, 17717.23
576.9100, 17725.37
577.3922, 17666.63
577.8743, 17599.03
578.3564, 17568.14
578.8385, 17571.27
579.3206, 17605.41
579.8027, 17683.86
580.2849, 17741.26
580.7670, 17755.12
581.2491, 17740.49
581.7312, 17704.53
582.2133, 17648.55
582.6954, 17616.40
583.1776, 17639.92
583.6597, 17674.06
584.1418, 17688.84
584.6239, 17686.68
585.1060, 17671.11
585.5881, 17643.92
586.0703, 17619.87
586.5524, 17620.32
587.0345, 17647.82
587.5166, 17675.15
587.9987, 17715.69
588.4808, 17736.73
588.9630, 17720.03
589.4451, 17684.95
589.9272, 17647.20
590.4093, 17609.39
590.8914, 17588.37
591.3735, 17609.29
591.8557, 17647.28
592.3378, 17660.83
592.8199, 17650.16
593.3020, 17636.50
593.7841, 17628.83
594.2662, 17629.17
594.7484, 17643.14
595.2305, 17681.79
595.7126, 17706.49
596.1947, 17713.11
596.6768, 17711.61
597.1589, 17696.79
597.6411, 17679.59
598.1232, 17679.44
598.6053, 17704.36
599.0874, 17734.29
599.5695, 17743.87
600.0516, 17739.70
600.5338, 17755.30
601.0159, 17798.74
601.4980, 17821.04
601.9801, 17780.96
602.4622, 17703.31
602.9443, 17668.88
603.4265, 17705.96
603.9086, 17727.89
604.3907, 17709.00
604.8728, 17687.03
605.3549, 17698.47
605.8370, 17729.16
606.3192, 17734.55
606.8013, 17688.90
607.2834, 17625.92
607.7655, 17603.05
608.2476, 17619.73
608.7297, 17635.29
609.2119, 17648.93
609.6940, 17650.18
610.1761, 17616.20
610.6582, 17564.86
611.1403, 17558.24
611.6224, 17636.44
612.1045, 17694.25
612.5866, 17693.61
613.0687, 17663.64
613.5508, 17618.18
614.0330, 17569.00
614.5151, 17545.11
614.9972, 17569.23
615.4793, 17614.01
615.9614, 17609.46
616.4435, 17544.61
616.9257, 17497.27
617.4078, 17479.06
617.8899, 17478.85
618.3720, 17501.40
618.8541, 17535.41
619.3362, 17549.68
619.8184, 17528.49
620.3005, 17504.55
620.7826, 17488.83
621.2647, 17480.98
621.7468, 17483.61
622.2289, 17494.84
622.7111, 17506.29
623.1932, 17512.47
623.6753, 17513.17
624.1574, 17505.73
624.6395, 17485.57
625.1216, 17473.33
625.6038, 17477.61
626.0859, 17484.44
626.5680, 17489.59
627.0501, 17490.10
627.5322, 17476.29
628.0143, 17433.53
628.4965, 17395.25
628.9786, 17379.62
629.4607, 17381.75
629.9428, 17406.40
630.4249, 17447.31
630.9070, 17464.43
631.3892, 17422.39
631.8713, 17342.46
632.3534, 17308.82
632.8355, 17338.02
633.3176, 17369.51
633.7997, 17402.09
634.2819, 17428.71
634.7640, 17451.76
635.2461, 17465.74
635.7282, 17452.52
636.2103, 17383.79
636.6924, 17326.33
637.1746, 17341.34
637.6567, 17390.97
638.1388, 17413.89
638.6209, 17401.76
639.1030, 17377.48
639.5851, 17357.27
640.0673, 17339.22
640.5494, 17313.87
641.0315, 17269.97
641.5136, 17246.67
641.9957, 17268.21
642.4778, 17292.17
642.9600, 17292.27
643.4421, 17276.66
643.9242, 17268.07
644.4063, 17276.57
644.8884, 17286.01
645.3705, 17283.05
645.8527, 17275.01
646.3348, 17275.28
646.8169, 17284.34
647.2990, 17292.06
647.7811, 17292.02
648.2632, 17284.30
648.7454, 17266.22
649.2275, 17227.86
649.7096, 17207.22
650.1917, 17214.57
650.6738, 17233.23
651.1559, 17266.56
