##NAMES=Caryopilite
##RRUFFID=R070180
##IDEAL CHEMISTRY=Mn^2+^_3_Si_2_O_5_(OH)_4_
##LOCALITY=Gambatesa Mine, Graveglia Valley, Ne, Genova Province, Liguria, Italy
##OWNER=RRUFF
##SOURCE=Michael Scott
##DESCRIPTION=Spherical aggregates of brown thin platelets
##STATUS=The identification of this mineral has been confirmed only by X-ray diffraction
##URL=rruff.info/R070180
163.6808, 10836.82
164.1630, 10862.62
164.6451, 10883.06
165.1272, 10920.19
165.6093, 11000.56
166.0914, 11086.72
166.5735, 11154.98
167.0557, 11203.71
167.5378, 11246.90
168.0199, 11294.95
168.5020, 11343.09
168.9841, 11382.93
169.4662, 11405.30
169.9484, 11420.24
170.4305, 11432.47
170.9126, 11438.25
171.3947, 11458.29
171.8768, 11525.53
172.3589, 11624.52
172.8411, 11709.88
173.3232, 11744.53
173.8053, 11754.66
174.2874, 11775.99
174.7695, 11818.27
175.2516, 11866.54
175.7338, 11908.56
176.2159, 11943.62
176.6980, 11968.86
177.1801, 11971.01
177.6622, 11962.60
178.1443, 11970.42
178.6264, 12009.80
179.1086, 12061.45
179.5907, 12096.40
180.0728, 12114.84
180.5549, 12124.69
181.0370, 12127.64
181.5191, 12126.53
182.0013, 12130.26
182.4834, 12137.82
182.9655, 12153.21
183.4476, 12193.76
183.9297, 12262.88
184.4118, 12330.42
184.8940, 12355.84
185.3761, 12345.43
185.8582, 12337.74
186.3403, 12352.63
186.8224, 12384.50
187.3046, 12411.07
187.7867, 12431.52
188.2688, 12448.61
188.7509, 12467.71
189.2330, 12488.59
189.7151, 12505.30
190.1973, 12513.24
190.6794, 12513.35
191.1615, 12512.38
191.6436, 12508.82
192.1257, 12507.58
192.6078, 12522.85
193.0900, 12556.39
193.5721, 12586.20
194.0542, 12589.26
194.5363, 12566.81
195.0184, 12568.22
195.5005, 12607.19
195.9826, 12669.26
196.4648, 12712.63
196.9469, 12735.12
197.4290, 12747.72
197.9111, 12756.70
198.3932, 12761.63
198.8753, 12769.04
199.3575, 12782.67
199.8396, 12799.81
200.3217, 12803.30
200.8038, 12789.04
201.2859, 12773.10
201.7680, 12772.65
202.2502, 12790.43
202.7323, 12806.51
203.2144, 12812.07
203.6965, 12808.52
204.1786, 12829.32
204.6607, 12885.53
205.1429, 12945.16
205.6250, 12962.46
206.1071, 12924.33
206.5892, 12896.12
207.0713, 12900.26
207.5534, 12939.13
208.0356, 12976.93
208.5177, 13015.42
208.9998, 13050.76
209.4819, 13078.45
209.9640, 13099.34
210.4461, 13110.05
210.9282, 13104.46
211.4104, 13075.63
211.8925, 13065.00
212.3746, 13077.14
212.8567, 13104.40
213.3388, 13131.82
213.8209, 13160.56
214.3031, 13187.26
214.7852, 13211.74
215.2673, 13236.32
215.7494, 13249.41
216.2315, 13245.77
216.7136, 13231.99
217.1958, 13228.07
217.6779, 13238.11
218.1600, 13250.57
218.6421, 13258.40
219.1242, 13257.03
219.6063, 13263.91
220.0885, 13284.60
220.5706, 13314.54
221.0527, 13333.05
221.5348, 13334.35
222.0169, 13332.98
222.4990, 13338.09
222.9812, 13351.06
223.4633, 13367.25
223.9454, 13386.33
224.4275, 13408.47
224.9096, 13433.34
225.3917, 13465.55
225.8739, 13495.30
226.3560, 13515.17
226.8381, 13523.39
227.3202, 13524.82
227.8023, 13513.77
228.2844, 13491.46
228.7665, 13493.60
229.2487, 13532.48
229.7308, 13582.41
230.2129, 13620.65
230.6950, 13638.04
231.1771, 13660.96
231.6592, 13698.74
232.1414, 13752.57
232.6235, 13789.92
233.1056, 13811.03
233.5877, 13815.19
234.0698, 13795.68
234.5519, 13723.31
235.0341, 13680.72
235.5162, 13697.14
235.9983, 13783.62
236.4804, 13831.22
236.9625, 13815.62
237.4446, 13780.21
237.9268, 13777.37
238.4089, 13822.08
238.8910, 13875.18
239.3731, 13934.94
239.8552, 14010.37
240.3373, 14040.48
240.8195, 13998.77
241.3016, 13929.48
241.7837, 13896.28
242.2658, 13919.85
242.7479, 13944.97
243.2300, 13953.37
243.7122, 13937.06
244.1943, 13937.43
244.6764, 13961.47
245.1585, 13998.09
245.6406, 14030.24
246.1227, 14058.20
246.6048, 14081.15
247.0870, 14097.68
247.5691, 14104.85
248.0512, 14116.36
248.5333, 14139.09
249.0154, 14162.67
249.4975, 14165.47
249.9797, 14133.30
250.4618, 14104.19
250.9439, 14091.88
251.4260, 14099.19
251.9081, 14115.79
252.3902, 14144.51
252.8724, 14181.49
253.3545, 14219.96
253.8366, 14267.34
254.3187, 14303.07
254.8008, 14315.43
255.2829, 14291.24
255.7651, 14279.71
256.2472, 14283.59
256.7293, 14298.94
257.2114, 14318.49
257.6935, 14349.21
258.1756, 14371.29
258.6577, 14369.04
259.1399, 14321.60
259.6220, 14314.15
260.1041, 14366.73
260.5862, 14452.65
261.0683, 14496.84
261.5504, 14482.66
262.0326, 14460.07
262.5147, 14452.18
262.9968, 14461.66
263.4789, 14477.48
263.9610, 14500.59
264.4431, 14529.21
264.9253, 14560.08
265.4074, 14598.17
265.8895, 14627.23
266.3716, 14634.76
266.8537, 14612.15
267.3358, 14603.02
267.8180, 14613.46
268.3001, 14636.60
268.7822, 14652.75
269.2643, 14658.08
269.7464, 14666.00
270.2285, 14688.51
270.7107, 14731.68
271.1928, 14754.91
271.6749, 14747.61
272.1570, 14723.75
272.6391, 14723.72
273.1212, 14751.75
273.6034, 14789.80
274.0855, 14833.56
274.5676, 14886.39
275.0497, 14915.60
275.5318, 14911.85
276.0139, 14888.51
276.4961, 14882.53
276.9782, 14897.88
277.4603, 14913.73
277.9424, 14917.40
278.4245, 14908.50
278.9066, 14891.91
279.3888, 14859.27
279.8709, 14827.98
280.3530, 14852.28
280.8351, 14940.92
281.3172, 15029.23
281.7993, 15072.88
282.2815, 15073.00
282.7636, 15073.08
283.2457, 15076.87
283.7278, 15083.07
284.2099, 15087.74
284.6920, 15090.45
285.1741, 15096.92
285.6563, 15114.14
286.1384, 15140.66
286.6205, 15159.40
287.1026, 15166.88
287.5847, 15169.14
288.0668, 15179.42
288.5490, 15197.69
289.0311, 15212.81
289.5132, 15213.74
289.9953, 15204.14
290.4774, 15201.29
290.9595, 15206.54
291.4417, 15220.17
291.9238, 15245.44
292.4059, 15281.43
292.8880, 15319.68
293.3701, 15362.37
293.8522, 15403.92
294.3344, 15423.77
294.8165, 15414.69
295.2986, 15397.20
295.7807, 15409.00
296.2628, 15443.56
296.7449, 15462.61
297.2271, 15414.37
297.7092, 15337.47
298.1913, 15319.03
298.6734, 15378.79
299.1555, 15465.22
299.6376, 15526.10
300.1198, 15563.81
300.6019, 15585.74
301.0840, 15586.95
301.5661, 15577.40
302.0482, 15569.23
302.5303, 15561.34
303.0125, 15564.51
303.4946, 15599.19
303.9767, 15654.82
304.4588, 15703.75
304.9409, 15737.00
305.4230, 15752.49
305.9052, 15738.77
306.3873, 15687.28
306.8694, 15646.59
307.3515, 15672.16
307.8336, 15737.29
308.3157, 15789.26
308.7979, 15791.19
309.2800, 15775.32
309.7621, 15767.52
310.2442, 15770.51
310.7263, 15778.00
311.2084, 15790.53
311.6906, 15804.40
312.1727, 15813.73
312.6548, 15802.65
313.1369, 15795.94
313.6190, 15815.73
314.1011, 15866.92
314.5833, 15910.03
315.0654, 15920.17
315.5475, 15913.14
316.0296, 15908.63
316.5117, 15918.76
316.9938, 15928.40
317.4760, 15924.80
317.9580, 15905.68
318.4402, 15903.00
318.9223, 15947.62
319.4044, 16005.86
319.8865, 16043.36
320.3686, 16037.54
320.8507, 16023.16
321.3329, 16002.42
321.8150, 15975.34
322.2971, 15969.36
322.7792, 16017.19
323.2613, 16074.56
323.7434, 16105.26
324.2256, 16065.80
324.7077, 16039.94
325.1898, 16051.35
325.6719, 16099.24
326.1540, 16131.21
326.6361, 16132.29
327.1183, 16124.12
327.6004, 16120.60
328.0825, 16123.12
328.5646, 16128.63
329.0467, 16133.94
329.5288, 16140.54
330.0110, 16161.17
330.4931, 16216.11
330.9752, 16265.87
331.4573, 16285.37
331.9394, 16250.64
332.4215, 16230.47
332.9037, 16236.97
333.3858, 16261.12
333.8679, 16265.97
334.3500, 16237.69
334.8321, 16212.24
335.3142, 16208.81
335.7964, 16233.14
336.2785, 16264.09
336.7606, 16307.87
337.2427, 16354.17
337.7248, 16371.57
338.2069, 16349.74
338.6891, 16330.67
339.1712, 16339.57
339.6533, 16381.18
340.1354, 16402.55
340.6175, 16395.29
341.0996, 16378.73
341.5818, 16392.19
342.0639, 16439.39
342.5460, 16477.88
343.0281, 16479.39
343.5102, 16448.84
343.9923, 16446.45
344.4745, 16477.37
344.9566, 16519.15
345.4387, 16545.53
345.9208, 16556.67
346.4029, 16556.29
346.8850, 16537.81
347.3672, 16509.35
347.8493, 16494.60
348.3314, 16493.92
348.8135, 16502.93
349.2956, 16521.64
349.7777, 16547.13
350.2599, 16571.15
350.7419, 16593.60
351.2241, 16611.47
351.7062, 16616.84
352.1883, 16610.53
352.6704, 16605.60
353.1525, 16614.11
353.6346, 16630.53
354.1168, 16644.92
354.5989, 16645.37
355.0810, 16653.44
355.5631, 16699.10
356.0452, 16774.21
356.5273, 16839.28
357.0095, 16867.36
357.4916, 16875.65
357.9737, 16880.78
358.4558, 16888.19
358.9379, 16890.06
359.4200, 16877.41
359.9022, 16855.38
360.3843, 16837.49
360.8664, 16819.17
361.3485, 16813.71
361.8306, 16833.27
362.3127, 16892.05
362.7949, 16943.39
363.2770, 16969.32
363.7591, 16979.81
364.2412, 16991.62
364.7233, 17013.79
365.2054, 17033.25
365.6876, 17045.89
366.1697, 17051.90
366.6518, 17049.74
367.1339, 17014.35
367.6160, 16979.70
368.0981, 16985.74
368.5803, 17085.34
369.0624, 17167.14
369.5445, 17204.76
370.0266, 17194.97
370.5087, 17193.22
370.9908, 17201.40
371.4730, 17215.96
371.9551, 17233.36
372.4372, 17249.70
372.9193, 17279.28
373.4014, 17336.89
373.8835, 17411.98
374.3657, 17431.94
374.8478, 17371.21
375.3299, 17309.20
375.8120, 17306.53
376.2941, 17374.67
376.7762, 17430.29
377.2584, 17465.21
377.7405, 17482.95
378.2226, 17484.22
378.7047, 17466.13
379.1868, 17457.10
379.6689, 17482.40
380.1511, 17536.44
380.6332, 17568.88
381.1153, 17573.76
381.5974, 17565.33
382.0795, 17553.61
382.5616, 17541.76
383.0438, 17551.91
383.5259, 17619.53
384.0080, 17712.23
384.4901, 17754.12
384.9722, 17741.86
385.4543, 17715.06
385.9364, 17704.69
386.4185, 17707.43
386.9007, 17716.07
387.3828, 17729.92
387.8649, 17747.16
388.3470, 17763.41
388.8291, 17779.59
389.3112, 17804.78
389.7934, 17856.20
390.2755, 17914.49
390.7576, 17958.84
391.2397, 17978.57
391.7218, 17991.37
392.2039, 18003.52
392.6861, 18015.66
393.1682, 18029.76
393.6503, 18046.91
394.1324, 18066.00
394.6145, 18087.33
395.0966, 18114.05
395.5788, 18135.78
396.0609, 18153.56
396.5430, 18164.39
397.0251, 18163.24
397.5072, 18120.40
397.9893, 18092.90
398.4715, 18105.69
398.9536, 18173.05
399.4357, 18211.53
399.9178, 18195.25
400.3999, 18166.55
400.8820, 18168.55
401.3642, 18224.25
401.8463, 18271.09
402.3284, 18296.64
402.8105, 18302.85
403.2926, 18313.15
403.7747, 18330.33
404.2569, 18346.53
404.7390, 18357.18
405.2211, 18362.92
405.7032, 18358.49
406.1853, 18340.83
406.6674, 18315.21
407.1496, 18291.86
407.6317, 18270.13
408.1138, 18256.59
408.5959, 18255.68
409.0780, 18266.46
409.5602, 18287.63
410.0423, 18322.83
410.5244, 18352.43
411.0065, 18340.36
411.4886, 18296.20
411.9707, 18263.71
412.4529, 18263.65
412.9350, 18286.35
413.4171, 18325.55
413.8992, 18381.23
414.3813, 18422.88
414.8634, 18408.29
415.3456, 18369.09
415.8277, 18354.73
416.3098, 18409.38
416.7919, 18459.08
417.2740, 18436.88
417.7561, 18360.15
418.2382, 18297.89
418.7203, 18283.02
419.2025, 18295.14
419.6846, 18326.83
420.1667, 18397.08
420.6488, 18440.67
421.1309, 18411.60
421.6130, 18347.00
422.0952, 18311.94
422.5773, 18337.44
423.0594, 18377.35
423.5415, 18425.40
424.0236, 18487.97
424.5057, 18522.76
424.9879, 18506.99
425.4700, 18477.08
425.9521, 18466.73
426.4342, 18493.14
426.9163, 18508.94
427.3984, 18502.68
427.8806, 18478.63
428.3627, 18467.70
428.8448, 18474.35
429.3269, 18484.73
429.8090, 18486.55
430.2911, 18476.58
430.7733, 18488.14
431.2554, 18531.70
431.7375, 18585.26
432.2196, 18606.27
432.7017, 18593.94
433.1838, 18575.46
433.6660, 18557.64
434.1481, 18543.47
434.6302, 18546.82
435.1123, 18569.07
435.5944, 18597.28
436.0765, 18626.41
436.5587, 18651.64
437.0408, 18659.31
437.5229, 18630.18
438.0050, 18595.51
438.4871, 18590.56
438.9692, 18611.60
439.4514, 18638.10
439.9335, 18662.63
440.4156, 18684.03
440.8977, 18700.19
441.3798, 18707.22
441.8619, 18716.56
442.3441, 18741.06
442.8262, 18770.84
443.3083, 18787.53
443.7904, 18770.20
444.2725, 18752.03
444.7546, 18746.68
445.2368, 18757.33
445.7189, 18767.65
446.2010, 18763.65
446.6831, 18765.11
447.1652, 18790.38
447.6473, 18872.15
448.1295, 18930.52
448.6116, 18946.30
449.0937, 18928.87
449.5758, 18932.10
450.0579, 18971.56
450.5400, 19002.46
451.0221, 18991.71
451.5042, 18927.53
451.9864, 18892.95
452.4685, 18893.89
452.9506, 18920.19
453.4327, 18968.51
453.9148, 19039.30
454.3969, 19082.89
454.8791, 19061.82
455.3612, 18999.73
455.8433, 18974.58
456.3254, 18987.54
456.8075, 19014.91
457.2896, 19037.46
457.7718, 19058.04
458.2539, 19083.92
458.7360, 19124.34
459.2181, 19159.26
459.7002, 19153.74
460.1823, 19122.53
460.6645, 19113.18
461.1466, 19185.34
461.6287, 19267.36
462.1108, 19300.08
462.5929, 19267.75
463.0750, 19231.69
463.5572, 19207.43
464.0393, 19196.37
464.5214, 19200.62
465.0035, 19246.52
465.4856, 19280.83
465.9677, 19276.68
466.4499, 19236.82
466.9320, 19232.72
467.4141, 19308.48
467.8962, 19382.24
468.3783, 19407.19
468.8604, 19348.34
469.3426, 19314.91
469.8247, 19312.72
470.3068, 19333.39
470.7889, 19362.40
471.2710, 19401.63
471.7531, 19442.54
472.2353, 19486.08
472.7174, 19530.57
473.1995, 19551.34
473.6816, 19544.26
474.1637, 19538.59
474.6458, 19569.66
475.1280, 19629.68
475.6101, 19683.70
476.0922, 19729.13
476.5743, 19756.72
477.0564, 19731.66
477.5385, 19668.74
478.0207, 19632.37
478.5028, 19691.84
478.9849, 19779.67
479.4670, 19819.65
479.9491, 19798.15
480.4312, 19777.36
480.9134, 19792.87
481.3955, 19830.67
481.8776, 19874.30
482.3597, 19941.03
482.8418, 19989.64
483.3239, 19994.32
483.8060, 19962.13
484.2881, 19946.15
484.7703, 19961.59
485.2524, 19990.15
485.7345, 20024.15
486.2166, 20068.33
486.6987, 20108.01
487.1808, 20140.73
487.6630, 20170.81
488.1451, 20207.53
488.6272, 20257.66
489.1093, 20293.32
489.5914, 20298.83
490.0735, 20281.13
490.5557, 20297.92
491.0378, 20354.13
491.5199, 20417.24
492.0020, 20460.19
492.4841, 20486.03
492.9662, 20515.10
493.4484, 20551.37
493.9305, 20588.51
494.4126, 20613.02
494.8947, 20629.66
495.3768, 20653.77
495.8589, 20700.85
496.3411, 20755.02
496.8232, 20804.72
497.3053, 20849.04
497.7874, 20877.58
498.2695, 20867.94
498.7516, 20847.01
499.2338, 20840.04
499.7159, 20861.12
500.1980, 20886.69
500.6801, 20909.91
501.1622, 20932.36
501.6443, 20958.33
502.1265, 21001.24
502.6086, 21034.88
503.0907, 21046.99
503.5728, 21031.45
504.0549, 21032.28
504.5370, 21058.13
505.0192, 21090.71
505.5013, 21111.81
505.9834, 21117.33
506.4655, 21129.63
506.9476, 21156.12
507.4297, 21187.97
507.9119, 21194.82
508.3940, 21174.85
508.8761, 21164.34
509.3582, 21199.19
509.8403, 21259.64
510.3224, 21276.86
510.8046, 21245.47
511.2867, 21206.68
511.7688, 21211.63
512.2509, 21235.35
512.7330, 21228.07
513.2151, 21142.84
513.6973, 21060.28
514.1794, 21055.54
514.6615, 21106.24
515.1436, 21140.13
515.6257, 21109.01
516.1078, 21064.87
516.5900, 21035.56
517.0721, 21024.24
517.5542, 21024.49
518.0363, 21047.35
518.5184, 21075.57
519.0005, 21091.67
519.4827, 21086.52
519.9648, 21083.63
520.4469, 21090.36
520.9290, 21101.11
521.4111, 21088.74
521.8932, 21040.53
522.3754, 21004.15
522.8575, 21016.25
523.3396, 21077.01
523.8217, 21091.96
524.3038, 21051.41
524.7859, 21001.81
525.2681, 21005.53
525.7502, 21047.99
526.2323, 21065.64
526.7144, 21031.35
527.1965, 20976.43
527.6786, 20928.49
528.1608, 20891.93
528.6429, 20882.79
529.1250, 20946.93
529.6071, 21019.15
530.0892, 21037.44
530.5714, 20987.33
531.0535, 20946.49
531.5356, 20961.65
532.0176, 20995.15
532.4998, 21009.82
532.9819, 20957.81
533.4640, 20934.93
533.9461, 20979.49
534.4282, 21065.70
534.9103, 21103.48
535.3925, 21057.21
535.8746, 21018.88
536.3567, 21033.87
536.8388, 21110.00
537.3209, 21133.20
537.8030, 21085.46
538.2852, 21030.83
538.7673, 21052.24
539.2494, 21142.65
539.7315, 21189.04
540.2136, 21155.82
540.6957, 21090.24
541.1779, 21063.83
541.6600, 21071.40
542.1421, 21091.00
542.6242, 21115.53
543.1063, 21142.97
543.5884, 21179.63
544.0706, 21225.88
544.5527, 21248.22
545.0348, 21193.01
545.5169, 21123.18
545.9990, 21097.20
546.4811, 21176.03
546.9633, 21233.80
547.4454, 21228.34
547.9275, 21184.13
548.4096, 21158.27
548.8917, 21150.86
549.3738, 21164.53
549.8560, 21210.72
550.3381, 21289.69
550.8202, 21329.26
551.3023, 21316.68
551.7844, 21293.58
552.2665, 21295.73
552.7487, 21322.99
553.2308, 21331.48
553.7129, 21311.23
554.1950, 21285.98
554.6771, 21296.34
555.1592, 21334.48
555.6414, 21366.28
556.1235, 21361.71
556.6056, 21353.84
557.0877, 21397.96
557.5698, 21482.94
558.0519, 21538.18
558.5341, 21479.23
559.0162, 21401.50
559.4983, 21387.91
559.9804, 21476.08
560.4625, 21547.09
560.9446, 21558.75
561.4268, 21541.05
561.9089, 21530.50
562.3910, 21526.83
562.8731, 21534.37
563.3552, 21561.35
563.8373, 21600.44
564.3195, 21618.39
564.8016, 21608.94
565.2837, 21594.94
565.7658, 21584.90
566.2479, 21578.90
566.7300, 21586.08
567.2122, 21608.78
567.6943, 21631.93
568.1764, 21633.69
568.6585, 21622.66
569.1406, 21625.19
569.6227, 21650.66
570.1049, 21685.78
570.5870, 21722.61
571.0691, 21757.93
571.5512, 21785.35
572.0333, 21795.49
572.5154, 21801.77
572.9976, 21811.60
573.4797, 21825.40
573.9618, 21837.89
574.4439, 21842.16
574.9260, 21848.94
575.4081, 21864.94
575.8903, 21893.69
576.3724, 21926.50
576.8545, 21969.82
577.3366, 22012.06
577.8187, 22032.78
578.3008, 22027.76
578.7830, 22020.38
579.2651, 22014.31
579.7472, 22011.30
580.2293, 22018.39
580.7114, 22035.26
581.1935, 22054.50
581.6757, 22062.23
582.1578, 22071.38
582.6399, 22115.65
583.1220, 22199.64
583.6041, 22273.13
584.0862, 22288.26
584.5684, 22274.33
585.0505, 22265.77
585.5326, 22273.92
586.0147, 22286.55
586.4968, 22305.61
586.9789, 22326.03
587.4611, 22336.41
587.9432, 22310.39
588.4253, 22301.97
588.9074, 22329.15
589.3895, 22391.37
589.8716, 22447.49
590.3538, 22501.60
590.8359, 22540.95
591.3180, 22548.63
591.8001, 22524.60
592.2822, 22522.76
592.7643, 22549.58
593.2465, 22587.44
593.7286, 22612.17
594.2107, 22628.90
594.6928, 22654.64
595.1749, 22700.47
595.6570, 22751.60
596.1392, 22794.98
596.6213, 22831.76
597.1034, 22864.94
597.5854, 22892.87
598.0676, 22920.65
598.5497, 22952.44
599.0318, 22989.76
599.5139, 23021.16
599.9960, 23039.21
600.4781, 23055.10
600.9603, 23074.98
601.4424, 23096.27
601.9245, 23130.34
602.4066, 23187.91
602.8887, 23246.89
603.3708, 23265.12
603.8530, 23239.06
604.3351, 23219.79
604.8172, 23224.81
605.2993, 23244.97
605.7814, 23256.91
606.2635, 23262.52
606.7457, 23276.54
607.2278, 23322.97
607.7099, 23375.40
608.1920, 23397.25
608.6741, 23383.97
609.1563, 23374.76
609.6384, 23391.71
610.1205, 23422.05
610.6026, 23454.97
611.0847, 23500.97
611.5668, 23532.10
612.0490, 23524.65
612.5311, 23506.72
613.0132, 23528.50
613.4953, 23622.36
613.9774, 23688.41
614.4595, 23695.76
614.9417, 23657.15
615.4238, 23632.71
615.9059, 23623.46
616.3880, 23618.19
616.8701, 23602.42
617.3522, 23585.26
617.8344, 23599.48
618.3165, 23647.36
618.7986, 23699.43
619.2807, 23734.96
619.7628, 23757.45
620.2449, 23770.25
620.7271, 23768.93
621.2092, 23768.32
621.6913, 23776.78
622.1734, 23789.86
622.6555, 23800.08
623.1376, 23803.36
623.6198, 23806.86
624.1019, 23814.13
624.5840, 23823.46
625.0661, 23820.95
625.5482, 23796.54
626.0303, 23784.40
626.5125, 23812.34
626.9946, 23877.16
627.4767, 23902.10
627.9588, 23883.19
628.4409, 23854.53
628.9230, 23842.30
629.4052, 23845.83
629.8873, 23868.34
630.3694, 23919.32
630.8515, 23962.46
631.3336, 23964.15
631.8157, 23939.84
632.2979, 23914.25
632.7800, 23879.98
633.2621, 23862.31
633.7442, 23880.56
634.2263, 23926.47
634.7084, 23959.12
635.1906, 23976.64
635.6727, 23981.24
636.1548, 23968.30
636.6369, 23936.79
637.1190, 23924.65
637.6011, 23934.03
638.0833, 23955.68
638.5654, 23993.94
639.0475, 24041.26
639.5296, 24053.93
640.0117, 24020.89
640.4938, 23982.75
640.9760, 23993.28
641.4581, 24027.22
641.9402, 24038.44
642.4223, 23985.63
642.9044, 23937.33
643.3865, 23938.21
643.8687, 23970.74
644.3508, 23990.33
644.8329, 23971.43
645.3150, 23953.79
645.7971, 23948.54
646.2792, 23955.30
646.7614, 23963.52
647.2435, 23971.99
647.7256, 23984.64
648.2077, 24008.26
648.6898, 24042.82
649.1719, 24058.90
649.6541, 24053.78
650.1362, 24044.64
650.6183, 24044.27
651.1004, 24054.04
651.5825, 24081.55
652.0646, 24139.39
652.5468, 24188.20
653.0289, 24189.97
653.5110, 24163.67
653.9931, 24141.08
654.4752, 24133.62
654.9573, 24129.67
655.4395, 24128.39
655.9216, 24128.46
656.4037, 24122.78
656.8858, 24103.45
657.3679, 24091.86
657.8500, 24103.26
658.3322, 24135.87
658.8143, 24125.04
659.2964, 24061.20
659.7785, 24011.19
660.2606, 24052.24
660.7427, 24150.66
661.2249, 24202.52
