##NAMES=Cassiterite
##RRUFFID=R050502
##IDEAL CHEMISTRY=SnO_2_
##LOCALITY=Redruth, Cornwall, England
##OWNER=RRUFF
##SOURCE=California Institute of Technology
##DESCRIPTION=Black crystals associated with colorless quartz and grey stannite.
##STATUS=The identification of this mineral has been confirmed by X-ray diffraction and chemical analysis
##URL=rruff.info/R050502
##MEASURED CHEMISTRY=SnO_2_
90.92609, 0.0000000E+00
91.40820, 12.82877
91.89032, 12.90798
92.37244, 12.88982
92.85455, 12.78381
93.33667, 12.64713
93.81879, 12.47561
94.30090, 12.29924
94.78302, 12.21671
95.26514, 12.29416
95.74725, 12.44185
96.22937, 12.42338
96.71149, 12.22302
97.19360, 12.03665
97.67572, 12.21087
98.15784, 12.73143
98.63995, 12.81320
99.12207, 11.95081
99.60419, 10.33740
100.0863, 9.746144
100.5684, 10.43614
101.0505, 11.63259
101.5327, 12.33713
102.0148, 12.39487
102.4969, 12.46369
102.9790, 12.77692
103.4611, 13.38703
103.9432, 13.94434
104.4253, 14.45963
104.9075, 14.91310
105.3896, 15.20002
105.8717, 14.97836
106.3538, 15.05958
106.8359, 15.79900
107.3180, 17.70702
107.8002, 19.36391
108.2823, 20.44844
108.7644, 21.21751
109.2465, 22.66910
109.7286, 25.06198
110.2107, 27.93637
110.6929, 31.13998
111.1750, 34.79911
111.6571, 38.60368
112.1392, 42.48585
112.6213, 46.46626
113.1034, 50.79543
113.5856, 55.45508
114.0677, 60.57064
114.5498, 66.18457
115.0319, 72.03582
115.5140, 78.68794
115.9961, 86.57639
116.4783, 95.68385
116.9604, 104.7120
117.4425, 113.4440
117.9246, 121.8764
118.4067, 129.9368
118.8888, 137.1860
119.3710, 144.4502
119.8531, 152.2642
120.3352, 160.6721
120.8173, 169.2016
121.2994, 177.4649
121.7815, 185.5852
122.2637, 193.8120
122.7458, 202.7087
123.2279, 211.4681
123.7100, 218.9571
124.1921, 224.7354
124.6742, 230.5876
125.1564, 238.1031
125.6385, 247.0461
126.1206, 256.7121
126.6027, 266.6873
127.0848, 277.0327
127.5669, 287.9835
128.0491, 299.9053
128.5312, 311.7575
129.0133, 321.8675
129.4954, 330.2999
129.9775, 338.4979
130.4596, 347.9934
130.9418, 358.1789
131.4239, 367.0085
131.9060, 373.9752
132.3881, 379.5010
132.8702, 384.2727
133.3523, 388.2872
133.8345, 391.9140
134.3166, 395.5454
134.7987, 399.2025
135.2808, 402.2028
135.7629, 404.0848
136.2450, 405.2522
136.7272, 407.8816
137.2093, 412.3560
137.6914, 417.1542
138.1735, 420.5574
138.6556, 422.2372
139.1377, 424.1263
139.6199, 426.7707
140.1020, 430.1436
140.5841, 433.3988
141.0662, 436.2325
141.5483, 439.3031
142.0304, 443.6420
142.5126, 449.9073
142.9947, 455.6667
143.4768, 458.8214
143.9589, 458.2535
144.4410, 457.0782
144.9231, 454.7951
145.4053, 452.2482
145.8874, 450.7703
146.3695, 451.2417
146.8516, 451.5460
147.3337, 451.1071
147.8158, 449.9238
148.2980, 448.0528
148.7801, 444.9751
149.2622, 441.3114
149.7443, 438.3880
150.2264, 436.9604
150.7085, 435.5316
151.1907, 433.6189
151.6728, 430.8682
152.1549, 428.1825
152.6370, 425.4994
153.1191, 422.8595
153.6012, 420.4485
154.0834, 419.8503
154.5655, 418.2902
155.0476, 414.4440
155.5297, 405.7679
156.0118, 398.1643
156.4939, 393.0636
156.9761, 389.7486
157.4582, 386.0332
157.9403, 380.8749
158.4224, 375.5320
158.9045, 370.6969
159.3866, 366.2255
159.8688, 362.6573
160.3509, 360.5360
160.8330, 359.6129
161.3151, 358.7418
161.7972, 357.5545
162.2793, 356.2451
162.7615, 354.9597
163.2436, 353.5790
163.7257, 352.3815
164.2078, 351.4940
164.6899, 350.8927
165.1720, 350.4339
165.6541, 350.3004
166.1363, 350.1707
166.6184, 349.7271
167.1005, 348.4183
167.5826, 347.1071
168.0647, 346.4117
168.5468, 346.2846
169.0290, 346.1139
169.5111, 345.7199
169.9932, 345.0126
170.4753, 343.8669
170.9574, 341.6915
171.4395, 339.4254
171.9217, 337.9971
172.4038, 337.4074
172.8859, 336.7707
173.3680, 335.4507
173.8501, 333.6261
174.3322, 331.5846
174.8144, 329.1158
175.2965, 326.6284
175.7786, 324.6880
176.2607, 323.2863
176.7428, 322.1920
177.2249, 321.4141
177.7071, 320.8065
178.1892, 319.9934
178.6713, 318.8170
179.1534, 317.3220
179.6355, 315.3736
180.1176, 312.8697
180.5998, 310.5934
181.0819, 309.5484
181.5640, 309.4687
182.0461, 309.3711
182.5282, 308.8656
183.0103, 308.0087
183.4925, 306.8092
183.9746, 305.2020
184.4567, 303.6111
184.9388, 302.7841
185.4209, 302.5630
185.9030, 302.0323
186.3852, 300.4456
186.8673, 298.1587
187.3494, 296.3895
187.8315, 295.2602
188.3136, 294.4354
188.7957, 293.3906
189.2779, 292.1620
189.7600, 291.0915
190.2421, 290.2755
190.7242, 289.7431
191.2063, 289.7585
191.6884, 290.4596
192.1706, 291.3891
192.6527, 291.9005
193.1348, 291.9845
193.6169, 291.8076
194.0990, 291.2279
194.5811, 290.3004
195.0633, 289.9159
195.5454, 290.1817
196.0275, 290.8537
196.5096, 291.4980
196.9917, 292.1076
197.4738, 292.7944
197.9560, 293.5591
198.4381, 294.3985
198.9202, 295.6959
199.4023, 297.7235
199.8844, 299.8586
200.3665, 300.5561
200.8487, 299.5472
201.3308, 298.7783
201.8129, 299.3959
202.2950, 301.5195
202.7771, 303.4990
203.2592, 305.3380
203.7414, 306.9612
204.2235, 308.0683
204.7056, 308.4498
205.1877, 309.0669
205.6698, 310.5143
206.1519, 312.9447
206.6341, 315.1202
207.1162, 316.8016
207.5983, 318.3479
208.0804, 320.6821
208.5625, 324.0409
209.0446, 327.3801
209.5268, 330.0742
210.0089, 331.8928
210.4910, 334.1685
210.9731, 336.9754
211.4552, 340.2467
211.9373, 343.8317
212.4195, 347.8106
212.9016, 351.8700
213.3837, 355.8138
213.8658, 359.5522
214.3479, 363.5596
214.8300, 367.8667
215.3121, 372.4608
215.7943, 377.3409
216.2764, 382.5013
216.7585, 387.8626
217.2406, 393.5473
217.7227, 399.7484
218.2048, 405.4373
218.6870, 410.5314
219.1691, 415.1246
219.6512, 419.4424
220.1333, 423.1384
220.6154, 427.2231
221.0975, 432.3359
221.5797, 438.9041
222.0618, 445.0846
222.5439, 450.7343
223.0260, 456.0597
223.5081, 461.7019
223.9902, 467.8011
224.4724, 473.9404
224.9545, 479.8106
225.4366, 485.4113
225.9187, 490.9987
226.4008, 496.5006
226.8829, 502.0816
227.3651, 508.2389
227.8472, 515.6887
228.3293, 522.6345
228.8114, 528.2330
229.2935, 531.8372
229.7757, 536.0535
230.2578, 541.1375
230.7399, 546.6502
231.2220, 551.8546
231.7041, 556.7596
232.1862, 561.2504
232.6684, 565.1736
233.1505, 568.2231
233.6326, 571.7520
234.1147, 576.2891
234.5968, 581.0234
235.0789, 584.2836
235.5611, 585.1714
236.0432, 586.0615
236.5253, 588.0787
237.0074, 592.0994
237.4895, 593.8808
237.9716, 592.7316
238.4538, 589.7756
238.9359, 586.8687
239.4180, 584.5367
239.9001, 581.3681
240.3822, 577.0893
240.8643, 571.9506
241.3465, 564.6522
241.8286, 554.3996
242.3107, 542.5468
242.7928, 531.0430
243.2749, 520.4154
243.7570, 509.2069
244.2392, 496.8629
244.7213, 483.0808
245.2034, 469.6851
245.6855, 456.5089
246.1676, 443.7523
246.6497, 431.6916
247.1319, 420.5081
247.6140, 409.7044
248.0961, 399.1854
248.5782, 388.9138
249.0603, 378.8898
249.5424, 368.7245
250.0246, 359.0945
250.5067, 350.6376
250.9888, 343.6192
251.4709, 337.2638
251.9530, 331.5259
252.4351, 326.3856
252.9173, 321.3027
253.3994, 316.1668
253.8815, 311.1037
254.3636, 306.1339
254.8457, 301.0184
255.3278, 296.6436
255.8100, 293.3882
256.2921, 291.2016
256.7742, 288.5902
257.2563, 285.2281
257.7384, 281.8830
258.2205, 279.3159
258.7026, 277.8589
259.1848, 276.2749
259.6669, 274.2142
260.1490, 271.7961
260.6311, 270.2672
261.1132, 270.0071
261.5953, 270.0274
262.0775, 269.5457
262.5596, 268.2730
263.0417, 267.3352
263.5238, 266.8425
264.0059, 266.7770
264.4880, 267.1108
264.9702, 268.0174
265.4523, 268.9718
265.9344, 269.7124
266.4165, 270.3279
266.8986, 270.3607
267.3807, 269.5505
267.8629, 268.2127
268.3450, 267.3733
268.8271, 267.1225
269.3092, 267.1347
269.7913, 267.3100
270.2734, 267.7316
270.7556, 267.8701
271.2377, 267.5232
271.7198, 267.0395
272.2019, 267.3470
272.6840, 268.6984
273.1661, 269.9945
273.6483, 270.4495
274.1304, 269.8229
274.6125, 270.3880
275.0946, 272.4247
275.5767, 275.3184
276.0588, 277.9373
276.5410, 280.1406
277.0231, 282.7137
277.5052, 285.6813
277.9873, 289.0280
278.4694, 294.2988
278.9515, 302.1534
279.4337, 310.5036
279.9158, 316.3441
280.3979, 319.4856
280.8800, 321.8673
281.3621, 323.8094
281.8442, 325.4217
282.3264, 327.9824
282.8085, 331.8394
283.2906, 335.4708
283.7727, 337.1353
284.2548, 336.8293
284.7369, 335.5205
285.2191, 333.3442
285.7012, 330.4102
286.1833, 326.9975
286.6654, 323.0810
287.1475, 318.8470
287.6296, 314.3772
288.1118, 309.6916
288.5939, 305.1965
289.0760, 300.9325
289.5581, 296.9555
290.0402, 293.3930
290.5223, 290.2396
291.0045, 287.1745
291.4866, 283.8626
291.9687, 280.3736
292.4508, 276.9838
292.9329, 273.6056
293.4150, 270.5551
293.8972, 268.5027
294.3793, 267.3678
294.8614, 266.1759
295.3435, 264.1524
295.8256, 261.5758
296.3077, 259.1909
296.7899, 257.0915
297.2720, 255.2629
297.7541, 254.0274
298.2362, 253.2066
298.7183, 251.9628
299.2004, 249.1995
299.6826, 245.8369
300.1647, 243.7382
300.6468, 243.2118
301.1289, 242.9207
301.6110, 241.1991
302.0931, 238.5784
302.5753, 236.4143
303.0574, 235.8838
303.5395, 235.9404
304.0216, 235.0997
304.5037, 233.3028
304.9858, 231.5341
305.4680, 230.8819
305.9501, 230.7868
306.4322, 230.2856
306.9143, 228.5775
307.3964, 226.6435
307.8785, 225.4928
308.3607, 225.0481
308.8428, 224.5026
309.3249, 223.0810
309.8070, 221.3458
310.2891, 219.9648
310.7712, 219.2066
311.2534, 218.7211
311.7355, 218.4858
312.2176, 218.3794
312.6997, 217.9613
313.1818, 216.5614
313.6639, 215.0009
314.1461, 213.9094
314.6282, 213.4390
315.1103, 213.4216
315.5924, 214.2756
316.0745, 215.5196
316.5566, 216.1609
317.0388, 215.2734
317.5209, 214.0458
318.0030, 213.1340
318.4851, 212.6737
318.9672, 212.3056
319.4493, 211.9563
319.9315, 211.6190
320.4136, 211.2791
320.8957, 211.1323
321.3778, 210.8060
321.8599, 209.9850
322.3420, 208.5806
322.8242, 207.6135
323.3063, 207.8045
323.7884, 208.2805
324.2705, 208.2798
324.7526, 206.9245
325.2347, 205.8837
325.7169, 205.7557
326.1990, 206.4391
326.6811, 206.6656
327.1632, 205.6612
327.6453, 204.6436
328.1274, 204.2899
328.6096, 205.3738
329.0917, 206.1775
329.5738, 206.4529
330.0559, 206.3949
330.5380, 206.6671
331.0201, 207.8674
331.5023, 208.7463
331.9844, 208.6716
332.4665, 206.8991
332.9486, 206.0256
333.4307, 206.4016
333.9128, 207.4995
334.3950, 208.4316
334.8771, 209.1404
335.3592, 209.8056
335.8413, 210.4736
336.3234, 211.1509
336.8055, 211.8098
337.2877, 212.4942
337.7698, 213.0885
338.2519, 213.3729
338.7340, 213.1775
339.2161, 213.3548
339.6982, 214.2278
340.1803, 215.6464
340.6624, 216.6179
341.1446, 217.0933
341.6267, 217.3195
342.1088, 217.3557
342.5909, 217.1824
343.0730, 217.4875
343.5551, 218.5969
344.0373, 219.9548
344.5194, 220.0406
345.0015, 218.7924
345.4836, 217.5996
345.9657, 217.3960
346.4478, 218.0041
346.9300, 218.4620
347.4121, 218.7009
347.8942, 218.8463
348.3763, 219.0591
348.8584, 219.3319
349.3405, 219.6183
349.8227, 220.0343
350.3048, 220.4264
350.7869, 220.4250
351.2690, 220.0282
351.7511, 219.4776
352.2332, 218.8407
352.7154, 218.2240
353.1975, 217.8990
353.6796, 218.2819
354.1617, 218.6480
354.6438, 218.1167
355.1259, 216.7910
355.6081, 215.2442
356.0902, 214.0755
356.5723, 212.7711
357.0544, 210.7340
357.5365, 207.8299
358.0186, 204.2510
358.5008, 199.7775
358.9829, 194.7240
359.4650, 189.7680
359.9471, 185.1416
360.4292, 180.7710
360.9113, 176.6936
361.3935, 173.0091
361.8756, 169.1952
362.3577, 164.4490
362.8398, 159.6765
363.3219, 155.9068
363.8040, 154.1797
364.2862, 152.7634
364.7683, 151.0920
365.2504, 149.1686
365.7325, 147.4876
366.2146, 146.1262
366.6967, 145.0359
367.1789, 144.1865
367.6610, 144.1138
368.1431, 143.6394
368.6252, 142.2910
369.1073, 140.4229
369.5894, 139.1811
370.0716, 139.0117
370.5537, 138.9983
371.0358, 138.8023
371.5179, 138.2915
372.0000, 138.0280
372.4821, 138.2840
372.9643, 138.6008
373.4464, 138.2794
373.9285, 136.8857
374.4106, 135.7747
374.8927, 135.2875
375.3748, 135.4048
375.8570, 135.6503
376.3391, 136.0943
376.8212, 136.5197
377.3033, 136.7317
377.7854, 136.7002
378.2675, 136.6916
378.7497, 136.8160
379.2318, 136.9161
379.7139, 136.4798
380.1960, 135.4626
380.6781, 134.4903
381.1602, 133.9516
381.6424, 133.7947
382.1245, 133.7322
382.6066, 133.7835
383.0887, 133.7951
383.5708, 133.4749
384.0529, 132.9060
384.5351, 132.4764
385.0172, 132.4617
385.4993, 132.6324
385.9814, 132.4798
386.4635, 132.0274
386.9456, 131.7572
387.4278, 132.3712
387.9099, 133.3592
388.3920, 133.8569
388.8741, 133.4226
389.3562, 132.8179
389.8383, 132.6218
390.3205, 132.7774
390.8026, 133.1335
391.2847, 133.9156
391.7668, 134.6671
392.2489, 134.9663
392.7310, 134.6670
393.2132, 134.4217
393.6953, 134.6223
394.1774, 135.0337
394.6595, 135.3744
395.1416, 135.5422
395.6237, 135.6391
396.1059, 135.7050
396.5880, 135.7391
397.0701, 135.6989
397.5522, 135.3586
398.0343, 135.0892
398.5164, 135.1168
398.9986, 135.9798
399.4807, 136.4646
399.9628, 136.3341
400.4449, 135.8200
400.9270, 135.4279
401.4091, 134.9676
401.8913, 134.8889
402.3734, 135.4656
402.8555, 136.8897
403.3376, 137.8620
403.8197, 138.2298
404.3018, 138.3225
404.7840, 138.4885
405.2661, 138.7654
405.7482, 138.9613
406.2303, 138.9604
406.7124, 138.8653
407.1945, 139.1578
407.6767, 139.8910
408.1588, 140.7395
408.6409, 141.5146
409.1230, 142.2136
409.6051, 142.8500
410.0872, 143.4084
410.5694, 143.9642
411.0515, 144.6585
411.5336, 145.4678
412.0157, 146.2227
412.4978, 146.7139
412.9799, 147.1429
413.4621, 148.0524
413.9442, 149.4380
414.4263, 150.6849
414.9084, 151.0637
415.3905, 151.0334
415.8727, 151.3837
416.3548, 152.5305
416.8369, 153.7680
417.3190, 154.2760
417.8011, 154.3710
418.2832, 154.9086
418.7654, 156.4422
419.2475, 158.4729
419.7296, 160.9148
420.2117, 163.9599
420.6938, 166.2097
421.1759, 165.9931
421.6581, 165.1452
422.1402, 165.6122
422.6223, 169.8025
423.1044, 173.2959
423.5865, 174.4749
424.0686, 173.6787
424.5508, 173.6937
425.0329, 175.5567
425.5150, 177.6455
425.9971, 179.1937
426.4792, 179.6707
426.9613, 180.7208
427.4435, 182.6054
427.9256, 184.9158
428.4077, 186.9952
428.8898, 188.7692
429.3719, 190.5273
429.8540, 192.2999
430.3362, 194.0968
430.8183, 196.2930
431.3004, 199.0201
431.7825, 201.7352
432.2646, 203.8750
432.7467, 205.4281
433.2289, 207.3070
433.7110, 209.6849
434.1931, 212.2847
434.6752, 214.7296
435.1573, 216.9957
435.6394, 218.8344
436.1216, 219.9473
436.6036, 220.5725
437.0858, 221.1927
437.5679, 221.8199
438.0500, 222.4291
438.5321, 223.3425
439.0142, 224.1612
439.4963, 224.1577
439.9785, 222.7559
440.4606, 220.9665
440.9427, 219.6702
441.4248, 218.6737
441.9069, 217.4157
442.3890, 215.3580
442.8712, 213.1451
443.3533, 211.0912
443.8354, 209.1681
444.3175, 207.7500
444.7996, 207.4942
445.2817, 207.5987
445.7639, 207.2220
446.2460, 205.6013
446.7281, 204.1540
447.2102, 203.1419
447.6923, 202.5318
448.1744, 202.0966
448.6566, 201.6902
449.1387, 201.6096
449.6208, 202.0648
450.1029, 203.3620
450.5850, 204.1751
451.0671, 204.0278
451.5493, 203.8731
452.0314, 205.3095
452.5135, 208.7757
452.9956, 211.8579
453.4777, 213.7778
453.9598, 214.8226
454.4420, 216.2253
454.9241, 217.9823
455.4062, 220.0291
455.8883, 222.2969
456.3704, 224.7981
456.8525, 227.6517
457.3347, 230.8946
457.8168, 234.1975
458.2989, 236.9840
458.7810, 239.4400
459.2631, 242.0200
459.7452, 245.0201
460.2274, 248.2364
460.7095, 251.4213
461.1916, 254.6205
461.6737, 257.8514
462.1558, 261.3428
462.6379, 264.7982
463.1201, 267.9490
463.6022, 270.7484
464.0843, 273.3041
464.5664, 275.4185
465.0485, 277.3647
465.5306, 279.5799
466.0128, 282.6617
466.4949, 285.5311
466.9770, 287.8228
467.4591, 289.5117
467.9412, 291.0259
468.4233, 292.0663
468.9055, 293.2264
469.3876, 294.9461
469.8697, 297.8338
470.3518, 299.9157
470.8339, 300.9024
471.3160, 301.2665
471.7982, 302.0488
472.2803, 303.5428
472.7624, 304.2564
473.2445, 303.4719
473.7266, 301.4530
474.2087, 299.9358
474.6909, 299.0327
475.1730, 297.7078
475.6551, 294.7000
476.1372, 290.4356
476.6193, 286.7425
477.1014, 284.0211
477.5836, 281.6272
478.0657, 278.6094
478.5478, 275.2451
479.0299, 272.3878
479.5120, 270.4474
479.9941, 269.1484
480.4763, 268.2809
480.9584, 267.8372
481.4405, 267.8432
481.9226, 268.6567
482.4047, 269.7291
482.8868, 270.5994
483.3690, 271.0110
483.8511, 271.5473
484.3332, 272.4875
484.8153, 273.6312
485.2974, 274.6706
485.7795, 275.2299
486.2617, 276.0255
486.7438, 277.3155
487.2259, 279.0936
487.7080, 280.6650
488.1901, 282.0253
488.6722, 283.2052
489.1544, 284.2279
489.6365, 285.0661
490.1186, 285.8113
490.6007, 286.4477
491.0828, 287.0213
491.5649, 287.6942
492.0471, 288.4780
492.5292, 288.9498
493.0113, 288.8329
493.4934, 288.3703
493.9755, 288.1982
494.4576, 288.3082
494.9398, 288.5482
495.4219, 288.6473
495.9040, 288.8350
496.3861, 289.7036
496.8682, 291.4847
497.3503, 293.0742
497.8325, 293.6400
498.3146, 293.4091
498.7967, 292.7431
499.2788, 291.0652
499.7609, 289.6658
500.2430, 289.5557
500.7252, 290.4012
501.2073, 290.6949
501.6894, 289.3399
502.1715, 287.8654
502.6536, 287.0575
503.1357, 287.3591
503.6179, 287.2452
504.1000, 286.0090
504.5821, 284.7802
505.0642, 284.7912
505.5463, 286.8242
506.0284, 288.3655
506.5106, 289.0378
506.9927, 288.9626
507.4748, 288.3952
507.9569, 287.2013
508.4390, 286.1419
508.9211, 285.6116
509.4033, 285.5634
509.8854, 285.7007
510.3675, 286.0523
510.8496, 286.3387
511.3317, 286.3506
511.8138, 286.0799
512.2960, 285.4174
512.7781, 284.0972
513.2602, 282.8772
513.7423, 282.7721
514.2244, 283.4013
514.7065, 283.8347
515.1887, 283.8109
515.6708, 283.2961
516.1529, 281.8789
516.6350, 279.6084
517.1171, 278.0645
517.5992, 278.2121
518.0814, 279.0119
518.5635, 279.8445
519.0456, 281.0816
519.5277, 281.5960
520.0098, 280.9039
520.4919, 279.6542
520.9741, 278.7985
521.4562, 278.5148
521.9383, 278.2759
522.4204, 277.9311
522.9025, 277.5255
523.3846, 277.4015
523.8668, 277.6220
524.3489, 277.8522
524.8310, 277.7103
525.3131, 277.2965
525.7952, 277.6693
526.2773, 279.0052
526.7595, 280.3572
527.2416, 280.5489
527.7237, 279.8961
528.2058, 279.1913
528.6879, 278.6552
529.1700, 278.1997
529.6522, 277.5978
530.1343, 276.9930
530.6164, 276.7783
531.0985, 277.4716
531.5806, 278.3720
532.0627, 279.0496
532.5449, 279.4576
533.0270, 279.8874
533.5091, 280.6903
533.9912, 281.3685
534.4733, 281.5384
534.9554, 279.6545
535.4376, 279.4917
535.9197, 282.2128
536.4018, 286.0786
536.8839, 287.8327
537.3660, 286.6016
537.8481, 285.6384
538.3303, 285.8534
538.8124, 287.0359
539.2945, 288.0841
539.7766, 288.9834
540.2587, 289.8736
540.7408, 290.9529
541.2230, 292.1224
541.7051, 292.9561
542.1872, 293.4124
542.6693, 293.6634
543.1514, 293.6347
543.6335, 293.5666
544.1157, 293.9324
544.5978, 295.1599
545.0799, 296.4640
545.5620, 297.2362
546.0441, 297.6538
546.5262, 298.1533
547.0084, 298.8291
547.4905, 299.6786
547.9726, 300.7675
548.4547, 302.1115
548.9368, 303.4044
549.4189, 304.6024
549.9011, 305.7491
550.3832, 306.8416
550.8653, 307.7438
551.3474, 308.9152
551.8295, 310.4070
552.3116, 312.0900
552.7938, 313.8548
553.2759, 315.7370
553.7580, 317.3319
554.2401, 318.4927
554.7222, 319.3321
555.2043, 320.0033
555.6865, 320.5327
556.1686, 321.2643
556.6507, 322.5796
557.1328, 324.1635
557.6149, 325.5917
558.0970, 326.8436
558.5792, 327.9718
559.0613, 328.7285
559.5434, 329.5096
560.0255, 330.8129
560.5076, 333.3611
560.9897, 335.3109
561.4719, 335.6668
561.9540, 335.1246
562.4361, 334.8393
562.9182, 335.0582
563.4003, 335.4323
563.8824, 335.8655
564.3646, 336.3795
564.8467, 337.2492
565.3288, 338.7112
565.8109, 340.0294
566.2930, 340.8222
566.7751, 341.0679
567.2573, 341.1262
567.7394, 340.9734
568.2215, 340.7297
568.7036, 340.4913
569.1857, 340.2625
569.6678, 340.0063
570.1500, 339.6335
570.6321, 339.4452
571.1142, 339.6232
571.5963, 340.2564
572.0784, 341.5375
572.5605, 344.4722
573.0427, 347.2914
573.5248, 348.6247
574.0069, 348.7216
574.4890, 349.3917
574.9711, 351.9922
575.4532, 354.6424
575.9354, 356.4980
576.4175, 357.5811
576.8996, 357.5272
577.3817, 355.2304
577.8638, 352.8818
578.3459, 352.3012
578.8281, 353.5279
579.3102, 356.7172
579.7923, 362.5826
580.2744, 369.3634
580.7565, 373.5674
581.2386, 375.2929
581.7208, 376.2287
582.2029, 376.4565
582.6850, 376.7021
583.1671, 378.4487
583.6492, 381.5243
584.1313, 384.8921
584.6134, 388.2667
585.0955, 391.4450
585.5776, 394.0457
586.0598, 395.9550
586.5419, 398.3156
587.0240, 402.1664
587.5061, 406.3849
