##NAMES=Cassiterite
##RRUFFID=R040072
##IDEAL CHEMISTRY=SnO_2_
##LOCALITY=Bolivia
##OWNER=RRUFF
##SOURCE=University of Arizona Mineral Museum
##DESCRIPTION=Black fragment
##STATUS=The identification of this mineral has been confirmed by X-ray diffraction and chemical analysis
##URL=rruff.info/R040072
##MEASURED CHEMISTRY=Sn_0.99_O_2_
120.6003, 575.4478
121.0824, 615.2013
121.5645, 662.2009
122.0466, 703.9179
122.5287, 736.9285
123.0108, 761.4260
123.4930, 774.7374
123.9751, 775.2486
124.4572, 774.4991
124.9393, 781.5535
125.4214, 795.6677
125.9035, 809.3625
126.3857, 817.6655
126.8678, 824.3865
127.3499, 832.6078
127.8320, 842.3178
128.3141, 852.5396
128.7962, 863.4382
129.2784, 874.5883
129.7605, 882.3258
130.2426, 886.1161
130.7247, 885.0905
131.2068, 873.5385
131.6889, 844.8154
132.1711, 806.3107
132.6532, 781.8157
133.1353, 771.8401
133.6174, 768.9412
134.0995, 764.8652
134.5816, 759.4171
135.0638, 757.3728
135.5459, 760.2270
136.0280, 767.8553
136.5101, 779.9059
136.9922, 798.3226
137.4743, 818.1511
137.9565, 832.6306
138.4386, 843.5014
138.9207, 844.4193
139.4028, 828.5233
139.8849, 789.5091
140.3670, 762.9188
140.8492, 752.9505
141.3313, 755.7842
141.8134, 757.2539
142.2955, 757.8851
142.7776, 756.7266
143.2597, 752.6779
143.7419, 743.6779
144.2240, 736.3286
144.7061, 730.9869
145.1882, 727.5212
145.6703, 728.4885
146.1524, 738.5243
146.6346, 749.5841
147.1167, 753.4271
147.5988, 744.3174
148.0809, 734.9942
148.5630, 727.5487
149.0451, 721.1951
149.5273, 718.8015
150.0094, 724.4596
150.4915, 733.2955
150.9736, 737.2802
151.4557, 728.8507
151.9378, 721.7817
152.4200, 720.7700
152.9021, 731.1989
153.3842, 739.5415
153.8663, 746.7349
154.3484, 751.4625
154.8305, 749.4949
155.3127, 733.5500
155.7948, 715.1408
156.2769, 700.6527
156.7590, 691.8882
157.2411, 686.3274
157.7232, 684.7463
158.2054, 686.7257
158.6875, 688.4630
159.1696, 689.1660
159.6517, 689.0805
160.1338, 688.4253
160.6159, 685.3398
161.0980, 683.3823
161.5802, 685.4670
162.0623, 692.2369
162.5444, 696.1621
163.0265, 691.1817
163.5086, 682.0919
163.9907, 675.4744
164.4729, 677.5146
164.9550, 680.3958
165.4371, 678.0899
165.9192, 667.8427
166.4013, 659.5129
166.8834, 661.2518
167.3656, 669.3422
167.8477, 675.3748
168.3298, 672.0681
168.8119, 666.0757
169.2940, 664.0182
169.7761, 669.2086
170.2583, 675.1624
170.7404, 677.6960
171.2225, 676.9257
171.7046, 673.1854
172.1867, 663.1331
172.6688, 651.0109
173.1510, 643.0551
173.6331, 643.2753
174.1152, 646.3308
174.5973, 646.9755
175.0794, 645.2907
175.5615, 642.5586
176.0437, 638.9960
176.5258, 635.1190
177.0079, 632.0686
177.4900, 631.3828
177.9721, 631.3940
178.4542, 629.1426
178.9364, 624.4711
179.4185, 619.6742
179.9006, 615.5300
180.3827, 612.7726
180.8648, 614.0806
181.3469, 624.6053
181.8291, 639.8793
182.3112, 649.0024
182.7933, 650.6639
183.2754, 648.8428
183.7575, 648.2886
184.2396, 648.7966
184.7218, 648.9224
185.2039, 646.8611
185.6860, 643.4749
186.1681, 642.4836
186.6502, 645.0566
187.1323, 648.7960
187.6145, 648.8680
188.0966, 645.2905
188.5787, 641.8900
189.0608, 642.1373
189.5429, 645.4131
190.0250, 646.9567
190.5071, 645.2430
190.9893, 641.8831
191.4714, 641.1926
191.9535, 643.4010
192.4356, 646.3441
192.9177, 648.7141
193.3998, 650.5286
193.8820, 650.5706
194.3641, 647.4080
194.8462, 642.3822
195.3283, 641.5840
195.8104, 645.7523
196.2925, 651.3840
196.7747, 655.0496
197.2568, 656.6971
197.7389, 657.0159
198.2210, 654.8467
198.7031, 650.6879
199.1852, 652.2292
199.6674, 661.2488
200.1495, 671.9282
200.6316, 675.6356
201.1137, 671.3021
201.5958, 666.6922
202.0779, 664.3404
202.5601, 664.2612
203.0422, 666.9550
203.5243, 673.8074
204.0064, 681.5958
204.4885, 683.5413
204.9706, 677.8116
205.4528, 673.0066
205.9349, 673.6681
206.4170, 680.9960
206.8991, 686.8839
207.3812, 690.5103
207.8633, 693.0553
208.3455, 697.5610
208.8276, 704.7059
209.3097, 712.0226
209.7918, 718.0892
210.2739, 722.6005
210.7560, 726.8500
211.2382, 729.7249
211.7203, 732.6808
212.2024, 742.3529
212.6845, 762.6080
213.1666, 781.9294
213.6487, 791.4195
214.1309, 787.3371
214.6130, 785.5796
215.0951, 788.1823
215.5772, 794.5920
216.0593, 801.6941
216.5414, 809.6918
217.0236, 818.0836
217.5057, 826.9543
217.9878, 837.3937
218.4699, 845.5051
218.9520, 849.9335
219.4341, 850.9864
219.9163, 854.4279
220.3984, 863.8087
220.8805, 871.2049
221.3626, 867.5502
221.8447, 845.0278
222.3268, 828.6456
222.8089, 825.8094
223.2911, 837.5005
223.7732, 840.7641
224.2553, 831.4271
224.7374, 817.6804
225.2195, 808.9004
225.7016, 806.5063
226.1838, 806.2294
226.6659, 807.9203
227.1480, 812.1960
227.6301, 812.9595
228.1122, 807.4018
228.5943, 800.5524
229.0765, 799.7966
229.5586, 809.7250
230.0407, 817.7026
230.5228, 819.7139
231.0049, 814.1066
231.4870, 809.6533
231.9692, 806.2204
232.4513, 803.9847
232.9334, 803.3583
233.4155, 805.2292
233.8976, 807.3144
234.3797, 809.2699
234.8619, 812.0071
235.3440, 811.3900
235.8261, 804.9112
236.3082, 796.2127
236.7903, 792.8474
237.2724, 797.9778
237.7546, 803.5711
238.2367, 806.5010
238.7188, 805.1779
239.2009, 804.9160
239.6830, 805.5793
240.1651, 807.3141
240.6473, 811.0518
241.1294, 819.8455
241.6115, 826.1756
242.0936, 825.9115
242.5757, 813.4013
243.0578, 806.8249
243.5400, 808.2868
244.0221, 815.4193
244.5042, 821.7450
244.9863, 827.7177
245.4684, 832.2609
245.9505, 834.3475
246.4327, 831.4171
246.9148, 831.8306
247.3969, 837.0784
247.8790, 845.7864
248.3611, 853.3041
248.8432, 860.4927
249.3254, 865.2899
249.8075, 865.8730
250.2896, 859.0829
250.7717, 855.5032
251.2538, 857.7734
251.7359, 863.8146
252.2180, 863.8278
252.7002, 852.6039
253.1823, 842.8978
253.6644, 843.3810
254.1465, 860.3531
254.6286, 872.8457
255.1107, 878.6779
255.5929, 878.6998
256.0750, 877.4579
256.5571, 874.9481
257.0392, 871.1476
257.5213, 865.3173
258.0034, 855.0305
258.4856, 849.1469
258.9677, 849.9758
259.4498, 856.1728
259.9319, 860.5629
260.4140, 862.9540
260.8961, 863.8359
261.3783, 863.0000
261.8604, 859.1506
262.3425, 857.6297
262.8246, 860.3115
263.3067, 866.0977
263.7888, 867.7446
264.2710, 863.5987
264.7531, 858.4507
265.2352, 855.8615
265.7173, 856.2927
266.1994, 857.7026
266.6815, 860.0340
267.1637, 863.1679
267.6458, 866.6816
268.1279, 871.3290
268.6100, 874.8412
269.0921, 875.0411
269.5742, 871.0276
270.0564, 867.4984
270.5385, 865.8066
271.0206, 865.1722
271.5027, 860.4577
271.9848, 850.1289
272.4669, 839.4750
272.9491, 833.6452
273.4312, 833.8544
273.9133, 831.3495
274.3954, 823.2471
274.8775, 811.3985
275.3596, 805.3356
275.8418, 806.1172
276.3239, 809.4704
276.8060, 813.2653
277.2881, 817.9879
277.7702, 817.8049
278.2523, 809.0832
278.7345, 795.3100
279.2166, 792.2962
279.6987, 802.1136
280.1808, 813.9043
280.6629, 817.8329
281.1451, 813.5805
281.6272, 811.2189
282.1093, 813.1767
282.5914, 818.0283
283.0735, 820.7761
283.5556, 821.1252
284.0378, 821.0630
284.5199, 821.9255
285.0020, 823.7146
285.4841, 826.8940
285.9662, 832.5422
286.4483, 838.9757
286.9305, 840.6953
287.4126, 837.3461
287.8947, 833.6822
288.3768, 832.5173
288.8589, 833.9753
289.3410, 839.7969
289.8232, 853.0052
290.3053, 868.2811
290.7874, 871.5293
291.2695, 862.7839
291.7516, 853.1846
292.2337, 852.1466
292.7159, 857.8837
293.1980, 863.3365
293.6801, 867.5468
294.1622, 870.3088
294.6443, 870.6586
295.1264, 868.7266
295.6086, 866.3763
296.0907, 863.1803
296.5728, 860.5419
297.0549, 863.1002
297.5370, 874.2429
298.0191, 886.9775
298.5012, 888.4232
298.9833, 880.4155
299.4655, 875.6086
299.9476, 886.3714
300.4297, 905.8570
300.9118, 922.9069
301.3939, 937.5018
301.8760, 944.6436
302.3582, 932.7765
302.8403, 905.8777
303.3224, 881.6601
303.8045, 872.9469
304.2866, 873.1400
304.7687, 874.0361
305.2509, 875.1725
305.7330, 874.4554
306.2151, 867.9426
306.6972, 857.5533
307.1793, 848.9680
307.6614, 844.4284
308.1436, 843.9701
308.6257, 848.9296
309.1078, 861.8350
309.5899, 873.7565
310.0720, 878.8568
310.5541, 878.2404
311.0363, 874.6989
311.5184, 865.0435
312.0005, 855.7355
312.4826, 852.0507
312.9647, 855.7384
313.4468, 861.5717
313.9290, 871.0264
314.4111, 880.4266
314.8932, 883.0150
315.3753, 867.5894
315.8574, 850.7259
316.3395, 842.5081
316.8217, 845.8582
317.3038, 850.3391
317.7859, 851.8868
318.2680, 852.1614
318.7501, 853.5917
319.2322, 856.5129
319.7144, 861.0941
320.1965, 868.6902
320.6786, 880.7219
321.1607, 888.7907
321.6428, 887.7065
322.1249, 882.5757
322.6071, 879.5257
323.0892, 882.0167
323.5713, 884.5469
324.0534, 885.2947
324.5355, 883.8645
325.0176, 882.9855
325.4998, 884.0959
325.9819, 885.3644
326.4640, 885.0325
326.9461, 878.5479
327.4282, 875.1693
327.9103, 878.2726
328.3925, 888.4795
328.8746, 894.2007
329.3567, 892.8735
329.8388, 888.8451
330.3209, 885.3455
330.8030, 880.9324
331.2852, 879.3937
331.7673, 883.3049
332.2494, 891.9435
332.7315, 894.3768
333.2136, 886.3564
333.6957, 877.1229
334.1779, 873.0769
334.6600, 875.8007
335.1421, 880.1923
335.6242, 886.5196
336.1063, 894.1520
336.5884, 900.4564
337.0706, 905.8658
337.5527, 909.0862
338.0348, 908.5776
338.5169, 903.3560
338.9990, 898.8460
339.4811, 894.5726
339.9633, 891.8937
340.4454, 896.0880
340.9275, 909.0250
341.4096, 919.8984
341.8917, 920.2174
342.3738, 909.9634
342.8560, 907.2511
343.3381, 915.5815
343.8202, 927.2440
344.3023, 927.4890
344.7844, 916.4317
345.2665, 905.4500
345.7487, 899.9202
346.2308, 899.2385
346.7129, 902.2985
347.1950, 910.1129
347.6771, 917.0911
348.1592, 912.9644
348.6414, 900.4064
349.1235, 891.5402
349.6056, 893.7952
350.0877, 903.0462
350.5698, 912.8647
351.0519, 923.3821
351.5341, 931.2005
352.0162, 932.3257
352.4983, 928.3161
352.9804, 922.3214
353.4625, 911.9765
353.9446, 902.4517
354.4268, 900.6209
354.9089, 906.0023
355.3910, 912.1961
355.8731, 915.2841
356.3552, 916.1860
356.8373, 916.0469
357.3195, 915.6504
357.8016, 913.7930
358.2837, 908.1344
358.7658, 899.6902
359.2479, 893.2270
359.7300, 891.4484
360.2121, 892.4532
360.6942, 894.8153
361.1764, 898.5369
361.6585, 903.1792
362.1406, 910.2889
362.6227, 918.3928
363.1048, 923.5698
363.5869, 922.8524
364.0691, 920.3497
364.5512, 917.7147
365.0333, 914.1842
365.5154, 912.6969
365.9975, 914.6130
366.4796, 918.6879
366.9618, 922.8309
367.4439, 928.1652
367.9260, 932.1622
368.4081, 933.3018
368.8902, 930.1345
369.3723, 929.8129
369.8545, 935.6791
370.3366, 942.4719
370.8187, 944.2888
371.3008, 939.0761
371.7829, 931.7205
372.2650, 920.8503
372.7472, 906.4233
373.2293, 902.6686
373.7114, 914.5734
374.1935, 930.1754
374.6756, 939.3787
375.1577, 940.7460
375.6399, 940.7830
376.1220, 940.4210
376.6041, 939.5185
377.0862, 936.7161
377.5683, 931.2983
378.0504, 926.9541
378.5326, 927.0772
379.0147, 931.6425
379.4968, 934.8768
379.9789, 935.8496
380.4610, 935.6264
380.9431, 936.1121
381.4253, 937.2805
381.9074, 938.6675
382.3895, 940.1475
382.8716, 941.6320
383.3537, 942.6714
383.8358, 943.1215
384.3180, 943.6613
384.8001, 945.6548
385.2822, 948.5287
385.7643, 950.4548
386.2464, 949.8564
386.7285, 948.2018
387.2107, 947.4581
387.6928, 947.6616
388.1749, 948.0879
388.6570, 949.0663
389.1391, 949.7172
389.6212, 948.7108
390.1034, 943.5773
390.5855, 938.5740
391.0676, 935.7516
391.5497, 935.2243
392.0318, 937.4732
392.5139, 947.9182
392.9961, 958.1984
393.4782, 961.7307
393.9603, 953.1492
394.4424, 943.8464
394.9245, 935.0292
395.4066, 927.9743
395.8888, 925.9612
396.3709, 934.6908
396.8530, 944.3723
397.3351, 951.0770
397.8172, 953.6162
398.2993, 955.5271
398.7815, 957.8286
399.2636, 959.3246
399.7457, 958.0980
400.2278, 947.5520
400.7099, 942.9298
401.1920, 950.9088
401.6742, 972.7468
402.1563, 982.4644
402.6384, 972.5656
403.1205, 959.4703
403.6026, 958.8020
404.0847, 975.2950
404.5669, 989.1400
405.0490, 997.9048
405.5311, 1001.693
406.0132, 999.3810
406.4953, 989.4154
406.9774, 979.8731
407.4596, 976.0746
407.9417, 977.9492
408.4238, 981.9734
408.9059, 988.4777
409.3880, 995.5809
409.8701, 1000.170
410.3523, 1002.363
410.8344, 1003.490
411.3165, 1003.469
411.7986, 1002.947
412.2807, 1003.679
412.7628, 1005.786
413.2450, 1008.225
413.7271, 1012.297
414.2092, 1015.865
414.6913, 1014.309
415.1734, 1002.139
415.6555, 986.9962
416.1377, 974.4792
416.6198, 964.6668
417.1019, 958.9901
417.5840, 962.3831
418.0661, 968.2191
418.5482, 969.9659
419.0304, 963.5925
419.5125, 957.1862
419.9946, 952.8008
420.4767, 950.9105
420.9588, 952.6690
421.4409, 963.7294
421.9230, 974.1127
422.4052, 979.0768
422.8873, 976.3494
423.3694, 973.8192
423.8515, 971.6937
424.3336, 970.5203
424.8157, 970.7838
425.2979, 968.5119
425.7800, 972.9688
426.2621, 990.5209
426.7442, 1020.834
427.2263, 1035.778
427.7084, 1026.958
428.1906, 1013.987
428.6727, 1011.446
429.1548, 1022.166
429.6369, 1033.136
430.1190, 1044.137
430.6011, 1053.744
431.0833, 1056.396
431.5654, 1050.671
432.0475, 1046.805
432.5296, 1052.529
433.0117, 1066.351
433.4938, 1074.116
433.9760, 1074.703
434.4581, 1071.780
434.9402, 1067.032
435.4223, 1061.774
435.9044, 1062.183
436.3865, 1076.781
436.8687, 1095.028
437.3508, 1099.607
437.8329, 1091.281
438.3150, 1079.957
438.7971, 1069.126
439.2792, 1060.866
439.7614, 1059.362
440.2435, 1071.570
440.7256, 1080.018
441.2077, 1068.674
441.6898, 1044.545
442.1719, 1025.258
442.6541, 1019.350
443.1362, 1019.397
443.6183, 1023.055
444.1004, 1031.910
444.5825, 1036.520
445.0646, 1030.282
445.5468, 1020.491
446.0289, 1015.298
446.5110, 1017.386
446.9931, 1022.293
447.4752, 1031.498
447.9573, 1044.340
448.4395, 1051.597
448.9216, 1049.673
449.4037, 1046.319
449.8858, 1046.523
450.3679, 1052.060
450.8500, 1055.608
451.3322, 1056.076
451.8143, 1054.942
452.2964, 1054.831
452.7785, 1055.540
453.2606, 1058.530
453.7427, 1065.343
454.2249, 1075.390
454.7070, 1084.609
455.1891, 1093.122
455.6712, 1100.457
456.1533, 1104.648
456.6354, 1106.923
457.1176, 1111.859
457.5997, 1120.633
458.0818, 1132.830
458.5639, 1148.978
459.0460, 1168.646
459.5281, 1188.200
460.0103, 1202.952
460.4924, 1217.828
460.9745, 1238.262
461.4566, 1266.317
461.9387, 1295.790
462.4208, 1322.549
462.9030, 1348.702
463.3851, 1376.527
463.8672, 1412.009
464.3493, 1445.033
464.8314, 1468.768
465.3135, 1482.960
465.7957, 1504.098
466.2778, 1539.808
466.7599, 1580.006
467.2420, 1618.172
467.7241, 1652.926
468.2062, 1687.534
468.6884, 1721.881
469.1705, 1756.121
469.6526, 1791.204
470.1347, 1827.034
470.6168, 1863.744
471.0989, 1903.289
471.5811, 1945.818
472.0632, 1980.399
472.5453, 2007.310
473.0274, 2025.535
473.5095, 2033.424
473.9916, 2031.132
474.4738, 2022.128
474.9559, 2009.786
475.4380, 1988.341
475.9201, 1941.264
476.4022, 1870.847
476.8843, 1798.030
477.3665, 1733.440
477.8486, 1676.231
478.3307, 1625.339
478.8128, 1580.445
479.2949, 1541.408
479.7770, 1508.958
480.2592, 1481.169
480.7413, 1455.015
481.2234, 1425.200
481.7055, 1400.374
482.1876, 1385.565
482.6697, 1380.296
483.1518, 1379.246
483.6339, 1384.101
484.1161, 1390.240
484.5982, 1394.903
485.0803, 1396.874
485.5624, 1398.790
486.0445, 1400.406
486.5266, 1402.153
487.0088, 1404.851
487.4909, 1408.834
487.9730, 1413.124
488.4551, 1417.523
488.9372, 1422.004
489.4193, 1426.280
489.9015, 1429.817
490.3836, 1434.572
490.8657, 1444.521
491.3478, 1459.442
491.8299, 1466.754
492.3120, 1462.087
492.7942, 1453.562
493.2763, 1457.152
493.7584, 1471.131
494.2405, 1483.889
494.7226, 1486.228
495.2047, 1484.455
495.6869, 1490.297
496.1690, 1504.330
496.6511, 1516.176
497.1332, 1515.252
497.6153, 1508.667
498.0974, 1505.661
498.5796, 1514.446
499.0617, 1520.368
499.5438, 1513.992
500.0259, 1499.102
500.5080, 1485.930
500.9901, 1479.777
501.4723, 1474.081
501.9544, 1465.271
502.4365, 1451.184
502.9186, 1441.215
503.4007, 1439.143
503.8828, 1438.743
504.3650, 1433.769
504.8471, 1420.776
505.3292, 1410.941
505.8113, 1407.431
506.2934, 1407.761
506.7755, 1401.930
507.2577, 1388.417
507.7398, 1376.367
508.2219, 1373.154
508.7040, 1377.389
509.1861, 1375.554
509.6682, 1367.093
510.1504, 1354.403
510.6325, 1337.225
511.1146, 1317.687
511.5967, 1302.222
512.0789, 1294.103
512.5610, 1289.567
513.0431, 1285.735
513.5251, 1282.258
514.0073, 1277.703
514.4894, 1270.323
514.9715, 1262.139
515.4536, 1254.638
515.9357, 1248.159
516.4178, 1241.449
516.9000, 1234.110
517.3821, 1226.255
517.8642, 1217.919
518.3463, 1204.250
518.8284, 1195.820
519.3105, 1198.031
519.7927, 1207.631
520.2748, 1207.984
520.7569, 1193.931
521.2390, 1178.615
521.7211, 1167.579
522.2032, 1161.141
522.6854, 1157.343
523.1675, 1156.675
523.6496, 1157.671
524.1317, 1157.614
524.6138, 1156.762
525.0959, 1160.554
525.5781, 1172.881
526.0602, 1187.963
526.5423, 1193.268
527.0244, 1190.224
527.5065, 1188.400
527.9886, 1196.004
528.4708, 1207.085
528.9529, 1214.075
529.4350, 1215.694
529.9171, 1217.770
530.3992, 1222.346
530.8813, 1229.900
531.3635, 1241.073
531.8456, 1262.470
532.3277, 1280.543
532.8098, 1287.223
533.2919, 1286.385
533.7740, 1293.441
534.2562, 1320.942
534.7383, 1345.372
535.2204, 1357.486
535.7025, 1353.367
536.1846, 1357.293
536.6667, 1372.074
537.1489, 1390.833
537.6310, 1407.440
538.1131, 1421.842
538.5952, 1433.793
539.0773, 1442.824
539.5594, 1450.272
540.0416, 1461.387
540.5237, 1475.467
541.0058, 1483.329
541.4879, 1471.912
541.9700, 1453.732
542.4521, 1454.980
542.9343, 1476.598
543.4164, 1493.065
543.8985, 1483.020
544.3806, 1458.315
544.8627, 1432.003
545.3448, 1404.368
545.8270, 1380.667
546.3091, 1360.297
546.7912, 1345.765
547.2733, 1342.263
547.7554, 1369.419
548.2375, 1389.564
548.7197, 1387.460
549.2018, 1361.759
549.6839, 1345.615
550.1660, 1342.653
550.6481, 1344.632
551.1302, 1346.952
551.6124, 1350.218
552.0945, 1350.215
552.5766, 1345.889
553.0587, 1339.455
553.5408, 1334.156
554.0229, 1329.954
554.5051, 1326.743
554.9872, 1324.499
555.4693, 1323.152
555.9514, 1323.957
556.4335, 1326.417
556.9156, 1326.202
557.3978, 1318.148
557.8799, 1307.118
558.3620, 1298.545
558.8441, 1294.042
559.3262, 1288.458
559.8083, 1277.110
560.2905, 1264.190
560.7726, 1254.639
561.2547, 1251.862
561.7368, 1250.029
562.2189, 1248.968
562.7010, 1248.147
563.1832, 1245.107
563.6653, 1237.082
564.1474, 1231.181
564.6295, 1231.999
565.1116, 1240.755
565.5938, 1240.736
566.0759, 1230.087
566.5580, 1215.856
567.0401, 1203.666
567.5222, 1193.719
568.0043, 1187.524
568.4865, 1186.634
568.9686, 1187.090
569.4507, 1182.809
569.9328, 1175.039
570.4149, 1167.508
570.8970, 1160.985
571.3792, 1156.351
571.8613, 1155.505
572.3434, 1158.146
572.8255, 1159.942
573.3076, 1157.005
573.7897, 1153.762
574.2719, 1153.695
574.7540, 1161.006
575.2361, 1163.989
575.7182, 1156.643
576.2003, 1146.777
576.6824, 1144.869
577.1646, 1155.970
577.6467, 1164.009
578.1288, 1164.778
578.6109, 1160.579
579.0930, 1161.101
579.5751, 1167.182
580.0573, 1172.090
580.5394, 1170.244
581.0215, 1163.836
581.5036, 1162.402
581.9857, 1166.527
582.4678, 1170.835
582.9500, 1168.244
583.4321, 1163.085
583.9142, 1162.972
584.3963, 1172.928
584.8784, 1182.477
585.3605, 1182.051
585.8427, 1176.814
586.3248, 1176.766
586.8069, 1191.731
587.2890, 1205.649
587.7711, 1212.085
588.2532, 1210.889
588.7354, 1212.513
589.2175, 1217.433
589.6996, 1224.661
590.1817, 1234.646
590.6638, 1248.913
591.1459, 1258.120
591.6281, 1260.318
592.1102, 1261.747
592.5923, 1271.331
593.0744, 1288.294
593.5565, 1303.706
594.0386, 1314.940
594.5208, 1324.307
595.0029, 1333.489
595.4850, 1343.297
595.9671, 1357.025
596.4492, 1382.458
596.9313, 1408.186
597.4135, 1422.607
597.8956, 1425.434
598.3777, 1433.329
598.8598, 1456.927
599.3419, 1485.110
599.8240, 1510.038
600.3062, 1528.010
600.7883, 1548.321
601.2704, 1572.270
601.7525, 1597.493
602.2346, 1619.810
602.7167, 1636.590
603.1989, 1658.778
603.6810, 1690.520
604.1631, 1727.873
604.6452, 1758.555
605.1273, 1782.080
605.6094, 1809.081
606.0916, 1846.955
606.5737, 1891.789
607.0558, 1936.476
607.5379, 1980.447
608.0200, 2027.075
608.5021, 2076.303
608.9843, 2130.209
609.4664, 2191.482
609.9485, 2264.185
610.4306, 2337.915
610.9127, 2402.116
611.3948, 2467.478
611.8770, 2548.022
612.3591, 2654.608
612.8412, 2767.125
613.3233, 2881.119
613.8054, 2999.994
614.2875, 3134.670
614.7697, 3286.981
615.2518, 3448.057
615.7339, 3609.506
616.2160, 3773.954
616.6981, 3958.252
617.1802, 4164.991
617.6624, 4386.822
618.1445, 4618.351
618.6266, 4859.431
