##NAMES=Cassiterite
##RRUFFID=R050502
##IDEAL CHEMISTRY=SnO_2_
##LOCALITY=Redruth, Cornwall, England
##OWNER=RRUFF
##SOURCE=California Institute of Technology
##DESCRIPTION=Black crystals associated with colorless quartz and grey stannite.
##STATUS=The identification of this mineral has been confirmed by X-ray diffraction and chemical analysis
##URL=rruff.info/R050502
##MEASURED CHEMISTRY=SnO_2_
92.37695, 450.3993
92.85907, 446.4950
93.34119, 447.4875
93.82330, 449.5719
94.30542, 450.3022
94.78754, 449.9880
95.26965, 449.3431
95.75177, 447.6840
96.23389, 444.7712
96.71600, 441.1629
97.19812, 437.5659
97.68024, 434.0932
98.16235, 430.9731
98.64447, 428.6458
99.12659, 427.5580
99.60870, 425.0492
100.0908, 420.8407
100.5729, 416.5924
101.0551, 413.8031
101.5372, 413.2227
102.0193, 414.3569
102.5014, 414.9608
102.9835, 414.2120
103.4656, 413.6686
103.9478, 413.7183
104.4299, 414.1287
104.9120, 414.4740
105.3941, 414.4445
105.8762, 414.0190
106.3583, 413.0238
106.8405, 410.5452
107.3226, 408.2097
107.8047, 407.0947
108.2868, 407.2477
108.7689, 407.7433
109.2510, 407.4378
109.7332, 406.2270
110.2153, 405.7166
110.6974, 406.4436
111.1795, 407.8975
111.6616, 409.4646
112.1437, 411.1973
112.6259, 412.5809
113.1080, 412.8810
113.5901, 412.1908
114.0722, 411.5795
114.5543, 411.9371
115.0364, 413.1966
115.5185, 413.9674
116.0007, 413.9703
116.4828, 413.3128
116.9649, 411.7245
117.4470, 409.2143
117.9291, 406.6301
118.4112, 405.2325
118.8934, 405.7368
119.3755, 405.7025
119.8576, 404.1884
120.3397, 402.4443
120.8218, 401.6251
121.3039, 402.1794
121.7861, 403.4715
122.2682, 403.6660
122.7503, 401.9516
123.2324, 399.8263
123.7145, 397.2043
124.1966, 394.2516
124.6788, 391.2189
125.1609, 388.2340
125.6430, 385.2570
126.1251, 381.9416
126.6072, 377.7769
127.0893, 373.8423
127.5715, 370.6227
128.0536, 368.0513
128.5357, 365.7763
129.0178, 363.6230
129.4999, 361.5630
129.9821, 359.4107
130.4642, 356.7934
130.9463, 354.2571
131.4284, 352.6046
131.9105, 352.1002
132.3926, 351.3716
132.8748, 348.8696
133.3569, 345.3798
133.8390, 342.3421
134.3211, 340.6104
134.8032, 339.8453
135.2853, 338.8395
135.7674, 337.4274
136.2496, 335.9813
136.7317, 334.6830
137.2138, 333.5071
137.6959, 332.3921
138.1780, 331.3373
138.6601, 330.3690
139.1423, 329.1899
139.6244, 327.8171
140.1065, 326.2084
140.5886, 323.9799
141.0707, 321.3380
141.5528, 318.9799
142.0350, 317.8177
142.5171, 318.4897
142.9992, 318.7646
143.4813, 318.7295
143.9634, 318.3322
144.4455, 317.4975
144.9277, 316.2193
145.4098, 314.5808
145.8919, 312.6750
146.3740, 310.1373
146.8561, 308.0243
147.3382, 306.3436
147.8204, 305.1107
148.3025, 304.4707
148.7846, 304.5541
149.2667, 304.9568
149.7488, 304.8080
150.2309, 304.0153
150.7131, 303.1967
151.1952, 302.4990
151.6773, 301.9388
152.1594, 301.6162
152.6415, 301.7055
153.1236, 301.9235
153.6058, 301.8623
154.0879, 301.5045
154.5700, 300.9255
155.0521, 300.2831
155.5342, 299.6016
156.0163, 298.4179
156.4985, 296.0029
156.9806, 293.2724
157.4627, 290.9521
157.9448, 289.2353
158.4269, 287.8583
158.9090, 286.3992
159.3912, 284.7364
159.8733, 283.3257
160.3554, 282.4818
160.8375, 281.8094
161.3196, 280.9556
161.8017, 279.7656
162.2839, 278.3366
162.7660, 276.9502
163.2481, 275.4288
163.7302, 274.2220
164.2123, 273.8478
164.6944, 273.6833
165.1766, 272.8310
165.6587, 270.7154
166.1408, 267.6626
166.6229, 265.8031
167.1050, 266.3376
167.5871, 266.7524
168.0693, 266.6013
168.5514, 265.9561
169.0335, 264.9781
169.5156, 263.7182
169.9977, 262.2142
170.4798, 261.1687
170.9620, 261.0591
171.4441, 260.8567
171.9262, 259.9541
172.4083, 258.4790
172.8904, 257.0676
173.3725, 256.2000
173.8547, 255.8562
174.3368, 255.4370
174.8189, 255.0760
175.3010, 254.5479
175.7831, 253.5899
176.2652, 252.1799
176.7474, 250.6992
177.2295, 249.3490
177.7116, 248.1426
178.1937, 247.1704
178.6758, 246.6173
179.1579, 246.2472
179.6401, 245.6506
180.1222, 244.7109
180.6043, 243.8983
181.0864, 243.7081
181.5685, 243.8220
182.0506, 243.7223
182.5328, 243.1025
183.0149, 242.1068
183.4970, 241.1460
183.9791, 240.1323
184.4612, 239.3232
184.9433, 238.8898
185.4255, 238.6976
185.9076, 238.5105
186.3897, 238.1639
186.8718, 237.6789
187.3539, 237.2968
187.8360, 237.1675
188.3182, 236.9860
188.8003, 236.5248
189.2824, 235.9386
189.7645, 235.5397
190.2466, 235.6004
190.7287, 236.1422
191.2109, 236.6322
191.6930, 236.9987
192.1751, 237.3855
192.6572, 237.8472
193.1393, 238.3694
193.6214, 238.9084
194.1036, 239.4234
194.5857, 239.9136
195.0678, 240.4011
195.5499, 241.1089
196.0320, 241.6241
196.5141, 241.4117
196.9963, 240.6837
197.4784, 240.3285
197.9605, 241.2533
198.4426, 243.6950
198.9247, 245.7046
199.4068, 247.0676
199.8890, 248.2081
200.3711, 249.3436
200.8532, 250.5108
201.3353, 251.7034
201.8174, 252.8704
202.2995, 254.0240
202.7817, 255.5141
203.2638, 257.6340
203.7459, 259.9376
204.2280, 261.9883
204.7101, 263.7391
205.1922, 265.4355
205.6744, 267.1427
206.1565, 268.9456
206.6386, 271.3077
207.1207, 274.9648
207.6028, 278.9920
208.0849, 281.9819
208.5671, 283.6225
209.0492, 285.0906
209.5313, 287.3009
210.0134, 290.0421
210.4955, 292.9564
210.9776, 295.8131
211.4598, 298.7745
211.9419, 302.2853
212.4240, 306.5372
212.9061, 310.9250
213.3882, 315.1037
213.8703, 319.1463
214.3525, 323.1964
214.8346, 327.3560
215.3167, 331.5751
215.7988, 335.5436
216.2809, 338.9663
216.7630, 342.6297
217.2451, 346.8157
217.7273, 351.4296
218.2094, 356.3288
218.6915, 361.4549
219.1736, 366.7934
219.6557, 372.2221
220.1378, 377.8077
220.6200, 383.3795
221.1021, 388.9808
221.5842, 394.5103
222.0663, 399.8846
222.5484, 405.0659
223.0305, 410.0195
223.5127, 414.4020
223.9948, 417.5619
224.4769, 420.7562
224.9590, 424.3100
225.4411, 428.0898
225.9232, 431.8149
226.4054, 435.3127
226.8875, 438.5912
227.3696, 442.0082
227.8517, 446.4754
228.3338, 450.0930
228.8159, 451.9628
229.2981, 452.7115
229.7802, 453.4821
230.2623, 455.0640
230.7444, 457.3213
231.2265, 458.6367
231.7086, 457.9122
232.1908, 457.5227
232.6729, 458.5934
233.1550, 460.4202
233.6371, 461.6809
234.1192, 461.6061
234.6013, 460.2516
235.0835, 457.8918
235.5656, 453.7502
236.0477, 449.6476
236.5298, 446.2158
237.0119, 443.2348
237.4940, 440.2632
237.9762, 437.1719
238.4583, 433.7797
238.9404, 429.1900
239.4225, 423.6294
239.9046, 416.9662
240.3867, 408.6111
240.8689, 399.0799
241.3510, 389.6824
241.8331, 381.0761
242.3152, 373.0036
242.7973, 364.5545
243.2794, 355.2527
243.7616, 346.3951
244.2437, 338.9493
244.7258, 332.5099
245.2079, 325.7793
245.6900, 318.0287
246.1721, 309.9525
246.6543, 302.8476
247.1364, 296.8493
247.6185, 291.3323
248.1006, 286.1117
248.5827, 281.1603
249.0648, 276.2753
249.5470, 271.2756
250.0291, 266.4350
250.5112, 262.1358
250.9933, 258.3991
251.4754, 254.8793
251.9576, 251.1995
252.4397, 247.5089
252.9218, 244.4097
253.4039, 242.2915
253.8860, 240.5790
254.3681, 238.5482
254.8503, 236.1939
255.3324, 234.0542
255.8145, 232.7011
256.2966, 231.9394
256.7787, 230.6885
257.2608, 228.3277
257.7430, 226.0228
258.2251, 224.7143
258.7072, 224.3127
259.1893, 224.2218
259.6714, 224.0250
260.1535, 223.7991
260.6357, 224.0401
261.1178, 225.1885
261.5999, 226.2839
262.0820, 226.6013
262.5641, 226.3550
263.0462, 226.2101
263.5284, 226.8000
264.0105, 227.9389
264.4926, 228.4688
264.9747, 227.9268
265.4568, 227.4140
265.9389, 227.3234
266.4211, 227.6461
266.9032, 228.3816
267.3853, 229.6909
267.8674, 231.3996
268.3495, 232.7435
268.8316, 233.5241
269.3138, 234.2144
269.7959, 234.9270
270.2780, 235.6902
270.7601, 236.5678
271.2422, 237.6352
271.7243, 238.7973
272.2065, 239.6509
272.6886, 239.7371
273.1707, 240.3190
273.6528, 241.9910
274.1349, 244.1690
274.6170, 246.1457
275.0992, 247.5923
275.5813, 248.7645
276.0634, 250.3825
276.5455, 253.0809
277.0276, 254.9946
277.5097, 255.2896
277.9919, 255.0496
278.4740, 255.3182
278.9561, 256.4684
279.4382, 258.0226
279.9203, 259.1214
280.4024, 259.6830
280.8846, 259.9025
281.3667, 259.9595
281.8488, 259.6584
282.3309, 258.8852
282.8130, 257.5995
283.2951, 255.7815
283.7773, 253.3054
284.2594, 249.8188
284.7415, 246.5392
285.2236, 243.5761
285.7057, 240.7316
286.1878, 237.9133
286.6700, 235.1060
287.1521, 232.3076
287.6342, 229.5151
288.1163, 226.7829
288.5984, 223.9025
289.0805, 220.3535
289.5627, 217.1328
290.0448, 214.8538
290.5269, 213.3824
291.0090, 212.1437
291.4911, 210.6380
291.9732, 208.8582
292.4554, 206.9367
292.9375, 204.4961
293.4196, 202.2841
293.9017, 200.4761
294.3838, 199.0921
294.8659, 198.1638
295.3481, 197.7677
295.8302, 197.8454
296.3123, 197.6250
296.7944, 196.8650
297.2765, 196.0463
297.7586, 195.2620
298.2408, 194.4765
298.7229, 193.5699
299.2050, 192.4616
299.6871, 191.2908
300.1692, 190.6101
300.6513, 190.9506
301.1335, 191.1817
301.6156, 191.3980
302.0977, 191.3840
302.5798, 190.7312
303.0619, 189.3032
303.5440, 187.6249
304.0262, 186.8430
304.5083, 188.1217
304.9904, 188.5547
305.4725, 187.4435
305.9546, 185.9501
306.4367, 184.9927
306.9189, 184.7915
307.4010, 184.9751
307.8831, 185.0639
308.3652, 185.1536
308.8473, 184.8469
309.3294, 183.7320
309.8116, 182.6144
310.2937, 181.9565
310.7758, 181.7913
311.2579, 181.9317
311.7400, 182.2336
312.2221, 182.7562
312.7043, 183.0165
313.1864, 182.7938
313.6685, 182.5673
314.1506, 182.4601
314.6327, 182.5029
315.1148, 182.6950
315.5970, 183.0232
316.0791, 183.5011
316.5612, 184.3197
317.0433, 186.5952
317.5254, 187.9753
318.0075, 187.2341
318.4897, 185.4270
318.9718, 184.1195
319.4539, 184.1199
319.9360, 185.1183
320.4181, 186.1453
320.9002, 187.5644
321.3824, 188.5035
321.8645, 188.8491
322.3466, 188.7392
322.8287, 188.0905
323.3108, 186.9383
323.7929, 185.7774
324.2751, 185.5469
324.7572, 187.1851
325.2393, 187.9319
325.7214, 187.2233
326.2035, 186.1776
326.6856, 185.4123
327.1678, 185.0786
327.6499, 185.1378
328.1320, 185.6420
328.6141, 186.8183
329.0962, 187.2825
329.5783, 186.3566
330.0605, 185.4649
330.5426, 185.2971
331.0247, 185.6921
331.5068, 186.1503
331.9889, 186.3508
332.4710, 186.2702
332.9532, 185.5138
333.4353, 183.1321
333.9174, 181.0668
334.3995, 179.8465
334.8816, 179.1376
335.3637, 178.5356
335.8459, 177.8556
336.3280, 176.9846
336.8101, 175.5555
337.2922, 172.7726
337.7743, 170.6251
338.2564, 169.8544
338.7386, 169.3902
339.2206, 168.2240
339.7028, 166.1011
340.1849, 163.5929
340.6670, 161.5837
341.1491, 160.3777
341.6312, 158.9246
342.1133, 156.7454
342.5955, 154.7522
343.0776, 153.5578
343.5597, 153.0932
344.0418, 152.8412
344.5239, 152.3782
345.0060, 151.7132
345.4882, 150.6824
345.9703, 148.5898
346.4524, 146.8026
346.9345, 145.8530
347.4166, 145.4619
347.8987, 145.0892
348.3809, 144.3998
348.8630, 143.4976
349.3451, 142.8532
349.8272, 142.8134
350.3093, 142.4689
350.7914, 141.3493
351.2736, 140.0202
351.7557, 139.1597
352.2378, 138.9926
352.7199, 138.9940
353.2020, 138.1375
353.6841, 135.9130
354.1663, 134.3996
354.6484, 134.5213
355.1305, 134.8628
355.6126, 134.7831
356.0947, 134.1475
356.5768, 132.9851
357.0590, 130.9642
357.5411, 128.0220
358.0232, 126.1675
358.5053, 126.5267
358.9874, 126.7751
359.4695, 125.7170
359.9517, 123.8344
360.4338, 122.1741
360.9159, 121.3578
361.3980, 121.1847
361.8801, 121.0989
362.3622, 121.2656
362.8444, 121.1414
363.3265, 120.2075
363.8086, 119.0528
364.2907, 118.3036
364.7728, 118.1702
365.2549, 118.3314
365.7371, 118.4303
366.2192, 118.4726
366.7013, 118.3927
367.1834, 118.0447
367.6655, 117.6716
368.1476, 117.4671
368.6298, 117.4319
369.1119, 117.4186
369.5940, 117.2802
370.0761, 117.0613
370.5582, 117.0292
371.0403, 117.3855
371.5225, 117.5951
372.0046, 117.1495
372.4867, 116.2922
372.9688, 115.5646
373.4509, 115.1130
373.9330, 114.9417
374.4152, 115.2137
374.8973, 116.0060
375.3794, 116.5580
375.8615, 116.1983
376.3436, 115.5003
376.8257, 115.3766
377.3079, 116.1007
377.7900, 116.9188
378.2721, 117.3095
378.7542, 117.3364
379.2363, 117.2653
379.7184, 117.1447
380.2006, 116.9887
380.6827, 116.6829
381.1648, 116.2126
381.6469, 116.1745
382.1290, 117.1094
382.6111, 118.4479
383.0933, 119.4387
383.5754, 119.9994
384.0575, 120.2217
384.5396, 120.0085
385.0217, 119.4600
385.5038, 119.3285
385.9860, 119.9280
386.4681, 120.6863
386.9502, 121.3352
387.4323, 121.8654
387.9144, 122.2333
388.3965, 122.3554
388.8787, 122.3994
389.3608, 122.8813
389.8429, 124.1872
390.3250, 125.0611
390.8071, 124.7621
391.2892, 124.1047
391.7714, 124.2114
392.2535, 125.3066
392.7356, 126.5373
393.2177, 126.8029
393.6998, 125.7367
394.1819, 125.6046
394.6641, 127.0485
395.1462, 128.7597
395.6283, 130.1289
396.1104, 131.1411
396.5925, 131.9278
397.0746, 132.5607
397.5568, 133.0680
398.0389, 133.6307
398.5210, 134.0663
399.0031, 134.7827
399.4852, 136.2070
399.9673, 137.7643
400.4495, 138.7014
400.9316, 138.8231
401.4137, 138.7433
401.8958, 139.4308
402.3779, 141.2116
402.8600, 142.8916
403.3422, 144.5453
403.8243, 146.0583
404.3064, 147.2501
404.7885, 148.2297
405.2706, 149.3034
405.7527, 150.7031
406.2349, 152.4006
406.7170, 154.1316
407.1991, 156.0329
407.6812, 157.7430
408.1633, 159.1382
408.6454, 160.3352
409.1276, 161.3978
409.6097, 162.3395
410.0918, 163.3440
410.5739, 164.7619
411.0560, 166.6918
411.5381, 168.4754
412.0203, 169.7459
412.5024, 171.0661
412.9845, 172.8483
413.4666, 175.0126
413.9487, 177.1151
414.4308, 178.7685
414.9130, 180.0975
415.3951, 181.5779
415.8772, 183.2513
416.3593, 184.9740
416.8414, 186.7238
417.3235, 188.4593
417.8057, 190.1285
418.2878, 191.7394
418.7699, 193.2403
419.2520, 194.3376
419.7341, 195.1289
420.2162, 196.6728
420.6984, 199.6544
421.1805, 203.0337
421.6626, 205.5432
422.1447, 207.2364
422.6268, 208.4279
423.1089, 208.7871
423.5911, 208.9056
424.0732, 209.6216
424.5553, 211.0233
425.0374, 212.7118
425.5195, 214.4790
426.0016, 216.2826
426.4838, 217.8898
426.9659, 219.2624
427.4480, 220.4868
427.9301, 221.5892
428.4122, 222.5705
428.8943, 223.3603
429.3765, 223.9117
429.8586, 224.4490
430.3407, 225.4229
430.8228, 227.3913
431.3049, 228.5138
431.7870, 228.0930
432.2692, 227.3335
432.7513, 227.1310
433.2334, 227.4831
433.7155, 227.8687
434.1976, 227.8836
434.6797, 227.5418
435.1619, 227.0346
435.6440, 226.2714
436.1261, 225.4336
436.6082, 224.6856
437.0903, 223.8200
437.5724, 222.4628
438.0546, 220.5171
438.5367, 218.4414
439.0188, 217.0334
439.5009, 216.6005
439.9830, 215.8415
440.4651, 214.2807
440.9473, 212.7756
441.4294, 211.8871
441.9115, 211.4126
442.3936, 210.7209
442.8757, 209.3438
443.3578, 207.4758
443.8400, 205.7767
444.3221, 204.2039
444.8042, 202.8979
445.2863, 202.1678
445.7684, 201.5851
446.2505, 200.6008
446.7327, 199.0510
447.2148, 197.8683
447.6969, 198.2782
448.1790, 199.9278
448.6611, 200.8688
449.1432, 200.7914
449.6254, 199.9766
450.1075, 198.0935
450.5896, 195.5744
451.0717, 193.8276
451.5538, 193.5754
452.0359, 194.0108
452.5181, 194.6624
453.0002, 195.4384
453.4823, 195.6139
453.9644, 194.5777
454.4465, 193.0818
454.9286, 193.0003
455.4108, 194.8271
455.8929, 196.2596
456.3750, 196.5250
456.8571, 196.2717
457.3392, 196.1004
457.8214, 196.1338
458.3035, 196.4114
458.7856, 197.0393
459.2677, 198.0272
459.7498, 198.5385
460.2319, 198.0683
460.7141, 197.7831
461.1962, 198.1426
461.6783, 198.8459
462.1604, 199.4323
462.6425, 199.7302
463.1246, 199.9455
463.6068, 200.4961
464.0889, 201.7117
464.5710, 202.3677
465.0531, 201.9748
465.5352, 201.5136
466.0173, 201.5300
466.4995, 201.8783
466.9816, 202.0662
467.4637, 201.7322
467.9458, 201.0581
468.4279, 200.6252
468.9100, 200.5005
469.3922, 200.4431
469.8743, 200.7081
470.3564, 200.8104
470.8385, 200.2510
471.3206, 198.9655
471.8027, 197.5074
472.2849, 196.3088
472.7670, 195.2873
473.2491, 194.2063
473.7312, 193.1242
474.2133, 191.7410
474.6954, 189.4814
475.1776, 186.7656
475.6597, 184.6474
476.1418, 183.8865
476.6239, 183.0451
477.1060, 180.8840
477.5881, 177.8214
478.0703, 175.0040
478.5524, 172.8083
479.0345, 171.0922
479.5166, 169.6863
479.9987, 168.5883
480.4808, 167.8701
480.9630, 167.9142
481.4451, 168.0310
481.9272, 167.5654
482.4093, 166.7230
482.8914, 166.3454
483.3735, 167.0150
483.8557, 168.2886
484.3378, 168.5593
484.8199, 166.7120
485.3020, 165.4242
485.7841, 164.7829
486.2662, 164.7146
486.7484, 165.4921
487.2305, 166.9208
487.7126, 168.1494
488.1947, 168.3285
488.6768, 167.5365
489.1589, 167.0759
489.6411, 167.1853
490.1232, 167.2525
490.6053, 167.1152
491.0874, 166.8259
491.5695, 166.3947
492.0516, 165.8112
492.5338, 165.2662
493.0159, 164.9993
493.4980, 164.9783
493.9801, 164.9192
494.4622, 164.7767
494.9443, 164.6022
495.4265, 164.4044
495.9086, 164.2047
496.3907, 164.0749
496.8728, 164.0531
497.3549, 164.0895
497.8370, 164.2724
498.3192, 164.5085
498.8013, 164.3811
499.2834, 163.6568
499.7655, 162.7110
500.2476, 162.1642
500.7297, 162.1467
501.2119, 162.0624
501.6940, 161.7426
502.1761, 161.4530
502.6582, 161.3358
503.1403, 161.4116
503.6224, 161.7255
504.1045, 162.3386
504.5866, 163.1115
505.0688, 163.5415
505.5509, 163.4560
506.0330, 163.2770
506.5151, 162.9103
506.9972, 162.5579
507.4793, 162.3613
507.9615, 162.3316
508.4436, 162.4010
508.9257, 162.5149
509.4078, 162.6796
509.8899, 162.9799
510.3720, 163.6046
510.8542, 163.9497
511.3363, 163.6451
511.8184, 163.0303
512.3005, 162.3042
512.7827, 161.4635
513.2648, 160.9392
513.7469, 161.3615
514.2290, 162.3509
514.7111, 162.7714
515.1932, 162.4249
515.6754, 161.7618
516.1575, 160.9702
516.6396, 160.1318
517.1217, 159.5895
517.6038, 159.3386
518.0859, 159.4077
518.5681, 160.1569
519.0502, 161.1476
519.5323, 161.5947
520.0144, 161.2832
520.4965, 160.5957
520.9786, 159.9394
521.4608, 159.2537
521.9429, 158.9957
522.4250, 159.4371
522.9071, 159.9351
523.3892, 160.5372
523.8713, 160.9669
524.3535, 160.6703
524.8356, 159.4364
525.3177, 157.9685
525.7998, 157.5401
526.2819, 158.4128
526.7640, 159.0135
527.2462, 159.0572
527.7283, 159.0013
528.2104, 158.9678
528.6925, 159.0110
529.1746, 159.2492
529.6567, 159.8140
530.1389, 160.4655
530.6210, 160.9323
531.1031, 161.2127
531.5852, 161.2280
532.0673, 160.8296
532.5494, 160.3522
533.0316, 160.2122
533.5137, 160.3842
533.9958, 160.6446
534.4779, 161.0557
534.9600, 161.4504
535.4421, 161.6625
535.9243, 161.7390
536.4064, 161.8527
536.8885, 162.0835
537.3706, 162.4043
537.8527, 162.7676
538.3348, 163.3019
538.8170, 163.6111
539.2991, 163.3124
539.7812, 163.1476
540.2633, 163.6624
540.7454, 164.6866
541.2275, 165.6882
541.7097, 166.3385
542.1918, 166.7767
542.6739, 167.4117
543.1560, 168.3934
543.6381, 169.1014
544.1202, 169.2781
544.6024, 169.2395
545.0845, 169.0977
545.5666, 168.8922
546.0487, 168.7462
546.5308, 168.6770
547.0129, 168.7302
547.4951, 168.9861
547.9772, 169.4431
548.4593, 170.1039
548.9414, 171.1701
549.4235, 172.1994
549.9056, 172.1237
550.3878, 170.6580
550.8699, 169.9472
551.3520, 170.8282
551.8341, 172.2844
552.3162, 173.6041
552.7983, 174.7385
553.2805, 175.8857
553.7626, 177.1997
554.2447, 178.4680
554.7268, 179.0438
555.2089, 178.3844
555.6910, 177.9809
556.1732, 177.9389
556.6553, 178.0723
557.1374, 178.1821
557.6195, 178.3532
558.1016, 178.8912
558.5837, 180.0767
559.0659, 181.6261
559.5480, 182.9640
560.0301, 184.1295
560.5122, 184.7802
560.9943, 184.4304
561.4764, 183.8806
561.9586, 183.9047
562.4407, 184.4810
562.9228, 185.1925
563.4049, 186.0397
563.8870, 186.8423
564.3691, 187.3199
564.8513, 187.5381
565.3334, 187.8765
565.8155, 188.5274
566.2976, 189.3307
566.7797, 190.0113
567.2618, 190.6433
567.7440, 190.9221
568.2261, 190.1543
568.7082, 189.6706
569.1903, 190.4776
569.6724, 192.1897
570.1545, 193.8335
570.6367, 194.8843
571.1188, 195.5620
571.6009, 196.3011
572.0830, 197.1234
572.5651, 197.9527
573.0472, 199.0081
573.5294, 199.8262
574.0115, 200.0076
574.4936, 199.7506
574.9757, 199.6064
575.4578, 199.8238
575.9399, 200.2188
576.4221, 200.5665
576.9042, 200.8942
577.3863, 201.3487
577.8684, 201.9516
578.3505, 202.7651
578.8326, 203.9976
579.3148, 205.7011
579.7969, 206.8371
580.2790, 206.8162
580.7611, 206.8065
581.2432, 207.4713
581.7253, 208.5034
582.2075, 209.4162
582.6896, 210.0250
583.1717, 210.3721
583.6538, 210.4588
584.1359, 210.2209
584.6180, 210.1889
585.1002, 210.6415
585.5823, 210.9668
586.0643, 210.6462
586.5464, 210.2195
587.0286, 210.5309
587.5107, 211.8732
587.9928, 213.2805
588.4749, 213.7730
588.9570, 213.5503
