##NAMES=Cassiterite
##RRUFFID=R040017
##IDEAL CHEMISTRY=SnO_2_
##LOCALITY=Bolivia
##OWNER=RRUFF
##SOURCE=University of Arizona Mineral Museum
##DESCRIPTION=Dark brown short prismatic single crystals
##STATUS=The identification of this mineral has been confirmed by X-ray diffraction and chemical analysis
##URL=rruff.info/R040017
##MEASURED CHEMISTRY=Sn_1.00_O_2_; trace amounts of Fe
139.3607, 318.5490
139.8428, 320.3870
140.3250, 320.3247
140.8071, 317.4218
141.2892, 316.1290
141.7713, 317.7361
142.2534, 321.7973
142.7355, 323.2605
143.2177, 320.2433
143.6998, 316.8765
144.1819, 317.2267
144.6640, 323.6662
145.1461, 329.6316
145.6283, 333.9743
146.1104, 336.5540
146.5925, 338.0644
147.0746, 338.4515
147.5567, 337.7556
148.0388, 335.9320
148.5210, 331.2141
149.0031, 327.2681
149.4852, 325.3446
149.9673, 326.9838
150.4494, 327.6776
150.9315, 327.1270
151.4136, 325.6516
151.8958, 323.9634
152.3779, 319.8215
152.8600, 317.1926
153.3421, 317.7444
153.8242, 326.2428
154.3063, 332.5594
154.7885, 336.0958
155.2706, 336.8013
155.7527, 334.7891
156.2348, 323.8247
156.7169, 313.5756
157.1990, 310.5648
157.6812, 325.5047
158.1633, 338.8053
158.6454, 343.5478
159.1275, 339.4288
159.6096, 337.3904
160.0917, 342.8263
160.5739, 351.2801
161.0560, 358.0457
161.5381, 361.7427
162.0202, 363.3121
162.5023, 362.6489
162.9844, 359.3904
163.4666, 356.0051
163.9487, 353.4687
164.4308, 351.5292
164.9129, 349.7675
165.3950, 348.4408
165.8771, 346.9864
166.3593, 344.8132
166.8414, 341.3478
167.3235, 338.4014
167.8056, 336.7187
168.2877, 336.3446
168.7698, 337.3907
169.2519, 341.0684
169.7341, 345.7367
170.2162, 349.9564
170.6983, 354.1855
171.1804, 356.7143
171.6625, 355.0605
172.1446, 349.8881
172.6268, 344.9276
173.1089, 343.2942
173.5910, 343.3782
174.0731, 342.7513
174.5552, 340.4547
175.0373, 337.1670
175.5195, 332.7756
176.0016, 327.3186
176.4837, 323.5247
176.9658, 325.4193
177.4479, 330.8412
177.9300, 334.9742
178.4122, 334.3410
178.8943, 331.6035
179.3764, 330.9747
179.8585, 332.5778
180.3406, 335.6467
180.8227, 340.1516
181.3049, 345.6776
181.7870, 350.8009
182.2691, 356.0354
182.7512, 360.2693
183.2333, 359.5535
183.7154, 352.2985
184.1976, 344.1615
184.6797, 344.4531
185.1618, 352.2186
185.6439, 358.9395
186.1260, 357.9233
186.6081, 351.2204
187.0903, 347.4023
187.5724, 348.2593
188.0545, 351.1193
188.5366, 350.3357
189.0187, 345.8894
189.5008, 342.4617
189.9829, 344.9765
190.4651, 352.4701
190.9472, 357.4947
191.4293, 357.9437
191.9114, 355.5794
192.3935, 355.1816
192.8756, 356.9854
193.3578, 358.9958
193.8399, 359.2804
194.3220, 357.8830
194.8041, 356.7845
195.2862, 356.7813
195.7683, 357.4465
196.2505, 356.6084
196.7326, 354.0266
197.2147, 350.8726
197.6968, 348.0601
198.1789, 345.5456
198.6610, 344.0759
199.1432, 343.6075
199.6253, 344.2359
200.1074, 348.0153
200.5895, 356.1143
201.0716, 364.7621
201.5537, 368.1299
202.0359, 365.2392
202.5180, 362.8700
203.0001, 364.2168
203.4822, 369.6811
203.9643, 371.6437
204.4464, 368.6058
204.9286, 364.0207
205.4107, 364.1693
205.8928, 370.1428
206.3749, 376.9808
206.8570, 383.1070
207.3391, 388.7788
207.8212, 391.7088
208.3034, 390.3660
208.7855, 387.4883
209.2676, 390.0808
209.7497, 400.3372
210.2318, 410.2698
210.7139, 415.0717
211.1961, 412.8285
211.6782, 413.4560
212.1603, 418.2961
212.6424, 426.0369
213.1245, 432.0240
213.6066, 434.6189
214.0888, 438.7230
214.5709, 447.6837
215.0530, 463.0377
215.5351, 478.7831
216.0172, 495.2916
216.4993, 511.8083
216.9815, 525.1603
217.4636, 534.0782
217.9457, 541.6268
218.4278, 550.3612
218.9099, 561.8047
219.3920, 570.0883
219.8742, 573.8218
220.3563, 573.3782
220.8384, 572.8878
221.3205, 572.6285
221.8026, 571.9880
222.2847, 570.1587
222.7669, 565.9225
223.2490, 563.3425
223.7311, 563.5736
224.2132, 566.6078
224.6953, 569.1193
225.1774, 571.8650
225.6596, 573.3197
226.1417, 571.3557
226.6238, 562.8582
227.1059, 557.2530
227.5880, 557.2233
228.0701, 563.2672
228.5522, 567.5173
229.0344, 569.0174
229.5165, 569.5760
229.9986, 571.4854
230.4807, 576.2271
230.9628, 579.4688
231.4449, 579.1194
231.9271, 574.0839
232.4092, 573.8588
232.8913, 581.6044
233.3734, 591.7152
233.8555, 596.4749
234.3376, 592.5480
234.8198, 589.0257
235.3019, 588.7795
235.7840, 592.8423
236.2661, 595.1277
236.7482, 594.7837
237.2303, 593.1719
237.7125, 592.1246
238.1946, 590.8072
238.6767, 591.4316
239.1588, 594.9639
239.6409, 602.1698
240.1230, 609.6653
240.6052, 617.3683
241.0873, 625.3457
241.5694, 634.3297
242.0515, 647.8951
242.5336, 656.7620
243.0157, 656.4328
243.4979, 642.3086
243.9800, 632.6641
244.4621, 628.4662
244.9442, 628.3384
245.4263, 629.5569
245.9084, 632.4184
246.3905, 636.1233
246.8727, 640.7284
247.3548, 647.4759
247.8369, 651.7412
248.3190, 652.7931
248.8011, 651.6238
249.2832, 650.7606
249.7654, 651.7704
250.2475, 650.6721
250.7296, 644.8077
251.2117, 629.3793
251.6938, 621.1772
252.1759, 623.4690
252.6581, 632.0182
253.1402, 635.6741
253.6223, 630.9724
254.1044, 627.0846
254.5865, 629.2677
255.0686, 642.3109
255.5508, 648.7708
256.0329, 645.8068
256.5150, 636.7314
256.9971, 630.8380
257.4792, 629.3516
257.9613, 628.7860
258.4435, 627.5007
258.9256, 625.2709
259.4077, 622.6577
259.8898, 618.8342
260.3719, 614.8354
260.8540, 614.3358
261.3362, 619.5103
261.8183, 624.0509
262.3004, 623.8417
262.7825, 616.2557
263.2646, 612.5020
263.7467, 614.3310
264.2289, 619.9697
264.7110, 623.6146
265.1931, 624.1572
265.6752, 625.0805
266.1573, 629.0762
266.6394, 637.7703
267.1216, 642.9389
267.6037, 642.7361
268.0858, 639.2310
268.5679, 639.0138
269.0500, 643.3017
269.5321, 647.8381
270.0143, 650.8463
270.4964, 652.7347
270.9785, 651.0157
271.4606, 645.3632
271.9427, 636.0620
272.4248, 623.1940
272.9070, 605.7758
273.3891, 587.8541
273.8712, 571.4708
274.3533, 556.6427
274.8354, 543.2566
275.3175, 530.6519
275.7997, 520.0616
276.2818, 515.6923
276.7639, 518.6403
277.2460, 523.3140
277.7281, 527.4415
278.2102, 531.2451
278.6924, 530.4199
279.1745, 522.7917
279.6566, 512.0876
280.1387, 507.7054
280.6208, 510.3417
281.1029, 515.0802
281.5851, 520.1719
282.0672, 525.6158
282.5493, 527.1456
283.0314, 523.3802
283.5135, 516.7414
283.9956, 512.3765
284.4778, 510.3987
284.9599, 509.4953
285.4420, 509.1100
285.9241, 509.2089
286.4062, 509.7466
286.8883, 511.2909
287.3705, 512.2977
287.8526, 508.7477
288.3347, 500.6082
288.8168, 493.1429
289.2989, 489.9259
289.7810, 490.3200
290.2632, 491.3934
290.7453, 493.2476
291.2274, 494.8196
291.7095, 493.4295
292.1916, 489.3535
292.6737, 486.4033
293.1558, 487.3957
293.6379, 491.3940
294.1201, 496.0994
294.6022, 502.0442
295.0843, 506.5697
295.5664, 503.3231
296.0485, 493.8442
296.5306, 487.9422
297.0128, 494.7696
297.4949, 508.8694
297.9770, 517.4448
298.4591, 518.7256
298.9412, 517.1781
299.4233, 516.6144
299.9055, 517.3240
300.3876, 520.4349
300.8697, 528.8936
301.3518, 539.4020
301.8339, 546.7535
302.3160, 550.2233
302.7982, 551.9370
303.2803, 554.3434
303.7624, 556.7278
304.2445, 557.3134
304.7266, 553.1235
305.2087, 547.5696
305.6909, 544.6268
306.1730, 544.8132
306.6551, 546.1147
307.1372, 547.9334
307.6193, 549.6764
308.1014, 550.1492
308.5836, 547.7378
309.0657, 544.5031
309.5478, 541.6423
310.0299, 539.1276
310.5120, 538.5670
310.9941, 541.9567
311.4763, 547.7977
311.9584, 553.9831
312.4405, 561.0134
312.9226, 567.0659
313.4047, 571.0256
313.8868, 572.9139
314.3690, 572.8461
314.8511, 569.0109
315.3332, 563.8714
315.8153, 560.2639
316.2974, 558.5772
316.7795, 559.0862
317.2617, 562.8280
317.7438, 569.7194
318.2259, 576.1832
318.7080, 579.4000
319.1901, 582.3063
319.6722, 587.5104
320.1544, 599.3298
320.6365, 609.9879
321.1186, 616.1030
321.6007, 618.0328
322.0828, 620.8563
322.5649, 628.0362
323.0471, 635.1984
323.5292, 639.2911
324.0113, 637.1752
324.4934, 634.8145
324.9755, 634.0093
325.4576, 634.2549
325.9398, 631.9383
326.4219, 621.2416
326.9040, 611.6697
327.3861, 608.2976
327.8682, 619.4016
328.3503, 627.0259
328.8325, 627.8605
329.3146, 624.1788
329.7967, 625.2849
330.2788, 637.1729
330.7609, 648.0320
331.2430, 652.2767
331.7251, 644.6022
332.2072, 639.7180
332.6894, 639.6682
333.1715, 642.0367
333.6536, 640.2744
334.1357, 631.8821
334.6178, 623.3627
335.0999, 617.2770
335.5821, 614.0242
336.0642, 612.0003
336.5463, 610.8821
337.0284, 611.2393
337.5105, 614.6129
337.9926, 622.0512
338.4748, 629.3161
338.9569, 635.6503
339.4390, 641.2817
339.9211, 641.4713
340.4032, 634.6675
340.8853, 625.1619
341.3675, 618.8216
341.8496, 615.6952
342.3317, 614.5226
342.8138, 615.2313
343.2959, 617.6519
343.7780, 621.0062
344.2602, 625.6595
344.7423, 629.6639
345.2244, 630.6863
345.7065, 628.8735
346.1886, 625.7920
346.6707, 621.1760
347.1529, 615.8904
347.6350, 612.6107
348.1171, 611.3716
348.5992, 610.5794
349.0813, 608.5879
349.5634, 605.8647
350.0456, 603.7934
350.5277, 602.7660
351.0098, 602.5097
351.4919, 603.5405
351.9740, 605.5245
352.4561, 605.9578
352.9383, 601.2733
353.4204, 594.3062
353.9025, 589.9490
354.3846, 590.3774
354.8667, 591.1980
355.3488, 585.8162
355.8310, 576.9174
356.3131, 572.4683
356.7952, 583.2662
357.2773, 597.3864
357.7594, 603.0554
358.2415, 596.6689
358.7237, 588.3969
359.2058, 583.3618
359.6879, 580.7481
360.1700, 579.0935
360.6521, 578.4142
361.1342, 578.0398
361.6164, 577.1667
362.0985, 575.3849
362.5806, 575.3003
363.0627, 579.4623
363.5448, 585.2633
364.0269, 589.6663
364.5091, 593.6223
364.9912, 594.4500
365.4733, 589.3728
365.9554, 577.9907
366.4375, 570.1515
366.9196, 569.9391
367.4018, 572.3846
367.8839, 573.6262
368.3660, 571.7925
368.8481, 570.5931
369.3302, 570.5454
369.8123, 571.5421
370.2944, 572.5981
370.7766, 573.1196
371.2587, 574.2750
371.7408, 576.7363
372.2229, 580.7814
372.7050, 585.6165
373.1871, 591.9698
373.6693, 598.8549
374.1514, 603.8492
374.6335, 606.7553
375.1156, 608.1337
375.5977, 607.4672
376.0798, 603.6779
376.5620, 603.5386
377.0441, 608.3066
377.5262, 615.0692
378.0083, 618.6627
378.4904, 618.6380
378.9725, 619.1512
379.4547, 622.1617
379.9368, 627.3157
380.4189, 632.3304
380.9010, 637.5346
381.3831, 641.0316
381.8652, 638.5139
382.3474, 631.1234
382.8295, 627.2344
383.3116, 631.0219
383.7937, 638.9717
384.2758, 643.7383
384.7579, 645.3486
385.2401, 646.2386
385.7222, 648.1851
386.2043, 650.8351
386.6864, 653.4429
387.1685, 655.7039
387.6506, 658.0748
388.1328, 660.8529
388.6149, 664.1264
389.0970, 668.0858
389.5791, 675.4111
390.0612, 682.2388
390.5433, 683.8342
391.0255, 677.8776
391.5076, 672.1115
391.9897, 672.6864
392.4718, 676.4727
392.9539, 677.8494
393.4360, 669.8705
393.9182, 662.8307
394.4003, 662.8631
394.8824, 671.3873
395.3645, 678.9052
395.8466, 683.1169
396.3287, 684.7540
396.8109, 684.5370
397.2930, 678.7789
397.7751, 675.1667
398.2572, 677.2966
398.7393, 684.8377
399.2214, 687.6407
399.7036, 679.8867
400.1857, 671.4957
400.6678, 668.1411
401.1499, 672.9439
401.6320, 677.8505
402.1141, 683.0251
402.5963, 688.0560
403.0784, 691.6312
403.5605, 693.4604
404.0426, 694.3748
404.5247, 693.9429
405.0068, 691.0604
405.4890, 692.8938
405.9711, 701.0370
406.4532, 711.5465
406.9353, 718.2660
407.4174, 720.7145
407.8995, 723.5660
408.3816, 728.9725
408.8637, 736.2429
409.3459, 741.7818
409.8280, 745.5738
410.3101, 748.0367
410.7922, 747.8771
411.2743, 746.1942
411.7564, 748.0807
412.2386, 755.9786
412.7207, 766.8204
413.2028, 777.0911
413.6849, 786.5570
414.1670, 793.0737
414.6491, 793.7170
415.1313, 791.0949
415.6134, 788.6868
416.0955, 786.9441
416.5776, 785.7463
417.0597, 784.9018
417.5418, 784.5189
418.0240, 784.8187
418.5061, 787.0256
418.9882, 789.1086
419.4703, 788.7664
419.9524, 785.4749
420.4345, 784.9279
420.9167, 792.1862
421.3988, 802.0519
421.8809, 809.5043
422.3630, 806.4488
422.8451, 808.1002
423.3272, 822.1287
423.8094, 846.6502
424.2915, 863.8512
424.7736, 866.3366
425.2557, 865.3725
425.7378, 866.2628
426.2199, 868.2819
426.7021, 873.3151
427.1842, 881.7536
427.6663, 893.1061
428.1484, 906.7106
428.6305, 924.1581
429.1126, 940.9763
429.5948, 955.9112
430.0769, 968.8930
430.5590, 979.5250
431.0411, 986.5176
431.5232, 993.7527
432.0053, 1005.560
432.4875, 1022.010
432.9696, 1041.881
433.4517, 1067.509
433.9338, 1094.854
434.4159, 1110.909
434.8980, 1115.666
435.3802, 1118.552
435.8623, 1128.965
436.3444, 1143.035
436.8265, 1149.969
437.3086, 1147.289
437.7907, 1139.849
438.2729, 1131.275
438.7550, 1122.049
439.2371, 1113.499
439.7192, 1111.163
440.2013, 1106.809
440.6834, 1089.503
441.1656, 1057.831
441.6477, 1030.420
442.1298, 1019.400
442.6119, 1017.513
443.0940, 1016.942
443.5761, 1020.962
444.0583, 1020.253
444.5403, 1007.574
445.0225, 985.7430
445.5046, 970.0100
445.9867, 967.7402
446.4688, 968.9742
446.9509, 968.7327
447.4330, 964.4922
447.9152, 962.7445
448.3973, 963.8791
448.8794, 967.3705
449.3615, 972.8375
449.8436, 982.4468
450.3257, 990.0845
450.8079, 993.0295
451.2900, 991.1465
451.7721, 992.6141
452.2542, 997.7153
452.7363, 1005.500
453.2184, 1016.353
453.7006, 1030.523
454.1827, 1041.512
454.6648, 1047.450
455.1469, 1050.236
455.6290, 1053.187
456.1111, 1056.371
456.5933, 1061.181
457.0754, 1069.658
457.5575, 1080.253
458.0396, 1088.132
458.5217, 1092.407
459.0038, 1098.076
459.4860, 1111.614
459.9681, 1130.144
460.4502, 1147.694
460.9323, 1154.172
461.4144, 1164.515
461.8965, 1191.672
462.3787, 1234.267
462.8608, 1280.884
463.3429, 1327.232
463.8250, 1375.189
464.3071, 1426.108
464.7892, 1479.063
465.2714, 1537.084
465.7535, 1601.664
466.2356, 1671.969
466.7177, 1745.023
467.1998, 1815.817
467.6819, 1893.682
468.1641, 1980.597
468.6462, 2076.023
469.1283, 2183.953
469.6104, 2303.293
470.0925, 2436.387
470.5746, 2588.696
471.0568, 2764.174
471.5389, 2943.692
472.0210, 3123.497
472.5031, 3306.757
472.9852, 3512.035
473.4673, 3747.629
473.9495, 3950.068
474.4316, 4098.525
474.9137, 4188.063
475.3958, 4185.693
475.8779, 4087.725
476.3600, 3910.330
476.8422, 3638.676
477.3243, 3299.618
477.8064, 2973.893
478.2885, 2685.532
478.7706, 2433.617
479.2527, 2222.143
479.7349, 2049.296
480.2170, 1904.052
480.6991, 1787.850
481.1812, 1693.228
481.6633, 1614.826
482.1454, 1552.596
482.6275, 1503.775
483.1096, 1471.032
483.5918, 1450.570
484.0739, 1436.697
484.5560, 1434.706
485.0381, 1432.785
485.5202, 1425.576
486.0023, 1412.100
486.4845, 1406.660
486.9666, 1412.886
487.4487, 1423.950
487.9308, 1437.234
488.4129, 1459.374
488.8951, 1467.022
489.3772, 1454.308
489.8593, 1429.990
490.3414, 1412.996
490.8235, 1403.374
491.3056, 1400.243
491.7878, 1403.544
492.2699, 1413.165
492.7520, 1430.347
493.2341, 1455.955
493.7162, 1481.062
494.1983, 1491.766
494.6805, 1494.079
495.1626, 1507.491
495.6447, 1543.437
496.1268, 1581.426
496.6089, 1597.020
497.0910, 1595.308
497.5732, 1593.026
498.0553, 1602.728
498.5374, 1613.220
499.0195, 1616.165
499.5016, 1610.638
499.9837, 1599.136
500.4659, 1577.037
500.9480, 1552.299
501.4301, 1532.393
501.9122, 1519.021
502.3943, 1510.660
502.8764, 1511.255
503.3586, 1517.906
503.8407, 1517.991
504.3228, 1509.930
504.8049, 1497.073
505.2870, 1479.339
505.7691, 1454.712
506.2513, 1435.379
506.7334, 1422.556
507.2155, 1413.368
507.6976, 1404.336
508.1797, 1395.335
508.6618, 1388.775
509.1440, 1386.616
509.6261, 1386.130
510.1082, 1380.753
510.5903, 1370.601
511.0724, 1357.429
511.5545, 1340.165
512.0366, 1321.302
512.5187, 1305.078
513.0009, 1291.874
513.4830, 1280.297
513.9651, 1270.360
514.4472, 1260.957
514.9293, 1250.439
515.4114, 1239.196
515.8936, 1225.692
516.3757, 1208.206
516.8578, 1187.477
517.3399, 1166.391
517.8220, 1145.325
518.3041, 1124.430
518.7863, 1103.469
519.2684, 1081.220
519.7505, 1061.935
520.2326, 1046.824
520.7147, 1034.052
521.1968, 1021.728
521.6790, 1009.435
522.1611, 998.6154
522.6432, 990.2114
523.1253, 983.3641
523.6074, 973.2811
524.0895, 959.0677
524.5717, 947.6391
525.0538, 945.0724
525.5359, 949.5939
526.0180, 950.2551
526.5001, 945.3640
526.9822, 943.1870
527.4644, 958.5586
527.9465, 983.6668
528.4286, 999.6581
528.9107, 994.7654
529.3928, 984.2349
529.8749, 979.4451
530.3571, 979.9570
530.8392, 984.2982
531.3213, 994.7942
531.8034, 1006.638
532.2855, 1016.724
532.7676, 1023.877
533.2498, 1032.759
533.7319, 1042.381
534.2140, 1055.138
534.6961, 1074.039
535.1782, 1105.549
535.6603, 1133.564
536.1425, 1157.391
536.6246, 1176.665
537.1067, 1189.290
537.5888, 1191.905
538.0709, 1196.890
538.5530, 1211.940
539.0352, 1236.695
539.5173, 1257.921
539.9994, 1275.814
540.4815, 1287.561
540.9636, 1288.336
541.4457, 1279.983
541.9279, 1268.755
542.4100, 1254.880
542.8921, 1241.003
543.3742, 1232.135
543.8563, 1226.405
544.3384, 1218.429
544.8206, 1203.308
545.3027, 1186.462
545.7848, 1172.180
546.2669, 1160.944
546.7490, 1148.819
547.2311, 1133.678
547.7133, 1117.647
548.1954, 1102.031
548.6775, 1085.441
549.1596, 1071.464
549.6417, 1059.452
550.1238, 1050.296
550.6060, 1046.373
551.0881, 1050.060
551.5702, 1054.147
552.0523, 1058.286
552.5344, 1061.709
553.0165, 1053.488
553.4987, 1031.485
553.9808, 1009.074
554.4629, 997.8647
554.9450, 995.8261
555.4271, 994.1852
555.9092, 992.5093
556.3914, 988.5387
556.8735, 976.9658
557.3556, 961.1235
557.8377, 948.5314
558.3198, 944.8795
558.8019, 943.6666
559.2841, 940.7841
559.7662, 936.3692
560.2483, 931.3309
560.7304, 925.1700
561.2125, 919.1192
561.6946, 913.5809
562.1768, 907.9114
562.6589, 904.9173
563.1410, 910.3587
563.6231, 915.0377
564.1052, 907.8186
564.5873, 879.3387
565.0695, 861.2471
565.5516, 861.7656
566.0337, 874.1090
566.5158, 875.2895
566.9979, 863.8754
567.4800, 853.1593
567.9622, 852.3469
568.4443, 858.1307
568.9264, 857.5237
569.4085, 850.2305
569.8906, 840.5624
570.3727, 828.8000
570.8549, 818.1059
571.3370, 813.8846
571.8191, 820.2979
572.3012, 827.4578
572.7833, 828.4866
573.2654, 825.7730
573.7476, 823.6848
574.2297, 825.2234
574.7118, 826.0823
575.1939, 823.3020
575.6760, 816.9073
576.1581, 815.2000
576.6403, 822.7642
577.1223, 830.3478
577.6044, 832.9816
578.0865, 828.9307
578.5687, 825.8864
579.0508, 824.3073
579.5329, 822.9981
580.0150, 819.3944
580.4971, 813.5998
580.9792, 811.2679
581.4614, 815.2594
581.9435, 821.7949
582.4256, 822.6778
582.9077, 819.1998
583.3898, 817.5964
583.8719, 822.5845
584.3541, 830.5287
584.8362, 838.7062
585.3183, 846.9156
585.8004, 853.4563
586.2825, 855.8172
586.7646, 857.0599
587.2468, 859.8111
587.7289, 866.2510
588.2110, 871.6705
588.6931, 873.6912
589.1752, 874.9542
589.6573, 879.9050
590.1395, 890.9957
590.6216, 900.8496
591.1037, 906.9170
591.5858, 910.3654
592.0679, 918.5296
592.5500, 932.1953
593.0322, 945.5858
593.5143, 953.6667
593.9964, 958.1677
594.4785, 967.1866
594.9606, 981.7180
595.4427, 995.1656
595.9249, 997.1667
596.4070, 994.9344
596.8891, 1000.725
597.3712, 1022.323
597.8533, 1046.149
598.3354, 1064.781
598.8176, 1079.870
599.2997, 1094.767
599.7818, 1108.330
600.2639, 1123.676
600.7460, 1142.538
601.2281, 1165.025
601.7103, 1186.170
602.1924, 1202.712
602.6745, 1222.427
603.1566, 1251.212
603.6387, 1291.697
604.1208, 1325.633
604.6030, 1351.617
605.0851, 1374.599
605.5672, 1400.778
606.0493, 1429.762
606.5314, 1456.222
607.0135, 1477.106
607.4957, 1498.413
607.9778, 1528.960
608.4599, 1566.575
608.9420, 1605.834
609.4241, 1640.665
609.9063, 1678.407
610.3884, 1723.885
610.8705, 1777.598
611.3526, 1835.020
611.8347, 1904.606
612.3168, 1971.052
612.7990, 2022.756
613.2811, 2043.582
613.7632, 2087.942
614.2453, 2161.942
614.7274, 2252.524
615.2095, 2339.423
615.6917, 2418.808
616.1738, 2520.418
616.6559, 2655.290
617.1380, 2808.115
617.6201, 2943.308
618.1022, 3063.272
618.5844, 3200.239
619.0665, 3377.614
619.5486, 3577.208
620.0307, 3773.875
620.5128, 3968.200
620.9949, 4186.390
621.4771, 4445.307
621.9592, 4730.562
622.4413, 5027.756
622.9234, 5330.594
623.4055, 5664.185
623.8876, 6027.483
624.3698, 6427.775
624.8519, 6871.052
625.3340, 7361.774
625.8161, 7888.457
626.2982, 8451.699
626.7803, 9052.500
627.2625, 9691.749
627.7446, 10368.78
628.2267, 11091.57
628.7088, 11866.77
629.1909, 12692.57
629.6730, 13572.90
630.1552, 14505.01
630.6373, 15413.69
631.1194, 16266.83
631.6015, 17046.63
632.0836, 17754.51
632.5657, 18410.58
633.0479, 18876.42
633.5300, 19133.70
634.0121, 19142.82
634.4942, 18862.08
634.9763, 18125.96
635.4584, 17294.20
635.9406, 16366.59
636.4227, 15370.27
