##NAMES=Cassiterite
##RRUFFID=R040017
##IDEAL CHEMISTRY=SnO_2_
##LOCALITY=Bolivia
##OWNER=RRUFF
##SOURCE=University of Arizona Mineral Museum
##DESCRIPTION=Dark brown short prismatic single crystals
##STATUS=The identification of this mineral has been confirmed by X-ray diffraction and chemical analysis
##URL=rruff.info/R040017
##MEASURED CHEMISTRY=Sn_1.00_O_2_; trace amounts of Fe
137.4380, 421.6083
137.9201, 423.5235
138.4022, 424.9982
138.8843, 426.3085
139.3665, 427.9961
139.8486, 430.3073
140.3307, 433.2463
140.8128, 437.6466
141.2949, 445.9984
141.7770, 453.6487
142.2592, 459.4674
142.7413, 463.4347
143.2234, 465.9376
143.7055, 467.1778
144.1876, 467.0652
144.6697, 466.4769
145.1519, 463.6614
145.6340, 461.9683
146.1161, 462.2502
146.5982, 464.7896
147.0803, 469.8599
147.5624, 478.1222
148.0446, 490.5506
148.5267, 501.7469
149.0088, 512.8105
149.4909, 522.0098
149.9730, 527.7696
150.4551, 530.4198
150.9372, 532.0456
151.4194, 535.1271
151.9015, 540.7423
152.3836, 543.9763
152.8657, 542.8262
153.3478, 541.2198
153.8299, 543.4854
154.3121, 549.2462
154.7942, 552.8271
155.2763, 546.5771
155.7584, 524.3488
156.2405, 508.5024
156.7226, 501.4073
157.2048, 498.4532
157.6869, 497.5984
158.1690, 498.0127
158.6511, 497.9635
159.1332, 494.9637
159.6153, 486.8188
160.0975, 480.7406
160.5796, 478.8483
161.0617, 477.7545
161.5438, 474.0547
162.0259, 467.0616
162.5080, 459.1595
162.9902, 453.8320
163.4723, 452.7759
163.9544, 450.4297
164.4365, 444.2722
164.9186, 437.8433
165.4007, 435.2508
165.8829, 437.5445
166.3650, 441.9324
166.8471, 444.0666
167.3292, 442.4535
167.8113, 442.7775
168.2934, 447.1828
168.7756, 453.1752
169.2577, 458.6852
169.7398, 463.3209
170.2219, 465.4926
170.7040, 461.3843
171.1861, 447.8152
171.6683, 438.7754
172.1504, 440.3385
172.6325, 446.3688
173.1146, 448.8395
173.5967, 445.4233
174.0788, 438.6877
174.5610, 432.2607
175.0431, 426.3427
175.5252, 419.9387
176.0073, 411.7805
176.4894, 403.2739
176.9715, 396.9150
177.4537, 393.7617
177.9358, 391.4193
178.4179, 385.0590
178.9000, 373.2473
179.3821, 365.0143
179.8642, 364.0864
180.3464, 367.8389
180.8285, 372.6075
181.3106, 377.8429
181.7927, 382.4574
182.2748, 384.3394
182.7569, 383.4346
183.2391, 382.0510
183.7212, 379.9286
184.2033, 377.9157
184.6854, 378.1046
185.1675, 381.6839
185.6496, 385.6875
186.1318, 384.6664
186.6139, 378.1801
187.0960, 373.2898
187.5781, 374.0919
188.0602, 377.5745
188.5423, 378.0610
189.0245, 373.6645
189.5066, 367.3210
189.9887, 362.9401
190.4708, 360.4436
190.9529, 358.4936
191.4350, 356.2076
191.9172, 354.2924
192.3993, 354.0078
192.8814, 355.6743
193.3635, 358.9533
193.8456, 364.5715
194.3277, 372.6448
194.8099, 378.7344
195.2920, 381.3041
195.7741, 381.0160
196.2562, 378.4521
196.7383, 373.1103
197.2204, 367.2751
197.7026, 363.4769
198.1847, 361.4621
198.6668, 361.2199
199.1489, 364.2753
199.6310, 368.7670
200.1131, 371.5151
200.5953, 371.7763
201.0774, 370.7720
201.5595, 369.1068
202.0416, 366.8254
202.5237, 366.0363
203.0058, 367.8458
203.4880, 371.3652
203.9701, 375.9248
204.4522, 381.9771
204.9343, 386.8655
205.4164, 386.4130
205.8985, 381.3855
206.3807, 377.3204
206.8628, 375.3784
207.3449, 375.2447
207.8270, 376.8000
208.3091, 380.2220
208.7912, 384.2605
209.2734, 387.1924
209.7555, 389.3488
210.2376, 393.5375
210.7197, 403.3595
211.2018, 414.2129
211.6839, 419.1687
212.1661, 416.9604
212.6482, 414.5634
213.1303, 418.6774
213.6124, 428.3694
214.0945, 437.6875
214.5766, 446.0053
215.0588, 453.3925
215.5409, 458.9806
216.0230, 462.5946
216.5051, 467.3416
216.9872, 476.1980
217.4693, 488.5767
217.9515, 500.5507
218.4336, 506.0500
218.9157, 514.6987
219.3978, 542.9562
219.8799, 590.4545
220.3620, 625.8350
220.8442, 622.0170
221.3263, 585.0047
221.8084, 558.2623
222.2905, 548.7695
222.7726, 545.8033
223.2547, 541.7502
223.7369, 536.8107
224.2190, 534.9016
224.7011, 540.1030
225.1832, 550.1687
225.6653, 554.6566
226.1474, 546.1833
226.6296, 538.8644
227.1117, 543.1653
227.5938, 556.6597
228.0759, 568.5643
228.5580, 572.6938
229.0401, 571.0289
229.5223, 571.3851
230.0044, 577.0565
230.4865, 580.7414
230.9686, 576.6071
231.4507, 567.5834
231.9328, 561.9445
232.4150, 564.0209
232.8971, 571.4085
233.3792, 577.3127
233.8613, 581.1858
234.3434, 584.7947
234.8255, 589.4737
235.3077, 594.1832
235.7898, 596.3252
236.2719, 594.3550
236.7540, 590.9332
237.2361, 592.6485
237.7182, 603.8992
238.2004, 610.5560
238.6825, 605.1364
239.1646, 594.9289
239.6467, 590.7220
240.1288, 596.0941
240.6109, 605.4175
241.0931, 609.4197
241.5752, 605.5719
242.0573, 602.3115
242.5394, 599.5675
243.0215, 598.0332
243.5036, 599.3820
243.9858, 603.8098
244.4679, 608.3286
244.9500, 609.2228
245.4321, 605.4639
245.9142, 600.0469
246.3963, 589.9063
246.8785, 580.2791
247.3606, 575.0714
247.8427, 574.6679
248.3248, 577.3228
248.8069, 581.9611
249.2890, 589.6826
249.7712, 592.4111
250.2533, 585.5901
250.7354, 578.4479
251.2175, 576.4513
251.6996, 578.9670
252.1817, 581.8453
252.6639, 581.4781
253.1460, 577.6730
253.6281, 576.7465
254.1102, 581.2275
254.5923, 585.5780
255.0744, 588.4837
255.5566, 589.8409
256.0387, 589.7758
256.5208, 588.3419
257.0029, 585.6039
257.4850, 582.0004
257.9671, 575.9544
258.4492, 570.7698
258.9314, 566.6507
259.4135, 563.8110
259.8956, 562.7686
260.3777, 563.8624
260.8598, 566.2244
261.3419, 567.3431
261.8241, 567.0397
262.3062, 565.5333
262.7883, 560.8226
263.2704, 556.0539
263.7525, 554.9878
264.2346, 558.7867
264.7168, 564.0002
265.1989, 563.9614
265.6810, 554.7926
266.1631, 549.3512
266.6452, 549.8083
267.1273, 552.8766
267.6095, 557.2132
268.0916, 562.2468
268.5737, 567.0359
269.0558, 570.9398
269.5379, 574.3886
270.0201, 574.8463
270.5022, 571.7435
270.9843, 565.6833
271.4664, 554.8489
271.9485, 540.4661
272.4306, 526.8867
272.9128, 518.7220
273.3949, 515.5930
273.8770, 509.7501
274.3591, 498.2435
274.8412, 487.7451
275.3233, 481.9460
275.8055, 479.4047
276.2876, 476.7397
276.7697, 471.4882
277.2518, 464.9545
277.7339, 460.6289
278.2160, 458.5262
278.6982, 458.7676
279.1803, 461.9038
279.6624, 467.1404
280.1445, 473.8653
280.6266, 482.5738
281.1087, 491.7065
281.5909, 499.5970
282.0730, 506.3360
282.5551, 511.0066
283.0372, 512.8883
283.5193, 512.5193
284.0014, 510.6823
284.4836, 507.4317
284.9657, 502.7610
285.4478, 496.7486
285.9299, 489.3275
286.4120, 479.7990
286.8941, 466.2179
287.3763, 452.7360
287.8584, 445.0800
288.3405, 443.3560
288.8226, 444.2840
289.3047, 449.5458
289.7868, 456.0091
290.2690, 456.4893
290.7511, 448.4917
291.2332, 439.7583
291.7153, 440.0832
292.1974, 449.8009
292.6795, 457.6924
293.1617, 462.6709
293.6438, 464.9788
294.1259, 463.2132
294.6080, 457.7640
295.0901, 453.5302
295.5722, 455.2154
296.0544, 462.6885
296.5365, 465.6990
297.0186, 459.1354
297.5007, 453.4222
297.9828, 454.3408
298.4649, 460.2545
298.9471, 466.0869
299.4292, 468.7869
299.9113, 469.5410
300.3934, 474.0126
300.8755, 489.2086
301.3576, 499.5597
301.8398, 499.6243
302.3219, 494.7083
302.8040, 491.1988
303.2861, 491.4677
303.7682, 493.8127
304.2503, 495.1079
304.7325, 494.8656
305.2146, 494.2997
305.6967, 493.0612
306.1788, 491.8001
306.6609, 490.8930
307.1430, 490.4245
307.6252, 490.3750
308.1073, 491.1786
308.5894, 493.4342
309.0715, 492.8109
309.5536, 484.5961
310.0357, 477.7889
310.5179, 476.2776
311.0000, 478.8393
311.4821, 481.7568
311.9642, 481.9331
312.4463, 480.6000
312.9284, 484.4652
313.4106, 497.5781
313.8927, 508.8936
314.3748, 513.8778
314.8569, 515.4857
315.3390, 517.5173
315.8211, 521.7637
316.3033, 525.9221
316.7854, 526.3304
317.2675, 522.5572
317.7496, 518.1873
318.2317, 513.0351
318.7138, 508.6563
319.1960, 506.5065
319.6781, 506.7732
320.1602, 508.6400
320.6423, 511.5630
321.1244, 515.6183
321.6065, 521.6433
322.0887, 530.9693
322.5708, 539.9260
323.0529, 543.3109
323.5350, 541.9337
324.0171, 542.5024
324.4992, 550.1376
324.9814, 559.0928
325.4635, 561.9860
325.9456, 558.2683
326.4277, 552.6766
326.9098, 547.9183
327.3919, 544.2764
327.8741, 542.8131
328.3562, 546.6457
328.8383, 549.5110
329.3204, 546.6491
329.8025, 540.3536
330.2846, 536.6254
330.7668, 538.5953
331.2489, 544.2001
331.7310, 547.7064
332.2131, 548.4171
332.6952, 547.9293
333.1773, 543.5925
333.6595, 539.5130
334.1416, 540.7541
334.6237, 548.1383
335.1058, 557.4263
335.5879, 563.2503
336.0700, 565.1888
336.5522, 564.9518
337.0343, 559.9334
337.5164, 555.4144
337.9985, 553.9453
338.4806, 555.1797
338.9627, 557.7454
339.4449, 561.2455
339.9270, 565.0980
340.4091, 564.5416
340.8912, 554.7224
341.3733, 547.6880
341.8554, 548.9811
342.3376, 553.7255
342.8197, 555.9172
343.3018, 553.0935
343.7839, 547.8926
344.2660, 543.4235
344.7481, 539.3890
345.2303, 538.2803
345.7124, 542.7346
346.1945, 548.9236
346.6766, 554.7360
347.1587, 559.9639
347.6408, 562.3553
348.1230, 559.1799
348.6051, 552.0342
349.0872, 545.2220
349.5693, 538.9366
350.0514, 533.9079
350.5335, 531.2208
351.0157, 530.4603
351.4978, 530.1431
351.9799, 529.9592
352.4620, 530.1631
352.9441, 532.1181
353.4262, 535.2256
353.9084, 535.4456
354.3905, 529.6548
354.8726, 520.0320
355.3547, 515.2298
355.8368, 517.6136
356.3189, 520.4240
356.8011, 521.5048
357.2832, 522.4363
357.7653, 526.5104
358.2474, 534.4586
358.7295, 541.7831
359.2116, 541.6653
359.6938, 530.1598
360.1759, 522.6461
360.6580, 520.7769
361.1401, 520.7972
361.6222, 521.0147
362.1043, 521.3543
362.5865, 522.7700
363.0686, 526.6266
363.5507, 532.0287
364.0328, 531.6671
364.5149, 520.0337
364.9970, 510.6429
365.4792, 507.7307
365.9613, 508.0733
366.4434, 507.3246
366.9255, 503.7322
367.4076, 501.2622
367.8897, 507.4597
368.3719, 523.5349
368.8540, 533.6451
369.3361, 531.6577
369.8182, 525.3245
370.3003, 519.3760
370.7824, 514.2075
371.2646, 512.4037
371.7467, 518.1690
372.2288, 527.5211
372.7109, 532.5827
373.1930, 532.4742
373.6751, 530.5594
374.1573, 528.0420
374.6394, 525.5737
375.1215, 525.5248
375.6036, 531.1324
376.0857, 536.0920
376.5678, 534.6218
377.0500, 529.8530
377.5321, 530.3784
378.0142, 540.1856
378.4963, 554.0975
378.9784, 562.2478
379.4605, 561.8500
379.9427, 560.2156
380.4248, 556.7272
380.9069, 552.5496
381.3890, 546.9212
381.8711, 540.8348
382.3532, 538.3244
382.8354, 544.1205
383.3175, 558.2416
383.7996, 565.1936
384.2817, 555.6656
384.7638, 549.1162
385.2459, 551.6085
385.7281, 559.0800
386.2102, 566.4319
386.6923, 571.7653
387.1744, 574.7755
387.6565, 573.7293
388.1386, 567.2749
388.6208, 564.2569
389.1029, 569.1839
389.5850, 575.8868
390.0671, 579.7150
390.5492, 580.6869
391.0313, 582.0360
391.5135, 587.0000
391.9956, 593.3913
392.4777, 596.3184
392.9598, 595.1818
393.4419, 592.1107
393.9240, 586.8619
394.4062, 580.8447
394.8883, 579.0770
395.3704, 587.2304
395.8525, 593.7638
396.3346, 589.0808
396.8167, 578.6268
397.2989, 575.8091
397.7810, 586.0927
398.2631, 600.7275
398.7452, 604.9626
399.2273, 591.9753
399.7094, 583.7891
400.1916, 582.1425
400.6737, 583.7446
401.1558, 587.9936
401.6379, 593.7852
402.1200, 598.7784
402.6021, 601.2856
403.0843, 601.4677
403.5664, 600.3071
404.0485, 594.5065
404.5306, 592.4630
405.0127, 596.3900
405.4948, 604.2437
405.9770, 615.8452
406.4591, 631.1902
406.9412, 643.9617
407.4233, 643.9556
407.9054, 631.5598
408.3875, 626.4310
408.8697, 634.7983
409.3518, 645.8961
409.8339, 651.0328
410.3160, 651.6467
410.7981, 653.1100
411.2802, 658.0865
411.7624, 664.2612
412.2445, 669.2346
412.7266, 673.0121
413.2087, 676.3565
413.6908, 679.5929
414.1729, 682.6498
414.6551, 685.4576
415.1372, 688.8322
415.6193, 690.5270
416.1014, 688.4944
416.5835, 685.4272
417.0656, 684.4849
417.5478, 685.9971
418.0299, 687.5144
418.5120, 686.0103
418.9941, 680.9085
419.4762, 681.4462
419.9583, 696.9823
420.4405, 708.0554
420.9226, 706.3784
421.4047, 698.3248
421.8868, 692.9462
422.3689, 694.0311
422.8510, 699.2802
423.3332, 705.2839
423.8153, 712.0981
424.2974, 719.5272
424.7795, 727.3242
425.2616, 735.9779
425.7437, 747.5923
426.2259, 761.1967
426.7080, 770.7460
427.1901, 767.5772
427.6722, 761.2018
428.1543, 767.3710
428.6364, 786.4760
429.1186, 806.6585
429.6007, 822.1157
430.0828, 833.6063
430.5649, 843.5109
431.0470, 848.9337
431.5291, 857.7543
432.0113, 876.3128
432.4934, 897.3871
432.9755, 911.3455
433.4576, 916.7288
433.9397, 920.3072
434.4218, 929.8207
434.9040, 946.4177
435.3861, 957.5646
435.8682, 958.4585
436.3503, 959.1913
436.8324, 965.0227
437.3145, 971.6815
437.7967, 972.5277
438.2788, 964.6412
438.7609, 951.4150
439.2430, 936.9297
439.7251, 920.8033
440.2072, 907.0924
440.6894, 898.1474
441.1715, 890.0178
441.6536, 877.8652
442.1357, 863.0141
442.6178, 852.8979
443.0999, 855.7957
443.5821, 862.2056
444.0642, 858.4645
444.5463, 845.1029
445.0284, 833.4802
445.5105, 829.4412
445.9926, 830.7203
446.4748, 831.1233
446.9569, 828.2050
447.4390, 829.1779
447.9211, 838.7634
448.4032, 850.6033
448.8853, 858.6439
449.3675, 862.2760
449.8496, 864.6395
450.3317, 868.5316
450.8138, 873.8741
451.2959, 877.9493
451.7780, 879.1096
452.2602, 881.1688
452.7423, 883.2770
453.2244, 887.4141
453.7065, 897.2627
454.1886, 913.8908
454.6707, 930.4396
455.1529, 937.8691
455.6350, 937.1430
456.1171, 940.2112
456.5992, 951.3204
457.0813, 960.8560
457.5634, 956.0950
458.0455, 942.9526
458.5276, 939.3917
459.0098, 955.0599
459.4919, 975.9001
459.9740, 993.3214
460.4561, 1008.085
460.9382, 1020.391
461.4203, 1029.498
461.9025, 1041.743
462.3846, 1067.406
462.8667, 1109.584
463.3488, 1159.125
463.8309, 1218.634
464.3130, 1282.454
464.7952, 1346.751
465.2773, 1412.732
465.7594, 1482.360
466.2415, 1556.151
466.7236, 1636.627
467.2057, 1729.520
467.6879, 1833.495
468.1700, 1953.687
468.6521, 2094.542
469.1342, 2250.249
469.6163, 2419.847
470.0984, 2602.194
470.5806, 2792.595
471.0627, 2985.754
471.5448, 3185.155
472.0269, 3401.173
472.5090, 3634.621
472.9911, 3860.869
473.4733, 4083.055
473.9554, 4280.798
474.4375, 4389.568
474.9196, 4421.466
475.4017, 4366.381
475.8839, 4192.732
476.3660, 3949.633
476.8481, 3665.829
477.3302, 3354.832
477.8123, 3043.051
478.2944, 2750.178
478.7766, 2475.947
479.2587, 2238.165
479.7408, 2043.382
480.2229, 1876.772
480.7050, 1733.111
481.1871, 1612.626
481.6693, 1520.123
482.1514, 1456.042
482.6335, 1407.957
483.1156, 1368.403
483.5977, 1336.516
484.0798, 1309.587
484.5620, 1287.333
485.0441, 1270.214
485.5262, 1259.882
486.0083, 1255.241
486.4904, 1250.656
486.9725, 1246.590
487.4547, 1241.887
487.9368, 1235.036
488.4189, 1227.648
488.9010, 1222.280
489.3831, 1219.476
489.8652, 1217.503
490.3474, 1213.590
490.8295, 1206.920
491.3116, 1208.632
491.7937, 1225.495
492.2758, 1243.732
492.7579, 1264.555
493.2401, 1283.047
493.7222, 1290.131
494.2043, 1281.862
494.6864, 1275.533
495.1685, 1295.815
495.6506, 1338.387
496.1328, 1368.528
496.6149, 1379.768
497.0970, 1383.996
497.5791, 1390.563
498.0612, 1397.905
498.5433, 1399.396
499.0255, 1392.342
499.5076, 1381.494
499.9897, 1368.605
500.4718, 1353.693
500.9539, 1335.412
501.4360, 1313.639
501.9182, 1292.735
502.4003, 1278.784
502.8824, 1273.153
503.3645, 1265.945
503.8466, 1256.592
504.3287, 1246.248
504.8109, 1233.460
505.2930, 1220.498
505.7751, 1211.207
506.2572, 1207.393
506.7393, 1203.888
507.2214, 1191.513
507.7036, 1172.039
508.1857, 1163.997
508.6678, 1174.114
509.1499, 1185.968
509.6320, 1186.938
510.1141, 1178.219
510.5963, 1165.468
511.0784, 1144.545
511.5605, 1124.643
512.0426, 1110.215
512.5247, 1099.660
513.0068, 1090.593
513.4890, 1082.239
513.9711, 1074.490
514.4532, 1067.862
514.9353, 1063.141
515.4174, 1052.847
515.8995, 1032.097
516.3817, 1010.907
516.8638, 989.9114
517.3459, 970.8651
517.8280, 956.7838
518.3101, 948.7864
518.7922, 943.0468
519.2744, 938.0233
519.7565, 932.4650
520.2386, 918.5516
520.7207, 893.0117
521.2028, 868.2028
521.6849, 854.7623
522.1671, 851.0161
522.6492, 843.7288
523.1313, 827.2007
523.6134, 813.8873
524.0955, 810.2233
524.5776, 811.1259
525.0598, 809.8742
525.5419, 805.1762
526.0240, 800.6710
526.5061, 800.3120
526.9882, 804.0345
527.4703, 806.9727
527.9525, 809.3154
528.4346, 810.5643
528.9167, 809.5057
529.3988, 807.9805
529.8809, 807.5549
530.3630, 808.4861
530.8452, 811.6697
531.3273, 817.2578
531.8094, 825.6501
532.2915, 839.2281
532.7736, 858.3613
533.2557, 876.0312
533.7379, 886.7844
534.2200, 892.9269
534.7021, 904.1389
535.1842, 925.0373
535.6663, 944.2912
536.1484, 961.5369
536.6306, 976.1425
537.1127, 985.6194
537.5948, 991.3130
538.0769, 998.4113
538.5590, 1011.161
539.0411, 1028.128
539.5233, 1045.034
540.0054, 1062.569
540.4875, 1077.529
540.9696, 1093.219
541.4517, 1101.950
541.9338, 1092.601
542.4160, 1065.349
542.8981, 1043.195
543.3802, 1042.240
543.8623, 1044.960
544.3444, 1032.148
544.8265, 1006.740
545.3087, 982.8448
545.7908, 966.8923
546.2729, 956.0966
546.7550, 945.1132
547.2371, 934.4544
547.7192, 922.3231
548.2014, 904.2386
548.6835, 889.1144
549.1656, 882.5649
549.6477, 881.8784
550.1298, 881.3824
550.6119, 878.5839
551.0941, 875.0215
551.5762, 872.7579
552.0583, 871.6217
552.5404, 870.9348
553.0225, 871.5285
553.5046, 869.5024
553.9868, 859.3964
554.4689, 841.9063
554.9510, 830.8118
555.4331, 833.9601
555.9152, 834.5536
556.3973, 823.5851
556.8795, 807.8772
557.3616, 796.3213
557.8437, 790.8690
558.3258, 787.5655
558.8079, 781.9211
559.2900, 774.3195
559.7722, 771.0004
560.2543, 774.9915
560.7364, 777.0430
561.2185, 770.5891
561.7006, 762.0668
562.1827, 759.4009
562.6649, 764.2614
563.1470, 765.3759
563.6291, 753.9138
564.1112, 737.6285
564.5933, 726.7126
565.0754, 720.9365
565.5576, 714.1092
566.0397, 702.4842
566.5218, 688.6088
567.0039, 678.8195
567.4860, 672.2982
567.9681, 671.8535
568.4503, 684.1879
568.9324, 695.5851
569.4145, 696.4896
569.8966, 690.6673
570.3787, 688.5444
570.8608, 696.5456
571.3430, 706.4514
571.8251, 706.4924
572.3072, 698.1805
572.7893, 691.2215
573.2714, 687.9271
573.7535, 685.4086
574.2357, 681.0082
574.7178, 674.7319
575.1999, 668.9851
575.6820, 660.4323
576.1641, 656.3698
576.6462, 663.5745
577.1284, 673.9904
577.6105, 677.4490
578.0926, 672.7559
578.5747, 667.5431
579.0568, 670.0237
579.5389, 678.0572
580.0211, 678.6616
580.5032, 668.8349
580.9853, 662.7439
581.4674, 668.6563
581.9495, 678.7471
582.4316, 681.8914
582.9138, 677.1732
583.3959, 673.9662
583.8780, 675.7173
584.3601, 679.3181
584.8422, 682.5467
585.3243, 685.4349
585.8065, 688.4158
586.2886, 691.6732
586.7707, 695.6658
587.2528, 702.0372
587.7349, 712.5942
588.2170, 717.7606
588.6992, 712.9622
589.1813, 708.3598
589.6634, 706.8439
590.1455, 708.8597
590.6276, 716.2285
591.1097, 731.4587
591.5919, 744.9181
592.0740, 748.1263
592.5561, 745.8231
593.0382, 745.4137
593.5203, 748.0141
594.0024, 753.5275
594.4846, 762.1741
594.9667, 773.3973
595.4488, 785.3458
595.9309, 800.9203
596.4130, 812.0533
596.8951, 812.6857
597.3773, 814.0679
597.8594, 825.4891
598.3415, 844.1567
598.8236, 859.2925
599.3057, 862.4504
599.7878, 864.4318
600.2700, 881.8202
600.7521, 911.0134
601.2342, 935.0825
601.7163, 950.0153
602.1984, 958.4932
602.6805, 960.8141
603.1627, 956.8945
603.6448, 964.0012
604.1269, 988.5281
604.6090, 1014.925
605.0911, 1043.571
605.5732, 1070.514
606.0554, 1090.032
606.5375, 1102.698
607.0196, 1116.241
607.5017, 1137.459
607.9838, 1163.431
608.4659, 1185.645
608.9481, 1203.775
609.4302, 1229.171
609.9123, 1267.917
610.3944, 1312.077
610.8765, 1351.423
611.3586, 1385.560
611.8408, 1416.402
612.3229, 1429.905
612.8050, 1455.513
613.2871, 1516.191
613.7692, 1593.341
614.2513, 1658.031
614.7335, 1703.025
615.2156, 1745.963
615.6977, 1806.688
616.1798, 1883.125
616.6619, 1958.619
617.1440, 2030.651
617.6262, 2113.604
618.1083, 2213.532
618.5904, 2327.791
619.0725, 2449.932
619.5546, 2578.032
620.0367, 2721.357
620.5189, 2880.308
621.0010, 3055.489
621.4831, 3241.831
621.9652, 3446.128
622.4473, 3675.328
622.9294, 3932.696
623.4116, 4224.641
623.8937, 4565.338
624.3758, 4953.613
624.8579, 5356.401
625.3400, 5765.916
625.8221, 6199.052
626.3043, 6654.610
626.7864, 7145.743
627.2685, 7695.481
627.7506, 8319.467
628.2327, 8957.289
628.7148, 9589.917
629.1970, 10229.24
629.6791, 10900.40
630.1612, 11587.63
630.6433, 12255.05
631.1254, 12887.55
631.6075, 13457.52
632.0897, 13940.03
632.5718, 14341.89
633.0539, 14561.01
633.5360, 14580.36
634.0181, 14435.26
634.5002, 14125.92
