##NAMES=Cassiterite
##RRUFFID=R040072
##IDEAL CHEMISTRY=SnO_2_
##LOCALITY=Bolivia
##OWNER=RRUFF
##SOURCE=University of Arizona Mineral Museum
##DESCRIPTION=Black fragment
##STATUS=The identification of this mineral has been confirmed by X-ray diffraction and chemical analysis
##URL=rruff.info/R040072
##MEASURED CHEMISTRY=Sn_0.99_O_2_
120.6652, 934.9214
121.1473, 938.2772
121.6294, 945.5366
122.1115, 954.5266
122.5936, 962.0696
123.0757, 975.5367
123.5579, 999.7982
124.0400, 1032.163
124.5221, 1065.913
125.0042, 1093.576
125.4863, 1113.881
125.9684, 1146.396
126.4506, 1200.382
126.9327, 1259.667
127.4148, 1318.134
127.8969, 1376.511
128.3790, 1440.686
128.8611, 1515.368
129.3432, 1599.409
129.8254, 1699.332
130.3075, 1848.838
130.7896, 1986.311
131.2717, 2084.079
131.7538, 2137.623
132.2359, 2156.419
132.7181, 2150.946
133.2002, 2118.007
133.6823, 2063.726
134.1644, 1973.185
134.6465, 1875.694
135.1286, 1788.335
135.6108, 1715.687
136.0929, 1653.264
136.5750, 1593.978
137.0571, 1529.458
137.5392, 1486.298
138.0213, 1476.319
138.5035, 1479.596
138.9856, 1478.895
139.4677, 1468.975
139.9498, 1456.319
140.4319, 1452.679
140.9140, 1450.138
141.3962, 1470.872
141.8783, 1530.674
142.3604, 1608.269
142.8425, 1682.339
143.3246, 1744.836
143.8067, 1798.189
144.2889, 1846.980
144.7710, 1872.904
145.2531, 1921.135
145.7352, 2004.011
146.2173, 2084.279
146.6994, 2141.663
147.1816, 2193.649
147.6637, 2233.928
148.1458, 2240.663
148.6279, 2204.924
149.1100, 2163.411
149.5921, 2119.776
150.0743, 2076.116
150.5564, 2037.786
151.0385, 2007.648
151.5206, 1981.959
152.0027, 1949.784
152.4848, 1904.578
152.9670, 1861.995
153.4491, 1828.732
153.9312, 1802.397
154.4133, 1777.067
154.8954, 1750.514
155.3775, 1722.117
155.8597, 1690.832
156.3418, 1649.712
156.8239, 1614.305
157.3060, 1592.841
157.7881, 1583.734
158.2702, 1581.123
158.7524, 1585.143
159.2345, 1592.037
159.7166, 1592.711
160.1987, 1588.753
160.6808, 1577.695
161.1629, 1553.485
161.6451, 1518.367
162.1272, 1488.068
162.6093, 1473.225
163.0914, 1467.530
163.5735, 1455.368
164.0556, 1433.104
164.5378, 1408.764
165.0199, 1386.461
165.5020, 1366.295
165.9841, 1352.808
166.4662, 1353.103
166.9483, 1359.993
167.4305, 1359.345
167.9126, 1344.718
168.3947, 1328.299
168.8768, 1323.291
169.3589, 1330.056
169.8410, 1334.049
170.3232, 1326.283
170.8053, 1311.305
171.2874, 1296.110
171.7695, 1279.510
172.2516, 1265.292
172.7337, 1259.728
173.2159, 1263.839
173.6980, 1265.180
174.1801, 1251.691
174.6622, 1233.003
175.1443, 1223.921
175.6264, 1233.409
176.1086, 1246.603
176.5907, 1245.168
177.0728, 1227.232
177.5549, 1206.665
178.0370, 1188.876
178.5191, 1173.055
179.0013, 1158.006
179.4834, 1141.891
179.9655, 1128.263
180.4476, 1124.809
180.9297, 1134.474
181.4118, 1138.677
181.8940, 1121.752
182.3761, 1096.002
182.8582, 1073.719
183.3403, 1056.526
183.8224, 1046.423
184.3046, 1049.371
184.7867, 1068.660
185.2688, 1085.452
185.7509, 1088.307
186.2330, 1084.612
186.7151, 1081.367
187.1973, 1080.502
187.6794, 1080.886
188.1615, 1082.453
188.6436, 1086.683
189.1257, 1085.703
189.6078, 1068.804
190.0900, 1047.568
190.5721, 1033.577
191.0542, 1031.643
191.5363, 1035.736
192.0184, 1038.521
192.5005, 1040.266
192.9827, 1039.563
193.4648, 1032.991
193.9469, 1024.773
194.4290, 1019.108
194.9111, 1017.778
195.3932, 1018.034
195.8754, 1015.919
196.3575, 1010.803
196.8396, 1006.195
197.3217, 1001.508
197.8038, 998.8583
198.2859, 1002.064
198.7681, 1014.356
199.2502, 1026.737
199.7323, 1024.983
200.2144, 1005.684
200.6965, 990.2273
201.1786, 992.6900
201.6608, 999.7000
202.1429, 999.5306
202.6250, 987.9672
203.1071, 973.7786
203.5892, 968.9965
204.0713, 975.4844
204.5535, 979.0624
205.0356, 969.5684
205.5177, 957.9135
205.9998, 953.3926
206.4819, 958.4997
206.9640, 967.4764
207.4462, 975.7364
207.9283, 983.7642
208.4104, 986.3536
208.8925, 977.3862
209.3746, 964.8292
209.8567, 953.8906
210.3388, 945.0601
210.8210, 940.2042
211.3031, 942.7892
211.7852, 953.1696
212.2673, 962.9844
212.7494, 973.0233
213.2315, 979.1599
213.7137, 975.5373
214.1958, 960.9996
214.6779, 947.4444
215.1600, 946.6592
215.6421, 958.4003
216.1242, 970.5460
216.6064, 981.9755
217.0885, 991.5495
217.5706, 998.1915
218.0527, 1001.830
218.5348, 1004.531
219.0169, 1009.457
219.4991, 1015.950
219.9812, 1016.102
220.4633, 1002.377
220.9454, 988.6187
221.4275, 988.2134
221.9096, 1000.549
222.3918, 1011.161
222.8739, 1007.846
223.3560, 993.6301
223.8381, 986.0113
224.3202, 992.6652
224.8023, 998.8562
225.2845, 990.5055
225.7666, 969.7856
226.2487, 950.9404
226.7308, 941.9221
227.2129, 940.8550
227.6950, 942.6205
228.1772, 948.2678
228.6593, 953.7520
229.1414, 955.1974
229.6235, 953.5806
230.1056, 952.4362
230.5877, 954.9761
231.0699, 958.7834
231.5520, 958.1004
232.0341, 951.1646
232.5162, 943.5687
232.9983, 940.2627
233.4804, 939.7278
233.9626, 938.2247
234.4447, 932.2866
234.9268, 925.5803
235.4089, 923.3230
235.8910, 925.8525
236.3731, 931.9296
236.8553, 944.3226
237.3374, 959.7159
237.8195, 970.2844
238.3016, 973.6784
238.7837, 971.9636
239.2658, 965.5852
239.7480, 954.3250
240.2301, 943.7929
240.7122, 936.8849
241.1943, 933.3767
241.6764, 932.0291
242.1585, 933.3275
242.6407, 936.2049
243.1228, 939.9433
243.6049, 944.5586
244.0870, 950.8624
244.5691, 961.8645
245.0512, 973.1508
245.5334, 973.6189
246.0155, 954.1265
246.4976, 937.5181
246.9797, 940.4839
247.4618, 957.3361
247.9439, 968.5479
248.4261, 964.2101
248.9082, 951.9501
249.3903, 949.2183
249.8724, 959.5796
250.3545, 969.4653
250.8366, 974.0972
251.3188, 974.9029
251.8009, 974.2018
252.2830, 972.4584
252.7651, 970.4127
253.2472, 969.4327
253.7293, 969.7892
254.2115, 970.1187
254.6936, 974.1964
255.1757, 976.5621
255.6578, 966.8695
256.1399, 942.4460
256.6220, 917.0115
257.1042, 908.9959
257.5863, 925.4050
258.0684, 937.1841
258.5505, 940.5779
259.0326, 940.9091
259.5147, 943.1309
259.9969, 947.6119
260.4790, 950.5864
260.9611, 947.7012
261.4432, 937.4115
261.9253, 931.9882
262.4074, 935.0534
262.8896, 939.2706
263.3717, 939.8782
263.8538, 937.6830
264.3359, 937.0675
264.8180, 941.6575
265.3001, 951.4232
265.7823, 959.1399
266.2644, 966.0308
266.7465, 970.0238
267.2286, 969.6277
267.7107, 965.8831
268.1928, 959.9937
268.6750, 952.2780
269.1571, 943.8736
269.6392, 940.7202
270.1213, 952.4507
270.6034, 958.6611
271.0855, 954.0762
271.5677, 943.9656
272.0498, 934.3478
272.5319, 927.8192
273.0140, 923.1971
273.4961, 917.9911
273.9782, 912.3468
274.4604, 905.7080
274.9425, 895.4932
275.4246, 885.9463
275.9067, 880.8107
276.3888, 880.8049
276.8709, 883.4590
277.3531, 886.0520
277.8352, 889.5065
278.3173, 889.8111
278.7994, 881.2958
279.2815, 874.1774
279.7636, 875.8827
280.2458, 885.2856
280.7279, 894.0466
281.2100, 892.8153
281.6921, 881.1011
282.1742, 874.8383
282.6563, 877.3459
283.1385, 882.0535
283.6206, 889.9603
284.1027, 897.9702
284.5848, 898.8831
285.0669, 884.3211
285.5490, 859.9068
286.0312, 847.1697
286.5133, 851.3642
286.9954, 856.5986
287.4775, 853.2064
287.9596, 846.8347
288.4417, 845.6393
288.9239, 853.8427
289.4060, 866.7314
289.8881, 879.1747
290.3702, 891.7110
290.8523, 899.1406
291.3344, 892.8037
291.8166, 883.5016
292.2987, 885.8452
292.7808, 905.2348
293.2629, 924.6967
293.7450, 930.3345
294.2271, 923.9471
294.7093, 915.4138
295.1914, 905.5323
295.6735, 897.3494
296.1556, 894.5114
296.6377, 896.9575
297.1198, 902.7646
297.6020, 917.1881
298.0841, 933.0714
298.5662, 935.1374
299.0483, 918.6830
299.5304, 899.9719
300.0125, 897.2953
300.4947, 911.1552
300.9768, 922.8638
301.4589, 933.3994
301.9410, 939.0936
302.4231, 933.4801
302.9052, 917.8123
303.3874, 903.4653
303.8695, 899.0756
304.3516, 904.2805
304.8337, 908.2513
305.3158, 907.1139
305.7979, 908.9348
306.2801, 920.5682
306.7622, 937.3753
307.2443, 950.5602
307.7264, 955.8921
308.2085, 953.3894
308.6906, 942.9811
309.1728, 908.6025
309.6549, 885.8091
310.1370, 881.3486
310.6191, 886.9971
311.1012, 896.5301
311.5833, 907.4876
312.0655, 917.3729
312.5476, 921.9516
313.0297, 918.6418
313.5118, 915.9988
313.9939, 912.5496
314.4760, 910.7996
314.9582, 914.2092
315.4403, 921.4622
315.9224, 926.9930
316.4045, 925.4380
316.8866, 916.7662
317.3687, 908.1462
317.8509, 898.8301
318.3330, 890.5203
318.8151, 882.7364
319.2972, 876.4520
319.7793, 873.7992
320.2614, 877.0583
320.7436, 883.1588
321.2257, 883.8817
321.7078, 876.8851
322.1899, 871.3005
322.6720, 870.3890
323.1541, 872.4600
323.6363, 877.4109
324.1184, 886.1851
324.6005, 893.1711
325.0826, 889.5334
325.5647, 858.4825
326.0468, 884.7274
326.5290, 900.0873
327.0111, 905.1471
327.4932, 869.0566
327.9753, 886.1031
328.4574, 881.8546
328.9395, 876.7331
329.4217, 901.2585
329.9038, 871.1534
330.3859, 896.4789
330.8680, 908.6586
331.3501, 910.8839
331.8322, 903.5359
332.3144, 895.4563
332.7965, 881.3847
333.2786, 871.5339
333.7607, 877.5082
334.2428, 895.6572
334.7249, 909.6485
335.2070, 909.2775
335.6891, 898.3572
336.1713, 893.7735
336.6534, 902.8763
337.1355, 908.3690
337.6176, 903.1505
338.0997, 893.9990
338.5818, 890.6229
339.0640, 896.0314
339.5461, 903.7155
340.0282, 902.6936
340.5103, 886.9139
340.9924, 875.8801
341.4745, 870.5940
341.9567, 868.4301
342.4388, 868.6641
342.9209, 870.7182
343.4030, 873.7695
343.8851, 877.6431
344.3672, 882.2406
344.8494, 883.5076
345.3315, 879.5803
345.8136, 874.3334
346.2957, 865.7501
346.7778, 857.3941
347.2599, 854.8812
347.7421, 861.5650
348.2242, 872.9267
348.7063, 881.6633
349.1884, 888.3671
349.6705, 889.9807
350.1526, 879.8621
350.6348, 867.8154
351.1169, 862.3837
351.5990, 864.7952
352.0811, 868.3691
352.5632, 868.7957
353.0453, 866.4431
353.5275, 862.0269
354.0096, 854.3516
354.4917, 847.5657
354.9738, 846.8206
355.4559, 850.8702
355.9380, 854.8165
356.4202, 857.5176
356.9023, 859.6581
357.3844, 862.3828
357.8665, 865.4866
358.3486, 866.6816
358.8307, 863.6417
359.3129, 857.9822
359.7950, 857.2436
360.2771, 864.3963
360.7592, 872.0012
361.2413, 882.0979
361.7234, 890.2332
362.2056, 887.3328
362.6877, 870.6443
363.1698, 850.6250
363.6519, 844.3204
364.1340, 859.6909
364.6161, 869.4365
365.0983, 870.7469
365.5804, 869.7314
366.0625, 871.1757
366.5446, 873.9445
367.0267, 872.1277
367.5089, 858.8727
367.9910, 836.5836
368.4731, 830.0311
368.9552, 851.9582
369.4373, 872.0134
369.9194, 883.4140
370.4016, 888.1804
370.8837, 887.6284
371.3658, 881.5991
371.8479, 874.2825
372.3300, 872.8981
372.8121, 878.2258
373.2943, 878.2783
373.7764, 864.4108
374.2585, 850.2775
374.7406, 848.5569
375.2227, 858.8239
375.7048, 869.9097
376.1870, 877.7978
376.6691, 882.3534
377.1512, 882.2944
377.6333, 877.0902
378.1154, 871.2164
378.5975, 867.3140
379.0797, 865.5474
379.5618, 865.5554
380.0439, 869.5623
380.5260, 873.0949
381.0081, 875.8677
381.4902, 876.4319
381.9724, 869.4597
382.4545, 851.7571
382.9366, 831.5294
383.4187, 825.1120
383.9008, 844.0881
384.3829, 856.9755
384.8651, 860.4475
385.3472, 860.4017
385.8293, 859.9297
386.3114, 859.9166
386.7935, 860.9427
387.2756, 863.8068
387.7578, 868.4243
388.2399, 871.4293
388.7220, 870.8398
389.2041, 871.0764
389.6862, 876.2656
390.1683, 881.8586
390.6505, 880.3614
391.1326, 867.9518
391.6147, 853.8563
392.0968, 853.4510
392.5789, 868.5023
393.0610, 879.9144
393.5432, 882.6253
394.0253, 881.3621
394.5074, 878.7719
394.9895, 875.2368
395.4716, 874.3027
395.9537, 881.1315
396.4359, 890.4470
396.9180, 893.2025
397.4001, 888.6165
397.8822, 880.1610
398.3643, 866.6068
398.8464, 851.3178
399.3286, 848.2851
399.8107, 870.3914
400.2928, 890.0729
400.7749, 893.7003
401.2570, 888.5390
401.7391, 886.9836
402.2213, 893.1556
402.7034, 902.8132
403.1855, 909.6326
403.6676, 913.4253
404.1497, 914.4847
404.6318, 907.9293
405.1140, 903.3415
405.5961, 908.3021
406.0782, 920.0605
406.5603, 929.9952
407.0424, 931.8723
407.5245, 927.7244
408.0067, 926.5302
408.4888, 930.6663
408.9709, 933.0907
409.4530, 929.4539
409.9351, 924.9348
410.4172, 924.1366
410.8994, 928.0507
411.3815, 934.7000
411.8636, 945.0451
412.3457, 957.4948
412.8278, 962.3515
413.3099, 955.1287
413.7921, 947.1435
414.2742, 952.4117
414.7563, 965.9217
415.2384, 969.6642
415.7205, 950.6588
416.2026, 928.5027
416.6848, 917.9966
417.1669, 917.3917
417.6490, 919.2931
418.1311, 920.2686
418.6132, 922.2584
419.0953, 930.1706
419.5775, 953.0806
420.0596, 965.9219
420.5417, 961.6545
421.0238, 951.5131
421.5059, 941.3431
421.9880, 933.4460
422.4702, 931.1358
422.9523, 938.4733
423.4344, 954.5406
423.9165, 964.5627
424.3986, 965.5709
424.8807, 964.1486
425.3629, 958.8998
425.8450, 953.6343
426.3271, 952.9220
426.8092, 958.3138
427.2913, 966.5278
427.7734, 974.1258
428.2556, 981.1605
428.7377, 989.0947
429.2198, 998.1957
429.7019, 1008.219
430.1840, 1021.072
430.6661, 1035.395
431.1483, 1044.663
431.6304, 1041.312
432.1125, 1036.508
432.5946, 1042.621
433.0767, 1057.275
433.5588, 1068.183
434.0410, 1069.238
434.5231, 1063.609
435.0052, 1058.743
435.4873, 1053.008
435.9694, 1050.952
436.4515, 1059.911
436.9337, 1067.707
437.4158, 1060.366
437.8979, 1039.951
438.3800, 1023.112
438.8621, 1025.857
439.3442, 1045.623
439.8264, 1049.991
440.3085, 1027.321
440.7906, 1006.150
441.2727, 993.7964
441.7548, 986.1855
442.2369, 978.1739
442.7191, 968.2160
443.2012, 961.1166
443.6833, 963.9943
444.1654, 975.1771
444.6475, 982.4484
445.1296, 983.2022
445.6118, 981.9125
446.0939, 982.3286
446.5760, 983.8871
447.0581, 984.3850
447.5402, 983.6594
448.0223, 981.5672
448.5045, 976.5051
448.9866, 969.9194
449.4687, 965.3303
449.9508, 964.1125
450.4329, 966.2226
450.9150, 972.1567
451.3972, 986.5816
451.8793, 994.2086
452.3614, 988.8751
452.8435, 982.4611
453.3256, 983.2642
453.8077, 989.3929
454.2899, 993.0385
454.7720, 987.8920
455.2541, 978.1073
455.7362, 978.3918
456.2183, 992.3815
456.7004, 1006.957
457.1826, 1020.664
457.6647, 1032.364
458.1468, 1039.240
458.6289, 1041.222
459.1110, 1045.771
459.5931, 1061.860
460.0753, 1082.875
460.5574, 1092.155
461.0395, 1087.354
461.5216, 1085.294
462.0037, 1096.634
462.4858, 1120.128
462.9680, 1147.564
463.4501, 1181.040
463.9322, 1215.434
464.4143, 1241.836
464.8964, 1271.578
465.3785, 1321.392
465.8607, 1393.876
466.3428, 1475.106
466.8249, 1549.677
467.3070, 1616.607
467.7891, 1686.666
468.2712, 1757.593
468.7534, 1834.472
469.2355, 1919.436
469.7176, 2010.877
470.1997, 2110.392
470.6818, 2219.398
471.1639, 2324.751
471.6461, 2409.296
472.1282, 2474.101
472.6103, 2532.149
473.0924, 2591.567
473.5745, 2634.965
474.0566, 2650.945
474.5388, 2640.039
475.0209, 2589.528
475.5030, 2476.358
475.9851, 2341.293
476.4672, 2205.636
476.9493, 2070.167
477.4315, 1933.722
477.9136, 1795.150
478.3957, 1662.814
478.8778, 1553.435
479.3599, 1471.429
479.8420, 1402.343
480.3242, 1350.020
480.8063, 1304.935
481.2884, 1263.029
481.7705, 1224.781
482.2526, 1192.617
482.7347, 1168.257
483.2169, 1150.283
483.6990, 1137.355
484.1811, 1130.644
484.6632, 1121.390
485.1453, 1103.753
485.6274, 1086.652
486.1096, 1078.347
486.5917, 1078.555
487.0738, 1081.850
487.5559, 1088.986
488.0380, 1096.443
488.5201, 1099.421
489.0023, 1098.611
489.4844, 1099.003
489.9665, 1103.393
490.4486, 1110.018
490.9307, 1114.584
491.4128, 1114.207
491.8950, 1116.317
492.3771, 1124.691
492.8592, 1132.444
493.3413, 1133.149
493.8234, 1128.520
494.3055, 1126.029
494.7877, 1131.602
495.2698, 1142.199
495.7519, 1147.668
496.2340, 1146.344
496.7161, 1145.606
497.1982, 1149.077
497.6804, 1152.852
498.1625, 1152.999
498.6446, 1149.317
499.1267, 1145.697
499.6088, 1145.012
500.0909, 1144.828
500.5730, 1141.434
501.0551, 1134.984
501.5373, 1128.760
502.0194, 1124.819
502.5015, 1122.206
502.9836, 1117.974
503.4657, 1110.606
503.9478, 1103.749
504.4300, 1098.221
504.9121, 1092.697
505.3942, 1083.396
505.8763, 1064.991
506.3584, 1070.952
506.8405, 1072.268
507.3227, 1069.188
507.8048, 1048.547
508.2869, 1050.583
508.7690, 1043.531
509.2511, 1036.107
509.7332, 1041.334
510.2154, 1023.247
510.6975, 1028.273
511.1796, 1024.074
511.6617, 1024.097
512.1439, 1014.975
512.6260, 1005.908
513.1081, 1001.535
513.5902, 998.0591
514.0723, 995.5405
514.5544, 992.5686
515.0366, 984.9993
515.5187, 964.5505
516.0008, 951.5540
516.4829, 952.0035
516.9650, 954.9442
517.4471, 953.7963
517.9293, 948.1904
518.4114, 940.4094
518.8935, 931.8078
519.3756, 922.2469
519.8577, 909.4542
520.3398, 891.5729
520.8220, 881.3920
521.3041, 887.8137
521.7862, 898.9760
522.2683, 902.3940
522.7504, 898.0292
523.2325, 891.0056
523.7147, 880.0695
524.1968, 869.3540
524.6789, 860.9800
525.1610, 855.9388
525.6431, 858.8696
526.1252, 873.1245
526.6074, 890.8458
527.0895, 893.8147
527.5716, 869.3992
528.0537, 856.4672
528.5358, 864.2434
529.0179, 873.3450
529.5001, 874.6441
529.9822, 869.2206
530.4643, 860.4797
530.9464, 847.7408
531.4285, 838.0669
531.9106, 847.9843
532.3928, 876.6495
532.8749, 889.5748
533.3570, 870.7017
533.8391, 848.2453
534.3212, 856.4818
534.8033, 893.3770
535.2855, 920.8606
535.7676, 929.0632
536.2497, 932.8385
536.7318, 936.4860
537.2139, 942.3613
537.6960, 957.2224
538.1782, 982.9372
538.6603, 1007.140
539.1424, 1010.503
539.6245, 988.7840
540.1066, 973.5177
540.5887, 967.5367
541.0709, 965.0506
541.5530, 968.0074
542.0351, 971.5070
542.5172, 967.5997
542.9993, 952.6683
543.4814, 935.6649
543.9636, 922.7444
544.4457, 913.5143
544.9278, 908.8768
545.4099, 909.3503
545.8920, 906.1996
546.3741, 889.8257
546.8563, 862.9213
547.3384, 851.5682
547.8205, 871.7353
548.3026, 885.1741
548.7847, 881.6181
549.2668, 871.0660
549.7490, 862.0334
550.2311, 856.1327
550.7132, 851.2167
551.1953, 845.5323
551.6774, 839.3387
552.1595, 833.3360
552.6417, 826.9370
553.1238, 823.4306
553.6059, 826.4221
554.0880, 831.2031
554.5701, 830.6175
555.0522, 823.7267
555.5344, 820.1545
556.0165, 829.1328
556.4986, 837.9521
556.9807, 831.8913
557.4628, 814.8115
557.9449, 802.0648
558.4271, 801.5872
558.9092, 807.7622
559.3913, 808.0436
559.8734, 798.0921
560.3555, 793.6647
560.8376, 801.9269
561.3198, 809.2891
561.8019, 810.1275
562.2840, 805.6640
562.7661, 798.8690
563.2482, 790.1342
563.7303, 780.9543
564.2125, 772.0574
564.6946, 763.8659
565.1767, 758.5953
565.6588, 757.0092
566.1409, 755.8901
566.6230, 752.3363
567.1052, 746.3828
567.5873, 740.0833
568.0694, 726.2795
568.5515, 721.0317
569.0336, 737.1685
569.5157, 758.1667
569.9979, 765.7547
570.4800, 758.0021
570.9621, 747.6821
571.4442, 746.6393
571.9263, 752.2777
572.4084, 754.3654
572.8906, 752.4968
573.3727, 749.0146
573.8548, 743.9212
574.3369, 738.4254
574.8190, 734.5348
575.3011, 732.5062
575.7833, 730.1406
576.2654, 726.8270
576.7475, 723.1406
577.2296, 718.7802
577.7117, 714.4455
578.1938, 711.3972
578.6760, 710.1838
579.1581, 711.3151
579.6402, 717.0743
580.1223, 729.6464
580.6044, 735.7175
581.0865, 729.8232
581.5686, 723.7366
582.0507, 723.7068
582.5328, 727.4159
583.0150, 730.5812
583.4971, 731.9160
583.9792, 733.2867
584.4613, 736.9468
584.9434, 741.1333
585.4255, 742.2442
585.9077, 739.9762
586.3898, 737.6756
586.8719, 738.3884
587.3540, 740.9068
587.8361, 737.8750
588.3182, 720.0647
588.8004, 711.8534
589.2825, 722.7032
589.7646, 737.1138
590.2467, 745.8710
590.7288, 748.2356
591.2109, 746.0110
591.6931, 735.9178
592.1752, 726.1519
592.6573, 732.4786
593.1394, 751.3958
593.6215, 759.7710
594.1036, 748.8912
594.5858, 734.2646
595.0679, 735.0738
595.5500, 753.8203
596.0321, 762.0076
596.5142, 746.9185
596.9963, 737.7294
597.4785, 748.9094
597.9606, 767.3659
598.4427, 777.3974
598.9248, 775.9611
599.4069, 772.0925
599.8890, 773.4728
600.3712, 779.1629
600.8533, 787.0913
601.3354, 797.8709
601.8175, 804.5575
602.2996, 801.3917
602.7817, 795.3719
603.2639, 800.2592
603.7460, 819.4271
604.2281, 833.1432
604.7102, 835.5084
605.1923, 835.7046
605.6744, 839.6975
606.1566, 845.5063
606.6387, 847.5278
607.1208, 843.5403
607.6029, 839.5909
608.0850, 845.7029
608.5671, 861.5311
609.0493, 872.0620
609.5314, 874.3755
610.0135, 877.2852
610.4956, 887.6259
610.9777, 901.2795
611.4598, 908.7806
611.9420, 906.4847
612.4241, 906.9838
612.9062, 912.9578
613.3883, 924.0263
613.8704, 943.6462
614.3525, 968.5375
614.8347, 987.9575
615.3168, 995.5172
615.7989, 997.3936
616.2810, 1006.286
616.7631, 1022.954
617.2452, 1040.975
617.7274, 1056.538
618.2095, 1077.871
618.6916, 1112.686
