##NAMES=Catapleiite
##RRUFFID=R060208
##IDEAL CHEMISTRY=Na_2_Zr^4+^Si_3_O_9_&#183;2H_2_O
##LOCALITY=Mont Saint-Hilaire, Rouville County, Quebec, Canada
##OWNER=RRUFF
##SOURCE=Royal Ontario Museum
##DESCRIPTION=Colorless transparent thin tabular pseudohexagonal crystal
##STATUS=The identification of this mineral is confirmed by single-crystal X-ray diffraction and chemical analysis.
##URL=rruff.info/R060208
##MEASURED CHEMISTRY=Na_2.00_Zr_1.00_Si_3.00_O_9_Â·2H_2_O
91.82715, 177.9496
92.30927, 176.7275
92.79138, 177.1059
93.27350, 177.5619
93.75562, 177.3212
94.23773, 176.7177
94.71985, 175.9871
95.20197, 174.4471
95.68408, 171.5829
96.16620, 168.2031
96.64832, 165.1220
97.13043, 162.4813
97.61255, 160.1182
98.09467, 157.8513
98.57678, 155.7340
99.05890, 153.1993
99.54102, 150.4509
100.0231, 147.7268
100.5052, 145.1548
100.9874, 142.7391
101.4695, 140.4934
101.9516, 138.6630
102.4337, 137.5805
102.9158, 136.5534
103.3979, 135.4358
103.8801, 134.2725
104.3622, 133.1756
104.8443, 132.2240
105.3264, 131.4062
105.8085, 130.8006
106.2906, 130.3992
106.7728, 130.1193
107.2549, 129.9937
107.7370, 130.0003
108.2191, 129.9550
108.7012, 129.5780
109.1833, 128.8304
109.6655, 128.3427
110.1476, 128.3518
110.6297, 128.6250
111.1118, 128.7844
111.5939, 128.6800
112.0760, 128.6088
112.5582, 128.9417
113.0403, 129.6379
113.5224, 130.3317
114.0045, 130.7764
114.4866, 130.9847
114.9687, 131.2038
115.4509, 131.6539
115.9330, 131.9863
116.4151, 131.8558
116.8972, 131.2341
117.3793, 130.5782
117.8614, 130.6074
118.3436, 131.8167
118.8257, 132.4830
119.3078, 132.0910
119.7899, 131.3535
120.2720, 130.7716
120.7541, 130.5498
121.2363, 130.6109
121.7184, 130.7353
122.2005, 130.9326
122.6826, 131.1946
123.1647, 131.6976
123.6468, 132.2364
124.1290, 132.4693
124.6111, 132.1620
125.0932, 131.4152
125.5753, 131.0914
126.0574, 131.4094
126.5395, 131.8136
127.0217, 132.0828
127.5038, 132.2354
127.9859, 132.4124
128.4680, 132.7676
128.9501, 133.2377
129.4323, 133.4931
129.9144, 133.2960
130.3965, 133.0009
130.8786, 132.9835
131.3607, 133.2907
131.8428, 133.7160
132.3250, 134.1386
132.8071, 134.5672
133.2892, 135.0133
133.7713, 135.5000
134.2534, 136.0102
134.7355, 136.5112
135.2176, 137.0972
135.6998, 137.5216
136.1819, 137.5768
136.6640, 137.3791
137.1461, 137.2141
137.6282, 137.3356
138.1103, 137.7769
138.5925, 138.1311
139.0746, 138.2724
139.5567, 138.4278
140.0388, 138.6537
140.5209, 138.9693
141.0030, 139.3893
141.4852, 139.9433
141.9673, 140.6992
142.4494, 141.4239
142.9315, 142.1285
143.4136, 142.8001
143.8957, 143.3906
144.3779, 143.9003
144.8600, 144.4387
145.3421, 145.1921
145.8242, 146.3252
146.3063, 147.3805
146.7884, 148.4280
147.2706, 149.3657
147.7527, 150.0286
148.2348, 150.3316
148.7169, 150.4431
149.1990, 150.6741
149.6811, 150.9774
150.1633, 151.4546
150.6454, 152.2652
151.1275, 153.3060
151.6096, 154.2561
152.0917, 155.0485
152.5738, 155.6165
153.0560, 155.8749
153.5381, 155.7101
154.0202, 155.5877
154.5023, 156.0195
154.9844, 157.0392
155.4665, 157.8074
155.9487, 157.6968
156.4308, 157.3443
156.9129, 157.2739
157.3950, 157.6435
157.8771, 158.1555
158.3592, 158.3738
158.8414, 158.2217
159.3235, 157.9447
159.8056, 157.4734
160.2877, 156.9842
160.7698, 156.7151
161.2519, 156.7960
161.7341, 156.9841
162.2162, 156.5759
162.6983, 155.3765
163.1804, 153.7330
163.6625, 151.5966
164.1446, 149.1102
164.6268, 146.3896
165.1089, 143.4648
165.5910, 140.4139
166.0731, 137.6762
166.5552, 135.4634
167.0373, 133.3260
167.5195, 131.2594
168.0016, 129.1983
168.4837, 127.0273
168.9658, 124.6757
169.4479, 122.1331
169.9300, 119.5568
170.4122, 116.7126
170.8943, 114.0586
171.3764, 111.9772
171.8585, 110.3501
172.3406, 108.5900
172.8227, 106.1926
173.3049, 103.2623
173.7870, 100.7546
174.2691, 98.92781
174.7512, 97.32473
175.2333, 95.56957
175.7154, 93.63862
176.1976, 91.77274
176.6797, 90.21254
177.1618, 88.85355
177.6439, 87.49438
178.1260, 86.06540
178.6081, 84.61938
179.0903, 83.21540
179.5724, 81.85841
180.0545, 80.54842
180.5366, 79.32838
181.0187, 78.15026
181.5008, 76.93789
181.9830, 75.55453
182.4651, 74.12510
182.9472, 73.06868
183.4293, 72.64672
183.9114, 72.21534
184.3935, 71.52786
184.8757, 70.64208
185.3578, 69.63449
185.8399, 68.49107
186.3220, 67.24496
186.8041, 66.28221
187.2862, 65.88774
187.7684, 65.49657
188.2505, 64.86440
188.7326, 64.10676
189.2147, 63.48411
189.6968, 63.24058
190.1789, 63.39735
190.6611, 63.30889
191.1432, 62.67365
191.6253, 62.08375
192.1074, 61.74942
192.5895, 61.63070
193.0716, 61.57466
193.5538, 61.45386
194.0359, 61.26105
194.5180, 61.05244
195.0001, 60.76769
195.4822, 60.52282
195.9643, 60.35743
196.4465, 60.27912
196.9286, 60.30074
197.4107, 60.46206
197.8928, 60.79567
198.3749, 60.93964
198.8570, 60.75670
199.3392, 60.50926
199.8213, 60.33205
200.3034, 60.24571
200.7855, 60.26344
201.2676, 60.43656
201.7497, 60.77363
202.2319, 60.99261
202.7140, 61.04799
203.1961, 61.00190
203.6782, 60.85100
204.1603, 60.58546
204.6424, 60.39991
205.1246, 60.57293
205.6067, 61.01280
206.0888, 61.27996
206.5709, 61.12999
207.0530, 60.82109
207.5351, 60.72915
208.0173, 60.92693
208.4994, 61.15850
208.9815, 61.21997
209.4636, 61.16571
209.9457, 61.09153
210.4278, 61.03637
210.9100, 60.98435
211.3921, 60.87378
211.8742, 60.63654
212.3563, 60.49144
212.8384, 60.64383
213.3205, 60.96462
213.8027, 61.21933
214.2848, 61.24409
214.7669, 61.11245
215.2490, 61.13595
215.7311, 61.58482
216.2132, 61.74233
216.6953, 61.05975
217.1775, 59.94796
217.6596, 59.14311
218.1417, 59.22095
218.6238, 59.97238
219.1059, 60.12989
219.5880, 59.18792
220.0702, 58.22853
220.5523, 57.51867
221.0344, 57.02152
221.5165, 56.67115
221.9986, 56.46131
222.4807, 56.36054
222.9629, 56.06414
223.4450, 55.18669
223.9271, 54.52303
224.4092, 54.37664
224.8913, 54.54359
225.3734, 54.67876
225.8556, 54.55347
226.3377, 54.18936
226.8198, 53.81637
227.3019, 53.33675
227.7840, 52.95471
228.2661, 52.78223
228.7483, 52.73497
229.2304, 52.65301
229.7125, 52.42181
230.1946, 52.06894
230.6767, 51.90827
231.1588, 52.19170
231.6410, 52.37603
232.1231, 52.25614
232.6052, 51.94143
233.0873, 51.64908
233.5694, 51.50920
234.0515, 51.50380
234.5337, 51.50922
235.0158, 51.57030
235.4979, 51.59276
235.9800, 51.46410
236.4621, 51.27394
236.9442, 51.25380
237.4264, 51.57936
237.9085, 52.12151
238.3906, 52.27541
238.8727, 51.70324
239.3548, 51.20462
239.8369, 51.11079
240.3191, 51.30035
240.8012, 51.48273
241.2833, 51.51983
241.7654, 51.45137
242.2475, 51.40412
242.7296, 51.41904
243.2118, 51.38838
243.6939, 51.18731
244.1760, 50.88988
244.6581, 50.75875
245.1402, 50.99419
245.6223, 51.34027
246.1045, 51.27417
246.5866, 50.68807
247.0687, 50.04920
247.5508, 49.60003
248.0329, 49.29331
248.5150, 48.93662
248.9972, 48.40985
249.4793, 47.87569
249.9614, 47.55582
250.4435, 47.45860
250.9256, 47.46687
251.4077, 47.54546
251.8899, 47.68348
252.3720, 47.84592
252.8541, 48.06204
253.3362, 48.24671
253.8183, 48.29669
254.3004, 48.21367
254.7826, 48.13096
255.2647, 48.15261
255.7468, 48.25295
256.2289, 48.28599
256.7110, 48.15045
257.1931, 48.04777
257.6753, 48.18328
258.1574, 48.51855
258.6395, 48.80779
259.1216, 48.81077
259.6037, 48.60068
260.0858, 48.61477
260.5680, 49.06757
261.0501, 49.51317
261.5322, 49.64495
262.0143, 49.53893
262.4964, 49.42887
262.9785, 49.49687
263.4607, 49.70150
263.9428, 49.79823
264.4249, 49.75393
264.9070, 49.63626
265.3891, 49.40878
265.8712, 49.14354
266.3534, 48.99373
266.8355, 49.10694
267.3176, 49.40095
267.7997, 49.51092
268.2818, 49.31246
268.7639, 49.10997
269.2461, 48.91402
269.7282, 48.80454
270.2103, 48.93703
270.6924, 49.46302
271.1745, 50.20794
271.6566, 50.57030
272.1388, 50.31925
272.6209, 50.05334
273.1030, 49.88574
273.5851, 49.81062
274.0672, 49.82886
274.5493, 49.94345
275.0315, 50.13590
275.5136, 50.37280
275.9957, 50.71527
276.4778, 50.98373
276.9599, 51.10920
277.4420, 51.17987
277.9242, 51.23352
278.4063, 51.28675
278.8884, 51.42456
279.3705, 51.84174
279.8526, 52.72203
280.3347, 53.49107
280.8169, 54.10958
281.2990, 54.60604
281.7811, 54.91338
282.2632, 55.04773
282.7453, 55.20487
283.2274, 55.70986
283.7096, 56.76351
284.1917, 57.66751
284.6738, 58.31121
285.1559, 58.89745
285.6380, 59.45644
286.1201, 60.03986
286.6023, 60.79365
287.0844, 61.96068
287.5665, 63.72635
288.0486, 65.12551
288.5307, 65.72737
289.0128, 66.37155
289.4950, 67.47887
289.9771, 69.00291
290.4592, 70.62627
290.9413, 72.06662
291.4234, 73.30588
291.9055, 74.56238
292.3877, 75.95770
292.8698, 77.25333
293.3519, 78.36483
293.8340, 79.31424
294.3161, 80.15675
294.7982, 80.92400
295.2804, 81.62278
295.7625, 82.29833
296.2446, 83.08959
296.7267, 83.70312
297.2088, 84.06165
297.6909, 84.20884
298.1731, 84.20739
298.6552, 84.09205
299.1373, 83.85420
299.6194, 83.45694
300.1015, 82.76371
300.5836, 82.06258
301.0658, 81.45771
301.5479, 80.82902
302.0300, 80.03186
302.5121, 79.01339
302.9942, 77.84585
303.4763, 76.63816
303.9585, 75.11349
304.4406, 74.01934
304.9227, 73.65945
305.4048, 73.51327
305.8869, 73.14723
306.3690, 72.47119
306.8512, 71.70609
307.3333, 71.15817
307.8154, 70.90426
308.2975, 70.68555
308.7796, 70.45937
309.2617, 70.29314
309.7439, 70.28331
310.2260, 70.39805
310.7081, 70.48936
311.1902, 70.40622
311.6723, 70.12234
312.1544, 69.84509
312.6366, 69.68726
313.1187, 69.42625
313.6008, 68.86491
314.0829, 68.11694
314.5650, 67.46957
315.0471, 67.15097
315.5293, 67.12541
316.0114, 66.92010
316.4935, 66.39578
316.9756, 65.84451
317.4577, 65.30434
317.9398, 64.77958
318.4220, 64.26631
318.9041, 63.76205
319.3862, 63.27253
319.8683, 62.80911
320.3504, 62.32022
320.8326, 61.93958
321.3147, 61.77314
321.7968, 61.66791
322.2789, 61.44820
322.7610, 61.06580
323.2431, 60.63854
323.7253, 60.38335
324.2074, 60.46471
324.6895, 60.39241
325.1716, 60.09723
325.6537, 59.72321
326.1358, 59.33203
326.6180, 58.95093
327.1001, 58.61464
327.5822, 58.37604
328.0643, 58.27940
328.5464, 58.04392
329.0285, 57.57933
329.5107, 57.08281
329.9928, 56.65704
330.4749, 56.27082
330.9570, 55.82932
331.4391, 55.25627
331.9212, 54.56084
332.4034, 53.87983
332.8855, 53.14234
333.3676, 52.49455
333.8497, 52.03228
334.3318, 51.66259
334.8139, 51.26250
335.2961, 50.77401
335.7782, 50.21257
336.2603, 49.62903
336.7424, 48.93058
337.2245, 48.35509
337.7066, 47.97977
338.1888, 47.68628
338.6708, 47.36976
339.1530, 47.00133
339.6351, 46.63259
340.1172, 46.36032
340.5993, 46.28239
341.0814, 46.04734
341.5635, 45.51333
342.0457, 44.96355
342.5278, 44.52840
343.0099, 44.22442
343.4920, 44.02252
343.9741, 43.92117
344.4562, 43.93170
344.9384, 43.83101
345.4205, 43.50830
345.9026, 43.17430
346.3847, 42.80019
346.8668, 42.46271
347.3489, 42.30008
347.8311, 42.41655
348.3132, 42.73321
348.7953, 42.93898
349.2774, 43.02827
349.7595, 43.00012
350.2416, 42.73125
350.7238, 42.42077
351.2059, 42.28403
351.6880, 42.39210
352.1701, 42.61679
352.6522, 42.73733
353.1343, 42.69757
353.6165, 42.72675
354.0986, 42.95218
354.5807, 43.17183
355.0628, 43.21526
355.5449, 43.10200
356.0270, 43.03165
356.5092, 43.23466
356.9913, 43.72213
357.4734, 44.12122
357.9555, 44.40486
358.4376, 44.61796
358.9197, 44.68873
359.4019, 44.70946
359.8840, 44.87364
360.3661, 45.34785
360.8482, 46.00393
361.3303, 46.42588
361.8124, 46.46284
362.2946, 46.59684
362.7767, 47.11684
363.2588, 47.75653
363.7409, 48.24462
364.2230, 48.49684
364.7051, 48.61826
365.1873, 48.68344
365.6694, 48.66829
366.1515, 48.83237
366.6336, 49.42673
367.1157, 50.06778
367.5978, 50.44780
368.0800, 50.56974
368.5621, 50.68001
369.0442, 50.98392
369.5263, 51.43530
370.0084, 51.82580
370.4905, 52.17278
370.9727, 52.38882
371.4548, 52.34474
371.9369, 52.13606
372.4190, 51.97148
372.9011, 51.92603
373.3832, 51.97011
373.8654, 52.08839
374.3475, 52.29246
374.8296, 52.47220
375.3117, 52.61001
375.7938, 52.66693
376.2759, 52.58149
376.7581, 52.31425
377.2402, 51.99131
377.7223, 51.61027
378.2044, 51.22290
378.6865, 51.08580
379.1686, 51.34832
379.6508, 51.75538
380.1329, 52.01558
380.6150, 52.13882
381.0971, 52.15614
381.5792, 51.91331
382.0613, 51.63675
382.5435, 51.78437
383.0256, 52.43651
383.5077, 52.88994
383.9898, 52.42580
384.4719, 51.20235
384.9540, 50.48224
385.4362, 50.77167
385.9183, 51.14987
386.4004, 50.99450
386.8825, 50.44514
387.3646, 50.00000
387.8467, 49.90439
388.3289, 50.04077
388.8110, 50.12352
389.2931, 50.15400
389.7752, 50.14513
390.2573, 50.07875
390.7394, 49.98354
391.2216, 49.88503
391.7037, 49.79055
392.1858, 49.71672
392.6679, 49.69822
393.1500, 49.76538
393.6321, 49.70407
394.1143, 49.36744
394.5964, 49.04605
395.0785, 48.87705
395.5606, 48.86119
396.0427, 48.97907
396.5248, 49.23594
397.0070, 49.58972
397.4891, 49.82046
397.9712, 49.87439
398.4533, 49.86186
398.9354, 49.65476
399.4175, 49.45023
399.8997, 49.49419
400.3818, 49.85058
400.8639, 50.33798
401.3460, 50.66860
401.8281, 50.72583
402.3102, 50.95471
402.7924, 51.52831
403.2745, 52.09518
403.7566, 52.45797
404.2387, 52.65229
404.7208, 52.82060
405.2029, 53.04599
405.6851, 53.34455
406.1672, 53.85194
406.6493, 54.78820
407.1314, 55.61452
407.6135, 56.00572
408.0956, 56.32019
408.5778, 56.98582
409.0599, 58.15565
409.5420, 59.55944
410.0241, 60.80169
410.5062, 61.83009
410.9883, 62.95177
411.4705, 64.17654
411.9526, 65.54263
412.4347, 67.10271
412.9168, 68.82997
413.3989, 70.62321
413.8810, 72.25903
414.3632, 73.88494
414.8453, 76.17571
415.3274, 79.45379
415.8095, 82.59891
416.2916, 84.73333
416.7737, 86.45023
417.2559, 88.47033
417.7380, 90.88082
418.2201, 93.82793
418.7022, 97.67307
419.1843, 102.3277
419.6664, 106.9139
420.1486, 111.0118
420.6307, 115.1370
421.1128, 119.8563
421.5949, 125.1762
422.0770, 130.8521
422.5591, 136.6134
423.0413, 142.7531
423.5234, 149.9306
424.0055, 158.1913
424.4876, 166.5556
424.9697, 174.2168
425.4518, 181.3019
425.9340, 188.7621
426.4161, 197.2018
426.8982, 205.3607
427.3803, 212.9222
427.8624, 219.7600
428.3445, 225.6079
428.8267, 230.4027
429.3088, 234.1029
429.7909, 236.6462
430.2730, 237.9699
430.7551, 237.9536
431.2372, 236.6866
431.7194, 234.0143
432.2015, 229.5085
432.6836, 223.3884
433.1657, 216.4090
433.6478, 209.1616
434.1299, 201.6535
434.6121, 193.7616
435.0942, 184.7218
435.5763, 176.1557
436.0584, 168.4624
436.5405, 161.3275
437.0226, 154.3351
437.5048, 147.3653
437.9869, 140.5542
438.4690, 134.0532
438.9511, 127.7491
439.4332, 122.1507
439.9153, 117.6677
440.3975, 113.4963
440.8796, 109.2865
441.3617, 105.0986
441.8438, 101.1974
442.3259, 97.80534
442.8080, 94.80859
443.2902, 91.95727
443.7723, 89.27699
444.2544, 86.64867
444.7365, 83.86378
445.2186, 81.19072
445.7007, 78.92793
446.1829, 77.14184
446.6650, 75.64298
447.1471, 74.44801
447.6292, 73.47007
448.1113, 72.13557
448.5934, 70.16351
449.0756, 68.22342
449.5577, 66.98420
450.0398, 66.24783
450.5219, 65.45123
451.0040, 64.32853
451.4861, 63.17021
451.9683, 62.34785
452.4504, 61.79763
452.9325, 61.05432
453.4146, 59.82554
453.8967, 58.38803
454.3788, 57.36724
454.8610, 56.84321
455.3431, 56.37038
455.8252, 55.86121
456.3073, 55.34776
456.7894, 54.91766
457.2715, 54.56041
457.7537, 54.06030
458.2358, 53.16100
458.7179, 51.86072
459.2000, 51.08750
459.6821, 51.31234
460.1642, 51.42920
460.6464, 51.07049
461.1285, 50.43802
461.6106, 49.78027
462.0927, 49.19968
462.5748, 48.74604
463.0569, 48.54969
463.5391, 48.81261
464.0212, 48.78183
464.5033, 48.22943
464.9854, 47.61671
465.4675, 47.12016
465.9496, 46.74231
466.4318, 46.44111
466.9139, 46.21397
467.3960, 46.01292
467.8781, 45.62487
468.3602, 44.86172
468.8423, 44.40411
469.3245, 44.84326
469.8066, 45.41870
470.2887, 45.50050
470.7708, 45.00318
471.2529, 44.36089
471.7350, 43.83323
472.2172, 43.42360
472.6993, 43.17760
473.1814, 43.13975
473.6635, 43.14813
474.1456, 43.15107
474.6277, 43.11004
475.1099, 42.92103
475.5920, 42.49762
476.0741, 42.01340
476.5562, 41.46246
477.0383, 40.93755
477.5204, 40.76540
478.0026, 41.10942
478.4847, 41.62920
478.9668, 41.83942
479.4489, 41.66703
479.9310, 41.53157
480.4131, 41.53512
480.8953, 41.51421
481.3774, 41.34486
481.8595, 41.05090
482.3416, 40.71273
482.8237, 40.36539
483.3058, 40.04187
483.7880, 39.85779
484.2701, 39.99794
484.7522, 40.01347
485.2343, 39.72755
485.7164, 39.43215
486.1985, 39.40525
486.6807, 39.63380
487.1628, 39.85572
487.6449, 39.82366
488.1270, 39.55783
488.6091, 39.34680
489.0912, 39.16645
489.5734, 39.08663
490.0555, 39.17144
490.5376, 39.33147
491.0197, 39.51085
491.5018, 39.70373
491.9839, 39.76526
492.4661, 39.42055
492.9482, 38.73585
493.4303, 38.34044
493.9124, 38.41777
494.3945, 38.60936
494.8766, 38.60524
495.3588, 38.48376
495.8409, 38.46007
496.3230, 38.69413
496.8051, 38.94301
497.2872, 38.98042
497.7693, 38.85543
498.2515, 38.72682
498.7336, 38.63129
499.2157, 38.62633
499.6978, 38.85459
500.1799, 39.44337
500.6620, 39.76706
501.1442, 39.53286
501.6263, 39.23329
502.1084, 39.20994
502.5905, 39.43166
503.0726, 39.70373
503.5547, 39.90952
504.0368, 40.07440
504.5190, 40.29751
505.0011, 40.75406
505.4832, 40.98032
505.9653, 40.65995
506.4474, 40.34279
506.9295, 40.48806
507.4117, 41.07123
507.8938, 41.71239
508.3759, 42.10548
508.8580, 42.28907
509.3401, 42.46120
509.8222, 42.58424
510.3044, 42.78002
510.7865, 43.14374
511.2686, 43.57300
511.7507, 43.96650
512.2328, 44.30365
512.7150, 44.65483
513.1971, 45.09361
513.6792, 45.58833
514.1613, 46.04356
514.6434, 46.43870
515.1255, 46.84990
515.6077, 47.38675
516.0898, 47.98846
516.5719, 48.39650
517.0540, 48.29649
517.5361, 48.37057
518.0182, 49.07321
518.5004, 50.11499
518.9825, 51.02551
519.4646, 51.67814
519.9467, 52.18592
520.4288, 52.68673
520.9109, 53.19834
521.3931, 53.57802
521.8752, 53.72871
522.3573, 53.88005
522.8394, 54.13048
523.3215, 54.42661
523.8036, 54.69585
524.2858, 54.90615
524.7679, 55.04655
525.2500, 55.05666
525.7321, 54.88070
526.2142, 54.86355
526.6964, 55.25805
527.1785, 55.56203
527.6606, 55.45545
528.1427, 55.08921
528.6248, 54.80109
529.1069, 54.72969
529.5891, 54.80458
530.0712, 54.99609
530.5533, 55.29203
531.0354, 55.46926
531.5175, 55.41845
531.9996, 55.30172
532.4818, 55.31937
532.9639, 55.45923
533.4460, 55.59681
533.9281, 55.73750
534.4102, 55.84185
534.8923, 55.82890
535.3745, 55.74645
535.8566, 55.76380
536.3387, 55.96925
536.8208, 56.26747
537.3029, 56.45794
537.7850, 56.46128
538.2672, 56.52333
538.7493, 56.76379
539.2314, 56.95073
539.7135, 56.88347
540.1956, 56.64935
540.6777, 56.48787
541.1599, 56.54452
541.6420, 56.75414
542.1241, 56.96971
542.6062, 57.21590
543.0883, 57.39130
543.5704, 57.45017
544.0526, 57.44990
544.5347, 57.33206
545.0168, 57.15508
545.4989, 57.16765
545.9810, 57.60933
546.4631, 58.25628
546.9453, 58.76993
547.4274, 59.15377
547.9095, 59.49016
548.3916, 59.78863
548.8737, 60.08287
549.3558, 60.39571
549.8380, 60.68482
550.3201, 61.18659
550.8022, 62.10130
551.2843, 63.12146
551.7664, 63.97752
552.2485, 64.70309
552.7307, 65.48666
553.2128, 66.44128
553.6949, 67.51877
554.1770, 68.57767
554.6591, 69.47596
555.1412, 70.62069
555.6234, 72.09261
556.1055, 73.71959
556.5876, 75.38334
557.0697, 77.11629
557.5518, 79.04471
558.0339, 81.29749
558.5161, 83.72958
558.9982, 85.95383
559.4803, 87.88769
559.9624, 90.06310
560.4445, 92.62392
560.9266, 95.48162
561.4088, 98.54699
561.8909, 101.8075
562.3730, 105.1847
562.8551, 108.4670
563.3372, 111.9820
563.8193, 116.1447
564.3015, 120.8758
564.7836, 125.6856
565.2657, 130.3099
565.7478, 135.0455
566.2299, 140.5116
566.7120, 147.0690
567.1942, 153.4992
567.6763, 159.6130
568.1584, 165.7241
568.6405, 172.0476
569.1226, 178.5128
569.6047, 185.0771
570.0869, 191.6936
570.5690, 198.2477
571.0511, 204.5286
571.5332, 210.7562
572.0153, 216.0649
572.4974, 220.5370
572.9796, 223.8054
573.4617, 225.5468
573.9438, 225.9760
574.4259, 225.6902
574.9080, 225.1943
575.3901, 223.6996
575.8723, 220.0576
576.3544, 214.5201
576.8365, 208.4556
577.3186, 202.3081
577.8007, 195.5412
578.2828, 187.3946
578.7650, 177.7636
579.2471, 168.4428
579.7292, 159.3267
580.2113, 150.7187
580.6934, 142.8259
581.1755, 135.5061
581.6577, 128.4147
582.1398, 121.4923
582.6219, 114.7739
583.1040, 108.3218
583.5861, 102.1046
584.0682, 96.42738
584.5504, 91.40157
585.0325, 86.75895
585.5145, 82.40359
585.9966, 78.37098
586.4788, 74.72639
586.9609, 71.47510
