##NAMES=Catapleiite
##RRUFFID=R060198
##IDEAL CHEMISTRY=Na_2_Zr^4+^Si_3_O_9_&#183;2H_2_O
##LOCALITY=Mont Saint-Hilaire, Rouville County, Quebec, Canada
##OWNER=RRUFF
##SOURCE=Royal Ontario Museum
##DESCRIPTION=Tan colored pseudohexagonal tabular crystals
##STATUS=The identification of this mineral has been confirmed by X-ray diffraction and chemical analysis
##URL=rruff.info/R060198
##MEASURED CHEMISTRY=(Na_1.92_Ca_0.04_[box]_0.04_)_Σ=2_Zr_1.00_Si_3.00_O_9_·2H_2_O
92.07813, 50.62154
92.56024, 50.89846
93.04236, 50.78335
93.52448, 50.34303
94.00659, 49.82507
94.48871, 48.99903
94.97083, 48.18311
95.45294, 48.44924
95.93506, 50.28643
96.41718, 52.51127
96.89929, 52.88655
97.38141, 51.38812
97.86353, 49.54499
98.34564, 48.43514
98.82776, 48.04363
99.30988, 47.62672
99.79199, 47.13905
100.2741, 46.52202
100.7562, 45.26168
101.2383, 42.98745
101.7205, 41.09661
102.2026, 41.09715
102.6847, 43.54789
103.1668, 45.73402
103.6489, 47.02718
104.1310, 47.39287
104.6132, 48.10719
105.0953, 49.85054
105.5774, 51.29046
106.0595, 50.51276
106.5416, 45.46288
107.0237, 41.30538
107.5059, 39.09257
107.9880, 38.65240
108.4701, 40.90164
108.9522, 49.04392
109.4343, 59.26981
109.9164, 64.80498
110.3986, 60.80239
110.8807, 56.07697
111.3628, 53.18181
111.8449, 52.89512
112.3270, 53.29799
112.8091, 54.44151
113.2913, 56.21544
113.7734, 58.30328
114.2555, 61.18605
114.7376, 64.05375
115.2197, 66.42835
115.7018, 67.28168
116.1840, 68.73247
116.6661, 71.15368
117.1482, 74.55933
117.6303, 79.00141
118.1124, 85.15500
118.5945, 92.13414
119.0767, 99.11731
119.5588, 105.2483
120.0409, 111.8821
120.5230, 119.3152
121.0051, 127.5587
121.4872, 137.5775
121.9694, 150.0921
122.4515, 164.6387
122.9336, 180.6453
123.4157, 197.7789
123.8978, 216.1475
124.3799, 236.0471
124.8621, 257.5579
125.3442, 279.7029
125.8263, 301.5422
126.3084, 323.3513
126.7905, 345.9025
127.2726, 370.4942
127.7548, 395.6700
128.2369, 418.6683
128.7190, 439.0067
129.2011, 458.2543
129.6832, 478.9153
130.1653, 500.4306
130.6474, 520.6005
131.1296, 536.4572
131.6117, 549.4639
132.0938, 565.4694
132.5759, 585.4461
133.0580, 608.2115
133.5401, 630.7227
134.0223, 652.9990
134.5044, 677.5891
134.9865, 707.1615
135.4686, 741.8563
135.9507, 775.9245
136.4328, 808.4521
136.9150, 840.5632
137.3971, 875.7569
137.8792, 914.9105
138.3613, 954.4873
138.8434, 992.1262
139.3255, 1027.699
139.8077, 1060.683
140.2898, 1090.998
140.7719, 1118.569
141.2540, 1145.464
141.7361, 1171.876
142.2182, 1196.809
142.7004, 1219.068
143.1825, 1237.693
143.6646, 1255.586
144.1467, 1272.892
144.6288, 1289.826
145.1109, 1306.186
145.5931, 1320.984
146.0752, 1336.108
146.5573, 1354.448
147.0394, 1379.100
147.5215, 1402.291
148.0036, 1420.617
148.4858, 1431.818
148.9679, 1448.305
149.4500, 1472.285
149.9321, 1500.893
150.4142, 1529.350
150.8963, 1558.049
151.3785, 1586.713
151.8606, 1614.755
152.3427, 1642.084
152.8248, 1670.130
153.3069, 1699.083
153.7890, 1728.866
154.2712, 1754.098
154.7533, 1771.280
155.2354, 1784.778
155.7175, 1792.880
156.1996, 1792.991
156.6817, 1792.264
157.1639, 1791.679
157.6460, 1790.927
158.1281, 1789.357
158.6102, 1786.136
159.0923, 1782.575
159.5744, 1779.602
160.0566, 1779.702
160.5387, 1776.820
161.0208, 1767.850
161.5029, 1754.469
161.9850, 1741.473
162.4671, 1730.713
162.9493, 1720.818
163.4314, 1710.840
163.9135, 1699.982
164.3956, 1689.723
164.8777, 1681.505
165.3598, 1674.648
165.8420, 1666.339
166.3241, 1652.799
166.8062, 1638.278
167.2883, 1626.618
167.7704, 1620.754
168.2525, 1616.035
168.7346, 1609.639
169.2168, 1601.760
169.6989, 1593.739
170.1810, 1584.597
170.6631, 1576.260
171.1452, 1571.095
171.6273, 1572.626
172.1095, 1575.505
172.5916, 1575.097
173.0737, 1571.662
173.5558, 1568.062
174.0379, 1566.682
174.5201, 1566.471
175.0022, 1565.698
175.4843, 1562.989
175.9664, 1559.788
176.4485, 1557.861
176.9306, 1557.156
177.4128, 1556.962
177.8949, 1556.686
178.3770, 1556.451
178.8591, 1556.539
179.3412, 1557.531
179.8233, 1558.742
180.3055, 1559.040
180.7876, 1558.400
181.2697, 1557.354
181.7518, 1556.105
182.2339, 1554.822
182.7160, 1553.997
183.1982, 1553.365
183.6803, 1553.408
184.1624, 1555.854
184.6445, 1561.024
185.1266, 1566.395
185.6087, 1568.671
186.0909, 1568.406
186.5730, 1568.383
187.0551, 1569.772
187.5372, 1572.339
188.0193, 1575.179
188.5014, 1578.119
188.9836, 1581.953
189.4657, 1588.684
189.9478, 1597.933
190.4299, 1606.279
190.9120, 1611.234
191.3941, 1613.524
191.8763, 1617.487
192.3584, 1623.441
192.8405, 1630.231
193.3226, 1636.083
193.8047, 1640.967
194.2868, 1646.836
194.7690, 1655.416
195.2511, 1666.399
195.7332, 1675.798
196.2153, 1683.270
196.6974, 1689.821
197.1795, 1696.861
197.6617, 1704.491
198.1438, 1712.019
198.6259, 1719.406
199.1080, 1726.640
199.5901, 1732.590
200.0722, 1736.932
200.5544, 1740.414
201.0365, 1744.608
201.5186, 1749.793
202.0007, 1753.977
202.4828, 1755.455
202.9649, 1753.864
203.4471, 1754.504
203.9292, 1757.943
204.4113, 1763.034
204.8934, 1767.860
205.3755, 1772.509
205.8576, 1776.279
206.3398, 1778.560
206.8219, 1779.073
207.3040, 1780.031
207.7861, 1781.721
208.2682, 1783.620
208.7503, 1784.604
209.2325, 1784.554
209.7146, 1784.009
210.1967, 1783.458
210.6788, 1783.269
211.1609, 1781.520
211.6430, 1778.470
212.1252, 1773.658
212.6073, 1765.630
213.0894, 1753.353
213.5715, 1740.714
214.0536, 1730.070
214.5357, 1722.862
215.0179, 1711.898
215.5000, 1696.024
215.9821, 1677.033
216.4642, 1659.015
216.9463, 1642.908
217.4284, 1626.042
217.9105, 1606.940
218.3927, 1585.185
218.8748, 1562.991
219.3569, 1539.526
219.8390, 1516.111
220.3211, 1495.253
220.8032, 1477.550
221.2854, 1461.150
221.7675, 1445.188
222.2496, 1430.234
222.7317, 1414.140
223.2138, 1395.396
223.6959, 1376.282
224.1781, 1361.840
224.6602, 1354.917
225.1423, 1347.812
225.6244, 1337.043
226.1065, 1319.972
226.5886, 1306.807
227.0708, 1298.852
227.5529, 1294.043
228.0350, 1288.139
228.5171, 1280.752
228.9992, 1272.791
229.4813, 1264.152
229.9635, 1253.707
230.4456, 1246.468
230.9277, 1244.593
231.4098, 1244.904
231.8919, 1240.848
232.3740, 1229.259
232.8562, 1218.485
233.3383, 1211.723
233.8204, 1210.338
234.3025, 1208.575
234.7846, 1206.429
235.2667, 1203.917
235.7489, 1201.097
236.2310, 1197.901
236.7131, 1194.527
237.1952, 1190.828
237.6773, 1186.494
238.1594, 1183.291
238.6416, 1181.888
239.1237, 1181.223
239.6058, 1179.485
240.0879, 1175.740
240.5700, 1172.410
241.0521, 1170.318
241.5343, 1169.771
242.0164, 1169.143
242.4985, 1168.248
242.9806, 1167.373
243.4627, 1166.988
243.9448, 1167.420
244.4270, 1167.741
244.9091, 1167.786
245.3912, 1167.633
245.8733, 1166.570
246.3554, 1164.105
246.8375, 1161.080
247.3197, 1158.601
247.8018, 1156.843
248.2839, 1155.292
248.7660, 1153.728
249.2481, 1152.059
249.7302, 1151.205
250.2124, 1151.483
250.6945, 1152.306
251.1766, 1153.117
251.6587, 1154.278
252.1408, 1154.731
252.6229, 1153.901
253.1051, 1151.629
253.5872, 1150.737
254.0693, 1152.030
254.5514, 1153.799
255.0335, 1154.035
255.5156, 1151.438
255.9978, 1150.230
256.4799, 1151.941
256.9620, 1156.527
257.4441, 1158.387
257.9262, 1156.105
258.4083, 1152.906
258.8904, 1151.727
259.3726, 1153.204
259.8547, 1155.185
260.3368, 1157.884
260.8189, 1161.075
261.3010, 1161.597
261.7831, 1158.137
262.2653, 1154.086
262.7474, 1152.148
263.2295, 1152.823
263.7116, 1154.262
264.1937, 1156.866
264.6758, 1160.133
265.1580, 1160.983
265.6401, 1158.408
266.1222, 1155.319
266.6043, 1154.021
267.0864, 1155.419
267.5685, 1155.195
268.0507, 1152.255
268.5328, 1147.549
269.0149, 1144.662
269.4970, 1143.978
269.9791, 1144.146
270.4612, 1144.444
270.9434, 1144.874
271.4255, 1145.370
271.9076, 1145.803
272.3897, 1146.377
272.8718, 1147.962
273.3539, 1151.057
273.8361, 1153.472
274.3182, 1153.465
274.8003, 1150.485
275.2824, 1149.489
275.7645, 1151.165
276.2466, 1154.271
276.7288, 1156.226
277.2109, 1156.707
277.6930, 1157.568
278.1751, 1159.787
278.6572, 1163.448
279.1393, 1167.054
279.6215, 1170.734
280.1036, 1174.155
280.5857, 1176.551
281.0678, 1177.790
281.5499, 1179.385
282.0320, 1182.036
282.5142, 1185.675
282.9963, 1189.111
283.4784, 1192.271
283.9605, 1195.474
284.4426, 1198.987
284.9247, 1202.800
285.4069, 1207.337
285.8890, 1213.516
286.3711, 1220.577
286.8532, 1224.268
287.3353, 1223.986
287.8174, 1223.639
288.2996, 1227.691
288.7817, 1235.807
289.2638, 1244.166
289.7459, 1252.221
290.2280, 1259.586
290.7101, 1264.842
291.1923, 1267.879
291.6744, 1270.968
292.1565, 1276.812
292.6386, 1284.716
293.1207, 1291.129
293.6028, 1295.101
294.0850, 1297.402
294.5671, 1299.535
295.0492, 1301.471
295.5313, 1302.961
296.0134, 1303.669
296.4955, 1303.751
296.9777, 1303.863
297.4598, 1304.420
297.9419, 1304.305
298.4240, 1301.131
298.9061, 1295.484
299.3882, 1290.323
299.8704, 1288.720
300.3525, 1288.663
300.8346, 1286.170
301.3167, 1280.697
301.7988, 1273.505
302.2809, 1264.247
302.7631, 1254.069
303.2452, 1246.050
303.7273, 1243.220
304.2094, 1242.975
304.6915, 1242.122
305.1736, 1240.484
305.6558, 1238.241
306.1379, 1235.401
306.6200, 1232.064
307.1021, 1228.441
307.5842, 1223.558
308.0663, 1219.018
308.5485, 1216.616
309.0306, 1216.298
309.5127, 1216.208
309.9948, 1214.542
310.4769, 1212.482
310.9590, 1211.605
311.4412, 1213.968
311.9233, 1216.148
312.4054, 1215.445
312.8875, 1212.291
313.3696, 1208.953
313.8517, 1207.142
314.3339, 1205.536
314.8160, 1202.766
315.2981, 1197.178
315.7802, 1192.564
316.2623, 1191.459
316.7444, 1192.910
317.2266, 1194.316
317.7087, 1194.965
318.1908, 1194.997
318.6729, 1194.523
319.1550, 1193.612
319.6371, 1192.055
320.1193, 1188.911
320.6014, 1185.198
321.0835, 1182.538
321.5656, 1181.706
322.0477, 1181.765
322.5298, 1182.611
323.0120, 1184.469
323.4941, 1185.713
323.9762, 1185.844
324.4583, 1185.237
324.9404, 1184.302
325.4225, 1182.322
325.9047, 1180.802
326.3868, 1180.478
326.8689, 1181.417
327.3510, 1181.707
327.8331, 1180.418
328.3152, 1178.954
328.7974, 1178.291
329.2795, 1180.077
329.7616, 1180.742
330.2437, 1179.531
330.7258, 1176.811
331.2079, 1174.568
331.6901, 1173.059
332.1722, 1171.752
332.6543, 1170.349
333.1364, 1168.532
333.6185, 1167.236
334.1006, 1166.949
334.5828, 1167.020
335.0649, 1165.755
335.5470, 1162.027
336.0291, 1158.898
336.5112, 1157.664
336.9933, 1158.696
337.4755, 1159.825
337.9576, 1161.451
338.4397, 1162.717
338.9218, 1162.275
339.4039, 1159.705
339.8860, 1156.955
340.3681, 1154.450
340.8503, 1152.195
341.3324, 1150.452
341.8145, 1149.144
342.2966, 1148.531
342.7787, 1148.841
343.2608, 1150.081
343.7430, 1152.220
344.2251, 1155.713
344.7072, 1159.770
345.1893, 1161.670
345.6714, 1161.273
346.1535, 1160.668
346.6357, 1161.460
347.1178, 1163.409
347.5999, 1164.959
348.0820, 1165.791
348.5641, 1166.547
349.0462, 1168.207
349.5284, 1170.715
350.0105, 1173.724
350.4926, 1177.492
350.9747, 1181.562
351.4568, 1184.831
351.9389, 1187.189
352.4211, 1189.273
352.9032, 1191.227
353.3853, 1193.360
353.8674, 1196.420
354.3495, 1201.184
354.8316, 1206.738
355.3138, 1211.973
355.7959, 1216.952
356.2780, 1222.239
356.7601, 1229.189
357.2422, 1236.430
357.7243, 1242.098
358.2065, 1244.636
358.6886, 1247.009
359.1707, 1251.638
359.6528, 1257.830
360.1349, 1263.499
360.6170, 1267.530
361.0992, 1270.712
361.5813, 1273.484
362.0634, 1275.725
362.5455, 1278.063
363.0276, 1281.943
363.5097, 1285.814
363.9919, 1287.374
364.4740, 1284.058
364.9561, 1279.990
365.4382, 1276.324
365.9203, 1273.071
366.4024, 1271.022
366.8846, 1272.058
367.3667, 1273.424
367.8488, 1272.893
368.3309, 1270.040
368.8130, 1265.486
369.2951, 1257.764
369.7773, 1247.641
370.2594, 1240.508
370.7415, 1238.668
371.2236, 1237.661
371.7057, 1235.371
372.1878, 1230.314
372.6700, 1226.832
373.1521, 1225.232
373.6342, 1225.095
374.1163, 1226.060
374.5984, 1229.720
375.0805, 1231.247
375.5627, 1228.137
376.0448, 1219.714
376.5269, 1214.920
377.0090, 1214.569
377.4911, 1216.318
377.9732, 1218.034
378.4554, 1219.835
378.9375, 1220.599
379.4196, 1219.672
379.9017, 1217.703
380.3838, 1217.546
380.8659, 1219.534
381.3481, 1220.795
381.8302, 1217.928
382.3123, 1211.795
382.7944, 1209.191
383.2765, 1211.635
383.7586, 1215.764
384.2408, 1216.275
384.7229, 1213.675
385.2050, 1211.078
385.6871, 1209.897
386.1692, 1209.858
386.6513, 1210.765
387.1335, 1212.655
387.6156, 1214.360
388.0977, 1214.132
388.5798, 1213.013
389.0619, 1213.035
389.5440, 1216.193
390.0262, 1219.419
390.5083, 1219.665
390.9904, 1217.401
391.4725, 1214.854
391.9546, 1212.296
392.4367, 1210.579
392.9189, 1210.758
393.4010, 1213.925
393.8831, 1216.702
394.3652, 1217.167
394.8473, 1216.193
395.3294, 1215.202
395.8116, 1214.151
396.2937, 1213.648
396.7758, 1214.052
397.2579, 1215.449
397.7400, 1217.103
398.2221, 1219.824
398.7043, 1222.226
399.1864, 1223.170
399.6685, 1219.987
400.1506, 1218.312
400.6327, 1219.060
401.1148, 1221.849
401.5970, 1224.945
402.0791, 1228.407
402.5612, 1232.061
403.0433, 1235.831
403.5254, 1239.723
404.0075, 1243.708
404.4897, 1247.569
404.9718, 1251.752
405.4539, 1256.981
405.9360, 1263.483
406.4181, 1270.402
406.9002, 1277.287
407.3824, 1284.274
407.8645, 1293.400
408.3466, 1304.917
408.8287, 1317.585
409.3108, 1330.272
409.7929, 1342.965
410.2751, 1356.556
410.7572, 1370.969
411.2393, 1386.866
411.7214, 1405.540
412.2035, 1426.880
412.6856, 1449.354
413.1678, 1472.491
413.6499, 1496.088
414.1320, 1520.023
414.6141, 1544.566
415.0962, 1568.784
415.5783, 1590.904
416.0605, 1612.376
416.5426, 1636.416
417.0247, 1665.928
417.5068, 1696.996
417.9889, 1726.141
418.4710, 1753.724
418.9532, 1782.199
419.4353, 1812.563
419.9174, 1844.281
420.3995, 1876.216
420.8816, 1907.759
421.3637, 1941.458
421.8459, 1979.592
422.3280, 2020.052
422.8101, 2060.218
423.2922, 2097.922
423.7743, 2136.192
424.2564, 2176.653
424.7386, 2219.492
425.2207, 2259.433
425.7028, 2295.436
426.1849, 2328.466
426.6670, 2359.225
427.1491, 2389.179
427.6313, 2414.728
428.1134, 2436.340
428.5955, 2453.247
429.0776, 2463.395
429.5597, 2467.057
430.0418, 2463.661
430.5240, 2452.930
431.0061, 2434.906
431.4882, 2410.278
431.9703, 2378.943
432.4524, 2341.429
432.9345, 2296.871
433.4167, 2245.286
433.8988, 2192.439
434.3809, 2140.009
434.8630, 2088.017
435.3451, 2036.520
435.8272, 1985.573
436.3094, 1936.921
436.7915, 1892.319
437.2736, 1850.667
437.7557, 1809.935
438.2378, 1769.596
438.7199, 1730.871
439.2020, 1694.325
439.6841, 1660.330
440.1663, 1629.644
440.6484, 1603.913
441.1305, 1580.548
441.6126, 1557.605
442.0947, 1535.195
442.5768, 1514.665
443.0590, 1498.124
443.5411, 1482.900
444.0232, 1466.680
444.5053, 1447.883
444.9874, 1430.516
445.4695, 1416.438
445.9517, 1404.663
446.4338, 1393.452
446.9159, 1381.682
447.3980, 1371.207
447.8801, 1363.170
448.3622, 1357.720
448.8444, 1351.516
449.3265, 1343.753
449.8086, 1335.933
450.2907, 1329.119
450.7728, 1323.959
451.2549, 1318.233
451.7371, 1311.609
452.2192, 1304.574
452.7013, 1298.259
453.1834, 1292.874
453.6655, 1287.639
454.1476, 1282.137
454.6298, 1276.480
455.1119, 1271.657
455.5940, 1267.710
456.0761, 1264.549
456.5582, 1262.385
457.0403, 1261.057
457.5225, 1259.774
458.0046, 1258.399
458.4867, 1256.980
458.9688, 1255.582
459.4509, 1254.204
459.9330, 1252.934
460.4152, 1252.106
460.8973, 1251.245
461.3794, 1249.698
461.8615, 1247.405
462.3436, 1245.029
462.8257, 1242.755
463.3079, 1240.717
463.7900, 1239.106
464.2721, 1238.902
464.7542, 1237.988
465.2363, 1234.518
465.7184, 1229.576
466.2006, 1226.236
466.6827, 1226.324
467.1648, 1227.232
467.6469, 1228.344
468.1290, 1230.118
468.6111, 1230.033
469.0933, 1226.053
469.5754, 1221.553
470.0575, 1219.734
470.5396, 1222.944
471.0217, 1223.885
471.5038, 1220.363
471.9860, 1214.324
472.4681, 1212.930
472.9502, 1217.556
473.4323, 1222.210
473.9144, 1223.668
474.3965, 1222.065
474.8787, 1221.583
475.3608, 1222.474
475.8429, 1223.264
476.3250, 1221.844
476.8071, 1218.694
477.2892, 1216.286
477.7714, 1215.453
478.2535, 1215.396
478.7356, 1214.751
479.2177, 1213.787
479.6998, 1213.666
480.1819, 1216.396
480.6641, 1219.579
481.1462, 1220.534
481.6283, 1218.973
482.1104, 1216.866
482.5925, 1214.958
483.0746, 1213.279
483.5568, 1211.849
484.0389, 1209.810
484.5210, 1209.010
485.0031, 1211.214
485.4852, 1215.232
485.9673, 1217.425
486.4495, 1215.477
486.9316, 1213.233
487.4137, 1211.916
487.8958, 1211.655
488.3779, 1211.599
488.8600, 1211.796
489.3422, 1212.100
489.8243, 1212.437
490.3064, 1212.891
490.7885, 1213.006
491.2706, 1212.688
491.7527, 1212.011
492.2349, 1210.685
492.7170, 1208.548
493.1991, 1207.786
493.6812, 1210.523
494.1633, 1215.669
494.6454, 1218.546
495.1276, 1219.049
495.6097, 1219.098
496.0918, 1220.916
496.5739, 1223.537
497.0560, 1224.544
497.5381, 1222.513
498.0203, 1220.737
498.5024, 1222.755
498.9845, 1227.265
499.4666, 1231.433
499.9487, 1233.130
500.4308, 1234.748
500.9130, 1237.923
501.3951, 1242.700
501.8772, 1247.095
502.3593, 1250.264
502.8414, 1252.959
503.3235, 1255.657
503.8057, 1257.340
504.2878, 1260.621
504.7699, 1266.753
505.2520, 1274.058
505.7341, 1279.581
506.2162, 1282.077
506.6984, 1285.218
507.1805, 1290.086
507.6626, 1296.468
508.1447, 1302.359
508.6268, 1307.542
509.1089, 1312.990
509.5911, 1319.429
510.0732, 1326.799
510.5553, 1334.645
511.0374, 1343.107
511.5195, 1351.363
512.0016, 1358.036
512.4838, 1363.599
512.9659, 1369.453
513.4480, 1376.338
513.9301, 1383.700
514.4122, 1391.570
514.8943, 1399.617
515.3765, 1406.407
515.8586, 1409.782
516.3407, 1412.498
516.8228, 1416.643
517.3049, 1422.666
517.7870, 1429.085
518.2692, 1436.474
518.7513, 1443.439
519.2334, 1448.607
519.7155, 1450.574
520.1976, 1452.168
520.6797, 1453.860
521.1619, 1455.387
521.6440, 1455.993
522.1261, 1455.713
522.6082, 1454.471
523.0903, 1452.184
523.5724, 1448.855
524.0546, 1444.802
524.5367, 1439.919
525.0188, 1434.768
525.5009, 1430.004
525.9830, 1425.511
526.4651, 1420.157
526.9473, 1413.644
527.4294, 1406.468
527.9115, 1399.198
528.3936, 1391.907
528.8757, 1384.707
529.3578, 1377.125
529.8400, 1370.066
530.3221, 1365.383
530.8042, 1362.598
531.2863, 1358.436
531.7684, 1348.474
532.2505, 1338.129
532.7327, 1332.091
533.2148, 1332.593
533.6969, 1332.161
534.1790, 1327.900
534.6611, 1322.086
535.1432, 1317.344
535.6254, 1314.251
536.1075, 1311.766
536.5896, 1309.967
537.0717, 1308.724
537.5538, 1307.665
538.0359, 1306.819
538.5181, 1306.132
539.0002, 1305.770
539.4823, 1305.719
539.9644, 1304.560
540.4465, 1302.053
540.9286, 1299.661
541.4108, 1298.695
541.8929, 1298.993
542.3750, 1299.931
542.8571, 1301.413
543.3392, 1303.426
543.8214, 1306.497
544.3035, 1310.108
544.7856, 1313.112
545.2677, 1314.070
545.7498, 1314.962
546.2319, 1317.314
546.7141, 1320.946
547.1962, 1324.702
547.6783, 1327.835
548.1604, 1331.143
548.6425, 1335.007
549.1246, 1339.219
549.6068, 1344.716
550.0889, 1352.393
550.5710, 1360.889
551.0531, 1368.936
551.5352, 1376.013
552.0173, 1383.689
552.4995, 1391.702
552.9816, 1400.620
553.4637, 1412.358
553.9458, 1427.383
554.4279, 1441.925
554.9100, 1453.428
555.3922, 1463.242
555.8743, 1477.372
556.3564, 1495.713
556.8385, 1514.649
557.3206, 1530.389
557.8027, 1544.912
558.2849, 1561.982
558.7670, 1582.361
559.2491, 1604.350
559.7312, 1626.814
560.2133, 1649.837
560.6954, 1673.506
561.1776, 1696.878
561.6597, 1721.568
562.1418, 1748.371
562.6239, 1777.066
563.1060, 1806.210
563.5881, 1836.296
564.0703, 1866.385
564.5524, 1896.685
565.0345, 1927.031
565.5166, 1956.256
565.9987, 1983.857
566.4808, 2011.288
566.9630, 2040.425
567.4451, 2071.359
567.9272, 2101.021
568.4093, 2129.454
568.8914, 2156.504
569.3735, 2182.908
569.8557, 2208.195
570.3378, 2231.365
570.8199, 2252.269
571.3020, 2270.356
571.7841, 2285.057
572.2662, 2296.160
572.7484, 2302.860
573.2305, 2305.570
573.7126, 2303.169
574.1947, 2294.669
574.6768, 2279.979
575.1589, 2260.417
575.6411, 2236.865
576.1232, 2208.553
576.6053, 2175.043
577.0874, 2134.696
577.5695, 2091.672
578.0516, 2044.806
578.5338, 1996.489
579.0159, 1949.332
579.4980, 1904.268
579.9801, 1859.355
580.4622, 1813.775
580.9443, 1768.301
581.4265, 1726.861
581.9086, 1689.457
582.3907, 1654.091
582.8728, 1618.340
583.3549, 1583.963
583.8370, 1554.041
584.3192, 1528.583
584.8013, 1505.169
585.2834, 1481.571
585.7655, 1458.978
586.2476, 1438.619
586.7297, 1420.811
