##NAMES=Catapleiite
##RRUFFID=R060198
##IDEAL CHEMISTRY=Na_2_Zr^4+^Si_3_O_9_&#183;2H_2_O
##LOCALITY=Mont Saint-Hilaire, Rouville County, Quebec, Canada
##OWNER=RRUFF
##SOURCE=Royal Ontario Museum
##DESCRIPTION=Tan colored pseudohexagonal tabular crystals
##STATUS=The identification of this mineral has been confirmed by X-ray diffraction and chemical analysis
##URL=rruff.info/R060198
##MEASURED CHEMISTRY=(Na_1.92_Ca_0.04_[box]_0.04_)_Σ=2_Zr_1.00_Si_3.00_O_9_·2H_2_O
91.82715, 1180.140
92.30927, 1166.154
92.79138, 1169.266
93.27350, 1179.383
93.75562, 1186.842
94.23773, 1190.928
94.71985, 1193.719
95.20197, 1194.609
95.68408, 1194.096
96.16620, 1192.120
96.64832, 1189.337
97.13043, 1185.994
97.61255, 1182.625
98.09467, 1179.729
98.57678, 1177.173
99.05890, 1172.822
99.54102, 1171.739
100.0231, 1171.183
100.5052, 1167.410
100.9874, 1157.982
101.4695, 1144.416
101.9516, 1135.382
102.4337, 1134.596
102.9158, 1134.630
103.3979, 1134.857
103.8801, 1134.942
104.3622, 1134.747
104.8443, 1134.264
105.3264, 1133.534
105.8085, 1130.834
106.2906, 1124.373
106.7728, 1117.477
107.2549, 1111.510
107.7370, 1106.743
108.2191, 1103.404
108.7012, 1102.097
109.1833, 1102.916
109.6655, 1104.074
110.1476, 1105.926
110.6297, 1107.824
111.1118, 1108.625
111.5939, 1107.715
112.0760, 1106.419
112.5582, 1106.394
113.0403, 1107.514
113.5224, 1108.332
114.0045, 1107.736
114.4866, 1105.791
114.9688, 1104.042
115.4509, 1103.231
115.9330, 1102.363
116.4151, 1100.621
116.8972, 1097.927
117.3793, 1095.087
117.8615, 1093.151
118.3436, 1092.369
118.8257, 1091.968
119.3078, 1092.208
119.7899, 1092.514
120.2720, 1092.271
120.7542, 1091.245
121.2363, 1089.895
121.7184, 1089.536
122.2005, 1091.974
122.6826, 1093.470
123.1647, 1093.271
123.6468, 1092.053
124.1290, 1090.872
124.6111, 1090.379
125.0932, 1090.382
125.5753, 1089.244
126.0574, 1085.811
126.5395, 1082.662
127.0217, 1080.963
127.5038, 1080.558
127.9859, 1080.567
128.4680, 1080.612
128.9501, 1080.540
129.4323, 1079.793
129.9144, 1078.152
130.3965, 1075.935
130.8786, 1073.089
131.3607, 1069.343
131.8428, 1066.259
132.3250, 1065.291
132.8071, 1065.783
133.2892, 1066.860
133.7713, 1068.211
134.2534, 1069.864
134.7355, 1072.104
135.2177, 1075.860
135.6998, 1078.851
136.1819, 1079.384
136.6640, 1078.245
137.1461, 1077.403
137.6282, 1078.821
138.1104, 1082.842
138.5925, 1085.262
139.0746, 1085.104
139.5567, 1084.080
140.0388, 1082.143
140.5209, 1079.686
141.0031, 1077.631
141.4852, 1077.179
141.9673, 1079.180
142.4494, 1080.661
142.9315, 1081.576
143.4136, 1082.128
143.8958, 1082.236
144.3779, 1081.953
144.8600, 1081.715
145.3421, 1082.258
145.8242, 1084.162
146.3063, 1085.828
146.7885, 1087.238
147.2706, 1088.376
147.7527, 1089.267
148.2348, 1089.942
148.7169, 1090.285
149.1990, 1089.865
149.6812, 1088.451
150.1633, 1087.259
150.6454, 1087.126
151.1275, 1087.649
151.6096, 1087.439
152.0917, 1085.504
152.5739, 1083.039
153.0560, 1081.781
153.5381, 1081.854
154.0202, 1082.731
154.5023, 1084.766
154.9844, 1088.080
155.4665, 1089.710
155.9487, 1087.052
156.4308, 1082.869
156.9129, 1079.137
157.3950, 1076.306
157.8771, 1074.054
158.3592, 1071.717
158.8414, 1068.770
159.3235, 1067.208
159.8056, 1069.805
160.2877, 1072.771
160.7698, 1072.297
161.2519, 1066.574
161.7341, 1057.606
162.2162, 1051.403
162.6983, 1050.803
163.1804, 1049.307
163.6625, 1045.225
164.1446, 1039.971
164.6268, 1035.411
165.1089, 1032.622
165.5910, 1031.248
166.0731, 1028.901
166.5552, 1023.803
167.0373, 1019.661
167.5195, 1018.785
168.0016, 1019.412
168.4837, 1017.902
168.9658, 1011.615
169.4479, 1000.920
169.9300, 992.4849
170.4122, 985.2740
170.8943, 980.6823
171.3764, 980.5525
171.8585, 984.1110
172.3406, 988.2203
172.8227, 991.1603
173.3049, 992.5368
173.7870, 991.7843
174.2691, 986.3218
174.7512, 980.5234
175.2333, 978.6458
175.7154, 980.9496
176.1976, 983.0234
176.6797, 980.6985
177.1618, 975.6747
177.6439, 972.1068
178.1260, 971.7775
178.6081, 973.0373
179.0903, 973.5001
179.5724, 972.9890
180.0545, 972.1705
180.5366, 971.4368
181.0187, 970.7001
181.5008, 969.7792
181.9830, 968.2818
182.4651, 966.5789
182.9472, 965.9583
183.4293, 967.2858
183.9114, 968.3864
184.3935, 968.0930
184.8757, 966.9841
185.3578, 966.0242
185.8399, 965.7842
186.3220, 966.2415
186.8041, 967.1430
187.2862, 969.0535
187.7684, 970.8464
188.2505, 972.0082
188.7326, 972.7969
189.2147, 973.8782
189.6968, 976.0042
190.1789, 979.2944
190.6611, 980.3744
191.1432, 976.4503
191.6253, 973.0156
192.1074, 971.9955
192.5895, 973.0317
193.0716, 974.7598
193.5538, 976.0402
194.0359, 976.8384
194.5180, 977.4414
195.0001, 977.2592
195.4822, 977.4374
195.9643, 979.2454
196.4465, 982.2169
196.9286, 984.3275
197.4107, 983.4371
197.8928, 978.9652
198.3749, 976.3126
198.8570, 976.3152
199.3392, 977.2934
199.8213, 978.7695
200.3034, 980.5166
200.7855, 981.4221
201.2676, 980.2135
201.7497, 976.7267
202.2319, 973.7338
202.7140, 970.6791
203.1961, 968.5373
203.6782, 968.9532
204.1603, 972.2338
204.6424, 975.2878
205.1246, 974.2887
205.6067, 970.3231
206.0888, 968.6047
206.5709, 972.4482
207.0530, 978.2252
207.5351, 980.5358
208.0173, 978.2366
208.4994, 975.4978
208.9815, 976.6628
209.4636, 979.9344
209.9457, 981.4606
210.4278, 978.2679
210.9100, 972.5554
211.3921, 969.5930
211.8742, 970.8970
212.3563, 971.8654
212.8384, 969.3121
213.3205, 964.5806
213.8027, 960.0397
214.2848, 957.1942
214.7669, 955.4504
215.2490, 952.5453
215.7311, 947.2681
216.2132, 942.7215
216.6954, 940.9128
217.1775, 940.5586
217.6596, 939.4188
218.1417, 935.9836
218.6238, 930.6486
219.1059, 925.7174
219.5881, 920.9714
220.0702, 917.0536
220.5523, 914.0371
221.0344, 911.9263
221.5165, 910.9963
221.9986, 911.8596
222.4808, 914.0538
222.9629, 913.1234
223.4450, 904.3411
223.9271, 897.2947
224.4092, 894.5423
224.8913, 894.8312
225.3735, 895.9562
225.8556, 896.5296
226.3377, 896.5817
226.8198, 896.4844
227.3019, 895.2435
227.7840, 894.9037
228.2662, 897.4879
228.7483, 901.1783
229.2304, 902.5332
229.7125, 899.0869
230.1946, 891.4681
230.6767, 886.7062
231.1589, 887.5109
231.6410, 887.9465
232.1231, 885.7614
232.6052, 882.1670
233.0873, 879.8475
233.5694, 880.6319
234.0516, 883.8787
234.5337, 884.8354
235.0158, 881.5344
235.4979, 878.6038
235.9800, 877.9307
236.4621, 878.6697
236.9443, 878.7312
237.4264, 876.7597
237.9085, 873.4648
238.3906, 872.1515
238.8727, 874.8731
239.3548, 876.8819
239.8370, 876.0118
240.3191, 873.1683
240.8012, 870.4741
241.2833, 868.8569
241.7654, 868.2185
242.2475, 868.2264
242.7297, 869.2438
243.2118, 870.1951
243.6939, 870.6940
244.1760, 870.7709
244.6581, 870.3779
245.1402, 869.1846
245.6224, 867.8982
246.1045, 868.0505
246.5866, 870.2214
247.0687, 872.0702
247.5508, 872.4308
248.0329, 871.5061
248.5151, 869.8351
248.9972, 867.0100
249.4793, 864.2330
249.9614, 863.2034
250.4435, 864.0505
250.9256, 865.4563
251.4078, 867.2279
251.8899, 869.1094
252.3720, 869.9717
252.8541, 869.2658
253.3362, 867.6825
253.8183, 865.6046
254.3005, 863.0215
254.7826, 861.4775
255.2647, 863.0624
255.7468, 866.9246
256.2289, 868.5643
256.7110, 866.2467
257.1931, 862.6843
257.6753, 859.6869
258.1574, 857.3401
258.6395, 856.1957
259.1216, 857.2501
259.6037, 860.0591
260.0858, 862.2588
260.5680, 864.0168
261.0501, 864.4818
261.5322, 862.5297
262.0143, 858.9138
262.4964, 855.9020
262.9785, 855.3016
263.4607, 856.6886
263.9428, 857.4794
264.4249, 857.0330
264.9070, 856.9190
265.3891, 858.1531
265.8712, 860.2178
266.3534, 862.1351
266.8355, 863.6476
267.3176, 864.5291
267.7997, 863.5279
268.2818, 858.8428
268.7639, 855.0198
269.2461, 854.0612
269.7282, 854.8043
270.2103, 855.6087
270.6924, 855.6849
271.1745, 855.1592
271.6566, 854.4188
272.1388, 853.4122
272.6209, 852.2599
273.1030, 850.5725
273.5851, 848.9259
274.0672, 847.8929
274.5493, 847.6816
275.0315, 848.3936
275.5136, 850.6096
275.9957, 856.1186
276.4778, 859.6716
276.9599, 859.2198
277.4420, 857.3389
277.9242, 856.3000
278.4063, 856.9111
278.8884, 858.5434
279.3705, 860.1467
279.8526, 861.9747
280.3347, 863.1744
280.8169, 862.8163
281.2990, 862.4532
281.7811, 863.5502
282.2632, 866.3386
282.7453, 869.5311
283.2274, 871.2086
283.7096, 870.8357
284.1917, 870.2103
284.6738, 868.7348
285.1559, 867.5352
285.6380, 867.5802
286.1201, 868.7933
286.6023, 870.0804
287.0844, 869.8133
287.5665, 866.8731
288.0486, 866.9655
288.5307, 872.7557
289.0128, 878.9082
289.4950, 883.8793
289.9771, 887.1530
290.4592, 888.1318
290.9413, 885.7027
291.4234, 879.3395
291.9055, 876.6312
292.3877, 881.6698
292.8698, 886.2162
293.3519, 886.8776
293.8340, 884.9238
294.3161, 883.6974
294.7982, 885.7957
295.2804, 890.7883
295.7625, 892.9472
296.2446, 888.6870
296.7267, 885.3270
297.2088, 885.2288
297.6909, 886.7039
298.1731, 886.9866
298.6552, 884.4962
299.1373, 880.1490
299.6194, 877.4610
300.1015, 878.8176
300.5836, 879.0216
301.0658, 877.2280
301.5479, 874.2717
302.0300, 870.4577
302.5121, 865.9999
302.9942, 862.0704
303.4763, 861.2769
303.9585, 867.3788
304.4406, 871.0080
304.9227, 870.8878
305.4048, 869.2026
305.8869, 867.5812
306.3690, 866.4430
306.8512, 865.2571
307.3333, 863.1277
307.8154, 859.0293
308.2975, 856.8357
308.7796, 857.7943
309.2617, 859.2964
309.7439, 859.8187
310.2260, 859.2750
310.7081, 858.4520
311.1902, 858.1854
311.6723, 858.6583
312.1544, 858.2844
312.6366, 856.1841
313.1187, 854.2291
313.6008, 852.8759
314.0829, 852.2584
314.5650, 852.6690
315.0471, 854.5091
315.5293, 857.5533
316.0114, 858.7855
316.4935, 856.2132
316.9756, 854.0518
317.4577, 853.1888
317.9398, 853.2791
318.4220, 854.0387
318.9041, 855.3832
319.3862, 856.7086
319.8683, 856.0467
320.3504, 850.6929
320.8326, 846.6866
321.3147, 844.7502
321.7968, 844.0637
322.2789, 844.0518
322.7610, 844.4636
323.2431, 844.9807
323.7253, 845.0004
324.2074, 843.8969
324.6895, 843.5635
325.1716, 845.0686
325.6537, 846.4525
326.1358, 846.0323
326.6180, 843.8372
327.1001, 841.4201
327.5822, 840.5105
328.0643, 841.4764
328.5464, 842.0864
329.0285, 842.7964
329.5107, 842.7869
329.9928, 841.1097
330.4749, 838.3500
330.9570, 836.0359
331.4391, 835.4193
331.9212, 836.3249
332.4034, 836.1224
332.8855, 833.0680
333.3676, 830.7636
333.8497, 830.3551
334.3318, 831.0062
334.8139, 831.4926
335.2961, 831.1962
335.7782, 830.4474
336.2603, 830.2079
336.7424, 830.6779
337.2245, 831.4274
337.7066, 833.1935
338.1888, 834.7764
338.6709, 835.0333
339.1530, 833.6928
339.6351, 831.4224
340.1172, 829.1309
340.5993, 826.6962
341.0815, 824.5840
341.5636, 822.3358
342.0457, 820.7377
342.5278, 820.3375
343.0099, 821.0624
343.4920, 822.4763
343.9742, 824.3649
344.4563, 826.8047
344.9384, 828.2962
345.4205, 827.8235
345.9026, 827.3314
346.3847, 827.2875
346.8669, 827.5905
347.3490, 828.0118
347.8311, 828.4380
348.3132, 828.8312
348.7953, 829.0717
349.2774, 829.4377
349.7596, 829.1458
350.2417, 827.5417
350.7238, 825.5468
351.2059, 823.9373
351.6880, 822.9849
352.1701, 822.7488
352.6523, 823.3728
353.1344, 824.9788
353.6165, 827.1018
354.0986, 830.9205
354.5807, 834.2910
355.0628, 835.3297
355.5450, 834.2670
356.0271, 833.3597
356.5092, 835.3456
356.9913, 840.3808
357.4734, 843.4294
357.9555, 843.1310
358.4377, 842.1929
358.9198, 841.5598
359.4019, 841.1672
359.8840, 840.8191
360.3661, 840.5359
360.8482, 840.1244
361.3304, 838.6608
361.8125, 835.0567
362.2946, 832.8919
362.7767, 834.6902
363.2588, 837.8550
363.7409, 839.8907
364.2231, 840.0859
364.7052, 838.8742
365.1873, 835.8790
365.6694, 830.6163
366.1515, 828.0365
366.6336, 831.4705
367.1158, 836.2839
367.5979, 839.4475
368.0800, 840.7894
368.5621, 841.0141
369.0442, 839.8496
369.5263, 837.7693
370.0085, 837.3984
370.4906, 840.1386
370.9727, 842.3768
371.4548, 840.9429
371.9369, 837.2159
372.4190, 834.2424
372.9012, 833.5839
373.3833, 834.0463
373.8654, 834.0131
374.3475, 833.4758
374.8296, 832.4926
375.3117, 830.5994
375.7939, 828.5167
376.2760, 827.2867
376.7581, 827.1168
377.2402, 827.5118
377.7223, 828.4991
378.2044, 829.8613
378.6866, 830.5779
379.1687, 830.1715
379.6508, 829.3470
380.1329, 829.3939
380.6150, 830.3250
381.0971, 829.8895
381.5793, 825.1893
382.0614, 819.5840
382.5435, 818.6054
383.0256, 823.0703
383.5077, 827.7889
383.9898, 828.2221
384.4720, 825.0800
384.9541, 824.2044
385.4362, 827.7284
385.9183, 831.7781
386.4004, 834.6799
386.8825, 836.2766
387.3647, 835.7753
387.8468, 832.2134
388.3289, 827.2883
388.8110, 825.7255
389.2931, 829.3704
389.7752, 831.6902
390.2574, 830.1378
390.7395, 827.0923
391.2216, 825.2017
391.7037, 825.0809
392.1858, 826.2621
392.6679, 828.5081
393.1501, 832.3243
393.6322, 834.2582
394.1143, 832.6879
394.5964, 830.8831
395.0785, 830.6540
395.5606, 831.7684
396.0428, 833.2567
396.5249, 834.6069
397.0070, 835.6649
397.4891, 835.5969
397.9712, 832.6990
398.4533, 830.7226
398.9355, 830.5256
399.4176, 831.2349
399.8997, 831.7665
400.3818, 831.8258
400.8639, 832.1155
401.3460, 833.8088
401.8282, 837.6010
402.3103, 840.8718
402.7924, 843.9362
403.2745, 846.3004
403.7566, 847.3427
404.2387, 847.4029
404.7209, 847.3638
405.2030, 847.7845
405.6851, 848.7147
406.1672, 850.5782
406.6493, 853.9003
407.1314, 857.4558
407.6136, 860.5977
408.0957, 863.9470
408.5778, 868.5983
409.0599, 874.9549
409.5420, 881.3798
410.0241, 884.8478
410.5063, 884.3918
410.9884, 886.1581
411.4705, 893.2769
411.9526, 901.0353
412.4347, 906.9324
412.9168, 911.0063
413.3990, 914.4306
413.8811, 917.2760
414.3632, 920.0312
414.8453, 924.7757
415.3274, 932.2291
415.8095, 939.9047
416.2917, 946.5305
416.7738, 952.5483
417.2559, 958.4387
417.7380, 964.2164
418.2201, 970.1257
418.7022, 976.7464
419.1844, 983.9440
419.6665, 990.2938
420.1486, 994.8443
420.6307, 999.0413
421.1128, 1004.629
421.5949, 1011.598
422.0771, 1019.013
422.5592, 1026.620
423.0413, 1034.432
423.5234, 1042.952
424.0055, 1052.209
424.4876, 1060.516
424.9698, 1066.384
425.4519, 1070.043
425.9340, 1073.828
426.4161, 1078.190
426.8982, 1082.194
427.3803, 1085.816
427.8625, 1088.735
428.3446, 1090.239
428.8267, 1090.055
429.3088, 1088.505
429.7909, 1086.210
430.2730, 1083.665
430.7552, 1078.819
431.2373, 1070.886
431.7194, 1061.260
432.2015, 1050.518
432.6836, 1038.986
433.1657, 1026.978
433.6479, 1014.683
434.1300, 1002.212
434.6121, 990.7878
435.0942, 981.0367
435.5763, 971.6155
436.0584, 962.1249
436.5406, 952.9505
437.0227, 944.5831
437.5048, 937.1956
437.9869, 930.3653
438.4690, 923.3505
438.9511, 915.8322
439.4333, 909.1942
439.9154, 904.5000
440.3975, 899.7092
440.8796, 893.0686
441.3617, 885.4889
441.8438, 879.6147
442.3260, 877.7662
442.8081, 878.5128
443.2902, 877.1371
443.7723, 873.0901
444.2544, 868.2521
444.7365, 861.7522
445.2187, 855.5676
445.7008, 851.6371
446.1829, 850.3697
446.6650, 850.7579
447.1471, 853.3624
447.6292, 857.3838
448.1114, 857.7893
448.5935, 852.1566
449.0756, 846.1209
449.5577, 845.5719
450.0398, 848.6592
450.5219, 849.8724
451.0041, 846.0664
451.4862, 840.9822
451.9683, 838.5638
452.4504, 838.3857
452.9325, 837.3486
453.4146, 833.6940
453.8968, 828.8428
454.3789, 826.0086
454.8610, 825.6129
455.3431, 825.3493
455.8252, 824.8910
456.3073, 824.2091
456.7895, 822.9508
457.2716, 821.2025
457.7537, 820.0455
458.2358, 820.6557
458.7179, 823.0374
459.2000, 823.6479
459.6822, 820.7107
460.1643, 818.3574
460.6464, 818.2711
461.1285, 819.2861
461.6106, 819.7015
462.0927, 818.8863
462.5748, 817.4957
463.0569, 816.6740
463.5391, 816.8437
464.0212, 816.4305
464.5033, 814.8991
464.9854, 813.3199
465.4675, 811.8857
465.9496, 810.8106
466.4318, 810.5229
466.9139, 811.4713
467.3960, 813.1853
467.8781, 814.2823
468.3602, 814.8528
468.8423, 814.5638
469.3245, 812.4246
469.8066, 809.9439
470.2887, 808.0660
470.7708, 806.9607
471.2529, 806.9072
471.7350, 809.1763
472.2172, 812.8329
472.6993, 813.8688
473.1814, 811.0840
473.6635, 808.1854
474.1456, 808.0331
474.6277, 809.6985
475.1099, 811.2888
475.5920, 812.8967
476.0741, 813.8418
476.5562, 813.7773
477.0383, 812.6783
477.5204, 809.9777
478.0026, 805.1017
478.4847, 800.1487
478.9668, 798.3697
479.4489, 800.5856
479.9310, 802.0251
480.4131, 801.8644
480.8953, 801.3490
481.3774, 801.8049
481.8595, 802.7288
482.3416, 802.0090
482.8237, 798.1058
483.3058, 792.5801
483.7880, 790.8388
484.2701, 796.7322
484.7522, 801.0351
485.2343, 803.1624
485.7164, 803.8837
486.1985, 803.1939
486.6807, 801.4944
487.1628, 800.0631
487.6449, 800.2101
488.1270, 801.7748
488.6091, 802.4098
489.0912, 801.4183
489.5734, 800.5872
490.0555, 801.2200
490.5376, 801.9352
491.0197, 800.5569
491.5018, 796.3309
491.9839, 792.6104
492.4661, 793.7686
492.9482, 799.1425
493.4303, 802.5626
493.9124, 802.3339
494.3945, 801.6767
494.8766, 804.2017
495.3588, 808.4564
495.8409, 810.3036
496.3230, 806.7474
496.8051, 802.3000
497.2872, 800.6670
497.7693, 801.3212
498.2515, 802.5150
498.7336, 803.7829
499.2157, 804.7838
499.6978, 804.8293
500.1799, 803.5052
500.6620, 802.8489
501.1442, 803.1758
501.6263, 804.0580
502.1084, 805.6603
502.5905, 807.6141
503.0726, 808.9944
503.5547, 809.2250
504.0369, 808.5105
504.5190, 807.4783
505.0011, 805.1131
505.4832, 804.1116
505.9653, 804.9676
506.4474, 806.8181
506.9296, 809.9545
507.4117, 813.7481
507.8938, 816.0305
508.3759, 814.1745
508.8580, 809.2892
509.3401, 808.3618
509.8223, 813.3838
510.3044, 817.9806
510.7865, 819.6924
511.2686, 819.9362
511.7507, 819.6370
512.2328, 818.8745
512.7150, 818.7412
513.1971, 820.4869
513.6792, 823.4976
514.1613, 826.0951
514.6434, 828.1224
515.1255, 829.5857
515.6077, 830.5104
516.0898, 830.8361
516.5719, 830.4964
517.0540, 828.9273
517.5361, 827.3764
518.0182, 826.2734
518.5004, 825.5967
518.9825, 825.3584
519.4646, 825.5557
519.9467, 826.0509
520.4288, 826.7162
520.9109, 827.6002
521.3931, 828.3201
521.8752, 828.6765
522.3573, 829.1168
522.8394, 829.8935
523.3215, 830.8190
523.8036, 831.9987
524.2858, 833.4251
524.7679, 833.9664
525.2500, 831.1953
525.7321, 824.1246
526.2142, 818.7216
526.6964, 815.6947
527.1785, 814.1260
527.6606, 814.3132
528.1427, 815.5344
528.6248, 816.2884
529.1069, 815.8538
529.5891, 814.8273
530.0712, 813.4462
530.5533, 811.8176
531.0354, 812.1771
531.5175, 816.2821
531.9996, 820.8083
532.4818, 821.6092
532.9639, 819.0093
533.4460, 815.5352
533.9281, 809.6436
534.4102, 804.7720
534.8923, 804.5124
535.3745, 807.7170
535.8566, 810.3396
536.3387, 810.4592
536.8208, 809.1349
537.3029, 808.5457
537.7850, 809.3992
538.2672, 809.5049
538.7493, 807.3102
539.2314, 805.8295
539.7135, 807.5612
540.1956, 811.4884
540.6777, 814.8864
541.1599, 816.1847
541.6420, 815.7231
542.1241, 813.9255
542.6062, 809.8816
543.0883, 807.4139
543.5704, 808.2187
544.0526, 810.0589
544.5347, 812.3167
545.0168, 814.6004
545.4989, 815.5540
545.9810, 813.1385
546.4631, 809.7250
546.9453, 808.9910
547.4274, 810.8903
547.9095, 814.2633
548.3916, 819.3670
548.8737, 824.8044
549.3558, 827.7568
549.8380, 827.8989
550.3201, 828.4495
550.8022, 829.2363
551.2843, 831.2372
551.7664, 836.2515
552.2485, 843.3946
552.7307, 849.5273
553.2128, 852.8156
553.6949, 854.2395
554.1770, 856.6000
554.6591, 860.7941
555.1412, 864.3176
555.6234, 866.1733
556.1055, 868.2637
556.5876, 871.7106
557.0697, 876.4425
557.5518, 881.8477
558.0339, 887.6339
558.5161, 893.7618
558.9982, 900.4091
559.4803, 907.7892
559.9624, 914.2252
560.4445, 918.7360
560.9266, 922.5780
561.4088, 926.7704
561.8909, 931.3307
562.3730, 936.4045
562.8551, 942.6096
563.3372, 948.9667
563.8193, 953.9639
564.3015, 957.9600
564.7836, 963.0250
565.2657, 970.2261
565.7478, 978.4741
566.2299, 985.8373
566.7120, 991.9431
567.1942, 997.9124
567.6763, 1004.370
568.1584, 1010.061
568.6405, 1013.746
569.1226, 1016.112
569.6047, 1019.184
570.0869, 1024.101
570.5690, 1029.074
571.0511, 1029.969
571.5332, 1025.569
572.0153, 1021.808
572.4974, 1020.292
572.9796, 1018.480
573.4617, 1015.309
573.9438, 1010.787
574.4259, 1005.031
574.9080, 997.7741
575.3901, 989.7809
575.8723, 982.0106
576.3544, 974.3422
576.8365, 966.1281
577.3186, 957.4355
577.8007, 947.4182
578.2828, 934.4918
578.7650, 918.4279
579.2471, 904.5903
579.7292, 893.8830
580.2113, 884.6691
580.6934, 877.0497
581.1755, 870.1249
581.6577, 862.0031
582.1398, 852.2280
582.6219, 842.6059
583.1040, 835.7994
583.5861, 832.2178
584.0682, 828.2558
584.5504, 824.0157
585.0325, 819.1744
585.5146, 812.7292
585.9967, 806.0363
586.4788, 800.8337
