##NAMES=Catapleiite
##RRUFFID=R040005
##IDEAL CHEMISTRY=Na_2_Zr^4+^Si_3_O_9_&#183;2H_2_O
##LOCALITY=Langesundsfjord Eikaholmen Vestfold, Norway
##OWNER=RRUFF
##SOURCE=University of Arizona Mineral Museum
##DESCRIPTION=Brown thin tabular crystal
##STATUS=The identification of this mineral has been confirmed by X-ray diffraction and chemical analysis
##URL=rruff.info/R040005
##MEASURED CHEMISTRY=(Na_1.28_Ca_0.36_[box]_0.36_)_Σ=2_Zr_1.00_Si_3.00_O_9_·2H_2_O
160.573, 14072.170
161.055, 14133.360
161.538, 14199.660
162.020, 14260.380
162.502, 14314.180
162.984, 14359.320
163.466, 14393.740
163.948, 14418.120
164.430, 14434.360
164.912, 14428.690
165.394, 14423.310
165.876, 14437.650
166.359, 14489.680
166.841, 14532.660
167.323, 14531.380
167.805, 14497.110
168.287, 14465.660
168.769, 14456.360
169.251, 14461.130
169.733, 14472.470
170.216, 14493.680
170.698, 14516.100
171.180, 14532.700
171.662, 14544.400
172.144, 14555.760
172.626, 14578.900
173.108, 14602.380
173.590, 14609.360
174.072, 14570.680
174.555, 14525.090
175.037, 14515.760
175.519, 14543.170
176.001, 14583.500
176.483, 14623.370
176.965, 14660.760
177.447, 14690.210
177.929, 14708.320
178.412, 14717.160
178.894, 14712.220
179.376, 14688.840
179.858, 14675.930
180.340, 14726.090
180.822, 14822.490
181.304, 14895.500
181.786, 14879.350
182.268, 14813.850
182.751, 14792.410
183.233, 14833.360
183.715, 14899.710
184.197, 14938.750
184.679, 14952.820
185.161, 14962.600
185.643, 14986.090
186.125, 15017.350
186.607, 15034.090
187.090, 15026.800
187.572, 15009.580
188.054, 15007.510
188.536, 15020.580
189.018, 15046.010
189.500, 15094.540
189.982, 15159.710
190.464, 15199.000
190.947, 15192.370
191.429, 15157.250
191.911, 15149.640
192.393, 15172.910
192.875, 15201.440
193.357, 15208.910
193.839, 15195.860
194.321, 15183.510
194.803, 15175.200
195.286, 15172.300
195.768, 15184.280
196.250, 15213.820
196.732, 15250.020
197.214, 15284.540
197.696, 15318.420
198.178, 15338.580
198.661, 15333.410
199.143, 15304.390
199.625, 15293.440
200.107, 15304.240
200.589, 15326.550
201.071, 15345.260
201.553, 15360.250
202.035, 15372.580
202.517, 15375.200
202.999, 15364.610
203.482, 15329.980
203.964, 15400.976
204.446, 15446.329
204.928, 15467.422
205.410, 15391.589
205.892, 15440.915
206.374, 15440.083
206.857, 15437.198
207.339, 15504.139
207.821, 15442.404
208.303, 15508.238
208.785, 15523.149
209.267, 15561.367
209.749, 15549.119
210.231, 15552.456
210.713, 15606.277
211.195, 15632.146
211.678, 15614.086
212.160, 15653.785
212.642, 15590.290
213.124, 15617.348
213.606, 15683.478
214.088, 15667.955
214.570, 15708.577
215.052, 15727.815
215.535, 15649.882
216.017, 15740.942
216.499, 15758.918
216.981, 15701.850
217.463, 15787.120
217.945, 15740.397
218.427, 15740.791
218.909, 15776.638
219.391, 15775.522
219.874, 15832.682
220.356, 15833.702
220.838, 15829.708
221.320, 15847.602
221.802, 15803.467
222.284, 15874.406
222.766, 15866.740
223.248, 15898.147
223.731, 15938.414
224.213, 15910.864
224.695, 15955.106
225.177, 15888.017
225.659, 15949.030
226.141, 15975.430
226.623, 16003.630
227.105, 16029.730
227.587, 16053.420
228.070, 16077.150
228.552, 16104.550
229.034, 16128.690
229.516, 16135.070
229.998, 16104.250
230.480, 16089.290
230.962, 16113.260
231.444, 16192.880
231.926, 16241.240
232.409, 16240.320
232.891, 16217.430
233.373, 16224.350
233.855, 16285.600
234.337, 16337.710
234.819, 16355.540
235.301, 16323.530
235.783, 16304.120
236.266, 16302.260
236.748, 16311.350
237.230, 16316.530
237.712, 16312.480
238.194, 16313.100
238.676, 16326.340
239.158, 16363.560
239.640, 16384.830
240.122, 16378.980
240.605, 16360.370
241.087, 16369.850
241.569, 16434.570
242.051, 16489.170
242.533, 16498.650
243.015, 16428.330
243.497, 16391.891
243.980, 16403.680
244.462, 16448.740
244.944, 16480.340
245.426, 16490.609
245.908, 16497.230
246.390, 16509.680
246.872, 16533.160
247.354, 16548.520
247.836, 16552.641
248.318, 16547.330
248.801, 16538.160
249.283, 16516.920
249.765, 16502.811
250.247, 16509.660
250.729, 16552.330
251.211, 16581.320
251.693, 16588.750
252.176, 16580.680
252.658, 16582.400
253.140, 16600.920
253.622, 16620.990
254.104, 16635.439
254.586, 16647.660
255.068, 16646.920
255.550, 16627.449
256.032, 16594.510
256.514, 16572.971
256.997, 16565.301
257.479, 16565.619
257.961, 16571.949
258.443, 16589.520
258.925, 16596.859
259.407, 16581.350
259.889, 16551.900
260.371, 16563.770
260.854, 16639.020
261.336, 16718.340
261.818, 16755.279
262.300, 16727.250
262.782, 16722.430
263.264, 16757.010
263.746, 16823.400
264.228, 16880.289
264.711, 16931.600
265.193, 16966.420
265.675, 16971.850
266.157, 16936.480
266.639, 16912.279
267.121, 16912.020
267.603, 16929.160
268.085, 16925.840
268.567, 16892.570
269.050, 16860.381
269.532, 16857.080
270.014, 16890.641
270.496, 16918.279
270.978, 16932.500
271.460, 16936.250
271.942, 16942.939
272.424, 16953.789
272.906, 16965.250
273.389, 16975.980
273.871, 16986.949
274.353, 16990.400
274.835, 16978.949
275.317, 16960.311
275.799, 16971.770
276.281, 17020.740
276.763, 17075.221
277.246, 17106.590
277.728, 17111.721
278.210, 17125.350
278.692, 17154.689
279.174, 17195.789
279.656, 17241.859
280.138, 17297.260
280.620, 17336.150
281.103, 17323.760
281.585, 17258.369
282.067, 17219.199
282.549, 17222.561
283.031, 17259.289
283.513, 17309.641
283.995, 17376.180
284.477, 17436.680
284.959, 17473.090
285.441, 17486.381
285.924, 17489.551
286.406, 17481.359
286.888, 17467.830
287.370, 17465.641
287.852, 17475.420
288.334, 17486.961
288.816, 17484.830
289.298, 17473.869
289.781, 17488.801
290.263, 17546.330
290.745, 17621.289
291.227, 17655.820
291.709, 17650.650
292.191, 17640.141
292.673, 17654.381
293.155, 17685.260
293.638, 17699.670
294.120, 17684.980
294.602, 17661.221
295.084, 17663.561
295.566, 17690.539
296.048, 17723.221
296.530, 17743.551
297.012, 17760.340
297.494, 17801.881
297.977, 17888.859
298.459, 17975.180
298.941, 17982.789
299.423, 17924.891
299.905, 17873.131
300.387, 17870.920
300.869, 17906.609
301.351, 17964.760
301.833, 18052.029
302.316, 18139.789
302.798, 18193.100
303.280, 18217.600
303.762, 18236.449
304.244, 18258.029
304.726, 18282.660
305.208, 18313.189
305.690, 18353.381
306.173, 18387.289
306.655, 18393.789
307.137, 18380.770
307.619, 18370.350
308.101, 18367.189
308.583, 18376.279
309.065, 18411.820
309.547, 18488.311
310.030, 18548.100
310.512, 18531.010
310.994, 18468.539
311.476, 18424.301
311.958, 18441.180
312.440, 18479.061
312.922, 18511.301
313.404, 18534.150
313.886, 18553.740
314.369, 18580.461
314.851, 18605.279
315.333, 18612.811
315.815, 18581.029
316.297, 18543.289
316.779, 18515.061
317.261, 18497.650
317.743, 18491.221
318.225, 18509.039
318.708, 18534.920
319.190, 18547.631
319.672, 18513.320
320.154, 18490.100
320.636, 18511.689
321.118, 18588.510
321.600, 18639.350
322.082, 18617.930
322.565, 18571.949
323.047, 18550.619
323.529, 18579.881
324.011, 18616.070
324.493, 18654.900
324.975, 18697.029
325.457, 18720.520
325.939, 18701.760
326.422, 18674.000
326.904, 18664.381
327.386, 18682.680
327.868, 18710.150
328.350, 18749.779
328.832, 18801.029
329.314, 18841.881
329.796, 18860.939
330.278, 18878.359
330.760, 18910.590
331.243, 18994.730
331.725, 19033.119
332.207, 18992.250
332.689, 18888.881
333.171, 18840.471
333.653, 18876.711
334.135, 18929.359
334.617, 18957.680
335.100, 18954.199
335.582, 18945.150
336.064, 18926.650
336.546, 18905.641
337.028, 18907.811
337.510, 18941.400
337.992, 18978.660
338.474, 19002.920
338.957, 19010.141
339.439, 19026.641
339.921, 19060.570
340.403, 19095.711
340.885, 19089.029
341.367, 19031.449
341.849, 18982.141
342.331, 18975.740
342.813, 19011.551
343.296, 19038.240
343.778, 19055.881
344.260, 19062.330
344.742, 19042.971
345.224, 18999.221
345.706, 18975.119
346.188, 19010.381
346.670, 19086.230
347.152, 19113.730
347.635, 19087.500
348.117, 19048.279
348.599, 19039.480
349.081, 19056.109
349.563, 19077.990
350.045, 19090.680
350.527, 19105.400
351.009, 19151.680
351.491, 19228.939
351.974, 19298.779
352.456, 19316.689
352.938, 19304.061
353.420, 19305.910
353.902, 19357.350
354.384, 19409.990
354.866, 19405.650
355.349, 19350.910
355.831, 19289.430
356.313, 19224.199
356.795, 19178.221
357.277, 19184.311
357.759, 19291.051
358.241, 19391.949
358.723, 19400.699
359.205, 19342.949
359.688, 19302.230
360.170, 19337.250
360.652, 19391.250
361.134, 19422.590
361.616, 19412.330
362.098, 19404.939
362.580, 19415.189
363.062, 19439.330
363.544, 19470.340
364.027, 19513.949
364.509, 19557.029
364.991, 19595.359
365.473, 19630.330
365.955, 19653.850
366.437, 19656.439
366.919, 19649.641
367.401, 19648.471
367.884, 19664.359
368.366, 19676.471
368.848, 19679.961
369.330, 19674.189
369.812, 19666.641
370.294, 19643.420
370.776, 19628.279
371.258, 19645.490
371.741, 19726.230
372.223, 19785.270
372.705, 19801.641
373.187, 19780.480
373.669, 19778.260
374.151, 19803.100
374.633, 19833.150
375.115, 19848.811
375.597, 19839.680
376.079, 19858.119
376.562, 19921.051
377.044, 20007.250
377.526, 20051.080
378.008, 20045.869
378.490, 20030.641
378.972, 20028.580
379.454, 20039.369
379.936, 20042.350
380.419, 20036.000
380.901, 20023.740
381.383, 20009.480
381.865, 19993.721
382.347, 19979.850
382.829, 19966.670
383.311, 19957.170
383.793, 19959.141
384.276, 19972.949
384.758, 19997.270
385.240, 20043.490
385.722, 20099.939
386.204, 20135.580
386.686, 20114.859
387.168, 20081.289
387.650, 20091.250
388.132, 20141.449
388.615, 20197.119
389.097, 20239.029
389.579, 20269.990
390.061, 20294.000
390.543, 20311.740
391.025, 20322.410
391.507, 20323.010
391.989, 20315.680
392.471, 20307.439
392.954, 20293.910
393.436, 20286.471
393.918, 20296.301
394.400, 20336.801
394.882, 20368.510
395.364, 20373.471
395.846, 20363.240
396.328, 20356.350
396.810, 20355.811
397.293, 20360.580
397.775, 20361.631
398.257, 20347.301
398.739, 20380.840
399.221, 20550.000
399.703, 20727.230
400.185, 20788.740
400.668, 20627.199
401.150, 20496.779
401.632, 20439.301
402.114, 20451.240
402.596, 20475.789
403.078, 20525.381
403.560, 20570.920
404.042, 20589.090
404.524, 20568.980
405.007, 20562.359
405.489, 20578.240
405.971, 20607.730
406.453, 20626.631
406.935, 20633.391
407.417, 20637.410
407.899, 20641.449
408.381, 20645.789
408.863, 20654.850
409.346, 20667.211
409.828, 20688.711
410.310, 20738.551
410.792, 20811.721
411.274, 20867.240
411.756, 20872.189
412.238, 20853.260
412.720, 20871.949
413.203, 20928.400
413.685, 20984.930
414.167, 21002.010
414.649, 20997.061
415.131, 21002.410
415.613, 21029.660
416.095, 21067.000
416.577, 21113.289
417.060, 21163.311
417.542, 21198.820
418.024, 21183.221
418.506, 21163.141
418.988, 21184.051
419.470, 21274.580
419.952, 21347.689
420.434, 21349.430
420.916, 21313.551
421.398, 21296.230
421.881, 21326.721
422.363, 21367.211
422.845, 21406.830
423.327, 21445.840
423.809, 21480.510
424.291, 21503.039
424.773, 21525.760
425.255, 21560.289
425.738, 21637.949
426.220, 21684.100
426.702, 21671.900
427.184, 21614.840
427.666, 21597.820
428.148, 21634.891
428.630, 21690.250
429.112, 21745.170
429.595, 21799.840
430.077, 21853.529
430.559, 21905.410
431.041, 21956.230
431.523, 22011.699
432.005, 22072.730
432.487, 22126.311
432.969, 22159.471
433.451, 22178.029
433.934, 22221.301
434.416, 22291.961
434.898, 22368.980
435.380, 22430.400
435.862, 22479.971
436.344, 22532.859
436.826, 22604.189
437.308, 22670.250
437.790, 22685.590
438.273, 22658.699
438.755, 22639.461
439.237, 22669.070
439.719, 22719.811
440.201, 22760.779
440.683, 22785.410
441.165, 22802.811
441.647, 22814.881
442.129, 22823.641
442.612, 22832.850
443.094, 22842.881
443.576, 22854.061
444.058, 22875.580
444.540, 22910.500
445.022, 22913.270
445.504, 22827.100
445.987, 22729.221
446.469, 22682.381
446.951, 22772.590
447.433, 22820.631
447.915, 22787.350
448.397, 22695.881
448.879, 22646.170
449.361, 22664.490
449.843, 22689.881
450.326, 22697.760
450.808, 22688.420
451.290, 22656.250
451.772, 22589.420
452.254, 22514.561
452.736, 22478.061
453.218, 22485.270
453.700, 22483.750
454.182, 22445.131
454.665, 22384.301
455.147, 22384.539
455.629, 22450.150
456.111, 22510.320
456.593, 22496.000
457.075, 22424.551
457.557, 22347.590
458.039, 22264.320
458.522, 22200.250
459.004, 22199.211
459.486, 22245.939
459.968, 22287.801
460.450, 22295.600
460.932, 22286.061
461.414, 22271.750
461.896, 22253.180
462.379, 22238.400
462.861, 22234.221
463.343, 22235.480
463.825, 22236.350
464.307, 22235.840
464.789, 22233.971
465.271, 22226.910
465.753, 22216.609
466.235, 22215.510
466.717, 22239.730
467.200, 22262.410
467.682, 22268.980
468.164, 22244.141
468.646, 22234.270
469.128, 22250.539
469.610, 22275.471
470.092, 22276.811
470.574, 22234.990
471.057, 22215.680
471.539, 22246.080
472.021, 22319.789
472.503, 22363.891
472.985, 22375.279
473.467, 22365.070
473.949, 22329.961
474.431, 22273.150
474.914, 22245.619
475.396, 22262.221
475.878, 22297.189
476.360, 22307.330
476.842, 22297.461
477.324, 22291.279
477.806, 22304.811
478.288, 22329.570
478.770, 22358.949
479.253, 22393.711
479.735, 22418.080
480.217, 22404.891
480.699, 22380.160
481.181, 22376.551
481.663, 22424.301
482.145, 22473.820
482.627, 22498.510
483.109, 22504.971
483.592, 22516.779
484.074, 22547.699
484.556, 22577.920
485.038, 22597.109
485.520, 22598.680
486.002, 22600.250
486.484, 22591.391
486.966, 22587.381
487.448, 22611.330
487.931, 22698.730
488.413, 22745.270
488.895, 22718.311
489.377, 22631.881
489.859, 22579.740
490.341, 22568.350
490.823, 22572.869
491.306, 22582.430
491.788, 22597.301
492.270, 22601.580
492.752, 22591.289
493.234, 22580.779
493.716, 22592.939
494.198, 22624.420
494.680, 22656.141
495.162, 22672.090
495.645, 22688.100
496.127, 22739.570
496.609, 22821.240
497.091, 22885.150
497.573, 22876.949
498.055, 22842.240
498.537, 22833.980
499.019, 22883.420
499.501, 22914.711
499.984, 22866.779
500.466, 22780.221
500.948, 22728.061
501.430, 22766.461
501.912, 22808.199
502.394, 22819.439
502.876, 22795.449
503.358, 22790.381
503.841, 22818.801
504.323, 22854.570
504.805, 22878.750
505.287, 22877.119
505.769, 22898.189
506.251, 22955.760
506.733, 23028.020
507.215, 23067.570
507.698, 23070.070
508.180, 23059.289
508.662, 23035.529
509.144, 23004.619
509.626, 23003.391
510.108, 23034.020
510.590, 23075.250
511.072, 23113.311
511.554, 23147.279
512.036, 23174.490
512.519, 23194.590
513.001, 23208.340
513.483, 23209.670
513.965, 23204.949
514.447, 23210.039
514.929, 23237.279
515.411, 23273.449
515.893, 23316.461
516.375, 23366.910
516.858, 23398.859
517.340, 23374.699
517.822, 23343.961
518.304, 23345.221
518.786, 23432.260
519.268, 23490.410
519.750, 23493.180
520.232, 23465.020
520.715, 23469.340
521.197, 23532.270
521.679, 23580.369
522.161, 23575.730
522.643, 23517.170
523.125, 23523.051
523.607, 23611.551
524.089, 23710.289
524.571, 23749.900
525.054, 23734.551
525.536, 23699.619
526.018, 23640.260
526.500, 23586.900
526.982, 23597.311
527.464, 23658.250
527.946, 23714.131
528.429, 23736.430
528.911, 23738.730
529.393, 23732.141
529.875, 23717.240
530.357, 23702.090
530.839, 23683.170
531.321, 23670.150
531.803, 23673.141
532.286, 23714.590
532.768, 23741.900
533.250, 23734.150
533.732, 23704.350
534.214, 23680.039
534.696, 23653.971
535.178, 23645.971
535.660, 23670.090
536.142, 23727.689
536.625, 23759.199
537.107, 23759.100
537.589, 23743.070
538.071, 23714.199
538.553, 23669.490
539.035, 23656.820
539.517, 23687.439
539.999, 23738.150
540.481, 23768.830
540.964, 23782.910
541.446, 23808.670
541.928, 23876.500
542.410, 23953.420
542.892, 23977.289
543.374, 23953.760
543.856, 23936.279
544.338, 23967.320
544.820, 24018.811
545.303, 24063.080
545.785, 24093.740
546.267, 24120.680
546.749, 24160.590
547.231, 24195.279
547.713, 24199.590
548.195, 24128.109
548.677, 24070.461
549.159, 24046.029
549.642, 24052.490
550.124, 24073.490
550.606, 24119.711
551.088, 24164.570
551.570, 24192.029
552.052, 24197.830
552.534, 24212.260
553.016, 24237.369
553.499, 24266.699
553.981, 24290.811
554.463, 24310.770
554.945, 24337.100
555.427, 24377.971
555.909, 24419.689
556.391, 24432.100
556.873, 24422.461
557.356, 24424.461
557.838, 24463.051
558.320, 24520.051
558.802, 24584.619
559.284, 24657.711
559.766, 24715.170
560.248, 24726.160
560.730, 24726.430
561.213, 24747.990
561.695, 24814.990
562.177, 24882.150
562.659, 24936.529
563.141, 24988.131
563.623, 25062.359
564.105, 25181.340
564.587, 25284.811
565.069, 25347.090
565.552, 25371.131
566.034, 25424.141
566.516, 25512.590
566.998, 25605.449
567.480, 25674.131
567.962, 25722.840
568.444, 25778.830
568.926, 25847.961
569.408, 25917.820
569.891, 25972.420
570.373, 26017.189
570.855, 26066.881
571.337, 26129.510
571.819, 26197.490
572.301, 26276.480
572.783, 26359.490
573.265, 26413.830
573.747, 26390.080
574.230, 26362.449
574.712, 26373.971
575.194, 26441.230
575.676, 26505.900
576.158, 26583.289
576.640, 26643.900
577.122, 26656.930
577.604, 26595.811
578.086, 26554.350
578.569, 26552.590
579.051, 26570.359
579.533, 26559.260
580.015, 26518.801
580.497, 26458.609
580.979, 26370.619
581.461, 26267.891
581.943, 26190.990
582.426, 26139.801
582.908, 26102.289
583.390, 26084.240
583.872, 26068.730
584.354, 26028.750
584.836, 25952.211
585.318, 25873.051
585.800, 25806.750
586.282, 25750.641
586.765, 25702.279
587.247, 25675.439
587.729, 25640.170
588.211, 25579.311
588.693, 25499.789
589.175, 25440.789
589.657, 25417.189
590.140, 25393.289
590.622, 25349.520
591.104, 25281.449
591.586, 25249.869
592.068, 25265.770
592.550, 25287.070
593.032, 25267.711
593.514, 25213.801
593.996, 25167.080
594.479, 25134.119
594.961, 25112.789
595.443, 25106.000
595.925, 25109.150
596.407, 25109.570
596.889, 25086.449
597.371, 25070.730
597.853, 25099.580
598.335, 25163.971
598.818, 25202.250
599.300, 25172.830
599.782, 25124.789
600.264, 25081.109
600.746, 25038.100
601.228, 25017.580
601.710, 25025.949
602.192, 25051.131
602.674, 25085.420
603.157, 25135.369
603.639, 25168.471
604.121, 25173.449
604.603, 25167.660
605.085, 25195.230
605.567, 25254.410
606.049, 25300.461
606.531, 25294.789
607.013, 25270.961
607.496, 25291.020
607.978, 25352.529
608.460, 25431.279
608.942, 25555.471
609.424, 25663.609
609.906, 25684.881
610.388, 25586.090
610.870, 25495.990
611.353, 25456.609
611.835, 25449.340
612.317, 25453.619
612.799, 25478.980
613.281, 25500.160
613.763, 25512.070
614.245, 25520.391
614.727, 25540.609
615.209, 25577.240
615.692, 25612.961
616.174, 25641.230
616.656, 25663.830
617.138, 25684.439
617.620, 25703.119
618.102, 25726.670
618.584, 25770.170
619.067, 25820.029
619.549, 25839.539
620.031, 25817.590
620.513, 25819.391
620.995, 25914.051
621.477, 26050.119
621.959, 26166.551
622.441, 26223.391
622.923, 26284.250
623.406, 26363.660
623.888, 26457.480
624.370, 26556.051
624.852, 26670.080
625.334, 26771.289
625.816, 26849.240
626.298, 26906.410
626.780, 26969.381
627.263, 27041.770
627.745, 27105.721
628.227, 27142.561
628.709, 27159.840
629.191, 27194.990
629.673, 27251.320
630.155, 27313.779
630.637, 27377.631
631.119, 27435.590
631.602, 27475.949
632.084, 27490.740
632.566, 27497.211
633.048, 27499.080
633.530, 27500.391
634.012, 27508.250
634.494, 27556.789
634.976, 27577.029
635.458, 27538.779
635.941, 27452.869
636.423, 27386.119
636.905, 27352.211
637.387, 27309.711
637.869, 27234.369
638.351, 27125.730
638.833, 27024.180
639.315, 26929.869
639.797, 26841.061
640.280, 26768.580
640.762, 26700.680
641.244, 26602.029
641.726, 26458.461
642.208, 26316.609
642.690, 26220.580
643.172, 26155.070
643.654, 26098.760
644.137, 26042.740
644.619, 25998.301
645.101, 25960.150
645.583, 25935.680
646.065, 25956.340
646.547, 26098.439
647.029, 26182.609
647.511, 26130.680
647.994, 25950.150
648.476, 25863.109
648.958, 25885.760
649.440, 25933.590
649.922, 25949.801
650.404, 25938.260
650.886, 25920.010
651.368, 25894.631
651.851, 25870.850
652.333, 25858.141
652.815, 25852.090
653.297, 25846.221
653.779, 25837.510
654.261, 25831.680
654.743, 25839.199
655.225, 25850.990
655.707, 25851.061
