##NAMES=Catapleiite
##RRUFFID=R040005
##IDEAL CHEMISTRY=Na_2_Zr^4+^Si_3_O_9_&#183;2H_2_O
##LOCALITY=Langesundsfjord Eikaholmen Vestfold, Norway
##OWNER=RRUFF
##SOURCE=University of Arizona Mineral Museum
##DESCRIPTION=Brown thin tabular crystal
##STATUS=The identification of this mineral has been confirmed by X-ray diffraction and chemical analysis
##URL=rruff.info/R040005
##MEASURED CHEMISTRY=(Na_1.28_Ca_0.36_[box]_0.36_)_Σ=2_Zr_1.00_Si_3.00_O_9_·2H_2_O
125.7909, 25502.03
126.2731, 25409.10
126.7552, 25443.63
127.2373, 25496.94
127.7194, 25515.71
128.2015, 25491.32
128.6837, 25453.93
129.1658, 25452.95
129.6479, 25522.90
130.1300, 25560.44
130.6121, 25543.55
131.0942, 25503.57
131.5764, 25462.86
132.0585, 25431.49
132.5406, 25409.77
133.0227, 25399.83
133.5048, 25419.11
133.9869, 25431.79
134.4691, 25426.33
134.9512, 25411.94
135.4333, 25404.36
135.9154, 25414.21
136.3975, 25440.72
136.8796, 25465.35
137.3618, 25500.79
137.8439, 25524.40
138.3260, 25508.72
138.8081, 25460.77
139.2902, 25430.79
139.7723, 25471.29
140.2545, 25582.17
140.7366, 25660.72
141.2187, 25689.91
141.7008, 25689.49
142.1829, 25669.72
142.6650, 25624.01
143.1472, 25591.97
143.6293, 25631.85
144.1114, 25727.82
144.5935, 25811.62
145.0756, 25843.62
145.5577, 25839.22
146.0399, 25851.77
146.5220, 25900.20
147.0041, 25955.35
147.4862, 25996.13
147.9683, 26022.34
148.4504, 26038.34
148.9326, 26041.84
149.4147, 26030.56
149.8968, 26030.87
150.3789, 26068.22
150.8610, 26106.01
151.3431, 26121.57
151.8252, 26110.22
152.3074, 26087.88
152.7895, 26079.47
153.2716, 26092.83
153.7537, 26103.84
154.2358, 26115.18
154.7179, 26120.84
155.2001, 26115.07
155.6822, 26095.35
156.1643, 26064.40
156.6464, 26030.39
157.1285, 25981.75
157.6106, 25943.39
158.0928, 25927.43
158.5749, 25921.32
159.0570, 25906.55
159.5391, 25871.10
160.0212, 25817.84
160.5033, 25780.78
160.9855, 25780.63
161.4676, 25773.34
161.9497, 25742.53
162.4318, 25692.42
162.9139, 25636.18
163.3960, 25582.09
163.8782, 25530.54
164.3603, 25488.10
164.8424, 25469.92
165.3245, 25448.20
165.8066, 25402.82
166.2887, 25332.75
166.7709, 25254.13
167.2530, 25179.45
167.7351, 25108.71
168.2172, 25042.56
168.6993, 24962.80
169.1814, 24894.86
169.6636, 24882.59
170.1457, 24944.36
170.6278, 25013.76
171.1099, 25017.12
171.5920, 24966.38
172.0741, 24905.79
172.5563, 24836.50
173.0384, 24768.75
173.5205, 24739.43
174.0026, 24781.04
174.4847, 24824.39
174.9668, 24806.04
175.4490, 24730.13
175.9311, 24645.57
176.4132, 24584.60
176.8953, 24546.32
177.3774, 24511.06
177.8595, 24473.09
178.3417, 24439.57
178.8238, 24420.62
179.3059, 24416.07
179.7880, 24407.90
180.2701, 24368.42
180.7522, 24283.90
181.2344, 24225.40
181.7165, 24231.52
182.1986, 24248.30
182.6807, 24236.96
183.1628, 24188.08
183.6449, 24130.59
184.1271, 24116.60
184.6092, 24175.24
185.0913, 24221.23
185.5734, 24255.98
186.0555, 24271.73
186.5376, 24251.35
187.0198, 24188.29
187.5019, 24107.40
187.9840, 24074.97
188.4661, 24165.77
188.9482, 24211.84
189.4303, 24161.43
189.9125, 24072.43
190.3946, 24017.82
190.8767, 24036.20
191.3588, 24106.95
191.8409, 24132.71
192.3230, 24049.39
192.8052, 23992.13
193.2873, 24007.92
193.7694, 24064.60
194.2515, 24103.78
194.7336, 24088.65
195.2157, 24026.04
195.6979, 23982.29
196.1800, 23963.89
196.6621, 23952.49
197.1442, 23949.57
197.6263, 23949.93
198.1084, 23938.28
198.5906, 23900.61
199.0727, 23839.85
199.5548, 23796.64
200.0369, 23791.93
200.5190, 23785.61
201.0011, 23742.55
201.4833, 23667.25
201.9654, 23607.86
202.4475, 23608.31
202.9296, 23662.52
203.4117, 23691.48
203.8938, 23682.29
204.3760, 23653.84
204.8581, 23618.83
205.3402, 23577.58
205.8223, 23536.15
206.3044, 23494.46
206.7865, 23455.75
207.2687, 23433.41
207.7508, 23451.98
208.2329, 23479.94
208.7150, 23465.97
209.1971, 23395.54
209.6792, 23328.48
210.1614, 23322.66
210.6435, 23357.55
211.1256, 23390.19
211.6077, 23409.50
212.0898, 23415.33
212.5719, 23404.22
213.0541, 23368.22
213.5362, 23330.55
214.0183, 23306.10
214.5004, 23292.13
214.9825, 23282.94
215.4646, 23279.05
215.9468, 23278.47
216.4289, 23275.45
216.9110, 23281.41
217.3931, 23266.09
217.8752, 23199.33
218.3573, 23097.82
218.8395, 23009.65
219.3216, 22977.71
219.8037, 22996.72
220.2858, 22996.84
220.7679, 22962.23
221.2500, 22923.91
221.7322, 22893.93
222.2143, 22872.33
222.6964, 22856.46
223.1785, 22844.98
223.6606, 22837.97
224.1427, 22832.95
224.6249, 22829.33
225.1070, 22828.47
225.5891, 22836.11
226.0712, 22848.51
226.5533, 22854.32
227.0354, 22841.37
227.5176, 22806.98
227.9997, 22771.79
228.4818, 22729.78
228.9639, 22691.76
229.4460, 22662.77
229.9281, 22642.52
230.4103, 22626.94
230.8924, 22607.41
231.3745, 22574.52
231.8566, 22581.89
232.3387, 22681.01
232.8208, 22774.19
233.3030, 22817.14
233.7851, 22808.22
234.2672, 22770.00
234.7493, 22722.81
235.2314, 22658.08
235.7135, 22617.59
236.1957, 22614.63
236.6778, 22620.65
237.1599, 22621.57
237.6420, 22616.06
238.1241, 22611.31
238.6062, 22617.75
239.0884, 22645.71
239.5705, 22649.06
240.0526, 22619.40
240.5347, 22576.85
241.0168, 22518.04
241.4989, 22450.56
241.9811, 22307.15
242.4632, 22411.63
242.9453, 22465.01
243.4274, 22470.06
243.9095, 22281.98
244.3916, 22343.28
244.8738, 22304.64
245.3559, 22261.91
245.8380, 22358.31
246.3201, 22198.32
246.8022, 22292.51
247.2843, 22285.24
247.7665, 22324.41
248.2486, 22263.02
248.7307, 22232.69
249.2128, 22302.95
249.6949, 22317.51
250.1770, 22244.54
250.6592, 22286.66
251.1413, 22168.97
251.6234, 22091.14
252.1055, 22013.94
252.5876, 21989.60
253.0697, 22022.84
253.5519, 22077.63
254.0340, 22117.58
254.5161, 22141.29
254.9982, 22145.12
255.4803, 22105.99
255.9624, 22062.63
256.4445, 22049.22
256.9267, 22068.98
257.4088, 22096.19
257.8909, 22105.86
258.3730, 22094.37
258.8551, 22073.30
259.3372, 22020.27
259.8194, 21972.10
260.3015, 21968.68
260.7836, 22011.98
261.2657, 22058.16
261.7478, 22063.34
262.2299, 22019.51
262.7121, 21982.81
263.1942, 21962.54
263.6763, 21944.15
264.1584, 21904.95
264.6405, 21845.18
265.1227, 21804.94
265.6048, 21830.43
266.0869, 21927.80
266.5690, 21989.10
267.0511, 21992.77
267.5332, 21973.01
268.0154, 21953.59
268.4975, 21936.94
268.9796, 21921.10
269.4617, 21905.05
269.9438, 21888.39
270.4259, 21869.29
270.9081, 21844.31
271.3902, 21819.13
271.8723, 21795.94
272.3544, 21775.18
272.8365, 21762.28
273.3186, 21765.18
273.8008, 21781.77
274.2829, 21786.51
274.7650, 21768.09
275.2471, 21746.00
275.7292, 21729.96
276.2113, 21721.29
276.6935, 21729.44
277.1756, 21773.56
277.6577, 21841.85
278.1398, 21864.15
278.6219, 21773.51
279.1040, 21690.78
279.5862, 21720.39
280.0683, 21849.33
280.5504, 21968.31
281.0325, 22014.71
281.5146, 21993.02
281.9967, 21952.30
282.4789, 21861.02
282.9610, 21779.19
283.4431, 21752.91
283.9252, 21773.84
284.4073, 21793.59
284.8894, 21781.47
285.3716, 21753.35
285.8537, 21757.63
286.3358, 21814.33
286.8179, 21876.48
287.3000, 21925.96
287.7821, 21961.48
288.2643, 21972.03
288.7464, 21940.45
289.2285, 21891.34
289.7106, 21885.32
290.1927, 21937.36
290.6748, 22000.29
291.1570, 22069.66
291.6391, 22135.56
292.1212, 22160.73
292.6033, 22117.94
293.0854, 22043.92
293.5675, 22012.78
294.0497, 22029.11
294.5318, 22063.73
295.0139, 22114.28
295.4960, 22174.55
295.9781, 22231.37
296.4602, 22281.55
296.9424, 22324.36
297.4245, 22359.04
297.9066, 22389.53
298.3887, 22402.82
298.8708, 22378.85
299.3529, 22337.82
299.8351, 22313.96
300.3172, 22316.07
300.7993, 22337.24
301.2814, 22374.93
301.7635, 22430.99
302.2456, 22478.63
302.7278, 22517.26
303.2099, 22541.64
303.6920, 22535.63
304.1741, 22492.91
304.6562, 22448.41
305.1383, 22446.39
305.6205, 22489.52
306.1026, 22523.24
306.5847, 22532.69
307.0668, 22533.69
307.5489, 22544.06
308.0310, 22566.12
308.5132, 22587.27
308.9953, 22596.16
309.4774, 22591.93
309.9595, 22584.04
310.4416, 22567.64
310.9237, 22551.47
311.4059, 22545.28
311.8880, 22548.38
312.3701, 22547.33
312.8522, 22527.09
313.3343, 22490.91
313.8164, 22481.44
314.2986, 22524.09
314.7807, 22569.44
315.2628, 22589.65
315.7449, 22587.25
316.2270, 22575.52
316.7091, 22558.28
317.1913, 22539.80
317.6734, 22543.54
318.1555, 22608.69
318.6376, 22651.16
319.1197, 22619.19
319.6018, 22539.80
320.0840, 22478.53
320.5661, 22470.40
321.0482, 22496.42
321.5303, 22493.27
322.0124, 22432.98
322.4945, 22386.48
322.9767, 22374.13
323.4588, 22383.31
323.9409, 22400.02
324.4230, 22420.32
324.9051, 22435.72
325.3872, 22427.43
325.8694, 22374.38
326.3515, 22335.01
326.8336, 22315.46
327.3157, 22310.75
327.7978, 22321.39
328.2799, 22346.42
328.7621, 22372.58
329.2442, 22381.63
329.7263, 22366.63
330.2084, 22348.83
330.6905, 22317.33
331.1726, 22290.78
331.6548, 22282.95
332.1369, 22294.98
332.6190, 22320.38
333.1011, 22356.04
333.5832, 22408.79
334.0653, 22429.77
334.5475, 22389.29
335.0296, 22350.56
335.5117, 22354.29
335.9938, 22389.32
336.4759, 22413.13
336.9580, 22389.67
337.4402, 22320.11
337.9223, 22280.30
338.4044, 22288.56
338.8865, 22305.48
339.3686, 22332.71
339.8507, 22360.24
340.3329, 22369.58
340.8150, 22348.25
341.2971, 22307.31
341.7792, 22295.62
342.2613, 22371.67
342.7434, 22402.23
343.2256, 22336.75
343.7077, 22234.87
344.1898, 22156.76
344.6719, 22126.34
345.1540, 22133.25
345.6361, 22163.34
346.1183, 22250.54
346.6004, 22292.55
347.0825, 22254.86
347.5646, 22196.54
348.0467, 22158.07
348.5288, 22148.40
349.0110, 22151.21
349.4931, 22149.23
349.9752, 22144.60
350.4573, 22126.29
350.9394, 22063.11
351.4215, 22011.71
351.9037, 22017.21
352.3858, 22065.56
352.8679, 22096.55
353.3500, 22035.51
353.8321, 21887.60
354.3142, 21834.39
354.7964, 21964.86
355.2785, 22086.13
355.7606, 22119.49
356.2427, 22088.50
356.7248, 22041.53
357.2069, 21997.93
357.6891, 21962.09
358.1712, 21950.57
358.6533, 21975.55
359.1354, 21997.37
359.6175, 22003.28
360.0996, 21996.53
360.5818, 21977.85
361.0639, 21944.59
361.5460, 21906.63
362.0281, 21873.90
362.5102, 21845.24
362.9923, 21831.78
363.4745, 21850.73
363.9566, 21878.03
364.4387, 21888.52
364.9208, 21877.85
365.4029, 21865.28
365.8850, 21855.77
366.3672, 21853.26
366.8493, 21888.15
367.3314, 21996.30
367.8135, 22099.24
368.2956, 22105.89
368.7777, 22024.22
369.2599, 21943.98
369.7420, 21893.01
370.2241, 21869.41
370.7062, 21881.75
371.1883, 21938.31
371.6704, 21988.00
372.1526, 21977.26
372.6347, 21917.62
373.1168, 21876.85
373.5989, 21877.33
374.0810, 21889.09
374.5631, 21890.75
375.0453, 21881.74
375.5274, 21864.37
376.0095, 21837.32
376.4916, 21803.55
376.9737, 21775.92
377.4558, 21744.72
377.9380, 21729.23
378.4201, 21754.52
378.9022, 21798.64
379.3843, 21815.67
379.8664, 21785.49
380.3485, 21729.91
380.8307, 21693.76
381.3128, 21681.64
381.7949, 21680.98
382.2770, 21704.21
382.7591, 21731.36
383.2412, 21746.54
383.7234, 21745.68
384.2055, 21727.32
384.6876, 21685.82
385.1697, 21608.56
385.6518, 21564.08
386.1339, 21574.62
386.6161, 21591.20
387.0982, 21588.24
387.5803, 21569.96
388.0624, 21554.25
388.5445, 21554.13
389.0266, 21568.46
389.5088, 21585.04
389.9909, 21624.67
390.4730, 21641.26
390.9551, 21617.89
391.4372, 21570.21
391.9193, 21510.41
392.4015, 21442.72
392.8836, 21383.57
393.3657, 21372.53
393.8478, 21436.00
394.3299, 21482.77
394.8120, 21488.33
395.2942, 21482.45
395.7763, 21487.63
396.2584, 21506.05
396.7405, 21518.98
397.2226, 21500.31
397.7047, 21449.78
398.1869, 21419.82
398.6690, 21428.42
399.1511, 21441.42
399.6332, 21437.32
400.1153, 21421.34
400.5974, 21409.38
401.0796, 21414.72
401.5617, 21428.49
402.0438, 21425.96
402.5259, 21400.08
403.0080, 21386.73
403.4901, 21425.21
403.9723, 21483.31
404.4544, 21510.25
404.9365, 21485.73
405.4186, 21447.92
405.9007, 21425.07
406.3828, 21415.52
406.8650, 21411.05
407.3471, 21409.58
407.8292, 21410.76
408.3113, 21412.39
408.7934, 21411.88
409.2755, 21421.27
409.7577, 21452.26
410.2398, 21491.97
410.7219, 21526.58
411.2040, 21553.45
411.6861, 21565.92
412.1682, 21554.67
412.6504, 21515.88
413.1325, 21480.89
413.6146, 21439.10
414.0967, 21410.34
414.5788, 21403.65
415.0609, 21419.24
415.5431, 21461.82
416.0252, 21540.13
416.5073, 21638.46
416.9894, 21683.06
417.4715, 21583.12
417.9536, 21539.35
418.4358, 21632.73
418.9179, 21763.41
419.4000, 21812.42
419.8821, 21747.72
420.3642, 21645.69
420.8463, 21626.42
421.3285, 21727.30
421.8106, 21809.25
422.2927, 21870.97
422.7748, 21915.83
423.2569, 21931.25
423.7390, 21927.71
424.2212, 21936.44
424.7033, 21986.60
425.1854, 22069.58
425.6675, 22132.74
426.1496, 22164.24
426.6317, 22194.40
427.1139, 22230.16
427.5960, 22272.68
428.0781, 22326.65
428.5602, 22397.12
429.0423, 22468.61
429.5244, 22516.46
430.0066, 22539.90
430.4887, 22576.59
430.9708, 22650.08
431.4529, 22728.86
431.9350, 22770.01
432.4171, 22770.76
432.8993, 22788.59
433.3814, 22875.36
433.8635, 22991.40
434.3456, 23055.10
434.8277, 23049.65
435.3098, 23042.98
435.7920, 23096.90
436.2741, 23207.50
436.7562, 23299.83
437.2383, 23353.42
437.7204, 23404.56
438.2025, 23486.97
438.6847, 23586.09
439.1668, 23657.59
439.6489, 23677.73
440.1310, 23662.34
440.6131, 23653.80
441.0952, 23663.72
441.5774, 23664.06
442.0595, 23656.41
442.5416, 23636.94
443.0237, 23601.53
443.5058, 23549.86
443.9879, 23484.84
444.4701, 23406.93
444.9522, 23312.89
445.4343, 23231.22
445.9164, 23174.13
446.3985, 23117.44
446.8806, 23060.13
447.3628, 22997.25
447.8449, 22920.64
448.3270, 22824.14
448.8091, 22714.63
449.2912, 22605.21
449.7733, 22491.26
450.2555, 22391.34
450.7376, 22323.94
451.2197, 22264.06
451.7018, 22189.42
452.1839, 22097.22
452.6660, 22009.61
453.1482, 21951.56
453.6303, 21915.28
454.1124, 21863.89
454.5945, 21788.71
455.0766, 21707.06
455.5587, 21628.96
456.0409, 21555.11
456.5230, 21491.38
457.0051, 21449.68
457.4872, 21410.01
457.9693, 21353.84
458.4514, 21282.88
458.9336, 21205.40
459.4156, 21119.07
459.8978, 21036.54
460.3799, 20997.25
460.8620, 21025.94
461.3441, 21042.97
461.8262, 21025.06
462.3083, 20993.74
462.7905, 20975.38
463.2726, 20972.96
463.7547, 20837.66
464.2368, 20922.70
464.7189, 20956.64
465.2010, 20942.25
465.6832, 20734.72
466.1653, 20776.58
466.6474, 20718.50
467.1295, 20656.33
467.6116, 20733.29
468.0938, 20553.85
468.5759, 20628.61
469.0580, 20601.89
469.5401, 20621.62
470.0222, 20540.79
470.5043, 20491.02
470.9865, 20541.83
471.4686, 20472.86
471.9507, 20487.24
472.4328, 20502.96
472.9149, 20495.38
473.3970, 20472.01
473.8792, 20463.32
474.3613, 20477.39
474.8434, 20486.02
475.3255, 20474.52
475.8076, 20443.68
476.2897, 20390.59
476.7719, 20290.43
477.2540, 20199.19
477.7361, 20159.32
478.2182, 20160.07
478.7003, 20136.30
479.1824, 20170.78
479.6646, 20188.23
480.1467, 20189.57
480.6288, 20126.53
481.1109, 20146.62
481.5930, 20133.40
482.0751, 20118.81
482.5573, 20150.60
483.0394, 20096.92
483.5215, 20127.98
484.0036, 20125.21
484.4857, 20137.92
484.9678, 20117.11
485.4500, 20106.66
485.9321, 20129.73
486.4142, 20134.24
486.8963, 20109.57
487.3784, 20123.27
487.8605, 20068.42
488.3427, 20073.72
488.8248, 20104.97
489.3069, 20081.99
489.7890, 20096.30
490.2711, 20096.41
490.7532, 20031.97
491.2354, 20079.78
491.7175, 20079.05
492.1996, 20028.47
492.6817, 20018.77
493.1638, 19978.54
493.6459, 19943.02
494.1281, 19912.66
494.6102, 19894.03
495.0923, 19890.51
495.5744, 19899.01
496.0565, 19918.83
496.5386, 19955.89
497.0208, 19977.20
497.5029, 19971.34
497.9850, 19948.24
498.4671, 19906.07
498.9492, 19850.74
499.4313, 19812.89
499.9135, 19820.66
500.3956, 19869.48
500.8777, 19899.17
501.3598, 19895.36
501.8419, 19889.44
502.3240, 19890.07
502.8062, 19889.48
503.2883, 19873.31
503.7704, 19839.14
504.2525, 19807.15
504.7346, 19807.73
505.2167, 19847.07
505.6989, 19875.46
506.1810, 19886.28
506.6631, 19891.78
507.1452, 19893.81
507.6273, 19895.52
508.1094, 19903.97
508.5916, 19925.82
509.0737, 19951.24
509.5558, 19972.19
510.0379, 19988.04
510.5200, 19979.79
511.0021, 19928.13
511.4843, 19864.08
511.9664, 19836.48
512.4485, 19848.05
512.9306, 19863.03
513.4127, 19867.61
513.8948, 19874.41
514.3770, 19905.92
514.8591, 19957.52
515.3412, 19990.82
515.8233, 19974.87
516.3054, 19920.26
516.7875, 19895.45
517.2697, 19921.50
517.7518, 19952.55
518.2339, 20002.81
518.7160, 20045.80
519.1981, 20047.56
519.6802, 20005.82
520.1624, 19958.17
520.6445, 19952.62
521.1266, 19990.95
521.6087, 19995.57
522.0908, 19938.44
522.5729, 19888.96
523.0551, 19887.73
523.5372, 19910.44
524.0193, 19916.59
524.5014, 19886.26
524.9835, 19854.29
525.4656, 19862.32
525.9478, 19901.82
526.4299, 19927.53
526.9120, 19926.24
527.3941, 19912.25
527.8762, 19898.22
528.3583, 19883.70
528.8405, 19879.55
529.3226, 19901.87
529.8047, 19921.48
530.2868, 19910.04
530.7689, 19879.40
531.2510, 19868.03
531.7332, 19897.54
532.2153, 19944.37
532.6974, 19946.91
533.1795, 19855.78
533.6616, 19811.24
534.1437, 19857.87
534.6259, 19910.62
535.1080, 19919.95
535.5901, 19886.26
536.0722, 19831.50
536.5543, 19760.18
537.0364, 19685.84
537.5186, 19656.71
538.0007, 19683.64
538.4828, 19715.08
538.9649, 19743.42
539.4470, 19758.95
539.9291, 19743.68
540.4113, 19690.67
540.8934, 19648.01
541.3755, 19647.96
541.8576, 19669.82
542.3397, 19684.37
542.8218, 19687.88
543.3040, 19682.33
543.7861, 19667.00
544.2682, 19643.60
544.7503, 19627.42
545.2324, 19620.20
545.7145, 19616.88
546.1967, 19619.27
546.6788, 19623.77
547.1609, 19628.15
547.6430, 19631.22
548.1251, 19630.69
548.6072, 19625.43
549.0894, 19615.77
549.5715, 19590.70
550.0536, 19526.84
550.5357, 19482.13
551.0178, 19482.80
551.4999, 19510.88
551.9821, 19546.28
552.4642, 19587.66
552.9463, 19617.46
553.4284, 19606.23
553.9105, 19567.02
554.3926, 19557.22
554.8748, 19593.93
555.3569, 19636.08
555.8390, 19637.00
556.3211, 19598.76
556.8032, 19602.58
557.2853, 19694.68
557.7675, 19782.02
558.2496, 19805.43
558.7317, 19797.97
559.2138, 19824.87
559.6959, 19908.26
560.1780, 20004.50
560.6602, 20041.98
561.1423, 19998.59
561.6244, 19985.24
562.1065, 20010.25
562.5886, 20059.71
563.0707, 20143.36
563.5529, 20246.20
564.0350, 20343.93
564.5171, 20425.68
564.9992, 20498.82
565.4813, 20568.73
565.9634, 20636.22
566.4456, 20715.17
566.9277, 20811.58
567.4098, 20915.96
567.8919, 21024.40
568.3740, 21135.42
568.8561, 21230.81
569.3383, 21292.35
569.8204, 21352.08
570.3025, 21431.11
570.7846, 21525.40
571.2667, 21625.55
571.7488, 21727.66
572.2310, 21827.03
572.7131, 21912.18
573.1952, 21975.04
573.6773, 22046.37
574.1594, 22131.07
574.6415, 22218.79
575.1237, 22319.39
575.6058, 22418.15
576.0879, 22486.20
576.5700, 22506.55
577.0521, 22497.89
577.5342, 22491.62
578.0164, 22487.89
578.4985, 22455.98
578.9806, 22377.01
579.4627, 22285.70
579.9448, 22224.94
580.4269, 22190.03
580.9091, 22133.57
581.3912, 22034.70
581.8733, 21922.26
582.3554, 21827.93
582.8375, 21735.54
583.3196, 21590.10
583.8018, 21367.41
584.2839, 21120.40
584.7660, 20944.99
585.2481, 20874.92
585.7302, 20782.37
586.2123, 20647.98
586.6945, 20511.34
587.1766, 20385.70
587.6587, 20270.02
588.1408, 20161.69
588.6229, 20062.71
589.1050, 19960.11
589.5872, 19824.43
590.0693, 19657.16
590.5514, 19524.13
591.0335, 19451.01
591.5156, 19392.38
591.9977, 19291.27
592.4799, 19156.51
592.9620, 19063.07
593.4441, 19053.61
593.9262, 19056.20
594.4083, 19029.45
594.8904, 18984.10
595.3726, 18942.00
595.8547, 18911.08
596.3368, 18890.99
596.8189, 18885.73
597.3010, 18904.48
597.7831, 18893.96
598.2653, 18838.92
598.7474, 18768.51
599.2295, 18668.98
599.7116, 18566.74
600.1937, 18502.55
600.6758, 18494.76
601.1580, 18510.19
601.6401, 18524.46
602.1222, 18534.33
602.6043, 18517.43
603.0864, 18462.67
603.5685, 18410.36
604.0507, 18397.06
604.5328, 18419.45
605.0149, 18431.78
605.4970, 18428.95
605.9791, 18422.29
606.4612, 18411.06
606.9434, 18400.30
607.4255, 18398.15
607.9076, 18405.45
608.3897, 18413.49
608.8718, 18411.43
609.3539, 18399.67
609.8361, 18399.27
610.3182, 18416.90
610.8003, 18434.88
611.2824, 18452.93
611.7645, 18465.45
612.2466, 18462.26
612.7288, 18440.22
613.2109, 18423.14
613.6930, 18425.68
614.1751, 18444.09
614.6572, 18474.03
615.1393, 18514.89
615.6215, 18560.80
616.1036, 18611.41
616.5857, 18662.29
617.0678, 18698.12
617.5499, 18690.43
618.0320, 18707.36
618.5142, 18773.98
618.9963, 18849.18
619.4784, 18888.05
619.9605, 18902.69
620.4426, 18951.66
620.9247, 19088.72
