##NAMES=Catapleiite
##RRUFFID=R060208
##IDEAL CHEMISTRY=Na_2_Zr^4+^Si_3_O_9_&#183;2H_2_O
##LOCALITY=Mont Saint-Hilaire, Rouville County, Quebec, Canada
##OWNER=RRUFF
##SOURCE=Royal Ontario Museum
##DESCRIPTION=Colorless transparent thin tabular pseudohexagonal crystal
##STATUS=The identification of this mineral is confirmed by single-crystal X-ray diffraction and chemical analysis.
##URL=rruff.info/R060208
##MEASURED CHEMISTRY=Na_2.00_Zr_1.00_Si_3.00_O_9_Â·2H_2_O
92.07813, 6.400276
92.56024, 6.370788
93.04236, 6.392599
93.52448, 6.452768
94.00659, 6.503461
94.48871, 6.501870
94.97083, 6.469574
95.45294, 6.468630
95.93506, 6.513906
96.41718, 6.576880
96.89929, 6.638337
97.38141, 6.698901
97.86353, 6.679753
98.34564, 6.409227
98.82776, 5.913037
99.30988, 5.702203
99.79199, 5.951485
100.2741, 6.513618
100.7562, 6.832369
101.2383, 6.869751
101.7205, 6.769162
102.2026, 6.635616
102.6847, 6.453693
103.1668, 6.301732
103.6489, 6.195456
104.1310, 6.136162
104.6132, 6.108276
105.0953, 6.137225
105.5774, 6.173781
106.0595, 6.143119
106.5416, 5.941957
107.0237, 5.834263
107.5059, 5.930603
107.9880, 6.363682
108.4701, 6.580768
108.9522, 6.413043
109.4343, 6.062346
109.9164, 5.892623
110.3986, 6.160645
110.8807, 6.396747
111.3628, 6.443866
111.8449, 6.082010
112.3270, 5.884132
112.8091, 5.932273
113.2913, 6.175783
113.7734, 6.468773
114.2555, 6.861623
114.7376, 7.254233
115.2197, 7.589251
115.7018, 7.802634
116.1840, 8.022779
116.6661, 8.190611
117.1482, 8.350811
117.6303, 8.733665
118.1124, 9.574121
118.5945, 10.61545
119.0767, 11.62830
119.5588, 12.46072
120.0409, 13.32358
120.5230, 14.31788
121.0051, 15.43746
121.4872, 16.65064
121.9694, 17.77825
122.4515, 19.00775
122.9336, 20.60627
123.4157, 22.95483
123.8978, 25.55174
124.3799, 27.89818
124.8621, 29.95340
125.3442, 32.04094
125.8263, 34.38275
126.3084, 36.96535
126.7905, 39.76818
127.2726, 42.93963
127.7548, 46.26401
128.2369, 49.37770
128.7190, 52.24665
129.2011, 54.93139
129.6832, 57.45112
130.1653, 59.80808
130.6474, 62.15628
131.1296, 64.57158
131.6117, 67.03246
132.0938, 69.48612
132.5759, 71.83112
133.0580, 74.34207
133.5401, 77.61281
134.0223, 81.67252
134.5044, 85.88262
134.9865, 89.65784
135.4686, 93.05861
135.9507, 96.96183
136.4328, 101.6079
136.9150, 106.8530
137.3971, 112.1594
137.8792, 117.5694
138.3613, 122.9892
138.8434, 128.4540
139.3255, 134.0092
139.8077, 139.1436
140.2898, 143.7717
140.7719, 147.8897
141.2540, 151.9325
141.7361, 156.0521
142.2182, 159.7744
142.7004, 162.4556
143.1825, 163.4897
143.6646, 164.9448
144.1467, 167.4072
144.6288, 171.0110
145.1109, 173.9592
145.5931, 176.0254
146.0752, 177.6392
146.5573, 179.3128
147.0394, 180.9044
147.5215, 182.7488
148.0036, 184.8815
148.4858, 187.3391
148.9679, 190.0735
149.4500, 193.2080
149.9321, 196.5878
150.4142, 199.9066
150.8963, 202.5569
151.3785, 205.7774
151.8606, 210.0159
152.3427, 216.0603
152.8248, 221.4374
153.3069, 225.6619
153.7890, 229.2543
154.2712, 232.4184
154.7533, 234.8238
155.2354, 236.8734
155.7175, 238.2922
156.1996, 238.7693
156.6817, 239.1324
157.1639, 239.6933
157.6460, 240.2268
158.1281, 240.2268
158.6102, 239.3710
159.0923, 238.1333
159.5744, 236.7280
160.0566, 235.1516
160.5387, 233.5133
161.0208, 232.1704
161.5029, 230.8666
161.9850, 228.8328
162.4671, 225.2393
162.9493, 221.1825
163.4314, 217.4050
163.9135, 214.2898
164.3956, 211.1996
164.8777, 207.8347
165.3598, 204.2365
165.8420, 200.5814
166.3241, 197.0548
166.8062, 193.4546
167.2883, 189.5707
167.7704, 184.7956
168.2525, 180.2681
168.7346, 176.8431
169.2168, 174.3614
169.6989, 171.8365
170.1810, 168.5871
170.6631, 164.9886
171.1452, 161.4729
171.6273, 158.2200
172.1095, 155.1213
172.5916, 152.0611
173.0737, 149.0432
173.5558, 146.1174
174.0379, 143.3299
174.5201, 140.6660
175.0022, 138.0509
175.4843, 135.3916
175.9664, 132.7840
176.4485, 130.4388
176.9306, 128.3292
177.4128, 126.3018
177.8949, 124.2409
178.3770, 122.1721
178.8591, 120.1050
179.3412, 117.9375
179.8233, 115.8075
180.3055, 113.9927
180.7876, 112.4928
181.2697, 111.0347
181.7518, 109.2605
182.2339, 107.2805
182.7160, 105.3872
183.1982, 103.6622
183.6803, 102.1288
184.1624, 100.9223
184.6445, 100.0817
185.1266, 99.34227
185.6087, 98.39592
186.0909, 97.27237
186.5730, 96.17966
187.0551, 95.18130
187.5372, 94.27874
188.0193, 93.44981
188.5014, 92.69904
188.9836, 92.00847
189.4657, 91.33894
189.9478, 90.69506
190.4299, 90.07282
190.9120, 89.41382
191.3941, 88.75732
191.8763, 88.36984
192.3584, 88.32281
192.8405, 88.34946
193.3226, 87.99788
193.8047, 87.26739
194.2868, 86.61465
194.7690, 86.27196
195.2511, 86.22088
195.7332, 86.18926
196.2153, 86.18189
196.6974, 86.17463
197.1795, 86.11504
197.6617, 85.99863
198.1438, 85.89951
198.6259, 85.85395
199.1080, 85.86222
199.5901, 85.89490
200.0722, 85.96043
200.5544, 86.03561
201.0365, 86.02749
201.5186, 85.89888
202.0007, 85.91283
202.4828, 86.32980
202.9649, 87.20908
203.4471, 87.60454
203.9292, 87.36548
204.4113, 86.80260
204.8934, 86.51173
205.3755, 86.52840
205.8576, 86.67561
206.3398, 86.93234
206.8219, 87.34274
207.3040, 87.54374
207.7861, 87.46883
208.2682, 87.24162
208.7503, 87.09698
209.2325, 87.02894
209.7146, 87.06715
210.1967, 87.29321
210.6788, 87.80006
211.1609, 88.03706
211.6430, 87.93952
212.1252, 87.61497
212.6073, 87.28220
213.0894, 86.91943
213.5715, 86.60890
214.0536, 86.41576
214.5357, 86.39976
215.0179, 86.26797
215.5000, 85.97976
215.9821, 85.59936
216.4642, 85.28037
216.9463, 85.07041
217.4284, 84.82375
217.9105, 84.46540
218.3927, 83.96312
218.8748, 83.45974
219.3569, 82.92928
219.8390, 82.41228
220.3211, 81.98811
220.8032, 81.67000
221.2854, 81.41821
221.7675, 81.26111
222.2496, 81.33105
222.7317, 81.04977
223.2138, 80.18977
223.6959, 79.09148
224.1781, 78.52510
224.6602, 78.78620
225.1423, 79.06786
225.6244, 79.04545
226.1065, 78.64324
226.5886, 78.13986
227.0708, 77.40459
227.5529, 76.62814
228.0350, 76.24076
228.5171, 76.49399
228.9992, 76.70841
229.4813, 76.60354
229.9635, 76.04851
230.4456, 75.58717
230.9277, 75.25839
231.4098, 75.00861
231.8919, 74.72122
232.3740, 74.33286
232.8562, 74.01381
233.3383, 73.82890
233.8204, 73.80465
234.3025, 73.84492
234.7846, 74.04154
235.2667, 74.25425
235.7489, 74.18582
236.2310, 73.57966
236.7131, 73.11431
237.1952, 73.08178
237.6773, 73.68432
238.1594, 73.96453
238.6416, 73.75961
239.1237, 73.33293
239.6058, 73.11487
240.0879, 73.21822
240.5700, 73.34290
241.0521, 73.36983
241.5343, 73.23496
242.0164, 73.30523
242.4985, 73.74291
242.9806, 74.27340
243.4627, 74.48389
243.9448, 74.22703
244.4270, 73.89480
244.9091, 73.56815
245.3912, 73.22798
245.8733, 73.00733
246.3554, 73.03616
246.8375, 73.07798
247.3197, 72.78335
247.8018, 71.89548
248.2839, 71.13571
248.7660, 70.73038
249.2481, 70.73880
249.7302, 70.60897
250.2124, 70.20130
250.6945, 69.78489
251.1766, 69.70705
251.6587, 70.22350
252.1408, 70.57505
252.6229, 70.52151
253.1051, 70.02136
253.5872, 69.75239
254.0693, 69.75777
254.5514, 69.93808
255.0335, 70.20292
255.5156, 70.56796
255.9978, 70.98502
256.4799, 71.50697
256.9620, 72.13186
257.4441, 72.47050
257.9262, 72.42424
258.4083, 72.21893
258.8904, 72.03268
259.3726, 71.82430
259.8547, 71.73972
260.3368, 71.85214
260.8189, 72.13670
261.3010, 72.27062
261.7831, 72.13341
262.2653, 72.03455
262.7474, 72.28449
263.2295, 73.10423
263.7116, 73.61954
264.1937, 73.60644
264.6758, 73.18354
265.1580, 73.04700
265.6401, 73.31497
266.1222, 73.65128
266.6043, 73.84265
267.0864, 73.88577
267.5685, 73.77601
268.0507, 73.40301
268.5328, 72.90191
269.0149, 72.82394
269.4970, 73.31680
269.9791, 73.88179
270.4612, 74.22630
270.9434, 74.29924
271.4255, 74.39331
271.9076, 74.55862
272.3897, 74.73496
272.8718, 74.70650
273.3539, 74.36939
273.8361, 74.16249
274.3182, 74.34890
274.8003, 74.97268
275.2824, 75.64845
275.7645, 76.41140
276.2466, 77.15585
276.7288, 77.62560
277.2109, 77.75844
277.6930, 77.91538
278.1751, 78.22364
278.6572, 78.68138
279.1393, 79.37329
279.6215, 80.36388
280.1036, 81.46668
280.5857, 82.35708
281.0678, 83.00130
281.5499, 83.74590
282.0320, 84.80175
282.5142, 86.13370
282.9963, 87.13947
283.4784, 87.74723
283.9605, 88.25121
284.4426, 88.96435
284.9247, 89.88584
285.4069, 91.05384
285.8890, 92.60874
286.3711, 94.42593
286.8532, 95.93770
287.3353, 97.11126
287.8174, 98.16444
288.2996, 99.23805
288.7817, 100.3472
289.2638, 101.6199
289.7459, 103.0928
290.2280, 104.7490
290.7101, 106.6924
291.1923, 108.9543
291.6744, 111.1170
292.1565, 112.7954
292.6386, 114.0644
293.1207, 115.2940
293.6028, 116.5577
294.0850, 117.8268
294.5671, 119.1752
295.0492, 120.5873
295.5313, 121.8276
296.0134, 122.7324
296.4955, 123.3248
296.9777, 123.6246
297.4598, 123.5799
297.9419, 123.3579
298.4240, 123.2112
298.9061, 123.1126
299.3882, 122.9123
299.8704, 122.6463
300.3525, 122.1987
300.8346, 121.2391
301.3167, 119.6502
301.7988, 117.9415
302.2809, 116.6291
302.7631, 115.6414
303.2452, 114.7197
303.7273, 113.7578
304.2094, 112.7844
304.6915, 111.8455
305.1736, 110.9330
305.6558, 110.0768
306.1379, 109.3098
306.6200, 108.6137
307.1021, 107.9572
307.5842, 107.2370
308.0663, 106.5979
308.5485, 106.2022
309.0306, 106.0455
309.5127, 105.9459
309.9948, 105.7956
310.4769, 105.6212
310.9590, 105.4608
311.4412, 105.3888
311.9233, 105.2706
312.4054, 104.9719
312.8875, 104.5230
313.3696, 104.0947
313.8517, 103.9294
314.3339, 103.7586
314.8160, 103.3251
315.2981, 102.4102
315.7802, 101.4795
316.2623, 100.8254
316.7444, 100.3491
317.2266, 99.76957
317.7087, 98.79756
318.1908, 97.81160
318.6729, 97.05869
319.1550, 96.65965
319.6371, 96.26997
320.1193, 95.82532
320.6014, 95.30887
321.0835, 94.68530
321.5656, 93.66306
322.0477, 92.77391
322.5298, 92.29355
323.0120, 92.33180
323.4941, 92.29261
323.9762, 91.98415
324.4583, 91.56217
324.9404, 91.19547
325.4225, 90.95717
325.9047, 90.72831
326.3868, 90.54855
326.8689, 90.42486
327.3510, 90.08912
327.8331, 89.38331
328.3152, 88.54570
328.7974, 87.74063
329.2795, 86.90791
329.7616, 86.18199
330.2437, 85.63368
330.7258, 85.22707
331.2079, 84.74783
331.6901, 84.13934
332.1722, 83.51278
332.6543, 82.93164
333.1364, 82.53053
333.6185, 81.92168
334.1006, 80.99575
334.5828, 79.89083
335.0649, 78.94881
335.5470, 78.17498
336.0291, 77.54130
336.5112, 77.09151
336.9933, 76.89321
337.4755, 76.48962
337.9576, 75.76881
338.4397, 74.97947
338.9218, 74.49453
339.4039, 74.42744
339.8860, 74.26756
340.3681, 73.83912
340.8503, 73.16501
341.3324, 72.58901
341.8145, 72.09204
342.2966, 71.73148
342.7787, 71.66957
343.2608, 71.93583
343.7430, 71.85668
344.2251, 71.16492
344.7072, 70.13866
345.1893, 69.65808
345.6714, 69.75463
346.1535, 69.94984
346.6357, 69.90955
347.1178, 69.66903
347.5999, 69.42231
348.0820, 69.16502
348.5641, 68.96644
349.0462, 68.95982
349.5284, 69.12654
350.0105, 69.32551
350.4926, 69.51833
350.9747, 69.68491
351.4568, 69.74838
351.9389, 69.69263
352.4211, 69.65646
352.9032, 69.81844
353.3853, 70.11312
353.8674, 70.38038
354.3495, 70.47948
354.8316, 70.56844
355.3138, 70.89623
355.7959, 71.43670
356.2780, 71.90861
356.7601, 71.89902
357.2422, 71.78103
357.7243, 72.09632
358.2065, 73.35372
358.6886, 74.51616
359.1707, 74.56010
359.6528, 73.86464
360.1349, 73.57344
360.6170, 74.69511
361.0992, 76.13428
361.5813, 77.08505
362.0634, 77.27851
362.5455, 77.44547
363.0276, 77.93208
363.5097, 78.56220
363.9919, 79.07398
364.4740, 79.18446
364.9561, 79.34697
365.4382, 79.80492
365.9203, 80.60625
366.4024, 81.24363
366.8846, 81.48635
367.3667, 81.60048
367.8488, 81.80156
368.3309, 82.11965
368.8130, 82.52119
369.2951, 83.13265
369.7773, 83.89040
370.2594, 84.34538
370.7415, 84.25802
371.2236, 84.09509
371.7057, 84.05802
372.1878, 84.15507
372.6700, 84.37807
373.1521, 84.83208
373.6342, 85.36510
374.1163, 85.66481
374.5984, 85.61938
375.0805, 85.55510
375.5627, 85.59877
376.0448, 85.77051
376.5269, 85.78421
377.0090, 85.60271
377.4911, 85.32655
377.9732, 85.00799
378.4554, 84.61288
378.9375, 84.43030
379.4196, 84.60742
379.9017, 85.00590
380.3838, 85.08509
380.8659, 84.80962
381.3481, 84.49147
381.8302, 84.36846
382.3123, 84.41589
382.7944, 84.46146
383.2765, 84.50089
383.7586, 84.49999
384.2408, 84.35530
384.7229, 84.09740
385.2050, 83.90379
385.6871, 83.91587
386.1692, 84.04297
386.6513, 84.12697
387.1335, 84.16354
387.6156, 84.14876
388.0977, 84.00111
388.5798, 83.80721
389.0619, 83.73361
389.5440, 83.94036
390.0262, 84.18517
390.5083, 84.19625
390.9904, 84.02855
391.4725, 83.94190
391.9546, 84.21839
392.4367, 84.56849
392.9189, 84.73495
393.4010, 84.61811
393.8831, 84.43850
394.3652, 84.20835
394.8473, 84.00158
395.3294, 83.94068
395.8116, 84.09629
396.2937, 84.38274
396.7758, 84.79774
397.2579, 85.35306
397.7400, 85.90447
398.2221, 86.35378
398.7043, 86.81934
399.1864, 87.39586
399.6685, 88.23375
400.1506, 89.01688
400.6327, 89.66385
401.1148, 90.21564
401.5970, 90.86620
402.0791, 91.55545
402.5612, 92.40317
403.0433, 93.50465
403.5254, 95.03337
404.0075, 96.30926
404.4897, 97.18540
404.9718, 97.93974
405.4539, 98.97025
405.9360, 100.2825
406.4181, 101.8806
406.9002, 103.8328
407.3824, 106.0937
407.8645, 108.3349
408.3466, 110.4876
408.8287, 112.8814
409.3108, 115.9437
409.7929, 119.6291
410.2751, 123.1701
410.7572, 126.4052
411.2393, 129.5694
411.7214, 132.8911
412.2035, 136.4145
412.6856, 140.4635
413.1678, 145.3842
413.6499, 150.9414
414.1320, 156.6728
414.6141, 162.6076
415.0962, 168.6959
415.5783, 175.0306
416.0605, 181.5163
416.5426, 188.0947
417.0247, 194.7121
417.5068, 201.4645
417.9889, 208.2853
418.4710, 215.2378
418.9532, 222.8125
419.4353, 231.3690
419.9174, 240.5371
420.3995, 249.8579
420.8816, 259.2079
421.3637, 269.0845
421.8459, 279.7047
422.3280, 290.9242
422.8101, 302.6888
423.2922, 315.0817
423.7743, 327.7961
424.2564, 340.7918
424.7386, 354.0421
425.2207, 367.0413
425.7028, 379.4913
426.1849, 391.7462
426.6670, 404.0766
427.1491, 417.3057
427.6313, 429.3527
428.1134, 440.4381
428.5955, 450.1646
429.0776, 457.4576
429.5597, 462.4153
430.0418, 464.9055
430.5240, 464.8442
431.0061, 462.2085
431.4882, 457.5721
431.9703, 450.9090
432.4524, 442.3317
432.9345, 431.8430
433.4167, 419.4806
433.8988, 405.4648
434.3809, 389.6707
434.8630, 372.7159
435.3451, 355.9365
435.8272, 339.3498
436.3094, 323.5136
436.7915, 309.0001
437.2736, 295.4433
437.7557, 282.0938
438.2378, 268.7290
438.7199, 256.0563
439.2020, 244.9104
439.6841, 234.9804
440.1663, 225.6284
440.6484, 216.4898
441.1305, 207.8593
441.6126, 200.1854
442.0947, 193.3562
442.5768, 186.9093
443.0590, 180.5106
443.5411, 174.4489
444.0232, 168.9960
444.5053, 164.4030
444.9874, 159.9520
445.4695, 155.2272
445.9517, 150.5779
446.4338, 146.5191
446.9159, 143.6628
447.3980, 140.8867
447.8801, 137.8246
448.3622, 134.4146
448.8444, 131.4343
449.3265, 129.1806
449.8086, 127.0900
450.2907, 124.7650
450.7728, 121.9133
451.2549, 119.4681
451.7371, 117.6374
452.2192, 116.1639
452.7013, 114.4553
453.1834, 112.4252
453.6655, 110.5341
454.1476, 108.9873
454.6298, 107.7698
455.1119, 106.7014
455.5940, 105.8237
456.0761, 104.9167
456.5582, 103.6927
457.0403, 102.2244
457.5225, 100.9504
458.0046, 100.0448
458.4867, 99.25661
458.9688, 98.21831
459.4509, 96.97729
459.9330, 95.77569
460.4152, 94.71158
460.8973, 93.75964
461.3794, 92.88776
461.8615, 92.08099
462.3436, 91.40816
462.8257, 91.04620
463.3079, 90.78291
463.7900, 90.37649
464.2721, 89.64531
464.7542, 88.88903
465.2363, 88.16032
465.7184, 87.49080
466.2006, 86.96992
466.6827, 86.98784
467.1648, 86.83757
467.6469, 86.09359
468.1290, 84.43272
468.6111, 83.39245
469.0933, 83.47154
469.5754, 83.85790
470.0575, 83.81084
470.5396, 83.01406
471.0217, 82.44355
471.5038, 82.33752
471.9860, 82.50148
472.4681, 82.21677
472.9502, 81.35117
473.4323, 80.47649
473.9144, 79.84558
474.3965, 79.45183
474.8787, 79.29631
475.3608, 79.43645
475.8429, 79.54382
476.3250, 79.10870
476.8071, 78.26414
477.2892, 77.71027
477.7714, 77.73575
478.2535, 77.98282
478.7356, 77.95157
479.2177, 77.68870
479.6998, 77.39922
480.1819, 77.23918
480.6641, 77.08990
481.1462, 76.75500
481.6283, 76.19725
482.1104, 75.81965
482.5925, 76.07179
483.0746, 76.53384
483.5568, 76.77337
484.0389, 76.47237
484.5210, 76.14416
485.0031, 75.93330
485.4852, 75.80544
485.9673, 75.64563
486.4495, 75.37375
486.9316, 75.12802
487.4137, 74.94564
487.8958, 74.82308
488.3779, 74.78440
488.8600, 74.89025
489.3422, 75.01366
489.8243, 75.04473
490.3064, 74.97279
490.7885, 74.82713
491.2706, 74.56707
491.7527, 74.27090
492.2349, 74.12563
492.7170, 74.13696
493.1991, 74.24810
493.6812, 74.52388
494.1633, 74.88934
494.6454, 74.99398
495.1276, 74.82605
495.6097, 74.62532
496.0918, 74.62710
496.5739, 74.75782
497.0560, 74.84527
497.5381, 74.80222
498.0203, 74.81499
498.5024, 75.17226
498.9845, 75.71230
499.4666, 76.08540
499.9487, 75.91926
500.4308, 75.70808
500.9130, 75.76159
501.3951, 76.09145
501.8772, 76.40355
502.3593, 76.52476
502.8414, 76.65038
503.3235, 76.91338
503.8057, 77.45014
504.2878, 77.94762
504.7699, 78.38966
505.2520, 78.78975
505.7341, 79.16431
506.2162, 79.48572
506.6984, 79.82774
507.1805, 80.18057
507.6626, 80.55688
508.1447, 81.11225
508.6268, 81.88602
509.1089, 82.68870
509.5911, 83.33932
510.0732, 83.86356
510.5553, 84.59827
511.0374, 85.61514
511.5195, 86.66650
512.0016, 87.39584
512.4838, 87.89054
512.9659, 88.42026
513.4480, 89.07600
513.9301, 89.83410
514.4122, 90.62206
514.8943, 91.47427
515.3765, 92.53518
515.8586, 94.25927
516.3407, 95.98196
516.8228, 97.09034
517.3049, 97.39887
517.7870, 97.79209
518.2692, 98.57639
518.7513, 99.58421
519.2334, 100.6529
519.7155, 102.0159
520.1976, 103.1256
520.6797, 103.7574
521.1619, 104.1031
521.6440, 104.7393
522.1261, 105.9228
522.6082, 106.9278
523.0903, 107.4609
523.5724, 107.5142
524.0546, 107.5407
524.5367, 107.4883
525.0188, 107.5750
525.5009, 108.1550
525.9830, 109.1638
526.4651, 109.7503
526.9473, 109.7052
527.4294, 109.4636
527.9115, 109.7517
528.3936, 110.3959
528.8757, 110.8266
529.3578, 110.5263
529.8400, 110.0443
530.3221, 109.8905
530.8042, 110.0540
531.2863, 110.4509
531.7684, 111.3080
532.2505, 112.2002
532.7327, 112.8186
533.2148, 113.1111
533.6969, 113.1449
534.1790, 112.6094
534.6611, 111.9546
535.1432, 111.6954
535.6254, 112.1117
536.1075, 112.6375
536.5896, 113.2975
537.0717, 114.0265
537.5538, 114.5724
538.0359, 114.9396
538.5181, 115.1217
539.0002, 115.0238
539.4823, 114.6583
539.9644, 114.6474
540.4465, 115.0422
540.9286, 115.5353
541.4108, 115.8492
541.8929, 116.0173
542.3750, 116.1423
542.8571, 116.1979
543.3392, 116.3417
543.8214, 116.8363
544.3035, 117.5697
544.7856, 118.2845
545.2677, 118.7955
545.7498, 119.3006
546.2319, 119.9291
546.7141, 120.6736
547.1962, 121.4811
547.6783, 122.3406
548.1604, 123.2439
548.6425, 124.1537
549.1246, 124.9386
549.6068, 126.1114
550.0889, 127.9994
550.5710, 130.1197
551.0531, 132.0032
551.5352, 133.3690
552.0173, 135.1184
552.4995, 137.4068
552.9816, 140.0847
553.4637, 142.7297
553.9458, 145.3005
554.4279, 148.1307
554.9100, 151.4122
555.3922, 155.0632
555.8743, 158.7302
556.3564, 162.3833
556.8385, 166.2815
557.3206, 170.5909
557.8027, 175.2734
558.2849, 180.3508
558.7670, 185.8332
559.2491, 191.6882
559.7312, 197.7851
560.2133, 204.2150
560.6954, 211.0997
561.1776, 218.1201
561.6597, 225.8792
562.1418, 235.3287
562.6239, 245.8695
563.1060, 255.1244
563.5881, 261.0421
564.0703, 267.4533
564.5524, 275.6933
565.0345, 285.8277
565.5166, 295.9865
565.9987, 306.1424
566.4808, 316.4003
566.9630, 327.0058
567.4451, 337.9294
567.9272, 348.9314
568.4093, 360.0770
568.8914, 371.3277
569.3735, 383.2285
569.8557, 395.4347
570.3378, 406.8534
570.8199, 417.0121
571.3020, 426.1412
571.7841, 434.5763
572.2662, 442.1529
572.7484, 448.2379
573.2305, 453.1224
573.7126, 455.9830
574.1947, 456.2953
574.6768, 453.9899
575.1589, 449.4000
575.6411, 442.2541
576.1232, 433.1497
576.6053, 422.5286
577.0874, 410.1797
577.5695, 396.7149
578.0516, 381.9882
578.5338, 366.3906
579.0159, 350.0386
579.4980, 332.8755
579.9801, 315.9921
580.4622, 299.6609
580.9443, 283.7534
581.4265, 268.2241
581.9086, 253.0751
582.3907, 238.8592
582.8728, 225.7383
583.3549, 213.7384
583.8370, 202.5474
584.3192, 192.1574
584.8013, 182.5404
585.2834, 173.5298
585.7655, 165.2430
586.2476, 157.7982
586.7297, 151.2771
587.2118, 145.3786
