##NAMES=Cavansite
##RRUFFID=R050400
##IDEAL CHEMISTRY=CaV^4+^OSi_4_O_10_&#183;4H_2_O
##LOCALITY=Poona, India
##OWNER=RRUFF
##SOURCE=Eugene Schlepp
##DESCRIPTION=Spray of blue crystals
##STATUS=The identification of this mineral has been confirmed by X-ray diffraction and chemical analysis
##URL=rruff.info/R050400
##MEASURED CHEMISTRY=(Ca_0.99_Mg_0.01_)_Σ=1_(V^4+^_1.00_O)Si_4.00_O_10_·4H_2_O
93.48767, 2772.615
93.96979, 2879.934
94.45190, 2985.536
94.93402, 3075.316
95.41614, 3114.472
95.89825, 3121.687
96.38037, 3124.247
96.86249, 3121.937
97.34460, 3115.788
97.82672, 3111.124
98.30884, 3103.774
98.79095, 3092.447
99.27307, 3074.412
99.75519, 3050.767
100.2373, 3032.031
100.7194, 3019.505
101.2015, 3006.981
101.6837, 2991.616
102.1658, 2976.886
102.6479, 2964.539
103.1300, 2954.174
103.6121, 2947.411
104.0942, 2948.281
104.5764, 2953.014
105.0585, 2956.230
105.5406, 2954.316
106.0227, 2949.146
106.5048, 2946.654
106.9869, 2947.433
107.4691, 2948.423
107.9512, 2948.429
108.4333, 2947.431
108.9154, 2945.548
109.3975, 2942.255
109.8796, 2936.898
110.3618, 2933.719
110.8439, 2934.657
111.3260, 2935.931
111.8081, 2935.436
112.2902, 2933.164
112.7723, 2930.836
113.2544, 2930.937
113.7366, 2934.978
114.2187, 2938.965
114.7008, 2942.790
115.1829, 2946.582
115.6650, 2950.540
116.1471, 2954.751
116.6293, 2958.918
117.1114, 2962.355
117.5935, 2965.310
118.0756, 2967.221
118.5577, 2967.805
119.0398, 2967.200
119.5220, 2965.421
120.0041, 2961.580
120.4862, 2957.392
120.9683, 2956.472
121.4504, 2960.244
121.9325, 2964.733
122.4147, 2966.616
122.8968, 2965.670
123.3789, 2964.610
123.8610, 2964.843
124.3431, 2965.623
124.8252, 2966.343
125.3074, 2966.879
125.7895, 2967.156
126.2716, 2966.904
126.7537, 2965.554
127.2358, 2964.699
127.7179, 2964.955
128.2001, 2965.875
128.6822, 2966.914
129.1643, 2967.773
129.6464, 2968.456
130.1285, 2968.921
130.6107, 2968.868
131.0928, 2968.904
131.5749, 2969.188
132.0570, 2969.702
132.5391, 2970.446
133.0212, 2971.549
133.5033, 2973.283
133.9855, 2973.358
134.4676, 2970.325
134.9497, 2967.195
135.4318, 2965.632
135.9139, 2965.800
136.3960, 2966.778
136.8782, 2967.368
137.3603, 2967.261
137.8424, 2969.141
138.3245, 2974.300
138.8066, 2981.075
139.2887, 2988.749
139.7709, 2998.030
140.2530, 3004.667
140.7351, 3000.905
141.2172, 2987.870
141.6993, 2975.845
142.1814, 2969.695
142.6636, 2968.237
143.1457, 2967.140
143.6278, 2965.608
144.1099, 2964.157
144.5920, 2962.845
145.0741, 2961.727
145.5563, 2961.569
146.0384, 2963.995
146.5205, 2969.591
147.0026, 2972.785
147.4847, 2969.280
147.9668, 2965.208
148.4490, 2964.491
148.9311, 2967.777
149.4132, 2972.116
149.8953, 2972.669
150.3774, 2966.501
150.8595, 2962.502
151.3417, 2961.698
151.8238, 2962.679
152.3059, 2964.431
152.7880, 2966.536
153.2701, 2969.162
153.7522, 2972.733
154.2344, 2979.090
154.7165, 2984.251
155.1986, 2988.147
155.6807, 2990.764
156.1628, 2991.778
156.6449, 2990.885
157.1271, 2988.738
157.6092, 2988.066
158.0913, 2989.895
158.5734, 2991.736
159.0555, 2992.109
159.5376, 2991.842
160.0198, 2993.498
160.5019, 2999.404
160.9840, 3007.774
161.4661, 3012.068
161.9482, 3009.666
162.4303, 3006.177
162.9125, 3005.467
163.3946, 3007.419
163.8767, 3009.348
164.3588, 3009.734
164.8409, 3009.017
165.3230, 3007.815
165.8052, 3005.367
166.2873, 3003.261
166.7694, 3004.349
167.2515, 3009.910
167.7336, 3014.273
168.2157, 3013.621
168.6979, 3010.546
169.1800, 3007.832
169.6621, 3006.540
170.1442, 3006.462
170.6263, 3006.982
171.1084, 3007.971
171.5906, 3009.939
172.0727, 3013.934
172.5548, 3018.682
173.0369, 3022.324
173.5190, 3023.525
174.0011, 3022.648
174.4833, 3022.802
174.9654, 3025.530
175.4475, 3027.796
175.9296, 3028.435
176.4117, 3028.137
176.8938, 3028.212
177.3760, 3029.652
177.8581, 3032.485
178.3402, 3035.532
178.8223, 3040.223
179.3044, 3043.753
179.7865, 3043.957
180.2687, 3041.838
180.7508, 3040.410
181.2329, 3042.398
181.7150, 3048.231
182.1971, 3052.738
182.6792, 3054.552
183.1614, 3056.379
183.6435, 3059.984
184.1256, 3065.338
184.6077, 3071.045
185.0898, 3076.013
185.5719, 3080.116
186.0541, 3083.519
186.5362, 3086.347
187.0183, 3088.368
187.5004, 3088.492
187.9825, 3086.430
188.4646, 3085.323
188.9468, 3089.059
189.4289, 3096.501
189.9110, 3103.316
190.3931, 3108.967
190.8752, 3113.297
191.3573, 3115.568
191.8395, 3114.915
192.3216, 3114.530
192.8037, 3116.520
193.2858, 3120.527
193.7679, 3126.195
194.2500, 3135.919
194.7322, 3147.467
195.2143, 3153.025
195.6964, 3148.658
196.1785, 3144.007
196.6606, 3144.542
197.1427, 3148.808
197.6249, 3153.694
198.1070, 3157.557
198.5891, 3160.400
199.0712, 3162.120
199.5533, 3160.324
200.0354, 3160.119
200.5176, 3164.666
200.9997, 3172.349
201.4818, 3179.478
201.9639, 3182.794
202.4460, 3182.163
202.9281, 3183.120
203.4103, 3189.117
203.8924, 3193.588
204.3745, 3193.207
204.8566, 3189.368
205.3387, 3185.920
205.8208, 3186.505
206.3030, 3191.841
206.7851, 3194.583
207.2672, 3192.905
207.7493, 3190.697
208.2314, 3189.912
208.7135, 3190.124
209.1957, 3189.337
209.6778, 3185.455
210.1599, 3177.759
210.6420, 3172.756
211.1241, 3170.348
211.6062, 3170.051
212.0884, 3172.746
212.5705, 3177.776
213.0526, 3182.680
213.5347, 3185.182
214.0168, 3184.898
214.4989, 3185.278
214.9811, 3187.321
215.4632, 3189.203
215.9453, 3189.695
216.4274, 3188.754
216.9095, 3187.078
217.3916, 3184.967
217.8737, 3182.489
218.3559, 3181.068
218.8380, 3181.409
219.3201, 3182.397
219.8022, 3182.896
220.2843, 3182.834
220.7664, 3183.339
221.2486, 3185.656
221.7307, 3189.427
222.2128, 3192.905
222.6949, 3195.368
223.1770, 3197.682
223.6591, 3200.831
224.1413, 3204.900
224.6234, 3209.330
225.1055, 3213.759
225.5876, 3218.232
226.0697, 3222.921
226.5518, 3228.663
227.0340, 3234.188
227.5161, 3237.325
227.9982, 3237.520
228.4803, 3237.179
228.9624, 3236.250
229.4445, 3235.925
229.9267, 3238.342
230.4088, 3245.574
230.8909, 3254.899
231.3730, 3261.043
231.8551, 3263.268
232.3372, 3264.054
232.8194, 3263.005
233.3015, 3261.716
233.7836, 3262.256
234.2657, 3265.827
234.7478, 3271.176
235.2299, 3275.522
235.7121, 3278.648
236.1942, 3281.183
236.6763, 3283.131
237.1584, 3284.783
237.6405, 3286.462
238.1227, 3288.327
238.6048, 3290.258
239.0869, 3291.882
239.5690, 3292.776
240.0511, 3294.150
240.5332, 3296.100
241.0154, 3298.599
241.4975, 3301.582
241.9796, 3305.013
242.4617, 3308.966
242.9438, 3313.788
243.4259, 3321.421
243.9081, 3326.715
244.3902, 3326.425
244.8723, 3325.053
245.3544, 3327.839
245.8365, 3336.695
246.3186, 3347.945
246.8008, 3352.980
247.2829, 3344.835
247.7650, 3340.292
248.2471, 3341.211
248.7292, 3345.169
249.2113, 3350.791
249.6935, 3357.398
250.1756, 3363.781
250.6577, 3367.593
251.1398, 3367.624
251.6219, 3366.343
252.1040, 3361.942
252.5862, 3357.240
253.0683, 3355.242
253.5504, 3356.690
254.0325, 3359.359
254.5146, 3359.531
254.9967, 3354.739
255.4789, 3352.020
255.9610, 3353.124
256.4431, 3355.302
256.9252, 3356.269
257.4073, 3355.484
257.8894, 3353.685
258.3716, 3351.695
258.8537, 3349.054
259.3358, 3347.819
259.8179, 3349.412
260.3000, 3351.572
260.7821, 3352.381
261.2643, 3351.504
261.7464, 3349.650
262.2285, 3347.202
262.7106, 3343.715
263.1927, 3342.603
263.6748, 3346.887
264.1570, 3351.654
264.6391, 3352.163
265.1212, 3348.071
265.6033, 3343.115
266.0854, 3340.419
266.5675, 3340.241
267.0497, 3341.618
267.5318, 3346.021
268.0139, 3350.927
268.4960, 3354.151
268.9781, 3355.630
269.4602, 3357.104
269.9424, 3360.367
270.4245, 3364.864
270.9066, 3367.067
271.3887, 3364.405
271.8708, 3361.333
272.3529, 3361.924
272.8351, 3365.890
273.3172, 3369.039
273.7993, 3368.132
274.2814, 3364.690
274.7635, 3363.807
275.2456, 3367.246
275.7278, 3371.419
276.2099, 3373.398
276.6920, 3373.536
277.1741, 3374.893
277.6562, 3379.784
278.1383, 3386.219
278.6205, 3390.043
279.1026, 3390.502
279.5847, 3390.034
280.0668, 3389.581
280.5489, 3389.313
281.0310, 3390.418
281.5132, 3393.871
281.9953, 3398.371
282.4774, 3402.156
282.9595, 3405.253
283.4416, 3407.500
283.9237, 3407.687
284.4059, 3406.602
284.8880, 3407.558
285.3701, 3411.333
285.8522, 3417.631
286.3343, 3427.421
286.8164, 3440.463
287.2986, 3450.765
287.7807, 3454.355
288.2628, 3452.601
288.7449, 3449.489
289.2270, 3444.489
289.7091, 3440.162
290.1913, 3438.552
290.6734, 3439.238
291.1555, 3440.960
291.6376, 3443.806
292.1197, 3447.207
292.6018, 3449.702
293.0840, 3450.811
293.5661, 3451.983
294.0482, 3454.848
294.5303, 3458.419
295.0124, 3460.802
295.4945, 3460.603
295.9767, 3459.128
296.4588, 3458.565
296.9409, 3458.923
297.4230, 3460.197
297.9051, 3462.564
298.3872, 3465.812
298.8694, 3470.206
299.3515, 3476.744
299.8336, 3482.866
300.3157, 3484.379
300.7978, 3480.359
301.2799, 3477.356
301.7621, 3478.850
302.2442, 3482.038
302.7263, 3484.549
303.2084, 3485.888
303.6905, 3486.978
304.1726, 3488.754
304.6548, 3491.233
305.1369, 3493.851
305.6190, 3496.235
306.1011, 3498.975
306.5832, 3503.438
307.0653, 3509.551
307.5475, 3513.938
308.0296, 3512.345
308.5117, 3505.456
308.9938, 3501.578
309.4759, 3503.128
309.9580, 3506.522
310.4402, 3509.779
310.9223, 3512.767
311.4044, 3515.197
311.8865, 3516.181
312.3686, 3516.268
312.8507, 3517.862
313.3329, 3521.047
313.8150, 3525.776
314.2971, 3533.147
314.7792, 3541.753
315.2613, 3549.034
315.7434, 3553.666
316.2256, 3556.377
316.7077, 3558.691
317.1898, 3560.627
317.6719, 3562.115
318.1540, 3563.470
318.6361, 3564.252
319.1183, 3563.342
319.6004, 3559.650
320.0825, 3556.283
320.5646, 3557.653
321.0467, 3564.279
321.5288, 3572.419
322.0110, 3583.990
322.4931, 3594.678
322.9752, 3600.407
323.4573, 3600.443
323.9394, 3598.726
324.4215, 3598.735
324.9037, 3600.431
325.3858, 3601.837
325.8679, 3601.979
326.3500, 3602.443
326.8321, 3604.451
327.3142, 3607.858
327.7964, 3611.588
328.2785, 3615.744
328.7606, 3619.869
329.2427, 3621.292
329.7248, 3617.995
330.2069, 3615.265
330.6891, 3616.278
331.1712, 3620.115
331.6533, 3625.048
332.1354, 3631.134
332.6175, 3637.417
333.0996, 3641.678
333.5818, 3643.316
334.0639, 3644.919
334.5460, 3648.408
335.0281, 3652.365
335.5102, 3655.030
335.9923, 3655.634
336.4745, 3655.587
336.9566, 3656.504
337.4387, 3658.421
337.9208, 3660.563
338.4029, 3662.784
338.8850, 3665.066
339.3671, 3667.650
339.8492, 3670.637
340.3314, 3672.882
340.8135, 3672.710
341.2956, 3670.674
341.7777, 3670.321
342.2598, 3672.766
342.7419, 3676.419
343.2241, 3679.860
343.7062, 3683.185
344.1883, 3686.862
344.6704, 3692.622
345.1525, 3698.653
345.6346, 3700.359
346.1168, 3696.375
346.5989, 3691.705
347.0810, 3689.684
347.5631, 3689.498
348.0452, 3689.995
348.5273, 3690.782
349.0095, 3692.226
349.4916, 3695.050
349.9737, 3699.276
350.4558, 3703.573
350.9379, 3707.929
351.4200, 3711.555
351.9022, 3713.328
352.3843, 3712.906
352.8664, 3711.438
353.3485, 3708.862
353.8306, 3705.660
354.3127, 3703.777
354.7949, 3703.882
355.2770, 3705.284
355.7591, 3707.144
356.2412, 3709.410
356.7233, 3712.231
357.2054, 3716.851
357.6876, 3721.678
358.1697, 3723.195
358.6518, 3720.372
359.1339, 3718.503
359.6160, 3723.966
360.0981, 3734.990
360.5803, 3741.728
361.0624, 3740.322
361.5445, 3736.214
362.0266, 3732.726
362.5087, 3730.115
362.9908, 3729.951
363.4730, 3734.618
363.9551, 3741.410
364.4372, 3741.906
364.9193, 3731.467
365.4014, 3722.972
365.8835, 3723.468
366.3657, 3729.472
366.8478, 3734.094
367.3299, 3735.046
367.8120, 3733.857
368.2941, 3732.165
368.7762, 3729.025
369.2584, 3729.404
369.7405, 3737.685
370.2226, 3747.637
370.7047, 3753.588
371.1868, 3754.758
371.6689, 3752.583
372.1511, 3747.753
372.6332, 3740.116
373.1153, 3734.165
373.5974, 3729.848
374.0795, 3727.032
374.5616, 3725.829
375.0438, 3726.082
375.5259, 3727.614
376.0080, 3730.465
376.4901, 3734.185
376.9722, 3737.165
377.4543, 3740.109
377.9365, 3741.400
378.4186, 3740.151
378.9007, 3737.457
379.3828, 3734.023
379.8649, 3730.172
380.3470, 3726.808
380.8292, 3725.338
381.3113, 3726.748
381.7934, 3727.091
382.2755, 3724.956
382.7576, 3723.122
383.2397, 3723.836
383.7219, 3726.484
384.2040, 3728.625
384.6861, 3728.262
385.1682, 3725.595
385.6503, 3723.528
386.1324, 3721.900
386.6146, 3721.188
387.0967, 3721.949
387.5788, 3723.561
388.0609, 3725.534
388.5430, 3727.640
389.0251, 3729.345
389.5073, 3729.441
389.9894, 3727.030
390.4715, 3724.793
390.9536, 3721.625
391.4357, 3719.542
391.9178, 3720.647
392.4000, 3724.566
392.8821, 3728.564
393.3642, 3729.939
393.8463, 3728.599
394.3284, 3727.024
394.8105, 3722.794
395.2927, 3721.317
395.7748, 3726.679
396.2569, 3735.494
396.7390, 3742.232
397.2211, 3744.010
397.7032, 3742.427
398.1854, 3740.530
398.6675, 3737.673
399.1496, 3736.524
399.6317, 3738.652
400.1138, 3742.307
400.5959, 3747.224
401.0781, 3753.248
401.5602, 3757.621
402.0423, 3756.676
402.5244, 3750.987
403.0065, 3746.784
403.4886, 3744.702
403.9708, 3744.475
404.4529, 3746.738
404.9350, 3750.593
405.4171, 3753.504
405.8992, 3753.607
406.3813, 3752.518
406.8635, 3753.297
407.3456, 3756.281
407.8277, 3757.805
408.3098, 3754.319
408.7919, 3749.102
409.2740, 3747.775
409.7562, 3751.652
410.2383, 3756.771
410.7204, 3761.457
411.2025, 3765.563
411.6846, 3768.538
412.1667, 3770.043
412.6489, 3771.028
413.1310, 3772.863
413.6131, 3775.550
414.0952, 3777.308
414.5773, 3776.863
415.0594, 3776.020
415.5416, 3776.352
416.0237, 3777.914
416.5058, 3780.252
416.9879, 3783.402
417.4700, 3786.979
417.9521, 3788.906
418.4343, 3786.675
418.9164, 3786.039
419.3985, 3789.430
419.8806, 3795.099
420.3627, 3800.576
420.8448, 3805.074
421.3270, 3809.137
421.8091, 3813.749
422.2912, 3819.873
422.7733, 3823.379
423.2554, 3821.987
423.7375, 3820.155
424.2197, 3820.810
424.7018, 3823.486
425.1839, 3825.902
425.6660, 3826.400
426.1481, 3825.255
426.6302, 3824.267
427.1124, 3822.875
427.5945, 3822.455
428.0766, 3823.876
428.5587, 3825.992
429.0408, 3827.534
429.5229, 3828.170
430.0051, 3828.718
430.4872, 3830.583
430.9693, 3834.360
431.4514, 3836.996
431.9335, 3836.737
432.4156, 3836.846
432.8978, 3839.050
433.3799, 3842.731
433.8620, 3846.312
434.3441, 3849.155
434.8262, 3850.923
435.3083, 3849.905
435.7905, 3844.387
436.2726, 3840.836
436.7547, 3843.116
437.2368, 3847.587
437.7189, 3851.354
438.2010, 3853.874
438.6832, 3855.783
439.1653, 3857.633
439.6474, 3859.342
440.1295, 3860.407
440.6116, 3860.475
441.0938, 3860.389
441.5759, 3860.403
442.0580, 3860.731
442.5401, 3862.330
443.0222, 3866.647
443.5043, 3871.528
443.9865, 3875.060
444.4686, 3877.251
444.9507, 3878.432
445.4328, 3878.721
445.9149, 3878.092
446.3970, 3876.003
446.8792, 3871.110
447.3613, 3868.712
447.8434, 3872.233
448.3255, 3878.126
448.8076, 3881.604
449.2897, 3882.008
449.7719, 3882.722
450.2540, 3887.396
450.7361, 3896.375
451.2182, 3901.729
451.7003, 3901.708
452.1824, 3900.610
452.6646, 3899.242
453.1467, 3898.027
453.6288, 3897.558
454.1109, 3898.093
454.5930, 3899.237
455.0751, 3900.207
455.5573, 3900.802
456.0394, 3901.583
456.5215, 3901.977
457.0036, 3902.969
457.4857, 3905.321
457.9678, 3908.838
458.4500, 3912.805
458.9321, 3916.784
459.4142, 3920.705
459.8963, 3924.258
460.3784, 3927.658
460.8605, 3930.231
461.3427, 3930.801
461.8248, 3931.132
462.3069, 3933.253
462.7890, 3937.671
463.2711, 3942.485
463.7532, 3945.921
464.2354, 3948.039
464.7175, 3948.937
465.1996, 3947.309
465.6817, 3946.619
466.1638, 3950.282
466.6459, 3956.733
467.1281, 3962.060
467.6102, 3964.405
468.0923, 3965.539
468.5744, 3966.960
469.0565, 3968.707
469.5386, 3971.302
470.0208, 3975.267
470.5029, 3979.754
470.9850, 3983.318
471.4671, 3986.007
471.9492, 3987.961
472.4313, 3989.249
472.9135, 3989.807
473.3956, 3988.921
473.8777, 3986.830
474.3598, 3985.607
474.8419, 3986.956
475.3240, 3990.636
475.8062, 3994.118
476.2883, 3998.573
476.7704, 4001.530
477.2525, 4001.342
477.7346, 3999.913
478.2167, 3999.249
478.6989, 3999.978
479.1810, 4001.858
479.6631, 4004.658
480.1452, 4008.446
480.6273, 4012.692
481.1094, 4017.700
481.5916, 4022.804
482.0737, 4028.198
482.5558, 4033.426
483.0379, 4037.979
483.5200, 4041.722
484.0021, 4044.152
484.4843, 4043.634
484.9664, 4039.113
485.4485, 4036.501
485.9306, 4038.944
486.4127, 4041.953
486.8948, 4041.639
487.3770, 4038.709
487.8591, 4037.672
488.3412, 4042.691
488.8233, 4050.840
489.3054, 4057.050
489.7875, 4061.365
490.2697, 4062.391
490.7518, 4056.893
491.2339, 4049.010
491.7160, 4047.122
492.1981, 4053.082
492.6802, 4059.621
493.1624, 4065.110
493.6445, 4068.752
494.1266, 4067.944
494.6087, 4062.423
495.0908, 4057.740
495.5729, 4059.127
496.0551, 4066.521
496.5372, 4072.446
497.0193, 4076.081
497.5014, 4079.434
497.9835, 4083.679
498.4656, 4087.828
498.9478, 4090.292
499.4299, 4090.605
499.9120, 4089.890
500.3941, 4089.828
500.8762, 4090.821
501.3583, 4090.832
501.8405, 4088.157
502.3226, 4086.225
502.8047, 4085.616
503.2868, 4086.755
503.7689, 4090.749
504.2510, 4098.597
504.7331, 4107.654
505.2152, 4113.176
505.6974, 4114.892
506.1795, 4114.702
506.6616, 4110.588
507.1437, 4106.995
507.6258, 4107.264
508.1079, 4111.042
508.5901, 4115.960
509.0722, 4122.565
509.5543, 4128.829
510.0364, 4131.134
510.5185, 4129.532
511.0006, 4127.920
511.4828, 4127.795
511.9649, 4129.063
512.4470, 4131.748
512.9291, 4136.327
513.4113, 4140.393
513.8934, 4142.253
514.3755, 4143.915
514.8576, 4148.129
515.3397, 4154.712
515.8218, 4160.543
516.3040, 4163.175
516.7861, 4163.110
517.2682, 4163.987
517.7503, 4168.275
518.2324, 4170.351
518.7145, 4166.572
519.1967, 4162.241
519.6788, 4162.999
520.1609, 4169.345
520.6430, 4176.992
521.1251, 4181.728
521.6072, 4183.649
522.0894, 4185.281
522.5715, 4185.843
523.0536, 4187.412
523.5357, 4192.063
524.0178, 4197.353
524.4999, 4200.151
524.9821, 4199.506
525.4642, 4198.142
525.9463, 4198.363
526.4284, 4199.965
526.9105, 4201.588
527.3926, 4202.322
527.8748, 4205.373
528.3569, 4215.678
528.8390, 4230.601
529.3211, 4241.067
529.8032, 4245.755
530.2853, 4246.278
530.7675, 4240.286
531.2496, 4231.267
531.7317, 4226.553
532.2138, 4228.296
532.6959, 4232.446
533.1780, 4233.923
533.6602, 4231.969
534.1423, 4232.043
534.6244, 4234.800
535.1065, 4238.485
535.5886, 4242.532
536.0707, 4247.024
536.5529, 4252.391
537.0350, 4258.736
537.5171, 4265.340
537.9992, 4271.230
538.4813, 4276.625
538.9634, 4280.056
539.4456, 4278.435
539.9277, 4278.233
540.4098, 4283.525
540.8919, 4292.196
541.3740, 4300.103
541.8561, 4305.902
542.3383, 4309.720
542.8204, 4310.613
543.3025, 4308.997
543.7846, 4309.241
544.2667, 4313.215
544.7488, 4317.765
545.2310, 4319.681
545.7131, 4319.155
546.1952, 4316.834
546.6773, 4310.371
547.1594, 4304.407
547.6415, 4301.569
548.1237, 4301.663
548.6058, 4303.982
549.0879, 4308.257
549.5700, 4314.434
550.0521, 4322.917
550.5342, 4335.990
551.0164, 4344.124
551.4985, 4344.260
551.9806, 4343.362
552.4627, 4344.013
552.9448, 4345.976
553.4269, 4348.219
553.9091, 4350.228
554.3912, 4352.478
554.8733, 4356.010
555.3554, 4361.072
555.8375, 4365.749
556.3196, 4370.353
556.8018, 4373.748
557.2839, 4374.602
557.7660, 4373.763
558.2481, 4373.617
558.7302, 4375.107
559.2123, 4377.515
559.6945, 4380.070
560.1766, 4382.895
560.6587, 4387.031
561.1408, 4393.406
561.6229, 4399.153
562.1050, 4400.104
562.5872, 4395.210
563.0693, 4393.073
563.5514, 4395.242
564.0335, 4398.743
564.5156, 4403.071
564.9977, 4407.432
565.4799, 4410.019
565.9620, 4410.179
566.4441, 4410.388
566.9262, 4415.024
567.4083, 4425.625
567.8904, 4434.346
568.3726, 4439.238
568.8547, 4444.159
569.3368, 4452.094
569.8189, 4460.495
570.3010, 4464.489
570.7831, 4461.682
571.2653, 4457.375
571.7474, 4458.615
572.2295, 4464.534
572.7116, 4467.577
573.1937, 4465.323
573.6758, 4463.078
574.1580, 4465.727
574.6401, 4472.183
575.1222, 4478.186
575.6043, 4483.466
576.0864, 4488.082
576.5685, 4491.497
577.0507, 4494.394
577.5328, 4498.633
578.0149, 4504.492
578.4970, 4508.943
578.9791, 4508.226
579.4612, 4502.017
579.9434, 4499.003
580.4255, 4499.858
580.9076, 4503.312
581.3897, 4512.589
581.8718, 4522.597
582.3539, 4526.959
582.8361, 4524.688
583.3182, 4521.397
583.8003, 4522.708
584.2824, 4528.058
584.7645, 4533.363
585.2466, 4538.552
585.7288, 4543.896
586.2108, 4550.641
586.6929, 4557.036
587.1750, 4559.650
587.6572, 4556.895
588.1393, 4556.227
588.6214, 4563.060
589.1035, 4572.875
589.5856, 4580.101
590.0677, 4584.167
