##NAMES=Caysichite-(Y)
##RRUFFID=R080143
##IDEAL CHEMISTRY=(Ca,Yb,Er)_4_Y_4_Si_8_O_20_(CO_3_)_6_(OH)&#183;7H_2_O
##LOCALITY=Mt. Malos, Zomba District, Malawi
##OWNER=RRUFF
##SOURCE=Mark Feinglos
##DESCRIPTION=Pale tan colored blocky crystals removed from aegirine matrix
##STATUS=The identification of this mineral has been confirmed by single-crystal X-ray diffraction.
##URL=rruff.info/R080143
91.00781, 23.89298
91.48993, 22.49939
91.97205, 21.94288
92.45416, 22.79922
92.93628, 24.46521
93.41840, 25.62268
93.90051, 26.01478
94.38263, 25.90606
94.86475, 25.54011
95.34686, 24.92127
95.82898, 24.46359
96.31110, 24.47963
96.79321, 24.95269
97.27533, 25.70709
97.75745, 26.57646
98.23956, 27.70014
98.72168, 29.78774
99.20380, 32.97558
99.68591, 36.63194
100.1680, 40.12778
100.6501, 43.40891
101.1323, 46.64640
101.6144, 49.86160
102.0965, 53.05492
102.5786, 56.07214
103.0607, 58.49398
103.5428, 61.12783
104.0250, 65.45182
104.5071, 71.95259
104.9892, 79.26682
105.4713, 86.81187
105.9534, 94.24037
106.4355, 102.6787
106.9177, 112.9798
107.3998, 124.3242
107.8819, 134.4568
108.3640, 141.7897
108.8461, 149.0671
109.3282, 157.6723
109.8104, 167.9655
110.2925, 178.9591
110.7746, 191.3532
111.2567, 204.7713
111.7388, 216.7780
112.2209, 225.7829
112.7031, 233.8755
113.1852, 242.6023
113.6673, 251.7771
114.1494, 261.9694
114.6315, 273.1778
115.1136, 285.4856
115.5958, 299.3705
116.0779, 315.6116
116.5600, 333.3331
117.0421, 351.4739
117.5242, 369.5738
118.0063, 388.2773
118.4885, 408.3031
118.9706, 429.8799
119.4527, 451.8158
119.9348, 473.3232
120.4169, 494.6426
120.8990, 516.5757
121.3812, 539.3433
121.8633, 562.8714
122.3454, 587.2516
122.8275, 613.4104
123.3096, 638.5399
123.7917, 659.3109
124.2739, 676.6516
124.7560, 693.9701
125.2381, 714.3912
125.7202, 736.1819
126.2023, 755.8997
126.6844, 772.1816
127.1666, 787.1378
127.6487, 803.2321
128.1308, 820.5486
128.6129, 839.0433
129.0950, 859.0217
129.5771, 880.3605
130.0593, 902.6315
130.5414, 924.9816
131.0235, 948.2645
131.5056, 973.8831
131.9877, 998.1136
132.4698, 1019.235
132.9520, 1040.804
133.4341, 1062.832
133.9162, 1085.225
134.3983, 1107.673
134.8804, 1130.207
135.3625, 1154.071
135.8447, 1179.809
136.3268, 1205.811
136.8089, 1230.937
137.2910, 1255.728
137.7731, 1277.502
138.2552, 1296.076
138.7374, 1311.738
139.2195, 1321.719
139.7016, 1326.057
140.1837, 1325.024
140.6658, 1319.095
141.1479, 1308.155
141.6301, 1292.655
142.1122, 1271.923
142.5943, 1243.349
143.0764, 1216.148
143.5585, 1189.761
144.0406, 1164.735
144.5228, 1142.136
145.0049, 1122.276
145.4870, 1104.593
145.9691, 1088.949
146.4512, 1074.527
146.9333, 1063.139
147.4155, 1055.239
147.8976, 1050.557
148.3797, 1047.335
148.8618, 1046.228
149.3439, 1046.069
149.8260, 1046.103
150.3082, 1047.896
150.7903, 1048.132
151.2724, 1046.528
151.7545, 1043.071
152.2366, 1038.130
152.7188, 1029.776
153.2009, 1020.857
153.6830, 1013.753
154.1651, 1011.294
154.6472, 1008.041
155.1293, 1002.418
155.6115, 994.0145
156.0936, 986.1647
156.5757, 979.1266
157.0578, 972.9995
157.5399, 967.9997
158.0220, 964.9406
158.5042, 962.3638
158.9863, 959.2967
159.4684, 955.1180
159.9505, 953.1359
160.4326, 955.6449
160.9147, 960.7939
161.3969, 965.8258
161.8790, 968.8658
162.3611, 972.2164
162.8432, 977.2264
163.3253, 984.3379
163.8074, 992.0917
164.2896, 999.2247
164.7717, 1006.491
165.2538, 1015.412
165.7359, 1028.844
166.2180, 1042.910
166.7001, 1054.567
167.1823, 1062.410
167.6644, 1069.392
168.1465, 1077.528
168.6286, 1086.294
169.1107, 1094.227
169.5928, 1101.483
170.0750, 1107.095
170.5571, 1110.252
171.0392, 1110.930
171.5213, 1108.838
172.0034, 1103.720
172.4855, 1095.592
172.9677, 1084.682
173.4498, 1069.647
173.9319, 1052.224
174.4140, 1034.825
174.8961, 1017.835
175.3782, 1001.378
175.8604, 985.1906
176.3425, 969.1875
176.8246, 953.3893
177.3067, 935.8331
177.7888, 918.3392
178.2709, 905.1285
178.7531, 899.2873
179.2352, 896.7010
179.7173, 890.6481
180.1994, 881.2643
180.6815, 872.6178
181.1636, 868.4340
181.6458, 867.9188
182.1279, 868.9460
182.6100, 871.7059
183.0921, 875.1802
183.5742, 877.0153
184.0563, 877.0978
184.5385, 877.1686
185.0206, 879.2010
185.5027, 882.8365
185.9848, 886.3323
186.4669, 889.9235
186.9490, 892.8490
187.4312, 892.7970
187.9133, 889.6484
188.3954, 884.3453
188.8775, 877.6685
189.3596, 869.7042
189.8417, 860.8583
190.3239, 851.4733
190.8060, 841.3820
191.2881, 829.9499
191.7702, 817.1365
192.2523, 803.6779
192.7344, 789.8326
193.2166, 775.6711
193.6987, 762.8619
194.1808, 752.3309
194.6629, 743.9425
195.1450, 735.3156
195.6271, 726.1940
196.1093, 717.4780
196.5914, 710.7488
197.0735, 706.1407
197.5556, 701.7776
198.0377, 696.3263
198.5198, 689.7120
199.0020, 685.5786
199.4841, 684.2062
199.9662, 684.7917
200.4483, 686.0497
200.9304, 687.9136
201.4125, 690.8112
201.8947, 695.9188
202.3768, 703.6697
202.8589, 707.6321
203.3410, 706.5767
203.8231, 703.3126
204.3052, 703.1202
204.7874, 706.4828
205.2695, 710.8361
205.7516, 715.4984
206.2337, 720.7456
206.7158, 724.3685
207.1979, 726.0590
207.6801, 726.4110
208.1622, 726.4459
208.6443, 725.9796
209.1264, 725.7672
209.6085, 726.5977
210.0906, 729.1641
210.5728, 729.5132
211.0549, 727.1884
211.5370, 722.9072
212.0191, 718.3008
212.5012, 713.3912
212.9833, 708.0352
213.4655, 702.5051
213.9476, 697.3145
214.4297, 690.0568
214.9118, 680.8065
215.3939, 669.4266
215.8760, 654.6039
216.3581, 634.6212
216.8403, 614.9759
217.3224, 598.7238
217.8045, 586.9297
218.2866, 574.8088
218.7687, 562.0682
219.2508, 549.0471
219.7330, 536.9221
220.2151, 525.5801
220.6972, 515.3450
221.1793, 506.6037
221.6614, 499.6765
222.1435, 493.1044
222.6257, 486.5351
223.1078, 480.3779
223.5899, 475.7361
224.0720, 473.3091
224.5541, 471.2723
225.0362, 468.7189
225.5184, 465.3807
226.0005, 462.1924
226.4826, 458.7929
226.9647, 455.6529
227.4468, 454.1185
227.9289, 454.9610
228.4111, 456.2651
228.8932, 457.0242
229.3753, 456.4224
229.8574, 457.2892
230.3395, 460.1918
230.8216, 464.4524
231.3038, 468.2482
231.7859, 471.1716
232.2680, 474.1860
232.7501, 477.7969
233.2322, 482.4890
233.7143, 486.6781
234.1965, 490.4450
234.6786, 493.7033
235.1607, 496.1839
235.6428, 497.3924
236.1249, 498.5263
236.6070, 500.2837
237.0892, 503.6958
237.5713, 505.3287
238.0534, 504.3590
238.5355, 501.8174
239.0176, 500.3442
239.4997, 500.2649
239.9819, 500.7665
240.4640, 501.5096
240.9461, 502.4457
241.4282, 503.7872
241.9103, 505.8068
242.3924, 508.1496
242.8746, 510.0645
243.3567, 511.9644
243.8388, 512.8177
244.3209, 511.9394
244.8030, 508.2601
245.2851, 505.7752
245.7673, 504.8524
246.2494, 504.9800
246.7315, 505.0197
247.2136, 504.6319
247.6957, 504.7012
248.1778, 505.6337
248.6600, 507.6928
249.1421, 509.9372
249.6242, 513.0497
250.1063, 516.0049
250.5884, 516.6756
251.0705, 514.1036
251.5527, 510.8487
252.0348, 507.7586
252.5169, 504.7722
252.9990, 502.0807
253.4811, 499.7701
253.9632, 497.6621
254.4454, 495.6024
254.9275, 494.0084
255.4096, 491.6169
255.8917, 487.6217
256.3738, 481.3602
256.8560, 476.8322
257.3381, 474.9068
257.8202, 473.9516
258.3023, 471.1249
258.7844, 465.1093
259.2665, 460.1783
259.7487, 457.9203
260.2308, 458.8051
260.7129, 459.2238
261.1950, 459.0668
261.6771, 458.5643
262.1592, 457.9105
262.6414, 456.8643
263.1235, 456.2938
263.6056, 456.5069
264.0877, 457.5490
264.5698, 458.8001
265.0519, 460.4243
265.5341, 462.0298
266.0162, 463.0989
266.4983, 463.4124
266.9804, 463.8573
267.4625, 464.7478
267.9446, 466.0658
268.4268, 467.1366
268.9089, 468.1086
269.3910, 468.5394
269.8731, 467.5835
270.3552, 464.6489
270.8373, 462.7858
271.3195, 462.9173
271.8016, 464.8336
272.2837, 466.4257
272.7658, 467.8028
273.2479, 468.6390
273.7300, 468.3148
274.2122, 466.5159
274.6943, 465.5577
275.1764, 466.0610
275.6585, 467.7768
276.1406, 469.4322
276.6227, 471.0206
277.1049, 472.5862
277.5870, 474.4915
278.0691, 476.8814
278.5512, 477.7942
279.0333, 476.3631
279.5154, 473.5274
279.9976, 472.3495
280.4797, 472.9279
280.9618, 474.6569
281.4439, 478.0186
281.9260, 483.0287
282.4081, 485.6026
282.8903, 484.6319
283.3724, 481.5807
283.8545, 479.8829
284.3366, 479.6276
284.8187, 479.7676
285.3008, 480.1049
285.7830, 480.5214
286.2651, 479.4030
286.7472, 476.2726
287.2293, 472.1849
287.7114, 469.1673
288.1935, 467.2079
288.6757, 465.0340
289.1578, 461.6864
289.6399, 457.4154
290.1220, 453.7762
290.6041, 450.9679
291.0862, 448.3537
291.5684, 444.8152
292.0505, 440.4587
292.5326, 436.4564
293.0147, 433.5336
293.4968, 431.3989
293.9789, 428.8619
294.4611, 425.7763
294.9432, 423.1485
295.4253, 422.6082
295.9074, 423.7192
296.3895, 424.5970
296.8716, 424.6321
297.3538, 423.8647
297.8359, 421.8752
298.3180, 418.5690
298.8001, 415.7674
299.2822, 415.7029
299.7643, 417.5154
300.2465, 418.9243
300.7286, 418.4630
301.2107, 417.6011
301.6928, 418.4421
302.1749, 420.9091
302.6570, 423.9400
303.1392, 426.8991
303.6213, 429.8111
304.1034, 432.7583
304.5855, 436.4543
305.0676, 439.4242
305.5497, 439.9681
306.0319, 438.3696
306.5140, 436.1258
306.9961, 434.1051
307.4782, 432.0491
307.9603, 429.7033
308.4424, 427.2545
308.9246, 424.0555
309.4067, 419.0437
309.8888, 412.7885
310.3709, 406.8179
310.8530, 402.8599
311.3351, 399.1047
311.8173, 393.6979
312.2994, 385.5994
312.7815, 377.9746
313.2636, 373.5621
313.7457, 370.9225
314.2278, 367.4345
314.7100, 361.3666
315.1921, 354.6051
315.6742, 348.0544
316.1563, 341.7470
316.6384, 336.1744
317.1205, 332.4938
317.6027, 329.5109
318.0848, 325.7311
318.5669, 320.2392
319.0490, 314.2614
319.5311, 307.7860
320.0132, 300.7646
320.4954, 295.0273
320.9775, 292.4638
321.4596, 290.7805
321.9417, 288.0726
322.4238, 282.6183
322.9059, 277.4843
323.3881, 273.2102
323.8702, 269.8406
324.3523, 267.2444
324.8344, 266.1417
325.3165, 265.3326
325.7986, 264.0971
326.2808, 262.0173
326.7629, 259.9421
327.2450, 257.5583
327.7271, 255.1255
328.2092, 253.6607
328.6913, 254.0293
329.1735, 254.6113
329.6556, 254.6926
330.1377, 253.4078
330.6198, 253.3202
331.1019, 255.4361
331.5840, 258.4420
332.0662, 259.8049
332.5483, 258.3495
333.0304, 256.9255
333.5125, 256.5176
333.9946, 257.3725
334.4767, 257.8409
334.9589, 257.5957
335.4410, 257.2754
335.9231, 257.7550
336.4052, 259.3314
336.8873, 260.8859
337.3694, 261.9327
337.8516, 262.5506
338.3336, 264.4342
338.8158, 268.0123
339.2979, 271.9695
339.7800, 275.0702
340.2621, 277.1193
340.7442, 279.5543
341.2263, 282.6638
341.7085, 286.2747
342.1906, 289.7589
342.6727, 293.1870
343.1548, 296.2418
343.6369, 298.4116
344.1190, 299.7711
344.6012, 302.1741
345.0833, 306.2734
345.5654, 310.5641
346.0475, 311.9969
346.5296, 310.7296
347.0117, 309.3276
347.4939, 309.8723
347.9760, 311.4212
348.4581, 310.5702
348.9402, 306.8405
349.4223, 302.5289
349.9044, 300.3283
350.3866, 299.7036
350.8687, 298.7850
351.3508, 296.4325
351.8329, 293.4853
352.3150, 291.1520
352.7971, 289.4204
353.2793, 288.1275
353.7614, 287.1500
354.2435, 286.4941
354.7256, 286.2236
355.2077, 286.7655
355.6898, 287.1822
356.1720, 286.2919
356.6541, 284.4203
357.1362, 282.9731
357.6183, 283.2893
358.1004, 284.0955
358.5826, 284.1852
359.0647, 283.0808
359.5468, 281.8959
360.0289, 280.9877
360.5110, 280.4333
360.9931, 280.3807
361.4753, 281.6188
361.9574, 282.7912
362.4395, 282.8388
362.9216, 281.3273
363.4037, 280.9242
363.8858, 283.4348
364.3680, 287.0590
364.8501, 289.9129
365.3322, 291.3275
365.8143, 292.1887
366.2964, 292.2719
366.7785, 291.6298
367.2607, 291.8918
367.7428, 294.2521
368.2249, 296.8748
368.7070, 298.6581
369.1891, 299.2650
369.6712, 299.4167
370.1534, 298.3991
370.6355, 296.9112
371.1176, 297.2860
371.5997, 301.2112
372.0818, 304.8128
372.5639, 306.3980
373.0461, 305.1177
373.5282, 304.6684
374.0103, 305.5632
374.4924, 306.7919
374.9745, 306.7344
375.4566, 305.0337
375.9388, 303.1765
376.4209, 301.6580
376.9030, 300.4174
377.3851, 298.7273
377.8672, 296.5019
378.3493, 294.0661
378.8315, 291.5969
379.3136, 289.0688
379.7957, 287.2270
380.2778, 286.6180
380.7599, 286.3564
381.2420, 283.9536
381.7242, 279.4514
382.2063, 274.6695
382.6884, 270.7437
383.1705, 267.5073
383.6526, 264.5830
384.1347, 261.9793
384.6169, 259.4956
385.0990, 256.9607
385.5811, 254.3768
386.0632, 251.8753
386.5453, 249.2689
387.0274, 246.8802
387.5096, 245.4298
387.9917, 244.9162
388.4738, 244.2747
388.9559, 241.8495
389.4380, 239.0652
389.9201, 237.9185
390.4023, 240.6049
390.8844, 243.3238
391.3665, 243.2385
391.8486, 240.9705
392.3307, 238.7939
392.8128, 237.4839
393.2950, 236.8499
393.7771, 236.7950
394.2592, 237.4074
394.7413, 238.3039
395.2234, 239.9228
395.7055, 241.6318
396.1877, 242.4552
396.6698, 241.2267
397.1519, 239.9873
397.6340, 238.9616
398.1161, 238.0095
398.5982, 238.7829
399.0804, 243.4360
399.5625, 248.6191
400.0446, 251.8931
400.5267, 251.8871
401.0088, 251.9696
401.4909, 252.2930
401.9731, 252.9046
402.4552, 254.0943
402.9373, 256.3717
403.4194, 258.3991
403.9015, 259.2466
404.3836, 258.2178
404.8658, 258.9530
405.3479, 262.0193
405.8300, 266.0631
406.3121, 269.1132
406.7942, 271.0501
407.2763, 272.7543
407.7585, 274.2301
408.2406, 275.6780
408.7227, 278.4936
409.2048, 282.8266
409.6869, 287.1385
410.1690, 289.9294
410.6512, 291.4340
411.1333, 292.9058
411.6154, 294.5727
412.0975, 296.3244
412.5796, 297.9376
413.0617, 299.4725
413.5439, 301.2441
414.0260, 304.0280
414.5081, 306.9563
414.9902, 308.5281
415.4723, 308.5324
415.9544, 308.4604
416.4366, 309.8382
416.9187, 311.8516
417.4008, 313.2745
417.8829, 312.8069
418.3650, 312.3485
418.8471, 313.2670
419.3293, 315.3154
419.8114, 317.0532
420.2935, 318.0214
420.7756, 318.3548
421.2577, 318.0311
421.7398, 316.5570
422.2220, 315.3958
422.7041, 315.0715
423.1862, 315.2261
423.6683, 315.2099
424.1504, 315.0633
424.6325, 314.6163
425.1147, 313.8406
425.5968, 312.7279
426.0789, 311.2878
426.5610, 309.3735
427.0431, 307.2659
427.5252, 305.1230
428.0074, 302.6272
428.4895, 300.8816
428.9716, 300.2708
429.4537, 300.4188
429.9358, 300.2102
430.4179, 299.6431
430.9001, 298.7282
431.3822, 297.3760
431.8643, 295.5789
432.3464, 293.7811
432.8285, 291.9003
433.3106, 290.2922
433.7928, 289.5264
434.2749, 289.5220
434.7570, 289.6159
435.2391, 289.6902
435.7212, 289.6716
436.2033, 289.3672
436.6855, 288.8018
437.1676, 288.1819
437.6497, 287.4767
438.1318, 286.8671
438.6139, 286.7563
439.0960, 287.3786
439.5782, 287.8760
440.0603, 287.6172
440.5424, 286.7219
441.0245, 285.4259
441.5066, 282.9677
441.9887, 280.8358
442.4709, 280.2542
442.9530, 281.1774
443.4351, 281.6949
443.9172, 280.8757
444.3993, 279.4893
444.8814, 278.1203
445.3636, 277.4222
445.8457, 275.9850
446.3278, 272.8332
446.8099, 268.8132
447.2920, 265.9648
447.7741, 265.5373
448.2563, 264.9136
448.7384, 263.1135
449.2205, 259.8210
449.7026, 257.8174
450.1847, 257.6606
450.6668, 258.1209
451.1490, 258.0990
451.6311, 257.4939
452.1132, 256.7605
452.5953, 255.8292
453.0774, 254.9088
453.5595, 254.6039
454.0417, 254.9704
454.5238, 255.4198
455.0059, 255.6800
455.4880, 255.7579
455.9701, 255.5739
456.4522, 255.0551
456.9344, 254.7435
457.4165, 255.4565
457.8986, 256.8699
458.3807, 258.0243
458.8628, 258.3640
459.3449, 258.6043
459.8271, 259.5812
460.3092, 261.1942
460.7913, 263.0190
461.2734, 265.1800
461.7555, 267.2145
462.2376, 268.6416
462.7198, 269.2359
463.2019, 269.9160
463.6840, 271.4251
464.1661, 273.1434
464.6482, 274.3209
465.1303, 273.7578
465.6125, 273.6740
466.0946, 274.9521
466.5767, 277.4352
467.0588, 279.5034
467.5409, 281.0469
468.0230, 282.1474
468.5052, 282.7459
468.9873, 282.4256
469.4694, 282.5860
469.9515, 282.9807
470.4336, 284.0622
470.9157, 286.7924
471.3979, 291.7933
471.8800, 296.2461
472.3621, 299.2722
472.8442, 301.1910
473.3263, 303.5944
473.8084, 306.4970
474.2906, 309.7651
474.7727, 313.3285
475.2548, 317.1783
475.7369, 321.2985
476.2190, 325.7199
476.7011, 330.3239
477.1833, 334.7484
477.6654, 339.2605
478.1475, 344.6143
478.6296, 352.5137
479.1117, 360.4398
479.5938, 365.2177
480.0760, 367.3304
480.5581, 369.8506
481.0402, 374.5145
481.5223, 380.3705
482.0044, 386.8576
482.4865, 394.1904
482.9687, 401.1137
483.4508, 406.8571
483.9329, 412.0457
484.4150, 417.4893
484.8971, 424.1224
485.3792, 430.2489
485.8614, 435.9359
486.3435, 441.1133
486.8256, 444.1794
487.3077, 443.5880
487.7898, 442.6691
488.2719, 443.6068
488.7541, 447.8952
489.2362, 449.1557
489.7183, 447.0108
490.2004, 442.2778
490.6825, 435.5524
491.1646, 426.5714
491.6468, 418.0286
492.1289, 410.8727
492.6110, 404.5854
493.0931, 397.0100
493.5752, 388.1328
494.0573, 379.4399
494.5395, 371.8608
495.0216, 365.1988
495.5037, 358.8489
495.9858, 352.8550
496.4679, 347.2048
496.9500, 342.2191
497.4322, 337.5873
497.9143, 332.8838
498.3964, 326.8944
498.8785, 321.7142
499.3606, 319.0082
499.8427, 318.3186
500.3249, 317.6818
500.8070, 316.3324
501.2891, 314.9040
501.7712, 313.6440
502.2533, 312.3880
502.7354, 311.8486
503.2176, 312.1648
503.6997, 313.1848
504.1818, 314.9202
504.6639, 318.4224
505.1460, 320.5659
505.6281, 320.2205
506.1103, 318.2777
506.5924, 318.5113
507.0745, 321.5582
507.5566, 324.5187
508.0387, 325.4478
508.5208, 324.5138
509.0030, 325.4482
509.4851, 328.5162
509.9672, 331.9666
510.4493, 334.1682
510.9314, 335.2436
511.4135, 335.5060
511.8957, 334.7614
512.3778, 333.7242
512.8599, 333.0449
513.3420, 332.7364
513.8242, 332.8275
514.3063, 333.8354
514.7884, 334.9023
515.2705, 335.3213
515.7526, 335.0428
516.2347, 334.6313
516.7169, 334.6571
517.1990, 334.4293
517.6811, 333.3894
518.1632, 330.3182
518.6453, 327.9572
519.1274, 328.0609
519.6096, 328.7497
520.0917, 326.4253
520.5738, 319.1466
521.0559, 312.0931
521.5380, 306.6626
522.0201, 302.7500
522.5023, 298.4978
522.9844, 293.8209
523.4665, 288.9998
523.9486, 284.3390
524.4307, 279.7947
524.9128, 274.6752
525.3950, 268.8613
525.8771, 262.8766
526.3592, 257.2266
526.8413, 251.9988
527.3234, 247.3190
527.8055, 243.4301
528.2877, 239.9986
528.7698, 236.3820
529.2519, 232.7917
529.7340, 229.9848
530.2161, 229.2061
530.6982, 228.8341
531.1804, 227.5602
531.6625, 225.1040
532.1446, 222.6623
532.6267, 220.4503
533.1088, 218.5397
533.5909, 217.0308
534.0731, 215.8503
534.5552, 215.1877
535.0373, 215.3701
535.5194, 216.0260
536.0015, 216.1959
536.4836, 215.6551
536.9658, 215.0862
537.4479, 214.7927
537.9300, 214.7471
538.4121, 214.0541
538.8942, 212.4455
539.3763, 211.3282
539.8585, 212.4232
540.3406, 215.2597
540.8227, 217.0345
541.3048, 217.2489
541.7869, 216.9161
542.2690, 217.1915
542.7512, 217.9123
543.2333, 218.6700
543.7154, 219.1953
544.1975, 219.7726
544.6796, 220.4279
545.1617, 221.2698
545.6439, 222.7533
546.1260, 225.6067
546.6081, 228.7670
547.0902, 231.6908
547.5723, 234.3111
548.0544, 236.5939
548.5366, 238.1898
549.0187, 239.6631
549.5008, 241.5223
549.9829, 244.0168
550.4650, 246.4042
550.9471, 248.3864
551.4293, 250.3506
551.9114, 253.4494
552.3935, 257.9625
552.8756, 262.2496
553.3577, 265.5127
553.8398, 268.0461
554.3220, 271.1781
554.8041, 274.9315
555.2862, 279.0631
555.7683, 283.3877
556.2504, 287.9776
556.7325, 293.0950
557.2147, 298.7990
557.6968, 304.8781
558.1789, 311.4165
558.6610, 318.1769
559.1431, 324.7426
559.6252, 331.0938
560.1074, 337.0739
560.5895, 341.9419
561.0716, 346.2790
561.5537, 351.9115
562.0358, 360.7976
562.5179, 369.5756
563.0001, 377.0768
563.4822, 383.2025
563.9643, 388.7558
564.4464, 393.4620
564.9285, 397.9934
565.4106, 402.8938
565.8928, 408.2289
566.3749, 413.7608
566.8570, 419.7331
567.3391, 425.4572
567.8212, 429.6278
568.3033, 432.4814
568.7855, 435.5242
569.2676, 439.6772
569.7497, 443.9229
570.2318, 447.2485
570.7139, 449.4848
571.1960, 450.1701
571.6782, 448.3358
572.1603, 445.2704
572.6424, 442.1473
573.1245, 439.0982
573.6066, 435.0380
574.0887, 428.8463
574.5709, 421.8592
575.0530, 415.0734
575.5351, 408.9159
576.0172, 402.4357
576.4993, 395.8123
576.9814, 388.7579
577.4636, 380.7447
577.9457, 371.2010
578.4278, 362.2604
578.9099, 354.6848
579.3920, 348.1661
579.8741, 341.5194
580.3563, 334.7533
580.8384, 328.1301
581.3205, 321.9529
581.8026, 315.9805
582.2847, 309.5965
582.7668, 302.7357
583.2490, 296.3829
583.7311, 291.7275
584.2132, 287.9542
584.6953, 283.9385
585.1774, 279.3355
585.6595, 274.7411
586.1416, 269.9562
586.6237, 265.5171
587.1058, 262.1530
587.5880, 261.4594
