##NAMES=Caysichite-(Y)
##RRUFFID=R080143
##IDEAL CHEMISTRY=(Ca,Yb,Er)_4_Y_4_Si_8_O_20_(CO_3_)_6_(OH)&#183;7H_2_O
##LOCALITY=Mt. Malos, Zomba District, Malawi
##OWNER=RRUFF
##SOURCE=Mark Feinglos
##DESCRIPTION=Pale tan colored blocky crystals removed from aegirine matrix
##STATUS=The identification of this mineral has been confirmed by single-crystal X-ray diffraction.
##URL=rruff.info/R080143
93.78320, 134.3610
94.26532, 134.6042
94.74744, 135.1648
95.22955, 135.7050
95.71167, 136.2913
96.19379, 136.2732
96.67590, 135.9164
97.15802, 135.2411
97.64014, 134.0829
98.12225, 132.6394
98.60437, 131.2370
99.08649, 129.9842
99.56860, 128.9285
100.0507, 128.1568
100.5328, 127.5608
101.0150, 126.7885
101.4971, 125.3709
101.9792, 123.2530
102.4613, 121.6672
102.9434, 121.5019
103.4255, 121.8390
103.9077, 122.0500
104.3898, 121.9211
104.8719, 121.6631
105.3540, 121.7014
105.8361, 122.1259
106.3182, 122.7064
106.8004, 123.7095
107.2825, 124.7259
107.7646, 125.2543
108.2467, 124.9648
108.7288, 123.9091
109.2109, 122.7758
109.6931, 121.2630
110.1752, 119.9545
110.6573, 118.9099
111.1394, 118.1818
111.6215, 117.8790
112.1036, 118.1494
112.5858, 119.1023
113.0679, 119.8519
113.5500, 120.2551
114.0321, 120.5712
114.5142, 120.9598
114.9964, 121.4466
115.4785, 122.0070
115.9606, 122.5406
116.4427, 123.0442
116.9248, 123.9004
117.4069, 125.6245
117.8891, 127.7337
118.3712, 129.1599
118.8533, 129.3822
119.3354, 129.3427
119.8175, 129.9412
120.2996, 131.1309
120.7818, 132.4764
121.2639, 133.7362
121.7460, 134.9127
122.2281, 135.9230
122.7102, 136.4753
123.1923, 137.0353
123.6745, 137.8421
124.1566, 138.9390
124.6387, 140.2086
125.1208, 141.5280
125.6029, 143.0078
126.0850, 144.2810
126.5672, 145.1742
127.0493, 145.9720
127.5314, 146.8988
128.0135, 148.0491
128.4956, 149.3467
128.9777, 150.6067
129.4599, 151.4723
129.9420, 152.7054
130.4241, 154.6676
130.9062, 156.9906
131.3883, 159.1551
131.8705, 160.8930
132.3526, 162.2400
132.8347, 163.4269
133.3168, 164.1139
133.7989, 165.0114
134.2810, 166.5445
134.7632, 168.6203
135.2453, 170.7437
135.7274, 172.6696
136.2095, 174.3769
136.6916, 175.8964
137.1737, 177.0949
137.6559, 178.1920
138.1380, 179.5379
138.6201, 181.2483
139.1022, 182.6594
139.5843, 183.1928
140.0664, 183.1816
140.5486, 183.0182
141.0307, 182.9114
141.5128, 182.7604
141.9949, 182.2415
142.4770, 181.1557
142.9591, 179.9615
143.4413, 178.8709
143.9234, 177.8372
144.4055, 176.7381
144.8876, 175.3963
145.3697, 173.8089
145.8518, 172.7458
146.3340, 172.3672
146.8161, 172.4322
147.2982, 173.2503
147.7803, 174.5537
148.2624, 175.6738
148.7445, 175.8628
149.2267, 174.7104
149.7088, 174.3602
150.1909, 175.0716
150.6730, 176.1694
151.1551, 177.4231
151.6372, 178.7392
152.1194, 179.9709
152.6015, 180.9100
153.0836, 181.3177
153.5657, 182.1095
154.0478, 183.7193
154.5299, 185.5075
155.0121, 186.7772
155.4942, 187.3307
155.9763, 187.5900
156.4584, 188.1750
156.9405, 189.0935
157.4227, 190.0408
157.9048, 190.9985
158.3869, 191.9255
158.8690, 192.6662
159.3511, 193.0225
159.8332, 193.4527
160.3154, 194.5780
160.7975, 196.4098
161.2796, 198.2505
161.7617, 199.5688
162.2438, 200.4233
162.7259, 201.4689
163.2081, 202.8917
163.6902, 204.5684
164.1723, 206.5062
164.6544, 208.7146
165.1365, 210.8414
165.6186, 212.5274
166.1008, 213.7145
166.5829, 214.6823
167.0650, 215.1111
167.5471, 215.5749
168.0292, 216.5286
168.5113, 218.0626
168.9935, 219.7829
169.4756, 221.0279
169.9577, 221.5872
170.4398, 222.0347
170.9219, 222.2747
171.4040, 222.5163
171.8862, 223.0324
172.3683, 223.9049
172.8504, 224.8672
173.3325, 225.2878
173.8146, 224.6728
174.2967, 224.0300
174.7789, 223.5987
175.2610, 223.0869
175.7431, 222.0324
176.2252, 220.1881
176.7073, 217.9017
177.1894, 216.3505
177.6716, 215.8868
178.1537, 215.6121
178.6358, 215.4099
179.1179, 215.2796
179.6000, 215.2483
180.0821, 215.3702
180.5643, 215.5446
181.0464, 215.4496
181.5285, 214.8778
182.0106, 214.3853
182.4927, 214.3298
182.9749, 214.6169
183.4570, 214.8067
183.9391, 214.6235
184.4212, 214.2484
184.9033, 214.0919
185.3854, 214.2619
185.8676, 214.4827
186.3497, 214.5394
186.8318, 214.4290
187.3139, 214.2699
187.7960, 214.3115
188.2781, 214.2207
188.7603, 213.5622
189.2424, 212.1180
189.7245, 210.3809
190.2066, 209.0760
190.6887, 208.4068
191.1708, 207.4047
191.6530, 205.3094
192.1351, 202.9277
192.6172, 201.0228
193.0993, 199.9375
193.5814, 199.1850
194.0635, 197.7556
194.5457, 195.2547
195.0278, 192.8441
195.5099, 190.6209
195.9920, 188.6599
196.4741, 187.1209
196.9562, 186.0952
197.4384, 185.3624
197.9205, 184.2627
198.4026, 182.4756
198.8847, 180.7344
199.3668, 179.1837
199.8489, 177.7118
200.3311, 176.1999
200.8132, 174.5892
201.2953, 172.8829
201.7774, 171.1125
202.2595, 168.7676
202.7416, 166.9410
203.2238, 166.1073
203.7059, 165.7756
204.1880, 165.2220
204.6701, 164.0483
205.1522, 162.4310
205.6344, 161.1692
206.1165, 160.6623
206.5986, 159.9973
207.0807, 158.8763
207.5628, 157.4680
208.0449, 156.1014
208.5271, 154.9628
209.0092, 153.9701
209.4913, 152.7988
209.9734, 151.3169
210.4555, 149.8573
210.9376, 148.3992
211.4198, 147.0337
211.9019, 146.1225
212.3840, 146.1136
212.8661, 146.4384
213.3482, 145.5172
213.8303, 142.6295
214.3125, 139.7655
214.7946, 138.2503
215.2767, 137.8355
215.7588, 137.1928
216.2409, 135.6169
216.7230, 133.5352
217.2052, 131.7704
217.6873, 130.4216
218.1694, 129.2204
218.6515, 127.9993
219.1336, 126.7541
219.6157, 125.4890
220.0979, 124.0893
220.5800, 122.7489
221.0621, 121.6764
221.5442, 120.9187
222.0263, 120.3331
222.5084, 119.9123
222.9906, 119.6990
223.4727, 119.1488
223.9548, 117.5605
224.4369, 115.8889
224.9190, 114.8839
225.4011, 114.6953
225.8833, 114.8592
226.3654, 114.9023
226.8475, 114.8452
227.3296, 114.5609
227.8117, 113.6813
228.2938, 112.7819
228.7760, 112.2353
229.2581, 112.1130
229.7402, 112.2232
230.2223, 112.3602
230.7044, 112.5840
231.1866, 112.6355
231.6687, 112.3730
232.1508, 112.0259
232.6329, 111.6949
233.1150, 111.4129
233.5971, 111.2020
234.0793, 111.1048
234.5614, 111.1751
235.0435, 111.2318
235.5256, 111.2649
236.0077, 111.2898
236.4898, 111.3067
236.9720, 111.3203
237.4541, 111.3478
237.9362, 111.4239
238.4183, 111.6106
238.9004, 111.6860
239.3825, 111.6702
239.8647, 111.5529
240.3468, 111.2981
240.8289, 110.9154
241.3110, 110.4694
241.7931, 110.0155
242.2752, 109.4824
242.7574, 109.1909
243.2395, 109.3477
243.7216, 109.5529
244.2037, 109.5295
244.6858, 109.2584
245.1679, 108.9241
245.6501, 108.7284
246.1322, 108.7065
246.6143, 108.7103
247.0964, 108.8271
247.5785, 108.9026
248.0606, 108.7745
248.5428, 108.4594
249.0249, 108.1714
249.5070, 108.1431
249.9891, 108.4341
250.4712, 108.5338
250.9533, 108.4547
251.4355, 108.1927
251.9176, 107.6803
252.3997, 106.9416
252.8818, 106.1392
253.3639, 105.3811
253.8460, 104.6792
254.3282, 104.1279
254.8103, 103.8873
255.2924, 103.6670
255.7745, 103.2058
256.2566, 102.5278
256.7387, 101.9474
257.2209, 101.7444
257.7030, 101.8491
258.1851, 101.7305
258.6672, 101.1965
259.1493, 100.5952
259.6314, 100.1212
260.1136, 99.77701
260.5957, 99.56503
261.0778, 99.51788
261.5599, 99.60715
262.0420, 99.70388
262.5241, 99.84350
263.0063, 99.94698
263.4884, 99.92197
263.9705, 99.78603
264.4526, 99.71320
264.9347, 99.88340
265.4168, 100.0933
265.8990, 99.95592
266.3811, 99.31449
266.8632, 98.65479
267.3453, 98.34386
267.8275, 98.34428
268.3096, 98.37488
268.7917, 98.42514
269.2738, 98.36901
269.7559, 97.97275
270.2380, 97.13615
270.7202, 96.49024
271.2023, 96.67058
271.6844, 97.53385
272.1665, 98.11337
272.6486, 98.18737
273.1307, 97.82307
273.6129, 96.99610
274.0950, 95.71151
274.5771, 94.62944
275.0592, 94.26768
275.5413, 94.51775
276.0234, 94.77133
276.5056, 94.99954
276.9877, 95.12424
277.4698, 95.07137
277.9519, 94.86822
278.4340, 94.65445
278.9161, 94.44726
279.3983, 94.28056
279.8804, 94.34799
280.3625, 94.85332
280.8446, 95.28716
281.3267, 95.30090
281.8088, 95.01789
282.2910, 94.72318
282.7731, 94.58132
283.2552, 94.54468
283.7373, 94.44881
284.2194, 94.25127
284.7015, 94.07380
285.1837, 93.93716
285.6658, 93.85857
286.1479, 93.86958
286.6300, 93.99122
287.1121, 94.20403
287.5942, 94.45866
288.0764, 94.73410
288.5585, 95.10898
289.0406, 95.73704
289.5227, 96.41990
290.0048, 96.92204
290.4869, 97.14150
290.9691, 97.23704
291.4512, 97.50912
291.9333, 98.04668
292.4154, 98.47620
292.8975, 98.68433
293.3796, 98.76031
293.8618, 98.69558
294.3439, 98.48958
294.8260, 98.32655
295.3081, 98.45371
295.7902, 98.91013
296.2723, 99.46958
296.7545, 100.4542
297.2366, 101.2743
297.7187, 101.4202
298.2008, 100.9187
298.6829, 100.3728
299.1650, 100.4547
299.6472, 101.2394
300.1293, 101.9346
300.6114, 102.4646
301.0935, 102.9156
301.5756, 103.3080
302.0577, 103.6483
302.5399, 103.9502
303.0220, 104.2135
303.5041, 104.4399
303.9862, 104.6924
304.4683, 105.2156
304.9504, 105.4554
305.4326, 104.9852
305.9147, 104.1245
306.3968, 103.4707
306.8789, 103.4308
307.3610, 103.8495
307.8431, 104.0714
308.3253, 104.0843
308.8074, 103.8896
309.2895, 103.4232
309.7716, 102.8072
310.2537, 102.1518
310.7358, 101.4837
311.2180, 100.8873
311.7001, 100.6403
312.1822, 101.0950
312.6643, 101.0897
313.1464, 100.0277
313.6285, 98.69573
314.1107, 97.74036
314.5928, 97.33260
315.0749, 97.13571
315.5570, 96.69095
316.0392, 95.95872
316.5213, 95.11766
317.0034, 93.88891
317.4855, 92.77785
317.9676, 92.13708
318.4497, 91.95403
318.9319, 91.91018
319.4140, 91.73048
319.8961, 91.41679
320.3782, 90.95436
320.8603, 90.04250
321.3424, 89.27080
321.8246, 89.07704
322.3067, 89.22763
322.7888, 89.11061
323.2709, 88.16007
323.7530, 86.53728
324.2351, 85.48746
324.7173, 85.35189
325.1994, 85.35152
325.6815, 85.28791
326.1636, 85.17720
326.6457, 85.04906
327.1278, 84.91695
327.6100, 84.77900
328.0921, 84.61652
328.5742, 84.37882
329.0563, 84.23076
329.5384, 84.27494
330.0205, 84.37769
330.5027, 84.47178
330.9848, 84.53621
331.4669, 84.47287
331.9490, 84.03430
332.4311, 83.05254
332.9132, 82.43757
333.3954, 82.71669
333.8775, 83.11721
334.3596, 83.19733
334.8417, 82.95131
335.3238, 82.69202
335.8059, 82.73991
336.2881, 83.10033
336.7702, 83.37969
337.2523, 83.47571
337.7344, 83.59592
338.2165, 83.83611
338.6986, 84.17212
339.1808, 84.54907
339.6629, 84.96551
340.1450, 85.38863
340.6271, 85.69990
341.1092, 85.88799
341.5913, 85.97475
342.0735, 85.86762
342.5556, 85.71185
343.0377, 85.71093
343.5198, 85.97414
344.0019, 86.31816
344.4840, 86.34701
344.9662, 85.90611
345.4483, 85.82979
345.9304, 86.86668
346.4125, 88.08309
346.8946, 88.80954
347.3767, 88.94539
347.8589, 88.86596
348.3410, 88.83898
348.8231, 88.86778
349.3052, 89.12101
349.7873, 89.87174
350.2694, 90.56775
350.7516, 90.69593
351.2337, 90.39803
351.7158, 90.28323
352.1979, 90.91517
352.6800, 92.02589
353.1621, 92.67661
353.6443, 92.66396
354.1264, 92.62106
354.6085, 92.89730
355.0906, 93.39152
355.5727, 93.97745
356.0548, 94.66139
356.5370, 95.36296
357.0191, 95.89072
357.5012, 96.20295
357.9833, 96.78722
358.4654, 98.14278
358.9475, 99.70086
359.4297, 100.7464
359.9118, 101.1439
360.3939, 101.3991
360.8760, 101.8324
361.3581, 102.4267
361.8402, 103.1005
362.3224, 103.8120
362.8045, 104.6350
363.2866, 105.7018
363.7687, 106.9810
364.2508, 108.1987
364.7329, 109.2658
365.2151, 110.2015
365.6972, 110.9817
366.1793, 111.5704
366.6614, 112.2321
367.1436, 113.2144
367.6257, 114.4363
368.1078, 115.6403
368.5899, 116.8570
369.0720, 118.0017
369.5541, 118.8919
370.0363, 119.5871
370.5184, 120.5188
371.0005, 122.0288
371.4826, 123.7693
371.9647, 124.9193
372.4468, 125.2318
372.9290, 125.6429
373.4111, 126.5923
373.8932, 127.8705
374.3753, 129.1001
374.8574, 130.1866
375.3395, 131.1839
375.8217, 132.1688
376.3038, 133.1565
376.7859, 133.9576
377.2680, 134.3620
377.7501, 134.7020
378.2322, 135.3062
378.7144, 136.1655
379.1965, 137.0041
379.6786, 137.6234
380.1607, 138.0336
380.6428, 138.4188
381.1249, 138.9455
381.6071, 139.2704
382.0892, 139.1519
382.5713, 138.7607
383.0534, 138.4326
383.5355, 138.3169
384.0176, 138.2923
384.4998, 138.0857
384.9819, 137.4237
385.4640, 137.0356
385.9461, 137.1955
386.4282, 137.4763
386.9103, 137.5399
387.3925, 137.3268
387.8746, 136.9427
388.3567, 136.5049
388.8388, 136.0314
389.3209, 135.3615
389.8030, 134.2335
390.2852, 133.2033
390.7673, 132.5604
391.2494, 132.1723
391.7315, 131.7431
392.2136, 131.0948
392.6957, 130.2986
393.1779, 129.6495
393.6600, 129.3978
394.1421, 128.9291
394.6242, 127.9501
395.1063, 126.8775
395.5884, 126.1193
396.0706, 125.7605
396.5527, 125.5691
397.0348, 125.2989
397.5169, 125.0233
397.9990, 124.3760
398.4811, 122.7831
398.9633, 121.3402
399.4454, 120.6034
399.9275, 120.3946
400.4096, 120.1892
400.8917, 119.6548
401.3738, 118.8351
401.8560, 117.8536
402.3381, 116.4389
402.8202, 115.4028
403.3023, 115.2624
403.7844, 115.4418
404.2665, 115.3791
404.7487, 114.9100
405.2308, 114.1798
405.7129, 113.2811
406.1950, 112.1907
406.6771, 111.2721
407.1592, 110.7034
407.6414, 110.2207
408.1235, 109.6040
408.6056, 108.8828
409.0877, 108.2384
409.5698, 107.7668
410.0519, 107.4485
410.5341, 107.3232
411.0162, 107.4952
411.4983, 107.4553
411.9804, 106.6548
412.4625, 105.4888
412.9446, 104.6353
413.4268, 104.3367
413.9089, 104.1396
414.3910, 103.6425
414.8731, 102.9184
415.3553, 102.3240
415.8374, 101.9881
416.3195, 101.8051
416.8016, 101.6509
417.2837, 101.5305
417.7658, 101.3741
418.2480, 101.2397
418.7301, 101.0199
419.2122, 100.5337
419.6943, 99.77493
420.1764, 98.98514
420.6585, 98.35113
421.1407, 97.86143
421.6228, 97.36658
422.1049, 96.80270
422.5870, 96.29680
423.0691, 95.93606
423.5512, 95.66166
424.0334, 95.37606
424.5155, 95.04403
424.9976, 94.66084
425.4797, 94.22605
425.9618, 93.78427
426.4439, 93.17933
426.9261, 92.18140
427.4082, 91.20165
427.8903, 90.49060
428.3724, 90.07597
428.8545, 89.92821
429.3366, 90.07925
429.8188, 90.49759
430.3009, 90.46986
430.7830, 89.36636
431.2651, 88.49633
431.7472, 88.20483
432.2293, 88.20494
432.7115, 88.14252
433.1936, 87.88671
433.6757, 87.57969
434.1578, 87.49706
434.6399, 87.75726
435.1220, 87.81889
435.6042, 87.45154
436.0863, 87.03280
436.5684, 86.77354
437.0505, 86.62878
437.5326, 86.38564
438.0147, 85.77670
438.4969, 84.99409
438.9790, 84.80521
439.4611, 85.48518
439.9432, 86.06399
440.4253, 86.14301
440.9074, 85.91451
441.3896, 85.46868
441.8717, 84.76665
442.3538, 84.17751
442.8359, 84.18701
443.3180, 84.66763
443.8001, 84.79002
444.2823, 84.20533
444.7644, 83.58224
445.2465, 83.66501
445.7286, 84.30288
446.2107, 84.87589
446.6928, 85.42671
447.1750, 85.69555
447.6571, 85.20125
448.1392, 84.03572
448.6213, 83.02764
449.1034, 82.60130
449.5855, 82.63976
450.0677, 82.86523
450.5498, 83.45153
451.0319, 83.83083
451.5140, 83.72800
451.9961, 83.39915
452.4782, 83.11891
452.9604, 82.94932
453.4425, 82.87178
453.9246, 82.86235
454.4067, 82.91492
454.8888, 83.12141
455.3709, 83.71330
455.8531, 84.18044
456.3352, 84.19915
456.8173, 83.99577
457.2994, 84.02987
457.7815, 84.51725
458.2636, 85.13061
458.7458, 85.10113
459.2279, 83.81398
459.7100, 83.18547
460.1921, 83.66003
460.6742, 84.38767
461.1563, 85.03564
461.6385, 85.50364
462.1206, 85.67505
462.6027, 85.32842
463.0848, 84.63704
463.5669, 84.56592
464.0491, 85.44619
464.5312, 86.27774
465.0133, 86.71000
465.4954, 86.93327
465.9775, 87.10269
466.4597, 87.24812
466.9418, 87.41698
467.4239, 87.64870
467.9060, 87.94201
468.3881, 88.30285
468.8702, 88.76527
469.3524, 89.23392
469.8345, 89.60622
470.3166, 89.91743
470.7987, 90.26460
471.2808, 90.78081
471.7629, 91.26019
472.2451, 91.38607
472.7272, 91.25772
473.2093, 91.41603
473.6914, 92.14941
474.1735, 93.17294
474.6556, 93.94124
475.1378, 94.40047
475.6199, 94.83939
476.1020, 95.18493
476.5841, 95.60632
477.0662, 96.36320
477.5483, 97.39963
478.0305, 98.34860
478.5126, 98.91829
478.9947, 99.14966
479.4768, 99.38573
479.9589, 99.36350
480.4410, 99.67760
480.9232, 100.6326
481.4053, 101.8432
481.8874, 103.0074
482.3695, 104.0127
482.8516, 104.7490
483.3337, 104.9889
483.8159, 104.6343
484.2980, 104.6260
484.7801, 105.2298
485.2622, 105.8992
485.7443, 106.5289
486.2264, 107.0760
486.7086, 107.4791
487.1907, 107.7005
487.6728, 107.8132
488.1549, 107.9509
488.6370, 108.1245
489.1191, 108.1288
489.6013, 107.8427
490.0834, 107.4513
490.5655, 107.2224
491.0476, 107.0984
491.5297, 106.6794
492.0118, 105.5143
492.4940, 104.1302
492.9761, 103.2777
493.4582, 102.9401
493.9403, 102.5564
494.4224, 101.8803
494.9045, 100.9389
495.3867, 99.73014
495.8688, 97.98239
496.3509, 96.65641
496.8330, 96.27443
497.3151, 96.24918
497.7972, 96.02125
498.2794, 95.50147
498.7615, 94.77455
499.2436, 93.86426
499.7257, 92.80003
500.2078, 92.07327
500.6899, 92.06945
501.1721, 91.93655
501.6542, 91.45661
502.1363, 90.82178
502.6184, 90.17161
503.1005, 89.57249
503.5826, 89.14063
504.0648, 89.10201
504.5469, 89.52088
505.0290, 89.68118
505.5111, 89.36623
505.9932, 89.05489
506.4753, 89.07038
506.9575, 89.17986
507.4396, 88.93787
507.9217, 88.07687
508.4038, 87.16931
508.8859, 87.07200
509.3680, 87.72578
509.8502, 88.05228
510.3323, 87.75015
510.8144, 87.16300
511.2965, 86.53894
511.7786, 85.89851
512.2607, 85.36135
512.7429, 85.04719
513.2250, 84.77760
513.7071, 84.33519
514.1892, 83.78120
514.6713, 83.41810
515.1534, 83.42278
515.6356, 83.55691
516.1177, 83.32143
516.5998, 82.39494
517.0819, 81.82441
517.5640, 82.10374
518.0461, 82.36525
518.5283, 81.92107
519.0104, 80.89734
519.4925, 79.86820
519.9746, 79.21435
520.4567, 78.82968
520.9388, 78.30910
521.4210, 77.51472
521.9031, 76.84389
522.3852, 76.47811
522.8673, 76.13056
523.3494, 75.58500
523.8315, 74.84438
524.3137, 74.06638
524.7958, 73.41025
525.2779, 72.81067
525.7600, 71.99548
526.2421, 70.87298
526.7242, 69.89077
527.2064, 69.41085
527.6885, 69.09311
528.1706, 68.46007
528.6527, 67.41292
529.1348, 66.43443
529.6169, 65.82679
530.0991, 65.42350
530.5812, 64.95605
531.0633, 64.39182
531.5454, 63.79950
532.0275, 63.20111
532.5096, 62.61757
532.9918, 62.21160
533.4739, 62.09002
533.9560, 61.97990
534.4381, 61.96355
534.9202, 61.85801
535.4023, 61.30829
535.8845, 60.33925
536.3666, 59.49360
536.8487, 59.36945
537.3308, 59.96338
537.8129, 60.34410
538.2951, 60.53933
538.7772, 60.45457
539.2593, 59.84032
539.7415, 59.07141
540.2236, 58.54645
540.7057, 58.36791
541.1878, 58.33526
541.6699, 58.23795
542.1520, 58.10032
542.6342, 58.16462
543.1163, 58.61730
543.5984, 58.85128
544.0805, 58.17323
544.5626, 57.06231
545.0447, 56.41669
545.5269, 56.46730
546.0090, 56.78246
546.4911, 57.31114
546.9732, 57.88654
547.4553, 58.12422
547.9374, 57.94169
548.4196, 57.68912
548.9017, 57.73093
549.3838, 58.07879
549.8659, 58.15833
550.3480, 57.66273
550.8301, 57.31385
551.3123, 57.46696
551.7944, 57.80673
552.2765, 57.92013
552.7586, 57.70867
553.2407, 57.40018
553.7228, 57.23767
554.2050, 57.21894
554.6871, 57.39946
555.1692, 57.92278
555.6513, 58.44698
556.1334, 58.87487
556.6155, 59.21947
557.0977, 59.48300
557.5798, 59.65576
558.0619, 59.82483
558.5440, 60.07041
559.0261, 60.37719
559.5082, 60.71280
559.9904, 61.09066
560.4725, 61.40572
560.9546, 61.51928
561.4367, 61.49311
561.9188, 61.64210
562.4009, 62.09557
562.8831, 62.56438
563.3652, 62.95674
563.8473, 63.29594
564.3294, 63.58650
564.8115, 63.84116
565.2936, 64.14814
565.7758, 64.62248
566.2579, 65.26723
566.7400, 65.68211
567.2221, 65.73303
567.7042, 65.69840
568.1863, 65.58068
568.6685, 65.42368
569.1506, 65.18549
569.6327, 64.89270
570.1148, 64.79076
570.5969, 65.35500
571.0790, 66.40805
571.5612, 66.73914
572.0433, 66.11199
572.5254, 65.40282
573.0075, 65.13899
573.4896, 65.02548
573.9717, 64.59190
574.4539, 63.72046
574.9360, 62.83520
575.4181, 62.15736
575.9002, 61.57573
576.3823, 60.90491
576.8644, 60.13618
577.3466, 59.46901
577.8287, 59.08770
578.3108, 58.89027
578.7929, 58.37252
579.2750, 56.99238
579.7571, 56.00361
580.2393, 55.75873
580.7214, 55.71806
581.2035, 55.47144
581.6856, 55.00070
582.1677, 54.52423
582.6498, 54.23904
583.1320, 54.04083
583.6141, 53.50103
584.0962, 52.44210
584.5783, 51.65270
585.0604, 51.63964
585.5425, 51.75159
586.0247, 51.34156
586.5068, 50.44556
586.9889, 49.74598
587.4710, 49.64417
587.9531, 49.82320
588.4352, 50.03734
588.9174, 50.23582
589.3995, 50.15627
589.8816, 49.63665
590.3637, 48.92817
