##NAMES=Cebaite-(Ce)
##RRUFFID=R060248
##IDEAL CHEMISTRY=Ba_3_Ce_2_(CO_3_)_5_F_2_
##LOCALITY=Baiyun-Obo mine, Inner Mongolia, China
##OWNER=RRUFF
##SOURCE=William W. Pinch
##DESCRIPTION=Gemmy yellow to orange-yellow massive; some cleavage evident, associated with green aegirine
##STATUS=The identification of this mineral is confirmed by single-crystal X-ray diffraction and chemical analysis.
##URL=rruff.info/R060248
##MEASURED CHEMISTRY=(Ba_2.95_Sr_0.02_Ca_0.01_)_Σ=2.98_(Ce_0.98_La_0.60_Nd_0.27_Pr_0.10_)_Σ=1.95_(CO_3_)_5.01_F_2.16_
89.60352, 97.01975
90.08563, 97.33978
90.56775, 97.36511
91.04987, 96.71252
91.53198, 96.11977
92.01410, 96.89803
92.49622, 98.96883
92.97833, 100.8326
93.46045, 100.9521
93.94257, 99.70205
94.42468, 98.33143
94.90680, 96.97648
95.38892, 95.84164
95.87103, 95.79032
96.35315, 97.04103
96.83527, 98.49990
97.31738, 98.47135
97.79950, 96.90080
98.28162, 95.62953
98.76373, 95.28394
99.24585, 95.86387
99.72797, 98.07325
100.2101, 102.8932
100.6922, 108.4412
101.1743, 109.9078
101.6564, 106.1042
102.1385, 101.4865
102.6207, 98.52865
103.1028, 97.63783
103.5849, 97.26733
104.0670, 97.51103
104.5491, 98.24710
105.0313, 98.50535
105.5134, 97.96326
105.9955, 97.28011
106.4776, 96.98013
106.9597, 97.46419
107.4418, 97.76044
107.9240, 97.55528
108.4061, 96.71143
108.8882, 96.43873
109.3703, 97.21518
109.8524, 98.38474
110.3345, 99.24693
110.8167, 99.66075
111.2988, 99.88584
111.7809, 99.89318
112.2630, 99.50782
112.7451, 99.42590
113.2272, 99.78506
113.7094, 100.4969
114.1915, 101.4242
114.6736, 102.5635
115.1557, 103.8867
115.6378, 105.3754
116.1199, 107.0517
116.6021, 108.8855
117.0842, 110.7694
117.5663, 112.7903
118.0484, 115.2083
118.5305, 118.6842
119.0126, 122.3481
119.4948, 125.3671
119.9769, 126.0858
120.4590, 127.5540
120.9411, 131.8946
121.4232, 138.8869
121.9053, 146.8155
122.3875, 154.6806
122.8696, 162.7916
123.3517, 171.5781
123.8338, 180.9364
124.3159, 191.2307
124.7980, 202.9517
125.2802, 216.1782
125.7623, 229.9599
126.2444, 243.8134
126.7265, 257.6096
127.2086, 271.0041
127.6907, 284.1496
128.1729, 296.7418
128.6550, 308.0941
129.1371, 318.1322
129.6192, 327.2132
130.1013, 335.4310
130.5834, 342.8812
131.0656, 350.9381
131.5477, 360.3721
132.0298, 371.0653
132.5119, 382.3973
132.9940, 394.3602
133.4761, 406.9249
133.9583, 420.8170
134.4404, 436.1351
134.9225, 451.7480
135.4046, 466.5906
135.8867, 480.7072
136.3688, 495.1532
136.8510, 510.1756
137.3331, 525.5156
137.8152, 541.5023
138.2973, 558.4851
138.7794, 575.2702
139.2615, 591.3792
139.7437, 606.8930
140.2258, 620.6901
140.7079, 632.2938
141.1900, 641.7328
141.6721, 650.9175
142.1542, 659.6381
142.6364, 668.3246
143.1185, 677.4667
143.6006, 687.1871
144.0827, 696.9471
144.5648, 706.3843
145.0469, 715.4355
145.5291, 725.2824
146.0112, 736.7350
146.4933, 748.6422
146.9754, 759.5817
147.4575, 768.8425
147.9396, 777.8317
148.4218, 786.7281
148.9039, 794.4863
149.3860, 804.5780
149.8681, 818.1920
150.3502, 833.8842
150.8323, 848.8812
151.3145, 862.0792
151.7966, 875.3408
152.2787, 889.3759
152.7608, 904.0965
153.2429, 919.6155
153.7250, 937.1397
154.2072, 955.6336
154.6893, 972.1966
155.1714, 982.6147
155.6535, 985.6642
156.1356, 987.2687
156.6177, 985.4500
157.0999, 986.0892
157.5820, 991.3021
158.0641, 1000.124
158.5462, 1008.631
159.0283, 1015.622
159.5104, 1022.101
159.9926, 1028.723
160.4747, 1036.357
160.9568, 1043.466
161.4389, 1049.078
161.9210, 1053.370
162.4031, 1058.353
162.8853, 1065.013
163.3674, 1072.552
163.8495, 1080.241
164.3316, 1087.016
164.8137, 1094.529
165.2958, 1104.095
165.7780, 1115.701
166.2601, 1126.973
166.7422, 1136.902
167.2243, 1145.834
167.7064, 1154.080
168.1885, 1160.875
168.6707, 1167.727
169.1528, 1175.936
169.6349, 1185.670
170.1170, 1195.398
170.5991, 1204.715
171.0812, 1213.403
171.5634, 1220.939
172.0455, 1226.127
172.5276, 1230.663
173.0097, 1236.612
173.4918, 1244.464
173.9739, 1251.791
174.4561, 1256.193
174.9382, 1258.567
175.4203, 1261.065
175.9024, 1265.883
176.3845, 1271.102
176.8666, 1274.048
177.3488, 1274.342
177.8309, 1272.852
178.3130, 1270.212
178.7951, 1266.496
179.2772, 1262.080
179.7593, 1256.354
180.2415, 1250.172
180.7236, 1245.195
181.2057, 1241.823
181.6878, 1239.172
182.1699, 1236.374
182.6520, 1233.398
183.1342, 1229.693
183.6163, 1224.511
184.0984, 1218.278
184.5805, 1212.394
185.0626, 1207.014
185.5447, 1202.028
186.0269, 1197.152
186.5090, 1192.400
186.9911, 1187.822
187.4732, 1183.109
187.9553, 1178.443
188.4374, 1175.091
188.9196, 1173.614
189.4017, 1173.123
189.8838, 1171.531
190.3659, 1168.765
190.8480, 1166.050
191.3301, 1164.423
191.8123, 1163.776
192.2944, 1162.999
192.7765, 1161.541
193.2586, 1160.027
193.7407, 1160.683
194.2228, 1163.742
194.7050, 1167.294
195.1871, 1169.373
195.6692, 1170.007
196.1513, 1171.744
196.6334, 1175.341
197.1155, 1180.354
197.5977, 1185.386
198.0798, 1190.529
198.5619, 1195.198
199.0440, 1198.134
199.5261, 1199.124
200.0082, 1201.761
200.4904, 1207.216
200.9725, 1215.064
201.4546, 1222.715
201.9367, 1230.037
202.4188, 1237.520
202.9009, 1245.776
203.3831, 1255.027
203.8652, 1263.725
204.3473, 1271.460
204.8294, 1278.283
205.3115, 1284.701
205.7936, 1290.616
206.2758, 1296.344
206.7579, 1302.486
207.2400, 1309.315
207.7221, 1315.140
208.2042, 1319.516
208.6863, 1322.480
209.1685, 1324.437
209.6506, 1325.057
210.1327, 1325.305
210.6148, 1326.297
211.0969, 1328.199
211.5790, 1330.394
212.0612, 1333.367
212.5433, 1337.183
213.0254, 1337.655
213.5075, 1333.838
213.9896, 1327.925
214.4717, 1322.360
214.9538, 1316.850
215.4360, 1312.380
215.9181, 1309.721
216.4002, 1309.146
216.8823, 1306.250
217.3644, 1300.187
217.8465, 1292.740
218.3287, 1286.086
218.8108, 1280.656
219.2929, 1274.909
219.7750, 1267.946
220.2571, 1259.383
220.7392, 1253.006
221.2214, 1249.377
221.7035, 1247.310
222.1856, 1245.337
222.6677, 1243.607
223.1498, 1241.679
223.6319, 1239.287
224.1141, 1236.221
224.5962, 1234.197
225.0783, 1233.814
225.5604, 1233.957
226.0425, 1232.993
226.5246, 1230.047
227.0068, 1227.690
227.4889, 1226.677
227.9710, 1227.120
228.4531, 1228.026
228.9352, 1229.425
229.4173, 1231.248
229.8995, 1233.518
230.3816, 1236.896
230.8637, 1239.533
231.3458, 1240.552
231.8279, 1239.490
232.3100, 1239.953
232.7922, 1242.564
233.2743, 1246.183
233.7564, 1249.398
234.2385, 1251.985
234.7206, 1254.542
235.2027, 1257.271
235.6849, 1260.247
236.1670, 1262.897
236.6491, 1264.876
237.1312, 1266.819
237.6133, 1269.505
238.0954, 1273.047
238.5776, 1277.209
239.0597, 1282.199
239.5418, 1288.197
240.0239, 1293.241
240.5060, 1296.297
240.9881, 1299.247
241.4703, 1304.624
241.9524, 1313.812
242.4345, 1322.866
242.9166, 1330.347
243.3987, 1335.796
243.8808, 1343.589
244.3630, 1354.910
244.8451, 1367.616
245.3272, 1379.070
245.8093, 1388.340
246.2914, 1398.126
246.7735, 1409.238
247.2557, 1421.870
247.7378, 1434.174
248.2199, 1445.424
248.7020, 1457.128
249.1841, 1471.162
249.6662, 1488.811
250.1484, 1506.184
250.6305, 1522.133
251.1126, 1536.334
251.5947, 1552.123
252.0768, 1569.248
252.5589, 1587.953
253.0411, 1608.858
253.5232, 1633.075
254.0053, 1656.512
254.4874, 1677.914
254.9695, 1697.312
255.4516, 1718.140
255.9338, 1740.340
256.4159, 1764.042
256.8980, 1789.260
257.3801, 1816.968
257.8622, 1844.440
258.3444, 1871.114
258.8265, 1897.124
259.3086, 1922.175
259.7907, 1945.423
260.2728, 1968.303
260.7549, 1991.720
261.2371, 2016.239
261.7192, 2040.398
262.2013, 2064.493
262.6834, 2088.348
263.1655, 2107.624
263.6476, 2121.399
264.1298, 2132.423
264.6119, 2143.660
265.0940, 2156.266
265.5761, 2164.836
266.0582, 2168.553
266.5403, 2167.537
267.0225, 2162.305
267.5046, 2152.629
267.9867, 2139.175
268.4688, 2122.202
268.9509, 2101.172
269.4330, 2078.214
269.9152, 2053.858
270.3973, 2027.617
270.8794, 1998.180
271.3615, 1965.122
271.8436, 1930.179
272.3257, 1895.183
272.8079, 1860.092
273.2900, 1824.194
273.7721, 1786.648
274.2542, 1748.415
274.7363, 1712.135
275.2184, 1678.504
275.7006, 1644.496
276.1827, 1607.983
276.6648, 1568.298
277.1469, 1532.669
277.6290, 1502.258
278.1111, 1475.411
278.5933, 1448.679
279.0754, 1421.693
279.5575, 1395.483
280.0396, 1370.294
280.5217, 1346.320
281.0038, 1323.797
281.4860, 1302.800
281.9681, 1283.088
282.4502, 1264.354
282.9323, 1246.601
283.4144, 1229.566
283.8965, 1212.896
284.3787, 1196.792
284.8608, 1182.020
285.3429, 1168.709
285.8250, 1156.425
286.3071, 1144.648
286.7892, 1133.381
287.2714, 1122.559
287.7535, 1112.105
288.2356, 1101.982
288.7177, 1092.665
289.1998, 1084.129
289.6819, 1076.043
290.1641, 1067.974
290.6462, 1059.969
291.1283, 1052.366
291.6104, 1045.629
292.0925, 1039.364
292.5746, 1032.534
293.0568, 1025.059
293.5389, 1017.587
294.0210, 1010.626
294.5031, 1004.214
294.9852, 998.6974
295.4673, 994.8996
295.9495, 991.6769
296.4316, 986.6700
296.9137, 979.9437
297.3958, 972.9337
297.8779, 966.7239
298.3600, 961.1924
298.8422, 955.8836
299.3243, 950.6365
299.8064, 945.5836
300.2885, 941.1337
300.7706, 937.1926
301.2527, 932.9399
301.7349, 926.9259
302.2170, 920.3923
302.6991, 915.8791
303.1812, 914.7500
303.6633, 914.0992
304.1454, 910.8376
304.6276, 905.4162
305.1097, 899.3346
305.5918, 892.4575
306.0739, 885.8762
306.5560, 881.2258
307.0381, 879.1119
307.5203, 877.6940
308.0024, 875.6670
308.4845, 873.1733
308.9666, 870.5452
309.4487, 867.8287
309.9308, 865.1231
310.4130, 862.4602
310.8951, 859.8012
311.3772, 857.5123
311.8593, 856.0631
312.3414, 855.1360
312.8235, 854.2011
313.3057, 852.5905
313.7878, 851.2383
314.2699, 850.7016
314.7520, 851.0230
315.2341, 851.8839
315.7162, 854.3861
316.1984, 856.9173
316.6805, 857.6531
317.1626, 854.4547
317.6447, 850.8160
318.1268, 847.7520
318.6089, 845.2958
319.0911, 843.8405
319.5732, 844.4046
320.0553, 845.5494
320.5374, 846.1631
321.0195, 845.6779
321.5016, 845.0104
321.9838, 844.4216
322.4659, 843.8488
322.9480, 842.9705
323.4301, 841.6663
323.9122, 840.0781
324.3943, 838.2330
324.8765, 835.1706
325.3586, 833.2116
325.8407, 833.5811
326.3228, 835.2452
326.8049, 835.5801
327.2870, 833.4750
327.7692, 830.8309
328.2513, 828.2852
328.7334, 826.0834
329.2155, 823.4659
329.6976, 820.1380
330.1797, 816.4774
330.6619, 813.1146
331.1440, 810.1025
331.6261, 807.2927
332.1082, 804.7556
332.5903, 802.6536
333.0724, 799.9479
333.5546, 796.1038
334.0367, 792.1380
334.5188, 789.1579
335.0009, 787.2584
335.4830, 786.1561
335.9651, 786.2979
336.4473, 787.4692
336.9294, 786.7125
337.4115, 783.2665
337.8936, 779.4100
338.3757, 777.0912
338.8578, 776.6419
339.3399, 776.0089
339.8221, 774.8933
340.3042, 773.4494
340.7863, 772.2610
341.2684, 771.3876
341.7505, 770.4319
342.2326, 768.9368
342.7148, 766.9245
343.1969, 765.6168
343.6790, 765.2586
344.1611, 765.3290
344.6432, 764.8107
345.1253, 763.7050
345.6075, 762.8831
346.0896, 763.0691
346.5717, 763.9329
347.0538, 764.0560
347.5359, 763.3486
348.0180, 762.2219
348.5002, 760.8643
348.9823, 759.4055
349.4644, 758.4246
349.9465, 758.4775
350.4286, 758.9672
350.9107, 758.9490
351.3929, 758.4365
351.8750, 757.5175
352.3571, 756.2128
352.8392, 754.5855
353.3213, 752.6612
353.8034, 750.1422
354.2856, 747.8182
354.7677, 746.4258
355.2498, 745.9005
355.7319, 745.9207
356.2140, 746.7021
356.6961, 747.7234
357.1783, 748.5120
357.6604, 749.0268
358.1425, 749.1253
358.6246, 748.1532
359.1067, 746.7043
359.5888, 745.9352
360.0710, 747.0480
360.5531, 748.4296
361.0352, 749.1666
361.5173, 749.1334
361.9994, 748.8213
362.4815, 748.1526
362.9637, 747.4050
363.4458, 746.8770
363.9279, 746.6779
364.4100, 746.6888
364.8921, 746.8621
365.3742, 747.2054
365.8564, 747.8160
366.3385, 749.7261
366.8206, 751.2513
367.3027, 751.3801
367.7848, 747.6852
368.2669, 745.4183
368.7491, 745.7477
369.2312, 747.7826
369.7133, 748.9671
370.1954, 748.5645
370.6775, 748.1299
371.1596, 748.2303
371.6418, 748.9788
372.1239, 750.0148
372.6060, 751.6010
373.0881, 753.2909
373.5702, 754.3466
374.0523, 754.3271
374.5345, 754.7194
375.0166, 756.1652
375.4987, 758.6343
375.9808, 759.9626
376.4629, 759.7154
376.9450, 759.2405
377.4272, 759.7649
377.9093, 761.3535
378.3914, 763.3879
378.8735, 766.1503
379.3556, 768.9896
379.8377, 769.7293
380.3199, 768.1823
380.8020, 766.7344
381.2841, 767.2380
381.7662, 769.3177
382.2483, 770.8522
382.7304, 771.5889
383.2126, 772.0596
383.6947, 773.3115
384.1768, 775.1028
384.6589, 776.1874
385.1410, 775.4997
385.6231, 773.9319
386.1053, 772.9539
386.5874, 772.6033
387.0695, 772.4759
387.5516, 772.3035
388.0337, 772.1049
388.5158, 771.9142
388.9980, 771.7318
389.4801, 771.5633
389.9622, 771.5989
390.4443, 771.7176
390.9264, 771.4172
391.4085, 769.7785
391.8907, 767.9720
392.3728, 767.0301
392.8549, 767.4689
393.3370, 767.9313
393.8191, 767.7184
394.3012, 767.1624
394.7834, 766.8254
395.2655, 767.6685
395.7476, 768.0452
396.2297, 766.9437
396.7118, 764.0300
397.1939, 761.9653
397.6761, 761.6979
398.1582, 762.1688
398.6403, 762.4932
399.1224, 763.1287
399.6045, 762.9944
400.0866, 761.3672
400.5688, 758.6530
401.0509, 757.3710
401.5330, 758.7531
402.0151, 760.0753
402.4972, 759.9903
402.9793, 757.9362
403.4615, 755.8757
403.9436, 753.5959
404.4257, 751.5216
404.9078, 750.6298
405.3899, 751.2939
405.8720, 751.6299
406.3542, 750.5692
406.8363, 748.3369
407.3184, 748.5898
407.8005, 751.9186
408.2826, 755.2390
408.7647, 754.9321
409.2469, 751.3181
409.7290, 748.7927
410.2111, 748.4722
410.6932, 749.3274
411.1753, 749.5543
411.6574, 749.1779
412.1396, 748.4163
412.6217, 747.1957
413.1038, 745.7511
413.5859, 744.4330
414.0680, 743.2414
414.5501, 742.4083
415.0323, 742.1254
415.5144, 742.3519
415.9965, 743.0007
416.4786, 744.7549
416.9607, 746.3682
417.4428, 746.8204
417.9250, 746.1664
418.4071, 745.1080
418.8892, 743.3817
419.3713, 741.7434
419.8534, 740.8847
420.3355, 741.3026
420.8177, 741.9239
421.2998, 742.9635
421.7819, 743.9516
422.2640, 743.8900
422.7461, 740.9954
423.2282, 738.4362
423.7104, 737.4882
424.1925, 738.6805
424.6746, 739.6901
425.1567, 740.8380
425.6388, 741.5413
426.1209, 741.1865
426.6031, 738.6613
427.0852, 736.8955
427.5673, 736.5208
428.0494, 737.2328
428.5315, 737.4019
429.0136, 736.8115
429.4958, 736.0812
429.9779, 735.5327
430.4600, 735.1782
430.9421, 734.7682
431.4242, 734.1550
431.9063, 733.7402
432.3885, 734.3810
432.8706, 736.0886
433.3527, 737.6057
433.8348, 738.6570
434.3169, 739.1602
434.7990, 738.4578
435.2812, 736.5536
435.7633, 734.9122
436.2454, 735.4049
436.7275, 737.0866
437.2096, 737.5680
437.6917, 735.9689
438.1739, 734.0956
438.6560, 734.2054
439.1381, 735.6308
439.6202, 736.6068
440.1023, 735.5013
440.5844, 734.0551
441.0666, 733.8895
441.5487, 735.1630
442.0308, 736.2512
442.5129, 736.4045
442.9950, 735.9486
443.4771, 735.1937
443.9593, 733.2667
444.4414, 732.0764
444.9235, 732.5692
445.4056, 734.2733
445.8877, 735.5318
446.3698, 735.7609
446.8520, 735.7740
447.3341, 735.8839
447.8162, 736.1596
448.2983, 736.2649
448.7804, 735.9070
449.2625, 735.5681
449.7447, 735.8325
450.2268, 736.9122
450.7089, 738.1464
451.1910, 739.6035
451.6731, 741.1260
452.1552, 741.7814
452.6374, 741.4608
453.1195, 740.6841
453.6016, 739.6226
454.0837, 738.3083
454.5658, 737.1630
455.0479, 736.1545
455.5301, 735.5624
456.0122, 736.1223
456.4943, 737.6339
456.9764, 738.7946
457.4585, 738.6371
457.9406, 738.1261
458.4228, 739.3533
458.9049, 742.0925
459.3870, 744.2424
459.8691, 743.7323
460.3512, 741.9310
460.8333, 740.5334
461.3155, 739.9316
461.7976, 739.5262
462.2797, 738.8718
462.7618, 738.1454
463.2439, 737.6727
463.7260, 737.5513
464.2082, 737.7272
464.6903, 738.5456
465.1724, 740.0016
465.6545, 740.5389
466.1366, 738.5836
466.6187, 736.4196
467.1009, 735.5437
467.5830, 737.3444
468.0651, 738.6624
468.5472, 739.1283
469.0293, 739.2038
469.5114, 739.8920
469.9936, 741.6025
470.4757, 743.1452
470.9578, 744.2479
471.4399, 744.9065
471.9220, 744.6818
472.4041, 743.3320
472.8863, 741.8209
473.3684, 740.8585
473.8505, 740.4464
474.3326, 740.9722
474.8147, 742.8458
475.2968, 744.9933
475.7790, 745.1885
476.2611, 743.7362
476.7432, 742.6678
477.2253, 743.3979
477.7074, 745.0097
478.1895, 746.0801
478.6717, 746.5837
479.1538, 746.9326
479.6359, 747.7355
480.1180, 748.4630
480.6001, 748.3512
481.0822, 746.4879
481.5644, 744.9626
482.0465, 745.2588
482.5286, 746.6847
483.0107, 747.7365
483.4928, 747.6772
483.9749, 747.3802
484.4571, 747.0951
484.9392, 746.7951
485.4213, 746.8206
485.9034, 747.3210
486.3855, 748.0632
486.8676, 748.9242
487.3498, 750.1236
487.8319, 750.9972
488.3140, 751.3947
488.7961, 751.4726
489.2782, 751.5839
489.7603, 751.7072
490.2425, 751.9110
490.7246, 752.2850
491.2067, 752.7994
491.6888, 753.1243
492.1709, 753.2820
492.6530, 753.1658
493.1352, 752.5967
493.6173, 751.6645
494.0994, 750.7762
494.5815, 750.1478
495.0636, 749.3137
495.5457, 747.1456
496.0279, 744.1946
496.5100, 742.0889
496.9921, 742.2229
497.4742, 743.1556
497.9563, 743.4168
498.4384, 743.0159
498.9206, 743.2369
499.4027, 745.7301
499.8848, 748.5532
500.3669, 750.0941
500.8490, 749.0648
501.3311, 748.2815
501.8133, 748.7598
502.2954, 749.8185
502.7775, 750.1690
503.2596, 748.3712
503.7417, 747.3832
504.2238, 748.2574
504.7060, 750.9360
505.1881, 752.3751
505.6702, 752.0406
506.1523, 751.3168
506.6344, 751.1086
507.1165, 751.4755
507.5987, 751.8352
508.0808, 752.0101
508.5629, 752.4566
509.0450, 754.5974
509.5271, 758.2093
510.0092, 760.1340
510.4914, 758.2433
510.9735, 754.6119
511.4556, 753.6433
511.9377, 755.0795
512.4199, 756.6243
512.9020, 756.7421
513.3841, 756.0559
513.8662, 755.2061
514.3483, 754.2072
514.8304, 753.4160
515.3126, 752.9354
515.7947, 752.8221
516.2768, 753.1400
516.7589, 754.3487
517.2410, 755.5144
517.7231, 756.4102
518.2053, 757.0342
518.6874, 757.4208
519.1695, 758.0417
519.6516, 757.9488
520.1337, 756.3431
520.6158, 752.3218
521.0980, 751.0748
521.5801, 753.9677
522.0622, 757.9000
522.5443, 759.6931
523.0264, 758.9831
523.5085, 758.3256
523.9907, 758.0698
524.4728, 758.1649
524.9549, 758.6075
525.4370, 759.3871
525.9191, 760.1342
526.4012, 760.7637
526.8834, 761.2137
527.3655, 761.1685
527.8476, 760.6429
528.3297, 760.2939
528.8118, 760.8301
529.2939, 761.7638
529.7761, 762.4594
530.2582, 762.6230
530.7403, 762.8600
531.2224, 763.8243
531.7045, 765.0115
532.1866, 765.5961
532.6688, 763.8141
533.1509, 762.9388
533.6330, 764.7269
534.1151, 769.0146
534.5972, 771.5738
535.0793, 771.3976
535.5615, 770.4301
536.0436, 769.5180
536.5257, 768.6263
537.0078, 767.8722
537.4899, 767.1672
537.9720, 766.7636
538.4542, 767.2253
538.9363, 768.6462
539.4184, 769.5028
539.9005, 769.2245
540.3826, 768.4695
540.8647, 768.6901
541.3469, 769.7913
541.8290, 771.0019
542.3111, 771.9406
542.7932, 772.7107
543.2753, 773.5053
543.7574, 774.3252
544.2396, 774.9285
544.7217, 774.5480
545.2038, 774.1315
545.6859, 774.7610
546.1680, 777.4980
546.6501, 779.7662
547.1323, 780.5402
547.6144, 780.2783
548.0965, 779.8030
548.5786, 778.4034
549.0607, 777.7339
549.5428, 778.5048
550.0250, 780.5184
550.5071, 781.5519
550.9892, 780.9869
551.4713, 780.5773
551.9534, 781.5283
552.4355, 784.0692
552.9177, 785.5822
553.3998, 785.9315
553.8819, 785.6461
554.3640, 785.3688
554.8461, 785.0260
555.3282, 784.0516
555.8104, 781.9025
556.2925, 779.7849
556.7746, 779.7054
557.2567, 781.0974
557.7388, 782.1961
558.2209, 781.5345
558.7031, 780.6009
559.1852, 780.4603
559.6673, 781.1479
560.1494, 782.3650
560.6315, 785.7320
561.1136, 788.4062
561.5958, 788.1576
562.0779, 781.6475
562.5600, 778.1423
563.0421, 780.0291
563.5242, 784.0645
564.0063, 786.1127
564.4885, 784.9437
564.9706, 784.6874
565.4527, 786.4981
565.9348, 789.5417
566.4169, 790.9688
566.8990, 790.6180
567.3812, 789.8490
567.8633, 789.1543
568.3454, 788.5952
568.8275, 788.5099
569.3096, 788.9111
569.7917, 789.2833
570.2739, 789.1318
570.7560, 788.6832
571.2381, 788.1765
571.7202, 787.4758
572.2023, 787.2916
572.6844, 788.9617
573.1666, 791.2305
573.6487, 792.2336
574.1308, 789.2770
574.6129, 787.1954
575.0950, 788.2628
575.5771, 791.8265
576.0593, 793.6561
576.5414, 792.8290
577.0235, 791.2442
577.5056, 789.0648
577.9877, 785.9767
578.4698, 785.9351
578.9520, 789.9242
579.4341, 794.5032
579.9162, 796.2862
580.3983, 795.4725
580.8804, 795.3804
581.3625, 796.7186
581.8447, 798.1091
582.3268, 796.8817
582.8089, 794.0761
