##NAMES=Cechite
##RRUFFID=R070363
##IDEAL CHEMISTRY=Pb^2+^Fe^2+^V^5+^O_4_(OH)
##LOCALITY=Alexander mine, Vrancice, Příbram, Central Bohemia Region, Bohemia, Czech Republic
##OWNER=RRUFF
##SOURCE=Michael Scott
##DESCRIPTION=Black submetallic fragments associated with calcite and with R120086, goethite
##STATUS=The identification of this mineral has been confirmed only by single crystal X-ray diffraction.
##URL=rruff.info/R070363
8.813672e+001, 3.391237e+002
8.861884e+001, 3.436291e+002
8.910095e+001, 3.479789e+002
8.958307e+001, 3.527007e+002
9.006519e+001, 3.585960e+002
9.054730e+001, 3.665318e+002
9.102942e+001, 3.785268e+002
9.151154e+001, 3.890568e+002
9.199365e+001, 3.903104e+002
9.247577e+001, 3.838370e+002
9.295789e+001, 3.773258e+002
9.344000e+001, 3.771238e+002
9.392212e+001, 3.808888e+002
9.440424e+001, 3.825893e+002
9.488635e+001, 3.811214e+002
9.536847e+001, 3.778996e+002
9.585059e+001, 3.755844e+002
9.633270e+001, 3.741255e+002
9.681482e+001, 3.732936e+002
9.729694e+001, 3.724047e+002
9.777905e+001, 3.714694e+002
9.826117e+001, 3.727326e+002
9.874329e+001, 3.779797e+002
9.922540e+001, 3.862708e+002
9.970752e+001, 3.904339e+002
1.001896e+002, 3.895125e+002
1.006718e+002, 3.865192e+002
1.011539e+002, 3.850912e+002
1.016360e+002, 3.854398e+002
1.021181e+002, 3.864896e+002
1.026002e+002, 3.878676e+002
1.030823e+002, 3.894957e+002
1.035645e+002, 3.917400e+002
1.040466e+002, 3.939665e+002
1.045287e+002, 3.971903e+002
1.050108e+002, 4.036862e+002
1.054929e+002, 4.153618e+002
1.059750e+002, 4.274755e+002
1.064572e+002, 4.386634e+002
1.069393e+002, 4.519054e+002
1.074214e+002, 4.589308e+002
1.079035e+002, 4.568473e+002
1.083856e+002, 4.482570e+002
1.088677e+002, 4.423186e+002
1.093499e+002, 4.402324e+002
1.098320e+002, 4.398328e+002
1.103141e+002, 4.401934e+002
1.107962e+002, 4.408609e+002
1.112783e+002, 4.427781e+002
1.117604e+002, 4.465160e+002
1.122426e+002, 4.518579e+002
1.127247e+002, 4.570696e+002
1.132068e+002, 4.606324e+002
1.136889e+002, 4.646593e+002
1.141710e+002, 4.705759e+002
1.146531e+002, 4.826826e+002
1.151353e+002, 4.929151e+002
1.156174e+002, 4.979952e+002
1.160995e+002, 4.978695e+002
1.165816e+002, 4.983272e+002
1.170637e+002, 5.029757e+002
1.175458e+002, 5.088465e+002
1.180280e+002, 5.127709e+002
1.185101e+002, 5.111738e+002
1.189922e+002, 5.088903e+002
1.194743e+002, 5.087711e+002
1.199564e+002, 5.111276e+002
1.204385e+002, 5.143995e+002
1.209207e+002, 5.165656e+002
1.214028e+002, 5.190342e+002
1.218849e+002, 5.242635e+002
1.223670e+002, 5.387422e+002
1.228491e+002, 5.542980e+002
1.233312e+002, 5.614823e+002
1.238134e+002, 5.579066e+002
1.242955e+002, 5.510884e+002
1.247776e+002, 5.467867e+002
1.252597e+002, 5.447922e+002
1.257418e+002, 5.443503e+002
1.262239e+002, 5.452691e+002
1.267061e+002, 5.474532e+002
1.271882e+002, 5.507634e+002
1.276703e+002, 5.554267e+002
1.281524e+002, 5.608207e+002
1.286345e+002, 5.661940e+002
1.291166e+002, 5.715467e+002
1.295988e+002, 5.769117e+002
1.300809e+002, 5.831885e+002
1.305630e+002, 5.897552e+002
1.310451e+002, 5.938011e+002
1.315272e+002, 5.938749e+002
1.320093e+002, 5.917097e+002
1.324915e+002, 5.911384e+002
1.329736e+002, 5.922209e+002
1.334557e+002, 5.944074e+002
1.339378e+002, 5.974197e+002
1.344199e+002, 6.012487e+002
1.349020e+002, 6.052805e+002
1.353842e+002, 6.095373e+002
1.358663e+002, 6.138199e+002
1.363484e+002, 6.170681e+002
1.368305e+002, 6.186268e+002
1.373126e+002, 6.209618e+002
1.377947e+002, 6.279678e+002
1.382769e+002, 6.411653e+002
1.387590e+002, 6.512716e+002
1.392411e+002, 6.552041e+002
1.397232e+002, 6.528776e+002
1.402053e+002, 6.498252e+002
1.406874e+002, 6.456738e+002
1.411696e+002, 6.412501e+002
1.416517e+002, 6.376944e+002
1.421338e+002, 6.351520e+002
1.426159e+002, 6.331782e+002
1.430980e+002, 6.316545e+002
1.435801e+002, 6.306121e+002
1.440623e+002, 6.300650e+002
1.445444e+002, 6.299963e+002
1.450265e+002, 6.304796e+002
1.455086e+002, 6.317728e+002
1.459907e+002, 6.351652e+002
1.464728e+002, 6.377080e+002
1.469550e+002, 6.383226e+002
1.474371e+002, 6.359730e+002
1.479192e+002, 6.340623e+002
1.484013e+002, 6.327015e+002
1.488834e+002, 6.317714e+002
1.493655e+002, 6.309911e+002
1.498477e+002, 6.300731e+002
1.503298e+002, 6.295524e+002
1.508119e+002, 6.297125e+002
1.512940e+002, 6.319189e+002
1.517761e+002, 6.327849e+002
1.522583e+002, 6.306501e+002
1.527404e+002, 6.268845e+002
1.532225e+002, 6.253769e+002
1.537046e+002, 6.293075e+002
1.541867e+002, 6.335192e+002
1.546688e+002, 6.356524e+002
1.551510e+002, 6.344982e+002
1.556331e+002, 6.324609e+002
1.561152e+002, 6.292753e+002
1.565973e+002, 6.253008e+002
1.570794e+002, 6.220176e+002
1.575615e+002, 6.201943e+002
1.580437e+002, 6.188591e+002
1.585258e+002, 6.174013e+002
1.590079e+002, 6.151898e+002
1.594900e+002, 6.133657e+002
1.599721e+002, 6.121340e+002
1.604542e+002, 6.115104e+002
1.609364e+002, 6.115863e+002
1.614185e+002, 6.127115e+002
1.619006e+002, 6.143969e+002
1.623827e+002, 6.162490e+002
1.628648e+002, 6.193414e+002
1.633469e+002, 6.215272e+002
1.638291e+002, 6.216038e+002
1.643112e+002, 6.197022e+002
1.647933e+002, 6.172403e+002
1.652754e+002, 6.141693e+002
1.657575e+002, 6.111476e+002
1.662396e+002, 6.088671e+002
1.667218e+002, 6.074138e+002
1.672039e+002, 6.068933e+002
1.676860e+002, 6.077639e+002
1.681681e+002, 6.099781e+002
1.686502e+002, 6.122048e+002
1.691323e+002, 6.138485e+002
1.696145e+002, 6.149257e+002
1.700966e+002, 6.154423e+002
1.705787e+002, 6.151354e+002
1.710608e+002, 6.144332e+002
1.715429e+002, 6.136642e+002
1.720250e+002, 6.128318e+002
1.725072e+002, 6.119500e+002
1.729893e+002, 6.106492e+002
1.734714e+002, 6.093078e+002
1.739535e+002, 6.086240e+002
1.744356e+002, 6.096430e+002
1.749177e+002, 6.111579e+002
1.753999e+002, 6.116368e+002
1.758820e+002, 6.109481e+002
1.763641e+002, 6.099962e+002
1.768462e+002, 6.095029e+002
1.773283e+002, 6.093727e+002
1.778104e+002, 6.093663e+002
1.782926e+002, 6.094322e+002
1.787747e+002, 6.095214e+002
1.792568e+002, 6.095609e+002
1.797389e+002, 6.095405e+002
1.802210e+002, 6.094618e+002
1.807031e+002, 6.093004e+002
1.811853e+002, 6.090705e+002
1.816674e+002, 6.088397e+002
1.821495e+002, 6.087283e+002
1.826316e+002, 6.086390e+002
1.831137e+002, 6.083139e+002
1.835958e+002, 6.077106e+002
1.840780e+002, 6.070145e+002
1.845601e+002, 6.062684e+002
1.850422e+002, 6.055556e+002
1.855243e+002, 6.052913e+002
1.860064e+002, 6.064447e+002
1.864885e+002, 6.083775e+002
1.869707e+002, 6.084594e+002
1.874528e+002, 6.061769e+002
1.879349e+002, 6.030792e+002
1.884170e+002, 6.015478e+002
1.888991e+002, 6.015086e+002
1.893812e+002, 6.016829e+002
1.898634e+002, 6.013879e+002
1.903455e+002, 6.006969e+002
1.908276e+002, 6.001376e+002
1.913097e+002, 5.998093e+002
1.917918e+002, 5.994411e+002
1.922739e+002, 5.982781e+002
1.927561e+002, 5.962492e+002
1.932382e+002, 5.946985e+002
1.937203e+002, 5.947641e+002
1.942024e+002, 5.962780e+002
1.946845e+002, 5.969304e+002
1.951666e+002, 5.963810e+002
1.956488e+002, 5.951769e+002
1.961309e+002, 5.943311e+002
1.966130e+002, 5.938567e+002
1.970951e+002, 5.935773e+002
1.975772e+002, 5.933226e+002
1.980593e+002, 5.930906e+002
1.985415e+002, 5.934241e+002
1.990236e+002, 5.946436e+002
1.995057e+002, 5.961107e+002
1.999878e+002, 5.961872e+002
2.004699e+002, 5.946355e+002
2.009520e+002, 5.928736e+002
2.014342e+002, 5.916136e+002
2.019163e+002, 5.908466e+002
2.023984e+002, 5.906895e+002
2.028805e+002, 5.914029e+002
2.033626e+002, 5.925060e+002
2.038447e+002, 5.927403e+002
2.043269e+002, 5.919412e+002
2.048090e+002, 5.908549e+002
2.052911e+002, 5.897739e+002
2.057732e+002, 5.886166e+002
2.062553e+002, 5.880701e+002
2.067374e+002, 5.884847e+002
2.072196e+002, 5.893380e+002
2.077017e+002, 5.889272e+002
2.081838e+002, 5.866683e+002
2.086659e+002, 5.847610e+002
2.091480e+002, 5.847856e+002
2.096301e+002, 5.873914e+002
2.101123e+002, 5.889075e+002
2.105944e+002, 5.888817e+002
2.110765e+002, 5.877849e+002
2.115586e+002, 5.868809e+002
2.120407e+002, 5.861172e+002
2.125228e+002, 5.856668e+002
2.130050e+002, 5.857216e+002
2.134871e+002, 5.864673e+002
2.139692e+002, 5.870095e+002
2.144513e+002, 5.872499e+002
2.149334e+002, 5.872675e+002
2.154155e+002, 5.872839e+002
2.158977e+002, 5.872473e+002
2.163798e+002, 5.872937e+002
2.168619e+002, 5.875906e+002
2.173440e+002, 5.883852e+002
2.178261e+002, 5.885861e+002
2.183082e+002, 5.879196e+002
2.187904e+002, 5.866864e+002
2.192725e+002, 5.857923e+002
2.197546e+002, 5.852817e+002
2.202367e+002, 5.850422e+002
2.207188e+002, 5.851215e+002
2.212009e+002, 5.858304e+002
2.216831e+002, 5.859999e+002
2.221652e+002, 5.853752e+002
2.226473e+002, 5.842654e+002
2.231294e+002, 5.835261e+002
2.236115e+002, 5.830553e+002
2.240936e+002, 5.831365e+002
2.245758e+002, 5.841556e+002
2.250579e+002, 5.870734e+002
2.255400e+002, 5.884931e+002
2.260221e+002, 5.878943e+002
2.265042e+002, 5.858964e+002
2.269863e+002, 5.841571e+002
2.274685e+002, 5.825934e+002
2.279506e+002, 5.813881e+002
2.284327e+002, 5.806863e+002
2.289148e+002, 5.807961e+002
2.293969e+002, 5.806274e+002
2.298790e+002, 5.799084e+002
2.303612e+002, 5.789746e+002
2.308433e+002, 5.786810e+002
2.313254e+002, 5.791365e+002
2.318075e+002, 5.800513e+002
2.322896e+002, 5.814895e+002
2.327717e+002, 5.841804e+002
2.332539e+002, 5.855199e+002
2.337360e+002, 5.849961e+002
2.342181e+002, 5.832739e+002
2.347002e+002, 5.817896e+002
2.351823e+002, 5.804045e+002
2.356644e+002, 5.794752e+002
2.361466e+002, 5.792189e+002
2.366287e+002, 5.799460e+002
2.371108e+002, 5.805081e+002
2.375929e+002, 5.809702e+002
2.380750e+002, 5.812313e+002
2.385571e+002, 5.809986e+002
2.390393e+002, 5.798165e+002
2.395214e+002, 5.788748e+002
2.400035e+002, 5.787380e+002
2.404856e+002, 5.799114e+002
2.409677e+002, 5.803457e+002
2.414498e+002, 5.797366e+002
2.419320e+002, 5.785670e+002
2.424141e+002, 5.776598e+002
2.428962e+002, 5.770768e+002
2.433783e+002, 5.766796e+002
2.438604e+002, 5.764007e+002
2.443425e+002, 5.761789e+002
2.448247e+002, 5.763928e+002
2.453068e+002, 5.774298e+002
2.457889e+002, 5.786669e+002
2.462710e+002, 5.790645e+002
2.467531e+002, 5.781231e+002
2.472352e+002, 5.771865e+002
2.477174e+002, 5.766278e+002
2.481995e+002, 5.764756e+002
2.486816e+002, 5.765593e+002
2.491637e+002, 5.769604e+002
2.496458e+002, 5.775239e+002
2.501279e+002, 5.780453e+002
2.506101e+002, 5.785674e+002
2.510922e+002, 5.789537e+002
2.515743e+002, 5.790815e+002
2.520564e+002, 5.788723e+002
2.525385e+002, 5.790631e+002
2.530206e+002, 5.800234e+002
2.535028e+002, 5.810455e+002
2.539849e+002, 5.811520e+002
2.544670e+002, 5.797834e+002
2.549491e+002, 5.787057e+002
2.554312e+002, 5.783855e+002
2.559133e+002, 5.788658e+002
2.563955e+002, 5.794044e+002
2.568776e+002, 5.801017e+002
2.573597e+002, 5.807461e+002
2.578418e+002, 5.810602e+002
2.583239e+002, 5.808240e+002
2.588061e+002, 5.807867e+002
2.592882e+002, 5.811876e+002
2.597703e+002, 5.820162e+002
2.602524e+002, 5.825145e+002
2.607345e+002, 5.825329e+002
2.612166e+002, 5.824384e+002
2.616988e+002, 5.825742e+002
2.621809e+002, 5.830221e+002
2.626630e+002, 5.834705e+002
2.631451e+002, 5.838812e+002
2.636272e+002, 5.842561e+002
2.641093e+002, 5.845457e+002
2.645915e+002, 5.847155e+002
2.650736e+002, 5.848779e+002
2.655557e+002, 5.851193e+002
2.660378e+002, 5.854388e+002
2.665199e+002, 5.858692e+002
2.670020e+002, 5.865198e+002
2.674842e+002, 5.872897e+002
2.679663e+002, 5.875065e+002
2.684484e+002, 5.868710e+002
2.689305e+002, 5.863608e+002
2.694126e+002, 5.867581e+002
2.698947e+002, 5.883246e+002
2.703769e+002, 5.896641e+002
2.708590e+002, 5.906263e+002
2.713411e+002, 5.912881e+002
2.718232e+002, 5.917613e+002
2.723053e+002, 5.918958e+002
2.727874e+002, 5.922855e+002
2.732696e+002, 5.934835e+002
2.737517e+002, 5.956967e+002
2.742338e+002, 5.972721e+002
2.747159e+002, 5.979467e+002
2.751980e+002, 5.981081e+002
2.756801e+002, 5.985502e+002
2.761623e+002, 5.992502e+002
2.766444e+002, 6.003552e+002
2.771265e+002, 6.021152e+002
2.776086e+002, 6.046318e+002
2.780907e+002, 6.068090e+002
2.785728e+002, 6.086639e+002
2.790550e+002, 6.101331e+002
2.795371e+002, 6.109433e+002
2.800192e+002, 6.110056e+002
2.805013e+002, 6.111306e+002
2.809834e+002, 6.115146e+002
2.814655e+002, 6.121672e+002
2.819477e+002, 6.137218e+002
2.824298e+002, 6.163620e+002
2.829119e+002, 6.193576e+002
2.833940e+002, 6.216890e+002
2.838761e+002, 6.233359e+002
2.843582e+002, 6.248165e+002
2.848404e+002, 6.262784e+002
2.853225e+002, 6.277170e+002
2.858046e+002, 6.291721e+002
2.862867e+002, 6.306443e+002
2.867688e+002, 6.320403e+002
2.872509e+002, 6.332003e+002
2.877331e+002, 6.341429e+002
2.882152e+002, 6.351437e+002
2.886973e+002, 6.364639e+002
2.891794e+002, 6.378745e+002
2.896615e+002, 6.384667e+002
2.901436e+002, 6.381992e+002
2.906258e+002, 6.377830e+002
2.911079e+002, 6.380496e+002
2.915900e+002, 6.388326e+002
2.920721e+002, 6.391370e+002
2.925542e+002, 6.384971e+002
2.930363e+002, 6.374467e+002
2.935185e+002, 6.372133e+002
2.940006e+002, 6.377852e+002
2.944827e+002, 6.383029e+002
2.949648e+002, 6.380800e+002
2.954469e+002, 6.372697e+002
2.959290e+002, 6.363156e+002
2.964112e+002, 6.352029e+002
2.968933e+002, 6.341154e+002
2.973754e+002, 6.334620e+002
2.978575e+002, 6.331656e+002
2.983396e+002, 6.327585e+002
2.988217e+002, 6.317625e+002
2.993039e+002, 6.304574e+002
2.997860e+002, 6.294854e+002
3.002681e+002, 6.290081e+002
3.007502e+002, 6.285803e+002
3.012323e+002, 6.277709e+002
3.017144e+002, 6.265865e+002
3.021966e+002, 6.251180e+002
3.026787e+002, 6.228008e+002
3.031608e+002, 6.204388e+002
3.036429e+002, 6.193033e+002
3.041250e+002, 6.196432e+002
3.046071e+002, 6.201749e+002
3.050893e+002, 6.195875e+002
3.055714e+002, 6.183297e+002
3.060535e+002, 6.173637e+002
3.065356e+002, 6.172034e+002
3.070177e+002, 6.174714e+002
3.074998e+002, 6.179131e+002
3.079820e+002, 6.185243e+002
3.084641e+002, 6.190793e+002
3.089462e+002, 6.193784e+002
3.094283e+002, 6.195422e+002
3.099104e+002, 6.197303e+002
3.103925e+002, 6.200565e+002
3.108747e+002, 6.203947e+002
3.113568e+002, 6.204803e+002
3.118389e+002, 6.203965e+002
3.123210e+002, 6.207362e+002
3.128031e+002, 6.221121e+002
3.132852e+002, 6.239464e+002
3.137674e+002, 6.257152e+002
3.142495e+002, 6.273752e+002
3.147316e+002, 6.287845e+002
3.152137e+002, 6.296874e+002
3.156958e+002, 6.302220e+002
3.161779e+002, 6.308569e+002
3.166601e+002, 6.317498e+002
3.171422e+002, 6.328228e+002
3.176243e+002, 6.340046e+002
3.181064e+002, 6.352037e+002
3.185885e+002, 6.366323e+002
3.190706e+002, 6.386843e+002
3.195528e+002, 6.409881e+002
3.200349e+002, 6.428281e+002
3.205170e+002, 6.437047e+002
3.209991e+002, 6.443126e+002
3.214812e+002, 6.448561e+002
3.219633e+002, 6.452567e+002
3.224455e+002, 6.459828e+002
3.229276e+002, 6.473861e+002
3.234097e+002, 6.490871e+002
3.238918e+002, 6.506202e+002
3.243739e+002, 6.519590e+002
3.248560e+002, 6.530900e+002
3.253382e+002, 6.540660e+002
3.258203e+002, 6.549211e+002
3.263024e+002, 6.553698e+002
3.267845e+002, 6.551942e+002
3.272666e+002, 6.547288e+002
3.277487e+002, 6.542328e+002
3.282309e+002, 6.535086e+002
3.287130e+002, 6.530074e+002
3.291951e+002, 6.528493e+002
3.296772e+002, 6.529994e+002
3.301593e+002, 6.531275e+002
3.306414e+002, 6.535240e+002
3.311236e+002, 6.536145e+002
3.316057e+002, 6.530393e+002
3.320878e+002, 6.512831e+002
3.325699e+002, 6.497800e+002
3.330520e+002, 6.488028e+002
3.335341e+002, 6.480618e+002
3.340163e+002, 6.466793e+002
3.344984e+002, 6.441413e+002
3.349805e+002, 6.418376e+002
3.354626e+002, 6.404567e+002
3.359447e+002, 6.403761e+002
3.364268e+002, 6.397215e+002
3.369090e+002, 6.383160e+002
3.373911e+002, 6.365197e+002
3.378732e+002, 6.348686e+002
3.383553e+002, 6.333466e+002
3.388374e+002, 6.320519e+002
3.393195e+002, 6.309741e+002
3.398017e+002, 6.301313e+002
3.402838e+002, 6.298437e+002
3.407659e+002, 6.303475e+002
3.412480e+002, 6.308227e+002
3.417301e+002, 6.301180e+002
3.422122e+002, 6.281108e+002
3.426944e+002, 6.268689e+002
3.431765e+002, 6.270876e+002
3.436586e+002, 6.282824e+002
3.441407e+002, 6.288183e+002
3.446228e+002, 6.286511e+002
3.451049e+002, 6.283007e+002
3.455871e+002, 6.281135e+002
3.460692e+002, 6.280725e+002
3.465513e+002, 6.280936e+002
3.470334e+002, 6.281719e+002
3.475155e+002, 6.282852e+002
3.479977e+002, 6.283890e+002
3.484798e+002, 6.284879e+002
3.489619e+002, 6.286199e+002
3.494440e+002, 6.288509e+002
3.499261e+002, 6.291262e+002
3.504082e+002, 6.293671e+002
3.508904e+002, 6.295911e+002
3.513725e+002, 6.296418e+002
3.518546e+002, 6.291780e+002
3.523367e+002, 6.283922e+002
3.528188e+002, 6.277842e+002
3.533009e+002, 6.280396e+002
3.537831e+002, 6.283417e+002
3.542652e+002, 6.276102e+002
3.547473e+002, 6.258785e+002
3.552294e+002, 6.239155e+002
3.557115e+002, 6.223219e+002
3.561936e+002, 6.208206e+002
3.566758e+002, 6.190136e+002
3.571579e+002, 6.163918e+002
3.576400e+002, 6.139056e+002
3.581221e+002, 6.122042e+002
3.586042e+002, 6.112106e+002
3.590863e+002, 6.105789e+002
3.595685e+002, 6.105705e+002
3.600506e+002, 6.106006e+002
3.605327e+002, 6.101778e+002
3.610148e+002, 6.090319e+002
3.614969e+002, 6.079474e+002
3.619790e+002, 6.074464e+002
3.624612e+002, 6.071954e+002
3.629433e+002, 6.066207e+002
3.634254e+002, 6.051361e+002
3.639075e+002, 6.036495e+002
3.643896e+002, 6.024382e+002
3.648717e+002, 6.014980e+002
3.653539e+002, 6.010102e+002
3.658360e+002, 6.015836e+002
3.663181e+002, 6.023448e+002
3.668002e+002, 6.025064e+002
3.672823e+002, 6.014549e+002
3.677644e+002, 6.003694e+002
3.682466e+002, 5.993699e+002
3.687287e+002, 5.984561e+002
3.692108e+002, 5.976542e+002
3.696929e+002, 5.968796e+002
3.701750e+002, 5.962848e+002
3.706571e+002, 5.960027e+002
3.711393e+002, 5.965851e+002
3.716214e+002, 5.964826e+002
3.721035e+002, 5.952774e+002
3.725856e+002, 5.935181e+002
3.730677e+002, 5.925472e+002
3.735498e+002, 5.928792e+002
3.740320e+002, 5.930023e+002
3.745141e+002, 5.922038e+002
3.749962e+002, 5.903023e+002
3.754783e+002, 5.892031e+002
3.759604e+002, 5.891684e+002
3.764425e+002, 5.895250e+002
3.769247e+002, 5.894965e+002
3.774068e+002, 5.890444e+002
3.778889e+002, 5.884349e+002
3.783710e+002, 5.876864e+002
3.788531e+002, 5.868437e+002
3.793352e+002, 5.861180e+002
3.798174e+002, 5.855422e+002
3.802995e+002, 5.848969e+002
3.807816e+002, 5.840938e+002
3.812637e+002, 5.831072e+002
3.817458e+002, 5.817053e+002
3.822279e+002, 5.797044e+002
3.827101e+002, 5.775571e+002
3.831922e+002, 5.758741e+002
3.836743e+002, 5.746324e+002
3.841564e+002, 5.737745e+002
3.846385e+002, 5.735331e+002
3.851206e+002, 5.735932e+002
3.856028e+002, 5.732177e+002
3.860849e+002, 5.723348e+002
3.865670e+002, 5.715056e+002
3.870491e+002, 5.713188e+002
3.875312e+002, 5.715562e+002
3.880133e+002, 5.717828e+002
3.884955e+002, 5.718506e+002
3.889776e+002, 5.718259e+002
3.894597e+002, 5.718112e+002
3.899418e+002, 5.717786e+002
3.904239e+002, 5.715704e+002
3.909060e+002, 5.709472e+002
3.913882e+002, 5.701794e+002
3.918703e+002, 5.694896e+002
3.923524e+002, 5.688525e+002
3.928345e+002, 5.684353e+002
3.933166e+002, 5.683651e+002
3.937987e+002, 5.685687e+002
3.942809e+002, 5.688969e+002
3.947630e+002, 5.694117e+002
3.952451e+002, 5.699414e+002
3.957272e+002, 5.704639e+002
3.962093e+002, 5.710016e+002
3.966914e+002, 5.713246e+002
3.971736e+002, 5.712896e+002
3.976557e+002, 5.710600e+002
3.981378e+002, 5.707845e+002
3.986199e+002, 5.700345e+002
3.991020e+002, 5.697411e+002
3.995841e+002, 5.702976e+002
4.000663e+002, 5.715298e+002
4.005484e+002, 5.722871e+002
4.010305e+002, 5.724012e+002
4.015126e+002, 5.722247e+002
4.019947e+002, 5.718714e+002
4.024768e+002, 5.711247e+002
4.029590e+002, 5.707736e+002
4.034411e+002, 5.710029e+002
4.039232e+002, 5.715075e+002
4.044053e+002, 5.717817e+002
4.048874e+002, 5.718467e+002
4.053695e+002, 5.716290e+002
4.058517e+002, 5.709553e+002
4.063338e+002, 5.698951e+002
4.068159e+002, 5.693734e+002
4.072980e+002, 5.694529e+002
4.077801e+002, 5.698654e+002
4.082622e+002, 5.705712e+002
4.087444e+002, 5.715386e+002
4.092265e+002, 5.719318e+002
4.097086e+002, 5.714472e+002
4.101907e+002, 5.704786e+002
4.106728e+002, 5.696842e+002
4.111549e+002, 5.690663e+002
4.116371e+002, 5.687800e+002
4.121192e+002, 5.691934e+002
4.126013e+002, 5.699620e+002
