##NAMES=Celestine
##RRUFFID=R040007
##IDEAL CHEMISTRY=SrS^6+^O_4_
##LOCALITY=Coahuila, Mexico
##OWNER=RRUFF
##SOURCE=University of Arizona Mineral Museum
##DESCRIPTION=Blue tabular crystals
##STATUS=The identification of this mineral has been confirmed by X-ray diffraction and chemical analysis
##URL=rruff.info/R040007
##MEASURED CHEMISTRY=(Sr_0.95_Ba_0.04_Ca_0.01_)_Σ=1_S_1.00_O_4_; = Light bands. (Sr_0.99_Ba_0.01_)_Σ=1_S_1.00_O_4_; trace amounts of Ca = Dark bands
114.6194, 73.88164
115.1015, 76.40625
115.5836, 77.76560
116.0657, 78.89211
116.5478, 80.03816
117.0300, 81.23905
117.5121, 82.40871
117.9942, 83.20859
118.4763, 84.02984
118.9584, 85.37038
119.4405, 87.56160
119.9227, 90.25835
120.4048, 93.24031
120.8869, 96.49617
121.3690, 100.0489
121.8511, 104.4197
122.3332, 109.1259
122.8154, 113.1509
123.2975, 115.4703
123.7796, 117.0527
124.2617, 118.7658
124.7438, 120.5025
125.2259, 122.9003
125.7081, 127.5337
126.1902, 133.6925
126.6723, 138.0307
127.1544, 137.9583
127.6365, 135.6784
128.1186, 134.3391
128.6008, 135.0045
129.0829, 136.3901
129.5650, 136.8036
130.0471, 136.2770
130.5292, 135.0474
131.0113, 133.1966
131.4935, 130.7825
131.9756, 127.9853
132.4577, 124.7587
132.9398, 121.2301
133.4219, 117.9079
133.9040, 114.8056
134.3862, 111.6376
134.8683, 107.8481
135.3504, 103.4376
135.8325, 99.74030
136.3146, 97.24244
136.7967, 95.86882
137.2789, 95.03770
137.7610, 95.00366
138.2431, 94.90009
138.7252, 93.28325
139.2073, 89.78255
139.6894, 86.56208
140.1716, 84.49623
140.6537, 83.75764
141.1358, 82.68704
141.6179, 81.07638
142.1000, 79.31396
142.5821, 78.14943
143.0643, 77.66338
143.5464, 77.56099
144.0285, 77.76848
144.5106, 78.42051
144.9927, 79.03848
145.4748, 79.66579
145.9570, 80.24907
146.4391, 80.58995
146.9212, 80.55539
147.4033, 80.44617
147.8854, 80.40450
148.3675, 80.53167
148.8497, 80.56125
149.3318, 80.37915
149.8139, 80.05740
150.2960, 79.96745
150.7781, 80.29972
151.2602, 80.72236
151.7424, 81.05361
152.2245, 80.90594
152.7066, 81.10326
153.1887, 82.05363
153.6708, 83.64009
154.1529, 84.51458
154.6351, 83.81841
155.1172, 82.84198
155.5993, 82.44975
156.0814, 83.22792
156.5635, 84.08749
157.0456, 85.05769
157.5278, 86.12151
158.0099, 86.49728
158.4920, 85.47607
158.9741, 83.95430
159.4562, 82.72685
159.9383, 81.96343
160.4205, 81.53487
160.9026, 81.44403
161.3847, 81.69826
161.8668, 82.12154
162.3489, 82.64227
162.8310, 83.30184
163.3132, 84.14833
163.7953, 84.83830
164.2774, 85.99321
164.7595, 88.26664
165.2416, 91.93243
165.7237, 95.09563
166.2059, 96.46275
166.6880, 96.81270
167.1701, 97.33006
167.6522, 98.60452
168.1343, 100.1715
168.6164, 101.7896
169.0985, 103.4963
169.5807, 104.9787
170.0628, 106.3509
170.5449, 107.3628
171.0270, 107.5013
171.5091, 105.9401
171.9912, 103.6700
172.4734, 101.6393
172.9555, 100.0178
173.4376, 98.47323
173.9197, 96.53063
174.4018, 94.39315
174.8839, 92.63673
175.3661, 91.66079
175.8482, 91.24702
176.3303, 91.17962
176.8124, 91.50317
177.2945, 91.97246
177.7766, 92.32191
178.2588, 92.58691
178.7409, 92.89994
179.2230, 93.38493
179.7051, 93.97409
180.1872, 94.56251
180.6693, 95.18855
181.1515, 95.71431
181.6336, 95.88342
182.1157, 95.73317
182.5978, 95.52775
183.0799, 95.44176
183.5620, 95.44032
184.0442, 95.44106
184.5263, 95.45271
185.0084, 95.42593
185.4905, 95.00322
185.9726, 94.22237
186.4547, 93.97118
186.9369, 95.30340
187.4190, 97.86418
187.9011, 100.0912
188.3832, 101.5885
188.8653, 102.6695
189.3474, 104.0486
189.8296, 105.7489
190.3117, 107.4690
190.7938, 108.7243
191.2759, 109.6388
191.7580, 111.3126
192.2401, 114.4964
192.7223, 118.3454
193.2044, 120.0854
193.6865, 119.5083
194.1686, 118.5803
194.6507, 119.5778
195.1328, 122.3643
195.6150, 123.8169
196.0971, 122.8332
196.5792, 120.0413
197.0613, 117.7878
197.5434, 116.0929
198.0255, 114.8472
198.5077, 114.3949
198.9898, 114.8059
199.4719, 114.2075
199.9540, 111.9997
200.4361, 108.4283
200.9182, 104.6298
201.4004, 100.5624
201.8825, 96.46527
202.3646, 92.44371
202.8467, 88.47980
203.3288, 85.05397
203.8109, 82.36681
204.2931, 80.35149
204.7752, 78.49291
205.2573, 76.84629
205.7394, 75.22475
206.2215, 73.34676
206.7036, 71.13117
207.1858, 69.18822
207.6679, 67.74323
208.1500, 66.75684
208.6321, 65.54160
209.1142, 63.90156
209.5963, 62.39788
210.0785, 61.78913
210.5606, 62.39423
211.0427, 62.70573
211.5248, 62.28942
212.0069, 61.16512
212.4890, 60.17110
212.9712, 59.29523
213.4533, 58.56557
213.9354, 58.08126
214.4175, 57.96593
214.8996, 57.69474
215.3817, 57.04459
215.8639, 56.01888
216.3460, 55.33297
216.8281, 54.96520
217.3102, 54.96526
217.7923, 55.56870
218.2744, 57.26994
218.7565, 58.27649
219.2387, 57.89656
219.7208, 56.08128
220.2029, 55.09154
220.6850, 55.30813
221.1671, 55.90828
221.6492, 55.92562
222.1314, 55.00262
222.6135, 54.32978
223.0956, 54.29681
223.5777, 54.94285
224.0598, 55.16182
224.5419, 54.65427
225.0241, 54.05271
225.5062, 54.14143
225.9883, 55.48820
226.4704, 56.30584
226.9525, 56.03786
227.4346, 54.62244
227.9168, 53.57069
228.3989, 52.92394
228.8810, 52.59460
229.3631, 52.51357
229.8452, 52.72435
230.3273, 53.12033
230.8095, 53.85596
231.2916, 54.96967
231.7737, 55.28832
232.2558, 54.37938
232.7379, 53.12515
233.2200, 52.41523
233.7022, 52.43087
234.1843, 52.65302
234.6664, 53.12929
235.1485, 53.86612
235.6306, 54.03719
236.1127, 53.24309
236.5949, 52.29296
237.0770, 51.99487
237.5591, 52.76900
238.0412, 53.37219
238.5233, 53.50586
239.0054, 53.17065
239.4876, 53.05554
239.9697, 53.24650
240.4518, 53.56252
240.9339, 53.88480
241.4160, 54.36650
241.8981, 54.53800
242.3803, 54.18354
242.8624, 53.32521
243.3445, 52.81188
243.8266, 52.72092
244.3087, 52.87954
244.7908, 53.17646
245.2730, 53.72439
245.7551, 54.18826
246.2372, 54.54753
246.7193, 54.79567
247.2014, 54.80259
247.6835, 54.33337
248.1657, 53.90529
248.6478, 53.99955
249.1299, 55.08744
249.6120, 55.64439
250.0941, 55.25936
250.5762, 54.09304
251.0584, 53.46631
251.5405, 53.62556
252.0226, 54.00250
252.5047, 54.19224
252.9868, 54.06304
253.4689, 54.08127
253.9511, 54.42194
254.4332, 54.97569
254.9153, 55.03860
255.3974, 54.26704
255.8795, 53.53833
256.3616, 53.43578
256.8438, 54.18654
257.3259, 55.01929
257.8080, 56.14686
258.2901, 57.29422
258.7722, 57.23573
259.2543, 55.19870
259.7365, 53.25216
260.2186, 52.61139
260.7007, 53.77970
261.1828, 54.79021
261.6649, 55.64199
262.1470, 56.23337
262.6292, 56.13905
263.1113, 54.92762
263.5934, 53.90603
264.0755, 53.88097
264.5576, 55.28587
265.0397, 56.10363
265.5219, 56.13961
266.0040, 55.66485
266.4861, 55.27560
266.9682, 54.98043
267.4503, 54.75911
267.9324, 54.61466
268.4146, 54.55472
268.8967, 54.49761
269.3788, 54.35344
269.8609, 54.30350
270.3430, 54.89223
270.8251, 56.46910
271.3073, 57.50911
271.7894, 57.06282
272.2715, 54.90316
272.7536, 53.82499
273.2357, 54.15366
273.7178, 55.10317
274.2000, 55.45881
274.6821, 55.07808
275.1642, 54.73022
275.6463, 54.77562
276.1284, 55.21566
276.6105, 55.16309
277.0927, 54.45225
277.5748, 53.60841
278.0569, 53.29866
278.5390, 53.56349
279.0211, 54.04026
279.5032, 54.73765
279.9854, 55.59467
280.4675, 56.07375
280.9496, 56.11836
281.4317, 55.97723
281.9138, 55.95598
282.3959, 56.06742
282.8781, 55.92432
283.3602, 55.23730
283.8423, 54.24379
284.3244, 54.05486
284.8065, 54.74936
285.2886, 55.72976
285.7708, 56.67625
286.2529, 57.56152
286.7350, 57.77708
287.2171, 56.90339
287.6992, 55.47865
288.1813, 55.04078
288.6635, 55.61678
289.1456, 56.57293
289.6277, 57.73543
290.1098, 58.98938
290.5919, 59.45667
291.0740, 58.81375
291.5562, 57.60702
292.0383, 56.82496
292.5204, 56.45191
293.0025, 56.30363
293.4846, 56.44460
293.9667, 56.74079
294.4489, 56.64086
294.9310, 55.96688
295.4131, 55.18292
295.8952, 55.04087
296.3773, 55.45571
296.8594, 55.86923
297.3416, 56.05410
297.8237, 56.00705
298.3058, 55.56440
298.7879, 54.60588
299.2700, 53.79269
299.7521, 54.14934
300.2343, 55.36341
300.7164, 56.41954
301.1985, 56.74013
301.6806, 56.64074
302.1627, 56.65637
302.6448, 56.82241
303.1270, 56.82380
303.6091, 55.97790
304.0912, 54.76261
304.5733, 54.13296
305.0554, 55.00506
305.5375, 56.38124
306.0197, 57.16995
306.5018, 57.39011
306.9839, 57.42892
307.4660, 57.73246
307.9481, 57.99236
308.4302, 57.72770
308.9124, 56.14486
309.3945, 54.62275
309.8766, 54.54424
310.3587, 55.65803
310.8408, 56.64496
311.3229, 56.50091
311.8051, 55.93041
312.2872, 55.67382
312.7693, 56.09778
313.2514, 56.53903
313.7335, 56.58364
314.2156, 56.33072
314.6978, 56.07300
315.1799, 55.71544
315.6620, 55.54644
316.1441, 55.87993
316.6262, 57.02526
317.1083, 57.96380
317.5905, 58.17350
318.0726, 57.89489
318.5547, 57.54759
319.0368, 57.05700
319.5189, 56.70757
320.0010, 56.68230
320.4832, 57.05134
320.9653, 57.45012
321.4474, 57.95797
321.9295, 58.38174
322.4116, 58.49550
322.8937, 58.02899
323.3759, 57.46136
323.8580, 56.73034
324.3401, 55.81266
324.8222, 55.52164
325.3043, 56.84504
325.7864, 58.37134
326.2686, 59.01223
326.7507, 57.61777
327.2328, 56.49180
327.7149, 55.98402
328.1970, 56.05731
328.6791, 56.21434
329.1613, 56.45867
329.6434, 56.77239
330.1255, 57.15514
330.6076, 57.81249
331.0897, 58.24282
331.5718, 58.43151
332.0540, 58.38616
332.5361, 58.08593
333.0182, 57.11712
333.5003, 56.43473
333.9824, 56.50588
334.4645, 57.68671
334.9467, 58.56164
335.4288, 59.21087
335.9109, 59.49087
336.3930, 58.97355
336.8751, 57.05555
337.3572, 55.76663
337.8394, 55.96693
338.3215, 57.75269
338.8036, 58.67125
339.2857, 58.45140
339.7678, 57.83643
340.2499, 57.68697
340.7320, 58.12330
341.2141, 58.30761
341.6963, 57.97300
342.1784, 57.24832
342.6605, 56.69881
343.1426, 56.31913
343.6247, 56.15945
344.1068, 56.29842
344.5890, 56.72515
345.0711, 57.31984
345.5532, 58.15330
346.0353, 59.01288
346.5174, 59.39883
346.9995, 59.31931
347.4817, 59.10568
347.9638, 58.82880
348.4459, 58.56218
348.9280, 58.67710
349.4101, 59.28941
349.8922, 59.90556
350.3744, 59.74847
350.8565, 59.00117
351.3386, 58.36973
351.8207, 58.31988
352.3028, 58.55688
352.7849, 58.46999
353.2671, 58.04372
353.7492, 57.87007
354.2313, 58.91320
354.7134, 60.49969
355.1955, 61.41449
355.6776, 60.59394
356.1598, 59.55062
356.6419, 60.12048
357.1240, 61.94561
357.6061, 63.10390
358.0882, 61.68649
358.5703, 59.37816
359.0525, 57.83976
359.5346, 57.56831
360.0167, 57.83854
360.4988, 58.61656
360.9809, 59.63464
361.4630, 60.29613
361.9452, 59.85699
362.4273, 59.36337
362.9094, 59.52694
363.3915, 60.62579
363.8736, 61.43214
364.3557, 61.22044
364.8379, 60.60198
365.3200, 60.29157
365.8021, 60.99957
366.2842, 61.49352
366.7663, 61.11794
367.2484, 59.85038
367.7306, 59.34698
368.2127, 60.83945
368.6948, 62.51202
369.1769, 63.16961
369.6590, 61.28761
370.1411, 60.23270
370.6233, 60.68971
371.1054, 62.16937
371.5875, 62.78109
372.0696, 61.86784
372.5517, 60.87938
373.0338, 60.45259
373.5160, 60.88829
373.9981, 60.98853
374.4802, 60.53080
374.9623, 59.91598
375.4444, 59.85365
375.9265, 60.57924
376.4087, 61.19397
376.8908, 61.37011
377.3729, 61.12929
377.8550, 61.16776
378.3371, 61.58390
378.8192, 62.01604
379.3014, 62.05038
379.7835, 61.66573
380.2656, 61.34413
380.7477, 61.13540
381.2298, 61.08212
381.7119, 61.46760
382.1941, 62.30247
382.6762, 62.89986
383.1583, 62.48196
383.6404, 61.37501
384.1225, 60.91656
384.6046, 61.31044
385.0868, 62.08868
385.5689, 62.86693
386.0510, 63.58167
386.5331, 64.01012
387.0152, 63.72194
387.4973, 63.22460
387.9795, 63.43473
388.4616, 64.35895
388.9437, 65.06992
389.4258, 64.52966
389.9079, 63.40496
390.3900, 62.65739
390.8722, 62.70791
391.3543, 63.07936
391.8364, 63.48818
392.3185, 63.94456
392.8006, 64.49934
393.2827, 65.56699
393.7649, 66.49067
394.2470, 66.71743
394.7291, 65.90450
395.2112, 65.10827
395.6933, 64.50093
396.1754, 64.18111
396.6576, 64.29692
397.1397, 65.38438
397.6218, 66.43707
398.1039, 67.13638
398.5860, 67.44750
399.0681, 67.63850
399.5503, 67.61821
400.0324, 67.55690
400.5145, 67.58955
400.9966, 68.02537
401.4787, 68.10383
401.9608, 67.42881
402.4430, 66.32478
402.9251, 66.13234
403.4072, 67.46776
403.8893, 68.78170
404.3714, 69.28748
404.8535, 68.69257
405.3357, 68.60429
405.8178, 69.30306
406.2999, 70.13631
406.7820, 69.96230
407.2641, 68.52721
407.7462, 67.56232
408.2284, 67.68328
408.7105, 68.69350
409.1926, 69.68639
409.6747, 70.67121
410.1568, 71.57294
410.6389, 72.26960
411.1211, 72.79922
411.6032, 73.49567
412.0853, 74.57303
412.5674, 75.52036
413.0495, 75.21970
413.5316, 73.95157
414.0138, 73.14825
414.4959, 74.06054
414.9780, 75.75795
415.4601, 76.79288
415.9422, 77.06628
416.4243, 77.16814
416.9065, 77.43358
417.3886, 77.87225
417.8707, 78.50349
418.3528, 79.71283
418.8349, 80.75660
419.3170, 80.84542
419.7992, 80.24100
420.2813, 80.15828
420.7634, 81.74117
421.2455, 83.61767
421.7276, 84.82891
422.2097, 84.93501
422.6919, 85.10084
423.1740, 85.44655
423.6561, 86.06639
424.1382, 87.11687
424.6203, 88.71080
425.1024, 90.62356
425.5846, 93.04793
426.0667, 96.03194
426.5488, 98.37875
427.0309, 99.54244
427.5130, 100.5753
427.9951, 102.1396
428.4773, 104.0725
428.9594, 106.9237
429.4415, 110.9149
429.9236, 115.7400
430.4057, 120.6545
430.8878, 125.4815
431.3700, 130.8567
431.8521, 136.7987
432.3342, 143.3071
432.8163, 151.8419
433.2984, 162.6634
433.7805, 174.6096
434.2627, 186.3159
434.7448, 197.8782
435.2269, 210.2646
435.7090, 224.1035
436.1911, 238.7568
436.6732, 252.5366
437.1554, 265.6700
437.6375, 279.5589
438.1196, 295.7520
438.6017, 313.1287
439.0838, 329.4324
439.5659, 344.0887
440.0480, 359.7369
440.5302, 378.3745
441.0123, 399.7159
441.4944, 423.2845
441.9765, 449.4019
442.4586, 477.2513
442.9407, 506.9818
443.4229, 538.1619
443.9050, 569.6304
444.3871, 599.3588
444.8692, 629.8358
445.3513, 662.5733
445.8334, 697.9224
446.3156, 735.5116
446.7977, 773.4254
447.2798, 813.5941
447.7619, 859.3973
448.2440, 912.8828
448.7261, 969.7742
449.2083, 1029.548
449.6904, 1092.672
450.1725, 1154.941
450.6546, 1217.318
451.1367, 1276.765
451.6188, 1331.749
452.1010, 1384.367
452.5831, 1426.291
453.0652, 1457.512
453.5473, 1477.927
454.0294, 1488.517
454.5115, 1489.577
454.9937, 1478.039
455.4758, 1446.861
455.9579, 1400.314
456.4400, 1360.665
456.9221, 1327.450
457.4042, 1302.232
457.8864, 1287.927
458.3685, 1282.729
458.8506, 1282.221
459.3327, 1288.965
459.8148, 1293.801
460.2969, 1291.595
460.7791, 1279.686
461.2612, 1249.248
461.7433, 1190.312
462.2254, 1113.897
462.7075, 1026.734
463.1896, 927.7163
463.6718, 829.8285
464.1539, 736.8320
464.6360, 650.1186
465.1181, 572.7146
465.6002, 506.9702
466.0823, 448.7704
466.5645, 398.2410
467.0466, 355.0156
467.5287, 317.7471
468.0108, 287.7672
468.4929, 262.4770
468.9750, 241.3135
469.4572, 224.9977
469.9393, 210.3492
470.4214, 197.6837
470.9035, 186.5201
471.3856, 176.3974
471.8677, 167.3439
472.3499, 159.2068
472.8320, 151.8635
473.3141, 145.3247
473.7962, 139.5342
474.2783, 134.5059
474.7604, 130.1314
475.2426, 126.7224
475.7247, 124.0379
476.2068, 120.5546
476.6889, 116.0773
477.1710, 111.6006
477.6531, 108.1715
478.1353, 105.6244
478.6174, 103.5508
479.0995, 102.1145
479.5816, 100.7477
480.0637, 98.72371
480.5458, 96.19841
481.0280, 93.78562
481.5101, 91.39444
481.9922, 89.52564
482.4743, 88.97464
482.9564, 90.17204
483.4385, 90.61286
483.9207, 88.47569
484.4028, 85.40469
484.8849, 83.12156
485.3670, 82.67116
485.8491, 82.30272
486.3312, 81.90964
486.8134, 81.40303
487.2955, 80.34791
487.7776, 78.23200
488.2597, 76.21442
488.7418, 74.69866
489.2239, 73.68752
489.7061, 73.29631
490.1882, 73.76273
490.6703, 74.49921
491.1524, 74.94664
491.6345, 75.12393
492.1166, 74.77939
492.5988, 73.67827
493.0809, 72.19791
493.5630, 71.35182
494.0451, 71.11630
494.5272, 70.99038
495.0093, 70.56094
495.4915, 70.03989
495.9736, 70.03906
496.4557, 70.61749
496.9378, 71.11302
497.4199, 70.80055
497.9020, 70.05562
498.3842, 69.44556
498.8663, 69.09431
499.3484, 68.97971
499.8305, 69.44157
500.3126, 70.15333
500.7947, 70.28416
501.2769, 68.74008
501.7590, 67.22619
502.2411, 66.64399
502.7232, 67.20294
503.2053, 67.57755
503.6874, 67.57630
504.1696, 67.33225
504.6517, 66.90167
505.1338, 65.88428
505.6159, 65.40682
506.0980, 65.75118
506.5801, 66.57620
507.0623, 67.08650
507.5444, 67.20113
508.0265, 67.27744
508.5086, 67.47461
508.9907, 67.76083
509.4728, 67.91148
509.9550, 67.94023
510.4371, 67.73753
510.9192, 67.01558
511.4013, 65.94326
511.8834, 65.22231
512.3655, 65.02466
512.8477, 64.97079
513.3298, 64.54152
513.8119, 63.90875
514.2940, 63.48069
514.7761, 63.59119
515.2582, 63.86456
515.7404, 63.95038
516.2225, 63.89542
516.7046, 64.06762
517.1867, 64.85200
517.6688, 65.76447
518.1509, 66.54778
518.6331, 67.29961
519.1152, 67.58743
519.5973, 66.75340
520.0794, 65.63646
520.5615, 65.33929
521.0436, 66.77288
521.5258, 67.57591
522.0079, 67.10953
522.4900, 65.69909
522.9721, 64.95158
523.4542, 65.00136
523.9363, 65.35225
524.4185, 65.96227
524.9006, 66.82678
525.3827, 66.89278
525.8648, 66.04800
526.3469, 64.98696
526.8290, 64.38401
527.3112, 64.19403
527.7933, 64.24052
528.2754, 64.51662
528.7575, 64.94732
529.2396, 65.68118
529.7217, 66.53778
530.2039, 66.97688
530.6860, 66.37717
531.1681, 65.52212
531.6502, 64.93084
532.1323, 64.62609
532.6144, 64.43926
533.0966, 64.36653
533.5787, 64.34261
534.0608, 64.30664
534.5429, 64.07417
535.0250, 64.12141
535.5071, 64.78585
535.9893, 65.63644
536.4714, 66.03450
536.9535, 65.82541
537.4356, 65.44572
537.9177, 64.89307
538.3998, 64.23296
538.8820, 63.87171
539.3641, 63.80451
539.8462, 64.06569
540.3283, 64.97626
540.8104, 66.36392
541.2925, 66.89697
541.7747, 66.42767
542.2568, 65.69737
542.7389, 65.41192
543.2210, 65.47960
543.7031, 65.74496
544.1852, 66.40830
544.6674, 66.85673
545.1495, 66.22846
545.6316, 64.92185
546.1137, 63.93160
546.5958, 63.71892
547.0779, 63.93108
547.5601, 64.62861
548.0422, 65.82575
548.5243, 66.50859
549.0064, 65.70407
549.4885, 64.85912
549.9706, 64.94186
550.4528, 66.98916
550.9349, 67.96844
551.4170, 67.37885
551.8991, 66.13297
552.3812, 65.63486
552.8633, 66.11539
553.3455, 66.39217
553.8276, 66.13616
554.3097, 65.50665
554.7918, 64.91077
555.2739, 64.35826
555.7560, 64.07564
556.2382, 64.48306
556.7203, 65.21046
557.2024, 65.33788
557.6845, 64.80863
558.1666, 64.27248
558.6487, 64.25102
559.1309, 64.55128
559.6130, 64.96986
560.0951, 65.62273
560.5772, 66.06252
561.0593, 65.88197
561.5414, 65.37212
562.0236, 65.05018
562.5057, 65.07779
562.9878, 65.26357
563.4699, 65.67578
563.9520, 66.26985
564.4341, 66.61108
564.9163, 66.65274
565.3984, 66.50391
565.8805, 66.16031
566.3626, 65.55643
566.8447, 65.12627
567.3268, 64.84803
567.8090, 64.78210
568.2911, 65.09633
568.7732, 65.74574
569.2553, 66.31518
569.7374, 66.74821
570.2195, 67.01824
570.7017, 66.96452
571.1838, 66.70299
571.6659, 66.60041
572.1480, 66.82191
572.6301, 67.28965
573.1122, 68.15761
573.5944, 69.34361
574.0765, 70.12606
574.5586, 69.90232
575.0407, 69.38909
575.5228, 68.99841
576.0049, 68.80251
576.4871, 68.67537
576.9692, 68.75227
577.4513, 68.80007
577.9334, 68.51840
578.4155, 67.50813
578.8976, 67.20758
579.3798, 68.11376
579.8619, 69.56759
580.3440, 69.75858
580.8261, 68.56563
581.3082, 67.67403
581.7903, 68.00017
582.2725, 69.09235
582.7546, 69.60301
583.2367, 69.57103
583.7188, 69.48318
584.2009, 69.75581
584.6830, 70.15880
585.1652, 70.28405
585.6473, 69.99566
586.1294, 70.01205
586.6115, 71.21028
587.0936, 72.73349
587.5757, 73.66395
588.0578, 72.90138
588.5399, 72.55083
589.0220, 73.42638
589.5042, 74.93652
589.9863, 75.67626
590.4684, 75.02815
590.9505, 74.60298
591.4326, 74.88220
591.9147, 75.77370
592.3969, 76.39709
592.8790, 76.65248
593.3611, 77.06917
593.8432, 78.14750
594.3253, 79.72395
594.8074, 80.97871
595.2896, 81.85963
595.7717, 82.62369
596.2538, 83.50685
596.7359, 84.45530
597.2180, 85.29842
597.7001, 85.71902
598.1823, 86.58250
598.6644, 88.82674
599.1465, 91.84698
599.6286, 94.61574
600.1107, 96.16369
600.5928, 98.03621
601.0750, 100.6719
601.5571, 104.0632
602.0392, 107.9657
602.5213, 112.7523
603.0034, 117.5865
603.4855, 122.0760
603.9677, 126.2286
604.4498, 130.3172
604.9319, 134.2029
605.4140, 138.5538
605.8961, 143.8467
606.3782, 150.1003
606.8604, 157.0802
607.3425, 164.8732
607.8246, 173.0867
608.3067, 181.3812
608.7888, 189.6989
609.2709, 197.6946
