##NAMES=Celestine
##RRUFFID=R050008
##IDEAL CHEMISTRY=SrS^6+^O_4_
##LOCALITY=Scofield Quarry, Maybee, Monroe County, Michigan, USA
##OWNER=RRUFF
##SOURCE=Eugene Schlepp
##DESCRIPTION=Pale blue tabular crystals
##STATUS=The identification of this mineral has been confirmed by X-ray diffraction and chemical analysis
##URL=rruff.info/R050008
##MEASURED CHEMISTRY=Sr_1.00_S_1.00_O_4_
124.5917, 118.1096
125.0739, 131.0643
125.5560, 149.0381
126.0381, 169.4495
126.5202, 187.2918
127.0023, 200.2406
127.4844, 211.4795
127.9666, 226.8581
128.4487, 246.3223
128.9308, 265.6132
129.4129, 280.9880
129.8950, 292.8803
130.3772, 302.6270
130.8593, 309.8538
131.3414, 315.3612
131.8235, 322.2670
132.3056, 330.8008
132.7877, 339.4470
133.2699, 346.1143
133.7520, 350.7499
134.2341, 355.1792
134.7162, 361.6781
135.1983, 370.3001
135.6804, 371.6114
136.1626, 363.1981
136.6447, 350.7617
137.1268, 345.9525
137.6089, 350.7901
138.0910, 356.2828
138.5731, 357.6540
139.0553, 354.1108
139.5374, 350.2504
140.0195, 346.1478
140.5016, 341.9441
140.9837, 338.4308
141.4658, 335.9217
141.9480, 333.5551
142.4301, 330.4465
142.9122, 325.1357
143.3943, 322.3312
143.8764, 323.7652
144.3585, 329.2870
144.8407, 331.7300
145.3228, 328.6323
145.8049, 324.3089
146.2870, 322.7558
146.7691, 324.8641
147.2512, 328.5900
147.7334, 333.9178
148.2155, 341.3555
148.6976, 348.3526
149.1797, 355.2144
149.6618, 361.5599
150.1439, 366.8341
150.6261, 369.2072
151.1082, 372.0909
151.5903, 376.2521
152.0724, 381.7202
152.5545, 388.4281
153.0366, 397.7588
153.5188, 408.2537
154.0009, 417.0087
154.4830, 424.1733
154.9651, 429.1868
155.4472, 431.6607
155.9293, 429.3118
156.4115, 427.7346
156.8936, 428.4066
157.3757, 430.8060
157.8578, 433.1170
158.3399, 434.6043
158.8221, 435.9554
159.3042, 437.6396
159.7863, 440.8558
160.2684, 443.3552
160.7505, 442.7752
161.2326, 439.8185
161.7148, 439.9916
162.1969, 447.6795
162.6790, 458.8535
163.1611, 469.5117
163.6432, 477.8125
164.1253, 485.7795
164.6075, 493.0987
165.0896, 499.7101
165.5717, 510.1407
166.0538, 529.5557
166.5359, 553.9565
167.0180, 577.6260
167.5002, 598.8395
167.9823, 618.2380
168.4644, 636.7511
168.9465, 654.7156
169.4286, 669.9189
169.9107, 681.3837
170.3929, 688.8639
170.8750, 692.1263
171.3571, 692.1600
171.8392, 687.3832
172.3213, 674.4424
172.8034, 651.0635
173.2856, 626.0831
173.7677, 606.9962
174.2498, 592.9656
174.7319, 581.4238
175.2140, 571.7747
175.6961, 563.3727
176.1783, 554.8215
176.6604, 544.8970
177.1425, 536.6820
177.6246, 536.4986
178.1067, 543.0273
178.5888, 547.6708
179.0710, 540.1271
179.5531, 526.0845
180.0352, 518.6377
180.5173, 522.9532
180.9994, 533.3046
181.4815, 542.1395
181.9637, 549.4674
182.4458, 553.1893
182.9279, 548.5220
183.4100, 537.9561
183.8921, 531.0259
184.3742, 532.3454
184.8564, 538.2039
185.3385, 538.4374
185.8206, 532.4616
186.3027, 527.9818
186.7848, 534.4437
187.2669, 550.5342
187.7491, 566.4000
188.2312, 578.8218
188.7133, 588.3160
189.1954, 596.0524
189.6775, 601.3900
190.1596, 607.6562
190.6418, 619.8359
191.1239, 637.7578
191.6060, 656.1277
192.0881, 672.9935
192.5702, 688.4787
193.0524, 704.0332
193.5345, 720.0389
194.0166, 735.0364
194.4987, 746.1729
194.9808, 753.2784
195.4629, 759.1073
195.9451, 765.4935
196.4272, 772.4514
196.9093, 775.9440
197.3914, 775.7721
197.8735, 772.2500
198.3556, 765.2147
198.8378, 754.2623
199.3199, 742.5719
199.8020, 732.9319
200.2841, 725.8708
200.7662, 713.8979
201.2483, 695.5556
201.7305, 673.0119
202.2126, 651.2465
202.6947, 630.2672
203.1768, 610.0378
203.6589, 590.4886
204.1410, 571.8083
204.6232, 553.4211
205.1053, 534.3996
205.5874, 516.0269
206.0695, 503.3896
206.5516, 498.1802
207.0337, 494.2631
207.5159, 487.1922
207.9980, 476.2957
208.4801, 465.9292
208.9622, 456.1321
209.4443, 447.2844
209.9264, 441.5363
210.4086, 439.6573
210.8907, 439.3317
211.3728, 438.9845
211.8549, 438.6916
212.3370, 438.2251
212.8191, 438.0855
213.3013, 437.9441
213.7834, 434.4634
214.2655, 426.0057
214.7476, 416.8129
215.2297, 410.5253
215.7118, 407.5306
216.1940, 406.4606
216.6761, 408.3813
217.1582, 412.9784
217.6403, 411.8571
218.1224, 401.3012
218.6045, 390.0092
219.0867, 387.6739
219.5688, 400.0007
220.0509, 407.5346
220.5330, 403.9711
221.0151, 388.8792
221.4972, 381.6826
221.9794, 385.5320
222.4615, 393.6751
222.9436, 398.9412
223.4257, 399.9093
223.9078, 401.0260
224.3899, 403.9043
224.8721, 408.9777
225.3542, 410.3201
225.8363, 405.9864
226.3184, 399.7806
226.8005, 395.9716
227.2827, 394.7325
227.7648, 395.7287
228.2469, 399.6768
228.7290, 407.2488
229.2111, 412.4198
229.6932, 414.5842
230.1754, 414.7817
230.6575, 414.2650
231.1396, 412.7928
231.6217, 410.9915
232.1038, 408.5990
232.5859, 405.0667
233.0681, 404.1333
233.5502, 407.2981
234.0323, 411.9783
234.5144, 414.4953
234.9965, 414.2214
235.4786, 412.7618
235.9608, 410.1947
236.4429, 406.0226
236.9250, 403.2706
237.4071, 402.5910
237.8892, 402.9503
238.3713, 402.3611
238.8535, 398.7475
239.3356, 397.7551
239.8177, 402.5499
240.2998, 416.3941
240.7819, 423.1060
241.2640, 419.6564
241.7462, 410.9481
242.2283, 405.1545
242.7104, 402.5170
243.1925, 402.4597
243.6746, 405.7293
244.1567, 414.5690
244.6389, 418.8156
245.1210, 416.5467
245.6031, 410.8451
246.0852, 407.1050
246.5673, 406.0706
247.0494, 405.7122
247.5316, 404.9697
248.0137, 402.8115
248.4958, 404.1692
248.9779, 411.2963
249.4600, 420.6671
249.9421, 425.2376
250.4243, 422.4714
250.9064, 419.5428
251.3885, 419.7696
251.8706, 425.5271
252.3527, 425.7595
252.8348, 416.7413
253.3170, 404.5124
253.7991, 401.5637
254.2812, 413.0891
254.7633, 423.9776
255.2454, 427.9097
255.7275, 422.1680
256.2097, 419.6508
256.6918, 421.8635
257.1739, 426.2928
257.6560, 428.3294
258.1381, 427.3864
258.6202, 425.2134
259.1024, 421.5716
259.5845, 415.0348
260.0666, 413.5869
260.5487, 419.5982
261.0308, 428.9040
261.5129, 434.1271
261.9951, 434.3776
262.4772, 432.5303
262.9593, 428.9986
263.4414, 422.8763
263.9235, 419.5555
264.4056, 420.1692
264.8878, 422.4955
265.3699, 422.1901
265.8520, 417.9447
266.3341, 414.7998
266.8162, 415.0243
267.2983, 419.2099
267.7805, 423.1162
268.2626, 427.0018
268.7447, 430.2755
269.2268, 431.6667
269.7089, 430.7122
270.1910, 429.5286
270.6732, 428.7402
271.1553, 428.3116
271.6374, 429.1416
272.1195, 432.1463
272.6016, 435.0653
273.0837, 433.0591
273.5659, 424.7668
274.0480, 418.4673
274.5301, 418.0695
275.0122, 423.8268
275.4943, 428.6995
275.9764, 432.9000
276.4586, 435.8157
276.9407, 435.7939
277.4228, 432.4163
277.9049, 429.7545
278.3870, 429.8943
278.8691, 432.6646
279.3513, 433.8261
279.8334, 432.8913
280.3155, 431.6016
280.7976, 432.5080
281.2798, 435.6898
281.7619, 439.0844
282.2440, 442.9478
282.7261, 446.7773
283.2082, 445.7267
283.6903, 438.7764
284.1725, 430.6978
284.6546, 427.6991
285.1367, 429.6309
285.6188, 431.9241
286.1009, 433.0356
286.5830, 433.2114
287.0652, 433.5382
287.5473, 434.0588
288.0294, 434.4591
288.5115, 434.4327
288.9936, 433.9848
289.4757, 433.1256
289.9579, 431.2657
290.4400, 429.1371
290.9221, 429.0192
291.4042, 431.0311
291.8863, 433.5690
292.3684, 434.8009
292.8506, 435.0951
293.3327, 436.1880
293.8148, 439.7144
294.2969, 443.7601
294.7790, 443.8043
295.2611, 439.8353
295.7433, 435.9085
296.2254, 436.0332
296.7075, 439.0431
297.1896, 441.8048
297.6717, 444.3946
298.1538, 445.4896
298.6360, 441.2773
299.1181, 432.2630
299.6002, 424.8738
300.0823, 426.0024
300.5644, 431.9761
301.0465, 435.4072
301.5287, 431.9480
302.0108, 428.1952
302.4929, 433.7715
302.9750, 447.0230
303.4571, 458.1522
303.9392, 459.7064
304.4214, 455.4932
304.9035, 450.2974
305.3856, 444.4032
305.8677, 439.3666
306.3498, 436.2589
306.8319, 435.1277
307.3141, 436.1250
307.7962, 435.2552
308.2783, 438.4539
308.7604, 455.3956
309.2425, 498.0170
309.7246, 531.7808
310.2068, 526.5851
310.6889, 494.2804
311.1710, 465.7186
311.6531, 457.5131
312.1352, 457.6587
312.6173, 457.9190
313.0995, 456.9354
313.5816, 456.1062
314.0637, 456.7274
314.5458, 457.9180
315.0279, 458.0286
315.5100, 455.8675
315.9922, 452.8820
316.4743, 449.2152
316.9564, 444.1598
317.4385, 441.4460
317.9206, 443.2809
318.4027, 447.9727
318.8849, 453.1562
319.3670, 461.0671
319.8491, 466.8398
320.3312, 467.7694
320.8133, 462.7081
321.2954, 458.6746
321.7776, 457.5918
322.2597, 457.9583
322.7418, 458.1734
323.2239, 457.7636
323.7060, 457.4258
324.1881, 456.7742
324.6703, 455.6151
325.1524, 456.6302
325.6345, 462.5482
326.1166, 469.3552
326.5987, 473.9046
327.0808, 477.1152
327.5630, 476.9138
328.0451, 470.9885
328.5272, 459.7697
329.0093, 452.7846
329.4914, 453.5660
329.9735, 455.5215
330.4557, 454.0237
330.9378, 444.5607
331.4199, 439.5756
331.9020, 440.9420
332.3841, 447.6549
332.8662, 455.3966
333.3484, 466.1600
333.8305, 474.8136
334.3126, 478.0905
334.7947, 474.0360
335.2768, 470.4437
335.7589, 467.4711
336.2411, 465.3018
336.7232, 464.6352
337.2053, 466.0535
337.6874, 467.2878
338.1695, 466.5856
338.6516, 463.4015
339.1338, 463.8617
339.6159, 469.6548
340.0980, 476.5890
340.5801, 476.2318
341.0622, 467.6328
341.5443, 460.4895
342.0265, 459.6888
342.5086, 464.4174
342.9907, 466.9179
343.4728, 466.9220
343.9549, 465.6638
344.4370, 463.2274
344.9192, 460.0301
345.4013, 460.3452
345.8834, 468.0858
346.3655, 479.7534
346.8476, 485.6590
347.3297, 485.6863
347.8119, 483.1348
348.2940, 479.8183
348.7761, 476.2063
349.2582, 473.8655
349.7403, 473.8145
350.2225, 474.5792
350.7046, 472.9381
351.1867, 469.4205
351.6688, 468.2334
352.1509, 476.8431
352.6331, 488.5820
353.1152, 492.1997
353.5973, 480.9559
354.0794, 469.0260
354.5615, 471.3925
355.0436, 483.9849
355.5258, 494.4142
356.0079, 494.9742
356.4900, 490.8911
356.9721, 486.0437
357.4542, 480.3678
357.9363, 476.1639
358.4185, 476.1180
358.9006, 478.2713
359.3827, 479.2347
359.8648, 472.9788
360.3469, 468.9250
360.8290, 474.7077
361.3112, 493.1031
361.7933, 505.4755
362.2754, 500.0472
362.7575, 487.8451
363.2396, 480.8241
363.7217, 484.9132
364.2039, 491.2979
364.6860, 498.9826
365.1681, 507.9374
365.6502, 514.5549
366.1323, 520.8298
366.6144, 523.2772
367.0966, 519.3514
367.5787, 496.6127
368.0608, 482.8644
368.5429, 484.3709
369.0250, 497.6935
369.5071, 505.0319
369.9893, 502.5683
370.4714, 498.5654
370.9535, 496.8278
371.4356, 497.8047
371.9177, 500.3141
372.3998, 505.6411
372.8820, 511.8455
373.3641, 514.1731
373.8462, 511.1987
374.3283, 508.0220
374.8104, 506.3488
375.2925, 506.1393
375.7747, 508.3400
376.2568, 513.9824
376.7389, 520.0295
377.2210, 521.5352
377.7031, 518.0983
378.1852, 515.9937
378.6674, 517.8174
379.1495, 522.4702
379.6316, 525.6185
380.1137, 527.2521
380.5958, 527.2325
381.0779, 524.3577
381.5601, 519.2919
382.0422, 515.3878
382.5243, 512.9760
383.0064, 512.5120
383.4885, 516.2894
383.9706, 523.6580
384.4528, 529.5631
384.9349, 528.6619
385.4170, 524.5692
385.8991, 523.7493
386.3812, 528.0558
386.8633, 532.7612
387.3455, 532.0251
387.8276, 528.2365
388.3097, 526.8675
388.7918, 534.5989
389.2739, 543.3621
389.7560, 545.8408
390.2382, 540.9615
390.7203, 536.0310
391.2024, 534.4835
391.6845, 535.2228
392.1666, 536.9839
392.6487, 540.2161
393.1309, 543.5997
393.6130, 546.6139
394.0951, 549.2863
394.5772, 551.9134
395.0593, 555.2216
395.5414, 558.1017
396.0236, 559.8273
396.5057, 560.6169
396.9878, 559.8686
397.4699, 554.9928
397.9520, 548.1956
398.4341, 546.5052
398.9163, 555.0018
399.3984, 563.3607
399.8805, 568.0568
400.3626, 568.5952
400.8447, 566.5446
401.3268, 559.4490
401.8090, 551.5848
402.2911, 549.6627
402.7732, 556.6125
403.2553, 561.6796
403.7374, 560.4910
404.2195, 553.7031
404.7017, 554.6790
405.1838, 566.0327
405.6659, 578.1298
406.1480, 580.4064
406.6301, 572.6685
407.1122, 569.4518
407.5944, 574.4631
408.0765, 584.3771
408.5586, 592.3886
409.0407, 598.5233
409.5228, 601.5163
410.0049, 597.6013
410.4871, 589.8120
410.9692, 587.6558
411.4513, 593.2444
411.9334, 599.8058
412.4155, 598.4832
412.8976, 591.6635
413.3798, 586.3147
413.8619, 586.0736
414.3440, 588.5445
414.8261, 591.9269
415.3082, 596.1574
415.7903, 599.6799
416.2725, 600.1998
416.7546, 599.9567
417.2367, 601.5369
417.7188, 607.0215
418.2009, 613.0533
418.6830, 619.1664
419.1652, 624.8596
419.6473, 628.0498
420.1294, 624.2062
420.6115, 620.5437
421.0937, 621.7496
421.5758, 632.7361
422.0579, 639.2284
422.5400, 634.7404
423.0221, 625.6334
423.5042, 622.2883
423.9864, 629.3491
424.4685, 637.3762
424.9506, 644.7205
425.4327, 651.2823
425.9148, 656.9919
426.3969, 660.6427
426.8791, 664.8101
427.3612, 671.7178
427.8433, 681.8138
428.3254, 693.4750
428.8075, 707.6042
429.2896, 722.6874
429.7718, 732.1663
430.2539, 734.8088
430.7360, 738.4553
431.2181, 746.9802
431.7002, 760.3552
432.1823, 779.5088
432.6645, 805.8658
433.1466, 833.5010
433.6287, 852.1849
434.1108, 863.8566
434.5929, 878.2791
435.0750, 897.8081
435.5572, 923.1953
436.0393, 956.7238
436.5214, 998.2209
437.0035, 1044.196
437.4856, 1089.537
437.9677, 1137.916
438.4499, 1194.391
438.9320, 1261.373
439.4141, 1334.831
439.8962, 1410.313
440.3783, 1489.552
440.8604, 1579.278
441.3426, 1678.341
441.8247, 1790.615
442.3068, 1918.446
442.7889, 2062.687
443.2710, 2219.607
443.7531, 2385.443
444.2353, 2564.161
444.7174, 2763.068
445.1995, 2977.351
445.6816, 3215.485
446.1637, 3479.619
446.6458, 3767.187
447.1280, 4079.992
447.6101, 4410.186
448.0922, 4775.965
448.5743, 5185.141
449.0564, 5650.750
449.5385, 6140.455
450.0207, 6664.977
450.5028, 7200.768
450.9849, 7709.034
451.4670, 8189.776
451.9491, 8620.992
452.4312, 9005.019
452.9134, 9334.586
453.3955, 9574.000
453.8776, 9724.753
454.3597, 9772.980
454.8418, 9663.142
455.3239, 9426.162
455.8061, 9181.809
456.2882, 8919.843
456.7703, 8716.445
457.2524, 8680.103
457.7345, 8796.457
458.2166, 9009.313
458.6988, 9349.378
459.1809, 9735.610
459.6630, 10132.86
460.1451, 10571.05
460.6272, 10795.21
461.1093, 10621.71
461.5915, 10148.05
462.0736, 9495.451
462.5557, 8549.841
463.0378, 7583.478
463.5199, 6667.981
464.0020, 5814.263
464.4842, 5053.561
464.9663, 4407.695
465.4484, 3854.346
465.9305, 3380.846
466.4126, 2996.768
466.8947, 2663.982
467.3769, 2387.881
467.8590, 2161.558
468.3411, 1973.714
468.8232, 1836.628
469.3053, 1715.667
469.7874, 1599.724
470.2696, 1489.659
470.7517, 1404.795
471.2338, 1350.774
471.7159, 1305.148
472.1980, 1247.938
472.6801, 1179.355
473.1623, 1119.038
473.6444, 1069.871
474.1265, 1028.943
474.6086, 991.8544
475.0907, 958.6959
475.5728, 930.0459
476.0550, 907.5599
476.5371, 889.2317
477.0192, 872.8362
477.5013, 858.2416
477.9834, 843.7527
478.4655, 826.7819
478.9477, 809.4681
479.4298, 794.9783
479.9119, 786.4587
480.3940, 777.9308
480.8761, 764.9142
481.3582, 749.2834
481.8404, 736.6014
482.3225, 730.7968
482.8046, 726.6191
483.2867, 721.8810
483.7688, 716.5063
484.2509, 710.1860
484.7331, 702.0829
485.2152, 693.4608
485.6973, 685.1763
486.1794, 676.2819
486.6615, 669.4791
487.1436, 666.0950
487.6258, 665.1042
488.1079, 660.6340
488.5900, 650.4537
489.0721, 643.0715
489.5542, 645.6777
490.0363, 658.4216
490.5185, 663.2854
491.0006, 658.5438
491.4827, 650.0060
491.9648, 645.1778
492.4470, 643.3224
492.9291, 640.3325
493.4112, 633.5766
493.8933, 626.0756
494.3754, 622.6164
494.8575, 622.8513
495.3397, 624.7909
495.8218, 629.8491
496.3039, 634.6244
496.7860, 634.5723
497.2681, 627.6542
497.7502, 621.4255
498.2324, 621.3723
498.7145, 623.9893
499.1966, 624.5082
499.6787, 618.5393
500.1608, 613.2734
500.6429, 611.4275
501.1251, 612.7955
501.6072, 613.3207
502.0893, 610.9380
502.5714, 609.2372
503.0535, 610.3174
503.5356, 616.8399
504.0178, 619.5458
504.4999, 616.8813
504.9820, 611.7784
505.4641, 608.7123
505.9462, 608.1065
506.4283, 607.3516
506.9105, 605.5725
507.3926, 603.1142
507.8747, 601.1505
508.3568, 599.6575
508.8389, 599.0576
509.3210, 599.6533
509.8032, 601.3714
510.2853, 605.0733
510.7674, 611.8793
511.2495, 616.3065
511.7316, 609.1295
512.2137, 595.5711
512.6959, 586.3584
513.1780, 590.2034
513.6601, 596.2571
514.1422, 597.1299
514.6243, 593.5307
515.1064, 590.8524
515.5886, 591.4506
516.0707, 593.4526
516.5528, 596.0020
517.0349, 600.2731
517.5170, 602.4464
517.9991, 600.8722
518.4813, 597.4899
518.9634, 594.4463
519.4455, 590.3026
519.9276, 589.0574
520.4097, 592.2108
520.8918, 599.0732
521.3740, 606.3759
521.8561, 615.1956
522.3382, 620.8860
522.8203, 618.9803
523.3024, 610.0073
523.7845, 602.1080
524.2667, 595.1799
524.7488, 591.3507
525.2309, 595.5818
525.7130, 605.4971
526.1951, 612.6880
526.6772, 613.1591
527.1594, 610.6082
527.6415, 608.8508
528.1236, 607.7264
528.6057, 606.4838
529.0878, 602.0327
529.5699, 599.0714
530.0521, 602.9813
530.5342, 617.0618
531.0163, 626.1489
531.4984, 621.1139
531.9805, 610.5447
532.4626, 603.5699
532.9448, 602.9760
533.4269, 604.2142
533.9090, 607.3492
534.3911, 612.0101
534.8732, 617.2570
535.3553, 625.6617
535.8375, 629.8077
536.3196, 624.5583
536.8017, 609.1248
537.2838, 600.0549
537.7659, 598.1437
538.2480, 599.7169
538.7302, 601.8970
539.2123, 604.4613
539.6944, 605.3971
540.1765, 603.4114
540.6586, 601.1880
541.1407, 603.3027
541.6229, 608.6246
542.1050, 613.1108
542.5871, 613.0519
543.0692, 612.1973
543.5513, 615.2091
544.0334, 622.2296
544.5156, 626.1677
544.9977, 620.4735
545.4798, 612.1837
545.9619, 606.7939
546.4440, 605.3044
546.9261, 606.7928
547.4083, 615.3036
547.8904, 625.9065
548.3725, 629.2092
548.8546, 619.3975
549.3367, 611.8976
549.8188, 610.8641
550.3010, 615.7675
550.7831, 620.9794
551.2652, 627.0414
551.7473, 631.6129
552.2294, 632.8198
552.7115, 630.8656
553.1937, 626.8914
553.6758, 620.3519
554.1579, 614.4362
554.6400, 613.3397
555.1221, 616.1064
555.6042, 620.0359
556.0864, 624.6965
556.5685, 629.6086
557.0506, 634.9189
557.5327, 640.2413
558.0148, 644.0327
558.4969, 645.3240
558.9791, 645.0151
559.4612, 643.0097
559.9433, 638.6718
560.4254, 636.0178
560.9075, 635.7464
561.3896, 637.5460
561.8718, 641.3373
562.3539, 650.7331
562.8360, 655.8709
563.3181, 655.0557
563.8002, 649.9802
564.2823, 643.3972
564.7645, 634.1234
565.2466, 629.0487
565.7287, 632.4703
566.2108, 642.4608
566.6929, 650.0843
567.1750, 655.2747
567.6572, 658.1904
568.1393, 657.5370
568.6214, 654.8689
569.1035, 653.4052
569.5856, 653.8561
570.0677, 654.6362
570.5499, 654.1898
571.0320, 653.2535
571.5141, 652.9899
571.9962, 656.2653
572.4783, 657.8671
572.9604, 653.1515
573.4426, 643.9855
573.9247, 639.9348
574.4068, 648.6597
574.8889, 657.2469
575.3710, 660.8203
575.8531, 658.6357
576.3353, 654.4603
576.8174, 645.5475
577.2995, 638.7796
577.7816, 642.9781
578.2637, 659.6531
578.7458, 670.5168
579.2280, 671.9382
579.7101, 668.2439
580.1922, 666.3863
580.6743, 666.1226
581.1564, 666.0823
581.6385, 663.5745
582.1207, 662.0269
582.6028, 668.0634
583.0849, 680.5309
583.5670, 690.8182
584.0491, 693.2452
584.5313, 691.8255
585.0134, 689.4757
585.4955, 686.6166
585.9776, 682.9449
586.4597, 676.6718
586.9418, 670.2831
587.4240, 666.5839
587.9061, 664.6984
588.3882, 667.1865
588.8703, 677.3183
589.3524, 691.1883
589.8345, 695.6487
590.3167, 687.4922
590.7988, 682.4189
591.2809, 689.4224
591.7630, 705.4680
592.2451, 714.3351
592.7272, 715.8250
593.2094, 714.9812
593.6915, 712.7437
594.1736, 711.8155
594.6557, 719.8817
595.1378, 740.9404
595.6199, 758.4404
596.1021, 754.3091
596.5842, 740.2136
597.0663, 732.7659
597.5485, 742.0917
598.0306, 754.2085
598.5127, 766.8394
598.9948, 779.1776
599.4769, 787.9862
599.9590, 787.2357
600.4412, 790.2806
600.9233, 803.5127
601.4054, 828.1779
601.8875, 842.4274
602.3696, 841.6154
602.8517, 841.5756
603.3339, 856.7906
603.8160, 886.2426
604.2981, 916.3057
604.7802, 945.5860
605.2623, 973.8766
605.7444, 996.9902
606.2266, 1018.523
606.7087, 1046.933
607.1908, 1088.457
607.6729, 1135.424
608.1550, 1181.161
608.6371, 1227.247
609.1193, 1280.410
609.6014, 1340.828
610.0835, 1410.926
610.5656, 1492.781
611.0477, 1588.031
611.5298, 1683.127
612.0120, 1771.106
612.4941, 1864.254
612.9762, 1969.610
613.4583, 2087.618
613.9404, 2214.849
614.4225, 2351.083
614.9047, 2495.768
615.3868, 2646.852
615.8689, 2806.388
616.3510, 2986.456
616.8331, 3199.136
617.3152, 3422.437
617.7974, 3631.102
618.2795, 3823.135
618.7616, 4001.919
619.2437, 4167.630
619.7258, 4320.890
620.2079, 4456.147
620.6901, 4573.083
621.1722, 4703.998
621.6543, 4870.183
