##NAMES=Celestine
##RRUFFID=R040007
##IDEAL CHEMISTRY=SrS^6+^O_4_
##LOCALITY=Coahuila, Mexico
##OWNER=RRUFF
##SOURCE=University of Arizona Mineral Museum
##DESCRIPTION=Blue tabular crystals
##STATUS=The identification of this mineral has been confirmed by X-ray diffraction and chemical analysis
##URL=rruff.info/R040007
##MEASURED CHEMISTRY=(Sr_0.95_Ba_0.04_Ca_0.01_)_Σ=1_S_1.00_O_4_; = Light bands. (Sr_0.99_Ba_0.01_)_Σ=1_S_1.00_O_4_; trace amounts of Ca = Dark bands
113.3126, 157.8776
113.7947, 159.5681
114.2769, 160.9328
114.7590, 161.3968
115.2411, 162.1004
115.7232, 163.1983
116.2053, 164.8396
116.6874, 167.3681
117.1695, 171.3656
117.6517, 177.4874
118.1338, 181.9307
118.6159, 183.2854
119.0980, 183.8791
119.5801, 185.6504
120.0622, 189.0343
120.5444, 193.2873
121.0265, 197.4597
121.5086, 201.5118
121.9907, 205.9911
122.4728, 211.3488
122.9549, 217.2619
123.4371, 222.9040
123.9192, 227.9687
124.4013, 232.7957
124.8834, 238.0420
125.3655, 243.7866
125.8476, 248.8160
126.3298, 251.8704
126.8119, 252.7759
127.2940, 253.6406
127.7761, 255.3573
128.2582, 256.9921
128.7404, 258.0999
129.2225, 258.5638
129.7046, 258.2772
130.1867, 257.1464
130.6688, 255.4953
131.1509, 252.1085
131.6331, 246.2332
132.1152, 239.1772
132.5973, 232.1673
133.0794, 225.8468
133.5615, 219.8358
134.0436, 212.6525
134.5258, 202.0262
135.0079, 192.6342
135.4900, 185.7420
135.9721, 180.4610
136.4542, 175.1653
136.9363, 168.7515
137.4184, 161.3281
137.9006, 154.8584
138.3827, 149.3300
138.8648, 144.4565
139.3469, 140.2539
139.8290, 136.6704
140.3111, 133.3313
140.7933, 129.7883
141.2754, 126.2291
141.7575, 123.7286
142.2396, 122.9338
142.7217, 122.9432
143.2038, 123.0138
143.6860, 123.1923
144.1681, 122.9963
144.6502, 121.4348
145.1323, 119.1226
145.6144, 117.4818
146.0965, 117.1558
146.5787, 117.9511
147.0608, 119.3737
147.5429, 121.8574
148.0250, 124.3558
148.5071, 126.3685
148.9892, 127.9289
149.4714, 129.1704
149.9535, 130.2163
150.4356, 131.0831
150.9177, 131.5268
151.3998, 130.7809
151.8819, 130.2009
152.3641, 130.5541
152.8462, 131.7056
153.3283, 132.8255
153.8104, 132.8007
154.2925, 130.8040
154.7746, 130.0223
155.2568, 131.1060
155.7389, 132.6528
156.2210, 133.7505
156.7031, 134.2335
157.1852, 134.6071
157.6673, 135.6801
158.1495, 138.1256
158.6316, 140.1582
159.1137, 141.7228
159.5958, 142.9215
160.0779, 143.6102
160.5600, 143.7066
161.0422, 143.8210
161.5243, 145.4747
162.0064, 149.6692
162.4885, 152.8886
162.9706, 153.1904
163.4527, 152.0393
163.9349, 152.3071
164.4170, 155.1690
164.8991, 159.9652
165.3812, 165.3587
165.8633, 171.4406
166.3454, 177.7905
166.8276, 184.6848
167.3097, 191.9245
167.7918, 198.2928
168.2739, 203.7392
168.7560, 207.5327
169.2381, 208.8538
169.7203, 207.2407
170.2024, 204.3157
170.6845, 201.7875
171.1666, 199.8822
171.6487, 197.0869
172.1308, 192.5613
172.6130, 187.0685
173.0951, 180.7813
173.5772, 173.6144
174.0593, 166.4077
174.5414, 160.7153
175.0235, 157.3040
175.5057, 153.9221
175.9878, 149.3058
176.4699, 144.8113
176.9520, 141.8827
177.4341, 141.2559
177.9162, 142.1112
178.3984, 141.8644
178.8805, 139.2814
179.3626, 137.0993
179.8447, 135.5392
180.3268, 134.5807
180.8089, 134.3968
181.2911, 135.1646
181.7732, 136.5086
182.2553, 136.2291
182.7374, 132.0819
183.2195, 128.7843
183.7016, 127.8258
184.1838, 128.3196
184.6659, 128.5252
185.1480, 127.2848
185.6301, 124.8345
186.1122, 123.6450
186.5943, 124.6551
187.0765, 125.6549
187.5586, 125.4396
188.0407, 124.3950
188.5228, 123.8947
189.0049, 124.9353
189.4870, 127.3559
189.9692, 129.5888
190.4513, 131.8588
190.9334, 133.7764
191.4155, 134.9715
191.8976, 135.4708
192.3797, 135.8033
192.8619, 136.3778
193.3440, 137.0136
193.8261, 137.2508
194.3082, 137.4034
194.7903, 136.8918
195.2724, 134.7309
195.7546, 130.6692
196.2367, 126.6506
196.7188, 124.5864
197.2009, 123.2226
197.6830, 120.7940
198.1651, 116.2713
198.6473, 110.7462
199.1294, 105.8859
199.6115, 101.5583
200.0936, 98.35757
200.5757, 97.58781
201.0578, 97.72895
201.5400, 96.76817
202.0221, 93.45332
202.5042, 88.65586
202.9863, 84.95506
203.4684, 83.17352
203.9505, 81.21895
204.4327, 77.70521
204.9148, 73.76694
205.3969, 71.05254
205.8790, 70.66198
206.3611, 72.08162
206.8432, 72.67177
207.3254, 71.65862
207.8075, 70.66273
208.2896, 70.08238
208.7717, 69.74787
209.2538, 69.38633
209.7359, 68.83031
210.2181, 68.09457
210.7002, 67.33477
211.1823, 66.26626
211.6644, 65.47714
212.1465, 65.43193
212.6286, 65.72498
213.1108, 65.64227
213.5929, 64.67757
214.0750, 62.90268
214.5571, 61.40080
215.0392, 59.90151
215.5213, 58.90617
216.0035, 58.86615
216.4856, 59.46718
216.9677, 60.04340
217.4498, 60.14688
217.9319, 59.82137
218.4140, 59.68677
218.8961, 59.71705
219.3783, 59.91146
219.8604, 60.56881
220.3425, 61.45413
220.8246, 61.82088
221.3067, 61.03446
221.7888, 59.33677
222.2710, 58.47515
222.7531, 58.84080
223.2352, 59.54766
223.7173, 60.42941
224.1994, 61.37681
224.6815, 61.95024
225.1637, 61.90652
225.6458, 61.20972
226.1279, 60.04281
226.6100, 57.51991
227.0921, 55.39911
227.5742, 55.42765
228.0564, 57.36323
228.5385, 58.57220
229.0206, 56.89913
229.5027, 53.85538
229.9848, 52.84374
230.4669, 55.08837
230.9491, 58.01534
231.4312, 59.48038
231.9133, 59.48122
232.3954, 59.13305
232.8775, 58.82619
233.3596, 58.50165
233.8418, 58.05237
234.3239, 57.38144
234.8060, 56.74886
235.2881, 56.34526
235.7702, 56.15019
236.2523, 56.39938
236.7345, 58.09309
237.2166, 59.79863
237.6987, 59.99664
238.1808, 58.15516
238.6629, 55.77734
239.1451, 54.74564
239.6272, 55.29833
240.1093, 55.90768
240.5914, 56.19408
241.0735, 56.33053
241.5556, 56.32044
242.0378, 56.15633
242.5199, 56.11947
243.0020, 56.76988
243.4841, 58.45795
243.9662, 59.49781
244.4483, 59.17946
244.9305, 58.39171
245.4126, 57.58823
245.8947, 56.89186
246.3768, 56.28568
246.8589, 55.68876
247.3410, 54.96967
247.8232, 54.69703
248.3053, 55.18641
248.7874, 55.91139
249.2695, 56.55586
249.7516, 57.06879
250.2337, 57.61758
250.7159, 58.54960
251.1980, 60.29027
251.6801, 61.21515
252.1622, 60.79050
252.6443, 60.04591
253.1264, 59.60234
253.6086, 59.51069
254.0907, 59.36884
254.5728, 58.58273
255.0549, 56.68930
255.5370, 55.58553
256.0191, 55.77639
256.5013, 56.19560
256.9834, 56.21805
257.4655, 55.83704
257.9476, 55.48309
258.4297, 55.63190
258.9118, 56.38824
259.3940, 57.25449
259.8761, 59.07203
260.3582, 60.27294
260.8403, 59.44786
261.3224, 56.99135
261.8045, 54.70076
262.2867, 54.36370
262.7688, 56.36792
263.2509, 57.74681
263.7330, 58.52351
264.2151, 58.81025
264.6972, 58.37697
265.1794, 57.42562
265.6615, 56.54560
266.1436, 56.25628
266.6257, 56.59538
267.1078, 56.61762
267.5899, 55.94368
268.0721, 55.39417
268.5542, 55.39933
269.0363, 55.84316
269.5184, 56.42577
270.0005, 57.03980
270.4826, 57.61569
270.9648, 57.11189
271.4469, 54.03772
271.9290, 51.67488
272.4111, 51.72523
272.8932, 53.47531
273.3753, 55.18903
273.8575, 55.90426
274.3396, 55.74805
274.8217, 55.33903
275.3038, 54.69118
275.7859, 53.84676
276.2680, 52.34428
276.7502, 50.66399
277.2323, 49.89152
277.7144, 50.65326
278.1965, 52.41345
278.6786, 53.61366
279.1607, 54.19201
279.6429, 54.50504
280.1250, 54.40818
280.6071, 54.14363
281.0892, 54.26992
281.5713, 55.09550
282.0534, 56.07622
282.5356, 55.95531
283.0177, 54.36629
283.4998, 53.18499
283.9819, 53.34285
284.4640, 54.07135
284.9461, 54.04715
285.4283, 52.81163
285.9104, 51.28826
286.3925, 50.84037
286.8746, 51.50408
287.3567, 52.31952
287.8388, 53.49129
288.3210, 54.55824
288.8031, 54.63171
289.2852, 53.44394
289.7673, 52.32128
290.2494, 53.06209
290.7315, 55.53705
291.2137, 57.11585
291.6958, 56.59722
292.1779, 55.43121
292.6600, 55.46310
293.1421, 56.90657
293.6242, 58.00125
294.1064, 56.87977
294.5885, 54.03121
295.0706, 52.21081
295.5527, 52.22116
296.0348, 52.98718
296.5169, 53.78271
296.9991, 54.57494
297.4812, 55.15997
297.9633, 55.39564
298.4454, 55.29702
298.9275, 55.03951
299.4096, 54.72707
299.8918, 54.14431
300.3739, 52.68064
300.8560, 50.55141
301.3381, 49.39025
301.8202, 50.35983
302.3023, 52.44841
302.7845, 53.48525
303.2666, 53.05289
303.7487, 52.57730
304.2308, 53.12870
304.7129, 54.35638
305.1950, 54.91060
305.6772, 54.06005
306.1593, 52.77684
306.6414, 52.53732
307.1235, 53.41454
307.6056, 54.31071
308.0877, 54.78016
308.5699, 54.92556
309.0520, 55.05067
309.5341, 55.31837
310.0162, 55.31684
310.4983, 54.11697
310.9804, 51.93547
311.4626, 50.59276
311.9447, 51.53303
312.4268, 53.36765
312.9089, 53.62969
313.3910, 51.72959
313.8731, 50.07709
314.3553, 51.61617
314.8374, 55.19786
315.3195, 57.07790
315.8016, 55.21183
316.2837, 52.07258
316.7658, 50.07893
317.2480, 49.27991
317.7301, 49.46675
318.2122, 51.24473
318.6943, 53.75877
319.1764, 54.90593
319.6585, 53.70557
320.1407, 52.14763
320.6228, 51.93030
321.1049, 52.84698
321.5870, 53.28262
322.0691, 52.16829
322.5512, 50.53248
323.0334, 50.34510
323.5155, 52.10522
323.9976, 53.68215
324.4797, 53.82522
324.9618, 52.87339
325.4439, 51.71268
325.9261, 50.32346
326.4082, 49.30314
326.8903, 49.79303
327.3724, 51.78966
327.8545, 53.24558
328.3366, 53.05835
328.8188, 51.97526
329.3009, 51.15595
329.7830, 50.76066
330.2651, 50.70832
330.7472, 51.24611
331.2293, 52.19860
331.7115, 52.50206
332.1936, 51.18270
332.6757, 49.58335
333.1578, 49.44188
333.6399, 50.83197
334.1220, 51.78204
334.6042, 50.52607
335.0863, 47.83651
335.5684, 46.71091
336.0505, 48.46421
336.5326, 50.54430
337.0147, 51.33658
337.4969, 51.03720
337.9790, 50.45275
338.4611, 49.75153
338.9432, 49.19093
339.4253, 49.38483
339.9074, 50.63964
340.3896, 51.74947
340.8717, 52.26996
341.3538, 52.31400
341.8359, 52.08005
342.3180, 51.59980
342.8001, 50.93713
343.2822, 50.07545
343.7643, 48.96729
344.2465, 48.12569
344.7286, 47.55663
345.2107, 47.34696
345.6928, 47.75644
346.1749, 48.81281
346.6570, 49.92228
347.1392, 50.54383
347.6213, 50.64675
348.1034, 50.81180
348.5855, 51.07844
349.0676, 51.37482
349.5497, 51.62880
350.0319, 51.86124
350.5140, 52.21487
350.9961, 52.86077
351.4782, 53.64744
351.9603, 53.85865
352.4424, 53.14445
352.9246, 52.39357
353.4067, 51.67759
353.8888, 51.13497
354.3709, 51.11469
354.8530, 51.79351
355.3351, 52.79424
355.8173, 53.46946
356.2994, 54.09374
356.7815, 53.73715
357.2636, 50.92042
357.7457, 47.85941
358.2278, 47.09766
358.7100, 48.93150
359.1921, 51.27135
359.6742, 51.80049
360.1563, 50.11280
360.6384, 48.90597
361.1205, 48.08368
361.6027, 47.76476
362.0848, 48.37829
362.5669, 49.61935
363.0490, 50.53271
363.5311, 50.36216
364.0132, 49.34599
364.4954, 49.47342
364.9775, 52.37610
365.4596, 54.42202
365.9417, 54.38670
366.4238, 53.21941
366.9059, 52.13700
367.3881, 51.63423
367.8702, 51.58089
368.3523, 51.72633
368.8344, 52.30141
369.3165, 52.69992
369.7986, 53.22746
370.2808, 53.38994
370.7629, 52.45731
371.2450, 50.55213
371.7271, 48.76270
372.2092, 48.36173
372.6913, 49.64701
373.1735, 50.38258
373.6556, 49.98805
374.1377, 49.65810
374.6198, 49.90123
375.1019, 50.53867
375.5840, 51.14148
376.0662, 51.43652
376.5483, 51.47760
377.0304, 51.51518
377.5125, 51.59673
377.9946, 51.59923
378.4767, 51.34218
378.9589, 51.08135
379.4410, 51.17689
379.9231, 51.72632
380.4052, 52.32504
380.8873, 52.30394
381.3694, 51.46037
381.8516, 50.65444
382.3337, 49.60546
382.8158, 48.89106
383.2979, 49.00758
383.7800, 49.82889
384.2621, 50.74052
384.7443, 51.31476
385.2264, 51.54895
385.7085, 51.34683
386.1906, 50.07378
386.6727, 49.31022
387.1548, 50.21466
387.6370, 51.83907
388.1191, 52.67169
388.6012, 51.90223
389.0833, 50.37838
389.5654, 49.51154
390.0475, 49.32664
390.5297, 49.69474
391.0118, 51.27038
391.4939, 52.97675
391.9760, 53.98829
392.4581, 54.18916
392.9402, 53.86857
393.4224, 52.75734
393.9045, 51.11830
394.3866, 50.79538
394.8687, 52.84527
395.3508, 54.91234
395.8329, 54.81882
396.3151, 53.14085
396.7972, 51.70927
397.2793, 51.37905
397.7614, 51.61091
398.2435, 51.52613
398.7256, 51.06482
399.2078, 51.04952
399.6899, 52.26775
400.1720, 54.12983
400.6541, 55.36634
401.1362, 55.84222
401.6183, 55.84208
402.1005, 55.26359
402.5826, 54.31934
403.0647, 53.44330
403.5468, 52.59492
404.0289, 52.34623
404.5110, 54.25518
404.9932, 58.70052
405.4753, 61.08407
405.9574, 58.55845
406.4395, 54.84757
406.9216, 53.81287
407.4037, 55.61970
407.8859, 57.70460
408.3680, 58.03432
408.8501, 56.78595
409.3322, 56.37725
409.8143, 57.21421
410.2964, 58.29234
410.7786, 59.53535
411.2607, 60.73002
411.7428, 61.46329
412.2249, 61.54711
412.7070, 61.33006
413.1891, 61.51955
413.6713, 62.68717
414.1534, 63.20386
414.6355, 62.08157
415.1176, 61.06100
415.5997, 61.82468
416.0818, 64.18158
416.5640, 66.35220
417.0461, 66.58281
417.5282, 64.83141
418.0103, 64.31974
418.4924, 66.11931
418.9745, 68.04546
419.4567, 70.04643
419.9388, 71.76497
420.4209, 72.40134
420.9030, 71.55414
421.3851, 70.53450
421.8672, 72.39531
422.3494, 78.88359
422.8315, 83.77731
423.3136, 85.63353
423.7957, 86.51640
424.2778, 86.77361
424.7599, 86.94797
425.2421, 88.60483
425.7242, 93.94099
426.2063, 102.4254
426.6884, 108.5124
427.1705, 110.8638
427.6526, 112.9861
428.1348, 115.6500
428.6169, 119.2859
429.0990, 124.6490
429.5811, 132.1711
430.0632, 141.0659
430.5453, 150.1778
431.0275, 159.4794
431.5096, 170.3225
431.9917, 183.2731
432.4738, 197.8992
432.9559, 213.3480
433.4380, 229.6277
433.9202, 247.4936
434.4023, 269.0503
434.8844, 291.8852
435.3665, 311.0995
435.8486, 326.0127
436.3307, 340.0534
436.8129, 355.1728
437.2950, 371.4400
437.7771, 388.5759
438.2592, 405.7978
438.7413, 424.8211
439.2234, 446.2589
439.7056, 470.1519
440.1877, 496.8251
440.6698, 526.5961
441.1519, 558.4234
441.6340, 591.1198
442.1161, 624.5120
442.5983, 659.3287
443.0804, 696.8528
443.5625, 734.7998
444.0446, 771.2705
444.5267, 806.4625
445.0089, 842.4713
445.4910, 880.4445
445.9731, 920.7390
446.4552, 967.3685
446.9373, 1022.970
447.4194, 1082.669
447.9016, 1145.632
448.3837, 1212.545
448.8658, 1283.829
449.3479, 1359.498
449.8300, 1439.701
450.3121, 1526.108
450.7943, 1623.089
451.2764, 1709.736
451.7585, 1787.449
452.2406, 1853.030
452.7227, 1908.104
453.2048, 1949.356
453.6870, 1970.213
454.1691, 1966.373
454.6512, 1940.264
455.1333, 1894.970
455.6154, 1825.027
456.0975, 1752.287
456.5797, 1673.451
457.0618, 1600.594
457.5439, 1543.389
458.0260, 1503.590
458.5081, 1473.717
458.9902, 1453.792
459.4724, 1440.147
459.9545, 1420.786
460.4366, 1396.346
460.9187, 1360.814
461.4008, 1308.201
461.8829, 1240.745
462.3651, 1161.461
462.8472, 1062.842
463.3293, 960.4432
463.8114, 862.6912
464.2935, 770.2237
464.7756, 685.2025
465.2578, 608.3873
465.7399, 539.5472
466.2220, 480.5313
466.7041, 432.3080
467.1862, 388.0501
467.6683, 346.3541
468.1505, 308.7799
468.6326, 276.8201
469.1147, 250.3415
469.5968, 229.1194
470.0789, 213.3608
470.5610, 202.2427
471.0432, 190.4763
471.5253, 176.4722
472.0074, 163.7004
472.4895, 151.9293
472.9716, 141.8752
473.4537, 134.9869
473.9359, 131.2583
474.4180, 128.4342
474.9001, 123.5869
475.3822, 116.2873
475.8643, 110.7795
476.3464, 109.0725
476.8286, 107.0993
477.3107, 102.7772
477.7928, 97.49564
478.2749, 93.76454
478.7570, 92.93441
479.2391, 93.21741
479.7213, 91.57288
480.2034, 87.74582
480.6855, 84.10912
481.1676, 81.04066
481.6497, 78.46034
482.1318, 76.21239
482.6140, 74.30596
483.0961, 72.89932
483.5782, 72.69463
484.0603, 72.76659
484.5424, 71.39930
485.0245, 68.49352
485.5067, 65.67664
485.9888, 63.73262
486.4709, 62.55363
486.9530, 61.79850
487.4351, 61.61654
487.9172, 61.49369
488.3994, 61.47512
488.8815, 61.32182
489.3636, 60.44428
489.8457, 58.79664
490.3278, 57.42136
490.8099, 57.41079
491.2921, 58.84158
491.7742, 59.70995
492.2563, 60.28334
492.7384, 60.10070
493.2205, 58.22713
493.7026, 55.77369
494.1848, 54.36720
494.6669, 54.59417
495.1490, 55.59332
495.6311, 56.01122
496.1132, 55.63790
496.5953, 55.35627
497.0775, 55.41552
497.5596, 55.32627
498.0417, 54.71353
498.5238, 53.80666
499.0059, 53.13762
499.4880, 53.05231
499.9702, 53.22720
500.4523, 53.08345
500.9344, 52.63458
501.4165, 51.72808
501.8986, 49.65182
502.3807, 47.70344
502.8629, 47.25321
503.3450, 48.26469
503.8271, 49.23426
504.3092, 49.22627
504.7913, 48.83574
505.2734, 49.12072
505.7556, 50.13091
506.2377, 50.91231
506.7198, 50.85707
507.2019, 50.20969
507.6840, 49.74191
508.1661, 49.47895
508.6482, 49.31659
509.1303, 49.29559
509.6125, 49.32604
510.0946, 49.29948
510.5767, 49.20218
511.0588, 49.12523
511.5409, 49.20465
512.0231, 49.43615
512.5052, 49.12400
512.9873, 47.33976
513.4694, 46.11155
513.9515, 46.11904
514.4337, 46.75107
514.9158, 47.47424
515.3979, 48.07735
515.8800, 48.34745
516.3621, 47.61613
516.8442, 45.64151
517.3264, 45.40889
517.8085, 48.69907
518.2906, 51.46276
518.7727, 51.55405
519.2548, 50.04845
519.7369, 48.69270
520.2191, 47.99599
520.7012, 47.82916
521.1833, 48.41069
521.6654, 49.57698
522.1475, 49.91636
522.6296, 48.78525
523.1118, 47.36944
523.5939, 47.09757
524.0760, 47.79895
524.5581, 48.27589
525.0402, 48.28845
525.5223, 48.05322
526.0045, 47.46402
526.4866, 46.73641
526.9687, 46.51110
527.4508, 47.09929
527.9329, 48.10805
528.4150, 48.81920
528.8972, 49.14485
529.3793, 49.33456
529.8614, 49.22254
530.3435, 49.13514
530.8256, 49.52211
531.3077, 50.08467
531.7899, 50.01697
532.2720, 48.77728
532.7541, 46.90168
533.2362, 45.78191
533.7183, 45.58911
534.2004, 45.65672
534.6826, 45.81973
535.1647, 46.27514
535.6468, 47.46493
536.1289, 49.17652
536.6110, 50.44282
537.0931, 50.52478
537.5753, 49.88274
538.0574, 49.29545
538.5395, 48.76097
539.0216, 48.30450
539.5037, 47.97844
539.9858, 47.69846
540.4680, 47.22128
540.9501, 46.42474
541.4322, 46.09910
541.9143, 46.95175
542.3964, 48.05660
542.8785, 48.28065
543.3607, 47.74611
543.8428, 47.64562
544.3249, 48.86814
544.8070, 50.86134
545.2891, 51.57169
545.7712, 49.71719
546.2534, 48.28308
546.7355, 47.04235
547.2176, 46.47025
547.6997, 47.49343
548.1818, 49.68934
548.6639, 51.36176
549.1461, 50.98968
549.6282, 49.17554
550.1103, 48.55569
550.5924, 49.68650
551.0745, 50.55954
551.5566, 50.16452
552.0388, 49.52228
552.5209, 49.55284
553.0030, 50.30588
553.4851, 50.86268
553.9672, 50.72216
554.4493, 50.03094
554.9315, 48.76200
555.4136, 46.91131
555.8957, 45.62859
556.3778, 45.58363
556.8599, 46.49786
557.3420, 47.76956
557.8242, 49.83271
558.3063, 51.19339
558.7884, 51.25555
559.2705, 50.70344
559.7526, 49.96420
560.2347, 49.18195
560.7169, 48.49496
561.1990, 47.98120
561.6811, 47.68959
562.1632, 47.91831
562.6453, 49.32962
563.1274, 50.10386
563.6096, 49.28598
564.0917, 48.42776
564.5738, 48.80926
565.0559, 50.33706
565.5380, 51.90720
566.0201, 52.97438
566.5023, 53.41239
566.9844, 52.58083
567.4665, 50.21025
567.9486, 48.29801
568.4307, 47.66738
568.9128, 47.85180
569.3950, 48.30008
569.8771, 49.06466
570.3592, 49.51173
570.8413, 49.04427
571.3234, 48.42482
571.8055, 48.49176
572.2877, 49.18552
572.7698, 49.96627
573.2519, 50.54538
573.7340, 50.99438
574.2161, 51.51201
574.6982, 52.53323
575.1804, 52.82090
575.6625, 51.43793
576.1446, 50.18812
576.6267, 50.45744
577.1088, 51.81054
577.5909, 52.87101
578.0731, 52.77164
578.5552, 52.06371
579.0373, 51.94854
579.5194, 52.49717
580.0015, 53.25363
580.4836, 54.28910
580.9658, 55.34614
581.4479, 56.36882
581.9300, 57.28700
582.4121, 57.80549
582.8942, 57.73843
583.3763, 57.29085
583.8585, 56.31699
584.3406, 55.06602
584.8227, 54.42218
585.3048, 54.66378
585.7869, 55.77556
586.2690, 57.95858
586.7512, 61.67048
587.2333, 64.08537
587.7154, 64.44117
588.1975, 64.43044
588.6796, 64.49021
589.1617, 64.74892
589.6438, 65.26064
590.1259, 66.05122
590.6080, 67.24445
591.0901, 69.37187
591.5723, 72.67834
592.0544, 74.37298
592.5365, 73.03890
593.0186, 72.10809
593.5007, 73.52706
593.9828, 76.19893
594.4650, 78.49355
594.9471, 79.92464
595.4292, 81.30038
595.9113, 83.00140
596.3934, 85.12003
596.8755, 88.08834
597.3577, 92.00142
597.8398, 95.72386
598.3219, 98.13881
598.8040, 99.59636
599.2861, 102.5789
599.7682, 106.9940
600.2504, 112.7831
600.7325, 121.0884
601.2146, 130.0362
601.6967, 137.4118
602.1788, 143.4093
602.6609, 150.2110
603.1431, 159.4344
603.6252, 170.9185
604.1073, 183.7932
604.5894, 198.1665
605.0715, 213.6999
605.5536, 230.8730
606.0358, 248.8832
606.5179, 267.6736
607.0000, 286.9570
607.4821, 305.5327
607.9642, 323.0910
