##NAMES=Celsian
##RRUFFID=R060152
##IDEAL CHEMISTRY=BaAl_2_Si_2_O_8_
##LOCALITY=Benallt mine, Lleyn, Wales
##OWNER=RRUFF
##SOURCE=Marcus Origlieri
##DESCRIPTION=Colorless to white elongated prismatic crystals
##STATUS=The identification of this mineral is confirmed by single-crystal X-ray diffraction and chemical analysis.
##URL=rruff.info/R060152
##MEASURED CHEMISTRY=(Ba_0.98_K_0.02_[box]_0.02_)_Î£=1_Al_2.00_Si_2.00_O_8_
90.26367, 15.19602
90.74579, 15.15922
91.22791, 15.17150
91.71002, 15.22832
92.19214, 15.29031
92.67426, 15.40822
93.15637, 15.51750
93.63850, 15.43429
94.12061, 14.94734
94.60273, 14.26621
95.08485, 13.88423
95.56696, 13.82261
96.04908, 13.93991
96.53120, 14.17693
97.01331, 14.51707
97.49543, 14.70568
97.97755, 14.50585
98.45966, 13.95249
98.94178, 13.71402
99.42390, 13.88434
99.90602, 14.24065
100.3881, 14.37017
100.8703, 14.24323
101.3524, 13.99089
101.8345, 13.61065
102.3166, 13.02204
102.7987, 12.68485
103.2808, 12.71976
103.7630, 13.02736
104.2451, 13.15493
104.7272, 12.99168
105.2093, 12.79635
105.6914, 12.75173
106.1735, 13.00227
106.6557, 13.15324
107.1378, 13.10683
107.6199, 12.85337
108.1020, 12.72057
108.5841, 12.76894
109.0662, 12.90583
109.5484, 13.04858
110.0305, 13.10385
110.5126, 13.25894
110.9947, 13.54642
111.4768, 13.97711
111.9590, 14.50373
112.4411, 15.13995
112.9232, 15.87036
113.4053, 16.65605
113.8874, 17.33771
114.3695, 18.20291
114.8517, 19.33671
115.3338, 20.72425
115.8159, 22.43978
116.2980, 24.64597
116.7801, 27.22075
117.2622, 29.87219
117.7444, 32.33318
118.2265, 34.95063
118.7086, 37.97965
119.1907, 41.74213
119.6728, 45.57388
120.1549, 48.92589
120.6371, 51.96789
121.1192, 55.40328
121.6013, 59.81409
122.0834, 64.74355
122.5655, 69.66698
123.0477, 74.38217
123.5298, 79.06660
124.0119, 83.81686
124.4940, 88.64112
124.9761, 93.67667
125.4582, 99.06833
125.9404, 104.7142
126.4225, 110.3718
126.9046, 116.2173
127.3867, 121.9344
127.8688, 126.9084
128.3509, 131.0913
128.8331, 134.9987
129.3152, 138.8311
129.7973, 142.7410
130.2794, 147.3746
130.7615, 152.8230
131.2436, 159.2001
131.7258, 167.0437
132.2079, 176.5843
132.6900, 186.9752
133.1721, 197.4076
133.6542, 207.8440
134.1364, 217.2769
134.6185, 225.9939
135.1006, 233.9075
135.5827, 237.9341
136.0648, 237.4280
136.5469, 233.4654
137.0291, 228.3523
137.5112, 222.0435
137.9933, 214.8913
138.4754, 206.6370
138.9575, 197.0306
139.4396, 188.2756
139.9218, 180.5928
140.4039, 173.9883
140.8860, 168.6814
141.3681, 164.7681
141.8502, 162.0604
142.3323, 160.6429
142.8145, 160.9248
143.2966, 161.3747
143.7787, 161.6935
144.2608, 161.8953
144.7429, 162.6010
145.2251, 163.7837
145.7072, 165.5072
146.1893, 167.8940
146.6714, 171.4393
147.1535, 174.8965
147.6356, 177.9073
148.1178, 180.3301
148.5999, 183.1973
149.0820, 186.7610
149.5641, 190.6545
150.0462, 194.4120
150.5283, 197.7421
151.0105, 201.1787
151.4926, 203.0168
151.9747, 204.8828
152.4568, 206.7293
152.9389, 208.4673
153.4210, 210.1954
153.9032, 212.0845
154.3853, 214.2141
154.8674, 216.4124
155.3495, 218.5544
155.8316, 220.4359
156.3138, 222.7643
156.7959, 225.3275
157.2780, 228.4073
157.7601, 232.5317
158.2422, 238.7437
158.7243, 245.3557
159.2065, 251.6155
159.6886, 257.2514
160.1707, 262.8043
160.6528, 268.0714
161.1349, 273.3192
161.6170, 279.2652
162.0992, 287.9533
162.5813, 296.3512
163.0634, 302.5229
163.5455, 306.1137
164.0276, 307.3900
164.5097, 305.2264
164.9919, 300.4462
165.4740, 296.2367
165.9561, 293.6439
166.4382, 292.5440
166.9203, 292.8750
167.4025, 295.9805
167.8846, 299.1085
168.3667, 301.2664
168.8488, 302.3158
169.3309, 301.2496
169.8130, 296.8038
170.2952, 290.0726
170.7773, 282.4529
171.2594, 273.2972
171.7415, 264.2167
172.2236, 256.3948
172.7057, 249.7952
173.1879, 244.0323
173.6700, 239.1898
174.1521, 234.9437
174.6342, 230.7301
175.1163, 226.1476
175.5984, 221.5205
176.0806, 217.1691
176.5627, 213.0654
177.0448, 209.4621
177.5269, 206.5042
178.0090, 204.2208
178.4911, 202.6063
178.9733, 201.9659
179.4554, 201.9166
179.9375, 201.9931
180.4196, 202.2224
180.9017, 202.2465
181.3839, 201.4435
181.8660, 200.0531
182.3481, 198.8929
182.8302, 198.3806
183.3123, 198.3707
183.7944, 198.4822
184.2766, 198.6696
184.7587, 199.1738
185.2408, 200.5433
185.7229, 202.6259
186.2050, 204.5697
186.6871, 205.5706
187.1693, 206.0289
187.6514, 207.4078
188.1335, 209.8844
188.6156, 212.9239
189.0977, 215.6092
189.5798, 217.9815
190.0620, 221.0569
190.5441, 225.5211
191.0262, 231.2507
191.5083, 237.2287
191.9904, 243.3441
192.4725, 250.0331
192.9547, 258.2276
193.4368, 268.0293
193.9189, 278.3190
194.4010, 289.0334
194.8831, 300.0676
195.3652, 310.1519
195.8474, 319.9294
196.3295, 327.5969
196.8116, 330.0275
197.2937, 327.3076
197.7758, 319.0229
198.2579, 303.2566
198.7401, 279.8359
199.2222, 256.8452
199.7043, 234.5441
200.1864, 213.6988
200.6685, 195.9819
201.1507, 181.6041
201.6328, 169.8226
202.1149, 160.4712
202.5970, 153.6560
203.0791, 148.1658
203.5612, 144.0933
204.0434, 141.1926
204.5255, 139.0225
205.0076, 137.7403
205.4897, 136.6481
205.9718, 135.2076
206.4539, 133.2652
206.9361, 131.9553
207.4182, 131.5777
207.9003, 131.8083
208.3824, 131.5441
208.8645, 130.6127
209.3466, 129.6372
209.8288, 129.0252
210.3109, 128.8806
210.7930, 128.5916
211.2751, 127.8986
211.7572, 127.0751
212.2393, 127.2356
212.7215, 128.7319
213.2036, 130.4286
213.6857, 131.6269
214.1678, 132.2414
214.6499, 132.5978
215.1321, 132.5168
215.6142, 132.2154
216.0963, 132.6566
216.5784, 133.9827
217.0605, 135.7613
217.5426, 137.7921
218.0248, 140.1727
218.5069, 142.4287
218.9890, 144.3870
219.4711, 146.1824
219.9532, 148.6104
220.4353, 152.2067
220.9175, 155.5950
221.3996, 157.9674
221.8817, 159.1645
222.3638, 159.7014
222.8459, 159.5401
223.3280, 158.7375
223.8102, 157.5675
224.2923, 155.8294
224.7744, 154.0010
225.2565, 152.2667
225.7386, 150.2462
226.2208, 149.2284
226.7029, 149.3441
227.1850, 150.5553
227.6671, 152.7051
228.1492, 155.9895
228.6313, 159.9282
229.1135, 164.2981
229.5956, 169.4350
230.0777, 174.3232
230.5598, 178.8421
231.0419, 183.0653
231.5240, 187.4871
232.0062, 192.3530
232.4883, 197.0895
232.9704, 201.2559
233.4525, 204.2998
233.9346, 207.9805
234.4167, 212.5194
234.8989, 217.7898
235.3810, 223.1515
235.8631, 228.4731
236.3452, 234.1491
236.8273, 240.4830
237.3095, 247.6297
237.7916, 255.0408
238.2737, 262.6542
238.7558, 270.5312
239.2379, 279.0771
239.7200, 288.4336
240.2022, 298.2716
240.6843, 308.4746
241.1664, 318.9009
241.6485, 330.0603
242.1306, 342.3744
242.6127, 355.4859
243.0949, 367.6102
243.5770, 378.6556
244.0591, 388.9049
244.5412, 398.5710
245.0233, 408.5398
245.5054, 416.2133
245.9876, 421.8548
246.4697, 425.1005
246.9518, 424.9682
247.4339, 421.5650
247.9160, 414.6059
248.3981, 403.5196
248.8803, 386.0415
249.3624, 369.6336
249.8445, 354.3809
250.3266, 340.2814
250.8087, 327.2567
251.2909, 315.2604
251.7730, 304.5767
252.2551, 295.4072
252.7372, 287.5551
253.2193, 281.6141
253.7014, 278.1136
254.1836, 276.3284
254.6657, 274.7860
255.1478, 273.7926
255.6299, 272.5065
256.1120, 270.7873
256.5941, 269.1441
257.0763, 265.4192
257.5584, 259.2220
258.0405, 251.1519
258.5226, 242.4722
259.0047, 233.1193
259.4868, 223.1285
259.9690, 212.2272
260.4511, 199.8588
260.9332, 189.2201
261.4153, 180.6013
261.8974, 173.3250
262.3795, 166.3138
262.8617, 159.2221
263.3438, 153.0859
263.8259, 148.3380
264.3080, 145.1861
264.7901, 142.1026
265.2722, 139.0106
265.7544, 136.0771
266.2365, 133.6380
266.7186, 131.8225
267.2007, 130.1140
267.6829, 128.3106
268.1650, 126.3600
268.6471, 124.9345
269.1292, 124.1579
269.6113, 123.6698
270.0934, 123.0190
270.5756, 122.1460
271.0577, 121.3114
271.5398, 120.5654
272.0219, 119.9038
272.5040, 119.4307
272.9861, 119.2125
273.4683, 119.0506
273.9504, 118.6633
274.4325, 117.9680
274.9146, 117.5118
275.3967, 117.3925
275.8788, 117.6133
276.3610, 118.4490
276.8431, 120.1893
277.3252, 121.6415
277.8073, 121.5032
278.2894, 119.6362
278.7715, 117.7797
279.2537, 116.2344
279.7358, 114.9644
280.2179, 113.7932
280.7000, 112.7161
281.1821, 111.7476
281.6642, 110.8721
282.1464, 110.0893
282.6285, 109.4540
283.1106, 108.9460
283.5927, 108.6140
284.0748, 108.7253
284.5569, 109.3394
285.0391, 109.8504
285.5212, 109.6546
286.0033, 108.8354
286.4854, 108.3921
286.9675, 108.4557
287.4496, 108.9390
287.9318, 109.7343
288.4139, 110.8524
288.8960, 112.1048
289.3781, 113.4849
289.8602, 114.9497
290.3424, 116.2934
290.8245, 117.5100
291.3066, 118.5796
291.7887, 119.3671
292.2708, 119.9087
292.7530, 120.5052
293.2351, 121.3041
293.7172, 122.2850
294.1993, 123.3775
294.6814, 124.5956
295.1635, 125.8708
295.6457, 127.0808
296.1278, 128.2536
296.6099, 129.5010
297.0920, 130.8738
297.5741, 132.3352
298.0562, 133.7498
298.5384, 135.0891
299.0205, 136.5618
299.5026, 138.3974
299.9847, 140.5214
300.4668, 142.8014
300.9489, 145.0440
301.4311, 147.4478
301.9132, 150.3260
302.3953, 153.6877
302.8774, 157.1062
303.3595, 160.5062
303.8416, 163.7158
304.3238, 166.5416
304.8059, 169.0385
305.2880, 170.9358
305.7701, 172.1533
306.2522, 172.6122
306.7343, 171.7599
307.2165, 168.8794
307.6986, 164.5854
308.1807, 159.6042
308.6628, 153.8642
309.1449, 147.7709
309.6270, 141.2281
310.1092, 134.4077
310.5913, 128.0733
311.0734, 122.5376
311.5555, 117.6991
312.0376, 113.6033
312.5197, 110.3722
313.0019, 107.5489
313.4840, 104.7373
313.9661, 102.1049
314.4482, 99.96486
314.9304, 98.74743
315.4125, 97.84978
315.8946, 96.92821
316.3767, 95.91796
316.8588, 94.99674
317.3409, 94.20520
317.8231, 93.54671
318.3052, 93.02754
318.7873, 93.01221
319.2694, 92.81306
319.7515, 91.95264
320.2336, 90.33974
320.7158, 89.11080
321.1979, 88.89049
321.6800, 89.06538
322.1621, 89.08424
322.6442, 88.69406
323.1263, 88.28484
323.6085, 88.01964
324.0906, 87.87681
324.5727, 87.50100
325.0548, 86.61463
325.5369, 85.63006
326.0190, 84.79857
326.5012, 83.97843
326.9833, 83.50022
327.4654, 83.58398
327.9475, 84.08498
328.4296, 84.42088
328.9117, 84.52368
329.3939, 84.52024
329.8760, 84.44969
330.3581, 84.22819
330.8402, 84.09045
331.3223, 84.04768
331.8044, 84.08207
332.2866, 84.15868
332.7687, 84.26621
333.2508, 84.42544
333.7329, 84.62354
334.2150, 84.83210
334.6971, 85.23904
335.1793, 85.95154
335.6614, 86.76404
336.1435, 87.36674
336.6256, 87.63097
337.1077, 88.04904
337.5899, 88.76571
338.0720, 89.77517
338.5541, 90.76233
339.0362, 91.74236
339.5183, 92.69199
340.0005, 93.58077
340.4826, 94.41692
340.9647, 95.17280
341.4468, 95.75336
341.9289, 96.29564
342.4110, 97.33347
342.8932, 98.91568
343.3753, 100.6105
343.8574, 102.1522
344.3395, 103.5515
344.8216, 104.7772
345.3037, 105.7995
345.7859, 106.6953
346.2680, 107.5088
346.7501, 108.2601
347.2322, 109.1754
347.7143, 110.3891
348.1964, 111.8680
348.6786, 113.5844
349.1607, 115.5993
349.6428, 117.6071
350.1249, 119.1928
350.6070, 120.4893
351.0891, 121.9513
351.5713, 123.8642
352.0534, 125.9807
352.5355, 128.0533
353.0176, 130.0502
353.4997, 131.8400
353.9818, 133.3360
354.4640, 134.5447
354.9461, 135.5073
355.4282, 136.3136
355.9103, 136.7611
356.3924, 136.5436
356.8745, 135.7690
357.3567, 134.8750
357.8388, 134.5489
358.3209, 133.9704
358.8030, 132.2880
359.2851, 129.0233
359.7672, 125.5673
360.2494, 122.6285
360.7315, 120.0071
361.2136, 117.3806
361.6957, 114.5424
362.1779, 111.7063
362.6600, 108.9979
363.1421, 106.4456
363.6242, 103.8660
364.1063, 100.8706
364.5884, 97.94338
365.0706, 95.60451
365.5527, 94.24564
366.0348, 93.18473
366.5169, 92.32586
366.9990, 91.65972
367.4811, 91.10544
367.9633, 90.78037
368.4454, 90.47776
368.9275, 90.07901
369.4096, 89.41756
369.8917, 88.89004
370.3738, 88.52892
370.8560, 88.30416
371.3381, 88.12901
371.8202, 87.92708
372.3023, 87.87450
372.7844, 88.01778
373.2665, 88.32542
373.7487, 88.95684
374.2308, 89.97879
374.7129, 91.25804
375.1950, 92.70737
375.6771, 94.46467
376.1592, 95.95069
376.6414, 96.92969
377.1235, 97.46836
377.6056, 98.38226
378.0877, 99.83871
378.5698, 101.1511
379.0519, 101.5305
379.5341, 100.9661
380.0162, 100.8408
380.4983, 101.5001
380.9804, 102.5917
381.4625, 103.2936
381.9446, 103.6219
382.4268, 103.8762
382.9089, 104.1505
383.3910, 104.4905
383.8731, 105.0712
384.3553, 105.9171
384.8374, 106.9376
385.3195, 107.9815
385.8016, 109.0993
386.2837, 110.4676
386.7658, 112.2229
387.2480, 114.2234
387.7301, 116.3997
388.2122, 118.7325
388.6943, 121.0159
389.1764, 123.0355
389.6585, 124.9218
390.1407, 126.8359
390.6228, 129.0714
391.1049, 130.9888
391.5870, 132.1571
392.0691, 132.6495
392.5512, 132.6861
393.0334, 132.9983
393.5155, 132.4496
393.9976, 130.1184
394.4797, 125.4576
394.9618, 120.4925
395.4439, 115.3477
395.9261, 110.4138
396.4082, 106.2275
396.8903, 103.0205
397.3724, 100.4007
397.8545, 98.34753
398.3366, 96.87190
398.8188, 95.52094
399.3009, 93.95689
399.7830, 92.71526
400.2651, 92.16839
400.7472, 93.06850
401.2293, 93.51299
401.7115, 93.10873
402.1936, 92.21559
402.6757, 91.96623
403.1578, 92.68737
403.6399, 93.49186
404.1220, 93.97750
404.6042, 94.06284
405.0863, 94.31186
405.5684, 94.72346
406.0505, 95.29407
406.5326, 95.99632
407.0147, 96.81998
407.4969, 97.90561
407.9790, 99.39758
408.4611, 101.1645
408.9432, 102.6042
409.4254, 103.6721
409.9075, 104.8133
410.3896, 106.5373
410.8717, 108.6855
411.3538, 110.5438
411.8359, 111.9596
412.3181, 113.1260
412.8002, 114.3078
413.2823, 115.4561
413.7644, 116.4649
414.2465, 117.1544
414.7286, 117.7178
415.2108, 118.4421
415.6929, 119.3374
416.1750, 120.2474
416.6571, 120.9927
417.1392, 121.6902
417.6213, 122.5164
418.1035, 123.3833
418.5856, 124.5415
419.0677, 126.1662
419.5498, 128.2153
420.0319, 130.4675
420.5140, 133.0061
420.9962, 135.6255
421.4783, 138.1427
421.9604, 140.3274
422.4425, 142.9484
422.9246, 146.2934
423.4067, 150.1046
423.8889, 154.0784
424.3710, 158.5489
424.8531, 162.7696
425.3352, 166.4210
425.8173, 169.5011
426.2994, 172.8051
426.7816, 177.0689
427.2637, 180.7797
427.7458, 183.0374
428.2279, 183.9714
428.7100, 183.1063
429.1921, 180.1673
429.6743, 175.5904
430.1564, 170.4170
430.6385, 164.6476
431.1206, 158.2654
431.6028, 150.9583
432.0849, 142.7417
432.5670, 135.3967
433.0491, 128.8820
433.5312, 123.3310
434.0133, 119.0918
434.4955, 116.0086
434.9776, 112.9882
435.4597, 109.6267
435.9418, 106.3622
436.4239, 104.1469
436.9060, 102.8845
437.3882, 101.8291
437.8703, 100.4989
438.3524, 99.09229
438.8345, 97.87655
439.3166, 96.87731
439.7987, 96.08006
440.2809, 95.51891
440.7630, 95.14098
441.2451, 94.86961
441.7272, 94.66816
442.2093, 94.56860
442.6914, 94.53471
443.1736, 94.59128
443.6557, 94.89782
444.1378, 95.59039
444.6199, 96.50276
445.1020, 97.53752
445.5841, 98.71426
446.0663, 99.94170
446.5484, 101.1482
447.0305, 102.4117
447.5126, 103.8765
447.9947, 105.7446
448.4768, 107.5447
448.9590, 109.1356
449.4411, 110.5030
449.9232, 112.0101
450.4053, 113.6939
450.8874, 115.4825
451.3695, 117.2468
451.8517, 118.8989
452.3338, 120.9969
452.8159, 123.6999
453.2980, 126.7139
453.7801, 129.4125
454.2622, 131.7355
454.7444, 134.2878
455.2265, 137.3264
455.7086, 140.8136
456.1907, 144.4634
456.6729, 148.3218
457.1550, 152.3425
457.6371, 156.7940
458.1192, 161.4329
458.6013, 165.7775
459.0834, 169.6079
459.5656, 173.2085
460.0477, 176.7783
460.5298, 180.3477
461.0119, 183.8176
461.4940, 187.4724
461.9761, 190.8715
462.4583, 193.8359
462.9404, 196.4142
463.4225, 197.9973
463.9046, 197.9383
464.3867, 196.9326
464.8688, 195.6416
465.3510, 194.3317
465.8331, 192.6243
466.3152, 190.0424
466.7973, 186.9255
467.2794, 184.5052
467.7615, 182.9686
468.2437, 181.9981
468.7258, 181.5176
469.2079, 181.5602
469.6900, 182.0048
470.1721, 183.1577
470.6542, 184.3715
471.1364, 185.1848
471.6185, 185.8780
472.1006, 185.0095
472.5827, 182.1416
473.0648, 177.6660
473.5469, 172.5137
474.0291, 166.6243
474.5112, 160.7776
474.9933, 155.2790
475.4754, 150.1694
475.9575, 145.5685
476.4396, 141.4571
476.9218, 138.0217
477.4039, 135.7111
477.8860, 134.2501
478.3681, 133.0217
478.8503, 131.7505
479.3324, 130.7289
479.8145, 130.1796
480.2966, 130.1074
480.7787, 130.5327
481.2608, 131.6985
481.7430, 133.1940
482.2251, 134.6929
482.7072, 136.1009
483.1893, 137.8469
483.6714, 139.9893
484.1535, 142.5890
484.6357, 145.7001
485.1178, 149.2299
485.5999, 153.4101
486.0820, 158.2957
486.5641, 163.8387
487.0462, 170.0328
487.5284, 176.4798
488.0105, 184.1269
488.4926, 193.4276
488.9747, 204.3447
489.4568, 216.6086
489.9389, 229.9891
490.4211, 244.9594
490.9032, 261.9662
491.3853, 281.1405
491.8674, 301.4139
492.3495, 322.5444
492.8316, 344.4848
493.3138, 367.5758
493.7959, 391.7559
494.2780, 415.3468
494.7601, 437.3163
495.2422, 457.9276
495.7243, 476.8589
496.2065, 494.2913
496.6886, 511.0915
497.1707, 527.8682
497.6528, 544.9017
498.1349, 562.5167
498.6170, 580.4536
499.0992, 599.7487
499.5813, 621.4012
500.0634, 644.9907
500.5455, 669.6826
501.0276, 694.1932
501.5097, 720.5353
501.9919, 750.1186
502.4740, 783.2458
502.9561, 816.9286
503.4382, 851.7952
503.9203, 886.9177
504.4025, 922.1390
504.8846, 958.3321
505.3667, 992.2144
505.8488, 1024.464
506.3309, 1053.504
506.8130, 1077.169
507.2952, 1096.736
507.7773, 1105.406
508.2594, 1101.550
508.7415, 1084.742
509.2236, 1050.302
509.7057, 997.6506
510.1879, 935.1552
510.6700, 865.0452
511.1521, 789.9955
511.6342, 715.9037
512.1163, 643.4463
512.5984, 575.6287
513.0806, 515.2473
513.5627, 462.1242
514.0448, 415.8990
514.5269, 378.0260
515.0090, 345.6540
515.4911, 317.6446
515.9733, 293.6595
516.4554, 272.5979
516.9375, 254.2821
517.4196, 238.2995
517.9017, 224.5691
518.3839, 213.6130
518.8660, 203.5384
519.3481, 194.3197
519.8302, 185.8737
520.3123, 178.2878
520.7944, 171.4535
521.2766, 165.6101
521.7587, 160.9604
522.2408, 157.3274
522.7229, 153.9359
523.2050, 150.8543
523.6871, 147.7707
524.1693, 144.3743
524.6514, 140.7750
525.1335, 137.6513
525.6156, 135.0104
526.0977, 132.7385
526.5798, 130.7835
527.0620, 129.0746
527.5441, 127.4781
528.0262, 126.0743
528.5083, 124.5397
528.9904, 122.3083
529.4725, 119.6736
529.9547, 117.3689
530.4368, 116.1074
530.9189, 115.0304
531.4010, 113.5471
531.8831, 111.6265
532.3652, 109.8859
532.8474, 108.4279
533.3295, 107.2508
533.8116, 106.3518
534.2937, 105.9282
534.7758, 105.4685
535.2579, 104.9013
535.7401, 104.3234
536.2222, 103.8774
536.7043, 103.5336
537.1865, 103.3827
537.6686, 103.4655
538.1507, 103.7553
538.6328, 104.0897
539.1149, 104.4471
539.5970, 105.0173
540.0792, 106.0744
540.5613, 107.4846
541.0434, 108.4952
541.5255, 109.0464
542.0076, 109.5156
542.4897, 110.0663
542.9719, 110.8358
543.4540, 112.2020
543.9361, 114.6526
544.4182, 117.0122
544.9003, 118.1451
545.3824, 118.4662
545.8646, 118.8991
546.3467, 119.7199
546.8288, 120.8208
547.3109, 122.1923
547.7930, 123.8227
548.2751, 125.5727
548.7573, 127.3785
549.2394, 129.3359
549.7215, 131.5405
550.2036, 134.3002
550.6857, 136.6152
551.1678, 138.4399
551.6500, 139.8756
552.1321, 141.0617
552.6142, 142.0311
553.0963, 142.6176
553.5784, 142.8445
554.0605, 142.6145
554.5427, 141.6750
555.0248, 140.0314
555.5069, 137.7522
555.9890, 134.7984
556.4711, 131.2841
556.9532, 127.2459
557.4354, 122.6901
557.9175, 118.2099
558.3996, 114.2355
558.8817, 110.6271
559.3638, 107.2383
559.8459, 104.0489
560.3281, 101.1130
560.8102, 98.45861
561.2923, 96.09624
561.7744, 94.06327
562.2565, 92.57508
562.7386, 91.19167
563.2208, 89.73888
563.7029, 88.27715
564.1850, 87.16586
564.6671, 86.55920
565.1492, 86.04886
565.6313, 85.41182
566.1135, 84.63004
566.5956, 84.07755
567.0777, 83.81184
567.5598, 83.58467
568.0419, 83.04945
568.5240, 82.29300
569.0062, 81.75131
569.4883, 81.54727
569.9704, 81.51012
570.4525, 81.51637
570.9346, 81.52644
571.4167, 81.43952
571.8989, 80.95884
572.3810, 80.57079
572.8631, 80.75448
573.3452, 81.41096
573.8273, 81.86705
574.3094, 81.58334
574.7916, 81.25355
575.2737, 81.25276
575.7558, 81.69161
576.2379, 82.22915
576.7200, 82.99364
577.2021, 83.73301
577.6843, 84.17931
578.1664, 84.13988
578.6485, 84.38438
579.1306, 85.04888
579.6127, 85.97731
580.0948, 86.94396
580.5770, 87.94543
581.0591, 88.80009
581.5412, 89.34531
582.0233, 89.73770
582.5054, 90.30218
582.9875, 91.02336
583.4697, 91.84991
583.9518, 92.74474
584.4340, 93.71854
584.9161, 94.79124
585.3982, 95.96953
585.8803, 97.20598
586.3624, 98.64314
