##NAMES=Cerite-(Ce)
##RRUFFID=R060708
##IDEAL CHEMISTRY=(Ce,La,Ca)_9_(Mg,Fe^3+^)(SiO_4_)_3_(SiO_3_OH)_4_(OH)_3_
##LOCALITY=Bastnas, Riddarhyttan, Sweden
##OWNER=RRUFF
##SOURCE=Bob Jenkins
##DESCRIPTION=Pink thin but massive crystalline coating
##STATUS=The identification of this mineral is confirmed by single-crystal X-ray diffraction and chemical analysis.
##URL=rruff.info/R060708
##MEASURED CHEMISTRY=(Ce_4.01_Nd_1.78_La_1.76_Ca_0.73_Pr_0.48_Y_0.14_Sm^+2^_0.10_Eu^+2^_0.09_)_Σ=9.09_(Mg_0.78_Fe_0.23_)_Σ=1.01_(Si_1.07_O_4_)_6.000_(SiO_3_OH)(OH_1.66_F_1.31_Cl_0.03_)_Σ=3.00_; OH by stoichiometry
149.486, 17826.020
149.968, 17850.410
150.450, 17886.881
150.932, 17937.211
151.414, 17985.449
151.896, 18035.410
152.378, 18083.260
152.861, 18125.141
153.343, 18147.600
153.825, 18179.350
154.307, 18233.971
154.789, 18325.680
155.271, 18399.881
155.753, 18439.631
156.235, 18459.391
156.717, 18482.561
157.200, 18499.141
157.682, 18531.180
158.164, 18590.520
158.646, 18692.520
159.128, 18794.520
159.610, 18884.350
160.092, 18964.051
160.574, 19040.641
161.057, 19107.730
161.539, 19175.391
162.021, 19250.539
162.503, 19344.330
162.985, 19433.301
163.467, 19508.740
163.949, 19570.221
164.431, 19621.311
164.913, 19656.869
165.396, 19685.410
165.878, 19715.359
166.360, 19760.439
166.842, 19800.641
167.324, 19815.119
167.806, 19804.760
168.288, 19808.830
168.770, 19864.551
169.253, 19948.650
169.735, 20027.080
170.217, 20093.260
170.699, 20143.170
171.181, 20165.160
171.663, 20154.730
172.145, 20147.051
172.627, 20174.230
173.109, 20225.551
173.592, 20277.250
174.074, 20315.400
174.556, 20347.600
175.038, 20384.760
175.520, 20430.900
176.002, 20473.480
176.484, 20494.699
176.966, 20498.840
177.449, 20503.189
177.931, 20520.961
178.413, 20545.711
178.895, 20565.119
179.377, 20574.100
179.859, 20581.520
180.341, 20600.930
180.823, 20631.410
181.305, 20663.311
181.788, 20688.730
182.270, 20709.859
182.752, 20734.830
183.234, 20770.539
183.716, 20806.949
184.198, 20822.160
184.680, 20815.770
185.162, 20801.260
185.645, 20786.051
186.127, 20771.340
186.609, 20762.391
187.091, 20756.449
187.573, 20758.010
188.055, 20789.510
188.537, 20856.320
189.019, 20922.119
189.501, 20941.180
189.984, 20917.289
190.466, 20894.160
190.948, 20895.230
191.430, 20913.881
191.912, 20906.471
192.394, 20866.770
192.876, 20821.500
193.358, 20809.609
193.840, 20831.600
194.323, 20861.160
194.805, 20893.020
195.287, 20926.359
195.769, 20937.980
196.251, 20920.801
196.733, 20894.131
197.215, 20894.500
197.697, 20924.350
198.180, 20962.080
198.662, 20968.500
199.144, 20974.326
199.626, 21045.119
200.108, 21100.141
200.590, 21140.238
201.072, 21120.709
201.554, 21178.176
202.036, 21204.785
202.519, 21230.137
203.001, 21298.438
203.483, 21287.582
203.965, 21355.203
204.447, 21385.760
204.929, 21402.730
205.411, 21453.109
205.893, 21505.830
206.376, 21535.240
206.858, 21535.301
207.340, 21540.619
207.822, 21556.980
208.304, 21582.900
208.786, 21612.381
209.268, 21651.830
209.750, 21682.961
210.232, 21685.770
210.714, 21651.721
211.197, 21623.920
211.679, 21609.100
212.161, 21607.920
212.643, 21627.680
213.125, 21681.910
213.607, 21737.529
214.089, 21757.211
214.572, 21724.930
215.054, 21701.811
215.536, 21705.980
216.018, 21738.439
216.500, 21751.221
216.982, 21731.180
217.464, 21704.561
217.946, 21702.471
218.428, 21729.580
218.911, 21768.420
219.393, 21820.750
219.875, 21890.801
220.357, 21931.830
220.839, 21929.359
221.321, 21910.641
221.803, 21915.199
222.285, 21953.230
222.767, 21995.779
223.250, 22036.770
223.732, 22079.750
224.214, 22109.461
224.696, 22125.211
225.178, 22129.420
225.660, 22123.100
226.142, 22094.029
226.624, 22076.689
227.107, 22085.789
227.589, 22131.770
228.071, 22169.721
228.553, 22199.010
229.035, 22219.949
229.517, 22231.391
229.999, 22222.240
230.481, 22220.480
230.963, 22239.029
231.445, 22290.520
231.928, 22330.430
232.410, 22353.631
232.892, 22367.000
233.374, 22388.180
233.856, 22428.039
234.338, 22459.971
234.820, 22469.779
235.303, 22437.650
235.785, 22428.340
236.267, 22453.660
236.749, 22500.869
237.231, 22530.279
237.713, 22534.490
238.195, 22531.619
238.677, 22527.711
239.159, 22513.100
239.641, 22520.980
240.124, 22569.250
240.606, 22640.939
241.088, 22670.070
241.570, 22628.000
242.052, 22581.881
242.534, 22566.670
243.016, 22592.119
243.498, 22629.061
243.981, 22685.660
244.463, 22752.830
244.945, 22791.051
245.427, 22785.410
245.909, 22768.119
246.391, 22755.270
246.873, 22742.930
247.355, 22742.529
247.837, 22763.760
248.320, 22798.561
248.802, 22804.670
249.284, 22766.471
249.766, 22720.650
250.248, 22690.109
250.730, 22685.631
251.212, 22675.369
251.694, 22659.949
252.176, 22638.811
252.659, 22601.670
253.141, 22536.070
253.623, 22474.029
254.105, 22439.830
254.587, 22453.779
255.069, 22449.391
255.551, 22414.510
256.033, 22355.260
256.516, 22304.980
256.998, 22264.100
257.480, 22230.891
257.962, 22204.961
258.444, 22188.641
258.926, 22171.020
259.408, 22150.260
259.890, 22125.930
260.372, 22097.461
260.855, 22057.881
261.337, 22023.039
261.819, 22008.881
262.301, 22029.430
262.783, 22026.869
263.265, 21985.480
263.747, 21913.420
264.229, 21862.881
264.711, 21846.900
265.194, 21829.619
265.676, 21779.699
266.158, 21684.840
266.640, 21605.359
267.122, 21556.100
267.604, 21529.850
268.086, 21483.949
268.569, 21408.141
269.051, 21334.211
269.533, 21289.980
270.015, 21284.520
270.497, 21268.240
270.979, 21223.160
271.461, 21162.949
271.943, 21107.920
272.425, 21087.150
272.908, 21058.066
273.390, 21021.113
273.872, 20952.707
274.354, 20924.908
274.836, 20880.844
275.318, 20844.830
275.800, 20829.320
276.282, 20749.020
276.764, 20657.551
277.247, 20591.910
277.729, 20553.670
278.211, 20528.770
278.693, 20519.270
279.175, 20518.920
279.657, 20503.760
280.139, 20469.801
280.621, 20438.430
281.103, 20434.029
281.586, 20457.529
282.068, 20453.699
282.550, 20405.170
283.032, 20331.250
283.514, 20288.189
283.996, 20279.070
284.478, 20277.779
284.960, 20269.949
285.443, 20255.449
285.925, 20228.320
286.407, 20185.250
286.889, 20132.740
287.371, 20081.160
287.853, 20030.199
288.335, 19990.789
288.817, 19979.260
289.299, 19990.410
289.782, 19987.109
290.264, 19960.670
290.746, 19922.721
291.228, 19893.670
291.710, 19873.160
292.192, 19855.910
292.674, 19842.029
293.156, 19829.301
293.638, 19807.211
294.121, 19770.230
294.603, 19732.801
295.085, 19727.160
295.567, 19748.529
296.049, 19756.051
296.531, 19708.410
297.013, 19628.600
297.496, 19574.830
297.978, 19560.980
298.460, 19561.850
298.942, 19547.260
299.424, 19520.070
299.906, 19492.000
300.388, 19461.211
300.870, 19435.619
301.352, 19432.631
301.835, 19457.320
302.317, 19490.131
302.799, 19518.961
303.281, 19540.100
303.763, 19544.680
304.245, 19509.949
304.727, 19461.520
305.209, 19436.570
305.691, 19442.840
306.174, 19448.010
306.656, 19425.699
307.138, 19381.500
307.620, 19328.150
308.102, 19265.930
308.584, 19200.971
309.066, 19140.850
309.548, 19086.920
310.030, 19029.930
310.513, 18959.910
310.995, 18882.721
311.477, 18808.730
311.959, 18743.270
312.441, 18681.770
312.923, 18621.141
313.405, 18560.699
313.887, 18505.680
314.370, 18466.109
314.852, 18430.490
315.334, 18384.180
315.816, 18311.490
316.298, 18236.141
316.780, 18166.250
317.262, 18102.619
317.744, 18047.520
318.226, 18015.490
318.709, 17987.529
319.191, 17945.850
319.673, 17861.289
320.155, 17786.289
320.637, 17745.750
321.119, 17737.750
321.601, 17718.619
322.083, 17658.740
322.565, 17593.801
323.048, 17549.529
323.530, 17551.711
324.012, 17550.990
324.494, 17531.971
324.976, 17498.109
325.458, 17479.539
325.940, 17512.820
326.422, 17539.650
326.905, 17527.730
327.387, 17412.660
327.869, 17332.789
328.351, 17314.600
328.833, 17341.480
329.315, 17345.061
329.797, 17300.730
330.279, 17255.971
330.762, 17232.730
331.244, 17256.580
331.726, 17259.199
332.208, 17231.340
332.690, 17184.160
333.172, 17145.330
333.654, 17115.439
334.136, 17094.039
334.618, 17081.090
335.100, 17077.250
335.583, 17081.670
336.065, 17097.881
336.547, 17119.869
337.029, 17135.500
337.511, 17139.711
337.993, 17150.260
338.475, 17174.770
338.957, 17213.801
339.440, 17251.990
339.922, 17289.439
340.404, 17325.061
340.886, 17356.680
341.368, 17382.939
341.850, 17413.221
342.332, 17451.740
342.814, 17497.631
343.297, 17538.500
343.779, 17573.850
344.261, 17610.029
344.743, 17652.211
345.225, 17701.000
345.707, 17761.381
346.189, 17837.311
346.671, 17925.221
347.153, 18022.141
347.635, 18127.891
348.118, 18234.289
348.600, 18333.199
349.082, 18426.699
349.564, 18524.051
350.046, 18628.340
350.528, 18736.250
351.010, 18843.340
351.492, 18949.711
351.975, 19062.740
352.457, 19183.449
352.939, 19313.561
353.421, 19461.840
353.903, 19640.311
354.385, 19811.000
354.867, 19925.000
355.349, 19999.551
355.832, 20083.080
356.314, 20211.461
356.796, 20357.311
357.278, 20490.170
357.760, 20602.840
358.242, 20724.301
358.724, 20889.381
359.206, 21074.539
359.688, 21241.051
360.171, 21354.020
360.653, 21458.670
361.135, 21577.250
361.617, 21711.830
362.099, 21858.080
362.581, 22029.920
363.063, 22207.051
363.545, 22368.420
364.027, 22502.859
364.510, 22625.820
364.992, 22740.369
365.474, 22846.680
365.956, 22947.211
366.438, 23035.150
366.920, 23121.230
367.402, 23213.311
367.884, 23344.631
368.366, 23445.250
368.849, 23489.369
369.331, 23491.811
369.813, 23523.859
370.295, 23633.551
370.777, 23725.180
371.259, 23751.539
371.741, 23666.160
372.224, 23603.859
372.706, 23566.961
373.188, 23551.570
373.670, 23554.789
374.152, 23592.490
374.634, 23614.240
375.116, 23599.939
375.598, 23546.461
376.080, 23474.439
376.562, 23379.330
377.045, 23273.131
377.527, 23176.551
378.009, 23091.789
378.491, 22997.230
378.973, 22883.000
379.455, 22752.561
379.937, 22634.170
380.419, 22528.891
380.902, 22428.160
381.384, 22320.949
381.866, 22209.340
382.348, 22102.900
382.830, 22003.590
383.312, 21911.689
383.794, 21836.170
384.276, 21775.551
384.759, 21707.270
385.241, 21611.660
385.723, 21496.029
386.205, 21377.289
386.687, 21253.391
387.169, 21135.760
387.651, 21052.240
388.133, 20988.789
388.615, 20904.020
389.098, 20764.301
389.580, 20597.580
390.062, 20431.320
390.544, 20265.400
391.026, 20101.529
391.508, 19944.789
391.990, 19790.859
392.472, 19631.439
392.954, 19456.641
393.437, 19284.590
393.919, 19127.949
394.401, 18988.900
394.883, 18843.391
395.365, 18691.770
395.847, 18528.000
396.329, 18347.311
396.811, 18112.650
397.293, 17900.850
397.776, 17740.910
398.258, 17620.910
398.740, 17476.561
399.222, 17277.051
399.704, 17073.039
400.186, 16886.900
400.668, 16737.090
401.151, 16568.039
401.633, 16360.510
402.115, 16141.940
402.597, 15962.320
403.079, 15845.300
403.561, 15723.160
404.043, 15569.050
404.525, 15378.130
405.007, 15217.100
405.490, 15095.280
405.972, 14986.550
406.454, 14859.120
406.936, 14709.040
407.418, 14568.350
407.900, 14443.860
408.382, 14334.610
408.864, 14237.530
409.346, 14153.930
409.828, 14067.310
410.311, 13963.670
410.793, 13846.530
411.275, 13725.620
411.757, 13596.890
412.239, 13477.180
412.721, 13401.850
413.203, 13360.360
413.685, 13305.160
414.168, 13188.940
414.650, 13050.690
415.132, 12952.600
415.614, 12901.650
416.096, 12852.940
416.578, 12765.110
417.060, 12655.850
417.542, 12554.040
418.025, 12471.210
418.507, 12399.140
418.989, 12335.640
419.471, 12280.240
419.953, 12223.900
420.435, 12172.810
420.917, 12114.260
421.399, 12038.250
421.881, 11922.020
422.364, 11817.090
422.846, 11740.230
423.328, 11683.020
423.810, 11624.960
424.292, 11553.450
424.774, 11489.390
425.256, 11444.410
425.738, 11432.130
426.220, 11395.710
426.703, 11319.420
427.185, 11228.930
427.667, 11157.940
428.149, 11116.420
428.631, 11072.900
429.113, 11016.770
429.595, 10949.980
430.077, 10902.620
430.560, 10881.360
431.042, 10860.490
431.524, 10816.270
432.006, 10747.120
432.488, 10687.560
432.970, 10643.000
433.452, 10608.790
433.934, 10581.380
434.417, 10560.510
434.899, 10527.370
435.381, 10458.060
435.863, 10369.450
436.345, 10309.800
436.827, 10283.740
437.309, 10265.750
437.791, 10225.990
438.273, 10175.420
438.755, 10137.290
439.238, 10128.250
439.720, 10129.210
440.202, 10115.710
440.684, 10092.230
441.166, 10089.020
441.648, 10044.372
442.130, 10050.360
442.612, 10044.058
443.095, 10026.122
443.577, 9961.717
444.059, 9957.317
444.541, 9928.873
445.023, 9912.332
445.505, 9892.861
445.987, 9877.232
446.469, 9859.576
446.952, 9839.229
447.434, 9818.975
447.916, 9797.167
448.398, 9776.749
448.880, 9761.606
449.362, 9760.604
449.844, 9748.124
450.326, 9716.393
450.808, 9670.489
451.290, 9634.440
451.773, 9609.916
452.255, 9591.431
452.737, 9580.575
453.219, 9579.026
453.701, 9559.224
454.183, 9517.152
454.665, 9463.258
455.147, 9405.968
455.630, 9346.858
456.112, 9300.930
456.594, 9281.176
457.076, 9276.888
457.558, 9263.586
458.040, 9241.548
458.522, 9218.731
459.004, 9206.193
459.487, 9196.136
459.969, 9173.857
460.451, 9130.791
460.933, 9084.801
461.415, 9053.770
461.897, 9032.141
462.379, 9006.423
462.861, 8962.521
463.343, 8918.727
463.826, 8890.245
464.308, 8881.939
464.790, 8864.382
465.272, 8810.962
465.754, 8752.080
466.236, 8716.950
466.718, 8742.414
467.200, 8754.521
467.682, 8739.245
468.165, 8700.587
468.647, 8656.897
469.129, 8589.509
469.611, 8540.119
470.093, 8535.123
470.575, 8598.183
471.057, 8623.639
471.539, 8600.938
472.022, 8552.727
472.504, 8510.125
472.986, 8473.014
473.468, 8441.852
473.950, 8416.799
474.432, 8398.067
474.914, 8391.441
475.396, 8397.786
475.878, 8399.603
476.361, 8375.409
476.843, 8335.630
477.325, 8311.940
477.807, 8315.289
478.289, 8319.736
478.771, 8291.794
479.253, 8242.583
479.735, 8199.513
480.217, 8184.844
480.700, 8175.377
481.182, 8148.271
481.664, 8102.210
482.146, 8067.040
482.628, 8070.325
483.110, 8083.248
483.592, 8081.569
484.074, 8030.787
484.556, 7998.153
485.039, 8017.238
485.521, 8065.763
486.003, 8076.354
486.485, 8008.465
486.967, 7944.478
487.449, 7915.682
487.931, 7932.127
488.414, 7926.277
488.896, 7890.970
489.378, 7843.510
489.860, 7797.497
490.342, 7751.238
490.824, 7721.498
491.306, 7716.844
491.788, 7726.796
492.270, 7723.776
492.753, 7707.816
493.235, 7682.817
493.717, 7642.699
494.199, 7595.704
494.681, 7569.270
495.163, 7567.290
495.645, 7568.454
496.127, 7551.451
496.609, 7522.076
497.092, 7492.442
497.574, 7469.206
498.056, 7444.539
498.538, 7411.404
499.020, 7371.536
499.502, 7333.304
499.984, 7297.091
500.466, 7265.634
500.948, 7241.942
501.431, 7228.646
501.913, 7215.301
502.395, 7203.500
502.877, 7189.438
503.359, 7168.366
503.841, 7136.884
504.323, 7102.497
504.805, 7061.440
505.288, 7016.763
505.770, 6991.782
506.252, 6996.028
506.734, 6999.380
507.216, 6977.688
507.698, 6926.795
508.180, 6905.898
508.662, 6924.946
509.145, 6954.380
509.627, 6950.849
510.109, 6918.164
510.591, 6885.975
511.073, 6867.818
511.555, 6854.088
512.037, 6824.372
512.519, 6781.042
513.001, 6743.053
513.484, 6725.253
513.966, 6718.118
514.448, 6711.513
514.930, 6703.589
515.412, 6696.823
515.894, 6697.291
516.376, 6698.305
516.858, 6690.598
517.341, 6661.066
517.823, 6632.975
518.305, 6611.993
518.787, 6598.108
519.269, 6589.532
519.751, 6589.295
520.233, 6591.166
520.715, 6592.667
521.197, 6594.727
521.680, 6593.579
522.162, 6588.096
522.644, 6580.822
523.126, 6576.507
523.608, 6576.149
524.090, 6571.301
524.572, 6558.433
525.054, 6540.316
525.536, 6519.998
526.019, 6497.746
526.501, 6486.427
526.983, 6508.600
527.465, 6545.385
527.947, 6557.238
528.429, 6537.643
528.911, 6507.965
529.393, 6479.979
529.875, 6455.274
530.358, 6436.373
530.840, 6418.626
531.322, 6412.425
531.804, 6437.738
532.286, 6484.117
532.768, 6503.806
533.250, 6452.051
533.732, 6398.470
534.214, 6374.148
534.697, 6386.707
535.179, 6413.947
535.661, 6476.214
536.143, 6537.192
536.625, 6552.553
537.107, 6502.092
537.589, 6468.265
538.071, 6468.052
538.554, 6490.821
539.036, 6504.959
539.518, 6509.917
540.000, 6512.556
540.482, 6513.444
540.964, 6514.654
541.446, 6525.968
541.928, 6548.230
542.411, 6569.500
542.893, 6580.053
543.375, 6581.734
543.857, 6576.895
544.339, 6563.302
544.821, 6548.148
545.303, 6535.771
545.785, 6525.403
546.268, 6515.140
546.750, 6508.553
547.232, 6498.169
547.714, 6478.875
548.196, 6449.670
548.678, 6423.518
549.160, 6402.048
549.642, 6383.928
550.124, 6368.105
550.606, 6353.007
551.089, 6345.420
551.571, 6352.020
552.053, 6360.569
552.535, 6343.646
553.017, 6297.330
553.499, 6257.654
553.981, 6240.816
554.463, 6238.734
554.945, 6224.001
555.428, 6196.685
555.910, 6167.490
556.392, 6139.503
556.874, 6116.401
557.356, 6107.633
557.838, 6117.596
558.320, 6126.592
558.802, 6117.861
559.284, 6099.387
559.767, 6082.313
560.249, 6070.715
560.731, 6061.161
561.213, 6050.525
561.695, 6040.298
562.177, 6037.082
562.659, 6044.185
563.141, 6056.445
563.624, 6075.255
564.106, 6105.130
564.588, 6115.413
565.070, 6097.499
565.552, 6072.406
566.034, 6060.253
566.516, 6061.870
566.998, 6069.998
567.481, 6086.673
567.963, 6104.145
568.445, 6101.882
568.927, 6083.829
569.409, 6076.408
569.891, 6103.680
570.373, 6144.363
570.855, 6165.217
571.338, 6167.755
571.820, 6173.026
572.302, 6201.093
572.784, 6234.190
573.266, 6257.730
573.748, 6269.032
574.230, 6269.760
574.712, 6246.465
575.194, 6217.087
575.677, 6206.569
576.159, 6239.851
576.641, 6263.082
577.123, 6269.800
577.605, 6260.802
578.087, 6236.682
578.569, 6189.211
579.051, 6147.682
579.533, 6130.467
580.016, 6136.624
580.498, 6134.842
580.980, 6125.039
581.462, 6107.856
581.944, 6083.179
582.426, 6051.447
582.908, 6012.480
583.390, 5961.953
583.872, 5914.679
584.355, 5889.911
584.837, 5879.043
585.319, 5863.786
585.801, 5843.058
586.283, 5809.736
586.765, 5749.964
587.247, 5666.720
587.729, 5601.561
588.211, 5581.358
588.694, 5566.014
589.176, 5534.323
589.658, 5477.054
590.140, 5431.268
590.622, 5402.232
591.104, 5378.292
591.586, 5344.164
592.068, 5297.836
592.551, 5259.229
593.033, 5233.901
593.515, 5216.346
593.997, 5196.153
594.479, 5173.537
594.961, 5149.501
595.443, 5124.221
595.925, 5097.839
596.407, 5064.934
596.890, 5026.621
597.372, 5003.092
597.854, 4971.384
598.336, 4956.846
598.818, 4964.557
599.300, 4966.868
599.782, 4964.068
600.265, 4940.849
600.747, 4943.997
601.229, 4936.578
601.711, 4928.726
602.193, 4935.585
602.675, 4915.336
603.157, 4920.517
603.639, 4938.500
604.121, 4938.690
604.604, 4931.698
605.086, 4920.803
605.568, 4906.654
606.050, 4890.840
606.532, 4873.294
607.014, 4857.553
607.496, 4844.497
607.978, 4835.775
608.460, 4837.073
608.943, 4853.919
609.425, 4865.028
609.907, 4850.419
610.389, 4823.185
610.871, 4801.810
611.353, 4799.886
611.835, 4795.401
612.317, 4779.772
612.799, 4756.370
613.282, 4739.949
613.764, 4735.379
614.246, 4730.719
614.728, 4720.046
615.210, 4703.438
615.692, 4698.799
616.174, 4709.538
616.656, 4718.714
617.138, 4707.548
617.621, 4681.303
618.103, 4664.736
618.585, 4662.206
619.067, 4664.991
619.549, 4666.815
620.031, 4666.837
620.513, 4663.612
620.995, 4658.474
621.477, 4647.711
621.960, 4626.191
622.442, 4597.017
622.924, 4569.061
623.406, 4535.873
623.888, 4512.776
624.370, 4510.432
624.852, 4530.004
625.334, 4535.821
625.817, 4520.924
626.299, 4503.520
626.781, 4499.481
627.263, 4511.080
627.745, 4499.184
628.227, 4457.095
628.709, 4409.765
629.191, 4390.826
629.674, 4393.121
630.156, 4391.455
630.638, 4377.764
631.120, 4359.998
631.602, 4343.980
632.084, 4329.957
632.566, 4318.468
633.048, 4313.882
633.531, 4308.091
634.013, 4294.288
634.495, 4273.144
634.977, 4260.594
635.459, 4264.109
635.941, 4270.810
636.423, 4276.005
636.905, 4280.028
637.387, 4280.225
637.870, 4275.649
638.352, 4269.100
638.834, 4262.925
639.316, 4257.141
639.798, 4252.828
640.280, 4251.798
640.762, 4247.636
641.244, 4226.385
641.726, 4195.188
642.209, 4171.586
642.691, 4169.880
643.173, 4171.993
643.655, 4166.476
644.137, 4155.088
644.619, 4143.906
645.101, 4126.422
645.583, 4117.437
646.065, 4129.729
646.548, 4166.415
647.030, 4179.798
647.512, 4156.776
647.994, 4130.311
648.476, 4124.498
648.958, 4141.517
649.440, 4151.091
649.922, 4151.273
650.404, 4144.604
650.887, 4129.961
651.369, 4110.420
651.851, 4096.037
