##NAMES=Cerianite-(Ce)
##RRUFFID=R050379
##IDEAL CHEMISTRY=CeO_2_
##LOCALITY=Sierra de Bermejillo, Durango, Mexico
##OWNER=RRUFF
##SOURCE=University of Arizona Mineral Museum
##DESCRIPTION=Black crystals or grains, exhibiting a greasy luster
##STATUS=The identification of this mineral has been confirmed by single-crystal X-ray diffraction.
##URL=rruff.info/R050379
92.52344, 239.0959
93.00555, 238.5745
93.48767, 238.9257
93.96979, 245.0324
94.45190, 250.2982
94.93402, 253.5380
95.41614, 252.2950
95.89825, 248.4346
96.38037, 244.3517
96.86249, 239.9880
97.34460, 235.2245
97.82672, 229.9341
98.30884, 224.9518
98.79095, 220.3792
99.27307, 215.9129
99.75519, 211.4919
100.2373, 207.9008
100.7194, 205.0476
101.2015, 201.7009
101.6837, 197.1651
102.1658, 192.5999
102.6479, 188.7439
103.1300, 185.5662
103.6121, 183.0461
104.0942, 181.3956
104.5764, 180.3325
105.0585, 179.6213
105.5406, 179.3454
106.0227, 179.3508
106.5048, 179.1830
106.9869, 178.7471
107.4691, 178.1378
107.9512, 177.3770
108.4333, 176.4952
108.9154, 175.5682
109.3975, 174.5873
109.8796, 173.4876
110.3618, 172.7171
110.8439, 172.5547
111.3260, 172.4697
111.8081, 172.2447
112.2902, 171.8497
112.7723, 171.3824
113.2544, 170.9850
113.7366, 170.7451
114.2187, 170.4079
114.7008, 169.9393
115.1829, 169.3978
115.6650, 168.8119
116.1471, 168.1882
116.6293, 167.5687
117.1114, 167.0732
117.5935, 166.8128
118.0756, 166.4529
118.5577, 165.8138
119.0398, 165.0057
119.5220, 164.2851
120.0041, 163.7751
120.4862, 163.4312
120.9683, 163.1267
121.4504, 162.8961
121.9325, 162.6443
122.4147, 162.2923
122.8968, 161.8340
123.3789, 161.3364
123.8610, 160.8522
124.3431, 160.3341
124.8252, 159.7282
125.3074, 159.0134
125.7895, 158.2058
126.2716, 157.2809
126.7537, 156.0124
127.2358, 155.0727
127.7179, 154.8783
128.2001, 155.0300
128.6822, 154.9898
129.1643, 154.3972
129.6464, 153.3025
130.1285, 152.3789
130.6107, 151.7627
131.0928, 151.1981
131.5749, 150.6664
132.0570, 150.1466
132.5391, 149.6016
133.0212, 148.9926
133.5034, 148.2924
133.9855, 147.7257
134.4676, 147.3164
134.9497, 146.9902
135.4318, 146.6952
135.9139, 146.4312
136.3960, 146.2505
136.8782, 146.2367
137.3603, 146.4345
137.8424, 146.5759
138.3245, 146.6848
138.8066, 146.7146
139.2887, 146.5705
139.7709, 146.2008
140.2530, 145.7771
140.7351, 145.5020
141.2172, 145.3576
141.6993, 145.2908
142.1814, 145.3875
142.6636, 145.5721
143.1457, 145.5242
143.6278, 144.9536
144.1099, 144.3881
144.5920, 144.2765
145.0741, 144.6214
145.5563, 145.1162
146.0384, 145.5683
146.5205, 145.9965
147.0026, 146.2168
147.4847, 145.8374
147.9668, 145.4705
148.4490, 145.5736
148.9311, 146.2078
149.4132, 146.9350
149.8953, 147.0224
150.3774, 145.9707
150.8595, 145.2950
151.3417, 145.1804
151.8238, 145.3713
152.3059, 145.7210
152.7880, 146.1621
153.2701, 146.6532
153.7522, 147.0847
154.2344, 147.3752
154.7165, 147.6892
155.1986, 148.1398
155.6807, 148.5896
156.1628, 148.8434
156.6449, 148.7906
157.1271, 148.5148
157.6092, 148.3534
158.0913, 148.2632
158.5734, 148.3024
159.0555, 148.6084
159.5376, 149.0774
160.0198, 149.4164
160.5019, 149.4112
160.9840, 149.1824
161.4661, 149.1906
161.9482, 149.6184
162.4303, 150.0806
162.9125, 150.3305
163.3946, 150.3740
163.8767, 150.3200
164.3588, 150.1126
164.8409, 149.8852
165.3230, 149.8852
165.8052, 150.3290
166.2873, 150.8570
166.7694, 150.9109
167.2515, 150.3201
167.7336, 149.8428
168.2157, 150.0791
168.6979, 150.5758
169.1800, 150.7889
169.6621, 150.4202
170.1442, 149.6694
170.6263, 149.0742
171.1084, 148.6150
171.5906, 148.3815
172.0727, 148.6065
172.5548, 148.9981
173.0369, 149.1221
173.5190, 148.6585
174.0011, 147.7029
174.4833, 147.0671
174.9654, 147.0096
175.4475, 147.0510
175.9296, 147.1589
176.4117, 147.2914
176.8938, 147.4016
177.3760, 147.4547
177.8581, 147.4498
178.3402, 147.4155
178.8223, 147.2037
179.3044, 147.1070
179.7865, 147.3453
180.2687, 147.8190
180.7508, 148.2076
181.2329, 148.1938
181.7150, 147.7183
182.1971, 147.7024
182.6792, 148.5747
183.1614, 149.4807
183.6435, 149.8439
184.1256, 149.6776
184.6077, 149.4880
185.0898, 149.7316
185.5719, 150.4511
186.0541, 151.1299
186.5362, 151.8066
187.0183, 152.4090
187.5004, 152.8886
187.9825, 153.2443
188.4646, 153.4231
188.9468, 153.1409
189.4289, 152.5639
189.9110, 152.4273
190.3931, 153.2567
190.8752, 154.5161
191.3573, 155.4039
191.8395, 155.8314
192.3216, 155.9666
192.8037, 155.6612
193.2858, 155.1443
193.7679, 154.9824
194.2500, 155.6760
194.7322, 156.9467
195.2143, 157.9102
195.6964, 158.4793
196.1785, 158.8121
196.6606, 158.7883
197.1427, 158.6185
197.6249, 158.7795
198.1070, 159.7457
198.5891, 161.4126
199.0712, 162.7239
199.5533, 163.5521
200.0354, 164.1091
200.5176, 164.2627
200.9997, 164.2010
201.4818, 164.3174
201.9639, 164.9991
202.4460, 166.2691
202.9281, 167.1833
203.4103, 167.2969
203.8924, 167.4319
204.3745, 167.9918
204.8566, 168.8086
205.3387, 169.4025
205.8208, 169.3138
206.3030, 168.4445
206.7851, 167.8037
207.2672, 167.5283
207.7493, 167.3247
208.2314, 167.0682
208.7135, 166.7777
209.1957, 166.5729
209.6778, 166.5950
210.1599, 166.9125
210.6420, 166.8747
211.1241, 166.2532
211.6062, 165.5507
212.0884, 164.9050
212.5705, 164.3828
213.0526, 164.1360
213.5347, 164.3846
214.0168, 165.2154
214.4989, 165.5215
214.9811, 164.7483
215.4632, 163.9273
215.9453, 163.7766
216.4274, 164.3159
216.9095, 165.0634
217.3916, 165.6643
217.8737, 166.0996
218.3559, 166.3933
218.8380, 166.3370
219.3201, 166.2779
219.8022, 166.5573
220.2843, 167.2008
220.7664, 167.9113
221.2486, 168.4437
221.7307, 168.8454
222.2128, 169.3010
222.6949, 169.9536
223.1770, 170.6122
223.6591, 170.9973
224.1413, 171.0579
224.6234, 171.1512
225.1055, 171.5996
225.5876, 172.2588
226.0697, 172.8766
226.5518, 173.2920
227.0340, 173.6767
227.5161, 174.3262
227.9982, 175.3197
228.4803, 176.3007
228.9624, 177.0592
229.4445, 177.6745
229.9267, 178.2349
230.4088, 178.7368
230.8909, 179.2234
231.3730, 179.8018
231.8551, 180.5490
232.3372, 181.1861
232.8194, 181.4352
233.3015, 181.5743
233.7836, 181.9772
234.2657, 182.8820
234.7478, 184.0044
235.2299, 184.6478
235.7121, 184.5130
236.1942, 184.5024
236.6763, 184.8876
237.1584, 185.5087
237.6405, 186.2773
238.1227, 187.1996
238.6048, 188.0968
239.0869, 188.4466
239.5690, 187.7637
240.0511, 187.3864
240.5332, 187.8963
241.0154, 188.6447
241.4975, 188.9435
241.9796, 188.4946
242.4617, 187.5991
242.9438, 187.0277
243.4259, 187.0924
243.9081, 186.9951
244.3902, 186.5220
244.8723, 185.9246
245.3544, 185.4831
245.8365, 185.2987
246.3186, 185.2040
246.8008, 184.8007
247.2829, 183.7922
247.7650, 182.8858
248.2471, 182.1412
248.7292, 181.4894
249.2113, 180.8850
249.6935, 180.3077
250.1756, 179.7362
250.6577, 179.1304
251.1398, 178.5190
251.6219, 177.8209
252.1040, 176.7689
252.5862, 175.7786
253.0683, 175.3847
253.5504, 175.6999
254.0325, 176.1758
254.5146, 175.8894
254.9967, 174.1864
255.4789, 172.8976
255.9610, 172.2551
256.4431, 171.8926
256.9252, 171.5408
257.4073, 171.1251
257.8894, 170.6479
258.3716, 170.0974
258.8537, 169.4065
259.3358, 168.8402
259.8179, 168.4594
260.3000, 168.1646
260.7821, 167.8386
261.2643, 167.4677
261.7464, 167.1836
262.2285, 167.1492
262.7106, 167.4346
263.1927, 167.6684
263.6748, 167.8979
264.1570, 168.0383
264.6391, 167.9718
265.1212, 167.6971
265.6033, 167.3779
266.0854, 167.1555
266.5675, 167.0398
267.0497, 166.9672
267.5318, 166.9827
268.0139, 167.0088
268.4960, 166.9333
268.9781, 166.7625
269.4602, 166.7048
269.9424, 167.0059
270.4245, 167.5851
270.9066, 167.8605
271.3887, 167.4319
271.8708, 166.9902
272.3529, 167.0945
272.8351, 167.7190
273.3172, 168.4723
273.7993, 169.1798
274.2814, 169.8290
274.7635, 170.4072
275.2456, 170.7959
275.7278, 171.2428
276.2099, 171.9803
276.6920, 172.9730
277.1741, 173.9299
277.6562, 174.7140
278.1383, 175.3673
278.6205, 175.9702
279.1026, 176.4524
279.5847, 177.0466
280.0668, 177.8510
280.5489, 178.8803
281.0310, 180.2704
281.5132, 182.3350
281.9953, 184.5078
282.4774, 185.9959
282.9595, 186.7265
283.4416, 187.2303
283.9237, 187.6195
284.4059, 187.9848
284.8880, 188.7568
285.3701, 190.1839
285.8522, 191.8655
286.3343, 193.3642
286.8164, 194.6897
287.2986, 196.0374
287.7807, 197.5520
288.2628, 199.1787
288.7449, 200.7081
289.2270, 202.0641
289.7091, 203.4156
290.1913, 204.9473
290.6734, 206.6065
291.1555, 208.2476
291.6376, 209.8542
292.1197, 211.3793
292.6018, 212.6977
293.0840, 213.7142
293.5661, 214.7158
294.0482, 215.9488
294.5303, 217.2945
295.0124, 218.5548
295.4945, 219.6468
295.9767, 220.6011
296.4588, 221.6018
296.9409, 222.8358
297.4230, 223.4662
297.9051, 222.5624
298.3872, 220.9539
298.8694, 219.5619
299.3515, 218.6861
299.8336, 218.0559
300.3157, 217.4762
300.7978, 217.0415
301.2799, 216.0479
301.7621, 213.8432
302.2442, 211.1154
302.7263, 208.3744
303.2084, 205.6885
303.6905, 203.0971
304.1726, 200.6167
304.6548, 198.2527
305.1369, 196.0068
305.6190, 193.9426
306.1011, 191.9419
306.5832, 189.8541
307.0653, 187.6819
307.5475, 185.6918
308.0296, 184.2551
308.5117, 183.3102
308.9938, 182.0111
309.4759, 179.8144
309.9580, 177.7840
310.4402, 176.7496
310.9223, 176.5125
311.4044, 176.2886
311.8865, 175.5133
312.3686, 174.3301
312.8507, 173.3547
313.3329, 172.6439
313.8150, 172.0704
314.2971, 171.6424
314.7792, 171.2735
315.2613, 170.7845
315.7434, 169.9984
316.2256, 169.1013
316.7077, 168.5371
317.1898, 168.4310
317.6719, 168.2955
318.1540, 167.8442
318.6361, 167.2756
319.1183, 166.7956
319.6004, 166.4651
320.0825, 166.2351
320.5646, 166.0300
321.0467, 165.8377
321.5288, 165.7505
322.0110, 165.9668
322.4931, 166.1970
322.9752, 166.1643
323.4573, 165.8198
323.9394, 165.4612
324.4215, 165.4064
324.9037, 165.6479
325.3858, 165.8054
325.8679, 165.7957
326.3500, 165.6919
326.8321, 165.4466
327.3142, 165.1111
327.7964, 164.9666
328.2785, 165.2993
328.7606, 166.0115
329.2427, 166.6533
329.7248, 167.2583
330.2069, 167.6817
330.6891, 167.7780
331.1712, 167.6535
331.6533, 167.5144
332.1354, 167.3499
332.6175, 167.2812
333.0996, 167.6526
333.5818, 168.6414
334.0639, 169.5009
334.5460, 169.6152
335.0281, 169.4701
335.5102, 169.6093
335.9923, 170.2158
336.4745, 171.0448
336.9566, 171.8063
337.4387, 172.4847
337.9208, 173.3254
338.4029, 174.7307
338.8850, 176.0879
339.3671, 176.7229
339.8492, 176.5449
340.3314, 176.2320
340.8135, 176.2292
341.2956, 176.5136
341.7777, 176.9745
342.2598, 177.7110
342.7419, 178.4502
343.2241, 178.8935
343.7062, 179.1071
344.1883, 179.4216
344.6704, 179.9370
345.1525, 180.6709
345.6346, 181.7592
346.1168, 183.3407
346.5989, 184.8433
347.0810, 185.7040
347.5631, 186.2028
348.0452, 186.8170
348.5273, 187.7104
349.0095, 188.7305
349.4916, 189.7988
349.9737, 190.9179
350.4558, 191.7859
350.9379, 192.1024
351.4200, 192.1631
351.9022, 192.4223
352.3843, 192.8837
352.8664, 193.5889
353.3485, 194.6181
353.8306, 195.9267
354.3127, 197.3688
354.7949, 198.9857
355.2770, 200.5973
355.7591, 201.9668
356.2412, 203.1003
356.7233, 204.2219
357.2054, 205.4268
357.6876, 206.6643
358.1697, 207.8253
358.6518, 208.8790
359.1339, 209.9742
359.6160, 211.1765
360.0981, 212.5218
360.5803, 214.1497
361.0624, 216.4695
361.5445, 218.7806
362.0266, 220.3625
362.5087, 221.3042
362.9908, 222.3292
363.4730, 223.8217
363.9551, 225.6975
364.4372, 227.6697
364.9193, 229.7242
365.4014, 231.8699
365.8835, 234.1074
366.3657, 236.4272
366.8478, 238.8616
367.3299, 241.4359
367.8120, 244.0235
368.2941, 246.4267
368.7762, 248.6080
369.2584, 250.7780
369.7405, 252.7704
370.2226, 254.8665
370.7047, 257.3652
371.1868, 260.3084
371.6689, 263.4891
372.1511, 266.8462
372.6332, 270.3895
373.1153, 273.3114
373.5974, 275.2596
374.0795, 277.0291
374.5616, 278.7675
375.0438, 280.6281
375.5259, 282.9797
376.0080, 286.0428
376.4901, 289.6527
376.9722, 293.2268
377.4543, 297.0113
377.9365, 300.4357
378.4186, 303.2592
378.9007, 305.7767
379.3828, 308.2165
379.8649, 310.6635
380.3470, 313.2104
380.8292, 316.0130
381.3113, 319.2618
381.7934, 322.2144
382.2755, 324.6546
382.7576, 327.0320
383.2397, 329.6171
383.7219, 332.3832
384.2040, 335.1060
384.6861, 337.5935
385.1682, 339.8674
385.6503, 342.1768
386.1324, 344.5484
386.6146, 346.9250
387.0967, 349.4261
387.5788, 351.8661
388.0609, 354.0468
388.5430, 355.8744
389.0251, 357.3788
389.5073, 358.5867
389.9894, 359.2950
390.4715, 360.1277
390.9536, 361.3247
391.4357, 362.4767
391.9178, 363.3502
392.4000, 363.9105
392.8821, 364.2388
393.3642, 364.3785
393.8463, 364.3232
394.3284, 364.2619
394.8105, 364.2749
395.2927, 364.1759
395.7748, 363.9800
396.2569, 363.6233
396.7390, 362.9555
397.2211, 361.8307
397.7032, 360.5071
398.1854, 359.7419
398.6675, 359.9673
399.1496, 359.4235
399.6317, 356.8935
400.1138, 353.8393
400.5959, 351.3626
401.0781, 349.6514
401.5602, 348.0907
402.0423, 346.1412
402.5244, 343.8383
403.0065, 341.5029
403.4886, 339.1190
403.9708, 336.8004
404.4529, 334.7004
404.9350, 332.7340
405.4171, 330.6322
405.8992, 328.1679
406.3813, 325.5705
406.8635, 323.1535
407.3456, 320.9132
407.8277, 318.8568
408.3098, 316.9857
408.7919, 315.2968
409.2740, 313.8070
409.7562, 312.6042
410.2383, 311.3585
410.7204, 309.7682
411.2025, 307.9624
411.6846, 306.3018
412.1667, 304.8757
412.6489, 303.5973
413.1310, 302.3266
413.6131, 301.0508
414.0952, 300.0573
414.5773, 299.6140
415.0594, 299.3268
415.5416, 298.7294
416.0237, 297.8612
416.5058, 297.2679
416.9879, 297.3833
417.4700, 298.0473
417.9521, 298.3747
418.4343, 298.0888
418.9164, 297.8576
419.3985, 297.7721
419.8806, 297.8771
420.3627, 298.3234
420.8448, 299.1544
421.3270, 300.0747
421.8091, 300.6059
422.2912, 300.4395
422.7733, 300.7946
423.2554, 302.0750
423.7375, 303.4774
424.2197, 304.3808
424.7018, 304.9406
425.1839, 305.7738
425.6660, 307.3385
426.1481, 309.5375
426.6302, 311.7710
427.1124, 313.8927
427.5945, 316.2301
428.0766, 319.0563
428.5587, 321.9881
429.0408, 324.6534
429.5229, 326.9390
430.0051, 329.0482
430.4872, 331.1629
430.9693, 333.1349
431.4514, 335.6911
431.9335, 339.5448
432.4156, 343.4113
432.8978, 346.4978
433.3799, 349.1684
433.8620, 352.4643
434.3441, 357.1699
434.8262, 362.8034
435.3083, 367.9108
435.7905, 372.2248
436.2726, 376.7063
436.7547, 381.6412
437.2368, 386.9638
437.7189, 392.6664
438.2010, 398.7570
438.6832, 405.1110
439.1653, 411.8248
439.6474, 418.7695
440.1295, 425.2237
440.6116, 430.7456
441.0938, 436.3723
441.5759, 442.8358
442.0580, 450.0469
442.5401, 457.9933
443.0222, 467.3378
443.5043, 476.9214
443.9865, 485.7210
444.4686, 493.7319
444.9507, 501.1964
445.4328, 507.9802
445.9149, 514.5345
446.3970, 521.8983
446.8792, 530.2364
447.3613, 538.6645
447.8434, 547.1144
448.3255, 555.4505
448.8076, 563.4496
449.2897, 571.1249
449.7719, 578.7347
450.2540, 586.5640
450.7361, 594.6656
451.2182, 602.3427
451.7003, 609.5403
452.1824, 616.4490
452.6646, 623.0497
453.1467, 629.4648
453.6288, 635.9744
454.1109, 642.7200
454.5930, 649.2158
455.0751, 654.5798
455.5573, 658.7770
456.0394, 661.7601
456.5215, 663.2455
457.0036, 663.9714
457.4857, 664.4934
457.9678, 664.6926
458.4500, 664.0449
458.9321, 662.1385
459.4142, 659.0433
459.8963, 655.1812
460.3784, 650.6652
460.8605, 645.1117
461.3427, 638.2988
461.8248, 630.5742
462.3069, 622.0824
462.7890, 612.8642
463.2711, 603.3528
463.7532, 594.2875
464.2354, 585.5300
464.7175, 575.7318
465.1996, 564.2682
465.6817, 552.4811
466.1638, 541.2321
466.6459, 530.4006
467.1281, 519.6783
467.6102, 508.9282
468.0923, 498.3179
468.5744, 488.0862
469.0565, 478.1588
469.5386, 468.6595
470.0208, 459.7480
470.5029, 451.1317
470.9850, 442.2453
471.4671, 432.8635
471.9492, 424.2103
472.4313, 417.0084
472.9135, 410.4028
473.3956, 403.3979
473.8777, 395.9614
474.3598, 388.7332
474.8419, 382.2965
475.3240, 376.5341
475.8062, 370.4139
476.2883, 363.1724
476.7704, 356.5343
477.2525, 351.1788
477.7346, 346.4812
478.2167, 341.8361
478.6989, 337.0157
479.1810, 332.0180
479.6631, 326.6620
480.1452, 320.7621
480.6273, 315.6343
481.1094, 311.9691
481.5916, 308.3976
482.0737, 304.4450
482.5558, 300.2859
483.0379, 296.2818
483.5200, 292.5991
484.0021, 289.0854
484.4843, 285.4642
484.9664, 281.7171
485.4485, 277.8613
485.9306, 273.5614
486.4127, 269.4546
486.8948, 266.0158
487.3770, 263.1804
487.8591, 260.5507
488.3412, 257.9922
488.8233, 255.4695
489.3054, 252.9578
489.7875, 250.4879
490.2697, 247.8523
490.7518, 244.8198
491.2339, 241.6447
491.7160, 238.7746
492.1981, 236.2547
492.6802, 233.9512
493.1624, 232.0158
493.6445, 230.2076
494.1266, 228.1227
494.6087, 225.6908
495.0908, 223.2044
495.5729, 220.8337
496.0551, 218.5966
496.5372, 216.9145
497.0193, 216.7397
497.5014, 215.9378
497.9835, 213.2470
498.4656, 209.7412
498.9478, 206.9359
499.4299, 205.3234
499.9120, 204.3100
500.3941, 203.0284
500.8762, 201.2905
501.3583, 200.0034
501.8405, 200.1227
502.3226, 199.7218
502.8047, 197.7415
503.2868, 194.7914
503.7689, 192.0160
504.2510, 189.9442
504.7331, 188.3707
505.2152, 186.9537
505.6974, 185.7001
506.1795, 184.5424
506.6616, 183.5256
507.1437, 182.5566
507.6258, 181.6372
508.1079, 180.7261
508.5901, 179.6582
509.0722, 178.1442
509.5543, 176.5313
510.0364, 175.3470
510.5185, 174.5914
511.0006, 173.9492
511.4828, 173.3325
511.9649, 172.6923
512.4470, 171.8949
512.9291, 170.8552
513.4113, 169.9622
513.8934, 169.4599
514.3755, 169.0701
514.8576, 168.5078
515.3397, 167.7524
515.8218, 166.9245
516.3040, 166.0803
516.7861, 165.2517
517.2682, 164.6815
517.7503, 164.5827
518.2324, 164.4857
518.7145, 164.4716
519.1967, 164.3654
519.6788, 163.9145
520.1609, 163.1328
520.6430, 162.3566
521.1251, 161.9501
521.6072, 161.8983
522.0894, 161.7364
522.5715, 161.3756
523.0536, 161.0448
523.5357, 160.8694
524.0178, 160.7411
524.4999, 160.5020
524.9821, 160.0974
525.4642, 159.7381
525.9463, 159.6153
526.4284, 159.7021
526.9105, 159.9149
527.3926, 160.3008
527.8748, 160.6340
528.3569, 160.6573
528.8390, 160.4772
529.3211, 160.4669
529.8032, 160.8535
530.2853, 161.2005
530.7675, 161.0464
531.2496, 160.7219
531.7317, 161.0021
532.2138, 162.1225
532.6959, 163.4037
533.1780, 163.9893
533.6602, 163.7456
534.1423, 163.6235
534.6244, 163.6299
535.1065, 163.7263
535.5886, 163.8465
536.0707, 164.0612
536.5529, 164.5450
537.0350, 165.3543
537.5171, 166.2421
537.9992, 166.7491
538.4813, 166.7579
538.9634, 166.9951
539.4456, 167.6641
539.9277, 168.3808
540.4098, 168.9819
540.8919, 169.4954
541.3740, 169.9942
541.8561, 170.5202
542.3383, 171.0128
542.8204, 171.3627
543.3025, 171.5872
543.7846, 171.8603
544.2667, 172.2335
544.7488, 172.6479
545.2310, 173.0644
545.7131, 173.4787
546.1952, 173.8315
546.6773, 174.1760
547.1594, 174.3965
547.6415, 174.3139
548.1237, 174.0492
548.6058, 173.9352
549.0879, 174.1133
549.5700, 174.3683
550.0521, 174.3391
550.5342, 173.9328
551.0164, 173.5174
551.4985, 173.1380
551.9806, 172.7099
552.4627, 172.2315
552.9448, 171.6673
553.4269, 170.8932
553.9091, 169.8288
554.3912, 168.7489
554.8733, 168.2904
555.3554, 168.6246
555.8375, 168.3553
556.3196, 166.9312
556.8018, 165.2744
557.2839, 163.9311
557.7660, 162.8335
558.2481, 161.8055
558.7302, 160.8547
559.2123, 159.8686
559.6945, 158.6563
560.1766, 157.2896
560.6587, 156.1395
561.1408, 155.3667
561.6229, 154.6815
562.1050, 153.6986
562.5872, 152.3601
563.0693, 151.1391
563.5514, 150.0794
564.0335, 149.1042
564.5156, 148.2219
564.9977, 147.3923
565.4799, 146.5498
565.9620, 145.6704
566.4441, 144.7606
566.9262, 143.8091
567.4083, 142.7681
567.8904, 141.8790
568.3726, 141.3089
568.8547, 140.7226
569.3368, 139.9872
569.8189, 139.1629
570.3010, 138.3490
570.7831, 137.5658
571.2653, 136.8448
571.7474, 136.2370
572.2295, 135.7318
572.7116, 135.2725
573.1937, 134.9545
573.6758, 134.4215
574.1580, 133.1274
574.6401, 131.3272
575.1222, 130.0255
575.6043, 129.6503
576.0864, 129.4128
576.5685, 128.9573
577.0507, 128.3806
577.5328, 127.8234
578.0149, 127.3252
578.4970, 126.8967
578.9791, 126.5598
579.4612, 126.3199
579.9434, 126.0422
580.4255, 125.7796
580.9076, 125.4135
581.3897, 124.8151
581.8718, 124.1538
582.3539, 123.6287
582.8361, 123.2748
583.3182, 122.9582
583.8003, 122.5479
584.2824, 122.0533
584.7645, 121.5189
585.2466, 120.8728
585.7288, 120.3939
586.2108, 120.4200
586.6929, 120.6005
587.1750, 120.3752
587.6572, 119.5864
588.1393, 118.9125
588.6214, 118.8200
589.1035, 118.9383
589.5856, 118.7142
590.0677, 118.1388
