##NAMES=Cerianite-(Ce)
##RRUFFID=R050379
##IDEAL CHEMISTRY=CeO_2_
##LOCALITY=Sierra de Bermejillo, Durango, Mexico
##OWNER=RRUFF
##SOURCE=University of Arizona Mineral Museum
##DESCRIPTION=Black crystals or grains, exhibiting a greasy luster
##STATUS=The identification of this mineral has been confirmed by single-crystal X-ray diffraction.
##URL=rruff.info/R050379
91.87140, 0.0000000E+00
92.35352, 4.893983
92.83563, 5.058637
93.31775, 5.128948
93.79987, 4.990390
94.28198, 4.742384
94.76410, 4.688352
95.24622, 4.936686
95.72833, 5.359206
96.21045, 5.676481
96.69257, 5.883492
97.17468, 6.090555
97.65680, 6.404806
98.13892, 6.825251
98.62103, 7.242416
99.10315, 7.609410
99.58527, 7.942155
100.0674, 8.311214
100.5495, 8.690345
101.0316, 9.157015
101.5137, 9.834832
101.9958, 10.79446
102.4780, 11.72893
102.9601, 12.49911
103.4422, 13.05223
103.9243, 13.78424
104.4064, 14.71341
104.8885, 15.81283
105.3707, 17.07656
105.8528, 18.59124
106.3349, 20.13359
106.8170, 21.60469
107.2991, 22.93350
107.7813, 24.33003
108.2634, 25.88757
108.7455, 27.53345
109.2276, 28.96820
109.7097, 29.93039
110.1918, 30.88383
110.6740, 32.02232
111.1561, 33.60326
111.6382, 35.08579
112.1203, 36.33959
112.6024, 37.42480
113.0845, 38.63686
113.5667, 39.94110
114.0488, 41.42632
114.5309, 43.16929
115.0130, 45.46098
115.4951, 47.73838
115.9772, 49.80809
116.4594, 51.69153
116.9415, 53.62680
117.4236, 55.84728
117.9057, 58.12100
118.3878, 60.19090
118.8699, 61.78754
119.3521, 63.30903
119.8342, 65.01779
120.3163, 66.94453
120.7984, 68.89296
121.2805, 70.78249
121.7626, 72.61032
122.2448, 74.37168
122.7269, 76.24325
123.2090, 77.96074
123.6911, 79.20646
124.1732, 79.88047
124.6553, 80.36108
125.1375, 80.99969
125.6196, 81.73576
126.1017, 82.37775
126.5838, 82.65679
127.0659, 82.78969
127.5480, 83.17492
128.0302, 83.90145
128.5123, 84.83360
128.9944, 85.77495
129.4765, 86.73769
129.9586, 87.83556
130.4407, 89.31556
130.9229, 91.04861
131.4050, 92.48361
131.8871, 93.37878
132.3692, 94.00225
132.8513, 94.89079
133.3334, 95.89668
133.8156, 96.70206
134.2977, 97.54893
134.7798, 98.75381
135.2619, 99.62530
135.7440, 99.88779
136.2261, 99.71059
136.7083, 99.90800
137.1904, 100.5178
137.6725, 101.3681
138.1546, 102.3933
138.6367, 103.6771
139.1188, 104.7253
139.6010, 105.4817
140.0831, 105.9503
140.5652, 105.8449
141.0473, 104.9507
141.5294, 103.7895
142.0115, 103.0418
142.4937, 102.7897
142.9758, 102.7185
143.4579, 102.7491
143.9400, 102.8878
144.4221, 103.0840
144.9042, 103.3771
145.3864, 103.6997
145.8685, 103.9382
146.3506, 104.1130
146.8327, 104.1766
147.3148, 104.0749
147.7969, 103.6138
148.2791, 103.4268
148.7612, 103.6281
149.2433, 104.0881
149.7254, 104.5184
150.2075, 104.9735
150.6896, 105.3530
151.1718, 105.6078
151.6539, 105.5410
152.1360, 105.6407
152.6181, 106.0065
153.1002, 106.5584
153.5823, 107.0560
154.0645, 107.5577
154.5466, 107.9529
155.0287, 108.1915
155.5108, 108.2708
155.9929, 108.1943
156.4750, 107.8535
156.9572, 107.3205
157.4393, 106.8991
157.9214, 106.6029
158.4035, 106.4611
158.8856, 106.4899
159.3677, 106.8718
159.8499, 107.2452
160.3320, 107.4823
160.8141, 107.6081
161.2962, 107.7732
161.7783, 108.0942
162.2604, 108.4473
162.7426, 108.7304
163.2247, 108.9863
163.7068, 109.1047
164.1889, 108.9772
164.6710, 108.6212
165.1531, 108.2651
165.6353, 107.9327
166.1174, 107.6870
166.5995, 107.5962
167.0816, 107.8145
167.5637, 108.0965
168.0458, 108.2387
168.5280, 108.2375
169.0101, 108.3437
169.4922, 108.8678
169.9743, 109.5673
170.4564, 110.1009
170.9385, 110.3889
171.4207, 110.4176
171.9028, 110.0417
172.3849, 109.2368
172.8670, 108.5017
173.3491, 108.2618
173.8312, 108.3592
174.3134, 108.4927
174.7955, 108.5497
175.2776, 108.5581
175.7597, 108.5438
176.2418, 108.5068
176.7239, 108.4623
177.2061, 108.4653
177.6882, 108.4788
178.1703, 108.4024
178.6524, 108.0736
179.1345, 107.6509
179.6166, 107.4249
180.0988, 107.4317
180.5809, 107.5153
181.0630, 107.4448
181.5451, 107.2770
182.0272, 107.2426
182.5093, 107.5984
182.9915, 108.1700
183.4736, 108.5092
183.9557, 108.5579
184.4378, 108.4845
184.9199, 108.4876
185.4020, 108.5619
185.8842, 108.6741
186.3663, 108.8308
186.8484, 109.0154
187.3305, 109.1384
187.8126, 109.1655
188.2947, 109.2068
188.7769, 109.5681
189.2590, 110.2253
189.7411, 110.6560
190.2232, 110.3345
190.7053, 109.4215
191.1874, 108.9791
191.6696, 109.1636
192.1517, 109.7051
192.6338, 110.1465
193.1159, 110.4860
193.5980, 110.7808
194.0801, 111.0505
194.5623, 111.2960
195.0444, 111.5474
195.5265, 111.7975
196.0086, 112.0634
196.4907, 112.4228
196.9728, 112.8955
197.4550, 113.2903
197.9371, 113.3990
198.4192, 113.2132
198.9013, 113.2962
199.3834, 113.7742
199.8655, 114.4653
200.3477, 114.9428
200.8298, 115.1839
201.3119, 115.3060
201.7940, 115.3141
202.2761, 115.1815
202.7582, 115.2687
203.2404, 115.6864
203.7225, 116.2861
204.2046, 116.6318
204.6867, 116.6645
205.1688, 116.6498
205.6509, 116.7635
206.1331, 117.0333
206.6152, 117.2619
207.0973, 117.4494
207.5794, 117.5772
208.0615, 117.5706
208.5436, 117.3938
209.0258, 117.1755
209.5079, 116.9417
209.9900, 116.6319
210.4721, 116.6328
210.9542, 117.1390
211.4363, 117.9200
211.9185, 118.0949
212.4006, 117.3565
212.8827, 116.6730
213.3648, 116.7063
213.8469, 117.6740
214.3290, 118.5664
214.8112, 119.3784
215.2933, 120.0428
215.7754, 120.2755
216.2575, 119.8539
216.7396, 119.4183
217.2217, 119.3555
217.7039, 119.7569
218.1860, 120.2676
218.6681, 120.9514
219.1502, 121.7124
219.6323, 122.1625
220.1144, 122.1750
220.5966, 122.0895
221.0787, 122.0647
221.5608, 122.0429
222.0429, 122.2577
222.5250, 122.8184
223.0071, 123.6181
223.4893, 124.2324
223.9714, 124.5906
224.4535, 124.8876
224.9356, 125.2138
225.4177, 125.5211
225.8998, 125.9917
226.3820, 126.7372
226.8641, 127.6423
227.3462, 128.2491
227.8283, 128.3482
228.3104, 128.4659
228.7925, 128.9033
229.2747, 129.9016
229.7568, 130.6709
230.2389, 131.0861
230.7210, 131.2749
231.2031, 131.6495
231.6852, 132.3461
232.1674, 133.0242
232.6495, 133.4985
233.1316, 133.6463
233.6137, 133.8581
234.0958, 134.1189
234.5779, 134.4514
235.0601, 134.9385
235.5422, 135.7160
236.0243, 136.4605
236.5064, 137.0228
236.9885, 137.3213
237.4706, 137.6269
237.9528, 137.9949
238.4349, 138.3519
238.9170, 138.4819
239.3991, 138.2031
239.8812, 137.9683
240.3633, 137.9901
240.8455, 138.4210
241.3276, 138.7309
241.8097, 138.8967
242.2918, 138.9462
242.7739, 138.9427
243.2560, 138.9247
243.7382, 138.7956
244.2203, 138.5248
244.7024, 138.1204
245.1845, 137.5269
245.6666, 136.5749
246.1487, 135.5169
246.6309, 134.8622
247.1130, 134.9044
247.5951, 134.8657
248.0772, 134.4338
248.5593, 133.4501
249.0414, 132.6394
249.5236, 132.0119
250.0057, 131.5508
250.4878, 131.2619
250.9699, 131.3381
251.4520, 131.2320
251.9341, 130.6740
252.4163, 129.4804
252.8984, 128.7632
253.3805, 128.7549
253.8626, 129.0430
254.3447, 129.0082
254.8268, 128.4921
255.3090, 127.9797
255.7911, 127.6422
256.2732, 127.5174
256.7553, 127.2149
257.2374, 126.6207
257.7195, 125.9598
258.2017, 125.5088
258.6838, 125.3154
259.1659, 125.2186
259.6480, 125.2039
260.1301, 125.2761
260.6122, 125.3287
261.0944, 125.4381
261.5765, 125.4323
262.0586, 125.0595
262.5407, 124.1193
263.0228, 123.3778
263.5049, 123.0511
263.9871, 123.1195
264.4692, 123.1225
264.9513, 123.0218
265.4334, 122.9179
265.9155, 122.9341
266.3976, 123.1437
266.8798, 123.2173
267.3619, 123.0559
267.8440, 122.6936
268.3261, 122.3777
268.8082, 122.0381
269.2903, 121.8907
269.7725, 122.2310
270.2546, 123.2282
270.7367, 123.8796
271.2188, 123.9091
271.7009, 123.5060
272.1830, 123.5115
272.6652, 124.0393
273.1473, 124.6634
273.6294, 125.1113
274.1115, 125.3621
274.5936, 125.5262
275.0757, 125.5563
275.5579, 125.5474
276.0400, 125.7988
276.5221, 126.3561
277.0042, 126.9850
277.4863, 127.5661
277.9684, 128.0985
278.4506, 128.5563
278.9327, 128.8791
279.4148, 129.2005
279.8969, 129.8898
280.3790, 131.0139
280.8611, 132.0408
281.3433, 132.6193
281.8254, 132.7564
282.3075, 133.0598
282.7896, 133.5814
283.2717, 134.2059
283.7538, 134.6832
284.2360, 135.0002
284.7181, 135.5245
285.2002, 136.5471
285.6823, 137.9944
286.1644, 139.1393
286.6465, 139.8985
287.1287, 140.6159
287.6108, 141.8010
288.0929, 143.4247
288.5750, 144.9744
289.0571, 146.2538
289.5392, 147.3110
290.0214, 148.2537
290.5035, 149.0568
290.9856, 149.9156
291.4677, 151.0510
291.9498, 152.4388
292.4319, 153.8983
292.9141, 155.4641
293.3962, 157.0323
293.8783, 158.3410
294.3604, 159.3829
294.8425, 160.3152
295.3246, 161.3872
295.8068, 162.4929
296.2889, 163.2190
296.7710, 163.3462
297.2531, 163.2080
297.7352, 163.4757
298.2173, 164.0812
298.6995, 164.4432
299.1816, 164.0666
299.6637, 163.1428
300.1458, 162.0431
300.6279, 160.7642
301.1100, 159.4585
301.5922, 158.4493
302.0743, 157.6323
302.5564, 156.5973
303.0385, 154.7673
303.5206, 152.6696
304.0027, 151.0927
304.4849, 150.2418
304.9670, 149.5383
305.4491, 148.5097
305.9312, 147.2191
306.4133, 145.8172
306.8954, 144.2032
307.3776, 142.6104
307.8597, 141.3421
308.3418, 140.4288
308.8239, 139.5932
309.3060, 138.5510
309.7881, 137.4559
310.2703, 136.5822
310.7524, 136.3088
311.2345, 136.0886
311.7166, 135.3498
312.1987, 134.1182
312.6808, 133.2562
313.1630, 133.7939
313.6451, 134.7448
314.1272, 135.0473
314.6093, 133.7035
315.0914, 132.2402
315.5735, 131.3653
316.0557, 131.0115
316.5378, 130.8265
317.0199, 130.7030
317.5020, 130.6655
317.9841, 130.7663
318.4662, 131.3039
318.9484, 131.5466
319.4305, 131.0709
319.9126, 130.1001
320.3947, 129.2198
320.8768, 128.4162
321.3589, 127.8853
321.8411, 127.8111
322.3232, 128.5074
322.8053, 128.9427
323.2874, 128.6199
323.7695, 127.9714
324.2516, 127.6821
324.7338, 128.3197
325.2159, 128.9044
325.6980, 129.0948
326.1801, 128.7725
326.6622, 128.5181
327.1443, 128.2862
327.6265, 128.1755
328.1086, 128.2908
328.5907, 129.1216
329.0728, 129.6252
329.5549, 129.4480
330.0370, 128.5793
330.5192, 128.1884
331.0013, 128.6010
331.4834, 129.2124
331.9655, 129.6024
332.4476, 129.5677
332.9297, 129.6680
333.4119, 130.0237
333.8940, 130.5569
334.3761, 130.8947
334.8582, 130.8689
335.3403, 130.9001
335.8224, 131.2653
336.3046, 132.1998
336.7867, 132.7240
337.2688, 132.6485
337.7509, 132.2850
338.2330, 132.2408
338.7151, 132.5306
339.1973, 133.1052
339.6794, 134.1070
340.1615, 135.5710
340.6436, 136.4855
341.1257, 136.7313
341.6078, 136.6766
342.0900, 136.7399
342.5721, 136.9232
343.0542, 137.2095
343.5363, 137.6214
344.0184, 138.1298
344.5005, 138.6037
344.9827, 139.0309
345.4648, 139.4904
345.9469, 140.1091
346.4290, 140.8590
346.9111, 141.4392
347.3932, 141.7350
347.8754, 141.9126
348.3575, 142.2255
348.8396, 142.6737
349.3217, 143.3132
349.8038, 144.2797
350.2859, 145.4538
350.7681, 146.6021
351.2502, 147.7397
351.7323, 148.6770
352.2144, 148.9118
352.6965, 148.7113
353.1786, 148.8768
353.6608, 150.2258
354.1429, 151.9735
354.6250, 153.0871
355.1071, 153.5096
355.5892, 153.8359
356.0714, 154.5060
356.5535, 155.3831
357.0356, 156.2652
357.5177, 157.1458
357.9998, 157.9558
358.4819, 158.4590
358.9641, 158.7504
359.4462, 159.3547
359.9283, 160.7896
360.4104, 162.5234
360.8925, 164.1390
361.3746, 165.6259
361.8568, 166.8346
362.3389, 167.3522
362.8210, 167.5329
363.3031, 168.1934
363.7852, 170.0494
364.2673, 172.0713
364.7495, 173.7265
365.2316, 174.7998
365.7137, 176.1000
366.1958, 178.1005
366.6779, 180.2856
367.1600, 182.0668
367.6422, 182.7594
368.1243, 183.6835
368.6064, 185.2899
369.0885, 187.6384
369.5706, 189.5127
370.0527, 190.3777
370.5349, 191.1955
371.0170, 192.6217
371.4991, 194.9928
371.9812, 197.3923
372.4633, 199.8698
372.9454, 202.3418
373.4276, 204.4280
373.9097, 205.9563
374.3918, 207.4413
374.8739, 209.0307
375.3560, 210.6826
375.8381, 212.7492
376.3203, 215.3590
376.8024, 218.1832
377.2845, 220.6994
377.7666, 222.8321
378.2487, 224.9481
378.7308, 227.0771
379.2130, 229.2618
379.6951, 231.6340
380.1772, 234.2389
380.6593, 236.8922
381.1414, 239.4514
381.6235, 241.9095
382.1057, 244.4606
382.5878, 247.2114
383.0699, 249.9495
383.5520, 252.1261
384.0341, 253.8197
384.5162, 255.6210
384.9984, 258.1290
385.4805, 261.0059
385.9626, 263.5305
386.4447, 265.6046
386.9268, 267.4698
387.4089, 269.1818
387.8911, 270.8736
388.3732, 272.8066
388.8553, 275.4227
389.3374, 278.1328
389.8195, 280.3018
390.3016, 281.9218
390.7838, 283.4592
391.2659, 285.2946
391.7480, 287.1353
392.2301, 288.6732
392.7122, 289.7361
393.1943, 290.6088
393.6765, 291.2735
394.1586, 291.8326
394.6407, 292.5564
395.1228, 294.0279
395.6049, 295.3130
396.0870, 295.8570
396.5692, 295.3151
397.0513, 294.9443
397.5334, 295.2884
398.0155, 295.8340
398.4976, 295.9351
398.9797, 295.2307
399.4619, 294.3907
399.9440, 293.5730
400.4261, 292.7744
400.9082, 291.7039
401.3903, 290.4089
401.8724, 288.7885
402.3546, 286.6981
402.8367, 283.7689
403.3188, 281.2402
403.8009, 279.3417
404.2830, 277.8143
404.7651, 275.9669
405.2473, 273.7043
405.7294, 271.4491
406.2115, 269.3641
406.6936, 267.4711
407.1757, 265.6213
407.6578, 263.7788
408.1400, 262.0705
408.6221, 260.6785
409.1042, 259.5964
409.5863, 258.5339
410.0684, 257.5496
410.5505, 256.4319
411.0327, 254.3320
411.5148, 251.2804
411.9969, 248.4959
412.4790, 246.9377
412.9611, 246.2597
413.4432, 245.7590
413.9254, 245.4200
414.4075, 244.9226
414.8896, 243.6529
415.3717, 241.9426
415.8538, 240.5807
416.3359, 240.2278
416.8181, 240.2186
417.3002, 239.9554
417.7823, 239.4283
418.2644, 238.9481
418.7465, 238.6487
419.2286, 238.4907
419.7108, 238.4366
420.1929, 238.4470
420.6750, 238.5916
421.1571, 239.0316
421.6392, 239.6358
422.1213, 240.0545
422.6035, 239.9490
423.0856, 239.8495
423.5677, 239.9655
424.0498, 240.3372
424.5319, 240.8461
425.0140, 241.5566
425.4962, 242.3773
425.9783, 243.2161
426.4604, 244.0292
426.9425, 244.9240
427.4246, 245.8253
427.9067, 246.7967
428.3889, 248.2557
428.8710, 250.3982
429.3531, 252.6752
429.8352, 254.7796
430.3173, 256.5998
430.7994, 258.6926
431.2816, 261.1441
431.7637, 263.7420
432.2458, 266.0410
432.7279, 268.0118
433.2100, 270.1124
433.6921, 272.4348
434.1743, 275.0277
434.6564, 278.1229
435.1385, 281.7732
435.6206, 285.4665
436.1027, 288.5333
436.5848, 291.3014
437.0670, 294.6870
437.5491, 298.9450
438.0312, 303.6936
438.5133, 308.7659
438.9954, 314.0574
439.4775, 319.2723
439.9597, 324.0916
440.4418, 328.8807
440.9239, 333.9895
441.4060, 339.4419
441.8881, 345.0174
442.3702, 350.4583
442.8524, 355.9566
443.3345, 361.7428
443.8166, 368.0025
444.2987, 374.4025
444.7808, 380.8736
445.2629, 387.4072
445.7451, 394.0379
446.2272, 400.7470
446.7093, 407.4068
447.1914, 413.9375
447.6735, 420.3133
448.1556, 426.6572
448.6378, 432.7022
449.1199, 438.8291
449.6020, 445.5230
450.0841, 453.1020
450.5662, 460.2957
451.0483, 466.8628
451.5305, 472.9237
452.0126, 478.8754
452.4947, 484.8408
452.9768, 490.4715
453.4589, 495.5779
453.9410, 500.1876
454.4232, 504.7531
454.9053, 509.5135
455.3874, 513.6827
455.8695, 516.2226
456.3516, 517.2525
456.8337, 517.6168
457.3159, 517.6390
457.7980, 517.1218
458.2801, 515.7258
458.7622, 513.4814
459.2443, 510.4919
459.7264, 507.0442
460.2086, 502.8381
460.6907, 497.3248
461.1728, 490.2420
461.6549, 482.8274
462.1370, 476.6694
462.6191, 470.7036
463.1013, 463.4977
463.5834, 453.4369
464.0655, 443.0168
464.5476, 433.1739
465.0297, 423.9741
465.5118, 415.3100
465.9940, 407.7107
466.4761, 400.4103
466.9582, 393.0688
467.4403, 385.7232
467.9224, 378.0526
468.4045, 369.7428
468.8867, 361.2759
469.3688, 353.2046
469.8509, 345.8290
470.3330, 338.5267
470.8151, 330.9442
471.2972, 323.2148
471.7794, 316.9642
472.2615, 312.6137
472.7436, 308.4349
473.2257, 303.0153
473.7078, 296.3026
474.1899, 290.2844
474.6721, 285.1636
475.1542, 280.5099
475.6363, 275.7628
476.1184, 270.9350
476.6005, 266.1070
477.0826, 261.2144
477.5648, 256.4052
478.0469, 251.8472
478.5290, 247.5302
479.0111, 243.3597
479.4932, 239.2902
479.9753, 235.3214
480.4575, 231.4739
480.9396, 227.7844
481.4217, 224.0750
481.9038, 220.0959
482.3859, 216.1178
482.8680, 212.5920
483.3502, 210.2674
483.8323, 207.8335
484.3144, 204.7250
484.7965, 200.9987
485.2786, 197.3064
485.7607, 193.4149
486.2429, 189.8864
486.7250, 187.0513
487.2071, 185.4697
487.6892, 183.4314
488.1713, 180.7100
488.6534, 177.6968
489.1356, 174.8905
489.6177, 172.2791
490.0998, 169.9045
490.5819, 167.8463
491.0640, 165.9930
491.5461, 163.7594
492.0283, 161.0806
492.5104, 158.4333
492.9925, 156.1638
493.4746, 154.2072
493.9567, 152.4257
494.4388, 150.7964
494.9210, 149.2549
495.4031, 147.7881
495.8852, 146.3396
496.3673, 144.7151
496.8494, 142.6633
497.3315, 140.5896
497.8137, 138.9211
498.2958, 137.5714
498.7779, 136.2619
499.2600, 134.7819
499.7421, 133.3135
500.2242, 131.9716
500.7064, 130.7542
501.1885, 129.6801
501.6706, 128.8521
502.1527, 128.1359
502.6348, 127.4106
503.1169, 126.8431
503.5991, 126.0474
504.0812, 124.8736
504.5633, 123.4422
505.0454, 122.1346
505.5275, 120.8656
506.0096, 119.9138
506.4918, 119.5082
506.9739, 119.7180
507.4560, 119.5411
507.9381, 118.8876
508.4202, 118.0887
508.9023, 117.4705
509.3845, 117.0245
509.8666, 116.6123
510.3487, 116.2160
510.8308, 115.8285
511.3129, 115.4423
511.7950, 115.0566
512.2772, 114.6653
512.7593, 114.1441
513.2414, 113.6809
513.7235, 113.5934
514.2056, 113.8653
514.6877, 114.0542
515.1699, 113.7927
515.6520, 113.3612
516.1341, 113.0098
516.6162, 112.7859
517.0983, 112.6571
517.5804, 112.6201
518.0626, 112.6664
518.5447, 112.7824
519.0268, 113.2053
519.5089, 113.4336
519.9910, 113.2046
520.4731, 112.5689
520.9553, 112.3815
521.4374, 112.9061
521.9195, 113.4885
522.4016, 113.7039
522.8837, 113.4178
523.3658, 113.5171
523.8480, 114.1196
524.3301, 114.8791
524.8122, 115.2632
525.2943, 115.3030
525.7764, 115.5401
526.2585, 116.2331
526.7407, 117.0774
527.2228, 117.4200
527.7049, 117.3579
528.1870, 117.4454
528.6691, 118.3365
529.1512, 119.3984
529.6334, 119.7444
530.1155, 119.2887
530.5976, 118.9880
531.0797, 119.4688
531.5618, 120.3591
532.0439, 121.2958
532.5261, 122.3087
533.0082, 123.1992
533.4903, 123.8632
533.9724, 124.3822
534.4545, 124.9482
534.9366, 125.5447
535.4188, 126.2225
535.9009, 126.9899
536.3830, 127.8475
536.8651, 128.8199
537.3472, 130.0033
537.8293, 131.1140
538.3115, 131.9244
538.7936, 132.4116
539.2757, 132.9008
539.7578, 133.3888
540.2399, 133.9259
540.7220, 134.6329
541.2042, 135.4698
541.6863, 136.2639
542.1684, 136.9904
542.6505, 137.6218
543.1326, 138.0539
543.6147, 138.3367
544.0969, 138.6775
544.5790, 139.2815
545.0611, 139.9268
545.5432, 140.4243
546.0253, 140.7514
546.5074, 141.0359
546.9896, 141.3919
547.4717, 141.6892
547.9538, 141.8194
548.4359, 141.5926
548.9180, 141.4353
549.4001, 141.5173
549.8823, 141.6491
550.3644, 141.4788
550.8465, 140.7744
551.3286, 140.2168
551.8107, 140.0645
552.2928, 140.2259
552.7750, 140.0110
553.2571, 139.3752
553.7392, 138.5862
554.2213, 137.7940
554.7034, 136.9968
555.1855, 136.1348
555.6677, 135.1984
556.1498, 134.2372
556.6319, 133.2955
557.1140, 132.3758
557.5961, 131.4942
558.0782, 130.6655
558.5604, 129.8540
559.0425, 129.0312
559.5246, 128.2087
560.0067, 127.4170
560.4888, 126.7539
560.9709, 126.0546
561.4531, 125.1825
561.9352, 124.1332
562.4173, 123.2803
562.8994, 122.9856
563.3815, 122.6464
563.8636, 121.9189
564.3458, 120.5738
564.8279, 119.4806
565.3100, 118.6896
565.7921, 118.0737
566.2742, 117.5028
566.7563, 116.9802
567.2385, 116.4642
567.7206, 115.9910
568.2027, 115.4676
568.6848, 114.5715
569.1669, 113.3652
569.6490, 112.4123
570.1312, 112.2492
570.6133, 112.4021
571.0954, 112.1816
571.5775, 111.5873
572.0596, 110.9143
572.5417, 110.1484
573.0239, 109.4979
573.5060, 109.1929
573.9881, 109.3945
574.4702, 109.5951
574.9523, 109.7135
575.4344, 109.7244
575.9166, 109.5948
576.3987, 109.2570
576.8808, 108.8609
577.3629, 108.3398
577.8450, 107.7782
578.3271, 107.4823
578.8093, 107.5497
579.2914, 107.5916
579.7735, 107.4370
580.2556, 107.1117
580.7377, 106.7749
581.2198, 106.4197
581.7020, 106.1311
582.1841, 106.0297
582.6662, 106.0428
583.1483, 105.9618
583.6304, 105.7306
584.1125, 105.5716
584.5947, 105.7729
585.0768, 106.1508
585.5589, 106.4390
586.0410, 106.6210
586.5231, 106.6174
587.0052, 106.2133
587.4874, 105.5874
587.9695, 105.2228
588.4516, 105.4105
588.9337, 105.6708
589.4158, 105.9271
