##NAMES=Cernyite
##RRUFFID=R070179
##IDEAL CHEMISTRY=Cu^1+^_2_Cd^2+^Sn^4+^S^2-^_4_
##LOCALITY=Hugo mine, Keystone, Keystone District, Pennington County, South Dakota, USA
##OWNER=RRUFF
##SOURCE=Michael Scott
##DESCRIPTION=Gray metallic massive
##STATUS=The identification of this mineral has been confirmed by single-crystal X-ray diffraction.
##URL=rruff.info/R070179
132.3433, 641.9317
132.8254, 660.9758
133.3075, 681.8307
133.7896, 703.1872
134.2718, 725.4561
134.7539, 744.8447
135.2360, 755.0016
135.7181, 754.5687
136.2002, 760.9870
136.6823, 780.9011
137.1645, 812.9109
137.6466, 837.8116
138.1287, 855.4481
138.6108, 866.6510
139.0929, 870.9149
139.5750, 865.7802
140.0572, 861.1926
140.5393, 861.6274
141.0214, 869.6959
141.5035, 870.2072
141.9856, 859.0182
142.4677, 842.2504
142.9499, 833.8270
143.4320, 838.0956
143.9141, 844.5594
144.3962, 848.1274
144.8783, 845.7299
145.3604, 846.1179
145.8425, 850.5866
146.3247, 858.5178
146.8068, 865.9720
147.2889, 874.0180
147.7710, 880.6835
148.2531, 884.6937
148.7352, 881.2396
149.2174, 880.6288
149.6995, 885.0140
150.1816, 894.9499
150.6637, 904.0606
151.1458, 913.1919
151.6279, 920.9985
152.1101, 926.3943
152.5922, 924.9089
153.0743, 924.9557
153.5564, 929.7703
154.0385, 942.3018
154.5206, 950.8464
155.0028, 953.6885
155.4849, 951.5424
155.9670, 945.6148
156.4491, 929.9738
156.9312, 915.1736
157.4133, 906.5877
157.8955, 910.3875
158.3776, 911.4200
158.8597, 902.3575
159.3418, 886.4941
159.8239, 874.9655
160.3060, 874.4108
160.7882, 877.8896
161.2703, 880.6459
161.7524, 883.3852
162.2345, 883.3123
162.7166, 876.0851
163.1987, 862.7865
163.6808, 854.2543
164.1630, 858.5087
164.6451, 869.1471
165.1272, 879.2880
165.6093, 888.1248
166.0914, 894.4787
166.5735, 896.8785
167.0557, 895.0933
167.5378, 892.4075
168.0199, 888.3965
168.5020, 885.0981
168.9841, 885.9766
169.4662, 895.8934
169.9484, 909.0327
170.4305, 920.9274
170.9126, 931.5518
171.3947, 939.1890
171.8768, 940.6085
172.3589, 937.4684
172.8411, 934.3661
173.3232, 933.8375
173.8053, 934.8813
174.2874, 935.8727
174.7695, 935.7572
175.2516, 936.9209
175.7338, 944.5369
176.2159, 957.2166
176.6980, 966.8917
177.1801, 963.2584
177.6622, 952.8464
178.1443, 949.6702
178.6264, 961.3237
179.1086, 978.3903
179.5907, 984.8813
180.0728, 981.0353
180.5549, 976.7371
181.0370, 982.2078
181.5191, 994.5926
182.0013, 1004.885
182.4834, 1008.900
182.9655, 1008.938
183.4476, 1009.764
183.9297, 1011.275
184.4118, 1014.372
184.8940, 1020.979
185.3761, 1030.627
185.8582, 1039.910
186.3403, 1047.484
186.8224, 1053.563
187.3046, 1058.947
187.7867, 1063.561
188.2688, 1067.935
188.7509, 1073.552
189.2330, 1080.322
189.7151, 1085.543
190.1973, 1087.076
190.6794, 1085.380
191.1615, 1084.247
191.6436, 1083.979
192.1257, 1084.341
192.6078, 1084.922
193.0900, 1085.737
193.5721, 1086.675
194.0542, 1088.403
194.5363, 1090.839
195.0184, 1090.184
195.5005, 1084.000
195.9826, 1075.720
196.4648, 1077.136
196.9469, 1089.962
197.4290, 1103.773
197.9111, 1109.360
198.3932, 1105.929
198.8753, 1104.672
199.3575, 1108.518
199.8396, 1116.230
200.3217, 1121.690
200.8038, 1125.035
201.2859, 1125.590
201.7680, 1121.501
202.2502, 1111.711
202.7323, 1103.334
203.2144, 1097.276
203.6965, 1093.687
204.1786, 1096.724
204.6607, 1108.662
205.1429, 1122.932
205.6250, 1132.243
206.1071, 1136.499
206.5892, 1135.598
207.0713, 1126.530
207.5534, 1108.014
208.0356, 1100.832
208.5177, 1108.327
208.9998, 1123.192
209.4819, 1135.533
209.9640, 1146.385
210.4461, 1151.759
210.9282, 1148.660
211.4104, 1134.783
211.8925, 1123.194
212.3746, 1112.778
212.8567, 1105.458
213.3388, 1106.585
213.8209, 1120.301
214.3031, 1133.173
214.7852, 1138.518
215.2673, 1133.369
215.7494, 1130.332
216.2315, 1130.998
216.7136, 1133.525
217.1958, 1131.446
217.6779, 1120.686
218.1600, 1112.576
218.6421, 1114.533
219.1242, 1132.615
219.6063, 1144.578
220.0885, 1146.987
220.5706, 1142.209
221.0527, 1141.092
221.5348, 1145.855
222.0169, 1150.983
222.4990, 1152.563
222.9812, 1148.168
223.4633, 1145.356
223.9454, 1142.209
224.4275, 1140.235
224.9096, 1154.119
225.3917, 1197.472
225.8739, 1239.900
226.3560, 1256.051
226.8381, 1229.974
227.3202, 1211.083
227.8023, 1207.531
228.2844, 1218.812
228.7665, 1230.151
229.2487, 1242.237
229.7308, 1253.348
230.2129, 1261.678
230.6950, 1265.001
231.1771, 1269.445
231.6592, 1274.860
232.1414, 1280.968
232.6235, 1295.477
233.1056, 1323.670
233.5877, 1355.158
234.0698, 1377.988
234.5519, 1386.894
235.0341, 1396.500
235.5162, 1409.994
235.9983, 1427.692
236.4804, 1446.118
236.9625, 1464.938
237.4446, 1484.738
237.9268, 1506.577
238.4089, 1531.833
238.8910, 1557.323
239.3731, 1583.159
239.8552, 1610.381
240.3373, 1631.936
240.8195, 1644.717
241.3016, 1653.888
241.7837, 1667.152
242.2658, 1686.865
242.7479, 1706.823
243.2300, 1726.031
243.7122, 1745.578
244.1943, 1759.465
244.6764, 1764.736
245.1585, 1766.053
245.6406, 1771.701
246.1227, 1785.768
246.6048, 1797.467
247.0870, 1803.267
247.5691, 1802.258
248.0512, 1797.893
248.5333, 1787.528
249.0154, 1775.116
249.4975, 1768.831
249.9797, 1773.595
250.4618, 1776.136
250.9439, 1771.120
251.4260, 1755.876
251.9081, 1740.788
252.3902, 1726.337
252.8724, 1711.671
253.3545, 1694.400
253.8366, 1671.474
254.3187, 1651.417
254.8008, 1638.992
255.2829, 1639.252
255.7651, 1632.688
256.2472, 1615.553
256.7293, 1593.057
257.2114, 1578.907
257.6935, 1577.904
258.1756, 1576.458
258.6577, 1567.265
259.1399, 1545.240
259.6220, 1530.359
260.1041, 1524.979
260.5862, 1525.979
261.0683, 1524.738
261.5504, 1519.431
262.0326, 1515.541
262.5147, 1516.439
262.9968, 1524.257
263.4789, 1529.453
263.9610, 1530.531
264.4431, 1529.263
264.9253, 1530.134
265.4074, 1532.641
265.8895, 1538.387
266.3716, 1549.317
266.8537, 1567.262
267.3358, 1582.710
267.8180, 1594.692
268.3001, 1604.221
268.7822, 1613.319
269.2643, 1620.072
269.7464, 1631.236
270.2285, 1652.593
270.7107, 1686.736
271.1928, 1716.880
271.6749, 1740.528
272.1570, 1760.456
272.6391, 1784.167
273.1212, 1812.718
273.6034, 1841.614
274.0855, 1867.503
274.5676, 1889.652
275.0497, 1914.495
275.5318, 1942.092
276.0139, 1973.030
276.4961, 2009.863
276.9782, 2054.383
277.4603, 2097.296
277.9424, 2132.759
278.4245, 2160.810
278.9066, 2183.454
279.3888, 2198.744
279.8709, 2210.855
280.3530, 2232.068
280.8351, 2264.364
281.3172, 2293.132
281.7993, 2306.400
282.2815, 2304.604
282.7636, 2306.738
283.2457, 2316.180
283.7278, 2328.425
284.2099, 2335.094
284.6920, 2336.332
285.1741, 2330.050
285.6563, 2309.465
286.1384, 2276.640
286.6205, 2255.343
287.1026, 2250.285
287.5847, 2253.460
288.0668, 2250.589
288.5490, 2241.678
289.0311, 2230.179
289.5132, 2214.851
289.9953, 2197.828
290.4774, 2190.347
290.9595, 2197.075
291.4417, 2206.415
291.9238, 2198.037
292.4059, 2173.044
292.8880, 2143.986
293.3701, 2117.421
293.8522, 2092.779
294.3344, 2067.164
294.8165, 2039.026
295.2986, 2012.589
295.7807, 1995.535
296.2628, 1986.596
296.7449, 1978.924
297.2271, 1968.882
297.7092, 1957.245
298.1913, 1943.732
298.6734, 1926.625
299.1555, 1913.686
299.6376, 1916.650
300.1198, 1932.612
300.6019, 1950.982
301.0840, 1964.266
301.5661, 1976.475
302.0482, 1992.563
302.5303, 2012.396
303.0125, 2039.406
303.4946, 2076.991
303.9767, 2124.456
304.4588, 2181.135
304.9409, 2249.065
305.4230, 2324.012
305.9052, 2401.867
306.3873, 2480.373
306.8694, 2567.848
307.3515, 2668.579
307.8336, 2781.970
308.3157, 2908.768
308.7979, 3054.517
309.2800, 3209.564
309.7621, 3362.370
310.2442, 3509.592
310.7263, 3670.835
311.2084, 3858.326
311.6906, 4069.215
312.1727, 4299.947
312.6548, 4551.292
313.1369, 4821.756
313.6190, 5102.431
314.1011, 5392.753
314.5833, 5707.208
315.0654, 6050.810
315.5475, 6423.988
316.0296, 6822.320
316.5117, 7262.372
316.9938, 7712.426
317.4760, 8164.453
317.9580, 8614.553
318.4402, 9054.794
318.9223, 9491.229
319.4044, 9913.769
319.8865, 10306.58
320.3686, 10685.12
320.8507, 11015.34
321.3329, 11296.34
321.8150, 11525.77
322.2971, 11677.15
322.7792, 11744.73
323.2613, 11732.24
323.7434, 11642.71
324.2256, 11447.65
324.7077, 11205.79
325.1898, 10926.83
325.6719, 10612.84
326.1540, 10247.17
326.6361, 9807.346
327.1183, 9329.017
327.6004, 8834.284
328.0825, 8306.582
328.5646, 7781.049
329.0467, 7259.947
329.5288, 6740.862
330.0110, 6242.236
330.4931, 5743.547
330.9752, 5278.906
331.4573, 4873.653
331.9394, 4541.950
332.4215, 4238.184
332.9037, 3955.133
333.3858, 3698.311
333.8679, 3485.227
334.3500, 3318.922
334.8321, 3188.502
335.3142, 3089.976
335.7964, 3029.759
336.2785, 2981.390
336.7606, 2943.455
337.2427, 2916.572
337.7248, 2904.586
338.2069, 2910.877
338.6891, 2921.704
339.1712, 2930.289
339.6533, 2935.844
340.1354, 2946.742
340.6175, 2964.856
341.0996, 2985.553
341.5818, 3000.472
342.0639, 3009.267
342.5460, 3015.854
343.0281, 3023.375
343.5102, 3031.154
343.9923, 3031.261
344.4745, 3022.649
344.9566, 3009.899
345.4387, 2998.033
345.9208, 2987.230
346.4029, 2977.970
346.8850, 2977.443
347.3672, 2978.148
347.8493, 2958.335
348.3314, 2917.795
348.8135, 2861.408
349.2956, 2790.464
349.7777, 2707.764
350.2599, 2619.618
350.7419, 2520.985
351.2241, 2421.811
351.7062, 2338.202
352.1883, 2269.740
352.6704, 2204.250
353.1525, 2128.181
353.6346, 2050.490
354.1168, 1984.546
354.5989, 1937.673
355.0810, 1899.939
355.5631, 1863.256
356.0452, 1828.446
356.5273, 1799.490
357.0095, 1783.037
357.4916, 1771.546
357.9737, 1757.120
358.4558, 1734.126
358.9379, 1714.726
359.4200, 1709.051
359.9022, 1712.465
360.3843, 1712.759
360.8664, 1706.176
361.3485, 1694.016
361.8306, 1676.169
362.3127, 1649.990
362.7949, 1624.782
363.2770, 1608.326
363.7591, 1593.852
364.2412, 1569.982
364.7233, 1521.109
365.2054, 1473.744
365.6876, 1439.624
366.1697, 1423.823
366.6518, 1403.198
367.1339, 1372.677
367.6160, 1337.487
368.0981, 1303.678
368.5803, 1269.557
369.0624, 1238.627
369.5445, 1211.195
370.0266, 1187.215
370.5087, 1169.010
370.9908, 1159.495
371.4730, 1153.173
371.9551, 1145.047
372.4372, 1132.523
372.9193, 1123.940
373.4014, 1122.948
373.8835, 1127.452
374.3657, 1122.757
374.8478, 1103.936
375.3299, 1086.450
375.8120, 1082.301
376.2941, 1093.808
376.7762, 1104.613
377.2584, 1114.832
377.7405, 1121.840
378.2226, 1114.267
378.7047, 1089.553
379.1868, 1071.830
379.6689, 1081.268
380.1511, 1113.720
380.6332, 1131.151
381.1153, 1129.052
381.5974, 1118.369
382.0795, 1115.064
382.5616, 1117.849
383.0438, 1118.613
383.5259, 1109.693
384.0080, 1096.778
384.4901, 1093.786
384.9722, 1101.515
385.4543, 1110.727
385.9364, 1112.147
386.4185, 1108.749
386.9007, 1106.927
387.3828, 1111.288
387.8649, 1116.592
388.3470, 1116.641
388.8291, 1112.052
389.3112, 1108.080
389.7934, 1109.495
390.2755, 1112.791
390.7576, 1114.410
391.2397, 1113.589
391.7218, 1110.698
392.2039, 1104.275
392.6861, 1095.617
393.1682, 1088.747
393.6503, 1086.896
394.1324, 1086.098
394.6145, 1083.364
395.0966, 1075.245
395.5788, 1072.131
396.0609, 1080.489
396.5430, 1094.618
397.0251, 1104.917
397.5072, 1109.641
397.9893, 1110.766
398.4715, 1107.415
398.9536, 1097.817
399.4357, 1092.447
399.9178, 1093.438
400.3999, 1097.301
400.8820, 1100.980
401.3642, 1106.228
401.8463, 1107.969
402.3284, 1103.101
402.8105, 1092.714
403.2926, 1090.967
403.7747, 1102.431
404.2569, 1114.134
404.7390, 1114.758
405.2211, 1101.115
405.7032, 1094.367
406.1853, 1098.835
406.6674, 1109.079
407.1496, 1110.766
407.6317, 1102.922
408.1138, 1095.907
408.5959, 1098.964
409.0780, 1109.425
409.5602, 1106.943
410.0423, 1087.649
410.5244, 1066.806
411.0065, 1069.433
411.4886, 1089.827
411.9707, 1102.097
412.4529, 1085.470
412.9350, 1057.025
413.4171, 1047.093
413.8992, 1055.234
414.3813, 1065.832
414.8634, 1067.887
415.3456, 1064.266
415.8277, 1058.971
416.3098, 1050.918
416.7919, 1044.207
417.2740, 1042.325
417.7561, 1044.466
418.2382, 1047.182
418.7203, 1050.546
419.2025, 1052.795
419.6846, 1052.271
420.1667, 1047.156
420.6488, 1042.813
421.1309, 1041.665
421.6130, 1042.222
422.0952, 1041.768
422.5773, 1038.985
423.0594, 1035.880
423.5415, 1032.653
424.0236, 1028.964
424.5057, 1027.144
424.9879, 1030.114
425.4700, 1033.157
425.9521, 1031.665
426.4342, 1021.737
426.9163, 1014.060
427.3984, 1010.563
427.8806, 1010.712
428.3627, 1010.763
428.8448, 1009.906
429.3269, 1010.662
429.8090, 1016.554
430.2911, 1029.087
430.7733, 1033.131
431.2554, 1024.599
431.7375, 1011.769
432.2196, 1012.177
432.7017, 1026.192
433.1838, 1037.867
433.6660, 1037.153
434.1481, 1027.673
434.6302, 1023.178
435.1123, 1024.321
435.5944, 1025.390
436.0765, 1017.736
436.5587, 1005.289
437.0408, 998.1985
437.5229, 1002.488
438.0050, 1011.232
438.4871, 1019.268
438.9692, 1026.065
439.4514, 1028.687
439.9335, 1018.490
440.4156, 1006.724
440.8977, 1005.501
441.3798, 1023.076
441.8619, 1038.157
442.3441, 1037.864
442.8262, 1028.523
443.3083, 1021.884
443.7904, 1022.988
444.2725, 1026.282
444.7546, 1031.010
445.2368, 1038.019
445.7189, 1040.423
446.2010, 1031.937
446.6831, 1021.405
447.1652, 1016.659
447.6473, 1022.725
448.1295, 1027.354
448.6116, 1028.183
449.0937, 1026.220
449.5758, 1027.373
450.0579, 1033.525
450.5400, 1039.237
451.0221, 1041.447
451.5042, 1039.725
451.9864, 1036.358
452.4685, 1030.229
452.9506, 1024.384
453.4327, 1024.197
453.9148, 1029.701
454.3969, 1036.930
454.8791, 1046.551
455.3612, 1056.455
455.8433, 1059.073
456.3254, 1054.233
456.8075, 1045.681
457.2896, 1033.580
457.7718, 1020.544
458.2539, 1013.052
458.7360, 1014.303
459.2181, 1018.962
459.7002, 1022.166
460.1823, 1024.379
460.6645, 1026.991
461.1466, 1033.493
461.6287, 1038.916
462.1108, 1038.399
462.5929, 1029.955
463.0750, 1022.708
463.5572, 1019.457
464.0393, 1019.745
464.5214, 1023.116
465.0035, 1033.601
465.4856, 1042.810
465.9677, 1049.657
466.4499, 1053.969
466.9320, 1053.370
467.4141, 1041.808
467.8962, 1030.733
468.3783, 1026.793
468.8604, 1035.542
469.3426, 1039.373
469.8247, 1036.034
470.3068, 1029.063
470.7889, 1025.315
471.2710, 1025.216
471.7531, 1026.877
472.2353, 1030.982
472.7174, 1036.900
473.1995, 1036.479
473.6816, 1028.608
474.1637, 1021.116
474.6458, 1025.249
475.1280, 1037.775
475.6101, 1042.181
476.0922, 1031.384
476.5743, 1016.162
477.0564, 1011.666
477.5385, 1016.501
478.0207, 1024.874
478.5028, 1039.539
478.9849, 1052.794
479.4670, 1054.840
479.9491, 1043.415
480.4312, 1031.136
480.9134, 1024.022
481.3955, 1020.901
481.8776, 1020.444
482.3597, 1027.081
482.8418, 1031.443
483.3239, 1028.599
483.8060, 1019.720
484.2881, 1013.703
484.7703, 1011.774
485.2524, 1013.364
485.7345, 1018.992
486.2166, 1034.377
486.6987, 1041.143
487.1808, 1032.036
487.6630, 1019.020
488.1451, 1024.043
488.6272, 1057.458
489.1093, 1079.064
489.5914, 1073.674
490.0735, 1045.880
490.5557, 1030.883
491.0378, 1030.574
491.5199, 1033.492
492.0020, 1029.818
492.4841, 1020.864
492.9662, 1014.265
493.4484, 1010.935
493.9305, 1010.712
494.4126, 1016.364
494.8947, 1025.721
495.3768, 1031.184
495.8589, 1025.540
496.3411, 1016.153
496.8232, 1009.716
497.3053, 1006.493
497.7874, 1006.724
498.2695, 1014.999
498.7516, 1024.657
499.2338, 1029.380
499.7159, 1023.891
500.1980, 1018.156
500.6801, 1015.527
501.1622, 1014.823
501.6443, 1013.073
502.1265, 1006.573
502.6086, 1002.236
503.0907, 1003.644
503.5728, 1012.860
504.0549, 1014.850
504.5370, 1003.946
505.0192, 992.1611
505.5013, 992.4595
505.9834, 1009.229
506.4655, 1019.439
506.9476, 1017.573
507.4297, 1008.942
507.9119, 1009.312
508.3940, 1019.321
508.8761, 1026.547
509.3582, 1018.715
509.8403, 1002.591
510.3224, 1002.604
510.8046, 1020.892
511.2867, 1039.900
511.7688, 1041.402
512.2509, 1031.996
512.7330, 1024.081
513.2151, 1021.753
513.6973, 1021.954
514.1794, 1024.810
514.6615, 1028.806
515.1436, 1029.053
515.6257, 1015.408
516.1078, 1003.507
516.5900, 1004.730
517.0721, 1024.756
517.5542, 1038.238
518.0363, 1036.245
518.5184, 1028.189
519.0005, 1023.670
519.4827, 1026.717
519.9648, 1026.876
520.4469, 1020.262
520.9290, 1010.026
521.4111, 1009.883
521.8932, 1023.654
522.3754, 1037.047
522.8575, 1042.012
523.3396, 1038.569
523.8217, 1036.709
524.3038, 1036.697
524.7859, 1037.339
525.2681, 1037.941
525.7502, 1038.206
526.2323, 1036.429
526.7144, 1030.072
527.1965, 1024.144
527.6786, 1027.555
528.1608, 1037.826
528.6429, 1045.645
529.1250, 1043.610
529.6071, 1038.129
530.0892, 1033.250
530.5714, 1028.907
531.0535, 1028.665
531.5356, 1037.735
532.0176, 1049.947
532.4998, 1059.178
532.9819, 1066.787
533.4640, 1068.570
533.9461, 1059.272
534.4282, 1043.208
534.9103, 1035.013
535.3925, 1038.033
535.8746, 1043.674
536.3567, 1049.087
536.8388, 1054.290
537.3209, 1059.208
537.8030, 1064.416
538.2852, 1067.751
538.7673, 1065.871
539.2494, 1059.159
539.7315, 1053.236
540.2136, 1048.603
540.6957, 1046.358
541.1779, 1049.768
541.6600, 1057.644
542.1421, 1065.091
542.6242, 1071.751
543.1063, 1075.168
543.5884, 1069.861
544.0706, 1055.533
544.5527, 1045.059
545.0348, 1051.060
545.5169, 1061.463
545.9990, 1065.119
546.4811, 1051.460
546.9633, 1041.970
547.4454, 1043.343
547.9275, 1051.941
548.4096, 1059.320
548.8917, 1066.925
549.3738, 1071.022
549.8560, 1069.714
550.3381, 1062.976
550.8202, 1057.021
551.3023, 1050.699
551.7844, 1047.773
552.2665, 1052.680
552.7487, 1065.383
553.2308, 1076.323
553.7129, 1084.791
554.1950, 1090.564
554.6771, 1093.774
555.1592, 1094.138
555.6414, 1090.357
556.1235, 1076.027
556.6056, 1061.240
557.0877, 1059.814
557.5698, 1069.859
558.0519, 1079.388
558.5341, 1081.096
559.0162, 1079.784
559.4983, 1078.919
559.9804, 1078.890
560.4625, 1079.699
560.9446, 1082.570
561.4268, 1085.821
561.9089, 1087.306
562.3910, 1082.320
562.8731, 1082.085
563.3552, 1091.635
563.8373, 1107.267
564.3195, 1111.108
564.8016, 1097.983
565.2837, 1087.104
565.7658, 1090.754
566.2479, 1108.317
566.7300, 1117.268
567.2122, 1116.681
567.6943, 1112.076
568.1764, 1106.313
568.6585, 1100.914
569.1406, 1101.268
569.6227, 1110.743
570.1049, 1122.311
570.5870, 1130.322
571.0691, 1134.591
571.5512, 1134.949
572.0333, 1125.701
572.5154, 1117.146
572.9976, 1112.904
573.4797, 1105.480
573.9618, 1116.056
574.4439, 1122.690
574.9260, 1125.595
575.4081, 1113.598
575.8903, 1120.844
576.3724, 1120.377
576.8545, 1119.595
577.3366, 1129.548
577.8187, 1119.719
578.3008, 1129.502
578.7830, 1131.456
579.2651, 1136.993
579.7472, 1134.772
580.2293, 1134.947
580.7114, 1142.883
581.1935, 1146.521
581.6757, 1143.407
582.1578, 1149.172
582.6399, 1139.072
583.1220, 1142.893
583.6041, 1152.722
584.0862, 1148.566
584.5684, 1149.904
585.0505, 1151.178
585.5326, 1151.757
586.0147, 1153.505
586.4968, 1159.090
586.9789, 1166.227
587.4611, 1169.739
587.9432, 1163.457
588.4253, 1159.658
588.9074, 1163.079
589.3895, 1173.547
589.8716, 1175.981
590.3538, 1165.835
590.8359, 1157.370
591.3180, 1163.722
591.8001, 1184.918
592.2822, 1193.982
592.7643, 1187.194
593.2465, 1175.616
593.7286, 1172.895
594.2107, 1177.186
594.6928, 1182.214
595.1749, 1186.632
595.6570, 1190.133
596.1392, 1190.821
596.6213, 1190.011
597.1034, 1192.010
597.5854, 1202.233
598.0676, 1213.099
598.5497, 1219.666
599.0318, 1221.047
599.5139, 1224.026
599.9960, 1233.655
600.4781, 1242.405
600.9603, 1245.240
601.4424, 1239.866
601.9245, 1232.959
602.4066, 1222.258
602.8887, 1212.806
603.3708, 1214.558
603.8530, 1228.368
604.3351, 1241.521
604.8172, 1251.010
605.2993, 1256.640
605.7814, 1256.873
606.2635, 1252.119
606.7457, 1245.313
607.2278, 1233.469
607.7099, 1223.160
608.1920, 1224.804
608.6741, 1239.985
609.1563, 1252.764
609.6384, 1251.839
610.1205, 1245.993
610.6026, 1242.904
611.0847, 1244.500
611.5668, 1248.288
612.0490, 1256.101
612.5311, 1265.304
613.0132, 1271.981
613.4953, 1277.705
613.9774, 1277.057
614.4595, 1265.458
614.9417, 1246.684
615.4238, 1242.491
615.9059, 1254.526
616.3880, 1265.095
616.8701, 1258.975
617.3522, 1242.847
617.8344, 1238.480
618.3165, 1247.148
618.7986, 1257.187
619.2807, 1257.862
619.7628, 1254.128
620.2449, 1252.589
620.7271, 1256.190
621.2092, 1259.641
621.6913, 1260.468
622.1734, 1259.647
622.6555, 1258.818
623.1376, 1254.873
623.6198, 1255.003
624.1019, 1262.653
624.5840, 1276.130
625.0661, 1284.756
625.5482, 1287.094
626.0303, 1288.033
626.5125, 1291.206
626.9946, 1296.250
627.4767, 1292.858
627.9588, 1279.822
628.4409, 1267.531
628.9230, 1267.158
629.4052, 1274.985
629.8873, 1282.665
