##NAMES=Cerussite
##RRUFFID=R050174
##IDEAL CHEMISTRY=Pb^2+^CO_3_
##LOCALITY=Tsumeb mine, Tsumeb, Otavi District, Oshikoto, Namibia
##OWNER=RRUFF
##SOURCE=Marcus Origlieri
##DESCRIPTION=Colorless single crystal
##STATUS=The identification of this mineral has been confirmed by X-ray diffraction and chemical analysis
##URL=rruff.info/R050174
##MEASURED CHEMISTRY=Pb_1.00_CO_3_ ; C not measured but estimated by difference and stoichiometry
92.96582, 14058.04
93.44794, 13901.33
93.93005, 13922.30
94.41217, 14133.39
94.89429, 14263.16
95.37640, 14340.15
95.85852, 14384.82
96.34064, 14405.41
96.82275, 14408.78
97.30487, 14394.06
97.78699, 14379.92
98.26910, 14378.30
98.75122, 14376.38
99.23334, 14371.50
99.71545, 14356.97
100.1976, 14303.74
100.6797, 14240.39
101.1618, 14170.87
101.6439, 14088.37
102.1260, 13997.76
102.6081, 13887.69
103.0903, 13734.47
103.5724, 13521.03
104.0545, 13286.18
104.5366, 13039.51
105.0187, 12786.43
105.5008, 12537.31
105.9830, 12294.95
106.4651, 12057.20
106.9472, 11839.82
107.4293, 11638.89
107.9114, 11456.81
108.3935, 11295.68
108.8757, 11155.08
109.3578, 11035.40
109.8399, 10937.21
110.3220, 10864.39
110.8041, 10808.20
111.2862, 10769.77
111.7684, 10743.85
112.2505, 10726.51
112.7326, 10716.27
113.2147, 10714.79
113.6968, 10727.22
114.1789, 10755.79
114.6611, 10791.78
115.1432, 10837.94
115.6253, 10890.27
116.1074, 10941.46
116.5895, 10987.98
117.0716, 11031.00
117.5538, 11073.83
118.0359, 11118.72
118.5180, 11159.73
119.0001, 11189.82
119.4822, 11208.57
119.9643, 11228.31
120.4465, 11251.54
120.9286, 11280.81
121.4107, 11319.97
121.8928, 11370.93
122.3749, 11431.40
122.8570, 11496.68
123.3392, 11562.74
123.8213, 11642.57
124.3034, 11736.51
124.7855, 11844.15
125.2676, 11967.89
125.7497, 12111.33
126.2319, 12273.05
126.7140, 12428.35
127.1961, 12584.85
127.6782, 12727.23
128.1603, 12856.52
128.6424, 12969.10
129.1246, 13058.70
129.6067, 13121.46
130.0888, 13158.91
130.5709, 13150.63
131.0530, 13107.46
131.5351, 13022.92
132.0173, 12889.65
132.4994, 12707.76
132.9815, 12487.85
133.4636, 12239.46
133.9457, 11952.33
134.4278, 11660.20
134.9100, 11361.06
135.3921, 11058.86
135.8742, 10754.56
136.3563, 10446.38
136.8384, 10145.30
137.3205, 9870.227
137.8027, 9617.811
138.2848, 9384.223
138.7669, 9167.767
139.2490, 8968.162
139.7311, 8783.906
140.2132, 8612.868
140.6954, 8461.905
141.1775, 8336.233
141.6596, 8236.942
142.1417, 8152.363
142.6238, 8073.669
143.1059, 8000.587
143.5881, 7933.409
144.0702, 7869.146
144.5523, 7812.783
145.0344, 7770.134
145.5165, 7743.303
145.9986, 7726.263
146.4807, 7709.272
146.9629, 7695.405
147.4450, 7675.024
147.9271, 7644.401
148.4092, 7608.646
148.8913, 7573.499
149.3734, 7541.705
149.8556, 7511.039
150.3377, 7472.733
150.8198, 7421.025
151.3019, 7366.312
151.7840, 7313.920
152.2661, 7258.507
152.7483, 7191.115
153.2304, 7105.212
153.7125, 7001.741
154.1946, 6902.056
154.6767, 6812.712
155.1588, 6719.722
155.6410, 6614.636
156.1231, 6500.230
156.6052, 6387.413
157.0873, 6284.079
157.5694, 6191.240
158.0515, 6102.604
158.5337, 6014.904
159.0158, 5933.696
159.4979, 5864.058
159.9800, 5806.375
160.4621, 5757.401
160.9442, 5717.077
161.4264, 5683.852
161.9085, 5654.776
162.3906, 5626.988
162.8727, 5603.589
163.3548, 5590.122
163.8369, 5588.505
164.3191, 5593.414
164.8012, 5601.111
165.2833, 5611.782
165.7654, 5626.409
166.2475, 5647.124
166.7296, 5672.809
167.2118, 5697.690
167.6939, 5718.444
168.1760, 5742.509
168.6581, 5774.250
169.1402, 5811.814
169.6223, 5850.788
170.1045, 5886.318
170.5866, 5917.664
171.0687, 5954.128
171.5508, 6003.355
172.0329, 6051.420
172.5150, 6095.200
172.9972, 6133.542
173.4793, 6165.938
173.9614, 6191.592
174.4435, 6209.596
174.9256, 6223.119
175.4077, 6230.324
175.8899, 6235.573
176.3720, 6242.036
176.8541, 6249.753
177.3362, 6255.918
177.8183, 6256.937
178.3004, 6251.800
178.7826, 6242.229
179.2647, 6223.078
179.7468, 6202.792
180.2289, 6188.197
180.7110, 6181.061
181.1931, 6178.466
181.6752, 6176.118
182.1574, 6172.980
182.6395, 6173.455
183.1216, 6178.894
183.6037, 6187.997
184.0858, 6198.382
184.5679, 6208.898
185.0501, 6222.324
185.5322, 6242.565
186.0143, 6267.547
186.4964, 6302.921
186.9785, 6356.288
187.4606, 6421.667
187.9428, 6483.267
188.4249, 6532.610
188.9070, 6583.137
189.3891, 6650.860
189.8712, 6735.880
190.3533, 6828.382
190.8355, 6923.798
191.3176, 7022.219
191.7997, 7120.724
192.2818, 7218.587
192.7639, 7317.735
193.2460, 7419.181
193.7282, 7523.412
194.2103, 7630.549
194.6924, 7740.682
195.1745, 7854.819
195.6566, 7971.057
196.1387, 8087.469
196.6209, 8207.375
197.1030, 8334.762
197.5851, 8470.303
198.0672, 8607.036
198.5493, 8735.952
199.0314, 8854.396
199.5136, 8973.513
199.9957, 9092.646
200.4778, 9214.150
200.9599, 9339.271
201.4420, 9468.715
201.9241, 9602.175
202.4063, 9741.203
202.8884, 9893.558
203.3705, 10037.51
203.8526, 10166.31
204.3347, 10291.77
204.8168, 10424.53
205.2990, 10566.76
205.7811, 10713.20
206.2632, 10853.78
206.7453, 10982.47
207.2274, 11112.26
207.7095, 11251.81
208.1917, 11388.67
208.6738, 11510.50
209.1559, 11613.20
209.6380, 11701.82
210.1201, 11786.71
210.6022, 11881.16
211.0844, 11949.77
211.5665, 11988.22
212.0486, 12000.78
212.5307, 11992.42
213.0128, 11965.01
213.4949, 11917.16
213.9771, 11843.15
214.4592, 11745.85
214.9413, 11622.47
215.4234, 11467.17
215.9055, 11286.70
216.3876, 11088.65
216.8698, 10874.14
217.3519, 10647.00
217.8340, 10409.05
218.3161, 10161.27
218.7982, 9909.480
219.2803, 9651.955
219.7625, 9391.912
220.2446, 9134.400
220.7267, 8879.203
221.2088, 8631.213
221.6909, 8394.710
222.1730, 8168.285
222.6552, 7952.458
223.1373, 7747.994
223.6194, 7554.751
224.1015, 7369.034
224.5836, 7190.046
225.0657, 7019.500
225.5479, 6859.686
226.0300, 6710.457
226.5121, 6564.606
226.9942, 6415.060
227.4763, 6263.928
227.9584, 6119.251
228.4406, 5984.582
228.9227, 5856.338
229.4048, 5729.718
229.8869, 5604.713
230.3690, 5486.156
230.8511, 5379.420
231.3333, 5284.493
231.8154, 5190.638
232.2975, 5094.999
232.7796, 5002.101
233.2617, 4913.883
233.7438, 4830.729
234.2260, 4752.407
234.7081, 4680.151
235.1902, 4614.405
235.6723, 4547.819
236.1544, 4475.216
236.6365, 4405.336
237.1187, 4343.868
237.6008, 4289.653
238.0829, 4237.246
238.5650, 4180.860
239.0471, 4119.406
239.5292, 4062.010
240.0114, 4009.148
240.4935, 3960.241
240.9756, 3917.950
241.4577, 3880.164
241.9398, 3841.134
242.4219, 3794.476
242.9041, 3739.036
243.3862, 3686.191
243.8683, 3639.620
244.3504, 3592.480
244.8325, 3541.333
245.3146, 3487.349
245.7968, 3433.906
246.2789, 3384.405
246.7610, 3338.935
247.2431, 3295.102
247.7252, 3254.604
248.2073, 3213.877
248.6895, 3171.777
249.1716, 3128.277
249.6537, 3084.562
250.1358, 3041.741
250.6179, 2999.935
251.1000, 2955.355
251.5822, 2903.962
252.0643, 2853.882
252.5464, 2807.830
253.0285, 2765.458
253.5106, 2725.623
253.9927, 2687.328
254.4748, 2650.703
254.9570, 2614.690
255.4391, 2579.670
255.9212, 2544.619
256.4033, 2508.342
256.8854, 2471.717
257.3676, 2436.733
257.8497, 2404.923
258.3318, 2376.025
258.8139, 2345.866
259.2960, 2312.184
259.7781, 2280.005
260.2603, 2251.470
260.7424, 2225.725
261.2245, 2200.654
261.7066, 2175.376
262.1887, 2149.740
262.6708, 2123.020
263.1530, 2091.804
263.6351, 2063.346
264.1172, 2041.613
264.5993, 2024.262
265.0814, 2005.856
265.5635, 1983.555
266.0457, 1958.787
266.5278, 1936.426
267.0099, 1917.125
267.4920, 1898.330
267.9741, 1878.875
268.4562, 1859.357
268.9384, 1841.192
269.4204, 1825.195
269.9026, 1810.467
270.3847, 1795.131
270.8668, 1779.286
271.3489, 1762.971
271.8310, 1745.564
272.3131, 1727.895
272.7953, 1711.594
273.2774, 1697.429
273.7595, 1684.166
274.2416, 1669.494
274.7237, 1653.229
275.2058, 1637.606
275.6880, 1623.723
276.1701, 1610.761
276.6522, 1597.143
277.1343, 1582.084
277.6164, 1567.308
278.0985, 1555.434
278.5807, 1546.176
279.0628, 1536.640
279.5449, 1525.612
280.0270, 1513.955
280.5091, 1502.952
280.9912, 1492.915
281.4734, 1483.113
281.9555, 1472.387
282.4376, 1461.060
282.9197, 1451.086
283.4018, 1444.393
283.8839, 1438.703
284.3661, 1430.837
284.8482, 1420.397
285.3303, 1409.137
285.8124, 1397.542
286.2945, 1386.153
286.7766, 1376.517
287.2588, 1371.285
287.7409, 1366.690
288.2230, 1357.960
288.7051, 1344.783
289.1872, 1331.149
289.6693, 1318.545
290.1515, 1307.359
290.6336, 1298.733
291.1157, 1294.117
291.5978, 1290.465
292.0799, 1284.682
292.5620, 1276.742
293.0442, 1268.908
293.5263, 1262.440
294.0084, 1256.517
294.4905, 1250.009
294.9726, 1242.710
295.4547, 1235.088
295.9369, 1227.357
296.4190, 1219.550
296.9011, 1212.027
297.3832, 1204.538
297.8653, 1197.881
298.3474, 1192.931
298.8296, 1189.858
299.3117, 1187.177
299.7938, 1184.401
300.2759, 1181.354
300.7580, 1176.957
301.2401, 1170.370
301.7223, 1163.125
302.2044, 1156.975
302.6865, 1151.727
303.1686, 1145.858
303.6507, 1137.603
304.1328, 1127.958
304.6150, 1120.195
305.0971, 1114.890
305.5792, 1111.090
306.0613, 1108.888
306.5434, 1107.640
307.0255, 1105.606
307.5077, 1102.402
307.9898, 1097.836
308.4719, 1091.107
308.9540, 1081.576
309.4361, 1071.850
309.9182, 1062.254
310.4004, 1053.763
310.8825, 1048.393
311.3646, 1048.322
311.8467, 1050.122
312.3288, 1049.169
312.8109, 1045.219
313.2931, 1040.089
313.7752, 1032.524
314.2573, 1025.196
314.7394, 1021.958
315.2215, 1024.898
315.7036, 1028.217
316.1858, 1025.657
316.6679, 1017.273
317.1500, 1008.963
317.6321, 1002.081
318.1142, 996.5169
318.5963, 992.0477
319.0785, 988.6841
319.5606, 986.1753
320.0427, 984.7379
320.5248, 984.1637
321.0069, 983.3389
321.4890, 982.3529
321.9712, 980.5859
322.4533, 976.9745
322.9354, 971.8602
323.4175, 967.6354
323.8996, 966.9313
324.3817, 967.9860
324.8639, 965.6862
325.3460, 958.5533
325.8281, 950.7068
326.3102, 944.9908
326.7923, 940.8774
327.2744, 937.3898
327.7566, 933.8086
328.2387, 930.8768
328.7208, 930.5573
329.2029, 933.5420
329.6850, 935.1516
330.1671, 931.9000
330.6493, 925.8420
331.1314, 919.7518
331.6135, 913.9855
332.0956, 908.5206
332.5777, 903.0604
333.0598, 897.6511
333.5420, 893.5566
334.0241, 892.6912
334.5062, 892.2314
334.9883, 888.2831
335.4704, 880.2263
335.9525, 871.5533
336.4347, 864.3558
336.9168, 858.3596
337.3989, 852.6119
337.8810, 846.7651
338.3631, 841.3415
338.8452, 836.6603
339.3274, 832.7064
339.8094, 829.7012
340.2916, 829.2637
340.7737, 829.4536
341.2558, 826.2743
341.7379, 818.6456
342.2200, 810.6420
342.7021, 805.7826
343.1843, 803.2688
343.6664, 800.8399
344.1485, 798.3891
344.6306, 795.6222
345.1127, 792.1461
345.5948, 787.9698
346.0770, 783.5974
346.5591, 779.3724
347.0412, 775.0654
347.5233, 770.1417
348.0054, 763.6760
348.4875, 758.0153
348.9697, 754.5991
349.4518, 753.1322
349.9339, 752.9840
350.4160, 754.4928
350.8981, 756.2936
351.3802, 756.1141
351.8624, 754.0480
352.3445, 750.6434
352.8266, 745.2185
353.3087, 738.8146
353.7908, 732.8406
354.2729, 727.5405
354.7551, 723.0187
355.2372, 719.4949
355.7193, 716.9963
356.2014, 714.9091
356.6835, 713.0970
357.1656, 711.7487
357.6478, 711.8529
358.1299, 713.0944
358.6120, 712.6918
359.0941, 708.1645
359.5762, 700.2830
360.0583, 694.5583
360.5405, 692.1661
361.0226, 690.3738
361.5047, 688.0905
361.9868, 685.5594
362.4689, 683.6126
362.9510, 682.8271
363.4332, 682.1424
363.9153, 678.7772
364.3974, 670.3903
364.8795, 664.0193
365.3616, 662.0411
365.8438, 661.8063
366.3259, 660.2602
366.8080, 656.7677
367.2901, 653.2350
367.7722, 652.2799
368.2543, 655.2085
368.7365, 654.7856
369.2186, 648.4834
369.7007, 641.3113
370.1828, 635.9418
370.6649, 632.3470
371.1470, 629.3713
371.6292, 626.2129
372.1113, 622.9014
372.5934, 619.7824
373.0755, 617.1554
373.5576, 614.3768
374.0397, 610.7939
374.5219, 607.1368
375.0040, 604.4786
375.4861, 603.2641
375.9682, 603.0863
376.4503, 603.1683
376.9324, 604.8528
377.4146, 604.4952
377.8967, 600.0881
378.3788, 595.2274
378.8609, 592.7844
379.3430, 592.9667
379.8251, 593.7205
380.3073, 592.6251
380.7894, 589.1682
381.2715, 587.5153
381.7536, 590.2570
382.2357, 592.2082
382.7178, 591.1559
383.2000, 588.0245
383.6821, 584.7337
384.1642, 582.3783
384.6463, 580.9015
385.1284, 580.1283
385.6105, 580.3674
386.0927, 580.8594
386.5748, 581.6465
387.0569, 582.4819
387.5390, 583.2285
388.0211, 583.8354
388.5032, 584.1063
388.9854, 583.6443
389.4675, 582.2850
389.9496, 581.1281
390.4317, 580.4585
390.9138, 579.8998
391.3959, 578.9221
391.8781, 577.7866
392.3602, 577.4603
392.8423, 578.9342
393.3244, 581.8526
393.8065, 584.6184
394.2886, 587.5365
394.7708, 589.6193
395.2529, 590.5493
395.7350, 590.4094
396.2171, 588.9838
396.6992, 585.6866
397.1813, 582.1908
397.6635, 580.6277
398.1456, 581.0575
398.6277, 582.0258
399.1098, 583.3016
399.5919, 584.7690
400.0740, 586.5717
400.5562, 588.7686
401.0383, 590.1120
401.5204, 589.3341
402.0025, 587.2082
402.4846, 585.5580
402.9667, 584.5398
403.4489, 584.3087
403.9310, 585.7382
404.4131, 588.2422
404.8952, 589.6418
405.3773, 588.9508
405.8594, 587.4493
406.3416, 586.0055
406.8237, 584.6652
407.3058, 583.6396
407.7879, 583.0579
408.2700, 582.8584
408.7521, 582.8995
409.2343, 583.2986
409.7164, 583.6509
410.1985, 584.1020
410.6806, 584.3427
411.1627, 583.7717
411.6448, 582.2396
412.1269, 580.4510
412.6090, 579.3880
413.0912, 579.3953
413.5733, 577.9630
414.0554, 573.2159
414.5375, 568.7504
415.0196, 566.3671
415.5017, 566.0563
415.9839, 567.6555
416.4660, 571.4328
416.9481, 576.4002
417.4302, 577.7971
417.9123, 570.4165
418.3944, 565.8029
418.8766, 567.0607
419.3587, 570.4753
419.8408, 572.3127
420.3229, 571.5712
420.8050, 569.6649
421.2871, 568.3879
421.7693, 567.7809
422.2514, 567.6946
422.7335, 568.3123
423.2156, 569.2416
423.6977, 571.2272
424.1798, 573.4094
424.6620, 573.7684
425.1441, 570.6301
425.6262, 565.2109
426.1083, 562.2533
426.5904, 562.9677
427.0725, 563.8886
427.5547, 564.6677
428.0368, 565.0146
428.5189, 564.3502
429.0010, 562.5977
429.4831, 560.9180
429.9652, 560.8585
430.4474, 562.4207
430.9295, 563.3024
431.4116, 563.0634
431.8937, 562.3408
432.3758, 561.3707
432.8579, 560.2767
433.3401, 559.4612
433.8222, 559.8265
434.3043, 560.1039
434.7864, 557.5319
435.2685, 551.7181
435.7506, 547.3248
436.2328, 547.7192
436.7149, 549.9819
437.1970, 549.0294
437.6791, 543.6026
438.1612, 538.9471
438.6433, 539.0240
439.1255, 541.6725
439.6076, 542.1309
440.0897, 539.2466
440.5718, 535.4407
441.0539, 533.1168
441.5360, 532.3127
442.0182, 531.3547
442.5003, 530.9130
442.9824, 529.6392
443.4645, 525.4864
443.9466, 519.5910
444.4287, 515.8530
444.9109, 516.5764
445.3930, 519.7480
445.8751, 519.8757
446.3572, 514.3132
446.8393, 509.6625
447.3214, 506.9293
447.8036, 504.7794
448.2857, 502.1115
448.7678, 498.7562
449.2499, 494.9703
449.7320, 490.8031
450.2141, 486.1371
450.6963, 483.5296
451.1784, 485.1351
451.6605, 486.4883
452.1426, 486.8141
452.6247, 486.1625
453.1068, 484.3672
453.5890, 481.3445
454.0711, 478.1322
454.5532, 477.0153
455.0353, 478.9838
455.5174, 479.5611
455.9995, 476.1161
456.4817, 472.8365
456.9638, 472.6193
457.4459, 474.7903
457.9280, 476.1061
458.4101, 473.5352
458.8922, 468.6403
459.3744, 466.6133
459.8565, 468.2835
460.3386, 470.1542
460.8207, 471.2885
461.3028, 471.3778
461.7849, 469.3559
462.2671, 464.2732
462.7492, 460.1627
463.2313, 461.3587
463.7134, 465.9617
464.1955, 467.8617
464.6776, 465.4024
465.1598, 461.4127
465.6419, 458.2853
466.1240, 456.0289
466.6061, 454.6732
467.0882, 454.7692
467.5703, 455.3172
468.0525, 455.6692
468.5346, 455.8776
469.0167, 456.3867
469.4988, 457.5599
469.9809, 458.7091
470.4630, 458.1374
470.9452, 454.3162
471.4273, 451.4732
471.9094, 450.0348
472.3915, 449.4306
472.8736, 449.3690
473.3557, 449.7292
473.8379, 450.3869
474.3200, 451.2796
474.8021, 452.3825
475.2842, 453.2779
475.7663, 454.7335
476.2484, 454.9296
476.7306, 452.4382
477.2127, 449.1314
477.6948, 447.0141
478.1769, 446.6696
478.6590, 447.1622
479.1411, 447.4766
479.6233, 447.6310
480.1054, 447.4340
480.5875, 447.0252
481.0696, 446.0243
481.5517, 443.6962
482.0338, 440.7332
482.5159, 438.6536
482.9980, 438.5459
483.4802, 439.0067
483.9623, 437.7213
484.4444, 434.6834
484.9265, 432.5956
485.4086, 432.8127
485.8907, 433.8526
486.3729, 433.9954
486.8550, 433.2776
487.3371, 431.6864
487.8192, 428.0827
488.3013, 424.2248
488.7834, 422.5382
489.2656, 423.0357
489.7477, 423.5165
490.2298, 422.4415
490.7119, 420.2598
491.1940, 419.2644
491.6761, 420.7830
492.1583, 421.4896
492.6404, 420.3864
493.1225, 418.3553
493.6046, 416.3224
494.0867, 414.4949
494.5688, 412.5176
495.0510, 409.8528
495.5331, 406.3383
496.0152, 404.3829
496.4973, 406.1748
496.9794, 407.1458
497.4615, 405.3560
497.9437, 402.4070
498.4258, 400.6278
498.9079, 400.8957
499.3900, 401.8415
499.8721, 401.4297
500.3542, 399.5124
500.8364, 397.3806
501.3185, 394.6653
501.8006, 392.3250
502.2827, 391.0965
502.7648, 390.6465
503.2469, 390.0350
503.7291, 388.6043
504.2112, 387.0778
504.6933, 386.7912
505.1754, 387.6855
505.6575, 387.8616
506.1396, 386.5264
506.6218, 384.2847
507.1039, 381.6595
507.5860, 378.4987
508.0681, 376.5068
508.5502, 377.0450
509.0323, 378.3737
509.5145, 378.7345
509.9966, 378.1218
510.4787, 377.4559
510.9608, 377.3635
511.4429, 377.5972
511.9250, 377.1503
512.4072, 374.7602
512.8893, 373.3755
513.3714, 374.5273
513.8535, 375.8682
514.3356, 374.7841
514.8177, 371.4019
515.2999, 368.3721
515.7820, 368.3596
516.2641, 371.0475
516.7462, 372.1075
517.2283, 370.4105
517.7104, 368.6989
518.1926, 367.6813
518.6747, 366.9567
519.1568, 365.9014
519.6389, 364.4004
520.1210, 363.4494
520.6031, 364.9505
521.0853, 368.2484
521.5674, 368.5027
522.0495, 363.9118
522.5316, 359.6781
523.0137, 360.4270
523.4958, 363.9146
523.9780, 365.8759
524.4601, 365.2617
524.9422, 363.6680
525.4243, 361.2809
525.9064, 358.7629
526.3885, 357.8098
526.8707, 358.9054
527.3528, 361.1636
527.8349, 364.0899
528.3170, 368.0108
528.7991, 368.7009
529.2813, 363.5743
529.7634, 358.2651
530.2455, 354.2075
530.7276, 351.7794
531.2097, 351.9423
531.6918, 354.9795
532.1740, 358.7751
532.6561, 359.5318
533.1382, 355.7506
533.6203, 354.0619
534.1024, 357.2674
534.5845, 359.8929
535.0667, 359.4385
535.5488, 356.9859
536.0309, 354.8832
536.5130, 354.3194
536.9951, 354.1925
537.4772, 352.5074
537.9594, 349.2058
538.4415, 346.9715
538.9236, 346.8191
539.4057, 347.3294
539.8878, 346.8300
540.3699, 345.6253
540.8521, 345.5566
541.3342, 349.2040
541.8163, 352.5276
542.2984, 350.9512
542.7805, 345.7502
543.2626, 342.0965
543.7448, 342.2703
544.2269, 344.3071
544.7090, 344.8495
545.1911, 343.1388
545.6732, 341.8481
546.1553, 341.1299
546.6375, 340.6804
547.1196, 340.6450
547.6017, 340.7148
548.0838, 340.0392
548.5659, 338.0749
549.0480, 335.8248
549.5302, 336.1486
550.0123, 340.9790
550.4944, 342.6045
550.9765, 335.7089
551.4586, 329.2258
551.9407, 328.5618
552.4229, 332.2438
552.9050, 335.0783
553.3871, 333.8540
553.8692, 330.9510
554.3513, 330.1763
554.8334, 331.4825
555.3156, 332.5680
555.7977, 332.8023
556.2798, 332.3736
556.7619, 331.1485
557.2440, 329.1103
557.7261, 327.9546
558.2083, 328.6522
558.6904, 329.8029
559.1725, 330.8395
559.6546, 331.4401
560.1367, 330.6932
560.6188, 328.0943
561.1010, 324.5744
561.5831, 321.9846
562.0652, 319.9832
562.5473, 319.8096
563.0294, 323.4556
563.5115, 326.7313
563.9937, 327.3900
564.4758, 326.0304
564.9579, 324.0871
565.4400, 322.1303
565.9221, 320.7273
566.4042, 321.4253
566.8864, 324.6334
567.3685, 326.4583
567.8506, 325.2697
568.3327, 323.6165
568.8148, 323.4328
569.2969, 324.4434
569.7791, 325.6371
570.2612, 327.1613
570.7433, 328.3039
571.2254, 328.1846
571.7075, 327.0947
572.1896, 326.0100
572.6718, 325.2151
573.1539, 324.7234
573.6360, 324.6052
574.1181, 324.9825
574.6002, 325.1346
575.0823, 324.3564
575.5645, 324.1108
576.0466, 325.8620
576.5287, 328.3508
577.0108, 329.4400
577.4929, 328.3260
577.9750, 326.0549
578.4572, 323.8482
578.9393, 321.5199
579.4214, 320.6695
579.9035, 322.5777
580.3856, 324.3828
580.8677, 324.4941
581.3499, 323.7695
581.8320, 323.6429
582.3141, 324.6795
582.7962, 325.8734
583.2783, 326.6811
583.7604, 326.9406
584.2426, 325.6492
584.7247, 322.3342
585.2068, 319.5308
585.6889, 319.5856
586.1710, 322.1865
586.6531, 324.1295
587.1352, 326.3891
587.6173, 326.8340
588.0994, 323.1260
588.5815, 318.1917
