##NAMES=Cerussite
##RRUFFID=R050023
##IDEAL CHEMISTRY=Pb^2+^CO_3_
##LOCALITY=Mammoth - St Anthony mine, Tiger, Pinal County, Arizona, USA
##OWNER=RRUFF
##SOURCE=Eugene Schlepp
##DESCRIPTION=Prismatic white single crystals
##STATUS=The identification of this mineral has been confirmed by X-ray diffraction and chemical analysis
##URL=rruff.info/R050023
##MEASURED CHEMISTRY=Pb_1.00_CO_3_ ; CO_2_ not measured but estimated by difference and stoichiometry
93.53876, 37.71600
94.02087, 34.02852
94.50299, 31.31206
94.98511, 31.71176
95.46722, 34.58754
95.94934, 37.71427
96.43146, 38.82382
96.91357, 37.24058
97.39569, 36.65729
97.87781, 38.11910
98.35992, 39.53400
98.84204, 39.51112
99.32416, 38.05752
99.80627, 36.35559
100.2884, 35.86343
100.7705, 37.05296
101.2526, 38.50594
101.7347, 40.00801
102.2169, 41.86473
102.6990, 44.70436
103.1811, 48.61521
103.6632, 52.55793
104.1453, 54.67964
104.6274, 54.09707
105.1096, 53.92211
105.5917, 54.79374
106.0738, 56.16002
106.5559, 57.06312
107.0380, 57.03264
107.5201, 56.98230
108.0023, 58.85479
108.4844, 62.78054
108.9665, 67.21564
109.4486, 71.59377
109.9307, 76.08624
110.4128, 81.29243
110.8950, 87.90948
111.3771, 94.74990
111.8592, 99.81676
112.3413, 102.7463
112.8234, 105.1460
113.3055, 107.2336
113.7877, 109.2052
114.2698, 112.8115
114.7519, 118.4888
115.2340, 126.5947
115.7161, 138.0459
116.1982, 154.1394
116.6804, 170.1329
117.1625, 180.2372
117.6446, 183.6057
118.1267, 188.2323
118.6088, 197.8218
119.0909, 209.8746
119.5731, 222.9086
120.0552, 236.6982
120.5373, 250.7709
121.0194, 263.9592
121.5015, 275.2282
121.9836, 288.6502
122.4658, 304.6272
122.9479, 323.5316
123.4300, 345.9091
123.9121, 372.0848
124.3942, 401.8319
124.8763, 434.4816
125.3585, 471.3159
125.8406, 509.7386
126.3227, 550.7491
126.8048, 592.2369
127.2869, 631.0338
127.7690, 664.4351
128.2512, 695.7287
128.7333, 737.3650
129.2154, 798.3454
129.6975, 859.4909
130.1796, 920.2825
130.6617, 978.3664
131.1439, 1029.575
131.6260, 1070.774
132.1081, 1103.684
132.5902, 1141.809
133.0723, 1205.341
133.5544, 1253.073
134.0366, 1269.734
134.5187, 1265.151
135.0008, 1255.991
135.4829, 1253.015
135.9650, 1256.057
136.4471, 1262.564
136.9293, 1271.921
137.4114, 1284.891
137.8935, 1303.060
138.3756, 1325.209
138.8577, 1348.314
139.3398, 1369.541
139.8220, 1388.867
140.3041, 1418.036
140.7862, 1457.222
141.2683, 1503.352
141.7504, 1553.897
142.2325, 1609.665
142.7147, 1674.104
143.1968, 1751.335
143.6789, 1841.569
144.1610, 1930.823
144.6431, 2022.477
145.1252, 2110.187
145.6074, 2188.049
146.0895, 2257.167
146.5716, 2326.132
147.0537, 2403.844
147.5358, 2489.591
148.0179, 2560.558
148.5001, 2609.970
148.9822, 2649.970
149.4643, 2691.812
149.9464, 2735.729
150.4285, 2769.998
150.9106, 2785.756
151.3928, 2781.757
151.8749, 2764.400
152.3570, 2727.246
152.8391, 2680.882
153.3212, 2632.448
153.8033, 2582.387
154.2855, 2534.246
154.7676, 2492.539
155.2497, 2455.358
155.7318, 2415.045
156.2139, 2365.305
156.6960, 2314.356
157.1782, 2272.408
157.6603, 2240.872
158.1424, 2212.288
158.6245, 2179.349
159.1066, 2144.947
159.5887, 2117.083
160.0709, 2100.115
160.5530, 2090.018
161.0351, 2080.561
161.5172, 2070.518
161.9993, 2065.425
162.4814, 2072.742
162.9636, 2087.731
163.4457, 2102.624
163.9278, 2108.300
164.4099, 2113.988
164.8920, 2140.062
165.3741, 2194.173
165.8563, 2247.041
166.3384, 2278.404
166.8205, 2296.415
167.3026, 2313.758
167.7847, 2334.294
168.2668, 2357.875
168.7490, 2385.302
169.2311, 2419.286
169.7132, 2451.142
170.1953, 2474.598
170.6774, 2493.400
171.1595, 2513.356
171.6417, 2537.964
172.1238, 2565.071
172.6059, 2589.308
173.0880, 2610.112
173.5701, 2628.975
174.0522, 2647.481
174.5344, 2664.770
175.0165, 2679.335
175.4986, 2690.966
175.9807, 2699.202
176.4628, 2703.341
176.9449, 2704.805
177.4271, 2698.636
177.9092, 2679.862
178.3913, 2654.382
178.8734, 2630.209
179.3555, 2611.386
179.8376, 2595.949
180.3197, 2578.146
180.8019, 2558.288
181.2840, 2535.069
181.7661, 2506.925
182.2482, 2476.146
182.7303, 2445.759
183.2124, 2417.335
183.6946, 2390.007
184.1767, 2360.522
184.6588, 2324.975
185.1409, 2294.848
185.6230, 2274.939
186.1051, 2260.611
186.5873, 2246.107
187.0694, 2228.409
187.5515, 2210.047
188.0336, 2197.829
188.5157, 2195.617
188.9978, 2193.400
189.4800, 2187.181
189.9621, 2180.558
190.4442, 2176.692
190.9263, 2176.879
191.4084, 2181.455
191.8905, 2191.800
192.3727, 2211.599
192.8548, 2230.989
193.3369, 2246.936
193.8190, 2262.388
194.3011, 2280.409
194.7832, 2302.240
195.2654, 2326.426
195.7475, 2349.568
196.2296, 2370.798
196.7117, 2392.974
197.1938, 2412.778
197.6759, 2435.405
198.1581, 2467.400
198.6402, 2510.733
199.1223, 2558.132
199.6044, 2595.401
200.0865, 2615.885
200.5686, 2639.327
201.0508, 2664.699
201.5329, 2694.752
202.0150, 2733.649
202.4971, 2782.015
202.9792, 2833.183
203.4613, 2876.108
203.9435, 2906.219
204.4256, 2937.925
204.9077, 2972.977
205.3898, 3008.923
205.8719, 3043.247
206.3540, 3075.863
206.8362, 3109.622
207.3183, 3149.345
207.8004, 3197.787
208.2825, 3244.531
208.7646, 3294.630
209.2467, 3339.552
209.7289, 3373.076
210.2110, 3394.983
210.6931, 3410.436
211.1752, 3425.893
211.6573, 3443.581
212.1395, 3452.312
212.6216, 3445.272
213.1037, 3435.774
213.5858, 3434.198
214.0679, 3437.935
214.5500, 3434.090
215.0322, 3406.942
215.5143, 3351.065
215.9964, 3308.599
216.4785, 3292.538
216.9606, 3277.441
217.4427, 3257.333
217.9249, 3230.248
218.4070, 3194.281
218.8891, 3146.447
219.3712, 3086.324
219.8533, 3029.693
220.3354, 2977.727
220.8176, 2928.347
221.2997, 2882.676
221.7818, 2839.215
222.2639, 2795.008
222.7460, 2747.977
223.2281, 2698.295
223.7103, 2652.088
224.1924, 2614.541
224.6745, 2574.710
225.1566, 2527.807
225.6387, 2477.587
226.1208, 2428.930
226.6030, 2384.429
227.0851, 2344.558
227.5672, 2312.118
228.0493, 2297.930
228.5314, 2276.229
229.0135, 2240.907
229.4957, 2197.055
229.9778, 2148.620
230.4599, 2097.065
230.9420, 2046.033
231.4241, 2004.658
231.9062, 1978.602
232.3884, 1953.431
232.8705, 1928.613
233.3526, 1903.094
233.8347, 1874.469
234.3168, 1842.270
234.7989, 1810.086
235.2811, 1784.975
235.7632, 1770.740
236.2453, 1754.489
236.7274, 1732.297
237.2095, 1709.787
237.6916, 1690.475
238.1738, 1675.099
238.6559, 1662.084
239.1380, 1649.370
239.6201, 1636.521
240.1022, 1625.587
240.5843, 1624.122
241.0665, 1618.480
241.5486, 1597.748
242.0307, 1564.175
242.5128, 1531.305
242.9949, 1513.832
243.4770, 1513.484
243.9592, 1507.427
244.4413, 1489.278
244.9234, 1471.044
245.4055, 1458.881
245.8876, 1450.515
246.3697, 1439.380
246.8519, 1419.153
247.3340, 1391.266
247.8161, 1370.367
248.2982, 1363.656
248.7803, 1354.308
249.2624, 1333.825
249.7446, 1307.450
250.2267, 1284.117
250.7088, 1269.197
251.1909, 1259.566
251.6730, 1246.644
252.1551, 1230.996
252.6373, 1210.354
253.1194, 1178.239
253.6015, 1143.738
254.0836, 1117.196
254.5657, 1103.019
255.0478, 1095.500
255.5300, 1085.963
256.0121, 1074.045
256.4942, 1061.552
256.9763, 1048.723
257.4584, 1035.673
257.9406, 1021.829
258.4227, 1007.024
258.9048, 993.1537
259.3869, 983.6505
259.8690, 978.8535
260.3511, 969.7355
260.8333, 950.4054
261.3154, 929.7076
261.7975, 914.3445
262.2796, 904.3244
262.7617, 894.6876
263.2438, 880.0306
263.7260, 861.8840
264.2081, 850.1478
264.6902, 849.5145
265.1723, 849.8221
265.6544, 843.7658
266.1365, 832.5669
266.6187, 820.0607
267.1008, 806.8199
267.5829, 793.7077
268.0650, 783.1297
268.5471, 776.0627
269.0292, 768.5632
269.5114, 754.7042
269.9935, 738.8370
270.4756, 729.2036
270.9577, 733.2997
271.4398, 740.0963
271.9219, 735.3933
272.4041, 718.7898
272.8862, 704.1910
273.3683, 699.8433
273.8504, 701.3488
274.3325, 699.8162
274.8146, 693.7645
275.2968, 686.6143
275.7789, 680.2712
276.2610, 674.6567
276.7431, 669.1108
277.2252, 662.7438
277.7073, 657.3218
278.1895, 656.9318
278.6716, 663.2549
279.1537, 666.0768
279.6358, 658.0437
280.1179, 644.9299
280.6000, 637.0052
281.0822, 636.8416
281.5643, 639.9504
282.0464, 642.0693
282.5285, 643.3715
283.0106, 641.3253
283.4927, 632.2854
283.9749, 621.8881
284.4570, 615.4943
284.9391, 613.3724
285.4212, 612.0414
285.9033, 608.5443
286.3854, 602.9810
286.8676, 599.4490
287.3497, 600.0845
287.8318, 600.4824
288.3139, 598.4221
288.7960, 594.3738
289.2781, 590.0763
289.7603, 586.7036
290.2424, 583.4669
290.7245, 576.9771
291.2066, 560.0556
291.6887, 548.9005
292.1708, 551.5591
292.6530, 559.3180
293.1351, 560.3934
293.6172, 550.7599
294.0993, 536.5928
294.5814, 529.0349
295.0635, 533.3886
295.5457, 534.5390
296.0278, 532.2998
296.5099, 527.2864
296.9920, 517.4656
297.4741, 504.0768
297.9562, 493.0027
298.4384, 490.8422
298.9205, 499.1691
299.4026, 505.5931
299.8847, 508.0442
300.3668, 510.7162
300.8489, 517.6379
301.3311, 525.8931
301.8131, 528.7800
302.2953, 521.0075
302.7774, 505.2796
303.2595, 495.6595
303.7416, 496.6434
304.2237, 497.4430
304.7058, 494.8529
305.1880, 491.3578
305.6701, 490.5460
306.1522, 493.8858
306.6343, 497.4646
307.1164, 493.5352
307.5985, 479.0625
308.0807, 468.4778
308.5628, 466.2614
309.0449, 467.5096
309.5270, 471.1615
310.0091, 476.5323
310.4912, 480.4886
310.9734, 478.3077
311.4555, 470.9204
311.9376, 469.3200
312.4197, 478.0002
312.9018, 487.2408
313.3839, 491.9514
313.8661, 492.5963
314.3482, 490.0342
314.8303, 481.7447
315.3124, 471.7585
315.7945, 468.1924
316.2766, 472.2178
316.7588, 475.7370
317.2409, 472.7933
317.7230, 467.1387
318.2051, 465.0896
318.6872, 468.4954
319.1693, 473.6562
319.6515, 479.8993
320.1336, 486.2083
320.6157, 487.6047
321.0978, 481.2338
321.5799, 471.0204
322.0620, 461.6226
322.5442, 451.8233
323.0263, 448.2852
323.5084, 458.6243
323.9905, 473.8398
324.4726, 482.1282
324.9547, 481.5470
325.4369, 477.1310
325.9190, 472.9401
326.4011, 468.9673
326.8832, 467.1602
327.3653, 469.0346
327.8474, 471.5788
328.3296, 473.5576
328.8117, 474.8383
329.2938, 475.2207
329.7759, 474.4390
330.2580, 472.9359
330.7401, 472.7493
331.2223, 476.2329
331.7044, 478.1118
332.1865, 476.8045
332.6686, 474.1038
333.1507, 471.4255
333.6328, 469.3572
334.1150, 468.5768
334.5971, 470.7372
335.0792, 478.7215
335.5613, 481.6011
336.0434, 475.9749
336.5255, 468.9092
337.0077, 463.4413
337.4898, 459.7571
337.9719, 456.6039
338.4540, 452.3654
338.9361, 447.6943
339.4182, 449.0446
339.9004, 461.8931
340.3825, 472.7277
340.8646, 477.3436
341.3467, 478.0572
341.8288, 477.4590
342.3109, 476.3222
342.7931, 475.1789
343.2752, 474.8543
343.7573, 475.4320
344.2394, 476.2767
344.7215, 477.7799
345.2036, 479.0490
345.6858, 478.9456
346.1679, 477.4909
346.6500, 476.7468
347.1321, 479.2378
347.6142, 483.4167
348.0963, 484.1454
348.5785, 479.5390
349.0606, 475.8252
349.5427, 479.6286
350.0248, 488.4909
350.5069, 495.1746
350.9890, 496.9044
351.4712, 497.2266
351.9533, 498.8849
352.4354, 501.6897
352.9175, 504.8706
353.3996, 508.6345
353.8817, 511.8960
354.3639, 511.1403
354.8460, 503.9811
355.3281, 498.7186
355.8102, 498.0269
356.2923, 499.8217
356.7744, 502.5754
357.2566, 505.7374
357.7387, 507.4799
358.2208, 505.4480
358.7029, 498.6404
359.1850, 493.5528
359.6671, 490.6370
360.1493, 488.7134
360.6314, 488.2401
361.1135, 488.3094
361.5956, 486.9796
362.0777, 482.9342
362.5598, 477.2081
363.0420, 473.7894
363.5241, 475.6989
364.0062, 474.9764
364.4883, 468.3767
364.9704, 460.5111
365.4525, 455.2011
365.9347, 453.2690
366.4168, 452.9238
366.8989, 452.4052
367.3810, 451.6988
367.8631, 451.1006
368.3452, 451.7172
368.8274, 451.0149
369.3095, 446.9297
369.7916, 440.6437
370.2737, 435.0300
370.7558, 431.7069
371.2379, 429.5896
371.7201, 426.8954
372.2022, 423.5608
372.6843, 420.3112
373.1664, 417.5353
373.6485, 414.9846
374.1306, 412.6492
374.6128, 411.0827
375.0949, 407.7422
375.5770, 399.1557
376.0591, 388.2459
376.5412, 380.8580
377.0233, 378.2575
377.5055, 378.7390
377.9876, 381.7190
378.4697, 387.5802
378.9518, 389.3047
379.4339, 383.1085
379.9160, 376.0749
380.3982, 372.9409
380.8803, 372.5461
381.3624, 370.8070
381.8445, 365.2831
382.3266, 357.7195
382.8087, 353.3670
383.2909, 355.9594
383.7730, 357.0596
384.2551, 355.9371
384.7372, 353.6363
385.2193, 350.3426
385.7014, 346.4719
386.1836, 343.4133
386.6657, 343.1810
387.1478, 346.0684
387.6299, 346.0148
388.1120, 339.0284
388.5941, 333.7033
389.0763, 334.8449
389.5584, 338.9502
390.0405, 340.2014
390.5226, 335.6361
391.0047, 328.6193
391.4868, 324.1268
391.9690, 322.2840
392.4511, 322.0671
392.9332, 324.5156
393.4153, 327.3733
393.8974, 328.4886
394.3795, 327.8471
394.8617, 326.7436
395.3438, 325.1799
395.8259, 323.7727
396.3080, 324.3466
396.7901, 327.2473
397.2722, 328.5193
397.7544, 324.3134
398.2365, 316.0906
398.7186, 311.7360
399.2007, 314.3178
399.6828, 317.2641
400.1649, 317.5981
400.6471, 316.7314
401.1292, 317.4914
401.6113, 320.8258
402.0934, 324.4441
402.5755, 324.8900
403.0576, 320.9541
403.5398, 317.3492
404.0219, 314.6987
404.5040, 311.7235
404.9861, 306.3230
405.4682, 299.9937
405.9503, 296.7106
406.4325, 299.4249
406.9146, 306.0286
407.3967, 308.8317
407.8788, 305.8601
408.3609, 303.0736
408.8430, 301.3461
409.3252, 300.4049
409.8073, 300.0860
410.2894, 300.3556
410.7715, 301.2163
411.2536, 303.5394
411.7357, 306.7244
412.2179, 307.2623
412.7000, 304.0600
413.1821, 300.2886
413.6642, 297.4004
414.1463, 295.5548
414.6284, 295.5417
415.1106, 299.0508
415.5927, 302.5374
416.0748, 303.5793
416.5569, 302.5094
417.0390, 299.6641
417.5211, 294.5959
418.0033, 289.9567
418.4854, 290.3849
418.9675, 298.5424
419.4496, 302.5246
419.9317, 298.2336
420.4138, 292.6604
420.8960, 290.2001
421.3781, 290.6867
421.8602, 292.1728
422.3423, 293.4810
422.8244, 294.6455
423.3065, 295.8083
423.7887, 296.9717
424.2708, 298.1355
424.7529, 299.8150
425.2350, 301.1587
425.7171, 300.9337
426.1992, 299.2514
426.6814, 298.0111
427.1635, 299.8742
427.6456, 304.4123
428.1277, 306.0956
428.6098, 303.7579
429.0919, 300.7723
429.5741, 298.9020
430.0562, 297.5012
430.5383, 295.4009
431.0204, 291.6230
431.5025, 288.6171
431.9846, 288.8749
432.4668, 291.6703
432.9489, 294.6976
433.4310, 297.6457
433.9131, 299.7352
434.3952, 299.9773
434.8773, 298.2346
435.3595, 295.5645
435.8416, 289.0972
436.3237, 284.3524
436.8058, 286.8363
437.2879, 293.8643
437.7701, 298.2620
438.2522, 296.2339
438.7343, 290.1428
439.2164, 285.8329
439.6985, 283.1524
440.1806, 282.7602
440.6628, 286.6454
441.1449, 290.8758
441.6270, 292.7272
442.1091, 292.4271
442.5912, 292.1206
443.0733, 293.9384
443.5555, 296.7974
444.0376, 295.7697
444.5197, 288.8452
445.0018, 283.6851
445.4839, 285.8820
445.9660, 289.8962
446.4482, 289.7760
446.9303, 284.2507
447.4124, 278.9704
447.8945, 277.1459
448.3766, 278.0644
448.8587, 280.7079
449.3409, 285.0665
449.8230, 289.7383
450.3051, 294.2527
450.7872, 298.2452
451.2693, 299.0749
451.7514, 294.3246
452.2336, 289.4919
452.7157, 285.0497
453.1978, 282.0884
453.6799, 283.2922
454.1620, 289.0565
454.6441, 295.1041
455.1263, 295.4207
455.6084, 288.4892
456.0905, 284.4375
456.5726, 286.1671
457.0547, 287.9603
457.5368, 287.9984
458.0190, 286.9937
458.5011, 286.4123
458.9832, 287.0160
459.4653, 287.5416
459.9474, 285.3677
460.4295, 280.4285
460.9117, 278.0207
461.3938, 280.2512
461.8759, 283.8379
462.3580, 285.5884
462.8401, 285.9478
463.3222, 287.3738
463.8044, 293.2778
464.2865, 298.3844
464.7686, 296.5683
465.2507, 289.4615
465.7328, 283.7142
466.2149, 282.2607
466.6971, 283.5020
467.1792, 284.4367
467.6613, 285.0416
468.1434, 285.3364
468.6255, 285.3269
469.1076, 285.0123
469.5898, 283.7455
470.0719, 282.1298
470.5540, 282.0621
471.0361, 285.1266
471.5182, 289.4914
472.0003, 289.5354
472.4825, 283.8048
472.9646, 277.7046
473.4467, 269.4694
473.9288, 263.4150
474.4109, 264.2155
474.8930, 271.2016
475.3752, 277.0106
475.8573, 276.1253
476.3394, 271.8985
476.8215, 269.7930
477.3036, 269.9524
477.7857, 271.5777
478.2679, 275.2475
478.7500, 279.3322
479.2321, 279.3954
479.7142, 273.4910
480.1963, 269.1086
480.6784, 269.1862
481.1606, 270.3731
481.6427, 269.3038
482.1248, 266.0604
482.6069, 263.1082
483.0890, 262.3442
483.5711, 263.3387
484.0533, 263.6834
484.5354, 263.0208
485.0175, 262.2641
485.4996, 260.9708
485.9817, 260.0431
486.4638, 260.2139
486.9460, 261.5467
487.4281, 263.6074
487.9102, 266.7832
488.3923, 270.3958
488.8744, 272.5576
489.3565, 273.3239
489.8387, 272.0029
490.3208, 266.4360
490.8029, 259.4930
491.2850, 257.4834
491.7671, 262.6515
492.2492, 266.1745
492.7314, 263.2455
493.2135, 258.1377
493.6956, 255.6820
494.1777, 256.2707
494.6598, 257.7655
495.1419, 258.7104
495.6241, 259.0522
496.1062, 258.4030
496.5883, 255.2222
497.0704, 253.2416
497.5525, 254.1509
498.0346, 255.4319
498.5168, 254.3765
498.9989, 251.0958
499.4810, 248.5960
499.9631, 250.5032
500.4452, 255.1323
500.9273, 255.0863
501.4095, 248.7419
501.8916, 244.8065
502.3737, 249.6806
502.8558, 257.6110
503.3379, 259.0453
503.8200, 252.1657
504.3022, 245.7852
504.7843, 242.9617
505.2664, 242.5094
505.7485, 244.4152
506.2306, 247.9686
506.7127, 249.6212
507.1949, 246.7471
507.6770, 240.4527
508.1591, 235.5392
508.6412, 231.2591
509.1233, 229.6657
509.6054, 233.0286
510.0876, 237.3020
510.5697, 240.0731
511.0518, 240.9323
511.5339, 240.1124
512.0161, 237.3062
512.4982, 233.2483
512.9803, 229.5585
513.4624, 226.0437
513.9445, 224.3895
514.4266, 226.4808
514.9088, 229.6341
515.3909, 230.1479
515.8730, 227.8085
516.3551, 225.7699
516.8372, 225.5389
517.3193, 225.6149
517.8015, 224.0357
518.2836, 221.3245
518.7657, 220.0351
519.2478, 221.6898
519.7299, 224.8346
520.2120, 225.8651
520.6942, 222.7067
521.1763, 221.4189
521.6584, 223.5516
522.1405, 225.8756
522.6226, 226.7917
523.1047, 226.4552
523.5869, 225.7392
524.0690, 225.2634
524.5511, 224.2855
525.0332, 220.7062
525.5153, 214.5562
525.9974, 210.9160
526.4796, 211.7319
526.9617, 214.2101
527.4438, 215.4645
527.9259, 215.6747
528.4080, 216.3823
528.8901, 218.8083
529.3723, 220.7944
529.8544, 220.1997
530.3365, 218.4082
530.8186, 218.6829
531.3007, 222.0538
531.7828, 225.6454
532.2650, 225.3079
532.7471, 220.3279
533.2292, 215.7886
533.7113, 210.0737
534.1934, 206.7905
534.6755, 208.6821
535.1577, 212.9714
535.6398, 215.9486
536.1219, 216.5166
536.6040, 216.1493
537.0861, 215.7934
537.5682, 215.5902
538.0504, 216.4470
538.5325, 218.7299
539.0146, 219.9588
539.4967, 217.8368
539.9788, 213.2251
540.4609, 210.4976
540.9431, 210.8774
541.4252, 211.2005
541.9073, 209.6080
542.3894, 208.4584
542.8715, 210.9443
543.3536, 216.6520
543.8358, 222.0421
544.3179, 224.5968
544.8000, 224.2775
545.2821, 219.5644
545.7642, 206.5794
546.2463, 199.9521
546.7285, 211.4450
547.2106, 224.7032
547.6927, 225.3628
548.1748, 214.1366
548.6569, 205.2563
549.1390, 207.1402
549.6211, 212.9126
550.1032, 215.7027
550.5853, 215.7694
551.0674, 214.8376
551.5496, 213.5023
552.0317, 211.9242
552.5138, 210.3487
552.9959, 208.7707
553.4780, 207.1947
553.9601, 204.5673
554.4423, 203.0493
554.9244, 204.6617
555.4065, 207.5980
555.8886, 208.6902
556.3707, 206.7210
556.8528, 204.4006
557.3350, 205.3679
557.8171, 209.1747
558.2992, 212.1385
558.7813, 213.7947
559.2634, 215.0391
559.7455, 216.6565
560.2277, 218.2498
560.7098, 218.6517
561.1919, 217.2800
561.6740, 215.7285
562.1561, 214.5438
562.6382, 213.3951
563.1204, 211.4263
563.6025, 208.9293
564.0846, 207.4652
564.5667, 208.1802
565.0488, 210.7936
565.5309, 214.5926
566.0131, 220.9407
566.4952, 225.0155
566.9773, 223.8687
567.4594, 221.8648
567.9415, 221.7756
568.4236, 223.3277
568.9058, 224.6288
569.3879, 225.1247
569.8700, 224.8092
570.3521, 222.9226
570.8342, 220.1314
571.3163, 218.7129
571.7985, 219.3860
572.2806, 221.4890
572.7627, 224.6164
573.2448, 229.1661
573.7269, 230.9939
574.2090, 227.4690
574.6912, 224.5267
575.1733, 223.9460
575.6554, 224.5574
576.1375, 225.1748
576.6196, 225.4682
577.1017, 225.4359
577.5839, 225.5743
578.0660, 225.3828
578.5481, 222.2809
579.0302, 215.6980
579.5123, 211.1331
579.9944, 211.7614
580.4766, 215.2936
580.9587, 217.1689
581.4408, 216.6608
581.9229, 217.7725
582.4050, 224.2586
582.8871, 229.6122
583.3693, 227.5532
583.8514, 221.1479
584.3335, 217.6799
584.8156, 220.5178
585.2977, 226.2707
585.7798, 229.9480
586.2620, 231.4736
586.7441, 231.4797
587.2262, 229.0121
587.7083, 226.6441
588.1904, 227.0933
588.6725, 228.2750
