##NAMES=Cerussite
##RRUFFID=R040069
##IDEAL CHEMISTRY=Pb^2+^CO_3_
##LOCALITY=Broken Hill, New South Wales, Australia
##OWNER=RRUFF
##SOURCE=University of Arizona Mineral Museum
##DESCRIPTION=Reticulated composite of colorless tabular crystals
##STATUS=The identification of this mineral has been confirmed by X-ray diffraction and chemical analysis
##URL=rruff.info/R040069
##MEASURED CHEMISTRY=Pb_1.04_C_0.98_O_3_
120.5639, 252.2981
121.0460, 267.7158
121.5281, 282.9572
122.0102, 298.4562
122.4924, 318.8122
122.9745, 345.2383
123.4566, 375.7581
123.9387, 410.4724
124.4208, 448.5386
124.9029, 488.1044
125.3851, 527.3271
125.8672, 566.0075
126.3493, 607.6461
126.8314, 652.8243
127.3135, 700.8599
127.7956, 751.1708
128.2778, 804.1026
128.7599, 862.1179
129.2420, 930.3444
129.7241, 1015.357
130.2062, 1084.393
130.6884, 1136.458
131.1705, 1175.715
131.6526, 1204.836
132.1347, 1223.643
132.6168, 1229.263
133.0989, 1215.691
133.5811, 1169.765
134.0632, 1133.567
134.5453, 1104.791
135.0274, 1085.146
135.5095, 1077.058
135.9916, 1080.526
136.4738, 1092.013
136.9559, 1105.598
137.4380, 1116.216
137.9201, 1138.743
138.4022, 1169.787
138.8843, 1213.243
139.3665, 1274.715
139.8486, 1355.365
140.3307, 1449.634
140.8128, 1545.944
141.2949, 1646.304
141.7770, 1746.964
142.2592, 1849.306
142.7413, 1950.884
143.2234, 2049.528
143.7055, 2144.013
144.1876, 2235.033
144.6697, 2325.121
145.1519, 2424.677
145.6340, 2509.021
146.1161, 2575.003
146.5982, 2623.867
147.0803, 2657.684
147.5624, 2677.737
148.0446, 2682.854
148.5267, 2666.772
149.0088, 2626.289
149.4909, 2574.976
149.9730, 2514.713
150.4551, 2445.736
150.9372, 2366.513
151.4194, 2272.970
151.9015, 2172.377
152.3836, 2087.361
152.8657, 2024.391
153.3478, 1965.001
153.8299, 1901.073
154.3121, 1835.158
154.7942, 1774.283
155.2763, 1722.847
155.7584, 1678.932
156.2405, 1635.644
156.7226, 1591.571
157.2048, 1549.655
157.6869, 1507.212
158.1690, 1466.507
158.6511, 1438.401
159.1332, 1433.420
159.6153, 1443.958
160.0975, 1444.260
160.5796, 1429.232
161.0617, 1409.823
161.5438, 1391.702
162.0259, 1374.934
162.5080, 1359.358
162.9902, 1344.332
163.4723, 1330.951
163.9544, 1320.986
164.4365, 1314.734
164.9186, 1311.745
165.4007, 1312.839
165.8829, 1317.894
166.3650, 1323.384
166.8471, 1328.656
167.3292, 1332.522
167.8113, 1332.686
168.2934, 1326.292
168.7756, 1318.719
169.2577, 1314.427
169.7398, 1313.450
170.2219, 1315.231
170.7040, 1321.271
171.1861, 1329.537
171.6683, 1336.362
172.1504, 1340.296
172.6325, 1343.444
173.1146, 1348.709
173.5967, 1356.491
174.0788, 1362.776
174.5610, 1367.250
175.0431, 1368.179
175.5252, 1361.811
176.0073, 1341.776
176.4894, 1319.462
176.9715, 1310.055
177.4537, 1315.651
177.9358, 1320.731
178.4179, 1317.387
178.9000, 1308.190
179.3821, 1295.639
179.8642, 1279.104
180.3464, 1260.576
180.8285, 1242.586
181.3106, 1225.307
181.7927, 1207.649
182.2748, 1185.961
182.7569, 1164.278
183.2391, 1148.438
183.7212, 1142.767
184.2033, 1140.685
184.6854, 1132.274
185.1675, 1115.788
185.6496, 1100.905
186.1318, 1093.232
186.6139, 1089.825
187.0960, 1087.964
187.5781, 1087.134
188.0602, 1087.219
188.5423, 1088.520
189.0245, 1091.529
189.5066, 1093.688
189.9887, 1092.408
190.4708, 1090.080
190.9529, 1088.639
191.4350, 1087.231
191.9172, 1089.028
192.3993, 1100.637
192.8814, 1124.823
193.3635, 1147.111
193.8456, 1158.637
194.3277, 1165.870
194.8099, 1174.637
195.2920, 1185.956
195.7741, 1200.543
196.2562, 1221.476
196.7383, 1251.214
197.2204, 1276.819
197.7026, 1284.618
198.1847, 1288.803
198.6668, 1304.458
199.1489, 1338.846
199.6310, 1379.013
200.1131, 1406.964
200.5953, 1419.970
201.0774, 1434.026
201.5595, 1455.389
202.0416, 1480.798
202.5237, 1507.981
203.0058, 1536.934
203.4880, 1566.366
203.9701, 1594.312
204.4522, 1620.409
204.9343, 1647.701
205.4164, 1679.017
205.8985, 1711.079
206.3807, 1740.906
206.8628, 1767.796
207.3449, 1793.231
207.8270, 1819.360
208.3091, 1846.488
208.7912, 1871.442
209.2734, 1892.160
209.7555, 1910.740
210.2376, 1929.368
210.7197, 1948.943
211.2018, 1965.710
211.6839, 1975.404
212.1661, 1977.858
212.6482, 1977.676
213.1303, 1979.837
213.6124, 1976.614
214.0945, 1959.026
214.5766, 1925.010
215.0588, 1888.528
215.5409, 1864.944
216.0230, 1854.043
216.5051, 1835.939
216.9872, 1801.933
217.4693, 1762.026
217.9515, 1724.157
218.4336, 1688.939
218.9157, 1655.188
219.3978, 1622.081
219.8799, 1589.645
220.3620, 1558.167
220.8442, 1527.187
221.3263, 1497.707
221.8084, 1471.214
222.2905, 1447.604
222.7726, 1423.135
223.2547, 1394.974
223.7369, 1363.507
224.2190, 1330.410
224.7011, 1292.971
225.1832, 1257.985
225.6653, 1232.515
226.1474, 1215.520
226.6296, 1197.263
227.1117, 1170.342
227.5938, 1137.831
228.0759, 1109.678
228.5580, 1088.821
229.0401, 1069.620
229.5223, 1045.840
230.0044, 1018.807
230.4865, 995.5717
230.9686, 983.1832
231.4507, 976.1850
231.9328, 961.7839
232.4150, 936.5408
232.8971, 910.3241
233.3792, 891.7498
233.8613, 878.6789
234.3434, 865.4877
234.8255, 848.9141
235.3077, 831.7847
235.7898, 819.4501
236.2719, 813.2823
236.7540, 805.8555
237.2361, 787.4302
237.7182, 763.1408
238.2004, 746.9103
238.6825, 748.6051
239.1646, 755.6236
239.6467, 754.3521
240.1288, 744.3574
240.6109, 732.3535
241.0931, 721.1085
241.5752, 711.1723
242.0573, 703.7617
242.5394, 702.6514
243.0215, 700.9586
243.5036, 691.9276
243.9858, 676.3934
244.4679, 661.8149
244.9500, 652.0756
245.4321, 646.2659
245.9142, 640.7891
246.3963, 635.8867
246.8785, 631.0315
247.3606, 625.9975
247.8427, 620.8097
248.3248, 615.7640
248.8069, 611.6364
249.2890, 606.9567
249.7712, 597.5182
250.2533, 579.9722
250.7354, 564.9278
251.2175, 557.9857
251.6996, 556.0865
252.1817, 552.9827
252.6639, 546.2095
253.1460, 538.3755
253.6281, 535.0927
254.1102, 539.0953
254.5923, 539.7233
255.0744, 531.9696
255.5566, 520.9225
256.0387, 513.4028
256.5208, 511.2493
257.0029, 511.0024
257.4850, 508.0116
257.9671, 501.0538
258.4492, 494.6902
258.9314, 489.0021
259.4135, 484.0150
259.8956, 480.6204
260.3777, 478.5996
260.8598, 475.3102
261.3419, 467.2213
261.8241, 452.4208
262.3062, 443.8751
262.7883, 448.2964
263.2704, 452.6031
263.7525, 448.6724
264.2346, 437.3127
264.7168, 424.3864
265.1989, 414.3061
265.6810, 407.0509
266.1631, 402.2071
266.6452, 402.8203
267.1273, 402.3030
267.6095, 397.0819
268.0916, 389.1064
268.5737, 382.6055
269.0558, 380.3375
269.5379, 381.4100
270.0201, 380.6904
270.5022, 375.5421
270.9843, 371.4219
271.4664, 369.8190
271.9485, 369.3185
272.4306, 368.1217
272.9128, 365.4240
273.3949, 361.7674
273.8770, 358.4557
274.3591, 355.4094
274.8412, 352.8887
275.3233, 351.4427
275.8055, 350.1416
276.2876, 347.7787
276.7697, 344.1640
277.2518, 340.8004
277.7339, 340.6465
278.2160, 345.9902
278.6982, 347.2135
279.1803, 338.6356
279.6624, 329.9339
280.1445, 326.6668
280.6266, 328.9027
281.1087, 332.5909
281.5909, 334.3597
282.0730, 334.1854
282.5551, 332.4658
283.0372, 328.1970
283.5193, 323.3123
284.0014, 317.5010
284.4836, 311.6874
284.9657, 308.2754
285.4478, 310.9314
285.9299, 317.1753
286.4120, 316.4931
286.8941, 305.0299
287.3763, 294.4098
287.8584, 290.9560
288.3405, 291.8149
288.8226, 292.7587
289.3047, 291.2892
289.7868, 290.2621
290.2690, 295.7444
290.7511, 309.0913
291.2332, 318.6877
291.7153, 317.6517
292.1974, 310.5198
292.6795, 302.8217
293.1617, 294.6241
293.6438, 287.2949
294.1259, 281.9695
294.6080, 278.5320
295.0901, 276.0803
295.5722, 274.0554
296.0544, 273.3513
296.5365, 276.3037
297.0186, 284.0836
297.5007, 288.5169
297.9828, 284.1471
298.4649, 274.7968
298.9471, 266.9417
299.4292, 261.8038
299.9113, 258.4222
300.3934, 255.6573
300.8755, 253.4197
301.3576, 253.1803
301.8398, 257.5366
302.3219, 262.3498
302.8040, 263.4911
303.2861, 261.0102
303.7682, 258.3659
304.2503, 258.3243
304.7325, 260.8740
305.2146, 262.6406
305.6967, 265.3045
306.1788, 265.6407
306.6609, 260.0163
307.1430, 251.0914
307.6252, 244.6270
308.1073, 243.8675
308.5894, 247.4916
309.0715, 250.6672
309.5536, 256.1724
310.0357, 257.7233
310.5179, 251.7266
311.0000, 242.9858
311.4821, 236.0121
311.9642, 232.3411
312.4463, 231.5120
312.9284, 233.4720
313.4106, 241.5528
313.8927, 244.8990
314.3748, 239.5305
314.8569, 233.3641
315.3390, 231.4089
315.8211, 233.6214
316.3033, 236.4337
316.7854, 236.2766
317.2675, 233.0339
317.7496, 231.1770
318.2317, 231.3613
318.7138, 232.3585
319.1960, 235.1483
319.6781, 238.2769
320.1602, 238.7105
320.6423, 233.4254
321.1244, 225.5809
321.6065, 224.1544
322.0887, 231.6796
322.5708, 238.5245
323.0529, 240.5345
323.5350, 240.0807
324.0171, 239.2725
324.4992, 238.5817
324.9814, 237.7004
325.4635, 235.9059
325.9456, 233.2973
326.4277, 231.7598
326.9098, 231.9445
327.3919, 233.3328
327.8741, 235.5576
328.3562, 238.7113
328.8383, 241.2094
329.3204, 241.9580
329.8025, 241.6935
330.2846, 242.0147
330.7668, 243.3308
331.2489, 243.9328
331.7310, 241.4270
332.2131, 235.9968
332.6952, 233.0613
333.1773, 235.1972
333.6595, 238.1711
334.1416, 239.2516
334.6237, 238.4930
335.1058, 236.6384
335.5879, 233.8230
336.0700, 230.4797
336.5522, 229.0397
337.0343, 231.2025
337.5164, 232.9325
337.9985, 233.3998
338.4806, 232.9800
338.9627, 231.7138
339.4449, 229.6710
339.9270, 227.9701
340.4091, 228.7081
340.8912, 233.6849
341.3733, 237.4820
341.8554, 239.2548
342.3376, 240.6968
342.8197, 243.3513
343.3018, 246.9139
343.7839, 249.4651
344.2660, 248.5255
344.7481, 244.1028
345.2303, 243.9188
345.7124, 252.8202
346.1945, 260.2594
346.6766, 262.0266
347.1587, 260.4362
347.6408, 259.4184
348.1230, 261.0054
348.6051, 263.7425
349.0872, 264.5237
349.5693, 262.7004
350.0514, 261.6571
350.5335, 262.5607
351.0157, 264.7282
351.4978, 268.3334
351.9799, 273.6852
352.4620, 277.6627
352.9441, 276.7444
353.4262, 272.2645
353.9084, 269.6518
354.3905, 270.2635
354.8726, 271.9804
355.3547, 272.5830
355.8368, 272.2899
356.3189, 272.5103
356.8011, 274.8647
357.2832, 277.0258
357.7653, 276.2336
358.2474, 272.6440
358.7295, 268.9374
359.2116, 266.7823
359.6938, 265.9180
360.1759, 264.7394
360.6580, 264.1597
361.1401, 262.2888
361.6222, 256.9863
362.1043, 250.5354
362.5865, 246.5297
363.0686, 246.2057
363.5507, 247.7026
364.0328, 247.9462
364.5149, 246.7573
364.9970, 244.5470
365.4792, 239.9852
365.9613, 235.6139
366.4434, 233.4230
366.9255, 233.0534
367.4076, 232.5426
367.8897, 230.0946
368.3719, 225.9239
368.8540, 223.0360
369.3361, 223.4743
369.8182, 222.2803
370.3003, 215.9286
370.7824, 207.9877
371.2646, 203.4189
371.7467, 204.5604
372.2288, 207.8434
372.7109, 207.8382
373.1930, 204.1864
373.6751, 201.9159
374.1573, 202.9711
374.6394, 205.3065
375.1215, 207.7956
375.6036, 210.3763
376.0857, 210.5339
376.5678, 205.3229
377.0500, 197.2314
377.5321, 190.4200
378.0142, 185.1622
378.4963, 182.3849
378.9784, 183.9448
379.4605, 189.1883
379.9427, 191.8297
380.4248, 189.3476
380.9069, 186.6710
381.3890, 186.8123
381.8711, 188.7070
382.3532, 189.8842
382.8354, 189.3292
383.3175, 187.2325
383.7996, 183.9290
384.2817, 177.5353
384.7638, 172.9368
385.2459, 170.8205
385.7281, 169.9649
386.2102, 169.8622
386.6923, 170.2191
387.1744, 170.6085
387.6565, 170.8376
388.1386, 170.9090
388.6208, 169.0075
389.1029, 160.9921
389.5850, 156.1898
390.0671, 160.7935
390.5492, 168.9660
391.0313, 171.9144
391.5135, 165.3359
391.9956, 155.3615
392.4777, 151.5146
392.9598, 154.4568
393.4419, 157.4620
393.9240, 159.6198
394.4062, 160.6227
394.8883, 159.9659
395.3704, 157.6924
395.8525, 155.3748
396.3346, 152.9905
396.8167, 151.3051
397.2989, 152.8258
397.7810, 158.0535
398.2631, 161.2406
398.7452, 156.8327
399.2273, 146.5957
399.7094, 141.9459
400.1916, 148.2599
400.6737, 154.1432
401.1558, 154.2533
401.6379, 150.9661
402.1200, 148.1779
402.6021, 147.2537
403.0843, 148.0560
403.5664, 150.6960
404.0485, 157.5869
404.5306, 160.3662
405.0127, 156.4681
405.4948, 151.2973
405.9770, 146.6235
406.4591, 143.3011
406.9412, 142.8763
407.4233, 147.3625
407.9054, 155.0146
408.3875, 156.3893
408.8697, 146.8717
409.3518, 139.8986
409.8339, 141.1503
410.3160, 145.4712
410.7981, 148.0416
411.2802, 147.7057
411.7624, 146.4683
412.2445, 146.6986
412.7266, 147.8504
413.2087, 146.2102
413.6908, 139.6796
414.1729, 133.4416
414.6551, 133.2867
415.1372, 137.8431
415.6193, 141.6638
416.1014, 143.9403
416.5835, 144.8844
417.0656, 143.6714
417.5478, 141.0126
418.0299, 139.6133
418.5120, 140.9071
418.9941, 143.9523
419.4762, 146.4419
419.9583, 149.5429
420.4405, 150.1585
420.9226, 145.1250
421.4047, 139.6556
421.8868, 138.5726
422.3689, 141.8764
422.8510, 145.9414
423.3332, 147.6349
423.8153, 147.0075
424.2974, 144.8749
424.7795, 138.4049
425.2616, 134.4415
425.7437, 136.4503
426.2259, 141.1050
426.7080, 144.4372
427.1901, 145.0957
427.6722, 144.5024
428.1543, 144.3253
428.6364, 144.5021
429.1186, 143.6450
429.6007, 140.5717
430.0828, 137.8281
430.5649, 137.9199
431.0470, 140.4508
431.5291, 143.6694
432.0113, 149.6205
432.4934, 154.2234
432.9755, 152.0841
433.4576, 144.4817
433.9397, 138.4016
434.4218, 137.6549
434.9040, 140.3008
435.3861, 140.9270
435.8682, 137.6214
436.3503, 135.2142
436.8324, 133.8619
437.3145, 133.5652
437.7967, 135.0143
438.2788, 137.8258
438.7609, 140.1183
439.2430, 139.9008
439.7251, 137.3883
440.2072, 137.0382
440.6894, 140.8978
441.1715, 143.9676
441.6536, 143.9205
442.1357, 142.8395
442.6178, 143.6463
443.0999, 147.4216
443.5821, 150.8428
444.0642, 149.9755
444.5463, 145.3845
445.0284, 140.9232
445.5105, 136.5260
445.9926, 133.7852
446.4748, 135.7559
446.9569, 141.2574
447.4390, 144.5625
447.9211, 142.8796
448.4032, 140.3059
448.8853, 140.1433
449.3675, 141.5125
449.8496, 141.2623
450.3317, 137.7639
450.8138, 133.2780
451.2959, 132.5672
451.7780, 139.1814
452.2602, 142.7316
452.7423, 141.2309
453.2244, 138.5234
453.7065, 136.8605
454.1886, 136.1866
454.6707, 135.2425
455.1529, 132.8986
455.6350, 129.8781
456.1171, 128.9377
456.5992, 130.5838
457.0813, 133.0217
457.5634, 137.1474
458.0455, 141.0140
458.5276, 143.1231
459.0098, 143.2906
459.4919, 141.6410
459.9740, 136.2525
460.4561, 129.4919
460.9382, 127.1173
461.4203, 129.9896
461.9025, 133.3360
462.3846, 133.6563
462.8667, 131.5418
463.3488, 130.8692
463.8309, 133.2146
464.3130, 134.9968
464.7952, 134.3717
465.2773, 132.9072
465.7594, 132.7389
466.2415, 134.3653
466.7236, 136.7045
467.2057, 138.6453
467.6879, 140.3001
468.1700, 140.6373
468.6521, 138.0916
469.1342, 135.8713
469.6163, 134.7991
470.0984, 134.6621
470.5806, 135.3422
471.0627, 137.0071
471.5448, 138.4454
472.0269, 137.6154
472.5090, 134.7099
472.9911, 132.9181
473.4733, 133.1109
473.9554, 134.1004
474.4375, 135.1935
474.9196, 136.2833
475.4017, 136.3362
475.8839, 135.2344
476.3660, 132.9771
476.8481, 127.6142
477.3302, 120.9950
477.8123, 118.8087
478.2944, 123.7868
478.7766, 131.9910
479.2587, 135.6627
479.7408, 132.1902
480.2229, 129.8951
480.7050, 129.0769
481.1871, 128.9802
481.6693, 130.0783
482.1514, 131.5760
482.6335, 131.5100
483.1156, 128.1970
483.5977, 123.6050
484.0798, 122.2908
484.5620, 124.7388
485.0441, 127.7460
485.5262, 131.2414
486.0083, 134.2299
486.4904, 135.9796
486.9725, 136.4779
487.4547, 135.4248
487.9368, 130.3947
488.4189, 125.2190
488.9010, 125.0813
489.3831, 129.3973
489.8652, 133.2872
490.3474, 134.1190
490.8295, 132.6342
491.3116, 130.8804
491.7937, 127.4661
492.2758, 125.8512
492.7579, 128.3791
493.2401, 130.8568
493.7222, 129.6066
494.2043, 125.2296
494.6864, 121.3343
495.1685, 120.8257
495.6506, 122.5932
496.1328, 122.4151
496.6149, 119.3600
497.0970, 117.4163
497.5791, 118.7690
498.0612, 121.2114
498.5433, 122.6015
499.0255, 122.7750
499.5076, 122.8171
499.9897, 123.4141
500.4718, 124.0793
500.9539, 124.0868
501.4360, 123.4425
501.9182, 122.5785
502.4003, 121.5758
502.8824, 120.7523
503.3645, 121.2732
503.8466, 126.6157
504.3287, 128.6210
504.8109, 123.1132
505.2930, 117.0220
505.7751, 116.6256
506.2572, 121.4537
506.7393, 126.2609
507.2214, 126.9873
507.7036, 124.3856
508.1857, 120.8336
508.6678, 115.3673
509.1499, 112.1329
509.6320, 114.5048
510.1141, 118.5708
510.5963, 120.0944
511.0784, 118.6378
511.5605, 117.4204
512.0426, 118.6017
512.5247, 120.4141
513.0068, 120.2319
513.4890, 118.1595
513.9711, 116.7020
514.4532, 117.6741
514.9353, 119.9001
515.4174, 119.2943
515.8995, 110.9546
516.3817, 106.6414
516.8638, 109.1670
517.3459, 113.6659
517.8280, 117.2754
518.3101, 119.5838
518.7922, 121.0940
519.2744, 122.2631
519.7565, 122.8128
520.2386, 121.8955
520.7207, 119.3880
521.2028, 115.9069
521.6849, 110.1574
522.1671, 104.8592
522.6492, 103.4536
523.1313, 106.1754
523.6134, 108.8446
524.0955, 110.8479
524.5776, 111.6849
525.0598, 109.6344
525.5419, 105.6605
526.0240, 103.9682
526.5061, 107.0262
526.9882, 112.4398
527.4703, 114.1657
527.9525, 109.1057
528.4346, 106.3080
528.9167, 107.9019
529.3988, 109.6235
529.8809, 108.9314
530.3630, 106.4032
530.8452, 103.9929
531.3273, 102.6118
531.8094, 102.1325
532.2915, 102.6063
532.7736, 104.0112
533.2557, 105.3978
533.7379, 106.8170
534.2200, 107.5949
534.7021, 106.2779
535.1842, 102.8450
535.6663, 101.2248
536.1484, 103.5535
536.6306, 106.1165
537.1127, 106.6209
537.5948, 105.8270
538.0769, 105.3322
538.5590, 105.7541
539.0411, 106.5764
539.5233, 107.0619
540.0054, 107.1912
540.4875, 107.0320
540.9696, 105.8818
541.4517, 105.3251
541.9338, 106.6479
542.4160, 108.7830
542.8981, 109.6931
543.3802, 108.1124
543.8623, 107.2319
544.3444, 111.5615
544.8265, 118.5317
545.3087, 120.6611
545.7908, 116.4022
546.2729, 111.4896
546.7550, 111.1951
547.2371, 115.0447
547.7192, 115.3250
548.2014, 107.9828
548.6835, 102.5551
549.1656, 102.1913
549.6477, 103.7520
550.1298, 104.1358
550.6119, 102.8728
551.0941, 101.4939
551.5762, 101.6297
552.0583, 102.7998
552.5404, 102.3106
553.0225, 99.38613
553.5046, 97.97052
553.9868, 100.3120
554.4689, 104.6381
554.9510, 108.8566
555.4331, 113.3794
555.9152, 115.2350
556.3973, 111.3506
556.8795, 105.9576
557.3616, 102.7056
557.8437, 101.5588
558.3258, 101.2843
558.8079, 101.2772
559.2900, 101.3567
559.7722, 101.0893
560.2543, 100.3744
560.7364, 99.56901
561.2185, 98.34238
561.7006, 97.34959
562.1827, 96.87347
562.6649, 96.87746
563.1470, 97.25501
563.6291, 98.03816
564.1112, 99.04912
564.5933, 100.3021
565.0754, 101.6572
565.5576, 102.5378
566.0397, 102.7810
566.5218, 102.8018
567.0039, 103.1199
567.4860, 103.7669
567.9681, 103.3647
568.4503, 99.73489
568.9324, 97.85747
569.4145, 100.8226
569.8966, 105.1109
570.3787, 106.5365
570.8608, 104.5508
571.3430, 102.2300
571.8251, 102.1214
572.3072, 104.0606
572.7893, 107.9717
573.2714, 114.4726
573.7535, 119.8322
574.2357, 122.9015
574.7178, 123.4904
575.1999, 120.7392
575.6820, 113.7340
576.1641, 108.2892
576.6462, 105.7150
577.1284, 105.2229
577.6105, 107.4997
578.0926, 111.3318
578.5747, 113.5965
579.0568, 112.6742
579.5389, 110.4584
580.0211, 111.3035
580.5032, 116.6487
580.9853, 117.8380
581.4674, 110.3002
581.9495, 103.5569
582.4316, 103.3477
582.9138, 107.4583
583.3959, 111.3972
583.8780, 114.4212
584.3601, 116.3785
584.8422, 117.1341
585.3243, 116.7589
585.8065, 114.7059
586.2886, 111.1055
586.7707, 108.4795
587.2528, 109.2418
587.7349, 112.6923
588.2170, 113.5772
588.6992, 109.1512
589.1813, 106.5102
589.6634, 108.2788
590.1455, 110.5698
590.6276, 110.0975
591.1097, 107.1636
591.5919, 104.7201
592.0740, 104.5121
592.5561, 105.6866
593.0382, 107.7630
593.5203, 110.4137
594.0024, 111.2242
594.4846, 109.0397
594.9667, 106.3058
595.4488, 106.1748
595.9309, 109.1145
596.4130, 111.4397
596.8951, 113.8903
597.3773, 114.9574
597.8594, 112.7720
598.3415, 109.6037
598.8236, 108.4302
599.3057, 109.8742
599.7878, 111.7127
600.2700, 111.8657
600.7521, 110.6883
601.2342, 109.1527
601.7163, 107.1314
602.1984, 106.1761
602.6805, 107.5246
603.1627, 109.8932
603.6448, 110.7299
604.1269, 109.7330
604.6090, 108.4782
605.0911, 106.9754
605.5732, 105.3871
606.0554, 102.8033
606.5375, 100.3841
607.0196, 100.6466
607.5017, 104.7353
607.9838, 110.4873
608.4659, 115.8039
608.9481, 120.6031
609.4302, 120.8426
609.9123, 114.2672
610.3944, 108.0268
610.8765, 106.2798
611.3586, 108.1566
611.8408, 111.4740
612.3229, 118.0043
612.8050, 122.1367
613.2871, 120.5926
613.7692, 117.1079
614.2513, 115.1961
614.7335, 114.7270
615.2156, 113.4979
615.6977, 110.0113
616.1798, 105.7726
616.6619, 104.4952
