##NAMES=Cerussite
##RRUFFID=R050298
##IDEAL CHEMISTRY=Pb^2+^CO_3_
##LOCALITY=Bunker Hill mine, Shoshone County, Idaho, USA
##OWNER=RRUFF
##SOURCE=Eugene Schlepp
##DESCRIPTION=Group of colorless tabular crystals
##STATUS=The identification of this mineral has been confirmed by X-ray diffraction and chemical analysis
##URL=rruff.info/R050298
##MEASURED CHEMISTRY=Pb_1.00_CO_3_
114.7008, 520.6147
115.1829, 507.9223
115.6650, 500.5056
116.1471, 502.0139
116.6293, 508.7444
117.1114, 512.2837
117.5935, 512.0406
118.0756, 510.4410
118.5577, 506.7013
119.0398, 501.8774
119.5220, 498.7693
120.0041, 499.5243
120.4862, 502.0056
120.9683, 501.2743
121.4504, 495.5628
121.9325, 489.6609
122.4147, 487.1922
122.8968, 488.2838
123.3789, 491.2342
123.8610, 497.8489
124.3431, 505.0351
124.8252, 509.1403
125.3074, 507.6359
125.7895, 504.1562
126.2716, 506.8552
126.7537, 519.6511
127.2358, 531.8759
127.7179, 540.3221
128.2001, 546.2283
128.6822, 551.1525
129.1643, 555.8059
129.6464, 560.2983
130.1285, 565.7870
130.6106, 573.5472
131.0928, 581.2040
131.5749, 587.1035
132.0570, 592.2737
132.5391, 599.5272
133.0212, 611.9768
133.5033, 631.4637
133.9855, 642.7534
134.4676, 643.1523
134.9497, 639.4913
135.4318, 632.8458
135.9139, 624.3878
136.3960, 618.5007
136.8782, 620.6835
137.3603, 632.6741
137.8424, 645.5345
138.3245, 662.9924
138.8066, 679.4493
139.2887, 685.9408
139.7709, 678.5382
140.2530, 668.7466
140.7351, 671.7491
141.2172, 686.0322
141.6993, 702.6982
142.1814, 717.3530
142.6636, 731.1133
143.1457, 748.8510
143.6278, 774.5096
144.1099, 801.0725
144.5920, 823.2479
145.0741, 840.8433
145.5563, 855.7823
146.0384, 868.3288
146.5205, 877.8130
147.0026, 890.4245
147.4847, 909.0031
147.9668, 930.0643
148.4490, 953.0394
148.9311, 977.4197
149.4132, 1001.516
149.8953, 1023.112
150.3774, 1043.530
150.8595, 1058.118
151.3417, 1065.972
151.8238, 1069.479
152.3059, 1069.889
152.7880, 1067.784
153.2701, 1063.760
153.7522, 1059.385
154.2344, 1062.095
154.7165, 1055.055
155.1986, 1033.642
155.6807, 1003.263
156.1628, 968.5466
156.6449, 931.1276
157.1271, 893.6902
157.6092, 868.3158
158.0913, 862.1841
158.5734, 857.1821
159.0555, 848.3028
159.5376, 836.7188
160.0198, 825.5654
160.5019, 816.6158
160.9840, 809.4387
161.4661, 802.0308
161.9482, 793.2501
162.4303, 785.3756
162.9125, 779.3859
163.3946, 775.2999
163.8767, 774.1669
164.3588, 778.1303
164.8409, 785.2407
165.3230, 792.2853
165.8052, 799.0472
166.2873, 805.2356
166.7694, 808.8665
167.2515, 807.8695
167.7336, 811.6894
168.2157, 831.4242
168.6979, 856.6658
169.1800, 874.4330
169.6621, 876.3058
170.1442, 869.3058
170.6263, 873.9273
171.1084, 897.6740
171.5906, 921.8168
172.0727, 943.8508
172.5548, 961.8604
173.0369, 972.7202
173.5190, 973.4279
174.0011, 965.4530
174.4833, 961.2578
174.9654, 967.6277
175.4475, 971.1190
175.9296, 969.5393
176.4117, 962.9656
176.8938, 952.0638
177.3760, 937.2325
177.8581, 918.4487
178.3402, 896.2608
178.8223, 864.0564
179.3044, 835.2619
179.7865, 818.0361
180.2687, 809.2996
180.7508, 799.1807
181.2329, 778.7770
181.7150, 746.6833
182.1971, 720.7975
182.6792, 706.5712
183.1614, 693.1143
183.6435, 672.7448
184.1256, 645.7946
184.6077, 619.5980
185.0898, 601.1729
185.5719, 591.2546
186.0540, 579.4285
186.5362, 564.0959
187.0183, 547.5989
187.5004, 531.8018
187.9825, 516.8248
188.4646, 502.9864
188.9467, 490.7811
189.4289, 480.0390
189.9110, 470.0766
190.3931, 460.9513
190.8752, 452.4817
191.3573, 443.9985
191.8394, 434.9704
192.3216, 427.3773
192.8037, 423.6878
193.2858, 422.5976
193.7679, 421.2849
194.2500, 417.5638
194.7321, 412.5595
195.2143, 410.3451
195.6964, 413.4543
196.1785, 415.4772
196.6606, 411.9665
197.1427, 404.8576
197.6248, 398.4464
198.1070, 396.0376
198.5891, 397.1360
199.0712, 396.5944
199.5533, 392.0710
200.0354, 388.4809
200.5175, 388.5776
200.9997, 391.1292
201.4818, 393.1595
201.9639, 391.7119
202.4460, 386.6036
202.9281, 385.1075
203.4102, 392.1198
203.8924, 398.5001
204.3745, 401.0433
204.8566, 400.5331
205.3387, 399.4759
205.8208, 400.0068
206.3029, 402.2629
206.7851, 404.9515
207.2672, 408.4922
207.7493, 412.0310
208.2314, 415.2699
208.7135, 418.1898
209.1956, 420.8600
209.6778, 423.3037
210.1599, 425.4543
210.6420, 427.8808
211.1241, 431.9860
211.6062, 435.1183
212.0883, 434.7635
212.5705, 431.5798
213.0526, 429.2090
213.5347, 431.4437
214.0168, 439.0799
214.4989, 442.3921
214.9810, 440.8481
215.4632, 435.8941
215.9453, 426.6110
216.4274, 413.5574
216.9095, 401.4299
217.3916, 394.8275
217.8737, 393.8838
218.3559, 390.7118
218.8380, 384.0468
219.3201, 375.8136
219.8022, 366.5299
220.2843, 356.2452
220.7664, 347.9908
221.2486, 345.5549
221.7307, 347.5461
222.2128, 347.9229
222.6949, 345.3957
223.1770, 341.0859
223.6591, 335.3545
224.1413, 327.7959
224.6234, 321.7562
225.1055, 321.8945
225.5876, 325.1855
226.0697, 326.0566
226.5518, 321.8413
227.0340, 315.0512
227.5161, 309.2072
227.9982, 304.4319
228.4803, 300.1867
228.9624, 296.5819
229.4445, 293.2387
229.9267, 289.4507
230.4088, 284.3041
230.8909, 279.1578
231.3730, 277.2511
231.8551, 280.2758
232.3372, 282.2386
232.8194, 279.4366
233.3015, 274.6523
233.7836, 270.8662
234.2657, 269.0977
234.7478, 269.3463
235.2299, 272.0273
235.7121, 278.7220
236.1942, 284.7227
236.6763, 289.1525
237.1584, 292.1249
237.6405, 293.3965
238.1227, 292.6577
238.6048, 290.9441
239.0869, 291.1971
239.5690, 295.7377
240.0511, 298.0611
240.5332, 295.6295
241.0154, 291.3379
241.4975, 288.1331
241.9796, 287.2888
242.4617, 287.7501
242.9438, 286.8307
243.4259, 283.2420
243.9081, 280.2468
244.3902, 279.4946
244.8723, 278.8516
245.3544, 276.1013
245.8365, 270.3971
246.3186, 262.8855
246.8007, 255.9411
247.2829, 248.0526
247.7650, 243.3659
248.2471, 245.9455
248.7292, 249.6005
249.2113, 248.0183
249.6934, 239.2012
250.1756, 226.6735
250.6577, 217.3178
251.1398, 214.1664
251.6219, 210.1025
252.1040, 204.3079
252.5861, 198.1119
253.0683, 193.0141
253.5504, 189.3849
254.0325, 185.9164
254.5146, 180.2735
254.9967, 169.3806
255.4788, 162.3579
255.9610, 163.3040
256.4431, 165.7542
256.9252, 163.5463
257.4073, 155.3770
257.8894, 145.0328
258.3716, 137.4312
258.8537, 133.4486
259.3358, 130.7227
259.8179, 130.7284
260.3000, 131.1006
260.7821, 129.4290
261.2643, 125.3814
261.7464, 120.9753
262.2285, 118.5535
262.7106, 118.7466
263.1927, 117.8065
263.6748, 114.2251
264.1570, 110.4170
264.6391, 109.1526
265.1212, 110.5427
265.6033, 111.2854
266.0854, 107.6300
266.5675, 99.37866
267.0497, 94.19746
267.5318, 95.01352
268.0139, 97.05920
268.4960, 96.31619
268.9781, 92.66212
269.4602, 88.87663
269.9424, 87.17674
270.4245, 87.28188
270.9066, 86.56826
271.3887, 84.00867
271.8708, 81.34496
272.3529, 80.29051
272.8351, 80.69379
273.3172, 80.41054
273.7993, 77.16357
274.2814, 72.58305
274.7635, 71.64709
275.2456, 77.75516
275.7278, 83.83690
276.2099, 84.26752
276.6920, 79.67509
277.1741, 75.15035
277.6562, 72.90881
278.1383, 72.41020
278.6204, 72.19621
279.1025, 72.39991
279.5847, 72.59551
280.0668, 72.34849
280.5489, 71.76906
281.0310, 71.63166
281.5131, 72.67553
281.9952, 73.77608
282.4774, 73.22987
282.9595, 70.75035
283.4416, 68.35401
283.9237, 67.37347
284.4058, 67.52242
284.8879, 67.55550
285.3701, 67.01280
285.8522, 66.51226
286.3343, 66.96040
286.8164, 68.29727
287.2985, 69.11240
287.7806, 67.88775
288.2628, 65.45142
288.7449, 64.87237
289.2270, 67.69433
289.7091, 70.35169
290.1912, 69.27691
290.6733, 65.43349
291.1555, 62.21918
291.6376, 62.00553
292.1197, 63.47779
292.6018, 63.19013
293.0839, 60.11026
293.5660, 57.39299
294.0482, 57.25218
294.5303, 58.88216
295.0124, 61.10140
295.4945, 64.43320
295.9766, 67.55998
296.4587, 67.68006
296.9409, 63.95932
297.4230, 60.08308
297.9051, 58.19351
298.3872, 57.16625
298.8693, 55.64403
299.3514, 52.97887
299.8336, 50.12968
300.3157, 48.37503
300.7978, 47.82914
301.2799, 47.63409
301.7620, 47.19070
302.2441, 47.13326
302.7263, 48.29907
303.2084, 51.01029
303.6905, 53.93607
304.1726, 55.95026
304.6547, 57.04979
305.1368, 57.09212
305.6190, 55.19085
306.1011, 52.84819
306.5832, 51.07563
307.0653, 49.95691
307.5474, 49.37938
308.0295, 49.38111
308.5117, 49.92506
308.9938, 50.75939
309.4759, 53.08665
309.9580, 54.08294
310.4401, 50.92959
310.9222, 44.68341
311.4044, 39.36286
311.8865, 37.90821
312.3686, 39.58392
312.8507, 41.25621
313.3328, 43.09410
313.8149, 44.53508
314.2971, 45.44549
314.7792, 45.80618
315.2613, 45.45432
315.7434, 43.75151
316.2255, 41.65983
316.7076, 41.53497
317.1898, 44.17857
317.6719, 46.56210
318.1540, 47.41373
318.6361, 47.28552
319.1182, 46.52711
319.6003, 45.05150
320.0825, 43.50491
320.5646, 42.85482
321.0467, 43.24741
321.5288, 43.60242
322.0109, 43.44870
322.4930, 43.20587
322.9752, 43.43364
323.4573, 44.24083
323.9394, 44.59455
324.4215, 43.01503
324.9036, 39.56862
325.3857, 37.19118
325.8679, 36.66283
326.3500, 37.19668
326.8321, 38.53485
327.3142, 40.50087
327.7963, 42.21613
328.2784, 43.17755
328.7606, 43.41698
329.2427, 42.91275
329.7248, 40.96728
330.2069, 39.50412
330.6890, 40.06121
331.1711, 41.88837
331.6533, 43.47068
332.1354, 44.49030
332.6175, 44.65662
333.0996, 42.50247
333.5817, 36.59760
334.0638, 33.00168
334.5460, 38.43180
335.0281, 46.63247
335.5102, 50.14443
335.9923, 45.89754
336.4744, 39.18457
336.9565, 36.08516
337.4387, 36.79723
337.9208, 37.98687
338.4029, 39.07526
338.8850, 39.81336
339.3671, 39.74010
339.8492, 38.74550
340.3314, 37.99795
340.8135, 38.89722
341.2956, 41.05787
341.7777, 41.84827
342.2598, 40.02489
342.7419, 37.83198
343.2241, 37.20941
343.7062, 37.92626
344.1883, 38.93212
344.6704, 40.36689
345.1525, 41.64468
345.6346, 41.05116
346.1168, 37.82820
346.5989, 34.91098
347.0810, 35.19786
347.5631, 37.21399
348.0452, 38.43326
348.5273, 37.79347
349.0095, 36.46859
349.4916, 35.70406
349.9737, 35.51059
350.4558, 35.53099
350.9379, 35.76021
351.4200, 36.01896
351.9022, 35.90039
352.3843, 35.09536
352.8664, 34.72900
353.3485, 36.00728
353.8306, 38.46668
354.3127, 40.19290
354.7949, 40.44201
355.2770, 40.14545
355.7591, 40.83263
356.2412, 42.51842
356.7233, 43.09614
357.2054, 40.96970
357.6876, 37.53423
358.1697, 34.75806
358.6518, 32.82771
359.1339, 32.05336
359.6160, 33.59830
360.0981, 36.83603
360.5803, 38.30362
361.0624, 35.74686
361.5445, 32.64955
362.0266, 31.74412
362.5087, 32.93688
362.9908, 35.33746
363.4730, 39.29805
363.9551, 43.57667
364.4372, 44.50953
364.9193, 40.24381
365.4014, 36.04303
365.8835, 33.83758
366.3657, 33.24837
366.8478, 33.83113
367.3299, 35.65849
367.8120, 37.71582
368.2941, 38.29650
368.7762, 37.10046
369.2584, 35.90660
369.7405, 34.46250
370.2226, 33.41265
370.7047, 33.78802
371.1868, 35.59549
371.6689, 37.30328
372.1511, 37.46421
372.6332, 35.98426
373.1153, 35.01146
373.5974, 34.78297
374.0795, 34.76195
374.5616, 34.88891
375.0438, 35.02472
375.5259, 34.76464
376.0080, 33.80408
376.4901, 32.49243
376.9722, 32.09911
377.4543, 34.18283
377.9365, 35.16739
378.4186, 33.69859
378.9007, 31.39769
379.3828, 29.99964
379.8649, 29.99252
380.3470, 30.81249
380.8292, 31.69841
381.3113, 32.62761
381.7934, 33.72950
382.2755, 36.37369
382.7576, 38.00678
383.2397, 36.13730
383.7219, 31.68313
384.2040, 27.89221
384.6861, 27.44284
385.1682, 30.08347
385.6503, 31.84595
386.1324, 31.36701
386.6146, 31.49422
387.0967, 33.53605
387.5788, 36.18083
388.0609, 37.75089
388.5430, 37.52672
389.0251, 36.09475
389.5073, 34.55377
389.9894, 32.73758
390.4715, 31.16787
390.9536, 29.18970
391.4357, 27.93331
391.9178, 28.43383
392.4000, 30.57348
392.8821, 33.24703
393.3642, 35.77461
393.8463, 38.21008
394.3284, 38.53194
394.8105, 34.30501
395.2927, 30.71827
395.7748, 30.08970
396.2569, 31.16724
396.7390, 31.71143
397.2211, 30.46405
397.7032, 28.35852
398.1854, 27.61401
398.6675, 28.74822
399.1496, 29.66742
399.6317, 29.31551
400.1138, 28.81516
400.5959, 29.03252
401.0780, 30.11005
401.5602, 31.55908
402.0423, 33.24784
402.5244, 35.08770
403.0065, 36.07207
403.4886, 35.87046
403.9707, 35.04602
404.4529, 33.59173
404.9350, 31.84102
405.4171, 30.76660
405.8992, 31.27347
406.3813, 32.45219
406.8634, 32.86639
407.3456, 32.45491
407.8277, 31.80532
408.3098, 30.86628
408.7919, 30.03791
409.2740, 30.10583
409.7561, 31.57169
410.2383, 32.72278
410.7204, 31.90951
411.2025, 29.92109
411.6846, 29.24535
412.1667, 30.78918
412.6488, 32.97787
413.1310, 33.76105
413.6131, 33.19336
414.0952, 32.98981
414.5773, 34.10909
415.0594, 35.26928
415.5415, 35.12519
416.0237, 33.72926
416.5058, 32.09918
416.9879, 30.71679
417.4700, 29.71086
417.9521, 29.76135
418.4342, 32.22968
418.9164, 33.94491
419.3985, 33.61517
419.8806, 32.13627
420.3627, 30.75743
420.8448, 29.87973
421.3269, 29.24127
421.8091, 28.38380
422.2912, 26.89900
422.7733, 26.51010
423.2554, 27.99399
423.7375, 29.80152
424.2196, 31.18963
424.7018, 32.08660
425.1839, 32.73495
425.6660, 33.38557
426.1481, 33.87041
426.6302, 32.93908
427.1123, 27.59215
427.5945, 24.60003
428.0766, 26.50073
428.5587, 30.22932
429.0408, 32.77715
429.5229, 33.21964
430.0050, 32.58099
430.4872, 32.11524
430.9693, 31.71394
431.4514, 31.94267
431.9335, 34.42170
432.4156, 36.08785
432.8977, 34.85937
433.3799, 31.74643
433.8620, 29.46282
434.3441, 30.07870
434.8262, 32.37991
435.3083, 32.57408
435.7904, 29.65548
436.2726, 27.41895
436.7547, 27.85348
437.2368, 29.25050
437.7189, 30.20618
438.2010, 30.44953
438.6831, 30.45063
439.1653, 30.57849
439.6474, 30.80266
440.1295, 30.94705
440.6116, 30.94609
441.0937, 30.93576
441.5758, 31.23964
442.0580, 31.67662
442.5401, 31.59985
443.0222, 30.33210
443.5043, 28.81407
443.9864, 27.71911
444.4685, 27.10557
444.9507, 27.59895
445.4328, 30.03516
445.9149, 33.20746
446.3970, 34.17340
446.8791, 32.23187
447.3612, 30.57099
447.8434, 30.29210
448.3255, 30.65096
448.8076, 30.67137
449.2897, 30.20762
449.7718, 29.89326
450.2539, 30.46794
450.7361, 32.01498
451.2182, 32.42820
451.7003, 30.68401
452.1824, 29.10792
452.6645, 28.38620
453.1466, 28.43269
453.6288, 29.33380
454.1109, 31.13323
454.5930, 33.00256
455.0751, 33.11161
455.5572, 29.58696
456.0393, 28.01164
456.5215, 29.91638
457.0036, 32.13342
457.4857, 32.81673
457.9678, 32.05356
458.4499, 30.91733
458.9320, 30.17263
459.4142, 29.76326
459.8963, 29.36705
460.3784, 29.06241
460.8605, 28.62487
461.3426, 27.42777
461.8247, 26.37934
462.3069, 26.64387
462.7890, 28.50619
463.2711, 30.51471
463.7532, 31.00162
464.2353, 30.09105
464.7174, 29.50945
465.1996, 29.59007
465.6817, 29.80353
466.1638, 29.52654
466.6459, 29.06428
467.1280, 29.27482
467.6101, 31.18917
468.0923, 33.21973
468.5744, 33.26554
469.0565, 31.54730
469.5386, 30.33489
470.0207, 30.63905
470.5028, 31.75165
470.9850, 32.62691
471.4671, 33.44238
471.9492, 33.35522
472.4313, 31.28238
472.9134, 28.70843
473.3955, 27.01092
473.8777, 26.38337
474.3598, 26.85712
474.8419, 28.73207
475.3240, 31.75688
475.8061, 33.37037
476.2882, 33.07972
476.7704, 32.20954
477.2525, 30.41565
477.7346, 28.44427
478.2167, 27.31586
478.6988, 27.23918
479.1809, 27.40989
479.6631, 26.66522
480.1452, 24.62448
480.6273, 23.66087
481.1094, 25.06869
481.5915, 26.23711
482.0736, 26.04572
482.5558, 25.07477
483.0379, 24.38823
483.5200, 24.49892
484.0021, 25.11912
484.4842, 25.69718
484.9663, 26.18098
485.4485, 26.89839
485.9306, 28.56842
486.4127, 29.90705
486.8948, 29.90573
487.3769, 28.71047
487.8590, 27.32842
488.3412, 26.03999
488.8233, 25.03892
489.3054, 24.63449
489.7875, 24.80699
490.2696, 25.90975
490.7517, 28.97728
491.2339, 32.60318
491.7160, 33.96575
492.1981, 32.31595
492.6802, 30.58831
493.1623, 30.08980
493.6444, 30.24745
494.1266, 30.06049
494.6087, 29.37882
495.0908, 29.18537
495.5729, 30.75270
496.0550, 34.00740
496.5371, 34.51954
497.0193, 29.80607
497.5014, 25.68120
497.9835, 23.60562
498.4656, 23.29387
498.9477, 24.82049
499.4298, 28.04907
499.9120, 31.40822
500.3941, 32.51345
500.8762, 30.75945
501.3583, 29.17160
501.8404, 27.76159
502.3225, 26.51121
502.8047, 25.39808
503.2868, 24.44740
503.7689, 23.66551
504.2510, 23.00660
504.7331, 22.69889
505.2152, 23.40047
505.6974, 25.37255
506.1795, 26.75422
506.6616, 27.12443
507.1437, 26.77162
507.6258, 25.57641
508.1079, 23.74587
508.5901, 22.35667
509.0722, 22.23928
509.5543, 22.70876
510.0364, 22.71645
510.5185, 22.26413
511.0006, 21.90885
511.4828, 21.79529
511.9649, 22.05109
512.4470, 23.12177
512.9291, 25.42556
513.4112, 27.01497
513.8933, 27.10810
514.3754, 26.40870
514.8575, 25.46404
515.3397, 24.40562
515.8218, 23.40037
516.3039, 22.55726
516.7860, 21.87529
517.2681, 21.35887
517.7502, 20.79384
518.2324, 20.68450
518.7145, 21.05862
519.1966, 21.92089
519.6787, 23.56199
520.1608, 25.85805
520.6429, 28.05968
521.1251, 29.64023
521.6072, 30.57295
522.0893, 29.47322
522.5714, 24.02124
523.0535, 20.27390
523.5356, 21.88985
524.0178, 25.37771
524.4999, 26.40947
524.9820, 23.70650
525.4641, 20.53335
525.9462, 20.22682
526.4283, 22.09877
526.9105, 22.93828
527.3926, 22.08292
527.8747, 20.84806
528.3568, 20.25205
528.8389, 20.10827
529.3210, 19.74304
529.8032, 18.50258
530.2853, 17.70130
530.7674, 18.45179
531.2495, 20.08283
531.7316, 21.18948
532.2137, 21.35935
532.6959, 21.38345
533.1780, 22.34807
533.6601, 24.58451
534.1422, 25.65962
534.6243, 25.28832
535.1064, 24.27942
535.5886, 22.22533
536.0707, 19.94277
536.5528, 18.59349
537.0349, 18.64132
537.5170, 19.65030
537.9991, 21.25638
538.4813, 23.82133
538.9634, 25.05921
539.4455, 23.47329
539.9276, 22.06843
540.4097, 22.54832
540.8918, 24.16450
541.3740, 25.39222
541.8561, 25.65095
542.3382, 25.25797
542.8203, 24.22423
543.3024, 22.67718
543.7845, 21.90714
544.2667, 22.38954
544.7488, 23.42496
545.2309, 24.35193
545.7130, 25.18134
546.1951, 26.00411
546.6772, 27.20407
547.1594, 28.05328
547.6415, 27.95365
548.1236, 27.12534
548.6057, 26.06982
549.0878, 24.97996
549.5699, 23.91961
550.0521, 22.93326
550.5342, 21.74781
551.0163, 21.54656
551.4984, 23.10958
551.9805, 24.70112
552.4626, 25.72541
552.9448, 26.19274
553.4269, 26.22095
553.9090, 25.84962
554.3911, 25.23258
554.8732, 24.61673
555.3553, 23.99968
555.8375, 23.38252
556.3196, 22.76436
556.8017, 22.14675
557.2838, 21.52971
557.7659, 20.91103
558.2480, 20.26204
558.7302, 19.32319
559.2123, 18.65101
559.6944, 19.15983
560.1765, 20.53502
560.6586, 21.24227
561.1407, 20.66729
561.6229, 19.79505
562.1050, 20.00564
562.5871, 21.57566
563.0692, 22.09601
563.5513, 20.31825
564.0334, 18.71409
564.5156, 18.28610
564.9977, 18.98322
565.4798, 21.07035
565.9619, 24.58891
566.4440, 28.02420
566.9261, 28.82685
567.4083, 26.34746
567.8904, 23.85696
568.3725, 20.24527
568.8546, 17.83924
569.3367, 18.17640
569.8188, 20.07211
570.3010, 21.66347
570.7831, 22.30730
571.2652, 22.30940
571.7473, 21.74223
572.2294, 20.72411
572.7115, 20.34492
573.1937, 21.08915
573.6758, 21.70634
574.1579, 20.64930
574.6400, 18.51284
575.1221, 17.65793
575.6042, 19.52369
576.0864, 21.32894
576.5685, 21.27055
577.0506, 20.36870
577.5327, 20.53494
578.0148, 22.18492
578.4969, 23.90872
578.9791, 24.07292
579.4612, 22.57599
579.9433, 22.08285
580.4254, 23.81018
580.9075, 25.12696
581.3896, 25.73829
581.8718, 25.60681
582.3539, 24.25734
582.8360, 21.77988
583.3181, 19.70029
583.8002, 20.04737
584.2823, 22.37753
584.7645, 23.18017
585.2466, 21.81939
585.7287, 20.72766
586.2108, 21.44879
586.6929, 22.99644
587.1750, 24.03874
587.6572, 24.50068
588.1393, 24.38215
588.6214, 23.18099
589.1035, 21.65308
589.5856, 20.80202
590.0677, 20.69630
590.5499, 20.98549
591.0320, 21.55376
591.5141, 22.18377
591.9962, 22.04123
592.4783, 19.49647
592.9604, 18.51981
593.4426, 20.77156
593.9247, 23.24838
594.4068, 23.72885
594.8889, 22.47559
595.3710, 21.04322
595.8531, 20.35815
596.3353, 20.29090
596.8174, 20.73785
597.2995, 21.88659
597.7816, 22.39065
598.2637, 21.31721
598.7458, 20.19284
599.2280, 20.66146
599.7101, 22.36213
600.1922, 23.31939
600.6743, 21.98576
601.1564, 20.46534
601.6385, 20.77899
602.1207, 22.37211
602.6028, 23.60637
603.0849, 23.93515
603.5670, 23.75220
604.0491, 23.60877
604.5313, 23.64814
605.0134, 22.78970
605.4955, 20.07089
605.9776, 17.68115
606.4597, 16.01060
606.9418, 15.19270
607.4240, 15.56455
607.9061, 17.14179
608.3882, 19.18604
608.8703, 20.96027
609.3524, 22.46924
609.8345, 24.01308
610.3167, 26.12387
610.7988, 26.90909
611.2809, 23.76189
611.7630, 19.48299
