##NAMES=Cerussite
##RRUFFID=R060017
##IDEAL CHEMISTRY=Pb^2+^CO_3_
##LOCALITY=Gonessa, Sardinia, Italy
##OWNER=RRUFF
##SOURCE=American Museum of Natural History
##DESCRIPTION=White reticulated composite
##STATUS=The identification of this mineral has been confirmed by X-ray diffraction and chemical analysis
##URL=rruff.info/R060017
##MEASURED CHEMISTRY=Pb_1.00_CO_3_ C not measured but estimated by difference and stoichiometry
93.40625, 358.5723
93.88837, 344.2051
94.37048, 354.5805
94.85260, 384.6495
95.33472, 420.1572
95.81683, 458.7746
96.29895, 500.5172
96.78107, 545.0964
97.26318, 592.5668
97.74530, 644.5862
98.22742, 702.3871
98.70953, 766.1561
99.19165, 834.4050
99.67377, 908.0634
100.1559, 985.9843
100.6380, 1062.029
101.1201, 1137.150
101.6022, 1207.184
102.0844, 1264.841
102.5665, 1309.461
103.0486, 1345.405
103.5307, 1373.009
104.0128, 1391.432
104.4949, 1405.905
104.9771, 1414.521
105.4592, 1420.266
105.9413, 1430.203
106.4234, 1445.670
106.9055, 1463.423
107.3876, 1481.764
107.8698, 1499.410
108.3519, 1520.063
108.8340, 1543.537
109.3161, 1570.162
109.7982, 1600.331
110.2803, 1637.786
110.7624, 1676.640
111.2446, 1713.750
111.7267, 1746.045
112.2088, 1780.379
112.6909, 1818.966
113.1730, 1861.854
113.6551, 1902.651
114.1373, 1939.041
114.6194, 1973.488
115.1015, 2008.420
115.5836, 2049.866
116.0657, 2086.724
116.5478, 2113.997
117.0300, 2131.401
117.5121, 2145.708
117.9942, 2158.764
118.4763, 2170.286
118.9584, 2179.869
119.4405, 2184.836
119.9227, 2189.667
120.4048, 2196.796
120.8869, 2206.460
121.3690, 2218.647
121.8511, 2234.751
122.3332, 2253.449
122.8154, 2271.961
123.2975, 2286.130
123.7796, 2300.489
124.2617, 2319.712
124.7438, 2344.183
125.2259, 2373.876
125.7081, 2411.230
126.1902, 2453.572
126.6723, 2483.323
127.1544, 2497.933
127.6365, 2510.070
128.1186, 2526.643
128.6008, 2551.044
129.0829, 2577.746
129.5650, 2598.070
130.0471, 2612.381
130.5292, 2625.460
131.0113, 2643.132
131.4935, 2663.568
131.9756, 2678.829
132.4577, 2685.324
132.9398, 2685.726
133.4219, 2686.856
133.9040, 2688.719
134.3862, 2690.914
134.8683, 2693.495
135.3504, 2696.434
135.8325, 2697.793
136.3146, 2694.947
136.7967, 2688.887
137.2789, 2690.578
137.7610, 2701.283
138.2431, 2716.462
138.7252, 2730.196
139.2073, 2742.029
139.6894, 2754.806
140.1716, 2768.833
140.6537, 2783.703
141.1358, 2804.462
141.6179, 2833.305
142.1000, 2866.283
142.5821, 2895.381
143.0643, 2919.563
143.5464, 2942.764
144.0285, 2967.255
144.5106, 2994.596
144.9927, 3018.671
145.4748, 3037.952
145.9570, 3054.123
146.4391, 3071.285
146.9212, 3091.578
147.4033, 3110.481
147.8854, 3126.305
148.3675, 3140.147
148.8497, 3149.118
149.3318, 3154.271
149.8139, 3154.891
150.2960, 3146.753
150.7781, 3125.990
151.2602, 3099.337
151.7424, 3070.609
152.2245, 3042.101
152.7066, 3008.952
153.1887, 2970.001
153.6708, 2925.831
154.1529, 2879.788
154.6351, 2830.160
155.1172, 2779.388
155.5993, 2729.187
156.0814, 2679.210
156.5635, 2629.686
157.0456, 2578.145
157.5278, 2525.072
158.0099, 2479.631
158.4920, 2447.998
158.9741, 2422.456
159.4562, 2395.998
159.9383, 2363.296
160.4205, 2332.813
160.9026, 2307.005
161.3847, 2286.019
161.8668, 2269.457
162.3489, 2259.265
162.8310, 2252.797
163.3132, 2246.965
163.7953, 2238.527
164.2774, 2232.121
164.7595, 2230.401
165.2416, 2233.889
165.7237, 2239.496
166.2059, 2246.859
166.6880, 2255.171
167.1701, 2263.216
167.6522, 2269.381
168.1343, 2275.746
168.6164, 2284.052
169.0986, 2294.864
169.5807, 2305.980
170.0628, 2316.237
170.5449, 2325.784
171.0270, 2334.813
171.5091, 2344.075
171.9913, 2352.597
172.4734, 2359.314
172.9555, 2363.913
173.4376, 2367.478
173.9197, 2373.593
174.4018, 2379.992
174.8840, 2380.282
175.3661, 2366.258
175.8482, 2345.491
176.3303, 2328.325
176.8124, 2317.613
177.2945, 2307.501
177.7767, 2292.150
178.2588, 2271.942
178.7409, 2249.168
179.2230, 2224.159
179.7051, 2197.422
180.1872, 2170.518
180.6694, 2143.969
181.1515, 2116.347
181.6336, 2084.645
182.1157, 2049.505
182.5978, 2015.631
183.0799, 1986.208
183.5621, 1960.238
184.0442, 1935.774
184.5263, 1912.608
185.0084, 1890.163
185.4905, 1866.364
185.9726, 1841.404
186.4547, 1817.568
186.9369, 1796.811
187.4190, 1778.617
187.9011, 1761.850
188.3832, 1746.406
188.8653, 1731.903
189.3474, 1716.857
189.8296, 1701.073
190.3117, 1686.800
190.7938, 1676.388
191.2759, 1669.463
191.7580, 1663.010
192.2401, 1656.022
192.7223, 1649.188
193.2044, 1644.677
193.6865, 1642.608
194.1686, 1641.524
194.6507, 1639.935
195.1328, 1637.883
195.6150, 1637.038
196.0971, 1638.621
196.5792, 1641.491
197.0613, 1640.049
197.5434, 1633.268
198.0255, 1626.992
198.5077, 1628.140
198.9898, 1637.037
199.4719, 1644.518
199.9540, 1647.780
200.4361, 1647.804
200.9182, 1650.520
201.4004, 1656.705
201.8825, 1663.205
202.3646, 1666.636
202.8467, 1666.648
203.3288, 1666.298
203.8109, 1665.643
204.2931, 1665.037
204.7752, 1667.996
205.2573, 1675.434
205.7394, 1684.255
206.2215, 1690.973
206.7036, 1694.932
207.1858, 1700.010
207.6679, 1707.593
208.1500, 1717.442
208.6321, 1725.926
209.1142, 1732.913
209.5963, 1738.779
210.0785, 1743.769
210.5606, 1747.642
211.0427, 1751.368
211.5248, 1754.943
212.0069, 1758.403
212.4890, 1763.360
212.9712, 1770.579
213.4533, 1778.169
213.9354, 1784.299
214.4175, 1789.420
214.8996, 1791.799
215.3817, 1790.327
215.8639, 1785.003
216.3460, 1780.971
216.8281, 1778.986
217.3102, 1777.247
217.7923, 1773.285
218.2744, 1765.391
218.7566, 1759.605
219.2387, 1757.933
219.7208, 1760.448
220.2029, 1762.356
220.6850, 1764.104
221.1671, 1764.678
221.6493, 1762.323
222.1314, 1754.775
222.6135, 1749.532
223.0956, 1749.149
223.5777, 1753.894
224.0598, 1756.710
224.5420, 1757.746
225.0241, 1756.741
225.5062, 1753.040
225.9883, 1745.257
226.4704, 1737.793
226.9525, 1732.213
227.4347, 1728.611
227.9168, 1722.379
228.3989, 1711.844
228.8810, 1700.468
229.3631, 1692.287
229.8452, 1689.314
230.3274, 1685.421
230.8095, 1679.419
231.2916, 1671.278
231.7737, 1661.723
232.2558, 1649.208
232.7379, 1636.882
233.2201, 1628.310
233.7022, 1625.466
234.1843, 1622.544
234.6664, 1618.406
235.1485, 1613.072
235.6306, 1607.795
236.1128, 1602.195
236.5949, 1596.964
237.0770, 1592.871
237.5591, 1590.768
238.0412, 1588.123
238.5233, 1584.218
239.0055, 1579.040
239.4876, 1574.947
239.9697, 1572.963
240.4518, 1570.937
240.9339, 1566.782
241.4160, 1559.122
241.8982, 1552.089
242.3803, 1546.518
242.8624, 1542.347
243.3445, 1538.174
243.8266, 1533.857
244.3087, 1529.647
244.7909, 1525.939
245.2730, 1523.696
245.7551, 1519.963
246.2372, 1514.084
246.7193, 1506.166
247.2014, 1497.724
247.6836, 1488.579
248.1657, 1479.174
248.6478, 1469.841
249.1299, 1460.036
249.6120, 1451.424
250.0941, 1444.825
250.5762, 1439.851
251.0584, 1433.227
251.5405, 1424.421
252.0226, 1414.788
252.5047, 1405.208
252.9868, 1395.168
253.4689, 1386.320
253.9511, 1378.991
254.4332, 1373.022
254.9153, 1367.885
255.3974, 1364.646
255.8795, 1360.672
256.3617, 1353.783
256.8438, 1341.609
257.3259, 1332.859
257.8080, 1329.516
258.2901, 1330.010
258.7722, 1327.874
259.2544, 1321.686
259.7365, 1315.203
260.2186, 1310.436
260.7007, 1307.984
261.1828, 1305.438
261.6649, 1302.295
262.1471, 1299.065
262.6292, 1297.691
263.1113, 1299.617
263.5934, 1300.409
264.0755, 1296.881
264.5576, 1286.591
265.0398, 1281.072
265.5219, 1282.539
266.0040, 1287.631
266.4861, 1288.162
266.9682, 1282.352
267.4503, 1276.455
267.9325, 1273.691
268.4146, 1274.926
268.8967, 1275.088
269.3788, 1273.795
269.8609, 1271.847
270.3430, 1270.731
270.8252, 1270.564
271.3073, 1270.873
271.7894, 1271.804
272.2715, 1273.539
272.7536, 1273.739
273.2357, 1271.878
273.7179, 1269.211
274.2000, 1267.866
274.6821, 1268.285
275.1642, 1267.953
275.6463, 1265.360
276.1284, 1260.486
276.6106, 1258.121
277.0927, 1258.817
277.5748, 1260.817
278.0569, 1262.216
278.5390, 1263.062
279.0211, 1262.892
279.5032, 1260.924
279.9854, 1257.565
280.4675, 1256.365
280.9496, 1257.585
281.4317, 1260.127
281.9138, 1263.681
282.3959, 1268.371
282.8781, 1270.832
283.3602, 1269.587
283.8423, 1265.530
284.3244, 1262.421
284.8065, 1260.300
285.2886, 1258.737
285.7708, 1257.297
286.2529, 1255.995
286.7350, 1255.251
287.2171, 1255.135
287.6992, 1255.625
288.1813, 1257.160
288.6635, 1259.836
289.1456, 1261.779
289.6277, 1260.722
290.1098, 1257.212
290.5919, 1255.054
291.0740, 1255.023
291.5562, 1256.317
292.0383, 1257.709
292.5204, 1259.190
293.0025, 1260.328
293.4846, 1261.173
293.9667, 1261.526
294.4489, 1260.526
294.9310, 1257.905
295.4131, 1254.442
295.8952, 1250.490
296.3773, 1246.345
296.8594, 1243.705
297.3416, 1244.616
297.8237, 1247.616
298.3058, 1249.321
298.7879, 1249.412
299.2700, 1248.737
299.7521, 1247.555
300.2343, 1246.252
300.7164, 1246.127
301.1985, 1249.210
301.6806, 1253.382
302.1627, 1255.065
302.6448, 1254.040
303.1270, 1252.177
303.6091, 1250.470
304.0912, 1249.202
304.5733, 1248.894
305.0554, 1250.741
305.5375, 1253.125
306.0197, 1254.119
306.5018, 1253.782
306.9839, 1253.223
307.4660, 1252.978
307.9481, 1253.094
308.4302, 1253.724
308.9124, 1256.041
309.3945, 1257.779
309.8766, 1255.950
310.3587, 1251.339
310.8408, 1248.161
311.3229, 1250.439
311.8051, 1254.760
312.2872, 1257.576
312.7693, 1257.481
313.2514, 1256.742
313.7335, 1256.906
314.2156, 1257.528
314.6978, 1257.322
315.1799, 1253.344
315.6620, 1249.763
316.1441, 1250.206
316.6262, 1256.966
317.1083, 1263.031
317.5905, 1265.344
318.0726, 1264.955
318.5547, 1263.717
319.0368, 1260.360
319.5189, 1257.808
320.0010, 1257.982
320.4832, 1261.672
320.9653, 1264.782
321.4474, 1267.010
321.9295, 1267.783
322.4116, 1266.433
322.8937, 1257.925
323.3759, 1252.023
323.8580, 1253.384
324.3401, 1262.612
324.8222, 1268.640
325.3043, 1267.344
325.7864, 1263.624
326.2686, 1261.258
326.7507, 1261.524
327.2328, 1262.143
327.7149, 1263.000
328.1970, 1264.042
328.6791, 1264.896
329.1613, 1265.693
329.6434, 1266.172
330.1255, 1266.171
330.6076, 1265.065
331.0897, 1264.363
331.5718, 1264.075
332.0540, 1264.206
332.5361, 1264.865
333.0182, 1266.932
333.5003, 1268.367
333.9824, 1267.916
334.4645, 1264.030
334.9467, 1263.301
335.4288, 1267.606
335.9109, 1273.752
336.3930, 1275.992
336.8751, 1272.208
337.3572, 1269.600
337.8394, 1271.038
338.3215, 1276.802
338.8036, 1279.581
339.2857, 1278.462
339.7678, 1275.947
340.2499, 1274.678
340.7321, 1274.854
341.2142, 1275.244
341.6963, 1275.639
342.1784, 1276.025
342.6605, 1276.264
343.1426, 1276.282
343.6248, 1276.455
344.1069, 1277.213
344.5890, 1278.505
345.0711, 1279.638
345.5532, 1280.591
346.0353, 1281.184
346.5175, 1280.430
346.9996, 1278.355
347.4817, 1277.280
347.9638, 1279.529
348.4459, 1284.069
348.9280, 1287.026
349.4102, 1287.933
349.8923, 1288.021
350.3744, 1289.186
350.8565, 1290.984
351.3386, 1291.688
351.8207, 1289.211
352.3029, 1285.552
352.7850, 1284.381
353.2671, 1285.770
353.7492, 1287.209
354.2313, 1285.803
354.7134, 1283.049
355.1956, 1281.584
355.6777, 1282.896
356.1598, 1285.329
356.6419, 1288.125
357.1240, 1291.028
357.6061, 1292.628
358.0883, 1290.686
358.5704, 1287.681
359.0525, 1286.084
359.5346, 1286.724
360.0167, 1288.244
360.4988, 1290.323
360.9810, 1292.692
361.4631, 1294.744
361.9452, 1296.276
362.4273, 1297.349
362.9094, 1298.077
363.3915, 1298.555
363.8737, 1298.193
364.3558, 1295.011
364.8379, 1291.459
365.3200, 1290.428
365.8021, 1295.748
366.2842, 1300.542
366.7664, 1302.757
367.2485, 1302.341
367.7306, 1301.346
368.2127, 1298.674
368.6948, 1296.364
369.1769, 1295.755
369.6591, 1299.696
370.1412, 1301.914
370.6233, 1301.263
371.1054, 1298.564
371.5875, 1296.841
372.0696, 1295.961
372.5518, 1296.247
373.0339, 1298.201
373.5160, 1303.130
373.9981, 1305.852
374.4802, 1305.471
374.9623, 1303.621
375.4445, 1302.858
375.9266, 1303.349
376.4087, 1304.481
376.8908, 1306.391
377.3729, 1309.029
377.8550, 1310.274
378.3372, 1309.651
378.8193, 1308.870
379.3014, 1309.970
379.7835, 1313.086
380.2656, 1315.195
380.7477, 1315.322
381.2299, 1314.449
381.7120, 1315.439
382.1941, 1318.324
382.6762, 1320.825
383.1583, 1320.823
383.6404, 1319.028
384.1226, 1318.510
384.6047, 1319.878
385.0868, 1321.389
385.5689, 1320.587
386.0510, 1317.962
386.5331, 1315.359
387.0153, 1312.880
387.4974, 1311.253
387.9795, 1312.257
388.4616, 1315.901
388.9437, 1319.155
389.4258, 1318.661
389.9080, 1316.579
390.3901, 1316.129
390.8722, 1319.954
391.3543, 1323.771
391.8364, 1323.855
392.3185, 1321.123
392.8007, 1318.960
393.2828, 1319.031
393.7649, 1320.228
394.2470, 1322.060
394.7291, 1324.990
395.2112, 1326.944
395.6934, 1325.993
396.1755, 1323.834
396.6576, 1323.015
397.1397, 1326.159
397.6218, 1328.803
398.1039, 1329.058
398.5861, 1326.572
399.0682, 1325.044
399.5503, 1324.620
400.0324, 1325.433
400.5145, 1327.688
400.9966, 1335.183
401.4788, 1338.757
401.9609, 1335.890
402.4430, 1328.483
402.9251, 1323.839
403.4072, 1322.593
403.8893, 1323.177
404.3714, 1325.290
404.8535, 1329.587
405.3357, 1332.656
405.8178, 1334.161
406.2999, 1334.829
406.7820, 1335.673
407.2641, 1336.751
407.7462, 1337.662
408.2284, 1338.388
408.7105, 1338.849
409.1926, 1338.537
409.6747, 1337.373
410.1568, 1336.078
410.6389, 1334.735
411.1211, 1333.612
411.6032, 1334.546
412.0853, 1338.656
412.5674, 1343.342
413.0495, 1344.196
413.5316, 1341.912
414.0138, 1339.998
414.4959, 1340.300
414.9780, 1342.200
415.4601, 1345.628
415.9422, 1350.785
416.4243, 1354.358
416.9065, 1352.088
417.3886, 1346.840
417.8707, 1342.886
418.3528, 1341.310
418.8349, 1341.830
419.3170, 1345.413
419.7992, 1351.394
420.2813, 1356.470
420.7634, 1359.373
421.2455, 1360.851
421.7276, 1361.202
422.2097, 1359.868
422.6919, 1358.886
423.1740, 1359.665
423.6561, 1360.901
424.1382, 1360.611
424.6203, 1355.494
425.1024, 1351.846
425.5846, 1351.973
426.0667, 1356.162
426.5488, 1358.829
427.0309, 1359.549
427.5130, 1359.146
427.9951, 1358.042
428.4773, 1355.575
428.9594, 1353.870
429.4415, 1353.201
429.9236, 1353.333
430.4057, 1353.551
430.8878, 1353.613
431.3700, 1354.583
431.8521, 1357.575
432.3342, 1362.596
432.8163, 1365.334
433.2984, 1365.483
433.7805, 1364.463
434.2627, 1363.160
434.7448, 1361.747
435.2269, 1362.299
435.7090, 1366.579
436.1911, 1371.847
436.6732, 1371.671
437.1554, 1366.681
437.6375, 1362.026
438.1196, 1361.018
438.6017, 1362.587
439.0838, 1365.781
439.5659, 1371.011
440.0481, 1374.910
440.5302, 1372.482
441.0123, 1367.129
441.4944, 1364.568
441.9765, 1370.155
442.4586, 1376.753
442.9408, 1380.286
443.4229, 1380.877
443.9050, 1380.372
444.3871, 1378.197
444.8692, 1376.062
445.3513, 1375.168
445.8335, 1376.466
446.3156, 1377.650
446.7977, 1378.445
447.2798, 1378.844
447.7619, 1378.811
448.2440, 1377.648
448.7262, 1376.797
449.2083, 1376.541
449.6904, 1376.882
450.1725, 1377.775
450.6546, 1379.730
451.1367, 1381.592
451.6189, 1382.319
452.1010, 1381.393
452.5831, 1381.202
453.0652, 1382.229
453.5473, 1383.853
454.0294, 1384.632
454.5116, 1384.478
454.9937, 1384.226
455.4758, 1384.036
455.9579, 1384.010
456.4400, 1385.189
456.9221, 1387.766
457.4043, 1389.732
457.8864, 1388.045
458.3685, 1384.068
458.8506, 1381.903
459.3327, 1383.187
459.8148, 1385.674
460.2970, 1386.939
460.7791, 1387.221
461.2612, 1387.280
461.7433, 1387.271
462.2254, 1387.404
462.7076, 1387.731
463.1897, 1388.226
463.6718, 1389.465
464.1539, 1393.190
464.6360, 1397.197
465.1181, 1399.219
465.6003, 1397.025
466.0824, 1394.588
466.5645, 1392.174
467.0466, 1390.136
467.5287, 1389.790
468.0108, 1393.387
468.4930, 1396.777
468.9751, 1398.345
469.4572, 1397.453
469.9393, 1397.050
470.4214, 1397.418
470.9035, 1397.993
471.3857, 1398.048
471.8678, 1397.213
472.3499, 1396.983
472.8320, 1397.605
473.3141, 1399.017
473.7962, 1401.760
474.2784, 1406.294
474.7605, 1408.938
475.2426, 1405.265
475.7247, 1396.965
476.2068, 1395.293
476.6889, 1401.416
477.1711, 1409.206
477.6532, 1412.168
478.1353, 1411.361
478.6174, 1409.524
479.0995, 1406.572
479.5816, 1404.066
480.0638, 1404.004
480.5459, 1405.965
481.0280, 1408.430
481.5101, 1411.075
481.9922, 1413.515
482.4743, 1415.416
482.9565, 1416.725
483.4386, 1417.577
483.9207, 1418.222
484.4028, 1418.348
484.8849, 1417.620
485.3670, 1413.888
485.8492, 1411.653
486.3313, 1413.164
486.8134, 1417.389
487.2955, 1418.865
487.7776, 1414.789
488.2597, 1411.363
488.7419, 1411.229
489.2240, 1415.114
489.7061, 1419.177
490.1882, 1424.348
490.6703, 1428.344
491.1524, 1427.605
491.6346, 1421.193
492.1167, 1417.337
492.5988, 1418.244
493.0809, 1421.945
493.5630, 1423.713
494.0451, 1423.573
494.5273, 1422.431
495.0094, 1419.127
495.4915, 1415.450
495.9736, 1416.459
496.4557, 1422.612
496.9378, 1428.797
497.4200, 1429.914
497.9021, 1428.243
498.3842, 1427.304
498.8663, 1428.883
499.3484, 1430.444
499.8305, 1430.344
500.3127, 1428.995
500.7948, 1427.432
501.2769, 1425.250
501.7590, 1423.617
502.2411, 1423.286
502.7232, 1424.510
503.2054, 1425.532
503.6875, 1425.537
504.1696, 1425.619
504.6517, 1426.670
505.1338, 1430.092
505.6159, 1431.892
506.0981, 1431.081
506.5802, 1428.819
507.0623, 1427.969
507.5444, 1429.081
508.0265, 1429.748
508.5086, 1428.880
508.9908, 1426.707
509.4729, 1425.012
509.9550, 1423.763
510.4371, 1423.268
510.9192, 1423.691
511.4013, 1425.103
511.8835, 1428.492
512.3655, 1435.036
512.8477, 1440.363
513.3298, 1437.407
513.8119, 1429.204
514.2940, 1422.948
514.7761, 1423.930
515.2582, 1426.584
515.7404, 1425.823
516.2225, 1422.294
516.7046, 1421.095
517.1867, 1427.137
517.6688, 1434.427
518.1509, 1439.038
518.6331, 1439.512
519.1152, 1439.487
519.5973, 1439.275
520.0794, 1438.905
520.5615, 1438.375
521.0436, 1436.951
521.5258, 1436.465
522.0079, 1437.527
522.4900, 1439.752
522.9721, 1441.395
523.4542, 1442.430
523.9363, 1442.854
524.4185, 1442.546
524.9006, 1441.516
525.3827, 1440.231
525.8648, 1438.589
526.3469, 1437.274
526.8290, 1437.210
527.3112, 1438.174
527.7933, 1439.292
528.2754, 1440.513
528.7575, 1441.594
529.2396, 1442.752
529.7217, 1443.625
530.2039, 1443.135
530.6860, 1438.295
531.1681, 1433.709
531.6502, 1433.039
532.1323, 1436.377
532.6144, 1440.039
533.0966, 1443.228
533.5787, 1445.783
534.0608, 1447.599
534.5429, 1448.258
535.0250, 1448.739
535.5071, 1448.763
535.9893, 1448.765
536.4714, 1449.503
536.9535, 1451.794
537.4356, 1453.149
537.9177, 1452.377
538.3998, 1450.129
538.8820, 1451.161
539.3641, 1456.373
539.8462, 1460.703
540.3283, 1459.948
540.8104, 1455.010
541.2925, 1452.509
541.7747, 1452.972
542.2568, 1454.246
542.7389, 1453.293
543.2210, 1451.393
543.7031, 1451.911
544.1852, 1457.456
544.6674, 1463.035
545.1495, 1463.744
545.6316, 1460.854
546.1137, 1457.524
546.5958, 1453.789
547.0779, 1451.186
547.5601, 1450.940
548.0422, 1453.159
548.5243, 1455.324
549.0064, 1456.325
549.4885, 1457.515
549.9706, 1459.924
550.4528, 1465.805
550.9349, 1468.468
551.4170, 1466.544
551.8991, 1462.495
552.3812, 1459.537
552.8633, 1457.382
553.3455, 1457.798
553.8276, 1462.532
554.3097, 1469.402
554.7918, 1470.280
555.2739, 1465.170
555.7560, 1460.581
556.2382, 1461.063
556.7203, 1464.808
557.2024, 1468.381
557.6845, 1471.671
558.1666, 1473.666
558.6487, 1472.071
559.1309, 1469.210
559.6130, 1468.264
560.0951, 1471.132
560.5772, 1473.817
561.0593, 1473.859
561.5414, 1472.503
562.0236, 1471.947
562.5057, 1473.595
562.9878, 1475.168
563.4699, 1475.997
563.9520, 1476.130
564.4341, 1476.197
564.9163, 1475.678
565.3984, 1475.811
565.8805, 1477.665
566.3626, 1481.882
566.8447, 1483.616
567.3268, 1482.407
567.8090, 1480.069
568.2911, 1478.427
568.7732, 1477.441
569.2553, 1476.736
569.7374, 1475.977
570.2195, 1476.000
570.7017, 1478.859
571.1838, 1483.652
571.6659, 1487.456
572.1480, 1488.033
572.6301, 1487.656
573.1122, 1488.816
573.5944, 1491.200
574.0765, 1491.792
574.5586, 1487.048
575.0407, 1481.746
575.5228, 1478.800
576.0049, 1479.288
576.4871, 1480.172
576.9692, 1481.736
577.4513, 1483.247
577.9334, 1483.837
578.4155, 1482.456
578.8976, 1482.910
579.3798, 1486.710
579.8619, 1491.779
580.3440, 1492.031
580.8261, 1486.964
581.3082, 1483.662
581.7903, 1486.224
582.2725, 1492.447
582.7546, 1495.957
583.2367, 1496.893
583.7188, 1496.869
584.2009, 1495.889
584.6830, 1495.125
585.1652, 1496.678
585.6473, 1501.259
586.1294, 1505.058
586.6115, 1504.640
587.0936, 1502.815
587.5757, 1502.545
588.0579, 1507.570
588.5400, 1510.647
589.0221, 1509.088
589.5042, 1504.758
