##NAMES=Cerussite
##RRUFFID=R060017
##IDEAL CHEMISTRY=Pb^2+^CO_3_
##LOCALITY=Gonessa, Sardinia, Italy
##OWNER=RRUFF
##SOURCE=American Museum of Natural History
##DESCRIPTION=White reticulated composite
##STATUS=The identification of this mineral has been confirmed by X-ray diffraction and chemical analysis
##URL=rruff.info/R060017
##MEASURED CHEMISTRY=Pb_1.00_CO_3_ C not measured but estimated by difference and stoichiometry
94.51007, 0.0000000E+00
94.99219, 3377.768
95.47430, 3333.498
95.95642, 3354.967
96.43854, 3433.152
96.92065, 3543.626
97.40277, 3649.187
97.88489, 3756.571
98.36700, 3858.897
98.84912, 3962.426
99.33124, 4058.364
99.81335, 4144.766
100.2955, 4222.052
100.7776, 4283.492
101.2597, 4313.264
101.7418, 4309.475
102.2239, 4273.456
102.7061, 4202.509
103.1882, 4101.059
103.6703, 3974.953
104.1524, 3819.933
104.6345, 3645.512
105.1166, 3470.506
105.5988, 3290.961
106.0809, 3117.084
106.5630, 2955.483
107.0451, 2804.262
107.5272, 2669.356
108.0093, 2553.994
108.4915, 2454.014
108.9736, 2368.052
109.4557, 2295.528
109.9378, 2235.516
110.4199, 2185.725
110.9020, 2148.852
111.3842, 2119.552
111.8663, 2096.928
112.3484, 2079.872
112.8305, 2067.388
113.3126, 2059.087
113.7947, 2054.986
114.2769, 2051.656
114.7590, 2050.074
115.2411, 2048.227
115.7232, 2046.128
116.2053, 2043.329
116.6874, 2038.977
117.1696, 2032.429
117.6517, 2023.772
118.1338, 2010.189
118.6159, 1990.219
119.0980, 1966.568
119.5801, 1941.119
120.0623, 1914.326
120.5444, 1885.937
121.0265, 1854.665
121.5086, 1820.328
121.9907, 1786.966
122.4728, 1754.278
122.9550, 1723.379
123.4371, 1697.364
123.9192, 1678.092
124.4013, 1663.196
124.8834, 1648.917
125.3655, 1635.098
125.8476, 1623.733
126.3298, 1616.452
126.8119, 1613.383
127.2940, 1613.128
127.7761, 1616.566
128.2582, 1622.240
128.7404, 1629.873
129.2225, 1639.418
129.7046, 1650.172
130.1867, 1661.193
130.6688, 1673.017
131.1509, 1684.045
131.6331, 1694.519
132.1152, 1704.100
132.5973, 1712.398
133.0794, 1719.158
133.5615, 1724.727
134.0436, 1730.403
134.5258, 1735.737
135.0079, 1741.687
135.4900, 1748.255
135.9721, 1755.552
136.4542, 1763.686
136.9363, 1772.677
137.4185, 1782.620
137.9006, 1794.249
138.3827, 1807.309
138.8648, 1821.907
139.3469, 1838.524
139.8290, 1856.924
140.3112, 1876.096
140.7933, 1894.998
141.2754, 1913.998
141.7575, 1935.001
142.2396, 1959.975
142.7217, 1986.052
143.2039, 2009.726
143.6860, 2030.413
144.1681, 2050.729
144.6502, 2073.135
145.1323, 2096.774
145.6144, 2119.997
146.0966, 2143.171
146.5787, 2165.441
147.0608, 2184.313
147.5429, 2199.315
148.0250, 2210.652
148.5071, 2219.132
148.9893, 2224.753
149.4714, 2227.548
149.9535, 2228.214
150.4356, 2227.010
150.9177, 2220.123
151.3998, 2205.491
151.8820, 2186.184
152.3641, 2162.739
152.8462, 2135.247
153.3283, 2103.699
153.8104, 2067.458
154.2925, 2025.326
154.7747, 1981.944
155.2568, 1936.547
155.7389, 1890.619
156.2210, 1844.590
156.7031, 1798.880
157.1852, 1754.208
157.6673, 1711.686
158.1495, 1671.231
158.6316, 1634.242
159.1137, 1600.171
159.5958, 1569.532
160.0779, 1543.093
160.5600, 1521.038
161.0422, 1502.540
161.5243, 1486.186
162.0064, 1471.600
162.4885, 1459.323
162.9706, 1449.455
163.4527, 1441.993
163.9349, 1437.098
164.4170, 1435.113
164.8991, 1435.497
165.3812, 1436.932
165.8633, 1439.297
166.3454, 1442.739
166.8276, 1447.312
167.3097, 1453.015
167.7918, 1460.094
168.2739, 1469.592
168.7560, 1479.901
169.2381, 1489.083
169.7203, 1496.793
170.2024, 1503.834
170.6845, 1511.220
171.1666, 1519.125
171.6487, 1526.188
172.1308, 1533.161
172.6130, 1538.437
173.0951, 1540.403
173.5772, 1538.468
174.0593, 1533.612
174.5414, 1527.697
175.0235, 1521.705
175.5057, 1512.175
175.9878, 1498.570
176.4699, 1481.833
176.9520, 1462.458
177.4341, 1440.653
177.9162, 1416.697
178.3984, 1391.109
178.8805, 1363.121
179.3626, 1334.240
179.8447, 1304.469
180.3268, 1273.930
180.8089, 1242.291
181.2911, 1209.453
181.7732, 1175.708
182.2553, 1142.251
182.7374, 1107.706
183.2195, 1074.854
183.7016, 1044.353
184.1838, 1015.922
184.6659, 989.1584
185.1480, 963.8134
185.6301, 939.7746
186.1122, 916.2792
186.5943, 892.0126
187.0765, 869.5340
187.5586, 850.1074
188.0407, 833.4189
188.5228, 818.3074
189.0049, 804.3839
189.4870, 791.5593
189.9692, 778.4626
190.4513, 763.8211
190.9334, 749.9454
191.4155, 738.3685
191.8976, 729.0858
192.3797, 721.0460
192.8619, 714.0014
193.3440, 707.7623
193.8261, 701.6991
194.3082, 695.6469
194.7903, 689.8414
195.2724, 684.3688
195.7546, 679.1408
196.2367, 674.8913
196.7188, 672.8175
197.2009, 671.9316
197.6830, 671.0692
198.1651, 669.9412
198.6473, 668.6138
199.1294, 666.9579
199.6115, 664.4996
200.0936, 662.9814
200.5757, 663.2962
201.0578, 664.8828
201.5400, 667.2281
202.0221, 670.2900
202.5042, 673.8051
202.9863, 676.9947
203.4684, 679.4177
203.9505, 682.2167
204.4327, 686.1459
204.9148, 690.5319
205.3969, 694.3171
205.8790, 696.7065
206.3611, 698.1918
206.8432, 701.4075
207.3254, 708.1193
207.8075, 714.6036
208.2896, 720.1308
208.7717, 724.8821
209.2538, 729.2341
209.7359, 733.3979
210.2181, 737.3610
210.7002, 740.8243
211.1823, 743.1654
211.6644, 745.6335
212.1465, 748.3985
212.6286, 751.4666
213.1108, 755.0132
213.5929, 759.2987
214.0750, 764.1501
214.5571, 766.8076
215.0392, 765.5165
215.5213, 764.1574
216.0035, 763.9604
216.4856, 764.5343
216.9677, 764.8488
217.4498, 764.1815
217.9319, 762.6303
218.4140, 761.4861
218.8962, 760.8435
219.3783, 760.4135
219.8604, 760.2105
220.3425, 760.1526
220.8246, 759.9733
221.3067, 759.4036
221.7889, 758.5919
222.2710, 758.4747
222.7531, 759.9429
223.2352, 761.1756
223.7173, 761.1745
224.1994, 760.0873
224.6816, 758.7221
225.1637, 757.6141
225.6458, 756.5427
226.1279, 754.8392
226.6100, 752.7900
227.0921, 749.8652
227.5743, 745.7625
228.0564, 740.5012
228.5385, 733.9881
229.0206, 725.6301
229.5027, 716.1390
229.9848, 707.3629
230.4670, 699.5828
230.9491, 692.2331
231.4312, 684.7098
231.9133, 676.9921
232.3954, 669.8741
232.8775, 664.3409
233.3597, 659.3749
233.8418, 653.6203
234.3239, 646.6094
234.8060, 639.2614
235.2881, 632.4472
235.7702, 626.1920
236.2524, 620.2326
236.7345, 614.5673
237.2166, 609.1533
237.6987, 604.0294
238.1808, 599.2106
238.6629, 594.6412
239.1451, 590.1917
239.6272, 585.7716
240.1093, 581.9307
240.5914, 579.9880
241.0735, 578.0676
241.5556, 574.7679
242.0378, 569.7234
242.5199, 563.8248
243.0020, 558.1902
243.4841, 553.0626
243.9662, 547.3758
244.4483, 540.2404
244.9305, 532.9172
245.4126, 526.3854
245.8947, 520.8215
246.3768, 515.2741
246.8589, 508.3532
247.3410, 499.5980
247.8232, 490.8949
248.3053, 481.8913
248.7874, 473.3087
249.2695, 465.9124
249.7516, 459.6932
250.2337, 453.6908
250.7159, 446.5284
251.1980, 437.6142
251.6801, 429.1501
252.1622, 421.0485
252.6443, 413.4326
253.1264, 406.5132
253.6086, 400.2267
254.0907, 394.1612
254.5728, 387.7794
255.0549, 380.7119
255.5370, 374.4144
256.0191, 369.5952
256.5013, 364.8187
256.9834, 359.1461
257.4655, 352.6406
257.9476, 346.1465
258.4297, 340.5805
258.9118, 336.0488
259.3940, 332.0312
259.8761, 328.9041
260.3582, 325.8549
260.8403, 322.3687
261.3224, 318.5184
261.8045, 314.7240
262.2867, 311.3465
262.7688, 308.3985
263.2509, 305.9284
263.7330, 304.5121
264.2151, 302.9583
264.6972, 300.6608
265.1794, 297.7004
265.6615, 294.4478
266.1436, 291.1648
266.6257, 287.8221
267.1078, 285.0218
267.5899, 283.1940
268.0721, 281.3369
268.5542, 278.7623
269.0363, 275.7479
269.5184, 273.1615
270.0005, 271.7024
270.4826, 271.2590
270.9648, 270.2249
271.4469, 268.0789
271.9290, 266.0250
272.4111, 264.6880
272.8932, 263.8086
273.3753, 262.6631
273.8575, 260.7664
274.3396, 258.3390
274.8217, 256.5484
275.3038, 255.8823
275.7859, 255.1457
276.2680, 253.8127
276.7502, 252.1507
277.2323, 250.7658
277.7144, 250.0061
278.1965, 249.5799
278.6786, 248.5222
279.1607, 246.2514
279.6429, 244.5164
280.1250, 244.1628
280.6071, 244.6139
281.0892, 244.8643
281.5713, 244.5620
282.0534, 243.8710
282.5356, 243.0311
283.0177, 241.9760
283.4998, 241.0246
283.9819, 240.2549
284.4640, 239.6394
284.9461, 239.1826
285.4283, 238.9114
285.9104, 238.6720
286.3925, 238.2720
286.8746, 237.7349
287.3567, 236.9655
287.8388, 235.6043
288.3210, 234.1273
288.8031, 233.2097
289.2852, 232.9932
289.7673, 233.0482
290.2494, 232.9083
290.7315, 232.5914
291.2137, 232.4883
291.6958, 232.9436
292.1779, 233.4895
292.6600, 233.5313
293.1421, 233.0009
293.6242, 232.4575
294.1064, 232.4685
294.5885, 232.8882
295.0706, 232.9324
295.5527, 231.9198
296.0348, 230.9211
296.5169, 231.2242
296.9991, 232.7773
297.4812, 233.8293
297.9633, 232.9520
298.4454, 230.7899
298.9275, 229.5038
299.4096, 229.6378
299.8918, 230.1226
300.3739, 230.2417
300.8560, 230.0438
301.3381, 229.8885
301.8202, 229.9940
302.3023, 230.1918
302.7845, 230.2033
303.2666, 230.1170
303.7487, 229.6555
304.2308, 228.2222
304.7129, 226.1879
305.1950, 224.9628
305.6772, 225.2920
306.1593, 226.2197
306.6414, 226.2582
307.1235, 225.3140
307.6056, 224.5562
308.0877, 224.7294
308.5699, 225.4419
309.0520, 225.7454
309.5341, 225.3504
310.0162, 224.7498
310.4983, 224.5234
310.9804, 224.6079
311.4626, 224.6302
311.9447, 224.3709
312.4268, 224.0109
312.9089, 223.8446
313.3910, 223.9263
313.8731, 224.0620
314.3553, 224.0512
314.8374, 223.9552
315.3195, 223.9839
315.8016, 224.2630
316.2837, 224.6352
316.7658, 224.9289
317.2480, 225.1387
317.7301, 225.3403
318.2122, 225.5205
318.6943, 225.7494
319.1764, 226.1958
319.6585, 227.1087
320.1407, 227.9464
320.6228, 228.1929
321.1049, 227.9295
321.5870, 227.7731
322.0691, 228.0978
322.5512, 228.5747
323.0334, 228.5390
323.5155, 227.7643
323.9976, 227.2095
324.4797, 227.5946
324.9618, 228.6319
325.4439, 229.4337
325.9261, 229.7282
326.4082, 229.7659
326.8903, 229.8267
327.3724, 229.9017
327.8545, 230.0699
328.3366, 230.5518
328.8188, 231.0900
329.3009, 231.1942
329.7830, 230.7246
330.2651, 230.1296
330.7472, 229.9111
331.2293, 229.9784
331.7115, 229.8108
332.1936, 228.9739
332.6757, 228.0586
333.1578, 227.9623
333.6399, 228.7195
334.1220, 228.9691
334.6042, 227.5254
335.0863, 224.8506
335.5684, 222.8927
336.0505, 222.0862
336.5326, 221.6211
337.0147, 221.1749
337.4969, 220.6878
337.9790, 219.8360
338.4611, 218.3462
338.9432, 216.5329
339.4253, 215.0916
339.9074, 214.1382
340.3896, 213.2116
340.8717, 212.1344
341.3538, 210.9586
341.8359, 209.8072
342.3180, 208.7280
342.8001, 207.6085
343.2823, 206.1127
343.7644, 204.1342
344.2465, 202.7780
344.7286, 202.7934
345.2107, 203.2579
345.6928, 203.1851
346.1750, 202.4357
346.6571, 201.3231
347.1392, 200.0755
347.6213, 198.6789
348.1034, 197.2853
348.5855, 195.5781
349.0677, 194.1310
349.5498, 193.4818
350.0319, 193.4915
350.5140, 193.4888
350.9961, 193.0757
351.4782, 192.3312
351.9604, 191.6441
352.4425, 190.8905
352.9246, 190.3234
353.4067, 190.1661
353.8888, 190.2245
354.3709, 190.1618
354.8531, 189.8509
355.3352, 189.3582
355.8173, 188.7773
356.2994, 187.9659
356.7815, 187.3979
357.2636, 187.3508
357.7458, 187.4351
358.2279, 187.2215
358.7100, 186.6556
359.1921, 186.0632
359.6742, 185.8328
360.1563, 186.0666
360.6385, 186.0235
361.1206, 185.6410
361.6027, 185.0722
362.0848, 184.2400
362.5669, 183.2663
363.0490, 182.4946
363.5312, 182.2061
364.0133, 182.3037
364.4954, 181.9896
364.9775, 180.8601
365.4596, 179.8248
365.9417, 178.9578
366.4239, 178.3230
366.9060, 178.0811
367.3881, 178.2929
367.8702, 178.7022
368.3523, 178.7859
368.8344, 178.3979
369.3166, 177.8812
369.7987, 177.2309
370.2808, 176.4661
370.7629, 175.4700
371.2450, 174.3040
371.7271, 173.2853
372.2093, 172.7990
372.6914, 172.9485
373.1735, 172.9452
373.6556, 172.7705
374.1377, 172.4738
374.6198, 171.9589
375.1020, 171.3367
375.5841, 170.8333
376.0662, 170.6054
376.5483, 170.5864
377.0304, 170.4595
377.5125, 170.1080
377.9947, 169.8154
378.4768, 169.5726
378.9589, 169.4314
379.4410, 169.5487
379.9231, 169.9552
380.4052, 170.3242
380.8874, 170.0283
381.3695, 168.7152
381.8516, 167.9030
382.3337, 168.1098
382.8158, 168.5091
383.2979, 168.7336
383.7801, 168.7585
384.2622, 168.7226
384.7443, 168.7907
385.2264, 168.9341
385.7085, 168.7255
386.1906, 167.6443
386.6728, 166.9883
387.1549, 167.4957
387.6370, 168.6463
388.1191, 169.6603
388.6012, 170.2014
389.0833, 170.4609
389.5655, 170.7881
390.0476, 171.2283
390.5297, 171.5257
391.0118, 171.4238
391.4939, 171.2486
391.9760, 171.2365
392.4582, 171.4195
392.9403, 171.7497
393.4224, 172.2397
393.9045, 172.8636
394.3866, 173.4556
394.8687, 173.9589
395.3509, 174.4842
395.8330, 175.1501
396.3151, 175.9155
396.7972, 176.6489
397.2793, 177.1792
397.7614, 177.7051
398.2436, 178.7031
398.7257, 180.2346
399.2078, 181.3437
399.6899, 181.2571
400.1720, 180.4442
400.6541, 179.9544
401.1363, 179.8347
401.6184, 180.0321
402.1005, 180.7281
402.5826, 181.7324
403.0647, 182.4853
403.5468, 182.7670
404.0290, 182.8719
404.5111, 183.2107
404.9932, 183.7851
405.4753, 184.4272
405.9574, 185.1093
406.4395, 185.8403
406.9217, 186.7129
407.4038, 187.7048
407.8859, 188.5468
408.3680, 189.0285
408.8501, 189.1591
409.3322, 189.1449
409.8144, 188.6136
410.2965, 188.3677
410.7786, 188.9819
411.2607, 190.0211
411.7428, 190.6213
412.2249, 190.4049
412.7071, 189.9216
413.1892, 190.2818
413.6713, 192.3075
414.1534, 193.7185
414.6355, 194.1499
415.1176, 194.2651
415.5998, 194.3442
416.0819, 194.5284
416.5640, 195.0796
417.0461, 196.3268
417.5282, 198.2855
418.0103, 199.6046
418.4925, 199.6220
418.9746, 199.6929
419.4567, 200.3518
419.9388, 201.1701
420.4209, 201.3492
420.9030, 200.5097
421.3852, 199.4360
421.8673, 199.9372
422.3494, 202.9805
422.8315, 205.1150
423.3136, 205.1084
423.7957, 204.8674
424.2779, 205.6442
424.7600, 207.4111
425.2421, 209.2278
425.7242, 210.2910
426.2063, 210.6746
426.6884, 211.0414
427.1706, 211.3914
427.6527, 211.7227
428.1348, 212.1287
428.6169, 212.4952
429.0990, 212.6368
429.5811, 212.4508
430.0633, 212.1190
430.5454, 211.7196
431.0275, 211.2412
431.5096, 211.3155
431.9917, 212.5729
432.4738, 214.0073
432.9560, 214.7210
433.4381, 214.7146
433.9202, 213.9910
434.4023, 212.0322
434.8844, 209.5081
435.3665, 207.6216
435.8487, 206.5057
436.3308, 205.7393
436.8129, 205.1367
437.2950, 204.6524
437.7771, 204.0901
438.2592, 203.5454
438.7414, 202.8080
439.2235, 201.7968
439.7056, 200.5080
440.1877, 198.8691
440.6698, 196.8092
441.1519, 194.5779
441.6341, 192.5157
442.1162, 190.5741
442.5983, 189.0067
443.0804, 188.1700
443.5625, 187.4587
444.0446, 186.4531
444.5268, 185.1286
445.0089, 183.5903
445.4910, 181.8796
445.9731, 180.0366
446.4552, 178.4268
446.9373, 177.1972
447.4195, 176.0085
447.9016, 174.7615
448.3837, 173.5527
448.8658, 172.5563
449.3479, 171.8049
449.8300, 171.0878
450.3122, 170.0383
450.7943, 168.4521
451.2764, 167.3030
451.7585, 167.3711
452.2406, 167.1448
452.7227, 165.6947
453.2049, 163.4831
453.6870, 161.6187
454.1691, 160.8135
454.6512, 160.6959
455.1333, 160.3229
455.6154, 159.6592
456.0976, 158.8429
456.5797, 157.8654
457.0618, 156.7744
457.5439, 155.4270
458.0260, 153.8207
458.5081, 152.5461
458.9903, 152.2865
459.4724, 152.7580
459.9545, 152.9366
460.4366, 152.6809
460.9187, 152.2301
461.4008, 151.7338
461.8830, 151.1790
462.3651, 150.5117
462.8472, 149.5580
463.3293, 148.6589
463.8114, 148.0992
464.2935, 147.8156
464.7756, 147.5980
465.2578, 147.3914
465.7399, 147.1608
466.2220, 146.8390
466.7041, 146.4014
467.1862, 145.9779
467.6683, 145.6482
468.1505, 145.2887
468.6326, 144.8078
469.1147, 144.1983
469.5968, 143.4622
470.0789, 142.5609
470.5610, 141.5561
471.0432, 140.8807
471.5253, 140.8637
472.0074, 140.7733
472.4895, 140.5387
472.9716, 140.1916
473.4537, 139.7355
473.9359, 139.1886
474.4180, 138.6213
474.9001, 138.1003
475.3822, 137.6151
475.8643, 137.2871
476.3464, 137.2242
476.8286, 137.2173
477.3107, 137.1825
477.7928, 137.1624
478.2749, 137.2843
478.7570, 137.6565
479.2391, 138.0003
479.7213, 137.7300
480.2034, 136.7375
480.6855, 136.0665
481.1676, 136.1922
481.6497, 136.4813
482.1318, 136.4694
482.6140, 136.1582
483.0961, 135.6534
483.5782, 134.7332
484.0603, 133.7631
484.5424, 133.3804
485.0245, 133.6212
485.5067, 133.9753
485.9888, 134.2009
486.4709, 134.3353
486.9530, 134.5504
487.4351, 135.1572
487.9172, 135.1794
488.3994, 133.6582
488.8815, 131.6211
489.3636, 130.5361
489.8457, 130.6561
490.3278, 131.1734
490.8099, 131.3372
491.2921, 131.1294
491.7742, 131.0054
492.2563, 131.1891
492.7384, 131.1895
493.2205, 130.6166
493.7026, 129.8491
494.1848, 129.4720
494.6669, 129.6923
495.1490, 130.1515
495.6311, 130.2910
496.1132, 130.0358
496.5953, 129.6988
497.0775, 129.1661
497.5596, 128.6556
498.0417, 128.1900
498.5238, 127.8182
499.0059, 127.6343
499.4880, 127.7118
499.9702, 127.9565
500.4523, 128.2883
500.9344, 128.7888
501.4165, 128.8423
501.8986, 127.9698
502.3807, 126.8359
502.8629, 126.0056
503.3450, 125.4948
503.8271, 125.1726
504.3092, 125.1156
504.7913, 125.1516
505.2734, 124.9763
505.7556, 124.5757
506.2377, 124.2100
506.7198, 124.0076
507.2019, 123.9615
507.6840, 124.0553
508.1661, 124.4005
508.6483, 124.6567
509.1304, 124.8447
509.6125, 124.8422
510.0946, 124.3637
510.5767, 123.4325
511.0588, 122.5171
511.5410, 122.0208
512.0231, 121.9431
512.5052, 122.2575
512.9873, 123.6381
513.4694, 124.6112
513.9515, 124.6920
514.4337, 124.3100
514.9158, 123.9370
515.3979, 123.7153
515.8800, 123.5049
516.3621, 123.0394
516.8442, 122.2588
517.3264, 121.9078
517.8085, 122.4247
518.2906, 122.8088
518.7727, 122.4212
519.2548, 121.6596
519.7369, 121.2403
520.2191, 121.5173
520.7012, 121.9148
521.1833, 121.6836
521.6654, 120.9252
522.1475, 120.4707
522.6296, 120.6113
523.1118, 120.9125
523.5939, 120.9575
524.0760, 120.7680
524.5581, 120.3756
525.0402, 119.4402
525.5223, 118.6059
526.0045, 118.3869
526.4866, 118.6576
526.9687, 119.0841
527.4508, 119.5499
527.9329, 119.9141
528.4150, 119.8729
528.8972, 119.0719
529.3793, 118.7018
529.8614, 119.4595
530.3435, 119.9825
530.8256, 119.1056
531.3077, 117.3558
531.7899, 116.1599
532.2720, 116.4029
532.7541, 117.5303
533.2362, 118.1098
533.7183, 117.9806
534.2004, 117.7641
534.6826, 117.4079
535.1647, 117.1123
535.6468, 116.9819
536.1289, 117.0211
536.6110, 117.2169
537.0931, 117.8281
537.5753, 118.4606
538.0574, 118.1729
538.5395, 116.9106
539.0216, 115.9429
539.5037, 115.8613
539.9858, 116.3121
540.4680, 116.7960
540.9501, 117.4001
541.4322, 117.6032
541.9143, 116.9181
542.3964, 115.9912
542.8785, 115.5045
543.3607, 115.4393
543.8428, 115.3353
544.3249, 114.8743
544.8070, 114.2041
545.2891, 113.8743
545.7712, 114.2757
546.2534, 114.4908
546.7355, 114.3134
547.2176, 114.0829
547.6997, 114.1541
548.1818, 114.4542
548.6639, 114.5556
549.1461, 114.0594
549.6282, 113.1472
550.1103, 112.5816
550.5924, 112.4144
551.0745, 112.4516
551.5566, 112.8522
552.0388, 113.3011
552.5209, 113.5833
553.0030, 113.6747
553.4851, 113.5896
553.9672, 113.2641
554.4493, 112.7929
554.9315, 112.2874
555.4136, 111.7532
555.8957, 111.3833
556.3778, 111.3315
556.8599, 111.4807
557.3420, 111.5122
557.8242, 111.3757
558.3063, 111.2666
558.7884, 111.2657
559.2705, 111.2786
559.7526, 111.1825
560.2347, 111.0005
560.7169, 110.8953
561.1990, 111.0041
561.6811, 111.2486
562.1632, 111.2536
562.6453, 110.7732
563.1274, 110.4732
563.6096, 110.6072
564.0917, 110.7818
564.5738, 110.6779
565.0559, 110.3153
565.5380, 109.9627
566.0201, 109.7918
566.5023, 109.7761
566.9844, 109.9518
567.4665, 110.4025
567.9486, 110.4695
568.4307, 109.5745
568.9128, 108.4506
569.3950, 108.1525
569.8771, 108.7478
570.3592, 109.3046
570.8413, 109.6099
571.3234, 109.6682
571.8055, 109.3070
572.2877, 108.6419
572.7698, 108.2343
573.2519, 108.4331
573.7340, 108.9639
574.2161, 109.1118
574.6982, 108.4380
575.1804, 108.1470
575.6625, 108.6568
576.1446, 109.1577
576.6267, 109.0105
577.1088, 108.4263
577.5909, 108.0653
578.0731, 108.3468
578.5552, 108.9896
579.0373, 109.4180
579.5194, 109.6348
580.0015, 109.6063
580.4836, 109.1659
580.9658, 108.6347
581.4479, 108.1511
581.9300, 107.7622
582.4121, 107.6634
582.8942, 108.3611
583.3763, 109.0248
583.8585, 108.6119
584.3406, 107.4231
584.8227, 106.5695
585.3048, 106.4321
585.7869, 106.7715
586.2690, 107.3735
586.7512, 108.4162
587.2333, 108.7536
587.7154, 107.7709
588.1975, 106.7978
588.6796, 106.3536
589.1617, 106.3053
589.6439, 106.4735
590.1260, 106.7713
