##NAMES=Cerussite
##RRUFFID=R050023
##IDEAL CHEMISTRY=Pb^2+^CO_3_
##LOCALITY=Mammoth - St Anthony mine, Tiger, Pinal County, Arizona, USA
##OWNER=RRUFF
##SOURCE=Eugene Schlepp
##DESCRIPTION=Prismatic white single crystals
##STATUS=The identification of this mineral has been confirmed by X-ray diffraction and chemical analysis
##URL=rruff.info/R050023
##MEASURED CHEMISTRY=Pb_1.00_CO_3_ ; CO_2_ not measured but estimated by difference and stoichiometry
110.6104, 54.44895
111.0925, 58.81704
111.5746, 64.38097
112.0567, 70.39560
112.5388, 77.45865
113.0209, 84.49233
113.5031, 90.86828
113.9852, 92.79906
114.4673, 97.53371
114.9494, 108.4563
115.4315, 124.9589
115.9136, 141.0157
116.3958, 154.0770
116.8779, 165.6222
117.3600, 177.1212
117.8421, 187.7074
118.3242, 199.4001
118.8063, 213.4791
119.2885, 230.1059
119.7706, 248.1206
120.2527, 265.6688
120.7348, 284.1187
121.2169, 306.0688
121.6990, 334.5330
122.1812, 366.1276
122.6633, 397.0459
123.1454, 426.2213
123.6275, 456.3167
124.1096, 488.7556
124.5917, 523.8917
125.0739, 563.1678
125.5560, 608.4770
126.0381, 658.3569
126.5202, 711.2639
127.0023, 768.0020
127.4844, 826.3013
127.9666, 881.4631
128.4487, 933.5464
128.9308, 987.5099
129.4129, 1047.878
129.8950, 1114.218
130.3772, 1181.202
130.8593, 1248.450
131.3414, 1315.492
131.8235, 1379.932
132.3056, 1440.447
132.7877, 1501.431
133.2699, 1568.829
133.7520, 1643.209
134.2341, 1717.876
134.7162, 1788.745
135.1983, 1856.102
135.6804, 1929.706
136.1626, 2011.343
136.6447, 2095.604
137.1268, 2170.684
137.6089, 2233.471
138.0910, 2296.078
138.5731, 2363.062
139.0553, 2435.715
139.5374, 2510.365
140.0195, 2586.987
140.5016, 2665.326
140.9837, 2741.988
141.4658, 2819.570
141.9480, 2892.573
142.4301, 2956.065
142.9122, 3006.231
143.3943, 3054.606
143.8764, 3101.906
144.3585, 3147.806
144.8407, 3197.414
145.3228, 3254.882
145.8049, 3312.570
146.2870, 3362.962
146.7691, 3403.673
147.2512, 3439.473
147.7334, 3471.291
148.2155, 3500.197
148.6976, 3521.477
149.1797, 3530.364
149.6618, 3533.001
150.1439, 3537.452
150.6261, 3555.353
151.1082, 3564.571
151.5903, 3559.112
152.0724, 3535.985
152.5545, 3504.659
153.0366, 3464.117
153.5188, 3415.943
154.0009, 3363.479
154.4830, 3304.067
154.9651, 3242.245
155.4472, 3179.841
155.9293, 3121.339
156.4115, 3056.297
156.8936, 2974.175
157.3757, 2881.545
157.8578, 2799.892
158.3399, 2741.143
158.8221, 2692.199
159.3042, 2643.880
159.7863, 2587.903
160.2684, 2538.281
160.7505, 2502.191
161.2326, 2477.935
161.7148, 2455.049
162.1969, 2426.759
162.6790, 2398.470
163.1611, 2375.731
163.6432, 2358.554
164.1253, 2348.511
164.6075, 2348.301
165.0896, 2358.087
165.5717, 2370.350
166.0538, 2380.223
166.5359, 2390.078
167.0180, 2403.280
167.5002, 2419.367
167.9823, 2440.558
168.4644, 2471.122
168.9465, 2512.888
169.4286, 2553.474
169.9107, 2583.166
170.3929, 2604.829
170.8750, 2625.269
171.3571, 2644.711
171.8392, 2665.825
172.3213, 2694.190
172.8034, 2733.606
173.2856, 2769.054
173.7677, 2786.238
174.2498, 2787.538
174.7319, 2780.977
175.2140, 2766.798
175.6961, 2748.943
176.1783, 2735.317
176.6604, 2731.964
177.1425, 2725.231
177.6246, 2695.246
178.1067, 2644.779
178.5888, 2589.656
179.0710, 2544.282
179.5531, 2503.427
180.0352, 2455.534
180.5173, 2395.648
180.9994, 2330.194
181.4815, 2270.602
181.9637, 2216.253
182.4458, 2164.254
182.9279, 2112.927
183.4100, 2061.768
183.8921, 2007.626
184.3742, 1946.667
184.8564, 1883.304
185.3385, 1830.563
185.8206, 1788.530
186.3027, 1750.583
186.7848, 1706.100
187.2669, 1657.179
187.7491, 1618.456
188.2312, 1601.165
188.7133, 1598.376
189.1954, 1582.598
189.6775, 1552.022
190.1596, 1516.912
190.6418, 1488.182
191.1239, 1465.910
191.6060, 1447.264
192.0881, 1431.064
192.5702, 1417.438
193.0524, 1407.922
193.5345, 1403.037
194.0166, 1400.934
194.4987, 1399.749
194.9808, 1399.617
195.4629, 1398.344
195.9451, 1392.408
196.4272, 1381.956
196.9093, 1380.747
197.3914, 1391.322
197.8735, 1407.824
198.3556, 1419.583
198.8378, 1426.135
199.3199, 1430.745
199.8020, 1433.630
200.2841, 1434.352
200.7662, 1439.995
201.2483, 1452.274
201.7305, 1468.500
202.2126, 1482.203
202.6947, 1493.041
203.1768, 1502.632
203.6589, 1511.143
204.1410, 1517.949
204.6232, 1527.917
205.1053, 1542.643
205.5874, 1560.296
206.0695, 1574.205
206.5516, 1582.941
207.0337, 1591.688
207.5159, 1604.625
207.9980, 1622.641
208.4801, 1639.129
208.9622, 1651.987
209.4443, 1662.716
209.9264, 1680.417
210.4086, 1709.464
210.8907, 1736.776
211.3728, 1750.583
211.8549, 1746.595
212.3370, 1744.160
212.8191, 1746.360
213.3013, 1752.630
213.7834, 1759.097
214.2655, 1767.419
214.7476, 1773.271
215.2297, 1772.085
215.7118, 1761.126
216.1940, 1750.637
216.6761, 1742.469
217.1582, 1736.490
217.6403, 1730.895
218.1224, 1726.659
218.6045, 1721.600
219.0867, 1712.932
219.5688, 1698.280
220.0509, 1685.662
220.5330, 1676.304
221.0151, 1670.032
221.4972, 1670.399
221.9794, 1682.881
222.4615, 1695.898
222.9436, 1695.864
223.4257, 1675.155
223.9078, 1657.143
224.3899, 1649.109
224.8721, 1652.293
225.3542, 1647.340
225.8363, 1630.699
226.3184, 1609.264
226.8005, 1591.141
227.2827, 1579.034
227.7648, 1565.308
228.2469, 1547.988
228.7290, 1526.850
229.2111, 1504.204
229.6932, 1478.996
230.1754, 1453.404
230.6575, 1430.271
231.1396, 1411.808
231.6217, 1392.032
232.1038, 1367.822
232.5859, 1336.894
233.0681, 1314.352
233.5502, 1303.922
234.0323, 1299.247
234.5144, 1291.058
234.9965, 1277.911
235.4786, 1263.759
235.9608, 1249.766
236.4429, 1236.426
236.9250, 1221.511
237.4071, 1203.224
237.8892, 1184.590
238.3713, 1171.038
238.8535, 1166.718
239.3356, 1160.498
239.8177, 1148.054
240.2998, 1126.878
240.7819, 1108.986
241.2640, 1094.584
241.7462, 1083.059
242.2283, 1073.522
242.7104, 1067.242
243.1925, 1060.915
243.6746, 1054.141
244.1567, 1048.277
244.6389, 1036.822
245.1210, 1017.933
245.6031, 994.6187
246.0852, 972.0357
246.5673, 949.9492
247.0494, 928.9982
247.5316, 909.4396
248.0137, 891.4087
248.4958, 874.5016
248.9779, 860.1724
249.4600, 846.2255
249.9421, 828.7607
250.4243, 806.2348
250.9064, 782.7185
251.3885, 758.8223
251.8706, 732.6449
252.3527, 712.7132
252.8348, 701.8036
253.3170, 695.4385
253.7991, 685.1384
254.2812, 669.5543
254.7633, 652.8398
255.2454, 636.4703
255.7275, 620.8813
256.2097, 604.1512
256.6918, 584.6732
257.1739, 565.3431
257.6560, 551.7153
258.1381, 545.6989
258.6202, 541.4568
259.1024, 537.4655
259.5845, 534.6805
260.0666, 528.0613
260.5487, 516.1432
261.0308, 501.5108
261.5129, 488.2155
261.9951, 476.4966
262.4772, 465.8111
262.9593, 455.9352
263.4414, 446.5500
263.9235, 439.1409
264.4056, 433.8113
264.8878, 430.2894
265.3699, 429.0368
265.8520, 432.0523
266.3341, 431.5471
266.8162, 422.6794
267.2983, 403.3155
267.7805, 390.2163
268.2626, 385.2566
268.7447, 384.6245
269.2268, 381.9758
269.7089, 376.9409
270.1910, 371.2076
270.6732, 364.6453
271.1553, 356.8995
271.6374, 352.6986
272.1195, 353.2147
272.6016, 355.5532
273.0837, 355.0017
273.5659, 351.1554
274.0480, 346.5192
274.5301, 341.8348
275.0122, 337.1170
275.4943, 332.4515
275.9764, 327.7056
276.4586, 323.2621
276.9407, 319.6741
277.4228, 317.0093
277.9049, 314.9857
278.3870, 314.0370
278.8691, 314.0540
279.3513, 312.0575
279.8334, 307.3906
280.3155, 302.3999
280.7976, 301.2067
281.2798, 304.0630
281.7619, 305.0554
282.2440, 301.1454
282.7261, 293.0657
283.2082, 286.0623
283.6903, 280.0081
284.1725, 275.4998
284.6546, 273.9254
285.1367, 275.1888
285.6188, 276.4270
286.1009, 276.7655
286.5830, 276.2744
287.0652, 275.1642
287.5473, 273.4058
288.0294, 271.2658
288.5115, 269.3000
288.9936, 267.3709
289.4757, 264.3450
289.9579, 258.4377
290.4400, 251.4898
290.9221, 249.2884
291.4042, 252.1557
291.8863, 255.7496
292.3684, 255.4022
292.8506, 251.9138
293.3327, 248.7509
293.8148, 246.9726
294.2969, 246.1888
294.7790, 246.1876
295.2611, 246.9681
295.7433, 246.8354
296.2254, 243.1596
296.7075, 237.2390
297.1896, 232.8799
297.6717, 231.4908
298.1538, 231.8353
298.6360, 232.4851
299.1181, 233.4018
299.6002, 234.0613
300.0823, 234.6648
300.5644, 234.6649
301.0465, 232.8377
301.5287, 227.8586
302.0108, 222.1913
302.4929, 218.6838
302.9750, 217.0631
303.4571, 215.9630
303.9392, 213.6888
304.4214, 211.5880
304.9035, 211.8014
305.3856, 216.2755
305.8677, 220.8635
306.3498, 221.8226
306.8319, 219.7712
307.3141, 216.8795
307.7962, 214.1212
308.2783, 211.3127
308.7604, 208.1417
309.2425, 204.3625
309.7246, 200.7645
310.2068, 197.5975
310.6889, 194.9659
311.1710, 193.0934
311.6531, 192.8687
312.1352, 192.9649
312.6173, 192.1396
313.0995, 189.5806
313.5816, 187.9298
314.0637, 189.5061
314.5458, 192.7854
315.0279, 194.9091
315.5100, 194.9122
315.9922, 193.3736
316.4743, 190.1266
316.9564, 184.5728
317.4385, 179.7279
317.9206, 176.3856
318.4027, 174.3923
318.8849, 173.5333
319.3670, 175.2300
319.8491, 176.7511
320.3312, 176.6069
320.8133, 174.1808
321.2954, 173.2395
321.7776, 176.9036
322.2597, 181.4882
322.7418, 183.0654
323.2239, 178.4364
323.7060, 173.3790
324.1881, 168.3910
324.6703, 163.2867
325.1524, 161.0873
325.6345, 164.7130
326.1166, 169.9189
326.5987, 173.3311
327.0808, 174.2199
327.5630, 174.1420
328.0451, 173.0342
328.5272, 170.9357
329.0093, 168.5942
329.4914, 164.9463
329.9735, 162.0652
330.4557, 161.6740
330.9378, 167.1700
331.4199, 169.0293
331.9020, 164.6539
332.3841, 155.7703
332.8662, 150.9811
333.3484, 151.9994
333.8305, 154.5858
334.3126, 156.6467
334.7947, 158.2170
335.2768, 159.0927
335.7589, 159.2298
336.2411, 158.6828
336.7232, 157.3987
337.2053, 155.0675
337.6874, 152.9312
338.1695, 151.0745
338.6516, 149.2396
339.1338, 150.6925
339.6159, 156.7339
340.0980, 164.0808
340.5801, 166.9176
341.0622, 164.9152
341.5443, 161.5978
342.0265, 157.5335
342.5086, 153.0196
342.9907, 151.0292
343.4728, 152.0760
343.9549, 153.6982
344.4370, 152.4136
344.9192, 148.5686
345.4013, 145.3969
345.8834, 144.2099
346.3655, 144.4935
346.8476, 145.2275
347.3297, 146.4293
347.8119, 147.5089
348.2940, 147.5950
348.7761, 147.0637
349.2582, 147.1611
349.7403, 148.9675
350.2225, 150.8220
350.7046, 149.8060
351.1867, 146.2597
351.6688, 142.8764
352.1509, 141.6847
352.6331, 141.8663
353.1152, 142.2407
353.5973, 142.6156
354.0794, 142.9906
354.5615, 143.5977
355.0436, 144.2545
355.5258, 144.4062
356.0079, 142.9267
356.4900, 141.2639
356.9721, 140.8459
357.4542, 142.2540
357.9363, 143.6783
358.4185, 144.1724
358.9006, 143.9890
359.3827, 143.5653
359.8648, 142.2438
360.3469, 141.3819
360.8290, 142.2796
361.3112, 145.4792
361.7933, 147.1931
362.2754, 144.8723
362.7575, 140.9675
363.2396, 138.1305
363.7217, 137.5031
364.2039, 137.4936
364.6860, 137.8549
365.1681, 138.5773
365.6502, 139.3194
366.1323, 140.9657
366.6144, 142.0718
367.0966, 141.6237
367.5787, 137.8835
368.0608, 134.6574
368.5429, 131.3247
369.0250, 128.4185
369.5071, 128.9952
369.9893, 136.6476
370.4714, 143.5996
370.9535, 145.7555
371.4356, 140.2494
371.9177, 136.4189
372.3998, 134.6637
372.8820, 134.4967
373.3641, 135.2768
373.8462, 137.8857
374.3283, 139.1150
374.8104, 136.7704
375.2925, 130.2426
375.7747, 127.8968
376.2568, 131.3395
376.7389, 135.7421
377.2210, 133.2820
377.7031, 123.3187
378.1852, 115.8261
378.6674, 114.5542
379.1495, 118.1395
379.6316, 120.9243
380.1137, 122.8451
380.5958, 124.3281
381.0779, 125.9700
381.5601, 127.5904
382.0422, 127.9982
382.5243, 126.2795
383.0064, 124.0808
383.4885, 124.5105
383.9706, 127.2574
384.4528, 129.9944
384.9349, 131.6102
385.4170, 132.0781
385.8991, 131.0897
386.3812, 128.1587
386.8633, 125.1814
387.3455, 123.8877
387.8276, 123.8969
388.3097, 124.3275
388.7918, 125.4244
389.2739, 126.3248
389.7560, 126.0656
390.2382, 124.4553
390.7203, 123.1180
391.2024, 123.0942
391.6845, 123.7691
392.1666, 124.4378
392.6487, 124.6904
393.1309, 125.0612
393.6130, 126.5864
394.0951, 128.9959
394.5772, 129.1640
395.0593, 123.6171
395.5414, 117.2720
396.0236, 113.2535
396.5057, 112.8803
396.9878, 113.7908
397.4699, 117.1352
397.9520, 121.8040
398.4341, 124.2524
398.9163, 122.2408
399.3984, 120.3357
399.8805, 120.4824
400.3626, 124.1088
400.8447, 125.3511
401.3268, 122.6265
401.8090, 118.6862
402.2911, 117.7613
402.7732, 121.4364
403.2553, 123.9472
403.7374, 123.2753
404.2195, 119.6664
404.7017, 117.6734
405.1838, 117.5837
405.6659, 118.3365
406.1480, 119.1535
406.6301, 120.0435
407.1122, 120.7710
407.5944, 121.5067
408.0765, 121.8321
408.5586, 120.1246
409.0407, 116.4267
409.5228, 113.3814
410.0049, 113.0157
410.4871, 114.6765
410.9692, 116.8705
411.4513, 119.7165
411.9334, 122.0200
412.4155, 122.4129
412.8976, 121.1669
413.3798, 119.1024
413.8619, 115.0543
414.3440, 111.2437
414.8261, 110.3601
415.3082, 112.4466
415.7903, 114.9374
416.2725, 117.1130
416.7546, 118.4154
417.2367, 118.1661
417.7188, 114.0663
418.2009, 110.6693
418.6830, 110.6600
419.1652, 113.2458
419.6473, 115.5209
420.1294, 117.5384
420.6115, 118.2516
421.0937, 116.5504
421.5758, 109.7946
422.0579, 106.1051
422.5400, 109.4025
423.0221, 115.7870
423.5042, 118.8944
423.9864, 114.9879
424.4685, 111.7499
424.9506, 111.3631
425.4327, 114.1927
425.9148, 115.0538
426.3969, 112.6052
426.8791, 109.7170
427.3612, 109.1423
427.8433, 111.9070
428.3254, 113.6801
428.8075, 113.4857
429.2896, 112.0357
429.7718, 111.9957
430.2539, 113.6894
430.7360, 115.0801
431.2181, 114.4669
431.7002, 112.0595
432.1823, 111.1539
432.6645, 112.1974
433.1466, 113.7968
433.6287, 113.9121
434.1108, 112.8214
434.5929, 111.8941
435.0750, 111.6616
435.5572, 111.9661
436.0393, 112.8292
436.5214, 114.2090
437.0035, 115.2144
437.4856, 114.6048
437.9677, 113.3400
438.4499, 112.8384
438.9320, 113.9107
439.4141, 115.0601
439.8962, 115.2774
440.3783, 114.7450
440.8604, 113.9394
441.3426, 112.5723
441.8247, 111.3778
442.3068, 110.9081
442.7889, 111.4198
443.2710, 111.7032
443.7531, 111.6929
444.2353, 111.1895
444.7174, 109.9716
445.1995, 105.7707
445.6816, 103.3235
446.1637, 104.5128
446.6458, 108.8508
447.1280, 111.1332
447.6101, 109.6110
448.0922, 107.9622
448.5743, 108.4737
449.0564, 112.6625
449.5385, 114.9319
450.0207, 114.7762
450.5028, 112.9756
450.9849, 110.5001
451.4670, 106.9970
451.9491, 104.7627
452.4312, 105.2900
452.9134, 108.0969
453.3955, 109.2836
453.8776, 108.6973
454.3597, 107.5772
454.8418, 106.9450
455.3239, 106.7621
455.8061, 106.9199
456.2882, 107.4707
456.7703, 108.2327
457.2524, 109.6837
457.7345, 111.3752
458.2166, 111.4740
458.6988, 106.2044
459.1809, 100.1111
459.6630, 98.93884
460.1451, 103.9153
460.6272, 108.8987
461.1093, 109.4549
461.5915, 107.9096
462.0736, 107.1343
462.5557, 109.7489
463.0378, 111.6605
463.5199, 110.9657
464.0020, 107.9759
464.4842, 105.1295
464.9663, 101.8173
465.4484, 99.62599
465.9305, 99.55937
466.4126, 103.8741
466.8947, 106.3300
467.3769, 105.6377
467.8590, 103.6490
468.3411, 103.5585
468.8232, 106.6634
469.3053, 109.0150
469.7874, 109.0191
470.2696, 106.9155
470.7517, 107.8329
471.2338, 112.8948
471.7159, 117.5167
472.1980, 116.5637
472.6801, 110.2135
473.1623, 106.7277
473.6444, 107.8658
474.1265, 111.1341
474.6086, 112.6509
475.0907, 112.5476
475.5728, 111.6745
476.0550, 109.9278
476.5371, 107.8833
477.0192, 106.6247
477.5013, 106.1916
477.9834, 105.7588
478.4655, 104.2478
478.9477, 102.4887
479.4298, 101.5849
479.9119, 102.0293
480.3940, 103.1766
480.8761, 104.8172
481.3582, 106.9092
481.8404, 109.3197
482.3225, 114.1304
482.8046, 117.4937
483.2867, 116.8903
483.7688, 110.2076
484.2509, 106.1759
484.7331, 108.2740
485.2152, 111.9403
485.6973, 112.8640
486.1794, 109.0362
486.6615, 105.8835
487.1436, 104.2112
487.6258, 103.7802
488.1079, 103.5537
488.5900, 103.6433
489.0721, 103.6309
489.5542, 102.8350
490.0363, 101.2278
490.5185, 101.8477
491.0006, 105.2751
491.4827, 109.2349
491.9648, 110.2767
492.4470, 108.9731
492.9291, 108.5141
493.4112, 110.7046
493.8933, 113.7065
494.3754, 114.9058
494.8575, 114.3880
495.3397, 112.6240
495.8218, 108.6313
496.3039, 104.1523
496.7860, 101.1372
497.2681, 99.98141
497.7502, 99.65871
498.2324, 99.65180
498.7145, 100.1267
499.1966, 101.3106
499.6787, 105.5280
500.1608, 108.1802
500.6429, 106.5439
501.1251, 101.0115
501.6072, 98.13346
502.0893, 100.8984
502.5714, 104.1289
503.0535, 105.3850
503.5356, 103.7702
504.0178, 102.3927
504.4999, 101.6923
504.9820, 100.8332
505.4641, 97.67336
505.9462, 91.20055
506.4283, 88.06192
506.9105, 92.03778
507.3926, 100.4047
507.8747, 100.8509
508.3568, 92.91364
508.8389, 85.57272
509.3210, 86.81115
509.8032, 93.73428
510.2853, 98.39874
510.7674, 99.66707
511.2495, 99.28848
511.7316, 98.44575
512.2137, 97.30710
512.6959, 96.22990
513.1780, 95.46855
513.6601, 94.71957
514.1422, 93.69215
514.6243, 92.44668
515.1064, 91.40365
515.5886, 90.06580
516.0707, 89.44518
516.5528, 90.51588
517.0349, 95.39662
517.5170, 97.80019
517.9991, 94.78036
518.4813, 89.86408
518.9634, 87.54577
519.4455, 89.34048
519.9276, 91.18189
520.4097, 92.50972
520.8918, 93.25410
521.3740, 92.78455
521.8561, 90.64600
522.3382, 88.80087
522.8203, 88.93226
523.3024, 90.87542
523.7845, 91.57436
524.2667, 90.59645
524.7488, 89.39857
525.2309, 90.58517
525.7130, 93.22133
526.1951, 93.94963
526.6772, 90.36254
527.1594, 85.49713
527.6415, 82.43082
528.1236, 81.08484
528.6057, 81.07518
529.0878, 83.76892
529.5699, 86.68935
530.0521, 87.72613
530.5342, 86.16883
531.0163, 84.79506
531.4984, 84.99167
531.9805, 85.59806
532.4626, 85.38126
532.9448, 82.02129
533.4269, 80.47768
533.9090, 82.34492
534.3911, 86.54372
534.8732, 88.83754
535.3553, 88.90241
535.8375, 87.65538
536.3196, 84.88702
536.8017, 80.38443
537.2838, 78.29295
537.7659, 78.93371
538.2480, 80.87108
538.7302, 82.84299
539.2123, 84.84367
539.6944, 86.79868
540.1765, 88.90140
540.6586, 90.56989
541.1407, 90.44814
541.6229, 89.07435
542.1050, 88.37931
542.5871, 90.70418
543.0692, 93.31850
543.5513, 93.15329
544.0334, 90.08563
544.5156, 87.88600
544.9977, 89.62318
545.4798, 92.20528
545.9619, 93.10663
546.4440, 90.09136
546.9261, 88.00567
547.4083, 88.16886
547.8904, 89.54545
548.3725, 90.27956
548.8546, 90.14864
549.3367, 89.74759
549.8188, 89.19415
550.3010, 88.48828
550.7831, 87.36009
551.2652, 85.42889
551.7473, 84.34735
552.2294, 86.20316
552.7115, 90.54166
553.1937, 92.43863
553.6758, 91.18021
554.1579, 88.82566
554.6400, 87.28850
555.1221, 86.65764
555.6042, 87.33212
556.0864, 91.21954
556.5685, 94.68652
557.0506, 92.84533
557.5327, 87.20570
558.0148, 83.41290
558.4969, 85.60535
558.9791, 89.45428
559.4612, 92.67844
559.9433, 95.15349
560.4254, 96.31872
560.9075, 94.55869
561.3896, 92.28783
561.8718, 91.63524
562.3539, 93.65981
562.8360, 95.59312
563.3181, 97.61543
563.8002, 99.22831
564.2823, 98.90079
564.7645, 96.14830
565.2466, 93.64124
565.7287, 92.47144
566.2108, 92.42178
566.6929, 92.46669
567.1750, 92.59597
567.6572, 93.04493
568.1393, 94.40937
568.6214, 96.16449
569.1035, 97.36137
569.5856, 97.98755
570.0677, 97.53316
570.5499, 93.78902
571.0320, 89.05207
571.5141, 86.92365
571.9962, 92.17467
572.4783, 96.84621
572.9604, 96.88187
573.4426, 93.22642
573.9247, 90.95345
574.4068, 91.74113
574.8889, 93.31920
575.3710, 95.20913
575.8531, 97.81532
576.3353, 98.25577
576.8174, 95.32484
577.2995, 92.01010
577.7816, 91.63416
578.2637, 94.60596
578.7458, 95.88274
579.2280, 94.15564
579.7101, 91.48930
580.1922, 92.41988
580.6743, 96.16255
581.1564, 98.28536
581.6385, 94.74915
582.1207, 89.49650
582.6028, 87.99132
583.0849, 89.84987
583.5670, 91.94697
584.0491, 92.80061
584.5313, 92.92831
585.0134, 92.63847
585.4955, 91.83646
585.9776, 91.09182
586.4597, 89.89205
586.9418, 89.11209
587.4240, 89.85931
587.9061, 94.20010
588.3882, 96.82848
588.8703, 96.66553
589.3524, 94.56735
589.8345, 92.93298
590.3167, 91.76226
590.7988, 91.06535
591.2809, 91.01194
591.7630, 91.46378
592.2451, 91.99889
592.7272, 92.65372
593.2094, 92.49829
593.6915, 89.07307
594.1736, 84.62824
594.6557, 84.23746
595.1378, 89.73678
595.6199, 94.95228
596.1021, 94.80824
596.5842, 91.57188
597.0663, 88.46383
597.5485, 85.54629
598.0306, 84.04175
598.5127, 84.94878
598.9948, 87.76826
599.4769, 90.40930
599.9590, 94.51973
600.4412, 96.28617
600.9233, 93.39080
601.4054, 85.27750
601.8875, 81.50965
602.3696, 83.33905
602.8517, 86.51965
603.3339, 87.44769
603.8160, 86.30895
604.2981, 85.10291
604.7802, 83.82587
605.2623, 83.36064
605.7444, 85.74242
