##NAMES=Cerussite
##RRUFFID=R050011
##IDEAL CHEMISTRY=Pb^2+^CO_3_
##LOCALITY=Daoping Lead and Zinc mine, Gongcheng, Guangxi, China
##OWNER=RRUFF
##SOURCE=Eugene Schlepp
##DESCRIPTION=Colorless hexagonal bipyramidal crystals
##STATUS=The identification of this mineral has been confirmed by X-ray diffraction and chemical analysis
##URL=rruff.info/R050011
##MEASURED CHEMISTRY=Pb_1.00_CO_3_ ; CO_2_ not measured but estimated by difference and stoichiometry
80.52161, 26.90095
81.00372, 25.89176
81.48584, 24.34550
81.96796, 23.13941
82.45007, 22.26861
82.93219, 22.32191
83.41431, 24.90008
83.89642, 28.14945
84.37854, 29.48245
84.86066, 27.55179
85.34277, 24.23489
85.82489, 22.42908
86.30701, 22.66793
86.78912, 22.95856
87.27124, 22.03328
87.75336, 20.68060
88.23547, 19.95172
88.71759, 20.58653
89.19971, 22.17091
89.68182, 23.15439
90.16394, 23.52869
90.64606, 23.17459
91.12817, 21.43838
91.61029, 19.04065
92.09241, 17.18576
92.57452, 16.73717
93.05664, 17.70218
93.53876, 19.41234
94.02087, 23.77989
94.50299, 27.19513
94.98511, 28.25547
95.46722, 27.26800
95.94934, 25.42392
96.43146, 23.76624
96.91357, 22.21700
97.39569, 21.31175
97.87781, 20.81354
98.35992, 20.97649
98.84204, 22.44070
99.32416, 25.00972
99.80627, 27.53184
100.2884, 28.47880
100.7705, 26.80217
101.2526, 26.16304
101.7347, 27.30236
102.2169, 28.97849
102.6990, 30.02567
103.1811, 30.17426
103.6632, 30.21134
104.1453, 31.47798
104.6274, 34.62005
105.1096, 37.35723
105.5917, 39.62826
106.0738, 41.33092
106.5559, 41.93159
107.0380, 40.98515
107.5201, 39.80006
108.0023, 41.38639
108.4844, 46.48536
108.9665, 50.81297
109.4486, 52.11847
109.9307, 51.45374
110.4128, 51.62455
110.8950, 53.78289
111.3771, 57.09320
111.8592, 59.80878
112.3413, 61.44498
112.8234, 63.88778
113.3055, 68.21512
113.7877, 74.37239
114.2698, 82.03454
114.7519, 92.79109
115.2340, 103.8438
115.7161, 111.7010
116.1982, 115.2446
116.6804, 117.6926
117.1625, 122.0771
117.6446, 128.5965
118.1267, 135.6100
118.6088, 142.0357
119.0909, 148.9214
119.5731, 157.3232
120.0552, 167.6201
120.5373, 179.1736
121.0194, 190.2477
121.5015, 199.1261
121.9836, 212.6835
122.4658, 236.0335
122.9479, 263.4483
123.4300, 289.9128
123.9121, 313.6210
124.3942, 335.1299
124.8763, 355.1255
125.3585, 371.7531
125.8406, 390.5080
126.3227, 414.0616
126.8048, 439.6115
127.2869, 463.9932
127.7690, 485.2219
128.2512, 504.5276
128.7333, 526.2642
129.2154, 553.6212
129.6975, 579.5238
130.1796, 605.6003
130.6617, 628.9099
131.1439, 644.8889
131.6260, 650.3452
132.1081, 646.5831
132.5902, 643.7773
133.0723, 643.8209
133.5544, 642.8984
134.0366, 640.0345
134.5187, 635.7039
135.0008, 630.4122
135.4829, 624.2243
135.9650, 617.3389
136.4471, 614.5944
136.9293, 616.1071
137.4114, 621.1133
137.8935, 629.5892
138.3756, 641.4290
138.8577, 656.6021
139.3398, 675.1665
139.8220, 697.1989
140.3041, 721.8905
140.7862, 750.2911
141.2683, 779.6517
141.7504, 809.3179
142.2325, 838.9044
142.7147, 867.6866
143.1968, 895.5054
143.6789, 922.0881
144.1610, 945.5908
144.6431, 962.0205
145.1252, 978.9971
145.6074, 1001.396
146.0895, 1028.897
146.5716, 1058.419
147.0537, 1089.986
147.5358, 1122.514
148.0179, 1140.828
148.5001, 1135.235
148.9822, 1122.932
149.4643, 1115.583
149.9464, 1113.799
150.4285, 1113.357
150.9106, 1111.852
151.3928, 1108.839
151.8749, 1102.324
152.3570, 1089.393
152.8391, 1074.596
153.3212, 1060.261
153.8033, 1046.435
154.2855, 1037.457
154.7676, 1039.717
155.2497, 1050.601
155.7318, 1058.717
156.2139, 1060.798
156.6960, 1060.006
157.1782, 1058.896
157.6603, 1057.191
158.1424, 1057.829
158.6245, 1065.418
159.1066, 1077.351
159.5887, 1087.389
160.0709, 1091.078
160.5530, 1093.047
161.0351, 1100.467
161.5172, 1114.541
161.9993, 1130.019
162.4814, 1145.256
162.9636, 1159.206
163.4457, 1169.374
163.9278, 1169.472
164.4099, 1166.671
164.8920, 1175.955
165.3741, 1201.860
165.8563, 1227.068
166.3384, 1239.163
166.8205, 1243.417
167.3026, 1248.226
167.7847, 1256.967
168.2668, 1268.436
168.7490, 1280.353
169.2311, 1293.273
169.7132, 1305.450
170.1953, 1317.348
170.6774, 1327.870
171.1595, 1334.663
171.6417, 1334.483
172.1238, 1330.782
172.6059, 1333.224
173.0880, 1346.021
173.5701, 1356.440
174.0522, 1353.579
174.5344, 1345.974
175.0165, 1346.774
175.4986, 1365.407
175.9807, 1394.705
176.4628, 1414.812
176.9449, 1421.737
177.4271, 1426.278
177.9092, 1434.031
178.3913, 1442.047
178.8734, 1445.394
179.3555, 1439.646
179.8376, 1429.587
180.3197, 1430.405
180.8019, 1449.631
181.2840, 1466.651
181.7661, 1476.518
182.2482, 1480.429
182.7303, 1478.411
183.2124, 1468.832
183.6946, 1455.989
184.1767, 1452.826
184.6588, 1464.795
185.1409, 1477.477
185.6230, 1487.690
186.1051, 1496.051
186.5873, 1504.025
187.0694, 1512.806
187.5515, 1520.084
188.0336, 1518.875
188.5157, 1502.633
188.9978, 1489.002
189.4800, 1480.435
189.9621, 1476.529
190.4442, 1477.917
190.9263, 1485.325
191.4084, 1495.682
191.8905, 1500.762
192.3727, 1494.451
192.8548, 1494.055
193.3369, 1505.169
193.8190, 1521.251
194.3011, 1536.337
194.7832, 1548.072
195.2654, 1557.740
195.7475, 1568.291
196.2296, 1581.965
196.7117, 1592.193
197.1938, 1597.134
197.6759, 1599.502
198.1581, 1600.363
198.6402, 1600.260
199.1223, 1601.507
199.6044, 1609.031
200.0865, 1627.086
200.5686, 1643.142
201.0508, 1654.214
201.5329, 1664.411
202.0150, 1676.920
202.4971, 1692.626
202.9792, 1709.749
203.4613, 1724.970
203.9435, 1735.486
204.4256, 1750.607
204.9077, 1773.891
205.3898, 1798.994
205.8719, 1822.115
206.3540, 1842.319
206.8362, 1860.567
207.3183, 1877.003
207.8004, 1887.338
208.2825, 1907.102
208.7646, 1946.178
209.2467, 1985.981
209.7289, 2016.319
210.2110, 2035.662
210.6931, 2048.281
211.1752, 2057.080
211.6573, 2058.121
212.1395, 2070.126
212.6216, 2102.463
213.1037, 2136.841
213.5858, 2165.524
214.0679, 2187.745
214.5500, 2206.210
215.0322, 2223.046
215.5143, 2237.814
215.9964, 2253.588
216.4785, 2276.229
216.9606, 2294.538
217.4427, 2301.427
217.9249, 2299.667
218.4070, 2297.422
218.8891, 2301.135
219.3712, 2310.875
219.8533, 2324.093
220.3354, 2347.270
220.8176, 2367.721
221.2997, 2380.736
221.7818, 2388.331
222.2639, 2395.374
222.7460, 2405.721
223.2281, 2418.601
223.7103, 2424.795
224.1924, 2419.549
224.6745, 2412.085
225.1566, 2402.381
225.6387, 2392.048
226.1208, 2384.125
226.6030, 2381.080
227.0851, 2380.176
227.5672, 2369.537
228.0493, 2340.713
228.5314, 2312.793
229.0135, 2291.149
229.4957, 2271.426
229.9778, 2247.510
230.4599, 2216.452
230.9420, 2182.488
231.4241, 2156.099
231.9062, 2141.473
232.3884, 2127.986
232.8705, 2117.348
233.3526, 2105.486
233.8347, 2088.095
234.3168, 2063.931
234.7989, 2036.036
235.2811, 2008.446
235.7632, 1977.187
236.2453, 1956.168
236.7274, 1951.608
237.2095, 1952.529
237.6916, 1952.457
238.1738, 1949.865
238.6559, 1946.284
239.1380, 1942.726
239.6201, 1937.910
240.1022, 1938.059
240.5843, 1948.415
241.0665, 1959.663
241.5486, 1968.511
242.0307, 1974.246
242.5128, 1976.810
242.9949, 1974.895
243.4770, 1967.847
243.9592, 1964.109
244.4413, 1962.750
244.9234, 1966.142
245.4055, 1979.649
245.8876, 1999.203
246.3697, 2014.267
246.8519, 2013.923
247.3340, 2001.227
247.8161, 2004.750
248.2982, 2039.140
248.7803, 2070.784
249.2624, 2089.509
249.7446, 2097.893
250.2267, 2099.325
250.7088, 2093.427
251.1909, 2084.208
251.6730, 2084.976
252.1551, 2103.940
252.6373, 2115.968
253.1194, 2107.334
253.6015, 2090.759
254.0836, 2080.625
254.5657, 2083.131
255.0478, 2089.964
255.5300, 2086.287
256.0121, 2068.205
256.4942, 2054.490
256.9763, 2060.638
257.4584, 2067.346
257.9406, 2057.487
258.4227, 2026.985
258.9048, 1993.200
259.3869, 1976.234
259.8690, 1977.007
260.3511, 1972.659
260.8333, 1957.985
261.3154, 1937.038
261.7975, 1911.883
262.2796, 1882.908
262.7617, 1852.358
263.2438, 1820.375
263.7260, 1787.513
264.2081, 1757.811
264.6902, 1733.445
265.1723, 1709.622
265.6544, 1680.854
266.1365, 1649.105
266.6187, 1621.594
267.1008, 1605.322
267.5829, 1594.918
268.0650, 1578.143
268.5471, 1552.803
269.0292, 1527.424
269.5114, 1509.401
269.9935, 1495.354
270.4756, 1479.503
270.9577, 1459.806
271.4398, 1438.167
271.9219, 1414.721
272.4041, 1389.234
272.8862, 1369.137
273.3683, 1360.642
273.8504, 1359.032
274.3325, 1354.913
274.8146, 1347.703
275.2968, 1338.228
275.7789, 1325.676
276.2610, 1310.935
276.7431, 1297.354
277.2252, 1285.729
277.7073, 1276.405
278.1895, 1270.258
278.6716, 1267.767
279.1537, 1265.360
279.6358, 1262.109
280.1179, 1258.038
280.6000, 1253.181
281.0822, 1247.515
281.5643, 1241.149
282.0464, 1233.643
282.5285, 1224.812
283.0106, 1217.729
283.4927, 1214.191
283.9749, 1211.636
284.4570, 1207.832
284.9391, 1202.593
285.4212, 1196.649
285.9033, 1190.353
286.3854, 1183.783
286.8676, 1178.371
287.3497, 1175.937
287.8318, 1172.790
288.3139, 1166.359
288.7960, 1157.665
289.2781, 1149.776
289.7603, 1144.575
290.2424, 1141.150
290.7245, 1135.730
291.2066, 1125.302
291.6887, 1116.720
292.1708, 1113.999
292.6530, 1112.620
293.1351, 1105.986
293.6172, 1091.892
294.0993, 1074.822
294.5814, 1062.832
295.0635, 1059.000
295.5457, 1054.783
296.0278, 1050.010
296.5099, 1045.037
296.9920, 1039.455
297.4741, 1033.612
297.9562, 1029.107
298.4384, 1027.817
298.9205, 1030.327
299.4026, 1032.031
299.8847, 1031.453
300.3668, 1031.565
300.8489, 1035.150
301.3310, 1040.218
301.8131, 1042.244
302.2953, 1037.713
302.7774, 1028.328
303.2595, 1022.904
303.7416, 1023.806
304.2237, 1025.480
304.7058, 1025.446
305.1880, 1026.043
305.6701, 1030.901
306.1522, 1041.532
306.6343, 1053.353
307.1164, 1057.316
307.5985, 1049.855
308.0807, 1047.813
308.5628, 1061.801
309.0449, 1076.820
309.5270, 1082.473
310.0091, 1078.454
310.4912, 1074.026
310.9734, 1077.332
311.4555, 1087.762
311.9376, 1098.774
312.4197, 1110.178
312.9018, 1121.770
313.3839, 1133.348
313.8661, 1145.011
314.3482, 1156.960
314.8303, 1170.876
315.3124, 1184.450
315.7945, 1191.831
316.2766, 1191.428
316.7588, 1194.118
317.2409, 1206.885
317.7230, 1226.274
318.2051, 1247.023
318.6872, 1270.170
319.1693, 1291.517
319.6515, 1305.444
320.1336, 1313.939
320.6157, 1327.021
321.0978, 1349.795
321.5799, 1375.712
322.0620, 1393.170
322.5442, 1400.350
323.0263, 1411.515
323.5084, 1434.188
323.9905, 1461.660
324.4726, 1486.414
324.9547, 1507.254
325.4369, 1523.213
325.9190, 1531.591
326.4011, 1531.342
326.8832, 1539.225
327.3653, 1562.362
327.8474, 1586.794
328.3296, 1606.964
328.8117, 1622.142
329.2938, 1630.828
329.7759, 1631.343
330.2580, 1626.220
330.7401, 1626.946
331.2223, 1640.535
331.7044, 1651.316
332.1865, 1657.194
332.6686, 1659.728
333.1507, 1659.703
333.6328, 1657.639
334.1150, 1655.428
334.5971, 1656.083
335.0792, 1661.017
335.5613, 1665.028
336.0434, 1670.850
336.5255, 1673.517
337.0077, 1668.159
337.4898, 1656.830
337.9719, 1646.021
338.4540, 1640.847
338.9361, 1640.823
339.4182, 1641.714
339.9004, 1644.070
340.3825, 1646.567
340.8646, 1646.483
341.3467, 1647.097
341.8288, 1653.864
342.3109, 1669.902
342.7931, 1687.687
343.2752, 1695.306
343.7573, 1691.421
344.2394, 1686.531
344.7215, 1677.767
345.2036, 1673.523
345.6858, 1683.345
346.1679, 1707.178
346.6500, 1729.427
347.1321, 1739.277
347.6142, 1740.063
348.0963, 1740.089
348.5785, 1739.197
349.0606, 1740.535
349.5427, 1746.620
350.0248, 1756.963
350.5069, 1770.834
350.9890, 1794.312
351.4712, 1816.434
351.9533, 1826.832
352.4354, 1827.297
352.9175, 1827.558
353.3996, 1832.656
353.8817, 1839.832
354.3639, 1841.235
354.8460, 1834.215
355.3281, 1828.397
355.8102, 1826.841
356.2923, 1827.185
356.7744, 1826.654
357.2566, 1824.670
357.7387, 1822.767
358.2208, 1823.625
358.7029, 1829.472
359.1850, 1824.518
359.6671, 1799.183
360.1493, 1774.284
360.6314, 1761.322
361.1135, 1756.040
361.5956, 1747.829
362.0777, 1730.175
362.5598, 1705.673
363.0420, 1683.850
363.5241, 1667.914
364.0062, 1649.453
364.4883, 1624.480
364.9704, 1598.734
365.4525, 1578.408
365.9347, 1564.299
366.4168, 1549.904
366.8989, 1526.700
367.3810, 1493.744
367.8631, 1464.913
368.3452, 1443.126
368.8274, 1422.720
369.3095, 1400.907
369.7916, 1378.023
370.2737, 1354.836
370.7558, 1329.545
371.2379, 1305.883
371.7201, 1292.321
372.2022, 1290.077
372.6843, 1286.279
373.1664, 1274.402
373.6485, 1258.540
374.1306, 1245.475
374.6128, 1236.480
375.0949, 1226.438
375.5770, 1212.171
376.0591, 1195.160
376.5412, 1178.210
377.0233, 1161.849
377.5055, 1145.867
377.9876, 1129.993
378.4697, 1114.280
378.9518, 1099.111
379.4339, 1082.507
379.9160, 1068.283
380.3982, 1060.943
380.8803, 1058.166
381.3624, 1053.317
381.8445, 1042.554
382.3266, 1028.158
382.8087, 1016.885
383.2909, 1013.153
383.7730, 1006.919
384.2551, 994.2029
384.7372, 981.3946
385.2193, 974.7006
385.7014, 974.4604
386.1836, 975.5128
386.6657, 972.8238
387.1478, 966.3512
387.6299, 957.0522
388.1120, 941.4282
388.5941, 926.8939
389.0763, 916.1840
389.5584, 908.0386
390.0405, 900.4366
390.5226, 892.3307
391.0047, 884.6796
391.4868, 878.5065
391.9690, 873.6995
392.4511, 872.0646
392.9332, 878.0522
393.4153, 883.7647
393.8974, 880.5741
394.3795, 868.5124
394.8617, 857.5135
395.3438, 854.0489
395.8259, 854.1981
396.3080, 850.9508
396.7901, 843.5283
397.2722, 836.3783
397.7544, 833.4448
398.2365, 833.3894
398.7186, 829.2045
399.2007, 814.7135
399.6828, 803.1212
400.1649, 801.8395
400.6471, 806.2936
401.1292, 809.1857
401.6113, 808.1246
402.0934, 804.4264
402.5755, 799.7190
403.0576, 793.0014
403.5398, 788.5342
404.0219, 789.8149
404.5040, 789.7535
404.9861, 782.2634
405.4682, 770.2764
405.9503, 761.4052
406.4325, 760.6177
406.9146, 766.1210
407.3967, 772.2825
407.8788, 781.5175
408.3609, 786.2370
408.8430, 782.1530
409.3252, 775.2704
409.8073, 769.9406
410.2894, 766.9000
410.7715, 764.6573
411.2536, 762.0482
411.7357, 759.1652
412.2179, 756.7882
412.7000, 755.4899
413.1821, 753.4489
413.6642, 746.9265
414.1463, 738.9183
414.6284, 736.1603
415.1106, 743.4563
415.5927, 751.9534
416.0748, 754.9641
416.5569, 753.8672
417.0390, 752.9562
417.5211, 753.7693
418.0033, 754.9808
418.4854, 754.6166
418.9675, 752.2788
419.4496, 749.5358
419.9317, 747.2362
420.4138, 743.8923
420.8960, 735.8713
421.3781, 725.4891
421.8602, 720.1765
422.3423, 725.2569
422.8244, 737.9662
423.3065, 746.2463
423.7887, 746.8297
424.2708, 747.9309
424.7529, 752.5198
425.2350, 756.5364
425.7171, 755.0173
426.1992, 748.1407
426.6814, 742.3635
427.1635, 746.3513
427.6456, 758.7781
428.1277, 762.3170
428.6098, 752.0244
429.0919, 742.3121
429.5741, 739.6863
430.0562, 742.5407
430.5383, 750.0637
431.0204, 765.0516
431.5025, 778.1944
431.9846, 779.1530
432.4668, 771.4072
432.9489, 768.1935
433.4310, 773.9194
433.9131, 781.4309
434.3952, 781.3893
434.8773, 772.6888
435.3595, 768.4834
435.8416, 773.0272
436.3237, 779.0574
436.8058, 782.1862
437.2879, 783.1183
437.7701, 784.6163
438.2522, 788.1823
438.7343, 792.5558
439.2164, 794.3817
439.6985, 791.4366
440.1806, 789.8721
440.6628, 791.2244
441.1449, 792.6590
441.6270, 792.2268
442.1091, 790.0821
442.5912, 787.4718
443.0733, 784.6706
443.5555, 782.4013
444.0376, 783.9042
444.5197, 790.4205
445.0018, 797.2775
445.4839, 806.2919
445.9660, 812.8356
446.4482, 810.1678
446.9303, 796.1393
447.4124, 783.5555
447.8945, 778.9918
448.3766, 781.6805
448.8587, 792.9000
449.3409, 813.6617
449.8230, 831.7078
450.3051, 836.4057
450.7872, 829.1108
451.2693, 825.7675
451.7514, 829.7684
452.2336, 833.4471
452.7157, 832.9191
453.1978, 831.0562
453.6799, 832.3681
454.1620, 837.9988
454.6441, 844.9216
455.1263, 849.0535
455.6084, 849.6279
456.0905, 851.7339
456.5726, 860.8481
457.0547, 865.7505
457.5368, 859.0257
458.0190, 846.7413
458.5011, 838.8402
458.9832, 839.8392
459.4653, 845.0313
459.9474, 848.1271
460.4295, 849.0898
460.9117, 849.6924
461.3938, 850.2448
461.8759, 850.5400
462.3580, 851.2290
462.8401, 851.8935
463.3222, 849.8601
463.8044, 840.9966
464.2865, 831.7921
464.7686, 829.0963
465.2507, 831.4229
465.7328, 832.4388
466.2149, 829.2582
466.6971, 823.8301
467.1792, 819.9248
467.6613, 818.0516
468.1434, 816.7982
468.6255, 817.2194
469.1076, 817.3365
469.5898, 815.6026
470.0719, 812.4487
470.5540, 809.7023
471.0361, 808.8212
471.5182, 808.2673
472.0003, 803.0754
472.4825, 791.6325
472.9646, 780.0306
473.4467, 765.8105
473.9288, 754.7013
474.4109, 753.5306
474.8930, 761.1533
475.3752, 765.7886
475.8573, 757.9404
476.3394, 743.9166
476.8215, 734.8388
477.3036, 731.0216
477.7857, 726.3438
478.2679, 716.7982
478.7500, 705.2650
479.2321, 699.4588
479.7142, 702.9329
480.1963, 702.5217
480.6784, 689.1721
481.1606, 675.2703
481.6427, 675.6259
482.1248, 688.4210
482.6069, 697.9195
483.0890, 691.7130
483.5711, 673.0990
484.0533, 660.2325
484.5354, 655.3065
485.0175, 652.8867
485.4996, 654.7382
485.9817, 656.6539
486.4638, 654.3887
486.9460, 647.9971
487.4281, 642.1134
487.9102, 641.4726
488.3923, 644.0680
488.8744, 643.9624
489.3565, 641.0238
489.8387, 635.6637
490.3208, 626.1898
490.8029, 615.3953
491.2850, 608.8696
491.7671, 607.2697
492.2492, 607.8425
492.7314, 610.5598
493.2135, 614.4864
493.6956, 619.3280
494.1777, 624.6318
494.6598, 628.8242
495.1419, 630.8842
495.6241, 630.6675
496.1062, 627.0472
496.5883, 614.3899
497.0704, 606.3768
497.5525, 608.5245
498.0346, 612.7178
498.5168, 611.3215
498.9989, 604.1490
499.4810, 597.6413
499.9631, 598.5457
500.4452, 604.3062
500.9273, 604.5619
501.4095, 597.9182
501.8916, 591.5413
502.3737, 587.6556
502.8558, 586.4654
503.3379, 589.0399
503.8200, 597.0921
504.3022, 601.6505
504.7843, 597.9604
505.2664, 589.7990
505.7485, 578.9377
506.2306, 566.8503
506.7127, 560.1668
507.1949, 564.1558
507.6770, 575.8237
508.1591, 581.9464
508.6412, 576.6525
509.1233, 574.3238
509.6054, 579.8188
510.0876, 585.2712
510.5697, 583.8867
511.0518, 576.3468
511.5339, 568.7601
512.0161, 565.4926
512.4982, 565.3411
512.9803, 565.4603
513.4624, 566.0881
513.9445, 565.4836
514.4266, 562.6553
514.9088, 558.5765
515.3909, 554.1342
515.8730, 549.1693
516.3551, 545.6887
516.8372, 545.7885
517.3193, 546.5267
517.8015, 543.9865
518.2836, 539.2496
518.7657, 537.9071
519.2478, 543.4618
519.7299, 551.7546
520.2120, 552.4719
520.6942, 539.5687
521.1763, 530.5628
521.6584, 528.5535
522.1405, 527.0825
522.6226, 521.0911
523.1047, 512.7496
523.5869, 508.8679
524.0690, 514.7779
524.5511, 522.9414
525.0332, 518.5693
525.5153, 501.7769
525.9974, 491.4914
526.4796, 494.2106
526.9617, 501.5043
527.4438, 505.7406
527.9259, 507.1273
528.4080, 505.6017
528.8901, 497.4760
529.3723, 490.0535
529.8544, 488.3652
530.3365, 490.3559
530.8186, 492.1096
531.3007, 492.2624
531.7828, 491.5222
532.2650, 490.8839
532.7471, 490.4631
533.2292, 489.4197
533.7113, 488.0457
534.1934, 485.6191
534.6755, 480.7875
535.1577, 475.2338
535.6398, 471.2890
536.1219, 469.6919
536.6040, 468.9110
537.0861, 466.9741
537.5682, 464.6856
538.0504, 465.0887
538.5325, 468.8154
539.0146, 473.2524
539.4967, 477.4609
539.9788, 480.7571
540.4609, 479.8539
540.9431, 470.1565
541.4252, 463.0203
541.9073, 462.3260
542.3894, 464.1779
542.8715, 464.3644
543.3536, 462.9131
543.8358, 463.6176
544.3179, 470.5276
544.8000, 481.0299
545.2821, 482.7499
545.7642, 472.0544
546.2463, 462.4995
546.7285, 456.3846
547.2106, 453.6562
547.6926, 455.7427
548.1747, 462.1071
548.6569, 467.4056
549.1390, 468.8973
549.6211, 468.4278
550.1032, 467.6201
550.5853, 466.5589
551.0674, 465.1130
551.5496, 463.0480
552.0317, 461.4882
552.5138, 462.4422
552.9959, 467.0954
553.4780, 470.2659
553.9601, 470.9360
554.4423, 471.4513
554.9244, 474.0049
555.4065, 476.6404
555.8886, 475.5293
556.3707, 469.1473
556.8528, 462.0972
557.3350, 460.7980
557.8171, 464.3638
558.2992, 465.0589
558.7813, 461.1509
559.2634, 457.6255
559.7455, 457.7870
560.2277, 460.9265
560.7098, 464.5906
561.1919, 471.1307
561.6740, 474.0633
562.1561, 468.0907
562.6382, 459.4991
563.1204, 454.1122
563.6025, 452.8994
564.0846, 455.3265
564.5667, 461.5643
565.0488, 470.1831
565.5309, 475.8185
566.0131, 478.5006
566.4952, 478.1086
566.9773, 471.3503
567.4594, 464.0668
567.9415, 459.5004
568.4236, 457.6294
568.9058, 457.4118
569.3879, 459.8994
569.8700, 462.5081
570.3521, 461.7618
570.8342, 458.8267
571.3163, 457.8494
571.7985, 460.1958
572.2806, 463.8595
572.7627, 466.5115
573.2448, 468.0786
573.7269, 469.3863
574.2090, 470.9104
574.6912, 471.6390
575.1733, 471.0620
575.6554, 469.6918
