##NAMES=Cervandonite-(Ce)
##RRUFFID=R110070
##IDEAL CHEMISTRY=(Ce^3+^,Nd^3+^,La^3+^)(Fe^3+^,Ti^4+^,Fe^2+^,Al)_3_O_2_(Si_2_O_7_)_0.8_(As^3+^O_3_)_1.2_(OH)_0.6_
##LOCALITY=Monte Cervandone, Val d'Ossola, Piedmont, Italy
##OWNER=RRUFF
##SOURCE=Renato & Adriana Pagano
##DESCRIPTION=Rosettes of black platy crystals associated with microcline, quartz and rutile
##STATUS=The identification of this mineral has been confirmed by single-crystal X-ray diffraction.
##URL=rruff.info/R110070
298.9137, 975.2137
299.3958, 975.7535
299.8779, 975.8234
300.3600, 975.6931
300.8422, 975.7438
301.3243, 975.6745
301.8064, 974.8241
302.2885, 972.3450
302.7706, 969.6951
303.2527, 968.3597
303.7349, 968.3431
304.2170, 969.6238
304.6991, 973.5969
305.1812, 978.1967
305.6633, 980.6894
306.1454, 980.5571
306.6276, 978.7224
307.1097, 974.8191
307.5918, 969.0735
308.0739, 965.4674
308.5560, 966.1562
309.0381, 969.0020
309.5203, 971.9361
310.0024, 975.0586
310.4845, 976.7705
310.9666, 974.6558
311.4487, 969.7275
311.9308, 967.3709
312.4130, 970.0934
312.8951, 973.5230
313.3772, 973.0205
313.8593, 969.2169
314.3414, 966.2663
314.8235, 967.2203
315.3057, 970.5074
315.7878, 971.8611
316.2699, 970.2698
316.7520, 968.3312
317.2341, 968.0361
317.7162, 968.8428
318.1984, 969.6688
318.6805, 970.4161
319.1626, 970.8353
319.6447, 970.1318
320.1268, 967.9368
320.6089, 966.5096
321.0911, 968.3659
321.5732, 971.4586
322.0553, 972.8627
322.5374, 971.4992
323.0195, 969.1244
323.5016, 967.2964
323.9838, 966.0027
324.4659, 965.2405
324.9480, 964.8892
325.4301, 965.2460
325.9122, 966.7770
326.3943, 969.7318
326.8765, 972.7280
327.3586, 975.4693
327.8407, 977.6780
328.3228, 977.3032
328.8049, 972.2508
329.2870, 966.7360
329.7692, 964.9728
330.2513, 966.6954
330.7334, 969.6788
331.2155, 975.3379
331.6976, 981.2728
332.1797, 980.4103
332.6619, 969.4943
333.1440, 958.8856
333.6261, 959.1634
334.1082, 966.4485
334.5903, 971.9562
335.0724, 972.1902
335.5546, 969.6664
336.0367, 967.0176
336.5188, 964.1615
337.0009, 962.3458
337.4830, 962.8176
337.9651, 964.7137
338.4473, 966.4240
338.9294, 967.9110
339.4115, 968.9830
339.8936, 969.7061
340.3758, 969.9968
340.8579, 969.0145
341.3400, 965.7225
341.8221, 961.7254
342.3042, 959.4195
342.7863, 958.9329
343.2685, 959.1150
343.7506, 959.5295
344.2327, 960.1902
344.7148, 961.3621
345.1969, 963.4076
345.6790, 965.1408
346.1612, 965.0222
346.6433, 963.3265
347.1254, 960.9886
347.6075, 956.6608
348.0896, 952.5892
348.5717, 952.3611
349.0539, 956.4100
349.5360, 960.6035
350.0181, 962.3283
350.5002, 961.5696
350.9823, 959.1934
351.4644, 952.6689
351.9466, 946.7517
352.4287, 945.2233
352.9108, 947.3482
353.3929, 949.6365
353.8750, 950.5302
354.3571, 950.4173
354.8393, 950.3185
355.3214, 950.3875
355.8035, 950.1520
356.2856, 949.4338
356.7677, 948.3004
357.2498, 946.6600
357.7320, 944.3704
358.2141, 942.2040
358.6962, 941.2992
359.1783, 941.8248
359.6604, 942.5094
360.1425, 943.7990
360.6247, 944.8323
361.1068, 944.5127
361.5889, 942.8400
362.0710, 941.0652
362.5531, 940.1523
363.0352, 940.1418
363.5174, 940.6142
363.9995, 943.1652
364.4816, 944.5980
364.9637, 941.9861
365.4458, 936.9359
365.9279, 933.9139
366.4101, 935.5621
366.8922, 940.0471
367.3743, 941.3054
367.8564, 936.1508
368.3385, 932.5047
368.8206, 932.2103
369.3028, 933.5783
369.7849, 935.0212
370.2670, 936.0222
370.7491, 936.3154
371.2312, 935.3450
371.7133, 932.1916
372.1955, 930.7099
372.6776, 932.6631
373.1597, 934.6874
373.6418, 934.5142
374.1239, 932.3563
374.6060, 929.8752
375.0882, 928.3230
375.5703, 927.6932
376.0524, 927.4153
376.5345, 927.9871
377.0166, 928.3407
377.4987, 928.2927
377.9809, 927.8649
378.4630, 926.9961
378.9451, 925.6547
379.4272, 924.1407
379.9093, 923.2435
380.3914, 923.9203
380.8736, 923.5585
381.3557, 920.5482
381.8378, 917.6349
382.3199, 917.5322
382.8020, 920.1959
383.2841, 922.7972
383.7663, 921.6653
384.2484, 915.8333
384.7305, 913.0195
385.2126, 916.1453
385.6947, 919.5995
386.1768, 922.1747
386.6590, 923.7005
387.1411, 924.1085
387.6232, 923.1931
388.1053, 921.3893
388.5874, 920.2244
389.0695, 919.6990
389.5517, 919.8844
390.0338, 922.3772
390.5159, 924.6398
390.9980, 923.5680
391.4801, 918.3655
391.9622, 912.6307
392.4444, 911.1008
392.9265, 914.2446
393.4086, 917.1076
393.8907, 919.3457
394.3728, 920.8753
394.8549, 921.5068
395.3371, 921.3704
395.8192, 920.9112
396.3013, 920.1854
396.7834, 919.3594
397.2655, 919.1566
397.7477, 919.9908
398.2298, 920.3690
398.7119, 919.1785
399.1940, 917.1610
399.6761, 915.0891
400.1582, 912.9265
400.6404, 911.2624
401.1225, 911.0118
401.6046, 912.0758
402.0867, 912.9112
402.5688, 913.3124
403.0509, 912.9483
403.5331, 910.9611
404.0152, 907.2772
404.4973, 904.8168
404.9794, 905.8115
405.4615, 908.5889
405.9436, 910.4400
406.4258, 911.0685
406.9079, 910.5811
407.3900, 908.4827
407.8721, 905.1810
408.3542, 902.8221
408.8363, 901.8832
409.3185, 901.6418
409.8006, 902.1171
410.2827, 903.0164
410.7648, 903.2957
411.2469, 902.4197
411.7290, 900.8232
412.2112, 899.5208
412.6933, 898.8878
413.1754, 897.5995
413.6575, 894.3761
414.1396, 890.9473
414.6217, 889.5128
415.1039, 890.2963
415.5860, 891.2054
416.0681, 889.8663
416.5502, 885.8369
417.0323, 884.7878
417.5144, 889.9678
417.9966, 894.2390
418.4787, 894.0067
418.9608, 890.8200
419.4429, 887.8630
419.9250, 886.7694
420.4071, 886.9961
420.8893, 887.1077
421.3714, 887.8121
421.8535, 887.2214
422.3356, 883.7139
422.8177, 880.0764
423.2998, 879.0790
423.7820, 880.6711
424.2641, 882.1165
424.7462, 880.2129
425.2283, 874.5840
425.7104, 871.1165
426.1925, 871.8440
426.6747, 872.6603
427.1568, 872.3471
427.6389, 871.3635
428.1210, 870.4569
428.6031, 869.9504
429.0852, 869.8342
429.5674, 870.5038
430.0495, 872.6850
430.5316, 873.0574
431.0137, 867.8568
431.4958, 862.6250
431.9779, 861.6050
432.4601, 864.7824
432.9422, 868.0339
433.4243, 868.1120
433.9064, 865.6396
434.3885, 863.1313
434.8706, 860.3558
435.3528, 858.3458
435.8349, 858.6420
436.3170, 859.9997
436.7991, 860.2097
437.2812, 857.9427
437.7633, 855.4761
438.2455, 855.6664
438.7276, 857.9746
439.2097, 858.4116
439.6918, 854.9472
440.1739, 850.0035
440.6560, 847.3642
441.1382, 847.1367
441.6203, 846.6585
442.1024, 844.2387
442.5845, 841.7115
443.0666, 841.7758
443.5487, 844.4756
444.0309, 846.8544
444.5130, 846.5800
444.9951, 843.9482
445.4772, 841.9608
445.9593, 840.7869
446.4414, 839.9634
446.9236, 839.7715
447.4057, 839.7234
447.8878, 838.7790
448.3699, 836.6212
448.8520, 834.5126
449.3341, 834.6271
449.8163, 838.6732
450.2984, 839.9785
450.7805, 836.0409
451.2626, 832.0995
451.7447, 831.2432
452.2268, 832.7484
452.7090, 834.1274
453.1911, 833.7350
453.6732, 831.8993
454.1553, 829.9357
454.6374, 827.6002
455.1195, 825.5637
455.6017, 823.7236
456.0838, 822.3074
456.5659, 821.6623
457.0480, 821.7838
457.5301, 822.1432
458.0122, 822.3967
458.4944, 822.5328
458.9765, 821.7276
459.4586, 818.6727
459.9407, 816.6614
460.4228, 818.4355
460.9049, 822.1306
461.3871, 824.4037
461.8692, 823.8633
462.3513, 821.8146
462.8334, 819.3343
463.3155, 816.4693
463.7976, 814.5291
464.2798, 814.3590
464.7619, 814.7800
465.2440, 814.4550
465.7261, 813.4183
466.2082, 811.6705
466.6903, 808.5156
467.1725, 805.0173
467.6546, 802.2676
468.1367, 800.3929
468.6188, 799.5943
469.1009, 800.3109
469.5830, 802.1491
470.0652, 803.1216
470.5473, 803.0274
471.0294, 802.4578
471.5115, 801.4796
471.9936, 800.1426
472.4757, 798.1070
472.9579, 795.4096
473.4400, 793.2852
473.9221, 793.4967
474.4042, 796.8323
474.8863, 797.8547
475.3684, 794.4456
475.8506, 791.2615
476.3327, 790.3074
476.8148, 790.7013
477.2969, 790.8141
477.7790, 789.8592
478.2611, 788.2311
478.7433, 786.6466
479.2254, 784.8835
479.7075, 783.8334
480.1896, 784.1978
480.6717, 784.8132
481.1538, 785.1418
481.6360, 785.1565
482.1181, 785.0256
482.6002, 784.7897
483.0823, 784.5159
483.5644, 784.6952
484.0465, 785.7870
484.5287, 785.5635
485.0108, 781.2665
485.4929, 776.0375
485.9750, 773.9343
486.4571, 775.9404
486.9392, 778.1283
487.4214, 777.7145
487.9035, 775.8276
488.3856, 775.0833
488.8677, 775.9869
489.3498, 777.2390
489.8319, 777.7863
490.3141, 777.6465
490.7962, 777.5140
491.2783, 777.8760
491.7604, 777.7327
492.2425, 776.0516
492.7246, 773.6513
493.2068, 772.1199
493.6889, 772.0192
494.1710, 772.6188
494.6531, 772.8932
495.1352, 773.0303
495.6173, 772.1424
496.0995, 768.5045
496.5816, 765.6575
497.0637, 765.7931
497.5458, 768.0458
498.0279, 770.7070
498.5100, 772.9830
498.9922, 774.1943
499.4743, 771.9017
499.9564, 763.3897
500.4385, 758.3327
500.9206, 761.6487
501.4027, 765.9571
501.8849, 766.7196
502.3670, 764.0352
502.8491, 760.7579
503.3312, 758.0310
503.8133, 756.3105
504.2954, 757.4901
504.7776, 762.3113
505.2597, 766.4957
505.7418, 767.6835
506.2239, 767.2613
506.7060, 767.2401
507.1881, 767.8008
507.6703, 768.4192
508.1524, 769.2318
508.6345, 769.8050
509.1166, 769.1434
509.5987, 767.0934
510.0808, 764.9767
510.5630, 763.8626
511.0451, 763.6808
511.5272, 763.4352
512.0093, 763.3094
512.4914, 762.9073
512.9735, 761.8231
513.4556, 760.5123
513.9377, 759.5277
514.4199, 759.0349
514.9020, 758.8861
515.3841, 758.8926
515.8662, 759.0173
516.3483, 759.5588
516.8304, 761.3311
517.3126, 762.6555
517.7947, 762.9590
518.2768, 762.5441
518.7589, 761.8107
519.2410, 760.9026
519.7231, 759.9370
520.2053, 759.0934
520.6874, 758.1646
521.1695, 757.5736
521.6516, 756.4002
522.1337, 755.4159
522.6158, 754.5931
523.0980, 754.1848
523.5801, 755.0312
524.0622, 758.6232
524.5443, 762.4157
525.0264, 763.5018
525.5085, 762.2609
525.9907, 760.7158
526.4728, 759.3480
526.9549, 758.4723
527.4370, 758.7509
527.9191, 760.4078
528.4012, 761.7413
528.8834, 762.4169
529.3655, 762.8669
529.8476, 763.5273
530.3297, 764.2311
530.8118, 764.3954
531.2939, 763.6774
531.7761, 762.4080
532.2582, 761.3658
532.7403, 760.1104
533.2224, 759.9488
533.7045, 761.8453
534.1866, 763.8486
534.6688, 764.9529
535.1509, 765.1311
535.6330, 764.7026
536.1151, 763.7746
536.5972, 762.5142
537.0793, 761.0566
537.5615, 758.9983
538.0436, 758.4973
538.5257, 761.6815
539.0078, 765.5601
539.4899, 767.3249
539.9720, 767.0040
540.4542, 766.8693
540.9363, 768.3879
541.4184, 770.5656
541.9005, 772.3486
542.3826, 773.6370
542.8647, 773.3193
543.3469, 769.9900
543.8290, 765.5248
544.3111, 765.2913
544.7932, 771.9558
545.2753, 775.9423
545.7574, 773.2042
546.2396, 769.1971
546.7217, 769.1754
547.2038, 772.7225
547.6859, 775.6605
548.1680, 774.9181
548.6501, 771.4996
549.1323, 769.9484
549.6144, 771.7364
550.0965, 772.8796
550.5786, 772.0898
551.0607, 771.2334
551.5428, 771.9302
552.0250, 774.0538
552.5071, 776.0887
552.9892, 777.1011
553.4713, 777.1589
553.9534, 776.3338
554.4355, 774.4909
554.9177, 772.3950
555.3998, 769.9689
555.8819, 767.7269
556.3640, 766.3040
556.8461, 765.7607
557.3282, 765.6239
557.8104, 765.5303
558.2925, 765.8467
558.7746, 767.4881
559.2567, 770.2511
559.7388, 772.4439
560.2209, 773.1592
560.7031, 772.4322
561.1852, 770.3674
561.6673, 764.5665
562.1494, 760.8112
562.6315, 760.4407
563.1136, 761.1510
563.5958, 761.5485
564.0779, 761.4594
564.5600, 761.2941
565.0421, 761.5010
565.5242, 761.5705
566.0063, 759.2840
566.4885, 753.1839
566.9706, 749.0247
567.4527, 750.7337
567.9348, 752.9398
568.4169, 751.3711
568.8990, 746.3881
569.3812, 742.0760
569.8633, 740.7617
570.3454, 741.2861
570.8275, 742.6780
571.3096, 744.7814
571.7917, 745.5576
572.2739, 743.8723
572.7560, 740.8488
573.2381, 738.3377
573.7202, 736.2451
574.2023, 734.9374
574.6844, 735.2367
575.1666, 735.6459
575.6487, 734.9826
576.1308, 733.5599
576.6129, 732.4161
577.0950, 732.1020
577.5771, 732.1904
578.0593, 731.7750
578.5414, 730.8432
579.0235, 729.4273
579.5056, 726.1968
579.9877, 723.7261
580.4698, 724.2352
580.9520, 726.3708
581.4341, 726.9117
581.9162, 724.0898
582.3983, 719.7433
582.8804, 715.3556
583.3625, 711.1591
583.8447, 710.3627
584.3268, 714.8539
584.8089, 720.3307
585.2910, 722.4384
585.7732, 721.4250
586.2553, 719.7337
586.7374, 716.2034
587.2195, 713.4799
587.7017, 713.4755
588.1838, 715.0842
588.6659, 716.5204
589.1480, 717.2103
589.6301, 717.3605
590.1122, 717.2064
590.5944, 716.7427
591.0765, 715.9842
591.5586, 714.0194
592.0407, 712.8475
592.5228, 713.9589
593.0049, 715.6242
593.4871, 715.7645
593.9692, 713.8583
594.4513, 711.0932
594.9334, 707.9830
595.4155, 704.8467
595.8976, 703.2003
596.3798, 703.2825
596.8619, 704.2506
597.3440, 706.4674
597.8261, 708.8938
598.3082, 708.8386
598.7903, 704.7054
599.2725, 702.1374
599.7546, 704.6657
600.2367, 708.5945
600.7188, 709.7106
601.2009, 708.0062
601.6830, 706.2328
602.1652, 706.2914
602.6473, 707.5826
603.1294, 707.8774
603.6115, 706.6859
604.0936, 705.3566
604.5757, 703.3177
605.0579, 701.7579
605.5400, 701.8694
606.0221, 703.1628
606.5042, 704.0031
606.9863, 703.3879
607.4684, 701.9745
607.9506, 700.2845
608.4327, 698.3669
608.9148, 698.6000
609.3969, 702.7970
609.8790, 707.1193
610.3611, 706.3591
610.8433, 701.0736
611.3254, 698.4254
611.8075, 701.7037
612.2896, 705.1383
612.7717, 705.3096
613.2538, 703.6874
613.7360, 703.0974
614.2181, 704.2986
614.7002, 705.5391
615.1823, 704.5487
615.6644, 701.1530
616.1465, 699.1529
616.6287, 699.5666
617.1108, 700.0274
617.5929, 699.6476
618.0750, 699.1710
618.5571, 699.8276
619.0392, 701.7430
619.5214, 702.7474
620.0035, 699.9144
620.4856, 695.3152
620.9677, 694.0349
621.4498, 696.3903
621.9319, 698.7463
622.4141, 699.4061
622.8962, 698.8932
623.3783, 698.0507
623.8604, 696.3422
624.3425, 696.0123
624.8246, 699.1962
625.3068, 702.1694
625.7889, 701.9802
626.2710, 699.5111
626.7531, 697.0692
627.2352, 695.7708
627.7173, 695.6804
628.1995, 697.5089
628.6816, 702.0148
629.1637, 704.1335
629.6458, 701.9191
630.1279, 699.3939
630.6100, 698.1349
631.0922, 698.0524
631.5743, 699.2214
632.0564, 702.1119
632.5385, 704.8741
633.0206, 706.1785
633.5027, 706.4119
633.9849, 706.1465
634.4670, 705.4902
634.9491, 705.0217
635.4312, 705.3207
635.9133, 706.0555
636.3954, 705.6261
636.8776, 701.9238
637.3597, 699.9216
637.8418, 701.6262
638.3239, 703.5748
638.8060, 702.9564
639.2881, 700.2687
639.7703, 697.8829
640.2524, 697.2500
640.7345, 697.6183
641.2166, 697.5226
641.6987, 696.9247
642.1808, 696.7439
642.6630, 697.3505
643.1451, 698.1039
643.6272, 698.7426
644.1093, 699.1232
644.5914, 698.5258
645.0735, 694.6132
645.5557, 692.2722
646.0378, 695.7760
646.5199, 701.4213
647.0020, 703.7042
647.4841, 701.7390
647.9662, 698.2529
648.4484, 695.4340
648.9305, 693.3586
649.4126, 692.5477
649.8947, 693.5251
650.3768, 694.8199
650.8589, 696.5643
651.3411, 698.2099
651.8232, 699.3842
652.3053, 700.0886
652.7874, 700.5471
653.2695, 701.1659
653.7516, 701.3098
654.2338, 699.8185
654.7159, 697.0498
655.1980, 694.5439
655.6801, 692.6719
656.1622, 691.6142
656.6443, 691.8135
657.1265, 693.3919
657.6086, 693.8400
658.0907, 691.4415
658.5728, 690.2197
659.0549, 692.4064
659.5370, 695.4650
660.0192, 696.5071
660.5013, 695.3189
660.9834, 694.1061
661.4655, 695.1046
661.9476, 697.2147
662.4297, 696.4186
662.9119, 692.1870
663.3940, 689.3981
663.8761, 690.4160
664.3582, 692.4650
664.8403, 691.8607
665.3224, 688.8635
665.8046, 686.9893
666.2867, 687.6172
666.7688, 688.6384
667.2509, 688.9258
667.7330, 688.8092
668.2151, 689.0932
668.6973, 689.8941
669.1794, 690.2191
669.6615, 688.7892
670.1436, 685.8157
670.6257, 684.4538
671.1078, 685.5895
671.5900, 686.4948
672.0721, 685.9279
672.5542, 685.1819
673.0363, 685.4557
673.5184, 686.6904
674.0005, 687.6088
674.4827, 687.7494
674.9648, 687.2623
675.4469, 685.6944
675.9290, 683.6004
676.4111, 682.8525
676.8932, 684.0547
677.3754, 685.7785
677.8575, 686.3959
678.3396, 685.8797
678.8217, 684.9813
679.3038, 683.0316
679.7859, 681.5684
680.2681, 680.6039
680.7502, 680.4092
681.2323, 682.0609
681.7144, 685.1261
682.1965, 686.7853
682.6786, 684.0023
683.1608, 679.5175
683.6429, 678.0295
684.1250, 679.2178
684.6071, 680.4106
685.0892, 680.8102
685.5714, 680.9182
686.0535, 681.2903
686.5356, 681.9406
687.0177, 682.5434
687.4998, 684.6051
687.9819, 684.7473
688.4641, 680.0016
688.9462, 674.2633
689.4283, 671.9670
689.9104, 673.2120
690.3925, 674.2438
690.8746, 671.6925
691.3568, 667.4816
691.8389, 666.7811
692.3210, 669.7750
692.8031, 671.4930
693.2852, 670.2394
693.7673, 668.0499
694.2495, 666.9228
694.7316, 666.8001
695.2137, 666.5930
695.6958, 665.6444
696.1779, 665.3552
696.6600, 666.9250
697.1422, 668.9788
697.6243, 670.1885
698.1064, 670.2662
698.5885, 669.2833
699.0706, 667.0800
699.5527, 664.2267
700.0349, 662.3649
700.5170, 661.6053
700.9991, 661.1380
701.4812, 660.7803
701.9633, 660.7032
702.4454, 661.4577
702.9276, 662.6684
703.4097, 663.0093
703.8918, 661.6322
704.3739, 660.2850
704.8560, 659.9531
705.3381, 659.8908
705.8203, 658.7695
706.3024, 656.8086
706.7845, 655.9145
707.2666, 657.5704
707.7487, 660.5497
708.2308, 661.3323
708.7130, 659.4062
709.1951, 657.6424
709.6772, 656.2266
710.1593, 655.2402
710.6414, 654.9822
711.1235, 655.1385
711.6057, 655.0829
712.0878, 654.8156
712.5699, 654.0943
713.0520, 651.9175
713.5341, 649.7697
714.0162, 649.6635
714.4984, 651.4296
714.9805, 653.6231
715.4626, 655.4929
715.9447, 656.8539
716.4268, 657.4892
716.9089, 657.6469
717.3911, 655.7800
717.8732, 649.5723
718.3553, 644.4548
718.8374, 643.8525
719.3195, 645.4547
719.8016, 645.9984
720.2838, 644.8932
720.7659, 643.4687
721.2480, 641.8891
721.7301, 640.6417
722.2122, 640.4492
722.6943, 641.0930
723.1765, 641.8309
723.6586, 642.3463
724.1407, 642.5182
724.6228, 642.0403
725.1049, 640.7754
725.5870, 640.2147
726.0692, 641.1446
726.5513, 641.4960
727.0334, 639.7560
727.5155, 637.6152
727.9976, 636.9249
728.4797, 637.8103
728.9619, 638.6289
729.4440, 638.2557
729.9261, 637.8943
730.4082, 639.0779
730.8903, 641.0854
731.3724, 642.2626
731.8546, 642.1105
732.3367, 640.8496
732.8188, 638.4823
733.3009, 635.1859
733.7830, 633.0341
734.2651, 632.2079
734.7473, 632.1531
735.2294, 633.8188
735.7115, 635.3470
736.1936, 635.0706
736.6757, 633.3908
737.1578, 632.2846
737.6400, 632.8392
738.1221, 633.5042
738.6042, 633.4984
739.0863, 632.8262
739.5684, 631.0305
740.0505, 628.3329
740.5327, 626.2366
741.0148, 625.8549
741.4969, 626.7975
741.9790, 628.0775
742.4611, 630.0560
742.9432, 631.0138
743.4254, 630.4877
743.9075, 629.2582
744.3896, 626.9391
744.8717, 624.4696
745.3538, 623.9433
745.8359, 626.5612
746.3181, 628.2292
746.8002, 625.8922
747.2823, 622.5887
747.7644, 621.8083
748.2465, 622.9666
748.7286, 623.1601
749.2108, 621.0682
749.6929, 618.4634
750.1750, 618.2173
750.6571, 620.4820
751.1392, 621.9510
751.6213, 622.5955
752.1035, 622.5049
752.5856, 621.4146
753.0677, 619.7850
753.5498, 617.9638
754.0319, 615.9343
754.5140, 614.6532
754.9962, 614.9130
755.4783, 615.3890
755.9604, 615.5156
756.4425, 615.2397
756.9246, 614.3398
757.4067, 612.8867
757.8889, 611.5485
758.3710, 610.9415
758.8531, 610.8220
759.3352, 610.3828
759.8173, 609.6064
760.2994, 608.5272
760.7816, 606.5648
761.2637, 605.4099
761.7458, 607.4174
762.2279, 611.6296
762.7100, 613.3401
763.1921, 610.3920
763.6743, 608.1461
764.1564, 608.7920
764.6385, 609.8382
765.1206, 608.9310
765.6027, 606.6415
766.0848, 604.8860
766.5670, 604.5329
767.0491, 605.2407
767.5312, 607.3402
768.0133, 610.3084
768.4954, 610.8132
768.9775, 608.3488
769.4597, 606.1142
769.9418, 605.7646
770.4239, 606.3204
770.9060, 606.0712
771.3881, 604.7531
771.8702, 603.6508
772.3524, 602.6650
772.8345, 601.9913
773.3166, 601.8995
773.7987, 602.0371
774.2808, 602.0007
774.7629, 601.7495
775.2451, 601.5607
775.7272, 601.8783
776.2093, 602.1118
776.6914, 600.7568
777.1735, 598.4366
777.6556, 598.1693
778.1378, 600.7247
778.6199, 603.2822
779.1020, 603.3294
779.5841, 601.4200
780.0662, 600.4444
780.5483, 601.4341
781.0305, 601.3851
781.5126, 598.9217
781.9947, 596.6104
782.4768, 595.4083
782.9589, 595.3206
783.4410, 596.6115
783.9232, 599.7756
784.4053, 602.0961
784.8874, 601.5970
785.3695, 599.5971
785.8516, 597.0197
786.3337, 594.3763
786.8159, 592.8868
787.2980, 593.0360
787.7801, 594.3190
788.2622, 596.5018
788.7443, 599.4782
789.2264, 599.8360
789.7086, 596.3007
790.1907, 593.7217
790.6728, 593.9763
791.1549, 595.2858
791.6370, 596.1749
792.1191, 596.6184
792.6013, 596.3320
793.0834, 594.6267
793.5655, 592.9853
