##NAMES=Cervandonite-(Ce)
##RRUFFID=R110070
##IDEAL CHEMISTRY=(Ce^3+^,Nd^3+^,La^3+^)(Fe^3+^,Ti^4+^,Fe^2+^,Al)_3_O_2_(Si_2_O_7_)_0.8_(As^3+^O_3_)_1.2_(OH)_0.6_
##LOCALITY=Monte Cervandone, Val d'Ossola, Piedmont, Italy
##OWNER=RRUFF
##SOURCE=Renato & Adriana Pagano
##DESCRIPTION=Rosettes of black platy crystals associated with microcline, quartz and rutile
##STATUS=The identification of this mineral has been confirmed by single-crystal X-ray diffraction.
##URL=rruff.info/R110070
294.9097, 1545.059
295.3918, 1547.079
295.8739, 1552.086
296.3560, 1559.455
296.8381, 1566.445
297.3203, 1572.003
297.8024, 1576.188
298.2845, 1578.642
298.7666, 1579.200
299.2487, 1579.794
299.7308, 1583.321
300.2130, 1588.632
300.6951, 1592.379
301.1772, 1592.999
301.6593, 1591.406
302.1414, 1585.403
302.6235, 1575.285
303.1057, 1572.014
303.5878, 1596.403
304.0699, 1633.078
304.5520, 1652.610
305.0341, 1636.981
305.5162, 1608.046
305.9984, 1583.234
306.4805, 1563.393
306.9626, 1552.759
307.4447, 1560.035
307.9268, 1576.627
308.4089, 1591.986
308.8911, 1605.318
309.3732, 1613.756
309.8553, 1610.848
310.3374, 1600.011
310.8195, 1592.736
311.3016, 1601.423
311.7838, 1613.619
312.2659, 1616.659
312.7480, 1603.186
313.2301, 1592.160
313.7122, 1599.786
314.1943, 1618.082
314.6765, 1630.086
315.1586, 1619.243
315.6407, 1605.995
316.1228, 1604.225
316.6049, 1618.214
317.0870, 1632.944
317.5692, 1645.203
318.0513, 1653.366
318.5334, 1655.030
319.0155, 1638.122
319.4976, 1624.259
319.9797, 1625.992
320.4619, 1645.697
320.9440, 1660.904
321.4261, 1662.849
321.9082, 1657.980
322.3903, 1652.355
322.8724, 1642.426
323.3546, 1636.706
323.8367, 1638.483
324.3188, 1647.561
324.8009, 1657.652
325.2830, 1671.994
325.7651, 1684.366
326.2473, 1690.706
326.7294, 1685.959
327.2115, 1680.662
327.6936, 1673.281
328.1757, 1665.286
328.6578, 1663.490
329.1400, 1668.485
329.6221, 1679.281
330.1042, 1697.122
330.5863, 1741.340
331.0684, 1759.813
331.5505, 1735.164
332.0327, 1687.888
332.5148, 1664.277
332.9969, 1679.618
333.4790, 1698.203
333.9611, 1708.694
334.4432, 1709.732
334.9254, 1707.130
335.4075, 1697.677
335.8896, 1687.226
336.3717, 1683.757
336.8538, 1688.057
337.3359, 1697.977
337.8180, 1716.350
338.3001, 1742.815
338.7823, 1755.301
339.2644, 1749.938
339.7465, 1738.124
340.2286, 1730.751
340.7107, 1728.794
341.1928, 1725.876
341.6750, 1720.241
342.1571, 1713.013
342.6392, 1708.448
343.1213, 1706.453
343.6034, 1707.481
344.0855, 1713.656
344.5677, 1724.615
345.0498, 1733.162
345.5319, 1739.512
346.0140, 1741.203
346.4961, 1727.604
346.9782, 1699.639
347.4604, 1679.993
347.9425, 1688.591
348.4246, 1717.137
348.9067, 1735.613
349.3888, 1742.033
349.8709, 1740.475
350.3531, 1730.877
350.8352, 1716.064
351.3173, 1706.555
351.7994, 1712.085
352.2815, 1723.926
352.7636, 1726.042
353.2458, 1718.418
353.7279, 1710.885
354.2100, 1713.021
354.6921, 1720.706
355.1742, 1726.849
355.6563, 1729.162
356.1385, 1729.196
356.6206, 1728.209
357.1027, 1726.161
357.5848, 1722.962
358.0669, 1716.876
358.5490, 1710.428
359.0312, 1705.893
359.5133, 1703.532
359.9954, 1703.510
360.4775, 1708.088
360.9596, 1715.109
361.4417, 1719.910
361.9239, 1716.110
362.4060, 1713.112
362.8881, 1719.034
363.3702, 1737.988
363.8523, 1748.073
364.3344, 1731.840
364.8166, 1706.594
365.2987, 1691.953
365.7808, 1706.819
366.2629, 1718.804
366.7450, 1716.960
367.2271, 1701.195
367.7093, 1689.364
368.1914, 1684.335
368.6735, 1683.329
369.1556, 1684.624
369.6377, 1693.528
370.1198, 1697.756
370.6020, 1692.695
371.0841, 1682.008
371.5662, 1679.597
372.0483, 1693.632
372.5304, 1705.987
373.0125, 1708.428
373.4947, 1696.305
373.9768, 1687.238
374.4589, 1680.728
374.9410, 1677.567
375.4231, 1680.274
375.9052, 1691.907
376.3874, 1700.974
376.8695, 1703.836
377.3516, 1700.641
377.8337, 1695.328
378.3158, 1686.959
378.7979, 1678.982
379.2801, 1676.402
379.7622, 1679.637
380.2443, 1678.071
380.7264, 1667.193
381.2085, 1652.215
381.6906, 1649.018
382.1728, 1657.829
382.6549, 1666.066
383.1370, 1662.466
383.6191, 1650.532
384.1012, 1643.897
384.5833, 1643.796
385.0655, 1649.401
385.5476, 1664.290
386.0297, 1685.302
386.5118, 1700.155
386.9939, 1699.272
387.4760, 1690.339
387.9582, 1682.611
388.4403, 1676.238
388.9224, 1674.465
389.4045, 1688.648
389.8866, 1706.888
390.3687, 1711.393
390.8509, 1681.975
391.3330, 1652.562
391.8151, 1649.631
392.2972, 1668.100
392.7793, 1686.993
393.2614, 1697.151
393.7436, 1703.001
394.2257, 1708.092
394.7078, 1713.925
395.1899, 1716.613
395.6720, 1711.117
396.1541, 1702.209
396.6363, 1697.576
397.1184, 1704.085
397.6005, 1710.480
398.0826, 1712.554
398.5647, 1709.509
399.0468, 1707.193
399.5290, 1707.280
400.0111, 1707.684
400.4932, 1706.699
400.9753, 1702.357
401.4574, 1699.389
401.9395, 1700.086
402.4217, 1702.903
402.9038, 1699.482
403.3859, 1683.224
403.8680, 1670.429
404.3501, 1670.684
404.8322, 1689.709
405.3144, 1701.445
405.7965, 1703.988
406.2786, 1701.366
406.7607, 1699.814
407.2428, 1699.680
407.7249, 1698.533
408.2071, 1694.433
408.6892, 1688.381
409.1713, 1688.283
409.6534, 1695.188
410.1355, 1701.891
410.6176, 1701.045
411.0998, 1693.796
411.5819, 1686.929
412.0640, 1682.118
412.5461, 1677.621
413.0282, 1668.279
413.5103, 1655.455
413.9925, 1646.905
414.4746, 1650.927
414.9567, 1660.792
415.4388, 1665.404
415.9209, 1663.426
416.4030, 1660.901
416.8852, 1666.031
417.3673, 1673.500
417.8494, 1674.712
418.3315, 1657.878
418.8136, 1640.779
419.2957, 1637.554
419.7779, 1645.923
420.2600, 1650.286
420.7421, 1641.626
421.2242, 1627.423
421.7063, 1612.163
422.1884, 1591.087
422.6706, 1579.107
423.1527, 1589.462
423.6348, 1610.191
424.1169, 1618.840
424.5990, 1596.626
425.0811, 1576.805
425.5633, 1570.679
426.0454, 1580.564
426.5275, 1588.061
427.0096, 1593.625
427.4917, 1596.452
427.9738, 1594.954
428.4560, 1583.940
428.9381, 1580.248
429.4202, 1590.742
429.9023, 1608.795
430.3844, 1609.442
430.8665, 1586.131
431.3487, 1564.019
431.8308, 1557.642
432.3129, 1567.997
432.7950, 1573.668
433.2771, 1573.989
433.7592, 1570.820
434.2414, 1565.077
434.7235, 1557.122
435.2056, 1551.453
435.6877, 1550.946
436.1698, 1552.635
436.6519, 1548.027
437.1341, 1537.670
437.6162, 1530.952
438.0983, 1540.913
438.5804, 1557.726
439.0625, 1563.287
439.5446, 1552.476
440.0268, 1537.449
440.5089, 1527.951
440.9910, 1522.226
441.4731, 1516.820
441.9552, 1506.517
442.4373, 1498.811
442.9195, 1500.846
443.4016, 1512.442
443.8837, 1521.240
444.3658, 1519.883
444.8479, 1514.900
445.3300, 1511.462
445.8122, 1513.126
446.2943, 1512.998
446.7764, 1507.193
447.2585, 1498.641
447.7406, 1494.871
448.2227, 1499.042
448.7049, 1505.551
449.1870, 1515.221
449.6691, 1530.412
450.1512, 1533.131
450.6333, 1515.649
451.1154, 1494.139
451.5976, 1484.928
452.0797, 1492.571
452.5618, 1497.604
453.0439, 1496.644
453.5260, 1491.417
454.0081, 1487.222
454.4903, 1484.322
454.9724, 1480.708
455.4545, 1473.408
455.9366, 1463.579
456.4187, 1459.877
456.9008, 1463.244
457.3830, 1469.111
457.8651, 1473.376
458.3472, 1475.916
458.8293, 1475.822
459.3114, 1470.472
459.7935, 1464.720
460.2757, 1465.810
460.7578, 1472.502
461.2399, 1478.578
461.7220, 1480.527
462.2041, 1479.865
462.6862, 1478.089
463.1684, 1475.632
463.6505, 1471.222
464.1326, 1460.880
464.6147, 1449.272
465.0968, 1442.300
465.5789, 1451.119
466.0611, 1455.521
466.5432, 1445.373
467.0253, 1422.445
467.5074, 1407.151
467.9895, 1406.150
468.4716, 1409.883
468.9538, 1414.498
469.4359, 1422.391
469.9180, 1425.506
470.4001, 1421.054
470.8822, 1413.741
471.3643, 1411.665
471.8465, 1418.269
472.3286, 1419.629
472.8107, 1409.781
473.2928, 1391.568
473.7749, 1380.991
474.2570, 1378.786
474.7392, 1380.705
475.2213, 1384.982
475.7034, 1391.164
476.1855, 1396.520
476.6676, 1401.125
477.1497, 1403.678
477.6319, 1401.878
478.1140, 1396.460
478.5961, 1389.748
479.0782, 1380.902
479.5603, 1372.439
480.0424, 1366.778
480.5246, 1363.942
481.0067, 1364.227
481.4888, 1371.260
481.9709, 1379.548
482.4530, 1383.822
482.9352, 1381.418
483.4173, 1379.063
483.8994, 1383.014
484.3815, 1387.867
484.8636, 1385.375
485.3457, 1360.974
485.8279, 1342.096
486.3100, 1339.167
486.7921, 1352.365
487.2742, 1359.473
487.7563, 1355.746
488.2384, 1350.865
488.7206, 1350.307
489.2027, 1355.819
489.6848, 1361.422
490.1669, 1368.418
490.6490, 1374.034
491.1311, 1372.889
491.6133, 1363.944
492.0954, 1355.246
492.5775, 1347.998
493.0596, 1343.219
493.5417, 1347.332
494.0238, 1360.488
494.5060, 1371.199
494.9881, 1368.195
495.4702, 1356.290
495.9523, 1347.107
496.4344, 1342.181
496.9165, 1340.057
497.3987, 1339.385
497.8808, 1340.454
498.3629, 1343.847
498.8450, 1356.578
499.3271, 1366.017
499.8092, 1357.669
500.2914, 1335.839
500.7735, 1324.736
501.2556, 1347.379
501.7377, 1373.336
502.2198, 1383.975
502.7019, 1371.263
503.1841, 1359.001
503.6662, 1345.519
504.1483, 1335.989
504.6304, 1337.193
505.1125, 1358.786
505.5946, 1375.294
506.0768, 1381.502
506.5589, 1379.487
507.0410, 1379.801
507.5231, 1382.909
508.0052, 1386.976
508.4873, 1392.643
508.9695, 1399.878
509.4516, 1399.834
509.9337, 1391.186
510.4158, 1380.520
510.8979, 1374.562
511.3800, 1372.890
511.8622, 1374.491
512.3443, 1381.145
512.8264, 1387.892
513.3085, 1387.001
513.7906, 1380.235
514.2728, 1373.908
514.7549, 1372.015
515.2370, 1371.829
515.7191, 1369.875
516.2012, 1365.638
516.6833, 1365.641
517.1655, 1376.698
517.6476, 1391.303
518.1297, 1403.105
518.6118, 1412.716
519.0939, 1417.072
519.5760, 1412.633
520.0582, 1402.699
520.5403, 1394.978
521.0224, 1388.692
521.5045, 1385.922
521.9866, 1388.481
522.4688, 1396.360
522.9509, 1399.834
523.4330, 1395.713
523.9151, 1394.565
524.3972, 1408.516
524.8793, 1438.014
525.3615, 1455.559
525.8436, 1457.280
526.3257, 1450.725
526.8078, 1443.361
527.2899, 1436.333
527.7720, 1435.708
528.2542, 1448.297
528.7363, 1465.093
529.2184, 1475.098
529.7005, 1478.695
530.1826, 1478.486
530.6647, 1470.558
531.1469, 1462.860
531.6290, 1464.115
532.1111, 1478.126
532.5932, 1488.172
533.0753, 1480.524
533.5574, 1468.721
534.0396, 1466.929
534.5217, 1490.603
535.0038, 1509.148
535.4859, 1516.577
535.9680, 1515.812
536.4501, 1516.055
536.9323, 1518.286
537.4144, 1519.708
537.8965, 1517.608
538.3786, 1511.683
538.8607, 1515.971
539.3428, 1533.017
539.8250, 1552.265
540.3071, 1563.654
540.7892, 1567.773
541.2713, 1570.992
541.7534, 1573.462
542.2355, 1577.373
542.7177, 1588.629
543.1998, 1604.468
543.6819, 1615.781
544.1640, 1611.445
544.6461, 1605.419
545.1282, 1614.635
545.6104, 1636.105
546.0925, 1651.385
546.5746, 1639.772
547.0567, 1626.525
547.5388, 1631.175
548.0209, 1663.891
548.5031, 1689.072
548.9852, 1695.333
549.4673, 1692.540
549.9494, 1691.020
550.4315, 1691.015
550.9136, 1692.184
551.3958, 1694.185
551.8779, 1697.406
552.3600, 1703.315
552.8421, 1712.636
553.3242, 1722.225
553.8063, 1731.551
554.2885, 1740.266
554.7706, 1745.944
555.2527, 1748.663
555.7348, 1747.599
556.2169, 1738.554
556.6990, 1725.314
557.1812, 1717.680
557.6633, 1717.750
558.1454, 1721.527
558.6275, 1727.578
559.1096, 1734.284
559.5917, 1738.911
560.0739, 1739.311
560.5560, 1738.302
561.0381, 1738.371
561.5202, 1738.567
562.0023, 1734.715
562.4844, 1719.262
562.9666, 1705.063
563.4487, 1698.734
563.9308, 1702.175
564.4129, 1704.312
564.8950, 1706.609
565.3771, 1705.960
565.8593, 1699.395
566.3414, 1685.828
566.8235, 1669.772
567.3056, 1649.329
567.7877, 1629.893
568.2698, 1624.266
568.7520, 1631.422
569.2341, 1634.698
569.7162, 1626.547
570.1983, 1611.474
570.6804, 1593.447
571.1625, 1573.936
571.6447, 1562.362
572.1268, 1575.657
572.6089, 1593.650
573.0910, 1594.425
573.5731, 1573.342
574.0552, 1552.891
574.5374, 1541.966
575.0195, 1537.031
575.5016, 1534.701
575.9837, 1539.425
576.4658, 1540.360
576.9479, 1534.392
577.4301, 1524.473
577.9122, 1516.142
578.3943, 1509.137
578.8764, 1504.255
579.3585, 1503.216
579.8406, 1504.777
580.3228, 1499.050
580.8049, 1484.939
581.2870, 1470.644
581.7691, 1462.167
582.2512, 1458.156
582.7333, 1453.395
583.2155, 1447.693
583.6975, 1440.234
584.1796, 1425.679
584.6617, 1409.789
585.1439, 1403.127
585.6260, 1414.522
586.1081, 1424.989
586.5902, 1421.415
587.0723, 1408.842
587.5544, 1397.127
588.0366, 1384.155
588.5187, 1377.219
589.0008, 1381.207
589.4829, 1395.510
589.9650, 1407.050
590.4471, 1417.319
590.9293, 1422.734
591.4114, 1419.947
591.8935, 1407.066
592.3756, 1399.704
592.8577, 1398.868
593.3398, 1400.799
593.8220, 1402.554
594.3041, 1403.949
594.7862, 1403.849
595.2683, 1402.539
595.7504, 1398.383
596.2325, 1385.736
596.7147, 1368.246
597.1968, 1355.585
597.6789, 1353.638
598.1610, 1356.553
598.6431, 1363.170
599.1252, 1371.997
599.6074, 1376.498
600.0895, 1369.053
600.5716, 1361.284
601.0537, 1359.840
601.5358, 1367.461
602.0179, 1370.119
602.5001, 1363.338
602.9822, 1355.855
603.4643, 1354.862
603.9464, 1362.890
604.4285, 1367.106
604.9106, 1365.880
605.3928, 1362.281
605.8749, 1361.217
606.3570, 1362.434
606.8391, 1362.688
607.3212, 1361.003
607.8033, 1357.831
608.2855, 1352.787
608.7676, 1346.567
609.2497, 1341.578
609.7318, 1337.639
610.2139, 1336.609
610.6960, 1342.740
611.1782, 1355.711
611.6603, 1363.457
612.1424, 1355.051
612.6245, 1345.033
613.1066, 1342.887
613.5887, 1354.060
614.0709, 1362.089
614.5530, 1365.620
615.0351, 1367.342
615.5172, 1370.982
615.9993, 1378.188
616.4814, 1379.372
616.9636, 1371.578
617.4457, 1359.552
617.9278, 1351.334
618.4099, 1346.887
618.8920, 1345.602
619.3741, 1347.532
619.8563, 1352.154
620.3384, 1362.347
620.8205, 1376.012
621.3026, 1382.684
621.7847, 1366.453
622.2668, 1348.000
622.7490, 1345.979
623.2311, 1363.932
623.7132, 1374.809
624.1953, 1364.525
624.6774, 1349.436
625.1595, 1340.767
625.6417, 1339.929
626.1238, 1343.823
626.6059, 1355.682
627.0880, 1368.737
627.5701, 1373.387
628.0522, 1368.859
628.5344, 1362.919
629.0165, 1355.801
629.4986, 1350.207
629.9807, 1353.887
630.4628, 1364.978
630.9449, 1373.348
631.4271, 1371.654
631.9092, 1366.246
632.3913, 1361.453
632.8734, 1358.098
633.3555, 1360.967
633.8376, 1381.821
634.3198, 1402.250
634.8019, 1409.219
635.2840, 1397.849
635.7661, 1392.371
636.2482, 1399.875
636.7303, 1410.171
637.2125, 1416.958
637.6946, 1420.763
638.1767, 1418.206
638.6588, 1406.004
639.1409, 1392.954
639.6230, 1394.222
640.1052, 1408.682
640.5873, 1418.913
641.0694, 1419.505
641.5515, 1415.415
642.0336, 1412.045
642.5157, 1409.890
642.9979, 1410.379
643.4800, 1417.064
643.9621, 1424.276
644.4442, 1428.058
644.9263, 1428.744
645.4084, 1428.629
645.8906, 1429.492
646.3727, 1428.781
646.8548, 1422.626
647.3369, 1408.692
647.8190, 1408.545
648.3011, 1430.861
648.7833, 1453.961
649.2654, 1460.172
649.7475, 1447.961
650.2296, 1437.605
650.7117, 1429.711
651.1938, 1425.640
651.6760, 1428.286
652.1581, 1436.341
652.6402, 1445.980
653.1223, 1456.939
653.6044, 1467.602
654.0865, 1477.013
654.5687, 1485.201
655.0508, 1492.289
655.5329, 1501.593
656.0150, 1506.541
656.4971, 1502.917
656.9792, 1492.213
657.4614, 1482.159
657.9435, 1470.547
658.4256, 1463.231
658.9077, 1463.109
659.3898, 1469.852
659.8719, 1475.231
660.3541, 1478.886
660.8362, 1482.838
661.3183, 1489.475
661.8004, 1497.716
662.2825, 1502.922
662.7646, 1504.654
663.2468, 1506.717
663.7289, 1514.912
664.2110, 1524.518
664.6931, 1528.943
665.1752, 1525.096
665.6573, 1520.436
666.1395, 1516.800
666.6216, 1514.729
667.1037, 1514.886
667.5858, 1520.483
668.0679, 1524.300
668.5500, 1524.969
669.0322, 1523.897
669.5143, 1523.841
669.9964, 1524.655
670.4785, 1527.373
670.9606, 1533.417
671.4427, 1540.804
671.9249, 1543.191
672.4070, 1541.160
672.8891, 1539.333
673.3712, 1542.295
673.8533, 1545.830
674.3354, 1542.905
674.8176, 1534.334
675.2997, 1529.974
675.7818, 1538.992
676.2639, 1550.603
676.7460, 1558.841
677.2281, 1563.015
677.7103, 1562.590
678.1924, 1551.160
678.6745, 1541.744
679.1566, 1546.266
679.6387, 1569.921
680.1208, 1581.586
680.6030, 1577.458
681.0851, 1567.262
681.5672, 1561.405
682.0493, 1559.715
682.5314, 1561.806
683.0135, 1568.721
683.4957, 1576.627
683.9778, 1583.596
684.4599, 1588.363
684.9420, 1588.363
685.4241, 1575.216
685.9063, 1565.078
686.3884, 1566.807
686.8705, 1576.759
687.3526, 1581.817
687.8347, 1575.873
688.3168, 1573.155
688.7990, 1579.104
689.2811, 1591.862
689.7632, 1598.973
690.2453, 1600.343
690.7274, 1596.816
691.2095, 1584.581
691.6917, 1568.135
692.1738, 1562.547
692.6559, 1567.586
693.1380, 1572.785
693.6201, 1568.304
694.1022, 1561.534
694.5844, 1560.705
695.0665, 1568.094
695.5486, 1572.839
696.0307, 1567.475
696.5128, 1560.373
696.9949, 1558.517
697.4771, 1567.030
697.9592, 1569.567
698.4413, 1562.255
698.9234, 1553.971
699.4055, 1558.340
699.8876, 1575.756
700.3698, 1584.379
700.8519, 1579.049
701.3340, 1567.416
701.8161, 1558.292
702.2982, 1551.366
702.7803, 1545.720
703.2625, 1539.438
703.7446, 1536.275
704.2267, 1541.614
704.7088, 1551.783
705.1909, 1558.699
705.6730, 1558.486
706.1552, 1556.506
706.6373, 1553.254
707.1194, 1549.171
707.6015, 1546.445
708.0836, 1545.417
708.5657, 1544.609
709.0479, 1542.936
709.5300, 1541.010
710.0121, 1542.393
710.4942, 1546.913
710.9763, 1550.485
711.4584, 1549.695
711.9406, 1546.760
712.4227, 1544.070
712.9048, 1541.796
713.3869, 1540.276
713.8690, 1540.472
714.3511, 1540.929
714.8333, 1540.798
715.3154, 1540.071
715.7975, 1538.322
716.2796, 1534.119
716.7617, 1530.704
717.2438, 1530.437
717.7260, 1533.387
718.2081, 1539.857
718.6902, 1550.725
719.1723, 1561.433
719.6544, 1568.652
720.1365, 1571.312
720.6187, 1565.097
721.1008, 1545.836
721.5829, 1527.272
722.0650, 1519.039
722.5471, 1517.877
723.0292, 1519.282
723.5114, 1528.168
723.9935, 1531.856
724.4756, 1522.871
724.9577, 1509.536
725.4398, 1506.658
725.9219, 1518.289
726.4041, 1528.149
726.8862, 1532.896
727.3683, 1533.591
727.8504, 1531.085
728.3325, 1526.012
728.8146, 1522.848
729.2968, 1526.277
729.7789, 1530.378
730.2610, 1527.070
730.7431, 1518.492
731.2252, 1511.748
731.7073, 1511.353
732.1895, 1512.025
732.6716, 1511.151
733.1537, 1508.921
733.6358, 1508.866
734.1179, 1512.122
734.6000, 1515.794
735.0822, 1519.686
735.5643, 1523.359
736.0464, 1520.715
736.5285, 1511.447
737.0106, 1502.244
737.4927, 1497.001
737.9749, 1495.317
738.4570, 1498.765
738.9391, 1507.070
739.4212, 1511.598
739.9033, 1501.995
740.3854, 1490.437
740.8676, 1486.336
741.3497, 1493.200
741.8318, 1497.861
742.3139, 1501.200
742.7960, 1500.332
743.2781, 1490.482
743.7603, 1468.623
744.2424, 1461.262
744.7245, 1471.505
745.2066, 1486.207
745.6887, 1493.656
746.1708, 1494.734
746.6530, 1490.596
747.1351, 1480.542
747.6172, 1470.320
748.0993, 1461.838
748.5814, 1456.578
749.0635, 1456.655
749.5457, 1469.093
750.0278, 1476.335
750.5099, 1474.357
750.9920, 1467.285
751.4741, 1458.944
751.9562, 1448.612
752.4384, 1440.055
752.9205, 1433.607
753.4026, 1429.574
753.8847, 1427.952
754.3668, 1429.119
754.8489, 1435.715
755.3311, 1453.176
755.8132, 1467.526
756.2953, 1462.492
756.7774, 1446.350
757.2595, 1433.735
757.7416, 1432.674
758.2238, 1431.452
758.7059, 1426.217
759.1880, 1419.294
759.6701, 1416.549
760.1522, 1420.976
760.6343, 1419.214
761.1165, 1405.260
761.5986, 1385.706
762.0807, 1375.592
762.5628, 1374.310
763.0449, 1378.533
763.5270, 1395.034
764.0092, 1408.924
764.4913, 1399.349
764.9734, 1374.685
765.4555, 1360.854
765.9376, 1382.649
766.4197, 1400.655
766.9019, 1397.208
767.3840, 1377.641
767.8661, 1367.013
768.3482, 1368.241
768.8303, 1369.984
769.3124, 1368.178
769.7946, 1363.347
770.2767, 1354.994
770.7588, 1343.903
771.2409, 1337.406
771.7230, 1346.530
772.2051, 1357.783
772.6873, 1356.077
773.1694, 1342.856
773.6515, 1331.524
774.1336, 1328.388
774.6157, 1326.585
775.0978, 1323.439
775.5800, 1318.967
776.0621, 1313.409
776.5442, 1305.324
777.0263, 1300.330
777.5084, 1304.191
777.9905, 1314.013
778.4727, 1315.523
778.9548, 1309.031
779.4369, 1300.222
779.9190, 1292.127
780.4011, 1284.345
780.8832, 1274.978
781.3654, 1264.121
781.8475, 1258.046
782.3296, 1264.276
782.8117, 1270.828
783.2938, 1271.106
783.7759, 1264.269
784.2581, 1261.808
784.7402, 1265.732
785.2223, 1267.848
785.7044, 1261.506
786.1865, 1248.621
786.6686, 1233.887
787.1508, 1217.573
787.6329, 1208.082
788.1150, 1218.580
788.5971, 1234.438
789.0792, 1242.042
789.5613, 1239.619
