##NAMES=Cervantite
##RRUFFID=R060667
##IDEAL CHEMISTRY=Sb^3+^Sb^5+^O_4_
##LOCALITY=Touliac, Cantal, France
##OWNER=RRUFF
##SOURCE=Michael Scott
##DESCRIPTION=Tan colored massive, spongelike, associated with quartz and romeite
##STATUS=The identification of this mineral has been confirmed by X-ray diffraction.
##URL=rruff.info/R060667
139.366, 4345.019
139.848, 4575.391
140.330, 4827.171
140.812, 5091.387
141.294, 5376.260
141.776, 5662.963
142.258, 5969.377
142.741, 6272.883
143.223, 6547.571
143.705, 6782.398
144.187, 6977.291
144.669, 7133.135
145.151, 7226.074
145.633, 7308.837
146.115, 7391.573
146.598, 7470.569
147.080, 7541.115
147.562, 7601.679
148.044, 7650.129
148.526, 7668.498
149.008, 7641.551
149.490, 7608.285
149.972, 7580.326
150.454, 7555.299
150.936, 7526.501
151.419, 7490.041
151.901, 7446.258
152.383, 7400.981
152.865, 7347.351
153.347, 7298.952
153.829, 7264.230
154.311, 7240.358
154.794, 7216.626
155.276, 7183.938
155.758, 7145.549
156.240, 7125.366
156.722, 7127.036
157.204, 7141.369
157.686, 7165.975
158.168, 7199.831
158.650, 7238.530
159.133, 7277.792
159.615, 7319.727
160.097, 7373.801
160.579, 7437.574
161.061, 7514.356
161.543, 7616.676
162.025, 7741.686
162.507, 7855.782
162.990, 7925.116
163.472, 7958.868
163.954, 8027.018
164.436, 8163.354
164.918, 8313.426
165.400, 8430.504
165.882, 8512.705
166.364, 8591.086
166.846, 8693.007
167.329, 8811.080
167.811, 8911.210
168.293, 8973.410
168.775, 9025.949
169.257, 9094.973
169.739, 9181.879
170.221, 9278.796
170.703, 9389.312
171.185, 9507.067
171.668, 9609.193
172.150, 9676.197
172.632, 9734.077
173.114, 9809.587
173.596, 9904.719
174.078, 10012.480
174.560, 10123.450
175.042, 10242.880
175.525, 10387.870
176.007, 10575.880
176.489, 10785.640
176.971, 10983.300
177.453, 11163.190
177.935, 11361.630
178.417, 11613.650
178.899, 11906.640
179.381, 12210.740
179.863, 12508.890
180.346, 12817.460
180.828, 13161.420
181.310, 13541.740
181.792, 13949.180
182.274, 14368.880
182.756, 14808.820
183.238, 15295.620
183.721, 15841.470
184.203, 16435.520
184.685, 17072.010
185.167, 17751.170
185.649, 18454.250
186.131, 19155.971
186.613, 19871.439
187.095, 20639.680
187.577, 21495.199
188.059, 22404.131
188.542, 23300.930
189.024, 24177.340
189.506, 25083.570
189.988, 26064.340
190.470, 27102.850
190.952, 28175.270
191.434, 29270.631
191.917, 30402.211
192.399, 31602.100
192.881, 32889.270
193.363, 34195.590
193.845, 35498.180
194.327, 36794.102
194.809, 38064.461
195.291, 39361.730
195.773, 40610.148
196.255, 41700.309
196.738, 42639.559
197.220, 43405.590
197.702, 43980.949
198.184, 44376.949
198.666, 44556.070
199.148, 44503.551
199.630, 44233.270
200.112, 43749.578
200.595, 43036.020
201.077, 42178.012
201.559, 41170.949
202.041, 40056.180
202.523, 38855.449
203.005, 37561.020
203.487, 36202.301
203.969, 34801.988
204.452, 33351.789
204.934, 31917.850
205.416, 30522.670
205.898, 29167.289
206.380, 27873.170
206.862, 26630.869
207.344, 25455.949
207.826, 24375.561
208.308, 23392.480
208.790, 22474.760
209.273, 21624.439
209.755, 20833.510
210.237, 20096.279
210.719, 19419.221
211.201, 18791.840
211.683, 18208.910
212.165, 17672.840
212.648, 17180.211
213.130, 16739.750
213.612, 16344.570
214.094, 15988.820
214.576, 15677.460
215.058, 15394.730
215.540, 15120.000
216.022, 14853.790
216.504, 14621.810
216.986, 14451.520
217.469, 14312.640
217.951, 14161.250
218.433, 13987.770
218.915, 13818.490
219.397, 13676.650
219.879, 13560.390
220.361, 13453.410
220.844, 13368.640
221.326, 13274.340
221.808, 13128.300
222.290, 12917.640
222.772, 12694.420
223.254, 12494.270
223.736, 12313.290
224.218, 12132.500
224.700, 11953.270
225.182, 11764.130
225.665, 11546.620
226.147, 11291.370
226.629, 11055.060
227.111, 10877.450
227.593, 10745.660
228.075, 10615.730
228.557, 10473.540
229.040, 10335.710
229.522, 10224.600
230.004, 10140.570
230.486, 10063.840
230.968, 9987.637
231.450, 9912.723
231.932, 9838.086
232.414, 9759.470
232.896, 9691.107
233.378, 9653.301
233.861, 9643.518
234.343, 9641.585
234.825, 9646.993
235.307, 9654.634
235.789, 9654.549
236.271, 9643.647
236.753, 9631.983
237.235, 9628.971
237.718, 9633.983
238.200, 9647.288
238.682, 9684.419
239.164, 9722.583
239.646, 9729.395
240.128, 9700.026
240.610, 9667.785
241.092, 9666.760
241.574, 9694.357
242.057, 9701.631
242.539, 9664.086
243.021, 9619.169
243.503, 9603.262
243.985, 9615.963
244.467, 9625.499
244.949, 9607.751
245.431, 9563.685
245.913, 9523.119
246.396, 9476.601
246.878, 9441.580
247.360, 9437.399
247.842, 9457.517
248.324, 9472.210
248.806, 9460.595
249.288, 9429.216
249.770, 9418.671
250.253, 9426.230
250.735, 9453.291
251.217, 9510.619
251.699, 9587.933
252.181, 9661.355
252.663, 9717.277
253.145, 9763.164
253.627, 9826.605
254.109, 9910.199
254.592, 10004.810
255.074, 10113.770
255.556, 10231.290
256.038, 10351.080
256.520, 10471.020
257.002, 10588.100
257.484, 10697.130
257.966, 10801.170
258.449, 10889.950
258.931, 10971.630
259.413, 11033.880
259.895, 11063.130
260.377, 11056.220
260.859, 11022.280
261.341, 10975.020
261.823, 10919.830
262.306, 10834.280
262.788, 10704.820
263.270, 10558.250
263.752, 10406.760
264.234, 10255.480
264.716, 10109.300
265.198, 9974.613
265.680, 9851.608
266.162, 9737.554
266.645, 9628.417
267.127, 9530.284
267.609, 9453.451
268.091, 9391.315
268.573, 9326.502
269.055, 9243.198
269.537, 9141.630
270.019, 9052.048
270.501, 8981.504
270.984, 8917.141
271.466, 8858.048
271.948, 8802.901
272.430, 8748.989
272.912, 8692.872
273.394, 8639.006
273.876, 8606.540
274.358, 8618.358
274.841, 8616.956
275.323, 8584.203
275.805, 8535.656
276.287, 8485.652
276.769, 8439.565
277.251, 8399.612
277.733, 8370.078
278.215, 8351.810
278.698, 8341.865
279.180, 8348.150
279.662, 8356.979
280.144, 8357.771
280.626, 8348.143
281.108, 8334.574
281.590, 8327.709
282.072, 8328.986
282.554, 8314.264
283.036, 8267.389
283.519, 8213.286
284.001, 8169.897
284.483, 8136.992
284.965, 8102.419
285.447, 8052.924
285.929, 7993.241
286.411, 7945.124
286.893, 7911.207
287.376, 7888.433
287.858, 7882.736
288.340, 7887.667
288.822, 7880.504
289.304, 7834.699
289.786, 7777.682
290.268, 7761.331
290.750, 7795.448
291.233, 7824.237
291.715, 7803.453
292.197, 7749.280
292.679, 7703.905
293.161, 7677.868
293.643, 7658.834
294.125, 7633.901
294.607, 7605.097
295.089, 7589.146
295.572, 7599.784
296.054, 7625.370
296.536, 7631.878
297.018, 7605.349
297.500, 7584.140
297.982, 7588.006
298.464, 7607.416
298.946, 7624.613
299.428, 7633.645
299.911, 7636.654
300.393, 7637.010
300.875, 7634.192
301.357, 7629.747
301.839, 7625.291
302.321, 7618.426
302.803, 7603.379
303.285, 7580.175
303.767, 7559.890
304.250, 7555.826
304.732, 7573.302
305.214, 7583.262
305.696, 7578.344
306.178, 7573.758
306.660, 7581.890
307.142, 7598.426
307.625, 7608.826
308.107, 7601.741
308.589, 7578.199
309.071, 7554.552
309.553, 7533.055
310.035, 7508.994
310.517, 7473.807
310.999, 7437.676
311.481, 7416.183
311.964, 7417.510
312.446, 7432.144
312.928, 7437.677
313.410, 7433.921
313.892, 7420.513
314.374, 7387.491
314.856, 7352.669
315.338, 7331.311
315.820, 7326.404
316.303, 7327.208
316.785, 7320.457
317.267, 7304.862
317.749, 7293.936
318.231, 7290.125
318.713, 7290.598
319.195, 7276.167
319.677, 7257.949
320.159, 7249.627
320.642, 7257.468
321.124, 7261.386
321.606, 7261.591
322.088, 7246.963
322.570, 7251.488
323.052, 7248.338
323.534, 7244.873
324.016, 7252.095
324.499, 7239.624
324.981, 7245.628
325.463, 7254.302
325.945, 7274.527
326.427, 7295.813
326.909, 7317.529
327.391, 7334.007
327.873, 7332.914
328.355, 7303.153
328.838, 7279.809
329.320, 7285.815
329.802, 7308.381
330.284, 7321.146
330.766, 7315.421
331.248, 7303.099
331.730, 7301.472
332.212, 7314.848
332.694, 7323.873
333.177, 7324.871
333.659, 7322.837
334.141, 7321.980
334.623, 7322.545
335.105, 7321.226
335.587, 7313.311
336.069, 7297.937
336.552, 7301.493
337.034, 7342.498
337.516, 7379.795
337.998, 7401.297
338.480, 7410.198
338.962, 7412.013
339.444, 7409.043
339.926, 7404.607
340.408, 7408.950
340.891, 7427.784
341.373, 7446.215
341.855, 7464.188
342.337, 7480.144
342.819, 7488.230
343.301, 7488.813
343.783, 7495.402
344.265, 7530.344
344.747, 7598.964
345.230, 7648.470
345.712, 7662.633
346.194, 7669.581
346.676, 7683.023
347.158, 7701.684
347.640, 7719.227
348.122, 7732.878
348.604, 7742.653
349.086, 7745.991
349.569, 7739.148
350.051, 7739.333
350.533, 7769.433
351.015, 7809.113
351.497, 7823.908
351.979, 7793.504
352.461, 7760.762
352.944, 7764.784
353.426, 7797.257
353.908, 7822.062
354.390, 7827.662
354.872, 7818.351
355.354, 7796.465
355.836, 7758.570
356.318, 7727.997
356.800, 7717.822
357.283, 7713.754
357.765, 7696.812
358.247, 7665.375
358.729, 7637.189
359.211, 7630.094
359.693, 7646.482
360.175, 7654.538
360.657, 7642.866
361.139, 7636.036
361.622, 7650.515
362.104, 7676.407
362.586, 7692.739
363.068, 7687.729
363.550, 7669.525
364.032, 7662.609
364.514, 7673.342
364.996, 7685.809
365.478, 7700.892
365.961, 7715.451
366.443, 7727.151
366.925, 7735.490
367.407, 7741.311
367.889, 7744.138
368.371, 7743.547
368.853, 7746.412
369.335, 7751.495
369.818, 7762.257
370.300, 7779.863
370.782, 7803.868
371.264, 7833.524
371.746, 7873.069
372.228, 7914.660
372.710, 7943.190
373.192, 7956.672
373.674, 7972.915
374.157, 8003.750
374.639, 8040.032
375.121, 8064.050
375.603, 8066.987
376.085, 8078.756
376.567, 8122.249
377.049, 8184.791
377.531, 8240.727
378.013, 8283.755
378.496, 8319.039
378.978, 8349.381
379.460, 8370.985
379.942, 8411.233
380.424, 8488.251
380.906, 8569.199
381.388, 8623.453
381.871, 8660.560
382.353, 8717.739
382.835, 8821.359
383.317, 8961.104
383.799, 9079.492
384.281, 9129.284
384.763, 9218.358
385.245, 9377.937
385.727, 9569.724
386.210, 9755.480
386.692, 9925.125
387.174, 10095.230
387.656, 10279.260
388.138, 10474.190
388.620, 10711.020
389.102, 11019.060
389.584, 11343.280
390.066, 11654.610
390.549, 11961.810
391.031, 12284.380
391.513, 12633.800
391.995, 13006.010
392.477, 13394.920
392.959, 13797.360
393.441, 14229.360
393.923, 14714.580
394.405, 15226.680
394.888, 15727.330
395.370, 16222.030
395.852, 16682.631
396.334, 17079.301
396.816, 17430.779
397.298, 17781.100
397.780, 18142.570
398.263, 18473.779
398.745, 18739.891
399.227, 18937.779
399.709, 19030.650
400.191, 18989.350
400.673, 18876.211
401.155, 18717.289
401.637, 18513.080
402.119, 18248.250
402.602, 17912.430
403.084, 17525.830
403.566, 17158.369
404.048, 16830.590
404.530, 16483.510
405.012, 16094.790
405.494, 15698.750
405.976, 15317.450
406.458, 14953.460
406.941, 14608.870
407.423, 14281.180
407.905, 13971.100
408.387, 13693.920
408.869, 13454.760
409.351, 13242.520
409.833, 13056.040
410.315, 12889.820
410.797, 12735.670
411.280, 12592.140
411.762, 12457.990
412.244, 12335.180
412.726, 12222.110
413.208, 12107.790
413.690, 11988.770
414.172, 11867.230
414.654, 11743.410
415.137, 11613.180
415.619, 11500.050
416.101, 11424.640
416.583, 11356.900
417.065, 11265.340
417.547, 11150.830
418.029, 11038.710
418.511, 10949.040
418.993, 10878.290
419.476, 10793.780
419.958, 10671.750
420.440, 10563.830
420.922, 10495.640
421.404, 10436.030
421.886, 10345.480
422.368, 10214.760
422.850, 10077.510
423.332, 9981.482
423.815, 9933.756
424.297, 9870.966
424.779, 9769.369
425.261, 9678.072
425.743, 9633.688
426.225, 9617.190
426.707, 9581.316
427.190, 9487.675
427.672, 9383.581
428.154, 9306.458
428.636, 9257.993
429.118, 9238.694
429.600, 9231.670
430.082, 9221.662
430.564, 9208.839
431.046, 9184.751
431.529, 9175.209
432.011, 9159.837
432.493, 9144.226
432.975, 9136.728
433.457, 9119.688
433.939, 9112.659
434.421, 9104.983
434.903, 9096.848
435.385, 9090.513
435.868, 9085.285
436.350, 9082.854
436.832, 9085.720
437.314, 9090.537
437.796, 9089.674
438.278, 9082.173
438.760, 9081.710
439.242, 9111.022
439.724, 9174.140
440.207, 9225.615
440.689, 9260.215
441.171, 9286.668
441.653, 9299.658
442.135, 9309.011
442.617, 9337.030
443.099, 9399.044
443.581, 9475.544
444.064, 9547.287
444.546, 9613.967
445.028, 9671.515
445.510, 9714.067
445.992, 9752.843
446.474, 9807.462
446.956, 9880.589
447.438, 9950.941
447.921, 10007.410
448.403, 10065.690
448.885, 10138.380
449.367, 10225.590
449.849, 10320.210
450.331, 10418.040
450.813, 10519.540
451.295, 10629.140
451.777, 10755.280
452.259, 10878.710
452.742, 10991.230
453.224, 11104.180
453.706, 11230.070
454.188, 11369.600
454.670, 11512.740
455.152, 11646.070
455.634, 11772.080
456.116, 11916.400
456.599, 12089.260
457.081, 12260.940
457.563, 12425.750
458.045, 12576.760
458.527, 12698.250
459.009, 12776.630
459.491, 12845.080
459.973, 12941.060
460.456, 13043.160
460.938, 13098.040
461.420, 13090.650
461.902, 13046.650
462.384, 12996.360
462.866, 12943.400
463.348, 12851.790
463.830, 12716.770
464.312, 12552.180
464.795, 12356.290
465.277, 12137.270
465.759, 11903.550
466.241, 11657.520
466.723, 11410.970
467.205, 11188.030
467.687, 10997.000
468.169, 10800.580
468.651, 10591.880
469.134, 10380.390
469.616, 10157.570
470.098, 9933.852
470.580, 9737.853
471.062, 9593.804
471.544, 9478.714
472.026, 9357.140
472.508, 9229.457
472.991, 9112.696
473.473, 9019.686
473.955, 8934.926
474.437, 8824.378
474.919, 8675.207
475.401, 8553.999
475.883, 8489.649
476.365, 8445.300
476.848, 8393.188
477.330, 8330.819
477.812, 8262.106
478.294, 8187.569
478.776, 8112.592
479.258, 8063.232
479.740, 8060.843
480.222, 8049.333
480.704, 8009.818
481.186, 7968.421
481.669, 7948.410
482.151, 7950.391
482.633, 7954.112
483.115, 7941.717
483.597, 7918.303
484.079, 7900.828
484.561, 7890.147
485.043, 7882.092
485.526, 7872.498
486.008, 7865.291
486.490, 7869.505
486.972, 7893.678
487.454, 7909.629
487.936, 7894.897
488.418, 7871.191
488.900, 7868.238
489.383, 7889.200
489.865, 7916.122
490.347, 7933.871
490.829, 7942.826
491.311, 7952.543
491.793, 7959.204
492.275, 7971.523
492.757, 7993.087
493.239, 8019.702
493.722, 8045.884
494.204, 8070.930
494.686, 8100.493
495.168, 8147.304
495.650, 8206.740
496.132, 8243.299
496.614, 8247.212
497.096, 8250.701
497.578, 8269.885
498.061, 8303.080
498.543, 8347.278
499.025, 8406.549
499.507, 8469.052
499.989, 8526.476
500.471, 8584.199
500.953, 8652.863
501.435, 8733.895
501.918, 8815.230
502.400, 8884.011
502.882, 8940.000
503.364, 9001.117
503.846, 9032.115
504.328, 9110.969
504.810, 9214.169
505.292, 9352.253
505.775, 9481.875
506.257, 9603.477
506.739, 9693.069
507.221, 9824.019
507.703, 9938.386
508.185, 10060.950
508.667, 10118.460
509.149, 10218.340
509.631, 10332.800
510.114, 10456.790
510.596, 10575.820
511.078, 10679.670
511.560, 10794.310
512.042, 10943.730
512.524, 11107.150
513.006, 11251.590
513.488, 11371.180
513.971, 11484.640
514.453, 11607.870
514.935, 11741.060
515.417, 11881.220
515.899, 12035.830
516.381, 12187.400
516.863, 12335.780
517.345, 12477.220
517.827, 12609.980
518.310, 12732.580
518.792, 12844.290
519.274, 12938.110
519.756, 13018.200
520.238, 13108.100
520.720, 13214.690
521.202, 13306.110
521.684, 13368.360
522.166, 13397.560
522.649, 13392.010
523.131, 13344.070
523.613, 13275.300
524.095, 13182.540
524.577, 13078.050
525.059, 12980.720
525.541, 12889.920
526.023, 12781.410
526.505, 12627.280
526.988, 12438.800
527.470, 12305.890
527.952, 12272.630
528.434, 12222.700
528.916, 12133.250
529.398, 12020.120
529.880, 11911.620
530.362, 11805.370
530.844, 11642.010
531.327, 11326.150
531.809, 10940.860
532.291, 10658.160
532.773, 10484.540
533.255, 10333.510
533.737, 10159.350
534.219, 9981.754
534.701, 9861.951
535.184, 9869.492
535.666, 9779.200
536.148, 9464.249
536.630, 9126.035
537.112, 8919.726
537.594, 8832.229
538.076, 8768.498
538.558, 8668.861
539.041, 8550.154
539.523, 8460.392
540.005, 8409.147
540.487, 8348.656
540.969, 8254.740
541.451, 8163.203
541.933, 8108.650
542.415, 8084.005
542.898, 8045.278
543.380, 7963.235
543.862, 7871.510
544.344, 7792.176
544.826, 7727.949
545.308, 7690.408
545.790, 7686.106
546.272, 7691.224
546.754, 7669.008
547.237, 7609.354
547.719, 7560.121
548.201, 7516.575
548.683, 7487.166
549.165, 7488.756
549.647, 7502.339
550.129, 7496.284
550.611, 7457.611
551.093, 7413.032
551.576, 7395.073
552.058, 7400.257
552.540, 7404.341
553.022, 7404.811
553.504, 7402.891
553.986, 7397.793
554.468, 7390.886
554.950, 7388.118
555.432, 7388.428
555.915, 7394.357
556.397, 7414.329
556.879, 7436.201
557.361, 7446.242
557.843, 7442.618
558.325, 7431.235
558.807, 7415.524
559.289, 7397.142
559.771, 7386.765
560.254, 7384.313
560.736, 7390.015
561.218, 7419.716
561.700, 7447.102
562.182, 7445.452
562.664, 7414.254
563.146, 7388.529
563.628, 7392.327
564.111, 7405.614
564.593, 7404.503
565.075, 7390.438
565.557, 7375.922
566.039, 7366.790
566.521, 7358.758
567.003, 7343.640
567.485, 7318.646
567.968, 7293.500
568.450, 7264.519
568.932, 7239.212
569.414, 7221.642
569.896, 7209.962
570.378, 7202.208
570.860, 7198.649
571.342, 7192.822
571.825, 7163.858
572.307, 7177.482
572.789, 7180.768
573.271, 7174.272
573.753, 7128.699
574.235, 7133.588
574.717, 7118.250
575.199, 7102.087
575.681, 7114.078
576.164, 7074.188
576.646, 7085.731
577.128, 7076.745
577.610, 7077.151
578.092, 7057.213
578.574, 7043.559
579.056, 7033.037
579.538, 7008.284
580.020, 7010.287
580.503, 7049.255
580.985, 7074.787
581.467, 7063.977
581.949, 7041.634
582.431, 7036.028
582.913, 7046.204
583.395, 7047.680
583.877, 6983.343
584.360, 6955.296
584.842, 6986.465
585.324, 7003.261
585.806, 7006.455
586.288, 6955.308
586.770, 6974.331
587.252, 6965.232
587.734, 6954.981
588.216, 6983.879
588.699, 6940.636
589.181, 6965.074
589.663, 6973.412
590.145, 7001.522
590.627, 7014.617
591.109, 7003.303
591.591, 6995.058
592.073, 7020.067
592.555, 7054.794
593.038, 7054.303
593.520, 7018.527
594.002, 6985.988
594.484, 6979.029
594.966, 6991.873
595.448, 7008.694
595.930, 7029.037
596.412, 7054.697
596.895, 7103.244
597.377, 7139.994
597.859, 7142.151
598.341, 7118.081
598.823, 7086.199
599.305, 7050.062
599.787, 7022.719
600.269, 7026.250
600.752, 7053.375
601.234, 7070.965
601.716, 7072.069
602.198, 7070.009
602.680, 7076.703
603.162, 7090.550
603.644, 7095.757
604.126, 7079.640
604.609, 7072.557
605.091, 7086.848
605.573, 7106.378
606.055, 7121.971
606.537, 7129.712
607.019, 7123.035
607.501, 7090.723
607.983, 7048.439
608.465, 7031.876
608.948, 7041.396
609.430, 7053.924
609.912, 7066.070
610.394, 7073.339
610.876, 7069.748
611.358, 7054.672
611.840, 7038.538
612.322, 7014.474
612.804, 6997.479
613.287, 7000.652
613.769, 7010.643
614.251, 7008.817
614.733, 6992.176
615.215, 6973.931
615.697, 6968.260
616.179, 6971.711
616.661, 6967.826
617.143, 6956.462
617.626, 6937.269
618.108, 6900.602
618.590, 6865.186
619.072, 6865.073
619.554, 6904.008
620.036, 6922.332
620.518, 6895.428
621.000, 6859.920
621.482, 6830.772
621.965, 6810.749
622.447, 6806.870
622.929, 6820.071
623.411, 6832.203
623.893, 6802.005
624.375, 6750.458
624.857, 6779.196
625.339, 6788.451
625.822, 6779.261
626.304, 6696.390
626.786, 6708.663
627.268, 6682.808
627.750, 6655.384
628.232, 6681.050
628.714, 6644.283
629.196, 6630.050
629.679, 6610.684
630.161, 6583.929
630.643, 6558.480
631.125, 6537.962
631.607, 6519.646
632.089, 6495.324
632.571, 6463.412
633.053, 6458.354
633.536, 6499.977
634.018, 6528.669
634.500, 6505.842
634.982, 6454.292
635.464, 6405.665
635.946, 6357.648
636.428, 6328.274
636.910, 6336.600
637.392, 6355.941
637.875, 6366.559
638.357, 6367.081
638.839, 6359.913
639.321, 6346.054
639.803, 6327.584
640.285, 6305.897
640.767, 6279.760
641.249, 6264.611
641.731, 6268.743
642.214, 6269.270
642.696, 6243.894
643.178, 6210.000
643.660, 6200.844
644.142, 6231.126
644.624, 6248.309
645.106, 6226.819
645.588, 6190.683
646.070, 6158.083
646.553, 6130.734
647.035, 6105.583
647.517, 6080.983
647.999, 6061.140
648.481, 6057.767
648.963, 6073.314
649.445, 6072.710
649.927, 6047.702
650.409, 6019.086
650.892, 5998.489
651.374, 5982.377
651.856, 5962.963
652.338, 5935.147
652.820, 5916.728
653.302, 5921.214
653.784, 5930.701
654.266, 5933.853
654.749, 5928.208
655.231, 5909.803
655.713, 5876.115
656.195, 5837.658
656.677, 5812.052
