##NAMES=Cesbronite
##RRUFFID=R070198
##IDEAL CHEMISTRY=Cu^2+^_3_Te^6+^O_4_(OH)_4_
##LOCALITY=Bambollita mine, Moctezuma, Municipio de Moctezuma, Sonora, Mexico
##OWNER=RRUFF
##SOURCE=Michael Scott
##DESCRIPTION=Dark green prismatic crystals associated with quartz
##STATUS=The identification of this mineral has been confirmed only by single crystal X-ray diffraction.
##URL=rruff.info/R070198
132.3433, 3741.473
132.8254, 3868.031
133.3075, 3990.324
133.7896, 4119.127
134.2718, 4256.198
134.7539, 4383.318
135.2360, 4480.381
135.7181, 4543.450
136.2002, 4607.544
136.6823, 4686.658
137.1645, 4777.701
137.6466, 4833.992
138.1287, 4848.245
138.6108, 4841.077
139.0929, 4841.377
139.5750, 4856.507
140.0572, 4856.781
140.5393, 4828.443
141.0214, 4762.885
141.5035, 4706.710
141.9856, 4661.538
142.4677, 4624.707
142.9499, 4587.931
143.4320, 4546.229
143.9141, 4512.958
144.3962, 4496.489
144.8783, 4510.755
145.3604, 4515.626
145.8425, 4500.934
146.3247, 4471.795
146.8068, 4464.770
147.2889, 4502.357
147.7710, 4545.082
148.2531, 4567.129
148.7352, 4533.840
149.2174, 4519.568
149.6995, 4541.131
150.1816, 4603.217
150.6637, 4652.979
151.1458, 4678.961
151.6279, 4696.167
152.1101, 4719.926
152.5922, 4767.125
153.0743, 4806.189
153.5564, 4824.467
154.0385, 4810.506
154.5206, 4810.978
155.0028, 4851.837
155.4849, 4909.084
155.9670, 4942.209
156.4491, 4913.360
156.9312, 4880.422
157.4133, 4870.474
157.8955, 4902.989
158.3776, 4932.687
158.8597, 4946.462
159.3418, 4947.799
159.8239, 4948.528
160.3060, 4955.294
160.7882, 4961.551
161.2703, 4962.585
161.7524, 4944.303
162.2345, 4932.837
162.7166, 4943.741
163.1987, 4974.795
163.6808, 5003.551
164.1630, 5024.173
164.6451, 5035.650
165.1272, 5036.898
165.6093, 5007.671
166.0914, 4982.359
166.5735, 4987.220
167.0557, 5024.870
167.5378, 5064.970
168.0199, 5087.526
168.5020, 5099.248
168.9841, 5111.120
169.4662, 5131.424
169.9484, 5152.509
170.4305, 5166.581
170.9126, 5171.382
171.3947, 5174.905
171.8768, 5183.968
172.3589, 5197.197
172.8411, 5210.456
173.3232, 5219.378
173.8053, 5227.662
174.2874, 5241.486
174.7695, 5264.835
175.2516, 5288.322
175.7338, 5301.516
176.2159, 5305.244
176.6980, 5304.965
177.1801, 5299.342
177.6622, 5292.655
178.1443, 5294.442
178.6264, 5311.646
179.1086, 5334.567
179.5907, 5347.683
180.0728, 5351.163
180.5549, 5352.090
181.0370, 5354.408
181.5191, 5358.727
182.0013, 5367.288
182.4834, 5385.120
182.9655, 5406.712
183.4476, 5418.651
183.9297, 5419.971
184.4118, 5418.155
184.8940, 5418.268
185.3761, 5421.097
185.8582, 5431.569
186.3403, 5457.336
186.8224, 5493.717
187.3046, 5523.845
187.7867, 5548.598
188.2688, 5564.208
188.7509, 5558.013
189.2330, 5530.927
189.7151, 5510.732
190.1973, 5517.623
190.6794, 5547.709
191.1615, 5568.681
191.6436, 5576.536
192.1257, 5577.222
192.6078, 5583.151
193.0900, 5594.886
193.5721, 5605.568
194.0542, 5609.264
194.5363, 5606.219
195.0184, 5605.686
195.5005, 5608.636
195.9826, 5615.028
196.4648, 5626.081
196.9469, 5642.628
197.4290, 5659.079
197.9111, 5670.172
198.3932, 5675.315
198.8753, 5682.121
199.3575, 5691.240
199.8396, 5703.141
200.3217, 5722.868
200.8038, 5753.417
201.2859, 5782.447
201.7680, 5795.490
202.2502, 5789.639
202.7323, 5785.959
203.2144, 5788.337
203.6965, 5796.874
204.1786, 5815.099
204.6607, 5845.744
205.1429, 5880.631
205.6250, 5910.028
206.1071, 5932.789
206.5892, 5953.460
207.0713, 5972.349
207.5534, 5989.095
208.0356, 6010.794
208.5177, 6041.727
208.9998, 6072.500
209.4819, 6085.510
209.9640, 6072.153
210.4461, 6065.313
210.9282, 6080.531
211.4104, 6124.421
211.8925, 6157.451
212.3746, 6175.198
212.8567, 6185.241
213.3388, 6204.885
213.8209, 6239.479
214.3031, 6271.954
214.7852, 6292.070
215.2673, 6291.748
215.7494, 6305.646
216.2315, 6340.708
216.7136, 6388.593
217.1958, 6424.265
217.6779, 6442.896
218.1600, 6458.505
218.6421, 6480.907
219.1242, 6518.781
219.6063, 6539.071
220.0885, 6530.754
220.5706, 6503.088
221.0527, 6497.440
221.5348, 6520.353
222.0169, 6555.493
222.4990, 6594.604
222.9812, 6641.386
223.4633, 6682.816
223.9454, 6717.351
224.4275, 6745.466
224.9096, 6765.156
225.3917, 6765.430
225.8739, 6771.572
226.3560, 6805.358
226.8381, 6883.998
227.3202, 6955.335
227.8023, 7012.989
228.2844, 7056.729
228.7665, 7091.836
229.2487, 7108.486
229.7308, 7126.156
230.2129, 7162.997
230.6950, 7227.144
231.1771, 7294.557
231.6592, 7361.922
232.1414, 7428.828
232.6235, 7498.304
233.1056, 7567.548
233.5877, 7641.110
234.0698, 7722.596
234.5519, 7813.072
235.0341, 7909.215
235.5162, 8011.953
235.9983, 8121.324
236.4804, 8233.419
236.9625, 8351.182
237.4446, 8469.251
237.9268, 8580.058
238.4089, 8670.431
238.8910, 8777.855
239.3731, 8913.476
239.8552, 9081.102
240.3373, 9258.460
240.8195, 9457.104
241.3016, 9657.458
241.7837, 9831.778
242.2658, 9958.503
242.7479, 10095.14
243.2300, 10260.10
243.7122, 10460.53
244.1943, 10660.16
244.6764, 10858.46
245.1585, 11055.91
245.6406, 11255.09
246.1227, 11447.93
246.6048, 11656.13
247.0870, 11892.64
247.5691, 12174.08
248.0512, 12428.46
248.5333, 12651.25
249.0154, 12849.52
249.4975, 13034.46
249.9797, 13194.63
250.4618, 13362.93
250.9439, 13554.85
251.4260, 13784.48
251.9081, 13998.65
252.3902, 14199.06
252.8724, 14385.39
253.3545, 14557.87
253.8366, 14728.75
254.3187, 14863.52
254.8008, 14944.23
255.2829, 14955.19
255.7651, 14956.62
256.2472, 14959.87
256.7293, 14948.78
257.2114, 14882.52
257.6935, 14748.58
258.1756, 14583.08
258.6577, 14402.71
259.1399, 14205.69
259.6220, 13993.08
260.1041, 13757.79
260.5862, 13507.48
261.0683, 13266.08
261.5504, 13035.11
262.0326, 12810.93
262.5147, 12590.11
262.9968, 12375.64
263.4789, 12160.60
263.9610, 11945.80
264.4431, 11730.68
264.9253, 11517.62
265.4074, 11302.23
265.8895, 11099.66
266.3716, 10916.19
266.8537, 10754.66
267.3358, 10606.80
267.8180, 10474.09
268.3001, 10353.04
268.7822, 10228.47
269.2643, 10096.63
269.7464, 9972.578
270.2285, 9864.993
270.7107, 9778.692
271.1928, 9685.409
271.6749, 9578.719
272.1570, 9466.632
272.6391, 9376.571
273.1212, 9313.119
273.6034, 9256.770
274.0855, 9197.483
274.5676, 9135.169
275.0497, 9069.334
275.5318, 8997.042
276.0139, 8923.456
276.4961, 8863.941
276.9782, 8819.380
277.4603, 8785.013
277.9424, 8762.314
278.4245, 8752.069
278.9066, 8735.509
279.3888, 8710.977
279.8709, 8679.325
280.3530, 8636.776
280.8351, 8579.456
281.3172, 8536.008
281.7993, 8535.787
282.2815, 8577.533
282.7636, 8596.620
283.2457, 8582.788
283.7278, 8548.562
284.2099, 8518.870
284.6920, 8493.774
285.1741, 8472.343
285.6563, 8454.852
286.1384, 8440.949
286.6205, 8428.069
287.1026, 8414.768
287.5847, 8404.175
288.0668, 8404.353
288.5490, 8415.281
289.0311, 8426.829
289.5132, 8431.357
289.9953, 8430.557
290.4774, 8434.158
290.9595, 8445.010
291.4417, 8456.748
291.9238, 8454.421
292.4059, 8439.598
292.8880, 8431.152
293.3701, 8444.920
293.8522, 8474.774
294.3344, 8502.178
294.8165, 8525.838
295.2986, 8545.337
295.7807, 8562.176
296.2628, 8575.392
296.7449, 8578.683
297.2271, 8554.933
297.7092, 8520.068
298.1913, 8511.610
298.6734, 8539.708
299.1555, 8575.050
299.6376, 8577.613
300.1198, 8555.676
300.6019, 8539.691
301.0840, 8554.009
301.5661, 8583.305
302.0482, 8603.611
302.5303, 8611.376
303.0125, 8615.345
303.4946, 8624.454
303.9767, 8636.754
304.4588, 8647.237
304.9409, 8648.152
305.4230, 8648.041
305.9052, 8660.735
306.3873, 8691.119
306.8694, 8714.821
307.3515, 8706.337
307.8336, 8676.694
308.3157, 8647.630
308.7979, 8624.449
309.2800, 8609.645
309.7621, 8612.799
310.2442, 8639.156
310.7263, 8651.469
311.2084, 8608.287
311.6906, 8538.166
312.1727, 8486.743
312.6548, 8487.203
313.1369, 8502.240
313.6190, 8511.206
314.1011, 8512.762
314.5833, 8506.904
315.0654, 8488.795
315.5475, 8464.540
316.0296, 8442.073
316.5117, 8428.447
316.9938, 8413.541
317.4760, 8394.382
317.9580, 8371.170
318.4402, 8339.401
318.9223, 8284.421
319.4044, 8225.226
319.8865, 8181.611
320.3686, 8175.617
320.8507, 8169.538
321.3329, 8148.368
321.8150, 8111.305
322.2971, 8082.907
322.7792, 8080.417
323.2613, 8082.264
323.7434, 8070.810
324.2256, 8022.640
324.7077, 7983.127
325.1898, 7965.813
325.6719, 7970.375
326.1540, 7964.292
326.6361, 7943.135
327.1183, 7912.464
327.6004, 7875.656
328.0825, 7819.607
328.5646, 7773.331
329.0467, 7741.583
329.5288, 7722.750
330.0110, 7706.635
330.4931, 7702.429
330.9752, 7691.903
331.4573, 7662.978
331.9394, 7597.644
332.4215, 7546.198
332.9037, 7511.223
333.3858, 7492.332
333.8679, 7491.308
334.3500, 7525.583
334.8321, 7549.842
335.3142, 7535.815
335.7964, 7465.695
336.2785, 7412.321
336.7606, 7381.687
337.2427, 7366.871
337.7248, 7351.202
338.2069, 7334.079
338.6891, 7318.015
339.1712, 7307.673
339.6533, 7305.454
340.1354, 7282.884
340.6175, 7230.621
341.0996, 7171.844
341.5818, 7152.803
342.0639, 7177.319
342.5460, 7201.948
343.0281, 7208.870
343.5102, 7198.939
343.9923, 7179.872
344.4745, 7149.674
344.9566, 7117.703
345.4387, 7096.393
345.9208, 7085.358
346.4029, 7078.357
346.8850, 7068.008
347.3672, 7060.301
347.8493, 7084.504
348.3314, 7144.068
348.8135, 7192.774
349.2956, 7167.792
349.7777, 7090.396
350.2599, 7025.187
350.7419, 6997.957
351.2241, 6992.315
351.7062, 6987.359
352.1883, 6982.953
352.6704, 6976.439
353.1525, 6961.414
353.6346, 6943.801
354.1168, 6933.776
354.5989, 6941.307
355.0810, 6949.133
355.5631, 6937.492
356.0452, 6910.483
356.5273, 6887.962
357.0095, 6881.861
357.4916, 6885.944
357.9737, 6895.519
358.4558, 6914.884
358.9379, 6929.954
359.4200, 6935.301
359.9022, 6930.750
360.3843, 6915.842
360.8664, 6870.593
361.3485, 6828.526
361.8306, 6812.807
362.3127, 6837.166
362.7949, 6860.193
363.2770, 6868.507
363.7591, 6868.030
364.2412, 6868.711
364.7233, 6879.086
365.2054, 6885.432
365.6876, 6880.211
366.1697, 6858.036
366.6518, 6843.668
367.1339, 6844.816
367.6160, 6853.067
368.0981, 6858.816
368.5803, 6856.428
369.0624, 6857.830
369.5445, 6870.169
370.0266, 6895.264
370.5087, 6900.295
370.9908, 6869.026
371.4730, 6832.172
371.9551, 6815.946
372.4372, 6830.891
372.9193, 6845.209
373.4014, 6856.800
373.8835, 6864.583
374.3657, 6858.805
374.8478, 6831.689
375.3299, 6807.612
375.8120, 6805.816
376.2941, 6830.333
376.7762, 6852.675
377.2584, 6872.270
377.7405, 6886.018
378.2226, 6879.129
378.7047, 6848.080
379.1868, 6826.480
379.6689, 6843.239
380.1511, 6892.212
380.6332, 6916.688
381.1153, 6909.404
381.5974, 6888.854
382.0795, 6880.776
382.5616, 6883.563
383.0438, 6887.593
383.5259, 6889.344
384.0080, 6889.084
384.4901, 6888.004
384.9722, 6886.248
385.4543, 6881.586
385.9364, 6864.652
386.4185, 6843.383
386.9007, 6834.645
387.3828, 6853.193
387.8649, 6880.643
388.3470, 6899.935
388.8291, 6911.478
389.3112, 6919.414
389.7934, 6926.197
390.2755, 6930.626
390.7576, 6931.282
391.2397, 6926.604
391.7218, 6919.750
392.2039, 6911.076
392.6861, 6901.303
393.1682, 6892.660
393.6503, 6882.344
394.1324, 6876.013
394.6145, 6878.167
395.0966, 6894.607
395.5788, 6907.687
396.0609, 6912.423
396.5430, 6911.559
397.0251, 6909.709
397.5072, 6909.354
397.9893, 6906.335
398.4715, 6897.200
398.9536, 6878.817
399.4357, 6869.570
399.9178, 6875.927
400.3999, 6887.307
400.8820, 6893.817
401.3642, 6896.151
401.8463, 6891.736
402.3284, 6875.481
402.8105, 6849.500
403.2926, 6841.196
403.7747, 6859.222
404.2569, 6879.023
404.7390, 6878.295
405.2211, 6850.048
405.7032, 6841.356
406.1853, 6862.897
406.6674, 6900.505
407.1496, 6920.799
407.6317, 6922.934
408.1138, 6915.941
408.5959, 6895.966
409.0780, 6867.545
409.5602, 6863.736
410.0423, 6889.860
410.5244, 6926.387
411.0065, 6951.426
411.4886, 6966.074
411.9707, 6974.896
412.4529, 6977.635
412.9350, 6976.714
413.4171, 6975.343
413.8992, 6973.528
414.3813, 6972.618
414.8634, 6967.674
415.3456, 6965.722
415.8277, 6978.041
416.3098, 7018.802
416.7919, 7062.356
417.2740, 7091.958
417.7561, 7109.027
418.2382, 7121.793
418.7203, 7126.352
419.2025, 7132.745
419.6846, 7148.955
420.1667, 7181.421
420.6488, 7212.340
421.1309, 7230.911
421.6130, 7245.200
422.0952, 7270.356
422.5773, 7324.949
423.0594, 7375.832
423.5415, 7411.893
424.0236, 7428.886
424.5057, 7447.096
424.9879, 7456.857
425.4700, 7473.867
425.9521, 7514.217
426.4342, 7591.990
426.9163, 7668.894
427.3984, 7741.640
427.8806, 7809.943
428.3627, 7865.584
428.8448, 7903.238
429.3269, 7939.458
429.8090, 7984.422
430.2911, 8038.757
430.7733, 8097.388
431.2554, 8161.084
431.7375, 8226.944
432.2196, 8288.708
432.7017, 8345.910
433.1838, 8408.743
433.6660, 8485.656
434.1481, 8572.212
434.6302, 8648.937
435.1123, 8714.438
435.5944, 8781.642
436.0765, 8865.804
436.5587, 8962.104
437.0408, 9058.977
437.5229, 9153.399
438.0050, 9244.464
438.4871, 9330.350
438.9692, 9411.388
439.4514, 9489.396
439.9335, 9561.108
440.4156, 9632.536
440.8977, 9708.368
441.3798, 9785.534
441.8619, 9874.475
442.3441, 9992.313
442.8262, 10124.09
443.3083, 10242.45
443.7904, 10321.22
444.2725, 10399.19
444.7546, 10493.64
445.2368, 10608.31
445.7189, 10718.60
446.2010, 10824.04
446.6831, 10921.71
447.1652, 11007.80
447.6473, 11063.88
448.1295, 11135.38
448.6116, 11231.41
449.0937, 11348.19
449.5758, 11462.88
450.0579, 11581.83
450.5400, 11686.12
451.0221, 11757.42
451.5042, 11785.36
451.9864, 11841.38
452.4685, 11936.21
452.9506, 12046.83
453.4327, 12134.63
453.9148, 12199.00
454.3969, 12264.45
454.8791, 12346.06
455.3612, 12435.19
455.8433, 12506.17
456.3254, 12558.58
456.8075, 12588.53
457.2896, 12573.91
457.7718, 12534.43
458.2539, 12515.75
458.7360, 12540.18
459.2181, 12571.59
459.7002, 12574.92
460.1823, 12555.03
460.6645, 12527.24
461.1466, 12496.02
461.6287, 12462.67
462.1108, 12429.73
462.5929, 12398.67
463.0750, 12360.33
463.5572, 12311.47
464.0393, 12252.95
464.5214, 12186.11
465.0035, 12097.73
465.4856, 12016.02
465.9677, 11954.25
466.4499, 11911.28
466.9320, 11855.79
467.4141, 11783.43
467.8962, 11701.14
468.3783, 11611.11
468.8604, 11505.65
469.3426, 11409.34
469.8247, 11325.14
470.3068, 11246.89
470.7889, 11158.80
471.2710, 11055.59
471.7531, 10963.16
472.2353, 10897.93
472.7174, 10855.32
473.1995, 10787.12
473.6816, 10689.77
474.1637, 10588.31
474.6458, 10511.42
475.1280, 10454.16
475.6101, 10392.46
476.0922, 10319.09
476.5743, 10241.55
477.0564, 10168.45
477.5385, 10100.05
478.0207, 10040.57
478.5028, 9996.389
478.9849, 9959.537
479.4670, 9925.336
479.9491, 9894.946
480.4312, 9853.724
480.9134, 9776.623
481.3955, 9667.632
481.8776, 9675.815
482.3597, 9668.622
482.8418, 9646.880
483.3239, 9567.009
483.8060, 9562.199
484.2881, 9527.310
484.7703, 9491.180
485.2524, 9496.934
485.7345, 9425.519
486.2166, 9430.608
486.6987, 9405.161
487.1808, 9393.690
487.6630, 9367.344
488.1451, 9346.191
488.6272, 9294.652
489.1093, 9241.372
489.5914, 9188.806
490.0735, 9139.894
490.5557, 9116.681
491.0378, 9122.296
491.5199, 9137.653
492.0020, 9152.602
492.4841, 9165.620
492.9662, 9165.002
493.4484, 9144.451
493.9305, 9122.242
494.4126, 9125.534
494.8947, 9149.096
495.3768, 9174.908
495.8589, 9202.674
496.3411, 9223.309
496.8232, 9223.144
497.3053, 9202.343
497.7874, 9181.391
498.2695, 9162.928
498.7516, 9154.874
499.2338, 9166.330
499.7159, 9227.379
500.1980, 9270.696
500.6801, 9262.774
501.1622, 9221.863
501.6443, 9193.433
502.1265, 9195.766
502.6086, 9200.271
503.0907, 9197.277
503.5728, 9184.402
504.0549, 9179.297
504.5370, 9190.837
505.0192, 9200.204
505.5013, 9186.097
505.9834, 9140.017
506.4655, 9107.181
506.9476, 9100.195
507.4297, 9105.396
507.9119, 9082.914
508.3940, 9031.072
508.8761, 8980.251
509.3582, 8947.690
509.8403, 8929.019
510.3224, 8911.502
510.8046, 8894.834
511.2867, 8878.109
511.7688, 8862.546
512.2509, 8845.941
512.7330, 8822.985
513.2151, 8784.575
513.6973, 8748.506
514.1794, 8731.238
514.6615, 8727.932
515.1436, 8722.970
515.6257, 8706.632
516.1078, 8688.850
516.5900, 8677.455
517.0721, 8676.626
517.5542, 8667.129
518.0363, 8632.312
518.5184, 8594.063
519.0005, 8575.104
519.4827, 8597.846
519.9648, 8604.792
520.4469, 8580.879
520.9290, 8536.839
521.4111, 8517.023
521.8932, 8529.980
522.3754, 8543.651
522.8575, 8541.428
523.3396, 8523.312
523.8217, 8504.691
524.3038, 8485.760
524.7859, 8465.222
525.2681, 8437.349
525.7502, 8404.963
526.2323, 8380.381
526.7144, 8366.312
527.1965, 8362.205
527.6786, 8374.518
528.1608, 8398.333
528.6429, 8415.231
529.1250, 8405.580
529.6071, 8390.228
530.0892, 8387.233
530.5714, 8400.044
531.0535, 8412.929
531.5356, 8421.679
532.0176, 8426.249
532.4998, 8426.590
532.9819, 8417.002
533.4640, 8409.847
533.9461, 8409.125
534.4282, 8412.329
534.9103, 8410.928
535.3925, 8403.349
535.8746, 8393.399
536.3567, 8380.578
536.8388, 8363.911
537.3209, 8359.069
537.8030, 8370.455
538.2852, 8382.384
538.7673, 8374.719
539.2494, 8349.141
539.7315, 8332.431
540.2136, 8333.007
540.6957, 8339.748
541.1779, 8331.564
541.6600, 8312.496
542.1421, 8299.382
542.6242, 8301.451
543.1063, 8314.517
543.5884, 8339.969
544.0706, 8377.883
544.5527, 8406.497
545.0348, 8409.839
545.5169, 8400.206
545.9990, 8388.078
546.4811, 8367.781
546.9633, 8356.269
547.4454, 8360.220
547.9275, 8375.450
548.4096, 8392.235
548.8917, 8412.646
549.3738, 8431.518
549.8560, 8448.480
550.3381, 8463.550
550.8202, 8470.929
551.3023, 8467.668
551.7844, 8463.397
552.2665, 8463.826
552.7487, 8468.969
553.2308, 8483.716
553.7129, 8510.516
554.1950, 8541.827
554.6771, 8567.783
555.1592, 8588.939
555.6414, 8607.122
556.1235, 8618.703
556.6056, 8630.673
557.0877, 8655.258
557.5698, 8689.822
558.0519, 8717.665
558.5341, 8724.418
559.0162, 8723.616
559.4983, 8724.093
559.9804, 8724.845
560.4625, 8734.112
560.9446, 8756.523
561.4268, 8787.631
561.9089, 8822.768
562.3910, 8875.051
562.8731, 8912.599
563.3552, 8921.938
563.8373, 8912.537
564.3195, 8929.980
564.8016, 8985.428
565.2837, 9036.845
565.7658, 9055.381
566.2479, 9042.719
566.7300, 9058.675
567.2122, 9106.499
567.6943, 9165.493
568.1764, 9221.938
568.6585, 9273.020
569.1406, 9305.330
569.6227, 9306.400
570.1049, 9306.509
570.5870, 9336.840
571.0691, 9390.866
571.5512, 9454.094
572.0333, 9531.277
572.5154, 9605.526
572.9976, 9667.676
573.4797, 9717.763
573.9618, 9756.655
574.4439, 9764.225
574.9260, 9775.686
575.4081, 9814.097
575.8903, 9900.231
576.3724, 9974.823
576.8545, 10031.87
577.3366, 10082.24
577.8187, 10140.53
578.3008, 10206.88
578.7830, 10281.87
579.2651, 10370.84
579.7472, 10465.70
580.2293, 10535.14
580.7114, 10579.93
581.1935, 10631.67
581.6757, 10712.87
582.1578, 10813.98
582.6399, 10917.15
583.1220, 11019.32
583.6041, 11131.21
584.0862, 11269.15
584.5684, 11416.77
585.0505, 11554.22
585.5326, 11665.33
586.0147, 11779.92
586.4968, 11915.61
586.9789, 12061.21
587.4611, 12193.81
587.9432, 12281.65
588.4253, 12388.65
588.9074, 12537.93
589.3895, 12728.71
589.8716, 12896.27
590.3538, 13030.77
590.8359, 13163.79
591.3180, 13322.91
591.8001, 13508.17
592.2822, 13675.71
592.7643, 13819.27
593.2465, 13957.75
593.7286, 14117.70
594.2107, 14294.68
594.6928, 14464.98
595.1749, 14613.62
595.6570, 14765.38
596.1392, 14954.43
596.6213, 15170.15
597.1034, 15373.21
597.5854, 15534.25
598.0676, 15689.36
598.5497, 15862.86
599.0318, 16062.26
599.5139, 16237.08
599.9960, 16363.33
600.4781, 16475.68
600.9603, 16595.53
601.4424, 16733.17
601.9245, 16855.16
602.4066, 16949.42
602.8887, 17037.91
603.3708, 17168.81
603.8530, 17345.93
604.3351, 17496.82
604.8172, 17593.06
605.2993, 17652.65
605.7814, 17709.91
606.2635, 17764.80
606.7457, 17819.07
607.2278, 17882.27
607.7099, 17940.55
608.1920, 17965.49
608.6741, 17952.22
609.1563, 17961.32
609.6384, 18066.77
610.1205, 18187.61
610.6026, 18251.18
611.0847, 18194.35
611.5668, 18149.43
612.0490, 18141.42
612.5311, 18151.40
613.0132, 18148.89
613.4953, 18125.71
613.9774, 18106.84
614.4595, 18098.85
614.9417, 18099.79
615.4238, 18104.77
615.9059, 18115.27
616.3880, 18115.32
616.8701, 18080.42
617.3522, 18027.41
617.8344, 18015.31
618.3165, 18048.13
618.7986, 18079.00
619.2807, 18058.58
619.7628, 18015.28
620.2449, 17984.26
620.7271, 17969.25
621.2092, 17977.49
621.6913, 18040.98
622.1734, 18124.26
622.6555, 18167.83
623.1376, 18121.33
623.6198, 18078.17
624.1019, 18049.81
624.5840, 18037.74
625.0661, 18057.47
625.5482, 18127.31
626.0303, 18185.40
626.5125, 18192.59
626.9946, 18152.06
627.4767, 18136.11
627.9588, 18146.25
628.4409, 18169.52
628.9230, 18196.69
