##NAMES=Cesbronite
##RRUFFID=R080003
##IDEAL CHEMISTRY=Cu^2+^_3_Te^6+^O_4_(OH)_4_
##LOCALITY=Montezuma mine, Sonora, Mexico
##OWNER=William Pinch
##SOURCE=William Pinch
##DESCRIPTION=Green, sharp bipyramidal chisel-shaped crystals, associated with green prismatic jensenite. Holotype specimen
##STATUS=The identification of this mineral has been confirmed by single-crystal X-ray diffraction.
##URL=rruff.info/R080003
153.1887, 387.5911
153.6708, 387.7024
154.1529, 387.4039
154.6351, 386.2671
155.1172, 384.8834
155.5993, 383.6524
156.0814, 382.7659
156.5635, 381.8677
157.0456, 380.8177
157.5278, 379.6257
158.0099, 378.6231
158.4920, 378.1977
158.9741, 377.8454
159.4562, 377.1177
159.9383, 375.2205
160.4205, 373.5672
160.9026, 372.6667
161.3847, 372.5696
161.8668, 372.7803
162.3489, 373.6411
162.8310, 374.5718
163.3132, 374.8948
163.7953, 373.5930
164.2774, 372.2349
164.7595, 371.6246
165.2416, 371.8802
165.7237, 372.4418
166.2059, 373.3588
166.6880, 374.3525
167.1701, 375.0014
167.6522, 375.1364
168.1343, 374.8517
168.6164, 373.9923
169.0985, 372.3396
169.5807, 371.0450
170.0628, 371.2740
170.5449, 372.4099
171.0270, 373.2470
171.5091, 372.9133
171.9912, 372.1388
172.4734, 371.5899
172.9555, 371.3534
173.4376, 371.3665
173.9197, 371.8147
174.4018, 372.5149
174.8839, 372.9581
175.3661, 372.5443
175.8482, 371.7990
176.3303, 371.4015
176.8124, 371.4866
177.2945, 371.8583
177.7766, 372.4727
178.2588, 373.2549
178.7409, 373.8753
179.2230, 374.0589
179.7051, 373.9503
180.1872, 373.7897
180.6693, 373.5692
181.1515, 373.3965
181.6336, 373.4212
182.1157, 373.6332
182.5978, 373.9625
183.0799, 374.4123
183.5620, 374.9491
184.0442, 375.4634
184.5263, 375.9139
185.0084, 376.3659
185.4905, 377.0253
185.9726, 377.8768
186.4547, 378.6133
186.9369, 378.9642
187.4190, 378.9939
187.9011, 378.9593
188.3832, 378.9505
188.8653, 378.8819
189.3474, 378.4616
189.8296, 377.6740
190.3117, 376.9466
190.7938, 376.6305
191.2759, 376.6998
191.7580, 376.9443
192.2401, 377.3317
192.7223, 377.8598
193.2044, 378.5410
193.6865, 379.3888
194.1686, 380.3229
194.6507, 381.3495
195.1328, 382.4528
195.6150, 383.3218
196.0971, 383.8124
196.5792, 384.0148
197.0613, 384.2258
197.5434, 384.4051
198.0255, 384.7549
198.5077, 385.6276
198.9898, 387.0584
199.4719, 388.1332
199.9540, 388.4927
200.4361, 388.3090
200.9182, 388.6021
201.4004, 389.4950
201.8825, 390.4962
202.3646, 391.0221
202.8467, 390.9861
203.3288, 391.2050
203.8109, 391.9478
204.2931, 393.1471
204.7752, 394.2422
205.2573, 395.2536
205.7394, 396.1175
206.2215, 396.6411
206.7036, 396.6878
207.1858, 397.1099
207.6679, 398.2552
208.1500, 400.0553
208.6321, 401.3889
209.1142, 402.0716
209.5963, 402.6327
210.0785, 403.7158
210.5606, 405.4954
211.0427, 407.1098
211.5248, 408.3039
212.0069, 409.0925
212.4890, 410.0776
212.9712, 411.3339
213.4533, 412.6830
213.9354, 413.9275
214.4175, 415.0827
214.8996, 416.1201
215.3817, 417.0158
215.8639, 417.7613
216.3460, 418.5475
216.8281, 419.4111
217.3102, 420.2637
217.7923, 420.9473
218.2744, 421.3163
218.7565, 421.9159
219.2387, 422.9727
219.7208, 424.5136
220.2029, 425.5850
220.6850, 425.8864
221.1671, 426.0611
221.6492, 426.8742
222.1314, 428.6715
222.6135, 430.3236
223.0956, 431.4565
223.5777, 432.0513
224.0598, 433.0083
224.5419, 434.4140
225.0241, 436.0953
225.5062, 437.9452
225.9883, 440.1024
226.4704, 442.0896
226.9525, 443.6352
227.4346, 444.7191
227.9168, 446.3529
228.3989, 448.7115
228.8810, 451.4306
229.3631, 454.0668
229.8452, 456.4509
230.3273, 459.1522
230.8095, 462.3376
231.2916, 466.0231
231.7737, 469.7570
232.2558, 473.4590
232.7379, 477.2928
233.2200, 481.3526
233.7022, 485.5472
234.1843, 490.1284
234.6664, 495.1511
235.1485, 500.5727
235.6306, 506.3360
236.1127, 512.7460
236.5949, 519.2587
237.0770, 525.2827
237.5591, 530.1664
238.0412, 535.8185
238.5233, 542.7925
239.0054, 551.1198
239.4876, 558.9035
239.9697, 565.8350
240.4518, 572.6338
240.9339, 580.0002
241.4160, 588.3867
241.8981, 596.3969
242.3803, 603.5057
242.8624, 609.7914
243.3445, 616.9017
243.8266, 625.2485
244.3087, 634.0117
244.7908, 642.4749
245.2730, 650.2739
245.7551, 658.4992
246.2372, 667.3977
246.7193, 676.9139
247.2014, 686.3749
247.6835, 695.4908
248.1657, 704.7835
248.6478, 714.5197
249.1299, 724.8781
249.6120, 735.4265
250.0941, 746.2734
250.5762, 757.3307
251.0584, 767.8563
251.5405, 777.3607
252.0226, 786.8800
252.5047, 797.1503
252.9868, 808.9875
253.4689, 819.8985
253.9511, 829.8763
254.4332, 838.8312
254.9153, 845.9621
255.3974, 851.1864
255.8795, 854.7648
256.3616, 856.9650
256.8438, 858.3399
257.3259, 856.9215
257.8080, 852.0656
258.2901, 844.3597
258.7722, 835.8240
259.2543, 826.3160
259.7365, 816.1282
260.2186, 805.2570
260.7007, 793.9559
261.1828, 781.4037
261.6649, 767.0950
262.1470, 751.6687
262.6292, 736.3995
263.1113, 721.0123
263.5934, 706.5178
264.0755, 693.5349
264.5576, 682.1740
265.0397, 671.5607
265.5219, 661.6915
266.0040, 652.4884
266.4861, 643.4995
266.9682, 634.7708
267.4503, 626.3260
267.9324, 618.3499
268.4146, 610.7274
268.8967, 603.5710
269.3788, 596.8105
269.8609, 590.5994
270.3430, 585.5354
270.8251, 581.9586
271.3073, 578.4213
271.7894, 574.3000
272.2715, 569.4886
272.7536, 565.1291
273.2357, 561.2020
273.7178, 557.8021
274.2000, 555.2196
274.6821, 553.6825
275.1642, 551.9479
275.6463, 549.3075
276.1284, 545.7538
276.6105, 543.4882
277.0927, 542.8791
277.5748, 542.7559
278.0569, 541.4507
278.5390, 538.7780
279.0211, 536.5464
279.5032, 535.4628
279.9854, 535.4018
280.4675, 535.0989
280.9496, 534.5001
281.4317, 533.8608
281.9138, 533.4576
282.3959, 533.3002
282.8781, 533.2267
283.3602, 533.2817
283.8423, 533.3792
284.3244, 532.9445
284.8065, 531.8441
285.2886, 531.0215
285.7708, 531.5962
286.2529, 533.4796
286.7350, 535.0082
287.2171, 535.6910
287.6992, 535.8926
288.1813, 536.6844
288.6635, 538.0955
289.1456, 539.5280
289.6277, 540.3287
290.1098, 540.6407
290.5919, 541.4581
291.0740, 543.0642
291.5562, 545.0653
292.0383, 546.7409
292.5204, 548.1100
293.0025, 549.2769
293.4846, 550.2656
293.9667, 551.1163
294.4489, 551.9958
294.9310, 552.9676
295.4131, 553.8610
295.8952, 554.2433
296.3773, 554.2208
296.8594, 554.4447
297.3416, 555.3060
297.8237, 556.6882
298.3058, 558.4655
298.7879, 560.7477
299.2700, 562.9037
299.7521, 563.8203
300.2343, 563.8882
300.7164, 564.3148
301.1985, 566.0416
301.6806, 568.3703
302.1627, 570.2766
302.6448, 571.7432
303.1270, 572.7357
303.6091, 572.8575
304.0912, 572.4919
304.5733, 572.4460
305.0554, 573.1844
305.5375, 574.3304
306.0197, 575.7040
306.5018, 577.2640
306.9839, 578.3969
307.4660, 578.3800
307.9481, 577.6996
308.4302, 577.0404
308.9124, 576.6247
309.3945, 576.2980
309.8766, 576.0287
310.3587, 575.7794
310.8408, 575.3578
311.3229, 574.6483
311.8051, 573.7083
312.2872, 572.5928
312.7693, 571.2103
313.2514, 569.8281
313.7335, 568.4793
314.2156, 567.2289
314.6978, 566.2465
315.1799, 565.9531
315.6620, 565.7369
316.1441, 565.1707
316.6262, 564.1283
317.1083, 562.8662
317.5905, 561.4703
318.0726, 559.9300
318.5547, 558.2054
319.0368, 556.1505
319.5189, 554.0150
320.0010, 551.9248
320.4832, 549.8771
320.9653, 547.8885
321.4474, 546.1356
321.9295, 544.3923
322.4116, 542.3947
322.8937, 539.5257
323.3759, 536.9480
323.8580, 535.3132
324.3401, 534.7327
324.8222, 533.4005
325.3043, 530.2943
325.7864, 526.7556
326.2686, 523.8185
326.7507, 522.0608
327.2328, 520.3765
327.7149, 518.6010
328.1970, 516.7623
328.6791, 515.0310
329.1613, 513.5585
329.6434, 512.0840
330.1255, 510.4723
330.6076, 508.5057
331.0897, 506.7192
331.5718, 505.3021
332.0540, 504.0634
332.5361, 502.4465
333.0182, 500.3151
333.5003, 497.9619
333.9824, 495.4862
334.4645, 492.7864
334.9467, 490.2215
335.4288, 487.7876
335.9109, 485.5114
336.3930, 483.4550
336.8751, 481.5197
337.3572, 480.0155
337.8394, 479.1801
338.3215, 479.0695
338.8036, 478.4765
339.2857, 477.2908
339.7678, 475.8098
340.2499, 474.2311
340.7320, 472.5209
341.2141, 471.0825
341.6963, 470.0508
342.1784, 469.3646
342.6605, 468.8528
343.1426, 468.5807
343.6247, 468.1839
344.1068, 467.3421
344.5890, 466.0789
345.0711, 464.6624
345.5532, 463.0891
346.0353, 461.4571
346.5174, 459.9164
346.9995, 458.4570
347.4817, 457.3324
347.9638, 456.9240
348.4459, 457.0089
348.9280, 456.7501
349.4101, 456.0507
349.8922, 455.1690
350.3744, 454.4718
350.8565, 453.8994
351.3386, 453.1953
351.8207, 452.0770
352.3028, 450.8180
352.7849, 449.8547
353.2671, 449.1881
353.7492, 448.6745
354.2313, 448.1005
354.7134, 447.6053
355.1955, 447.4682
355.6776, 448.2827
356.1598, 449.0221
356.6419, 448.4546
357.1240, 446.8208
357.6061, 445.3986
358.0882, 445.1783
358.5703, 445.4503
359.0525, 445.5234
359.5346, 445.1847
360.0167, 444.7478
360.4988, 444.2470
360.9809, 443.7744
361.4630, 443.5431
361.9452, 443.9026
362.4273, 444.3195
362.9094, 444.4056
363.3915, 443.9866
363.8736, 443.8331
364.3557, 444.6624
364.8379, 445.7321
365.3200, 446.1712
365.8021, 445.0663
366.2842, 444.0103
366.7663, 443.5328
367.2484, 443.6527
367.7306, 443.6730
368.2127, 443.3703
368.6948, 443.0447
369.1769, 442.8947
369.6590, 443.2304
370.1411, 443.3813
370.6233, 443.1972
371.1054, 442.7917
371.5875, 442.6078
372.0696, 442.9092
372.5517, 443.1116
373.0338, 442.8936
373.5160, 441.9175
373.9981, 441.5036
374.4802, 441.8160
374.9623, 442.5525
375.4444, 443.2661
375.9265, 444.0038
376.4087, 444.5966
376.8908, 444.9629
377.3729, 445.1112
377.8550, 445.3084
378.3371, 445.6053
378.8192, 445.8105
379.3014, 445.5984
379.7835, 444.9334
380.2656, 444.6609
380.7477, 445.0771
381.2298, 445.8540
381.7119, 446.1032
382.1941, 445.8089
382.6762, 445.5266
383.1583, 445.7348
383.6404, 446.2835
384.1225, 446.5560
384.6046, 446.4488
385.0868, 446.2151
385.5689, 446.1381
386.0510, 446.2009
386.5331, 446.3346
387.0152, 446.6272
387.4973, 446.9283
387.9795, 446.9568
388.4616, 446.7154
388.9437, 446.5224
389.4258, 446.5693
389.9079, 446.8419
390.3900, 447.3423
390.8722, 448.2968
391.3543, 449.2160
391.8364, 449.8186
392.3185, 450.1007
392.8006, 450.0676
393.2827, 449.5711
393.7649, 448.8513
394.2470, 447.9966
394.7291, 446.8521
395.2112, 446.0289
395.6933, 446.1377
396.1754, 446.6069
396.6576, 446.5849
397.1397, 445.3410
397.6218, 444.0644
398.1039, 443.1304
398.5860, 442.5794
399.0681, 442.0910
399.5503, 441.6725
400.0324, 441.2862
400.5145, 440.9019
400.9966, 440.3047
401.4787, 440.0346
401.9608, 440.4164
402.4430, 441.1870
402.9251, 441.2599
403.4072, 440.1986
403.8893, 439.1062
404.3714, 438.5072
404.8535, 438.5360
405.3357, 438.4703
405.8178, 438.2714
406.2999, 438.0245
406.7820, 437.8264
407.2641, 437.6599
407.7462, 437.6446
408.2284, 437.9067
408.7105, 438.3489
409.1926, 438.4751
409.6747, 438.2609
410.1568, 437.9232
410.6389, 437.6219
411.1211, 437.3566
411.6032, 437.0414
412.0853, 436.5632
412.5674, 436.2411
413.0495, 436.7416
413.5316, 437.9139
414.0138, 438.9618
414.4959, 439.2657
414.9780, 439.2492
415.4601, 439.5751
415.9422, 440.2977
416.4243, 441.0799
416.9065, 441.6740
417.3886, 442.1435
417.8707, 442.5642
418.3528, 442.7355
418.8349, 443.0833
419.3170, 444.0417
419.7992, 445.4820
420.2813, 446.7543
420.7634, 447.2841
421.2455, 447.7656
421.7276, 448.7566
422.2097, 450.7523
422.6919, 452.2873
423.1740, 452.5161
423.6561, 452.1766
424.1382, 452.4071
424.6203, 453.8029
425.1024, 455.3574
425.5846, 456.6944
426.0667, 457.7569
426.5488, 459.5758
427.0309, 462.8762
427.5130, 466.3163
427.9951, 468.9889
428.4773, 470.7050
428.9594, 471.9948
429.4415, 472.5443
429.9236, 472.8506
430.4057, 474.3363
430.8878, 477.3444
431.3700, 480.4640
431.8521, 482.9604
432.3342, 484.8375
432.8163, 487.4591
433.2984, 490.9663
433.7805, 494.7445
434.2627, 498.0717
434.7448, 500.9993
435.2269, 503.9989
435.7090, 507.1736
436.1911, 510.5641
436.6732, 514.3319
437.1554, 518.4417
437.6375, 522.5081
438.1196, 526.0746
438.6017, 529.4788
439.0838, 533.3146
439.5659, 537.7118
440.0480, 542.2479
440.5302, 546.9240
441.0123, 551.4863
441.4944, 555.5109
441.9765, 557.9729
442.4586, 560.5558
442.9407, 564.3602
443.4229, 569.2752
443.9050, 574.5212
444.3871, 580.6287
444.8692, 586.3488
445.3513, 590.7172
445.8334, 592.5358
446.3156, 594.9075
446.7977, 598.6280
447.2798, 603.1910
447.7619, 607.7067
448.2440, 612.2918
448.7261, 616.5823
449.2083, 620.2556
449.6904, 623.2642
450.1725, 627.0116
450.6546, 632.0243
451.1367, 637.0648
451.6188, 641.0936
452.1010, 643.7748
452.5831, 646.7048
453.0652, 650.2141
453.5473, 653.9286
454.0294, 657.1583
454.5115, 659.9240
454.9937, 662.1086
455.4758, 663.4134
455.9579, 664.0329
456.4400, 665.2764
456.9221, 667.2391
457.4042, 668.9892
457.8864, 669.3611
458.3685, 668.7676
458.8506, 668.4866
459.3327, 669.0356
459.8148, 669.6785
460.2969, 669.6623
460.7791, 669.0316
461.2612, 667.9337
461.7433, 666.6445
462.2254, 664.8096
462.7075, 662.0087
463.1896, 658.1287
463.6718, 653.9990
464.1539, 650.0155
464.6360, 646.0463
465.1181, 642.0257
465.6002, 637.8050
466.0823, 633.6793
466.5645, 630.0219
467.0466, 626.6122
467.5287, 622.6014
468.0108, 616.9073
468.4929, 611.4864
468.9750, 607.0872
469.4572, 603.9975
469.9393, 600.9128
470.4214, 598.0170
470.9035, 594.9684
471.3856, 591.2864
471.8677, 586.6388
472.3499, 582.4000
472.8320, 578.8563
473.3141, 575.8010
473.7962, 572.3842
474.2783, 568.5341
474.7604, 564.8770
475.2426, 561.9922
475.7247, 559.6970
476.2068, 556.8304
476.6889, 553.2513
477.1710, 549.6882
477.6531, 546.8935
478.1353, 544.7596
478.6174, 543.0306
479.0995, 541.8947
479.5816, 540.8060
480.0637, 539.0030
480.5458, 536.6737
481.0280, 534.5617
481.5101, 533.2691
481.9922, 532.2245
482.4743, 530.9545
482.9564, 529.3345
483.4385, 527.8056
483.9207, 526.6356
484.4028, 525.6226
484.8849, 524.5583
485.3670, 523.2845
485.8491, 522.1106
486.3312, 521.0814
486.8134, 520.2102
487.2955, 519.5133
487.7776, 519.1798
488.2597, 518.8378
488.7418, 518.3481
489.2239, 517.7019
489.7061, 516.9332
490.1882, 515.8257
490.6703, 514.9189
491.1524, 514.9319
491.6345, 515.9966
492.1166, 516.9277
492.5988, 517.4301
493.0809, 517.7216
493.5630, 518.5598
494.0451, 519.9138
494.5272, 520.8037
495.0093, 520.0505
495.4915, 518.5043
495.9736, 518.2251
496.4557, 519.3506
496.9378, 520.8597
497.4199, 522.1400
497.9020, 523.1481
498.3842, 523.7708
498.8663, 523.8256
499.3484, 523.7283
499.8305, 523.5367
500.3126, 523.3920
500.7947, 523.6448
501.2769, 525.3389
501.7590, 526.6859
502.2411, 526.6131
502.7232, 524.7943
503.2053, 523.4298
503.6874, 523.2980
504.1696, 523.4240
504.6517, 523.1098
505.1338, 522.1555
505.6159, 521.0980
506.0980, 519.9540
506.5801, 518.7244
507.0623, 517.4543
507.5444, 516.1862
508.0265, 514.6529
508.5086, 512.5829
508.9907, 510.0913
509.4728, 508.1769
509.9550, 506.8901
510.4371, 505.8373
510.9192, 504.8414
511.4013, 503.8328
511.8834, 502.5440
512.3655, 500.9008
512.8477, 499.0814
513.3298, 497.1389
513.8119, 495.1823
514.2940, 493.4633
514.7761, 492.1357
515.2582, 491.0695
515.7404, 490.1591
516.2225, 489.4081
516.7046, 488.8489
517.1867, 488.8921
517.6688, 488.8552
518.1509, 488.1979
518.6331, 486.4211
519.1152, 485.0505
519.5973, 484.6514
520.0794, 484.6601
520.5615, 484.3670
521.0436, 483.5280
521.5258, 482.7313
522.0079, 482.0080
522.4900, 481.3826
522.9721, 481.0623
523.4542, 481.1888
523.9363, 481.2140
524.4185, 480.8412
524.9006, 480.0721
525.3827, 479.1635
525.8648, 478.0710
526.3469, 477.0732
526.8290, 476.5254
527.3112, 476.3520
527.7933, 476.2581
528.2754, 476.2396
528.7575, 476.1667
529.2396, 475.8657
529.7217, 475.3778
530.2039, 474.8270
530.6860, 473.8989
531.1681, 473.2059
531.6502, 473.3918
532.1323, 474.4546
532.6144, 475.2352
533.0966, 474.8179
533.5787, 474.2419
534.0608, 474.2675
534.5429, 475.6081
535.0250, 476.5672
535.5071, 476.9852
535.9893, 476.9471
536.4714, 476.5000
536.9535, 475.3493
537.4356, 474.3588
537.9177, 473.6958
538.3998, 473.3518
538.8820, 473.3990
539.3641, 473.9442
539.8462, 474.4004
540.3283, 474.2501
540.8104, 473.6154
541.2925, 473.3761
541.7747, 473.5939
542.2568, 474.0515
542.7389, 474.8110
543.2210, 475.6248
543.7031, 475.8191
544.1852, 474.7995
544.6674, 473.7626
545.1495, 473.9955
545.6316, 475.0904
546.1137, 476.0258
546.5958, 476.1663
547.0779, 476.1771
547.5601, 476.4624
548.0422, 477.0548
548.5243, 477.4537
549.0064, 476.9973
549.4885, 476.7095
549.9706, 477.2835
550.4528, 479.5652
550.9349, 481.0962
551.4170, 481.7305
551.8991, 481.7470
552.3812, 481.3762
552.8633, 480.3618
553.3455, 480.0359
553.8276, 480.8995
554.3097, 482.5712
554.7918, 483.9872
555.2739, 485.1279
555.7560, 485.7969
556.2382, 485.4528
556.7203, 484.6288
557.2024, 484.5532
557.6845, 485.2978
558.1666, 486.2960
558.6487, 487.1945
559.1309, 488.0262
559.6130, 488.8351
560.0951, 489.7297
560.5772, 490.4270
561.0593, 490.3327
561.5414, 490.0176
562.0236, 490.4876
562.5057, 493.0847
562.9878, 495.3450
563.4699, 496.3889
563.9520, 496.3398
564.4341, 496.6243
564.9163, 497.2860
565.3984, 498.2154
565.8805, 499.4050
566.3626, 500.9081
566.8447, 502.4105
567.3268, 503.9464
567.8090, 505.4349
568.2911, 506.7525
568.7732, 507.9229
569.2553, 509.0311
569.7374, 510.0749
570.2195, 511.1386
570.7017, 512.3934
571.1838, 513.8068
571.6659, 515.2452
572.1480, 516.8303
572.6301, 518.2978
573.1122, 519.1656
573.5944, 519.5591
574.0765, 520.4809
574.5586, 523.1743
575.0407, 525.9364
575.5228, 527.5429
576.0049, 527.0120
576.4871, 527.6745
576.9692, 530.6063
577.4513, 534.3271
577.9334, 537.5668
578.4155, 540.1832
578.8976, 542.4659
579.3798, 544.1786
579.8619, 545.7935
580.3440, 548.4818
580.8261, 552.2936
581.3082, 556.4391
581.7903, 560.9132
582.2725, 565.3730
582.7546, 568.2726
583.2367, 569.7561
583.7188, 571.7463
584.2009, 576.1600
584.6830, 581.6811
585.1652, 586.5838
585.6473, 590.5942
586.1294, 594.4234
586.6115, 597.8456
587.0936, 601.6281
587.5757, 606.5400
588.0578, 614.1880
588.5399, 621.3026
589.0220, 627.0734
589.5042, 631.9119
589.9863, 636.7859
590.4684, 641.5051
590.9505, 646.4670
591.4326, 651.7359
591.9147, 657.3201
592.3969, 663.3948
592.8790, 670.0720
593.3611, 676.7781
593.8432, 683.0573
594.3253, 688.9551
594.8074, 695.3930
595.2896, 702.4504
595.7717, 709.6590
596.2538, 716.5392
596.7359, 723.2606
597.2180, 730.2504
597.7001, 737.7380
598.1823, 744.9353
598.6644, 750.9660
599.1465, 756.3756
599.6286, 762.1218
600.1107, 769.1888
600.5928, 775.8524
601.0750, 781.3943
601.5571, 785.9091
602.0392, 790.6483
602.5213, 796.0286
603.0034, 801.1348
603.4855, 805.4733
603.9677, 809.0110
604.4498, 812.7286
604.9319, 816.7662
605.4140, 820.6042
605.8961, 823.6509
606.3782, 826.0065
606.8604, 828.1616
607.3425, 830.2723
607.8246, 831.8573
608.3067, 831.6981
608.7888, 830.6031
609.2709, 830.3702
609.7531, 832.6073
610.2352, 834.7806
610.7173, 835.1786
611.1994, 834.2062
611.6815, 832.9805
612.1636, 831.7405
612.6458, 830.4360
613.1279, 828.9664
613.6100, 827.3468
614.0921, 825.9787
614.5742, 825.1191
615.0563, 824.1676
615.5385, 822.6968
616.0206, 820.5237
616.5027, 818.9055
616.9848, 817.9523
617.4669, 817.2369
617.9490, 816.3677
618.4312, 815.3475
618.9133, 814.2047
619.3954, 812.9296
619.8775, 811.5369
620.3596, 809.5875
620.8417, 807.5306
621.3239, 806.3971
621.8060, 807.5032
622.2881, 808.7985
622.7702, 809.0143
623.2523, 808.3878
623.7344, 807.9518
624.2166, 808.1247
624.6987, 808.3771
625.1808, 808.4429
625.6629, 808.2792
626.1450, 808.4561
626.6271, 809.2472
627.1093, 809.9138
627.5914, 809.7383
628.0735, 808.6105
628.5556, 808.3164
629.0377, 809.0744
629.5198, 810.1622
630.0020, 810.8217
630.4841, 811.1295
630.9662, 811.2797
631.4483, 811.2504
631.9304, 811.2755
632.4125, 811.7832
632.8947, 812.5144
633.3768, 812.9423
633.8589, 812.3213
634.3410, 811.9082
634.8231, 812.3438
635.3052, 813.5109
635.7874, 814.6357
636.2695, 815.8984
636.7516, 816.7683
637.2337, 816.7716
637.7158, 815.8070
638.1979, 816.0500
638.6801, 817.6563
639.1622, 819.9389
639.6443, 822.6387
640.1264, 825.6285
640.6085, 828.1008
641.0906, 829.9349
641.5728, 831.4211
642.0549, 832.7584
642.5370, 833.9973
643.0191, 835.2243
643.5012, 836.3350
643.9833, 837.7225
644.4655, 840.1322
644.9476, 842.9091
645.4297, 845.0271
645.9118, 845.2452
646.3939, 845.8305
646.8760, 847.4427
647.3582, 849.8989
647.8403, 852.5927
648.3224, 856.0726
648.8045, 858.7137
649.2866, 859.4232
