##NAMES=Cesbronite
##RRUFFID=R070198
##IDEAL CHEMISTRY=Cu^2+^_3_Te^6+^O_4_(OH)_4_
##LOCALITY=Bambollita mine, Moctezuma, Municipio de Moctezuma, Sonora, Mexico
##OWNER=RRUFF
##SOURCE=Michael Scott
##DESCRIPTION=Dark green prismatic crystals associated with quartz
##STATUS=The identification of this mineral has been confirmed only by single crystal X-ray diffraction.
##URL=rruff.info/R070198
189.2882, 2320.581
189.7703, 2333.704
190.2524, 2341.751
190.7345, 2345.958
191.2166, 2344.198
191.6987, 2337.862
192.1809, 2337.105
192.6630, 2347.117
193.1451, 2358.458
193.6272, 2364.044
194.1093, 2364.587
194.5914, 2364.350
195.0736, 2366.110
195.5557, 2369.556
196.0378, 2372.052
196.5199, 2370.002
197.0020, 2371.962
197.4841, 2385.127
197.9663, 2406.897
198.4484, 2427.849
198.9305, 2443.352
199.4126, 2453.445
199.8947, 2457.830
200.3768, 2451.711
200.8590, 2446.628
201.3411, 2451.816
201.8232, 2463.167
202.3053, 2470.454
202.7874, 2462.778
203.2695, 2445.403
203.7517, 2442.782
204.2338, 2466.304
204.7159, 2485.898
205.1980, 2481.893
205.6801, 2464.528
206.1622, 2453.289
206.6444, 2461.727
207.1265, 2482.773
207.6086, 2494.280
208.0907, 2492.446
208.5728, 2487.767
209.0549, 2484.239
209.5371, 2481.275
210.0192, 2478.198
210.5013, 2475.116
210.9834, 2471.344
211.4655, 2463.668
211.9476, 2447.522
212.4298, 2438.382
212.9119, 2448.120
213.3940, 2465.303
213.8761, 2476.292
214.3582, 2474.190
214.8403, 2467.028
215.3225, 2471.166
215.8046, 2492.024
216.2867, 2507.989
216.7688, 2509.547
217.2509, 2504.309
217.7330, 2496.797
218.2152, 2487.296
218.6973, 2481.294
219.1794, 2489.637
219.6615, 2517.232
220.1436, 2539.101
220.6257, 2544.618
221.1079, 2543.735
221.5900, 2542.317
222.0721, 2541.640
222.5542, 2541.140
223.0363, 2539.021
223.5184, 2534.460
224.0006, 2534.449
224.4827, 2544.936
224.9648, 2557.545
225.4469, 2568.524
225.9290, 2577.105
226.4111, 2581.958
226.8933, 2580.300
227.3754, 2571.923
227.8575, 2564.411
228.3396, 2556.163
228.8217, 2551.773
229.3038, 2555.520
229.7859, 2566.468
230.2681, 2578.199
230.7502, 2584.527
231.2323, 2586.239
231.7144, 2593.191
232.1965, 2613.038
232.6786, 2629.132
233.1608, 2627.202
233.6429, 2613.120
234.1250, 2604.894
234.6071, 2618.858
235.0892, 2648.890
235.5714, 2667.824
236.0535, 2673.002
236.5356, 2670.966
237.0177, 2658.534
237.4998, 2642.659
237.9819, 2636.962
238.4641, 2651.988
238.9462, 2679.100
239.4283, 2700.824
239.9104, 2717.876
240.3925, 2727.005
240.8746, 2718.723
241.3568, 2704.109
241.8389, 2697.023
242.3210, 2703.221
242.8031, 2716.913
243.2852, 2732.277
243.7673, 2750.567
244.2495, 2763.332
244.7316, 2761.063
245.2137, 2754.288
245.6958, 2754.482
246.1779, 2765.817
246.6600, 2777.407
247.1422, 2776.516
247.6243, 2763.095
248.1064, 2753.185
248.5885, 2756.019
249.0706, 2760.539
249.5527, 2751.916
250.0349, 2727.527
250.5170, 2710.090
250.9991, 2723.485
251.4812, 2760.927
251.9633, 2783.524
252.4454, 2777.760
252.9276, 2762.470
253.4097, 2756.854
253.8918, 2760.012
254.3739, 2761.918
254.8560, 2757.478
255.3381, 2748.312
255.8203, 2736.394
256.3024, 2719.363
256.7845, 2706.652
257.2666, 2713.878
257.7487, 2734.127
258.2308, 2744.277
258.7130, 2728.998
259.1951, 2703.740
259.6772, 2689.876
260.1593, 2689.366
260.6414, 2690.037
261.1235, 2681.498
261.6057, 2667.973
262.0878, 2661.533
262.5699, 2672.626
263.0520, 2683.829
263.5341, 2677.526
264.0162, 2655.806
264.4984, 2638.049
264.9805, 2635.355
265.4626, 2642.801
265.9447, 2646.300
266.4268, 2644.161
266.9089, 2641.181
267.3911, 2640.542
267.8732, 2640.973
268.3553, 2638.504
268.8374, 2630.938
269.3195, 2621.350
269.8016, 2615.777
270.2838, 2614.824
270.7659, 2614.217
271.2480, 2613.201
271.7301, 2611.780
272.2122, 2610.128
272.6943, 2608.306
273.1765, 2605.516
273.6586, 2599.269
274.1407, 2587.449
274.6228, 2585.196
275.1049, 2601.676
275.5870, 2622.354
276.0692, 2637.042
276.5513, 2644.376
277.0334, 2645.013
277.5155, 2638.167
277.9976, 2623.478
278.4797, 2613.667
278.9619, 2610.061
279.4440, 2609.309
279.9261, 2613.449
280.4082, 2619.523
280.8903, 2619.495
281.3724, 2607.678
281.8546, 2587.470
282.3367, 2576.150
282.8188, 2582.500
283.3009, 2586.731
283.7830, 2581.720
284.2651, 2574.177
284.7473, 2574.495
285.2294, 2586.581
285.7115, 2603.213
286.1936, 2609.870
286.6757, 2598.942
287.1578, 2589.443
287.6400, 2580.393
288.1221, 2573.334
288.6042, 2569.818
289.0863, 2569.853
289.5684, 2571.883
290.0505, 2574.255
290.5327, 2577.076
291.0148, 2579.743
291.4969, 2580.820
291.9790, 2583.106
292.4611, 2589.881
292.9432, 2599.066
293.4254, 2605.419
293.9075, 2604.616
294.3896, 2597.506
294.8717, 2592.214
295.3538, 2587.101
295.8359, 2586.373
296.3181, 2596.623
296.8002, 2609.797
297.2823, 2614.492
297.7644, 2604.944
298.2465, 2588.256
298.7286, 2580.113
299.2108, 2584.980
299.6929, 2586.499
300.1750, 2574.042
300.6571, 2561.819
301.1392, 2562.997
301.6213, 2579.477
302.1035, 2597.422
302.5855, 2600.234
303.0677, 2587.314
303.5498, 2579.529
304.0319, 2583.642
304.5140, 2588.755
304.9961, 2587.072
305.4782, 2579.979
305.9604, 2573.977
306.4425, 2572.927
306.9246, 2575.870
307.4067, 2580.698
307.8888, 2588.222
308.3709, 2595.322
308.8531, 2600.609
309.3352, 2604.071
309.8173, 2604.916
310.2994, 2600.420
310.7815, 2595.997
311.2636, 2601.839
311.7458, 2617.158
312.2279, 2620.405
312.7100, 2594.159
313.1921, 2556.579
313.6742, 2541.146
314.1563, 2554.204
314.6385, 2569.586
315.1206, 2574.541
315.6027, 2572.826
316.0848, 2573.396
316.5669, 2579.186
317.0490, 2584.701
317.5312, 2580.181
318.0133, 2563.659
318.4954, 2558.048
318.9775, 2579.871
319.4596, 2604.922
319.9417, 2609.280
320.4239, 2592.876
320.9060, 2573.443
321.3881, 2564.727
321.8702, 2566.282
322.3523, 2565.521
322.8344, 2557.786
323.3166, 2553.114
323.7987, 2556.720
324.2808, 2565.719
324.7629, 2575.051
325.2450, 2582.434
325.7271, 2588.057
326.2093, 2592.441
326.6914, 2595.738
327.1735, 2597.311
327.6556, 2595.394
328.1377, 2592.925
328.6198, 2593.129
329.1020, 2596.146
329.5841, 2598.791
330.0662, 2597.700
330.5483, 2592.917
331.0304, 2583.932
331.5125, 2558.189
331.9947, 2540.405
332.4768, 2546.001
332.9589, 2566.584
333.4410, 2583.427
333.9231, 2584.043
334.4052, 2572.596
334.8874, 2563.893
335.3695, 2555.710
335.8516, 2555.159
336.3337, 2574.660
336.8158, 2596.499
337.2979, 2600.376
337.7801, 2579.670
338.2622, 2553.426
338.7443, 2545.765
339.2264, 2557.554
339.7085, 2565.259
340.1906, 2560.611
340.6728, 2555.091
341.1549, 2559.210
341.6370, 2571.582
342.1191, 2581.370
342.6012, 2581.242
343.0833, 2574.934
343.5655, 2570.059
344.0476, 2567.068
344.5297, 2565.102
345.0118, 2564.087
345.4939, 2563.662
345.9760, 2562.795
346.4582, 2559.990
346.9403, 2558.232
347.4224, 2559.654
347.9045, 2563.877
348.3866, 2571.505
348.8687, 2585.429
349.3509, 2597.698
349.8330, 2588.370
350.3151, 2546.540
350.7972, 2519.045
351.2793, 2521.289
351.7614, 2537.790
352.2436, 2556.337
352.7257, 2573.773
353.2078, 2586.674
353.6899, 2591.372
354.1720, 2587.245
354.6541, 2581.354
355.1363, 2569.741
355.6184, 2560.820
356.1005, 2560.281
356.5826, 2564.405
357.0647, 2565.734
357.5468, 2560.223
358.0290, 2551.061
358.5111, 2547.389
358.9932, 2552.334
359.4753, 2557.729
359.9574, 2566.505
360.4395, 2573.018
360.9217, 2571.272
361.4038, 2561.375
361.8859, 2550.150
362.3680, 2544.814
362.8501, 2545.601
363.3322, 2545.883
363.8144, 2544.890
364.2965, 2544.383
364.7786, 2545.333
365.2607, 2547.232
365.7428, 2549.261
366.2249, 2551.413
366.7071, 2553.001
367.1892, 2551.547
367.6713, 2546.301
368.1534, 2545.064
368.6355, 2552.428
369.1176, 2564.191
369.5998, 2578.073
370.0819, 2595.911
370.5640, 2603.042
371.0461, 2579.449
371.5282, 2541.464
372.0103, 2526.624
372.4925, 2543.583
372.9746, 2568.113
373.4567, 2580.077
373.9388, 2579.022
374.4209, 2572.327
374.9030, 2552.211
375.3852, 2533.829
375.8673, 2526.905
376.3494, 2529.353
376.8315, 2534.630
377.3136, 2539.636
377.7957, 2544.959
378.2779, 2552.292
378.7600, 2568.411
379.2421, 2577.029
379.7242, 2574.488
380.2063, 2566.529
380.6884, 2555.261
381.1706, 2542.437
381.6527, 2532.752
382.1348, 2531.573
382.6169, 2539.431
383.0990, 2545.389
383.5811, 2547.349
384.0633, 2549.547
384.5454, 2554.551
385.0275, 2560.071
385.5096, 2562.801
385.9917, 2561.262
386.4738, 2556.442
386.9560, 2548.218
387.4381, 2534.906
387.9202, 2527.646
388.4023, 2532.171
388.8844, 2541.121
389.3665, 2552.529
389.8487, 2565.251
390.3308, 2570.637
390.8129, 2554.131
391.2950, 2528.713
391.7771, 2527.553
392.2592, 2557.196
392.7414, 2580.943
393.2235, 2567.107
393.7056, 2529.969
394.1877, 2515.125
394.6698, 2540.728
395.1519, 2567.046
395.6341, 2573.705
396.1162, 2566.111
396.5983, 2553.704
397.0804, 2538.958
397.5625, 2525.059
398.0446, 2516.625
398.5268, 2514.955
399.0089, 2515.833
399.4910, 2520.315
399.9731, 2526.313
400.4552, 2532.030
400.9373, 2538.088
401.4194, 2547.361
401.9016, 2562.391
402.3837, 2580.590
402.8658, 2591.362
403.3479, 2592.677
403.8300, 2588.809
404.3121, 2574.250
404.7943, 2559.209
405.2764, 2553.185
405.7585, 2557.391
406.2406, 2564.434
406.7227, 2567.428
407.2048, 2566.471
407.6870, 2563.561
408.1691, 2556.495
408.6512, 2551.135
409.1333, 2552.846
409.6154, 2557.964
410.0975, 2559.801
410.5797, 2555.307
411.0618, 2548.258
411.5439, 2541.432
412.0260, 2535.073
412.5081, 2530.591
412.9902, 2527.583
413.4724, 2528.054
413.9545, 2538.113
414.4366, 2559.279
414.9187, 2573.334
415.4008, 2571.853
415.8829, 2565.414
416.3651, 2562.930
416.8472, 2564.767
417.3293, 2568.326
417.8114, 2572.561
418.2935, 2576.457
418.7756, 2574.153
419.2578, 2557.464
419.7399, 2544.667
420.2220, 2534.012
420.7041, 2529.978
421.1862, 2541.826
421.6683, 2568.837
422.1505, 2595.034
422.6326, 2601.200
423.1147, 2585.852
423.5968, 2572.322
424.0789, 2555.532
424.5610, 2547.703
425.0432, 2562.736
425.5253, 2586.608
426.0074, 2595.428
426.4895, 2576.175
426.9716, 2550.489
427.4537, 2548.295
427.9359, 2568.390
428.4180, 2582.276
428.9001, 2579.848
429.3822, 2573.317
429.8643, 2577.073
430.3464, 2590.213
430.8286, 2601.598
431.3107, 2609.916
431.7928, 2614.071
432.2749, 2610.427
432.7570, 2600.510
433.2391, 2592.546
433.7213, 2590.987
434.2034, 2594.607
434.6855, 2599.728
435.1676, 2612.057
435.6497, 2617.683
436.1318, 2610.294
436.6140, 2599.617
437.0961, 2593.440
437.5782, 2592.757
438.0603, 2594.173
438.5424, 2594.134
439.0245, 2593.057
439.5067, 2598.524
439.9888, 2616.147
440.4709, 2632.136
440.9530, 2646.971
441.4351, 2656.640
441.9172, 2654.634
442.3994, 2638.746
442.8815, 2620.558
443.3636, 2610.360
443.8457, 2607.811
444.3278, 2611.477
444.8099, 2623.444
445.2921, 2636.815
445.7742, 2647.441
446.2563, 2655.237
446.7384, 2659.126
447.2205, 2656.380
447.7026, 2651.957
448.1848, 2648.827
448.6669, 2646.603
449.1490, 2643.973
449.6311, 2640.286
450.1132, 2637.143
450.5953, 2637.203
451.0775, 2642.087
451.5596, 2645.542
452.0417, 2642.554
452.5238, 2642.911
453.0059, 2657.609
453.4880, 2679.748
453.9702, 2693.004
454.4523, 2687.628
454.9344, 2669.904
455.4165, 2654.745
455.8986, 2640.410
456.3807, 2633.533
456.8629, 2639.150
457.3450, 2649.846
457.8271, 2665.640
458.3092, 2684.281
458.7913, 2695.909
459.2734, 2692.617
459.7556, 2679.123
460.2377, 2660.152
460.7198, 2634.858
461.2019, 2620.939
461.6840, 2632.206
462.1661, 2656.613
462.6483, 2668.343
463.1304, 2663.926
463.6125, 2657.817
464.0946, 2652.516
464.5767, 2648.431
465.0588, 2646.117
465.5410, 2645.577
466.0231, 2646.436
466.5052, 2648.603
466.9873, 2651.864
467.4694, 2654.185
467.9515, 2654.270
468.4337, 2655.055
468.9158, 2658.509
469.3979, 2661.832
469.8800, 2662.525
470.3621, 2660.094
470.8442, 2655.497
471.3264, 2649.153
471.8085, 2641.242
472.2906, 2632.852
472.7727, 2622.662
473.2548, 2614.985
473.7369, 2611.958
474.2191, 2613.021
474.7012, 2619.881
475.1833, 2637.400
475.6654, 2648.225
476.1475, 2635.668
476.6296, 2609.658
477.1118, 2588.608
477.5939, 2575.917
478.0760, 2572.353
478.5581, 2580.525
479.0402, 2600.532
479.5223, 2615.238
480.0045, 2625.774
480.4866, 2630.500
480.9687, 2627.254
481.4508, 2618.633
481.9329, 2604.806
482.4150, 2586.947
482.8972, 2573.376
483.3793, 2577.887
483.8614, 2603.351
484.3435, 2614.718
484.8256, 2603.036
485.3077, 2588.805
485.7899, 2574.759
486.2720, 2565.369
486.7541, 2569.100
487.2362, 2591.278
487.7183, 2617.324
488.2004, 2638.853
488.6826, 2653.943
489.1647, 2652.231
489.6468, 2628.443
490.1289, 2602.057
490.6110, 2589.493
491.0931, 2591.587
491.5753, 2601.640
492.0574, 2636.116
492.5395, 2660.358
493.0216, 2650.709
493.5037, 2625.018
493.9858, 2610.632
494.4680, 2615.903
494.9501, 2629.393
495.4322, 2637.088
495.9143, 2638.950
496.3964, 2634.948
496.8785, 2613.297
497.3607, 2599.810
497.8428, 2612.710
498.3249, 2635.394
498.8070, 2642.195
499.2891, 2622.571
499.7712, 2597.254
500.2533, 2586.791
500.7354, 2589.153
501.2176, 2595.480
501.6997, 2605.927
502.1818, 2615.056
502.6639, 2618.042
503.1460, 2615.321
503.6281, 2612.219
504.1103, 2604.787
504.5924, 2601.531
505.0745, 2611.822
505.5566, 2626.386
506.0387, 2629.164
506.5208, 2616.942
507.0030, 2602.826
507.4851, 2603.018
507.9672, 2619.053
508.4493, 2628.142
508.9314, 2628.439
509.4135, 2623.514
509.8957, 2608.410
510.3778, 2591.486
510.8599, 2582.812
511.3420, 2585.191
511.8241, 2592.949
512.3063, 2604.732
512.7884, 2618.027
513.2705, 2621.482
513.7526, 2612.232
514.2347, 2601.531
514.7169, 2596.601
515.1990, 2596.469
515.6811, 2596.301
516.1632, 2598.491
516.6453, 2597.212
517.1274, 2587.053
517.6096, 2574.367
518.0917, 2565.866
518.5738, 2562.880
519.0559, 2563.917
519.5380, 2567.928
520.0201, 2574.765
520.5023, 2583.627
520.9844, 2601.530
521.4665, 2609.442
521.9486, 2595.235
522.4307, 2576.051
522.9128, 2566.588
523.3950, 2568.772
523.8771, 2575.406
524.3592, 2584.792
524.8413, 2594.258
525.3234, 2597.425
525.8055, 2593.923
526.2877, 2588.577
526.7698, 2583.097
527.2519, 2577.843
527.7340, 2573.888
528.2161, 2571.492
528.6982, 2569.375
529.1804, 2566.562
529.6625, 2564.576
530.1446, 2564.189
530.6267, 2565.686
531.1088, 2570.867
531.5909, 2581.741
532.0731, 2593.071
532.5552, 2588.877
533.0373, 2561.687
533.5194, 2542.063
534.0015, 2534.432
534.4836, 2535.796
534.9658, 2551.205
535.4479, 2575.293
535.9300, 2589.615
536.4121, 2579.920
536.8942, 2563.863
537.3763, 2563.154
537.8585, 2573.078
538.3406, 2572.177
538.8227, 2552.010
539.3048, 2528.562
539.7869, 2522.440
540.2690, 2537.151
540.7512, 2548.304
541.2333, 2557.083
541.7154, 2561.458
542.1975, 2560.323
542.6796, 2554.497
543.1617, 2542.296
543.6439, 2523.961
544.1260, 2508.437
544.6081, 2509.581
545.0902, 2526.500
545.5723, 2535.507
546.0544, 2532.786
546.5366, 2529.243
547.0187, 2529.655
547.5008, 2533.365
547.9829, 2540.058
548.4650, 2551.032
548.9471, 2561.146
549.4292, 2571.421
549.9113, 2577.723
550.3934, 2569.942
550.8755, 2549.867
551.3577, 2535.747
551.8398, 2541.304
552.3219, 2560.978
552.8040, 2571.951
553.2861, 2569.884
553.7682, 2566.195
554.2504, 2556.336
554.7325, 2549.859
555.2146, 2556.462
555.6967, 2572.738
556.1788, 2585.134
556.6609, 2583.933
557.1431, 2577.371
557.6252, 2578.565
558.1073, 2586.874
558.5894, 2594.972
559.0715, 2601.962
559.5536, 2604.999
560.0358, 2599.043
560.5179, 2582.711
561.0000, 2572.409
561.4821, 2572.440
561.9642, 2573.989
562.4464, 2574.906
562.9285, 2574.375
563.4106, 2569.607
563.8927, 2560.558
564.3748, 2553.932
564.8569, 2559.507
565.3391, 2576.787
565.8212, 2586.396
566.3033, 2583.588
566.7854, 2582.921
567.2675, 2597.144
567.7496, 2613.716
568.2318, 2615.579
568.7139, 2598.179
569.1960, 2585.754
569.6781, 2594.033
570.1602, 2610.246
570.6423, 2620.531
571.1245, 2624.317
571.6066, 2625.759
572.0887, 2627.082
572.5708, 2627.687
573.0529, 2625.777
573.5350, 2618.392
574.0172, 2614.754
574.4993, 2617.247
574.9814, 2620.909
575.4635, 2622.832
575.9456, 2624.303
576.4277, 2629.614
576.9099, 2642.705
577.3920, 2652.564
577.8741, 2641.200
578.3562, 2615.361
578.8383, 2603.030
579.3204, 2610.106
579.8026, 2622.902
580.2847, 2631.783
580.7668, 2637.023
581.2489, 2640.681
581.7310, 2639.212
582.2131, 2641.100
582.6953, 2649.782
583.1774, 2660.891
583.6595, 2671.319
584.1416, 2680.386
584.6237, 2688.125
585.1058, 2693.720
585.5880, 2699.083
586.0701, 2711.477
586.5522, 2732.747
587.0343, 2745.615
587.5164, 2742.600
587.9985, 2733.981
588.4807, 2729.297
588.9628, 2728.102
589.4449, 2727.824
589.9270, 2730.545
590.4091, 2731.445
590.8912, 2724.448
591.3734, 2715.066
591.8555, 2712.231
592.3376, 2718.080
592.8197, 2729.629
593.3018, 2746.413
593.7839, 2767.126
594.2661, 2767.223
594.7482, 2728.646
595.2303, 2705.845
595.7124, 2733.810
596.1945, 2772.823
596.6766, 2785.983
597.1588, 2771.630
597.6409, 2762.535
598.1230, 2781.123
598.6051, 2805.771
599.0872, 2815.598
599.5693, 2812.056
600.0515, 2800.487
600.5336, 2782.419
601.0157, 2765.106
601.4978, 2758.865
601.9799, 2764.627
602.4620, 2776.317
602.9442, 2801.964
603.4263, 2823.981
603.9084, 2837.870
604.3905, 2845.804
604.8726, 2849.664
605.3547, 2849.937
605.8369, 2848.947
606.3190, 2847.834
606.8011, 2846.769
607.2832, 2846.652
607.7653, 2847.308
608.2474, 2845.809
608.7296, 2840.131
609.2117, 2833.215
609.6938, 2830.898
610.1759, 2835.486
610.6580, 2838.155
611.1401, 2836.972
611.6223, 2836.114
612.1044, 2837.390
612.5865, 2840.119
613.0686, 2842.812
613.5507, 2844.975
614.0328, 2848.284
614.5150, 2858.496
614.9971, 2871.249
615.4792, 2868.735
615.9613, 2848.598
616.4434, 2830.344
616.9255, 2823.772
617.4077, 2826.411
617.8898, 2833.568
618.3719, 2850.431
618.8540, 2859.498
619.3361, 2850.074
619.8182, 2842.426
620.3004, 2852.970
620.7825, 2872.915
621.2646, 2882.585
621.7467, 2873.816
622.2288, 2862.129
622.7109, 2870.240
623.1931, 2894.321
623.6752, 2908.494
624.1573, 2910.405
624.6394, 2903.836
625.1215, 2883.602
625.6036, 2860.072
626.0858, 2863.789
626.5679, 2910.840
627.0500, 2939.689
627.5321, 2927.617
628.0142, 2907.325
628.4963, 2899.192
628.9785, 2901.048
629.4606, 2904.398
629.9427, 2905.492
630.4248, 2904.514
630.9069, 2899.523
631.3890, 2891.200
631.8712, 2891.165
632.3533, 2902.689
632.8354, 2914.778
633.3175, 2922.662
633.7996, 2926.162
634.2817, 2923.838
634.7639, 2910.313
635.2460, 2905.718
635.7281, 2921.925
636.2102, 2941.459
636.6923, 2951.100
637.1744, 2953.552
637.6566, 2958.482
638.1387, 2970.345
638.6208, 2983.047
639.1029, 2987.408
639.5850, 2983.649
640.0671, 2976.438
640.5493, 2962.447
641.0314, 2956.089
641.5135, 2969.613
641.9956, 2994.130
642.4777, 3010.596
642.9598, 3018.040
643.4420, 3020.688
643.9241, 3016.283
644.4062, 3010.140
644.8883, 3003.378
645.3704, 2998.392
645.8525, 3001.167
646.3347, 3014.152
646.8168, 3028.329
647.2989, 3029.211
647.7810, 3017.761
648.2631, 3013.613
648.7452, 3020.035
649.2274, 3024.641
649.7095, 3017.682
650.1916, 3007.316
650.6737, 3010.673
651.1558, 3032.025
651.6379, 3048.136
652.1201, 3051.656
652.6022, 3052.288
653.0843, 3054.795
653.5664, 3059.463
654.0485, 3067.507
654.5306, 3079.014
655.0128, 3087.809
655.4949, 3080.973
655.9770, 3062.248
656.4591, 3065.765
656.9412, 3097.712
657.4233, 3122.358
657.9055, 3120.187
658.3876, 3106.183
658.8697, 3106.331
659.3518, 3123.687
659.8339, 3133.398
660.3160, 3125.644
660.7982, 3117.776
661.2803, 3122.182
661.7624, 3130.488
662.2445, 3128.077
662.7266, 3112.056
663.2087, 3095.077
663.6909, 3090.138
664.1730, 3093.953
664.6551, 3094.746
665.1372, 3092.284
665.6193, 3090.445
666.1014, 3091.656
666.5836, 3091.939
667.0657, 3084.807
667.5478, 3068.694
668.0299, 3059.709
668.5120, 3060.403
668.9941, 3064.956
669.4763, 3074.754
669.9584, 3085.594
670.4405, 3094.812
670.9226, 3101.013
671.4047, 3100.991
671.8868, 3089.772
672.3690, 3073.417
672.8511, 3064.102
673.3332, 3060.980
673.8153, 3054.687
674.2974, 3041.998
674.7795, 3029.588
675.2617, 3024.336
675.7438, 3025.837
676.2259, 3026.286
676.7080, 3025.714
677.1901, 3024.026
677.6722, 3020.665
678.1544, 3016.615
678.6365, 3014.174
679.1186, 3011.890
679.6007, 3004.219
680.0828, 2985.368
680.5649, 2966.677
681.0471, 2963.468
681.5292, 2970.264
682.0113, 2972.771
682.4934, 2968.620
682.9755, 2958.542
683.4576, 2941.648
683.9398, 2921.430
684.4219, 2910.646
684.9040, 2917.849
685.3861, 2916.638
685.8682, 2894.298
