##NAMES=Cesbronite
##RRUFFID=R080003
##IDEAL CHEMISTRY=Cu^2+^_3_Te^6+^O_4_(OH)_4_
##LOCALITY=Montezuma mine, Sonora, Mexico
##OWNER=William Pinch
##SOURCE=William Pinch
##DESCRIPTION=Green, sharp bipyramidal chisel-shaped crystals, associated with green prismatic jensenite. Holotype specimen
##STATUS=The identification of this mineral has been confirmed by single-crystal X-ray diffraction.
##URL=rruff.info/R080003
174.0593, 27.40508
174.5414, 27.25591
175.0235, 26.85833
175.5057, 26.61259
175.9878, 26.68590
176.4699, 26.88288
176.9520, 27.03815
177.4341, 27.07835
177.9162, 27.01664
178.3984, 26.88695
178.8805, 26.57113
179.3626, 26.34028
179.8447, 26.27249
180.3268, 26.29142
180.8089, 26.29859
181.2911, 26.23764
181.7732, 26.12739
182.2553, 26.07513
182.7374, 26.14787
183.2195, 26.20492
183.7016, 26.22188
184.1838, 26.20462
184.6659, 26.16153
185.1480, 26.09301
185.6301, 26.00475
186.1122, 25.95662
186.5943, 25.87295
187.0765, 25.89112
187.5586, 26.18352
188.0407, 26.65514
188.5228, 26.99091
189.0049, 26.95059
189.4870, 26.58340
189.9692, 26.31831
190.4513, 26.18621
190.9334, 26.12215
191.4155, 26.09594
191.8976, 26.10604
192.3797, 26.14090
192.8619, 26.19627
193.3440, 26.27286
193.8261, 26.36637
194.3082, 26.44862
194.7903, 26.56644
195.2724, 26.79866
195.7546, 27.16552
196.2367, 27.51190
196.7188, 27.79370
197.2009, 27.98189
197.6830, 27.99110
198.1651, 27.67462
198.6473, 27.24799
199.1294, 27.11838
199.6115, 27.41372
200.0936, 27.69087
200.5757, 27.76826
201.0578, 27.70221
201.5400, 27.52910
202.0221, 27.20832
202.5042, 26.83201
202.9863, 26.68476
203.4684, 26.90878
203.9505, 27.14368
204.4327, 27.34369
204.9148, 27.46643
205.3969, 27.42304
205.8790, 27.11561
206.3611, 26.63852
206.8432, 26.48268
207.3254, 27.02326
207.8075, 27.45642
208.2896, 27.52920
208.7717, 27.39695
209.2538, 27.29795
209.7359, 27.38729
210.2181, 27.64071
210.7002, 27.82979
211.1823, 27.86053
211.6644, 27.92156
212.1465, 28.11117
212.6286, 28.35238
213.1108, 28.49322
213.5929, 28.41754
214.0750, 28.15110
214.5571, 28.07820
215.0392, 28.34141
215.5213, 28.62461
216.0035, 28.85900
216.4856, 29.04670
216.9677, 29.19619
217.4498, 29.30414
217.9319, 29.37874
218.4140, 29.54961
218.8962, 29.87997
219.3783, 30.21661
219.8604, 30.50816
220.3425, 30.75877
220.8246, 30.98854
221.3067, 31.20612
221.7889, 31.41513
222.2710, 31.64294
222.7531, 31.89240
223.2352, 32.15410
223.7173, 32.40984
224.1994, 32.66797
224.6816, 32.96872
225.1637, 33.33360
225.6458, 33.76812
226.1279, 34.25587
226.6100, 34.82377
227.0921, 35.41602
227.5743, 36.03492
228.0564, 36.66864
228.5385, 37.20820
229.0206, 37.51054
229.5027, 37.71192
229.9848, 38.09866
230.4670, 38.75928
230.9491, 39.51491
231.4312, 40.21626
231.9133, 40.86417
232.3954, 41.54429
232.8775, 42.38927
233.3597, 43.23669
233.8418, 43.82745
234.3239, 44.01272
234.8060, 44.19014
235.2881, 44.87022
235.7702, 46.11977
236.2524, 47.24558
236.7345, 47.88851
237.2166, 48.31945
237.6987, 48.74321
238.1808, 49.19866
238.6629, 49.66349
239.1451, 50.11291
239.6272, 50.54887
240.1093, 50.96239
240.5914, 51.29055
241.0735, 51.62651
241.5556, 52.05091
242.0378, 52.58663
242.5199, 53.14980
243.0020, 53.66220
243.4841, 54.14182
243.9662, 54.48349
244.4483, 54.52738
244.9305, 54.52224
245.4126, 54.64226
245.8947, 54.92127
246.3768, 55.24461
246.8589, 55.47008
247.3410, 55.59764
247.8232, 55.61824
248.3053, 55.40215
248.7874, 55.17876
249.2695, 55.17681
249.7516, 55.39585
250.2337, 55.55865
250.7159, 55.23746
251.1980, 54.17013
251.6801, 53.33062
252.1622, 52.94946
252.6443, 52.60819
253.1264, 52.06812
253.6086, 51.30042
254.0907, 50.42218
254.5728, 49.57493
255.0549, 48.75961
255.5370, 47.96375
256.0191, 47.19435
256.5013, 46.43304
256.9834, 45.68609
257.4655, 44.94750
257.9476, 44.19671
258.4297, 43.40536
258.9118, 42.54393
259.3940, 41.75696
259.8761, 41.04050
260.3582, 40.38430
260.8403, 39.84872
261.3224, 39.39281
261.8045, 38.85882
262.2867, 38.06060
262.7688, 36.91497
263.2509, 36.11041
263.7330, 35.86631
264.2151, 35.68523
264.6972, 35.34990
265.1794, 34.86688
265.6615, 34.33528
266.1436, 33.82921
266.6257, 33.34534
267.1078, 32.95209
267.5899, 32.70827
268.0721, 32.47238
268.5542, 32.18801
269.0363, 31.86064
269.5184, 31.50384
270.0005, 31.11331
270.4826, 30.70018
270.9648, 30.44802
271.4469, 30.49192
271.9290, 30.51772
272.4111, 30.39493
272.8932, 30.16209
273.3753, 29.92038
273.8575, 29.72869
274.3396, 29.57516
274.8217, 29.39746
275.3038, 29.15328
275.7859, 28.93738
276.2680, 28.81585
276.7502, 28.74310
277.2323, 28.59324
277.7144, 28.27728
278.1965, 27.90445
278.6786, 27.84601
279.1607, 28.31488
279.6429, 28.64509
280.1250, 28.53502
280.6071, 28.18047
281.0892, 27.95258
281.5713, 28.00412
282.0534, 28.18005
282.5356, 28.16345
283.0177, 27.91535
283.4998, 27.66864
283.9819, 27.46273
284.4640, 27.29757
284.9461, 27.18103
285.4283, 27.11975
285.9104, 27.08398
286.3925, 27.01149
286.8746, 26.88535
287.3567, 26.86375
287.8388, 27.08191
288.3210, 27.38214
288.8031, 27.57123
289.2852, 27.61708
289.7673, 27.54845
290.2494, 27.32260
290.7315, 26.95267
291.2137, 26.74530
291.6958, 26.91211
292.1779, 27.17471
292.6600, 27.18696
293.1421, 26.90956
293.6242, 26.64700
294.1064, 26.70071
294.5885, 27.00002
295.0706, 27.15059
295.5527, 26.96819
296.0348, 26.72389
296.5169, 26.66488
296.9991, 26.78967
297.4812, 26.93667
297.9633, 27.01868
298.4454, 27.04232
298.9275, 27.04464
299.4096, 27.00110
299.8918, 26.96480
300.3739, 26.99771
300.8560, 27.08565
301.3381, 27.12498
301.8202, 27.05172
302.3023, 26.91231
302.7845, 26.80451
303.2666, 26.73348
303.7487, 26.68227
304.2308, 26.65730
304.7129, 26.64838
305.1950, 26.61842
305.6772, 26.55338
306.1593, 26.46414
306.6414, 26.34429
307.1235, 26.17947
307.6056, 26.08957
308.0877, 26.22127
308.5699, 26.46045
309.0520, 26.52580
309.5341, 26.32348
310.0162, 26.02677
310.4983, 25.80218
310.9804, 25.63979
311.4626, 25.54144
311.9447, 25.56352
312.4268, 25.63113
312.9089, 25.62243
313.3910, 25.51453
313.8731, 25.38506
314.3553, 25.31201
314.8374, 25.27168
315.3195, 25.18365
315.8016, 24.93059
316.2837, 24.68165
316.7658, 24.66334
317.2480, 24.88623
317.7301, 25.09558
318.2122, 25.13396
318.6943, 25.04692
319.1764, 24.95877
319.6585, 24.88530
320.1407, 24.80421
320.6228, 24.69663
321.1049, 24.56525
321.5870, 24.42710
322.0691, 24.29259
322.5512, 24.15246
323.0334, 23.98639
323.5155, 23.78263
323.9976, 23.59409
324.4797, 23.44152
324.9618, 23.32593
325.4439, 23.25987
325.9261, 23.26262
326.4082, 23.28567
326.8903, 23.24723
327.3724, 23.14546
327.8545, 23.09307
328.3366, 23.17508
328.8188, 23.31919
329.3009, 23.41907
329.7830, 23.46404
330.2651, 23.43650
330.7472, 23.27613
331.2293, 23.00994
331.7115, 22.78353
332.1936, 22.63812
332.6757, 22.53565
333.1578, 22.43242
333.6399, 22.32634
334.1220, 22.25841
334.6042, 22.30717
335.0863, 22.40677
335.5684, 22.32945
336.0505, 21.87328
336.5326, 21.43814
337.0147, 21.32159
337.4969, 21.46456
337.9790, 21.60088
338.4611, 21.61390
338.9432, 21.54572
339.4253, 21.49550
339.9074, 21.47800
340.3896, 21.44032
340.8717, 21.34704
341.3538, 21.22072
341.8359, 21.10552
342.3180, 21.01333
342.8001, 20.93438
343.2823, 20.83053
343.7644, 20.68334
344.2465, 20.65935
344.7286, 20.96964
345.2107, 21.32742
345.6928, 21.36243
346.1750, 21.02665
346.6571, 20.63154
347.1392, 20.44581
347.6213, 20.48614
348.1034, 20.54715
348.5855, 20.66131
349.0677, 20.76923
349.5498, 20.81912
350.0319, 20.82267
350.5140, 20.84768
350.9961, 20.95167
351.4782, 21.09921
351.9604, 21.12215
352.4425, 20.88771
352.9246, 20.71135
353.4067, 20.75350
353.8888, 20.90928
354.3709, 20.99351
354.8531, 20.93508
355.3352, 20.77761
355.8173, 20.58132
356.2994, 20.24269
356.7815, 20.10864
357.2636, 20.40571
357.7458, 20.81188
358.2279, 20.99445
358.7100, 20.90406
359.1921, 20.74464
359.6742, 20.74885
360.1563, 20.96589
360.6385, 21.03460
361.1206, 20.81617
361.6027, 20.59124
362.0848, 20.52973
362.5669, 20.60008
363.0490, 20.66831
363.5312, 20.64318
364.0133, 20.53600
364.4954, 20.43724
364.9775, 20.29262
365.4596, 20.21907
365.9417, 20.29028
366.4239, 20.43180
366.9060, 20.54867
367.3881, 20.60249
367.8702, 20.60822
368.3523, 20.59385
368.8344, 20.52273
369.3166, 20.49339
369.7987, 20.51336
370.2808, 20.56563
370.7629, 20.65759
371.2450, 20.77853
371.7271, 20.88491
372.2093, 20.92350
372.6914, 20.87867
373.1735, 20.86905
373.6556, 20.98818
374.1377, 21.04742
374.6198, 20.90622
375.1020, 20.65399
375.5841, 20.48230
376.0662, 20.51988
376.5483, 20.72271
377.0304, 20.88273
377.5125, 20.98739
377.9947, 21.06161
378.4768, 21.11136
378.9589, 21.13409
379.4410, 20.72466
379.9231, 21.19212
380.4052, 21.45992
380.8874, 21.53877
381.3695, 20.86280
381.8516, 21.16153
382.3337, 21.06965
382.8158, 20.96174
383.2979, 21.39767
383.7801, 20.83148
384.2622, 21.25878
384.7443, 21.28949
385.2264, 21.50171
385.7085, 21.32090
386.1906, 21.26148
386.6728, 21.59523
387.1549, 21.71127
387.6370, 21.48522
388.1191, 21.70897
388.6012, 21.12906
389.0833, 21.25438
389.5655, 21.68397
390.0476, 21.57461
390.5297, 21.71024
391.0118, 21.50388
391.4939, 21.24440
391.9760, 21.18933
392.4582, 21.37688
392.9403, 21.58050
393.4224, 21.59536
393.9045, 21.45452
394.3866, 21.37011
394.8687, 21.40485
395.3509, 21.44410
395.8330, 21.38512
396.3151, 21.25318
396.7972, 21.12771
397.2793, 21.02904
397.7614, 20.95839
398.2436, 20.92246
398.7257, 20.92318
399.2078, 20.94042
399.6899, 21.00632
400.1720, 21.06054
400.6541, 20.96922
401.1363, 20.63070
401.6184, 20.32838
402.1005, 20.29181
402.5826, 20.42772
403.0647, 20.45543
403.5468, 20.26258
404.0290, 20.01027
404.5111, 19.94980
404.9932, 20.09658
405.4753, 20.20056
405.9574, 20.18122
406.4395, 20.12128
406.9217, 20.11332
407.4038, 20.15897
407.8859, 20.17600
408.3680, 20.09006
408.8501, 19.91232
409.3322, 19.79716
409.8144, 19.80487
410.2965, 19.79735
410.7786, 19.70141
411.2607, 19.56153
411.7428, 19.44412
412.2249, 19.37554
412.7071, 19.36825
413.1892, 19.45795
413.6713, 19.79788
414.1534, 19.94829
414.6355, 19.75521
415.1176, 19.49466
415.5998, 19.33247
416.0819, 19.29892
416.5640, 19.37998
417.0461, 19.58640
417.5282, 19.92150
418.0103, 20.10732
418.4925, 19.98557
418.9746, 19.88102
419.4567, 19.88166
419.9388, 19.93686
420.4209, 19.96092
420.9030, 19.91414
421.3852, 19.85096
421.8673, 19.88996
422.3494, 20.07550
422.8315, 20.25118
423.3136, 20.41928
423.7957, 20.56175
424.2779, 20.65696
424.7600, 20.71088
425.2421, 20.75635
425.7242, 20.83316
426.2063, 20.93332
426.6884, 20.96238
427.1706, 20.84494
427.6527, 20.78518
428.1348, 20.92522
428.6169, 21.15634
429.0990, 21.32224
429.5811, 21.36053
430.0633, 21.33891
430.5454, 21.31752
431.0275, 21.29499
431.5096, 21.34637
431.9917, 21.54695
432.4738, 21.77741
432.9560, 21.89734
433.4381, 21.90832
433.9202, 21.94100
434.4023, 22.05944
434.8844, 22.23917
435.3665, 22.43974
435.8487, 22.65845
436.3308, 22.89857
436.8129, 23.20187
437.2950, 23.52599
437.7771, 23.71139
438.2592, 23.62237
438.7414, 23.53645
439.2235, 23.58100
439.7056, 23.74246
440.1877, 24.02840
440.6698, 24.46744
441.1519, 24.91391
441.6341, 25.11964
442.1162, 24.98465
442.5983, 24.89186
443.0804, 24.78563
443.5625, 24.78226
444.0446, 25.05188
444.5268, 25.53976
445.0089, 25.98591
445.4910, 26.18779
445.9731, 26.17200
446.4552, 26.20154
446.9373, 26.33368
447.4195, 26.44365
447.9016, 26.51687
448.3837, 26.55746
448.8658, 26.55400
449.3479, 26.50900
449.8300, 26.46675
450.3122, 26.50812
450.7943, 26.68118
451.2764, 26.75657
451.7585, 26.63147
452.2406, 26.50270
452.7227, 26.44414
453.2049, 26.44249
453.6870, 26.45442
454.1691, 26.45589
454.6512, 26.45224
455.1333, 26.45852
455.6154, 26.47880
456.0976, 26.49681
456.5797, 26.57455
457.0618, 26.60575
457.5439, 26.47286
458.0260, 26.16165
458.5081, 25.83444
458.9903, 25.58640
459.4724, 25.41956
459.9545, 25.36726
460.4366, 25.47922
460.9187, 25.57752
461.4008, 25.48248
461.8830, 25.26932
462.3651, 25.12472
462.8472, 25.18032
463.3293, 25.20773
463.8114, 24.99620
464.2935, 24.60333
464.7756, 24.22798
465.2578, 23.93430
465.7399, 23.71301
466.2220, 23.56235
466.7041, 23.49094
467.1862, 23.44481
467.6683, 23.47637
468.1505, 23.48891
468.6326, 23.38362
469.1147, 23.17261
469.5968, 22.95607
470.0789, 22.81021
470.5610, 22.71378
471.0432, 22.52680
471.5253, 22.04218
472.0074, 21.72246
472.4895, 21.73502
472.9716, 21.87226
473.4537, 21.91241
473.9359, 21.81262
474.4180, 21.71014
474.9001, 21.81106
475.3822, 22.16877
475.8643, 22.28112
476.3464, 21.90870
476.8286, 21.53448
477.3107, 21.29408
477.7928, 21.15969
478.2749, 21.08796
478.7570, 21.07338
479.2391, 21.06188
479.7213, 20.93246
480.2034, 20.65907
480.6855, 20.49139
481.1676, 20.54391
481.6497, 20.66719
482.1318, 20.74844
482.6140, 20.78807
483.0961, 20.80869
483.5782, 20.80053
484.0603, 20.78869
484.5424, 20.83332
485.0245, 20.93913
485.5067, 20.99654
485.9888, 20.91678
486.4709, 20.76391
486.9530, 20.70938
487.4351, 20.79454
487.9172, 20.87930
488.3994, 20.94451
488.8815, 20.97015
489.3636, 20.89884
489.8457, 20.72706
490.3278, 20.56512
490.8099, 20.52260
491.2921, 20.60530
491.7742, 20.66731
492.2563, 20.66095
492.7384, 20.69107
493.2205, 20.84879
493.7026, 21.04266
494.1848, 21.13542
494.6669, 21.07783
495.1490, 20.94530
495.6311, 20.85251
496.1132, 20.80874
496.5953, 20.77608
497.0775, 20.73855
497.5596, 20.72799
498.0417, 20.76801
498.5238, 20.84494
499.0059, 20.93713
499.4880, 21.04806
499.9702, 21.13984
500.4523, 21.12154
500.9344, 20.97458
501.4165, 20.83658
501.8986, 20.76337
502.3807, 20.69809
502.8629, 20.57998
503.3450, 20.41122
503.8271, 20.25838
504.3092, 20.14394
504.7913, 20.06859
505.2734, 20.04303
505.7556, 20.06748
506.2377, 20.11097
506.7198, 20.17741
507.2019, 20.23772
507.6840, 20.19697
508.1661, 19.99124
508.6483, 19.82053
509.1304, 19.77701
509.6125, 19.77508
510.0946, 19.68763
510.5767, 19.50903
511.0588, 19.38267
511.5410, 19.46580
512.0231, 19.75581
512.5052, 19.84085
512.9873, 19.51091
513.4694, 19.22335
513.9515, 19.07449
514.4337, 19.00891
514.9158, 18.97464
515.3979, 18.95127
515.8800, 18.92093
516.3621, 18.84046
516.8442, 18.69717
517.3264, 18.65248
517.8085, 18.83625
518.2906, 18.94875
518.7727, 18.80973
519.2548, 18.52895
519.7369, 18.29080
520.2191, 18.16205
520.7012, 18.08073
521.1833, 17.97270
521.6654, 17.84560
522.1475, 17.76370
522.6296, 17.75304
523.1118, 17.76969
523.5939, 17.79177
524.0760, 17.81359
524.5581, 17.76073
525.0402, 17.52106
525.5223, 17.29047
526.0045, 17.22135
526.4866, 17.27908
526.9687, 17.36269
527.4508, 17.43302
527.9329, 17.47910
528.4150, 17.47841
528.8972, 17.41211
529.3793, 17.33857
529.8614, 17.24028
530.3435, 17.15168
530.8256, 17.10760
531.3077, 17.08905
531.7899, 17.03584
532.2720, 16.90431
532.7541, 16.75132
533.2362, 16.74416
533.7183, 16.95691
534.2004, 17.10490
534.6826, 17.10989
535.1647, 17.05903
535.6468, 16.97305
536.1289, 16.86759
536.6110, 16.79098
537.0931, 16.79091
537.5753, 16.82840
538.0574, 16.82146
538.5395, 16.76685
539.0216, 16.74317
539.5037, 16.80350
539.9858, 16.89400
540.4680, 16.91838
540.9501, 16.86528
541.4322, 16.82619
541.9143, 16.83211
542.3964, 16.86055
542.8785, 16.90157
543.3607, 16.94752
543.8428, 16.97484
544.3249, 16.96871
544.8070, 16.93204
545.2891, 16.87444
545.7712, 16.74259
546.2534, 16.66523
546.7355, 16.69670
547.2176, 16.74468
547.6997, 16.73866
548.1818, 16.67933
548.6639, 16.60400
549.1461, 16.52667
549.6282, 16.46748
550.1103, 16.53839
550.5924, 16.82330
551.0745, 17.02047
551.5566, 16.94997
552.0388, 16.80951
552.5209, 16.74554
553.0030, 16.77129
553.4851, 16.82654
553.9672, 16.89919
554.4493, 16.97099
554.9315, 17.00280
555.4136, 16.99255
555.8957, 16.98046
556.3778, 16.98276
556.8599, 17.00225
557.3420, 17.04922
557.8242, 17.13042
558.3063, 17.21718
558.7884, 17.33152
559.2705, 17.43015
559.7526, 17.45391
560.2347, 17.41457
560.7169, 17.38861
561.1990, 17.43581
561.6811, 17.53186
562.1632, 17.55322
562.6453, 17.36018
563.1274, 17.33882
563.6096, 17.72216
564.0917, 18.12051
564.5738, 18.21608
565.0559, 18.03059
565.5380, 17.83969
566.0201, 17.84246
566.5023, 17.97802
566.9844, 18.09381
567.4665, 18.18839
567.9486, 18.27265
568.4307, 18.32298
568.9128, 18.38977
569.3950, 18.57491
569.8771, 18.89955
570.3592, 19.10668
570.8413, 19.01531
571.3234, 18.83242
571.8055, 18.73815
572.2877, 18.74729
572.7698, 18.86339
573.2519, 19.10000
573.7340, 19.40842
574.2161, 19.66458
574.6982, 19.88105
575.1804, 20.01557
575.6625, 19.97458
576.1446, 19.93807
576.6267, 20.00280
577.1088, 20.16626
577.5909, 20.40234
578.0731, 20.70736
578.5552, 21.03609
579.0373, 21.28830
579.5194, 21.45572
580.0015, 21.58567
580.4836, 21.62919
580.9658, 21.69897
581.4479, 21.91419
581.9300, 22.23729
582.4121, 22.50245
582.8942, 22.59024
583.3763, 22.64356
583.8585, 22.81976
584.3406, 23.08416
584.8227, 23.29396
585.3048, 23.38923
585.7869, 23.47250
586.2690, 23.70478
586.7512, 24.14950
587.2333, 24.41598
587.7154, 24.27612
588.1975, 24.21620
588.6796, 24.54425
589.1617, 25.05949
589.6439, 25.41987
590.1260, 25.50134
590.6081, 25.47603
591.0902, 25.58254
591.5723, 25.83442
592.0544, 26.09126
592.5366, 26.38588
593.0187, 26.62992
593.5008, 26.76359
593.9829, 26.83090
594.4650, 26.89796
594.9471, 26.98216
595.4293, 27.05769
595.9114, 27.05138
596.3935, 27.02888
596.8756, 27.19709
597.3577, 27.59561
597.8398, 27.93793
598.3220, 27.97992
598.8041, 27.77443
599.2862, 27.68402
599.7683, 27.78061
600.2504, 27.87810
600.7325, 27.91660
601.2147, 27.96454
601.6968, 28.11470
602.1789, 28.35300
602.6610, 28.57151
603.1431, 28.68649
603.6252, 28.70884
604.1074, 28.65526
604.5895, 28.44724
605.0716, 28.36993
605.5537, 28.64061
606.0358, 28.96021
606.5179, 29.09455
607.0001, 29.05481
607.4822, 29.03604
607.9643, 29.18645
608.4464, 29.37054
608.9285, 28.92971
609.4106, 29.51030
609.8928, 29.84936
610.3749, 29.95987
610.8570, 29.15729
611.3391, 29.53377
611.8212, 29.43774
612.3033, 29.32233
612.7855, 29.86476
613.2676, 29.19499
613.7497, 29.72699
614.2318, 29.77926
614.7139, 30.05109
615.1960, 29.84748
615.6782, 29.79074
616.1603, 30.20956
616.6424, 30.36506
617.1245, 30.10673
617.6066, 30.39252
618.0887, 29.70613
618.5709, 29.87285
619.0530, 30.40763
619.5351, 30.17320
620.0172, 30.46768
620.4993, 30.56073
620.9814, 29.73832
621.4636, 30.50798
621.9457, 30.58911
622.4278, 30.16993
622.9099, 30.19548
623.3920, 30.26995
623.8741, 30.38371
624.3563, 30.50247
624.8384, 30.65055
625.3205, 30.76671
625.8026, 30.88479
626.2847, 30.94264
626.7668, 30.81849
627.2490, 30.59769
627.7311, 30.50982
628.2132, 30.69831
628.6953, 31.03310
629.1774, 31.31435
629.6595, 31.54149
630.1417, 31.67517
630.6238, 31.68575
631.1059, 31.63659
631.5880, 31.54479
632.0701, 31.43154
632.5522, 31.37099
633.0344, 31.37637
633.5165, 31.43372
633.9986, 31.58714
634.4807, 31.76944
634.9628, 31.87286
635.4449, 31.87873
635.9271, 31.84309
636.4092, 31.81467
636.8913, 31.79248
637.3734, 31.76300
637.8555, 31.67356
638.3376, 31.66582
638.8198, 31.83978
639.3019, 32.03422
639.7840, 32.09645
640.2661, 32.04250
640.7482, 32.03627
641.2303, 32.23456
641.7125, 32.49361
642.1946, 32.56266
642.6767, 32.45816
643.1588, 32.37489
643.6409, 32.38123
644.1230, 32.41280
644.6052, 32.38024
645.0873, 32.26941
645.5694, 32.23323
646.0515, 32.38140
646.5336, 32.48024
647.0157, 32.41307
647.4979, 32.25252
647.9800, 32.06327
648.4621, 31.87876
648.9442, 31.77183
649.4263, 31.84354
649.9084, 32.07037
650.3906, 32.22535
650.8727, 32.29959
651.3548, 32.32445
651.8369, 32.23621
652.3190, 32.15515
652.8011, 32.25089
653.2833, 32.53139
653.7654, 32.70448
654.2475, 32.53217
654.7296, 32.30528
655.2117, 32.34026
655.6938, 32.56364
656.1760, 32.71171
656.6581, 32.68036
657.1402, 32.56171
657.6223, 32.48644
658.1044, 32.46180
658.5865, 32.43667
659.0687, 32.40479
659.5508, 32.37973
660.0329, 32.34774
660.5150, 32.33332
660.9971, 32.39505
661.4792, 32.53701
661.9614, 32.62614
662.4435, 32.52704
662.9256, 32.30479
663.4077, 32.08699
663.8898, 31.87823
664.3719, 31.72733
664.8541, 31.66261
665.3362, 31.65982
665.8183, 31.70406
666.3004, 31.86258
666.7825, 31.80985
667.2646, 31.31647
667.7468, 30.84207
668.2289, 30.61552
668.7110, 30.56245
669.1931, 30.55713
669.6752, 30.55329
670.1573, 30.55185
