##NAMES=Chabazite-Na
##RRUFFID=R061095
##IDEAL CHEMISTRY=(Na_3_K)Al_4_Si_8_O_24_&#183;11H_2_O
##LOCALITY=Vaitape, Bora Bora, French Polynesia
##OWNER=RRUFF
##SOURCE=Michael Scott
##DESCRIPTION=Clusters and druse of clear, colorless rhombohedral crystals
##STATUS=The identification of this mineral has been confirmed only by single crystal X-ray diffraction.
##URL=rruff.info/R061095
138.5035, 2557.933
138.9856, 2559.953
139.4677, 2549.911
139.9498, 2549.476
140.4319, 2580.040
140.9140, 2647.715
141.3961, 2724.793
141.8783, 2811.163
142.3604, 2906.737
142.8425, 3011.393
143.3246, 3125.112
143.8067, 3248.091
144.2888, 3381.627
144.7710, 3526.121
145.2531, 3681.321
145.7352, 3842.174
146.2173, 3961.816
146.6994, 4032.990
147.1815, 4101.588
147.6637, 4158.452
148.1458, 4185.896
148.6279, 4188.137
149.1100, 4197.221
149.5921, 4231.822
150.0742, 4275.307
150.5564, 4301.499
151.0385, 4306.624
151.5206, 4291.919
152.0027, 4250.743
152.4848, 4185.270
152.9669, 4119.991
153.4491, 4067.358
153.9312, 4020.336
154.4133, 3961.775
154.8954, 3882.811
155.3775, 3800.187
155.8596, 3732.021
156.3418, 3677.033
156.8239, 3622.552
157.3060, 3556.688
157.7881, 3484.736
158.2702, 3425.942
158.7523, 3384.882
159.2345, 3357.438
159.7166, 3339.079
160.1987, 3329.474
160.6808, 3323.980
161.1629, 3323.930
161.6451, 3327.635
162.1272, 3322.942
162.6093, 3301.924
163.0914, 3279.873
163.5735, 3271.471
164.0556, 3276.386
164.5378, 3280.506
165.0199, 3272.082
165.5020, 3252.730
165.9841, 3237.970
166.4662, 3236.014
166.9483, 3234.124
167.4305, 3219.201
167.9126, 3191.998
168.3947, 3170.468
168.8768, 3176.032
169.3589, 3208.342
169.8410, 3225.613
170.3232, 3215.039
170.8053, 3191.764
171.2874, 3160.455
171.7695, 3122.662
172.2516, 3089.171
172.7337, 3073.795
173.2159, 3077.669
173.6980, 3072.756
174.1801, 3046.909
174.6622, 3016.527
175.1443, 2989.532
175.6264, 2966.814
176.1085, 2948.029
176.5907, 2934.441
177.0728, 2926.565
177.5549, 2916.685
178.0370, 2906.221
178.5191, 2891.110
179.0012, 2866.394
179.4834, 2832.537
179.9655, 2798.116
180.4476, 2771.031
180.9297, 2751.773
181.4118, 2736.769
181.8939, 2733.034
182.3761, 2728.239
182.8582, 2716.178
183.3403, 2696.443
183.8224, 2672.865
184.3045, 2645.818
184.7866, 2612.945
185.2688, 2593.059
185.7509, 2609.984
186.2330, 2624.122
186.7151, 2612.816
187.1972, 2576.361
187.6793, 2534.910
188.1615, 2510.784
188.6436, 2508.411
189.1257, 2497.828
189.6078, 2465.717
190.0899, 2433.922
190.5720, 2412.038
191.0542, 2400.707
191.5363, 2394.773
192.0184, 2392.126
192.5005, 2395.097
192.9826, 2387.499
193.4647, 2356.189
193.9469, 2323.946
194.4290, 2299.021
194.9111, 2282.333
195.3932, 2271.265
195.8753, 2265.025
196.3574, 2264.987
196.8396, 2260.954
197.3217, 2247.793
197.8038, 2234.613
198.2859, 2226.742
198.7680, 2223.025
199.2501, 2217.701
199.7323, 2202.495
200.2144, 2174.860
200.6965, 2158.740
201.1786, 2174.992
201.6607, 2185.538
202.1428, 2172.054
202.6250, 2138.513
203.1071, 2102.281
203.5892, 2076.616
204.0713, 2061.594
204.5534, 2055.549
205.0355, 2073.629
205.5177, 2087.136
205.9998, 2085.290
206.4819, 2069.991
206.9640, 2048.548
207.4461, 2025.028
207.9282, 1999.415
208.4104, 1978.788
208.8925, 1968.845
209.3746, 1958.420
209.8567, 1942.484
210.3388, 1923.069
210.8209, 1905.125
211.3030, 1892.775
211.7852, 1885.568
212.2673, 1876.341
212.7494, 1862.218
213.2315, 1849.436
213.7136, 1839.532
214.1957, 1832.395
214.6779, 1828.297
215.1600, 1829.127
215.6421, 1833.057
216.1242, 1827.175
216.6063, 1798.678
217.0884, 1777.611
217.5706, 1778.755
218.0527, 1791.471
218.5348, 1799.498
219.0169, 1793.556
219.4990, 1776.216
219.9811, 1755.782
220.4633, 1724.264
220.9454, 1703.097
221.4275, 1703.958
221.9096, 1715.354
222.3917, 1722.377
222.8738, 1717.133
223.3560, 1704.698
223.8381, 1699.523
224.3202, 1708.350
224.8023, 1711.059
225.2844, 1699.115
225.7665, 1680.553
226.2487, 1663.288
226.7308, 1650.342
227.2129, 1640.406
227.6950, 1630.875
228.1771, 1620.766
228.6592, 1613.769
229.1414, 1611.403
229.6235, 1611.964
230.1056, 1615.692
230.5877, 1623.073
231.0698, 1629.257
231.5519, 1625.003
232.0341, 1606.112
232.5162, 1593.399
232.9983, 1600.650
233.4804, 1610.280
233.9625, 1609.370
234.4446, 1595.205
234.9268, 1577.224
235.4089, 1565.395
235.8910, 1560.024
236.3731, 1557.750
236.8552, 1560.561
237.3373, 1564.578
237.8195, 1568.120
238.3016, 1570.870
238.7837, 1571.772
239.2658, 1568.992
239.7479, 1562.641
240.2300, 1557.154
240.7122, 1551.708
241.1943, 1549.031
241.6764, 1552.661
242.1585, 1561.586
242.6406, 1568.835
243.1227, 1568.760
243.6049, 1562.573
244.0870, 1556.641
244.5691, 1550.662
245.0512, 1546.335
245.5333, 1547.405
246.0154, 1551.631
246.4975, 1551.107
246.9797, 1537.043
247.4618, 1515.516
247.9439, 1502.687
248.4260, 1500.918
248.9081, 1503.530
249.3902, 1507.101
249.8724, 1511.552
250.3545, 1517.004
250.8366, 1527.446
251.3187, 1537.203
251.8008, 1534.437
252.2829, 1516.306
252.7651, 1501.359
253.2472, 1505.473
253.7293, 1519.752
254.2114, 1528.329
254.6935, 1525.357
255.1756, 1518.539
255.6578, 1514.435
256.1399, 1513.038
256.6220, 1514.330
257.1041, 1519.969
257.5862, 1527.590
258.0684, 1532.471
258.5505, 1533.795
259.0326, 1533.513
259.5147, 1532.354
259.9968, 1530.504
260.4789, 1528.908
260.9611, 1528.285
261.4432, 1527.658
261.9253, 1524.814
262.4074, 1518.650
262.8895, 1513.879
263.3716, 1513.581
263.8537, 1515.875
264.3358, 1515.930
264.8180, 1511.404
265.3001, 1507.540
265.7822, 1515.653
266.2643, 1540.092
266.7464, 1552.271
267.2285, 1531.921
267.7107, 1503.113
268.1928, 1498.357
268.6749, 1523.658
269.1570, 1553.508
269.6391, 1558.672
270.1212, 1531.773
270.6034, 1516.560
271.0855, 1523.601
271.5676, 1534.778
272.0497, 1535.516
272.5318, 1526.087
273.0139, 1517.227
273.4961, 1518.219
273.9782, 1529.356
274.4603, 1535.218
274.9424, 1531.380
275.4245, 1527.514
275.9066, 1528.011
276.3888, 1531.794
276.8709, 1535.571
277.3530, 1537.284
277.8351, 1537.492
278.3172, 1539.480
278.7993, 1545.048
279.2815, 1550.283
279.7636, 1554.745
280.2457, 1558.489
280.7278, 1561.475
281.2099, 1563.683
281.6920, 1565.599
282.1742, 1568.309
282.6563, 1571.638
283.1384, 1576.227
283.6205, 1585.166
284.1026, 1593.433
284.5847, 1595.693
285.0669, 1591.300
285.5490, 1585.256
286.0311, 1585.440
286.5132, 1596.250
286.9953, 1600.230
287.4774, 1587.301
287.9596, 1576.534
288.4417, 1579.081
288.9238, 1593.820
289.4059, 1611.883
289.8880, 1626.866
290.3701, 1638.734
290.8523, 1644.475
291.3344, 1635.886
291.8165, 1630.123
292.2986, 1635.791
292.7807, 1648.372
293.2628, 1658.762
293.7450, 1660.598
294.2271, 1657.271
294.7092, 1660.417
295.1913, 1674.821
295.6734, 1685.007
296.1555, 1683.465
296.6377, 1675.600
297.1198, 1665.807
297.6019, 1653.889
298.0840, 1644.956
298.5661, 1648.169
299.0482, 1664.942
299.5304, 1678.530
300.0125, 1682.864
300.4946, 1682.313
300.9767, 1679.976
301.4588, 1675.559
301.9409, 1673.913
302.4231, 1681.991
302.9052, 1696.515
303.3873, 1702.899
303.8694, 1694.564
304.3515, 1684.322
304.8336, 1687.846
305.3158, 1703.546
305.7979, 1716.477
306.2800, 1719.491
306.7621, 1718.018
307.2442, 1719.878
307.7263, 1726.022
308.2085, 1731.733
308.6906, 1732.298
309.1727, 1728.417
309.6548, 1728.360
310.1369, 1734.563
310.6190, 1742.739
311.1012, 1751.897
311.5833, 1761.122
312.0654, 1767.342
312.5475, 1768.316
313.0296, 1765.460
313.5117, 1764.571
313.9939, 1761.468
314.4760, 1764.846
314.9581, 1783.167
315.4402, 1806.911
315.9223, 1822.679
316.4044, 1825.857
316.8866, 1822.115
317.3687, 1820.931
317.8508, 1823.088
318.3329, 1826.609
318.8150, 1830.258
319.2971, 1835.992
319.7793, 1847.623
320.2614, 1863.898
320.7435, 1878.305
321.2256, 1883.896
321.7077, 1879.803
322.1898, 1876.502
322.6720, 1873.223
323.1541, 1871.551
323.6362, 1872.249
324.1183, 1874.927
324.6004, 1879.242
325.0826, 1885.447
325.5647, 1892.405
326.0468, 1895.008
326.5289, 1887.605
327.0110, 1887.127
327.4931, 1907.187
327.9753, 1930.466
328.4574, 1939.335
328.9395, 1928.231
329.4216, 1908.784
329.9037, 1893.740
330.3858, 1883.245
330.8680, 1874.951
331.3501, 1869.323
331.8322, 1865.073
332.3143, 1860.936
332.7964, 1856.951
333.2785, 1854.220
333.7606, 1857.458
334.2427, 1862.167
334.7249, 1854.327
335.2070, 1828.938
335.6891, 1803.827
336.1712, 1795.337
336.6533, 1798.447
337.1354, 1798.254
337.6176, 1790.700
338.0997, 1779.943
338.5818, 1768.544
339.0639, 1756.648
339.5460, 1745.453
340.0281, 1735.592
340.5103, 1726.745
340.9924, 1717.950
341.4745, 1710.017
341.9566, 1700.887
342.4387, 1688.641
342.9208, 1675.264
343.4030, 1663.064
343.8851, 1652.630
344.3672, 1644.932
344.8493, 1642.342
345.3314, 1649.889
345.8135, 1646.865
346.2957, 1621.608
346.7778, 1596.501
347.2599, 1587.156
347.7420, 1591.330
348.2241, 1596.677
348.7062, 1593.896
349.1884, 1583.380
349.6705, 1570.238
350.1526, 1548.717
350.6347, 1531.457
351.1168, 1522.169
351.5989, 1517.930
352.0811, 1515.481
352.5632, 1513.560
353.0453, 1511.868
353.5274, 1510.141
354.0095, 1508.800
354.4916, 1505.926
354.9738, 1499.926
355.4559, 1493.093
355.9380, 1485.861
356.4201, 1478.619
356.9022, 1473.077
357.3843, 1462.481
357.8665, 1469.839
358.3486, 1472.961
358.8307, 1472.073
359.3128, 1455.168
359.7949, 1458.947
360.2770, 1454.436
360.7592, 1449.585
361.2413, 1456.275
361.7234, 1441.699
362.2055, 1448.206
362.6876, 1446.297
363.1697, 1448.239
363.6519, 1441.841
364.1340, 1438.019
364.6161, 1442.540
365.0982, 1442.442
365.5803, 1435.084
366.0624, 1437.271
366.5446, 1422.404
367.0267, 1422.502
367.5088, 1429.057
367.9909, 1422.119
368.4730, 1416.586
368.9551, 1416.102
369.4373, 1415.474
369.9194, 1415.108
370.4015, 1414.253
370.8836, 1412.139
371.3657, 1409.258
371.8478, 1406.752
372.3300, 1405.345
372.8121, 1404.730
373.2942, 1403.660
373.7763, 1401.661
374.2584, 1399.973
374.7405, 1397.439
375.2227, 1396.029
375.7048, 1399.278
376.1869, 1407.426
376.6690, 1413.965
377.1511, 1408.793
377.6332, 1391.356
378.1154, 1382.214
378.5975, 1389.347
379.0796, 1397.132
379.5617, 1395.412
380.0438, 1386.704
380.5259, 1378.411
381.0081, 1372.691
381.4902, 1369.861
381.9723, 1370.819
382.4544, 1375.667
382.9365, 1382.620
383.4186, 1393.169
383.9008, 1403.822
384.3829, 1406.759
384.8650, 1397.302
385.3471, 1390.463
385.8292, 1395.748
386.3113, 1406.929
386.7935, 1413.697
387.2756, 1413.601
387.7577, 1409.245
388.2398, 1402.840
388.7219, 1393.246
389.2040, 1387.885
389.6862, 1390.309
390.1683, 1393.296
390.6504, 1393.089
391.1325, 1390.366
391.6146, 1387.691
392.0967, 1386.721
392.5789, 1386.488
393.0610, 1383.177
393.5431, 1373.068
394.0252, 1366.011
394.5073, 1366.182
394.9894, 1367.514
395.4716, 1364.426
395.9537, 1356.206
396.4358, 1347.287
396.9179, 1339.674
397.4000, 1333.527
397.8821, 1339.672
398.3643, 1369.430
398.8464, 1395.161
399.3285, 1401.201
399.8106, 1392.693
400.2927, 1379.276
400.7748, 1357.826
401.2570, 1339.864
401.7391, 1343.731
402.2212, 1367.433
402.7033, 1383.759
403.1854, 1379.164
403.6675, 1364.993
404.1497, 1362.504
404.6317, 1374.445
405.1139, 1384.272
405.5960, 1389.093
406.0781, 1388.849
406.5602, 1379.750
407.0423, 1362.896
407.5244, 1349.764
408.0066, 1351.356
408.4887, 1367.671
408.9708, 1378.609
409.4529, 1380.451
409.9350, 1381.743
410.4171, 1382.398
410.8993, 1384.523
411.3814, 1392.231
411.8635, 1406.948
412.3456, 1423.001
412.8277, 1429.685
413.3098, 1423.118
413.7920, 1421.128
414.2741, 1431.623
414.7562, 1441.375
415.2383, 1441.312
415.7204, 1434.322
416.2025, 1431.430
416.6847, 1441.220
417.1668, 1458.588
417.6489, 1472.646
418.1310, 1482.996
418.6131, 1492.706
419.0952, 1503.702
419.5774, 1514.562
420.0595, 1522.602
420.5416, 1526.483
421.0237, 1531.199
421.5058, 1536.787
421.9879, 1545.414
422.4701, 1562.523
422.9522, 1589.265
423.4343, 1618.075
423.9164, 1642.146
424.3985, 1661.336
424.8806, 1675.174
425.3628, 1674.365
425.8449, 1678.689
426.3270, 1699.116
426.8091, 1729.477
427.2912, 1759.598
427.7733, 1784.791
428.2555, 1806.107
428.7376, 1825.723
429.2197, 1843.057
429.7018, 1859.820
430.1839, 1870.132
430.6660, 1884.953
431.1482, 1912.034
431.6303, 1949.748
432.1124, 1990.293
432.5945, 2030.531
433.0766, 2069.004
433.5587, 2101.063
434.0409, 2125.396
434.5230, 2149.005
435.0051, 2173.107
435.4872, 2199.434
435.9693, 2230.912
436.4514, 2268.735
436.9336, 2308.492
437.4157, 2347.617
437.8978, 2387.505
438.3799, 2430.941
438.8620, 2478.522
439.3441, 2528.845
439.8263, 2581.792
440.3084, 2637.556
440.7905, 2688.735
441.2726, 2736.958
441.7547, 2779.912
442.2368, 2809.435
442.7190, 2835.178
443.2011, 2872.136
443.6832, 2926.003
444.1653, 2989.218
444.6474, 3050.134
445.1295, 3109.792
445.6117, 3162.546
446.0938, 3199.172
446.5759, 3236.881
447.0580, 3285.023
447.5401, 3340.689
448.0222, 3394.608
448.5044, 3441.151
448.9865, 3483.529
449.4686, 3526.380
449.9507, 3569.756
450.4328, 3614.829
450.9149, 3665.714
451.3971, 3714.831
451.8792, 3748.788
452.3613, 3764.509
452.8434, 3781.799
453.3255, 3808.803
453.8076, 3838.852
454.2898, 3866.392
454.7719, 3890.313
455.2540, 3909.372
455.7361, 3921.962
456.2182, 3929.097
456.7003, 3938.716
457.1825, 3958.957
457.6646, 3971.656
458.1467, 3969.142
458.6288, 3961.542
459.1109, 3958.846
459.5930, 3962.935
460.0752, 3968.459
460.5573, 3969.615
461.0394, 3966.480
461.5215, 3963.779
462.0036, 3961.302
462.4857, 3959.697
462.9679, 3961.632
463.4500, 3964.043
463.9321, 3960.816
464.4142, 3946.653
464.8963, 3935.125
465.3784, 3939.588
465.8606, 3955.784
466.3427, 3971.405
466.8248, 3983.903
467.3069, 3992.841
467.7890, 3996.556
468.2711, 3993.808
468.7533, 3996.124
469.2354, 4001.981
469.7175, 4014.252
470.1996, 4037.912
470.6817, 4068.474
471.1638, 4099.736
471.6460, 4129.178
472.1281, 4152.633
472.6102, 4159.557
473.0923, 4140.216
473.5744, 4133.604
474.0565, 4153.824
474.5387, 4176.647
475.0208, 4194.099
475.5029, 4205.292
475.9850, 4209.841
476.4671, 4205.066
476.9492, 4196.131
477.4313, 4195.360
477.9135, 4202.476
478.3956, 4193.300
478.8777, 4154.005
479.3598, 4101.118
479.8419, 4059.692
480.3240, 4030.032
480.8062, 4001.938
481.2883, 3980.430
481.7704, 3954.433
482.2525, 3911.567
482.7346, 3855.120
483.2167, 3798.656
483.6989, 3751.637
484.1810, 3708.525
484.6631, 3650.432
485.1452, 3559.673
485.6273, 3484.899
486.1094, 3441.740
486.5916, 3404.100
487.0737, 3356.628
487.5558, 3297.814
488.0379, 3230.948
488.5200, 3152.836
489.0021, 3070.696
489.4843, 3008.722
489.9664, 2971.587
490.4485, 2925.100
490.9306, 2845.426
491.4127, 2754.671
491.8948, 2689.402
492.3770, 2655.680
492.8591, 2620.487
493.3412, 2571.450
493.8233, 2515.918
494.3054, 2460.188
494.7875, 2405.526
495.2697, 2355.047
495.7518, 2311.336
496.2339, 2272.606
496.7160, 2230.044
497.1981, 2177.793
497.6802, 2129.712
498.1624, 2089.561
498.6445, 2051.986
499.1266, 2011.303
499.6087, 1967.995
500.0908, 1928.560
500.5729, 1900.936
501.0551, 1881.301
501.5372, 1854.237
502.0193, 1818.078
502.5014, 1782.123
502.9835, 1750.731
503.4656, 1721.868
503.9478, 1691.516
504.4299, 1658.287
504.9120, 1628.482
505.3941, 1604.451
505.8762, 1585.275
506.3583, 1573.124
506.8405, 1566.489
507.3226, 1555.679
507.8047, 1533.057
508.2868, 1501.165
508.7689, 1474.257
509.2510, 1454.714
509.7332, 1436.992
510.2153, 1422.443
510.6974, 1408.228
511.1795, 1391.325
511.6616, 1371.965
512.1437, 1353.843
512.6259, 1341.435
513.1080, 1332.184
513.5901, 1316.572
514.0722, 1292.933
514.5543, 1272.486
515.0364, 1261.985
515.5186, 1256.412
516.0007, 1246.198
516.4828, 1229.268
516.9649, 1216.203
517.4470, 1216.060
517.9291, 1217.513
518.4113, 1206.276
518.8934, 1184.126
519.3755, 1164.818
519.8576, 1157.535
520.3397, 1159.525
520.8218, 1160.657
521.3040, 1162.326
521.7861, 1160.435
522.2682, 1153.004
522.7503, 1143.709
523.2324, 1133.510
523.7145, 1123.427
524.1967, 1116.147
524.6788, 1115.482
525.1609, 1117.412
525.6430, 1113.055
526.1251, 1102.292
526.6072, 1094.048
527.0894, 1093.938
527.5715, 1095.105
528.0536, 1083.951
528.5357, 1057.361
529.0178, 1039.136
529.4999, 1040.071
529.9821, 1043.901
530.4642, 1038.219
530.9463, 1025.750
531.4284, 1015.778
531.9105, 1013.237
532.3926, 1014.613
532.8748, 1011.974
533.3569, 1003.213
533.8390, 997.5681
534.3211, 1000.688
534.8032, 1002.153
535.2853, 993.4812
535.7675, 978.8528
536.2496, 969.8253
536.7317, 973.3320
537.2138, 980.8707
537.6959, 984.7581
538.1780, 985.2773
538.6602, 982.6468
539.1423, 976.3801
539.6244, 970.1982
540.1065, 969.3707
540.5886, 975.3443
541.0707, 973.8616
541.5529, 955.0081
542.0350, 940.6384
542.5171, 941.8274
542.9992, 950.7635
543.4813, 956.6533
543.9634, 956.1096
544.4456, 952.8482
544.9277, 951.9163
545.4098, 953.1053
545.8919, 949.8245
546.3740, 939.7275
546.8561, 929.9142
547.3383, 923.8777
547.8204, 920.8495
548.3025, 920.0620
548.7846, 922.2982
549.2667, 924.6610
549.7488, 925.1746
550.2310, 925.3834
550.7131, 928.7092
551.1952, 934.7949
551.6773, 938.0161
552.1594, 933.6190
552.6415, 923.3588
553.1237, 916.9241
553.6058, 917.9872
554.0879, 916.7704
554.5700, 910.5862
555.0521, 903.2740
555.5342, 896.3726
556.0164, 890.6733
556.4985, 888.0712
556.9806, 891.1710
557.4627, 897.1451
557.9448, 903.8771
558.4269, 910.8518
558.9091, 907.5309
559.3912, 885.9634
559.8733, 861.0539
560.3554, 856.0302
560.8375, 878.2488
561.3196, 892.1154
561.8018, 894.8492
562.2839, 891.5728
562.7660, 880.5166
563.2481, 866.3190
563.7302, 856.3658
564.2123, 853.5527
564.6945, 854.9023
565.1766, 856.8353
565.6587, 859.3936
566.1408, 861.6246
566.6229, 864.2063
567.1050, 865.0750
567.5872, 860.0823
568.0693, 853.0493
568.5514, 851.6353
569.0335, 859.8477
569.5156, 867.4067
569.9977, 869.3194
570.4799, 867.8638
570.9620, 864.8665
571.4441, 861.1309
571.9262, 859.3475
572.4083, 862.2732
572.8904, 868.0139
573.3726, 866.5201
573.8547, 852.0563
574.3368, 841.3254
574.8189, 837.5074
575.3010, 837.3489
575.7831, 839.3290
576.2653, 843.1517
576.7474, 848.5251
577.2295, 858.3132
577.7116, 867.2841
578.1937, 867.2510
578.6758, 859.9777
579.1580, 854.3264
579.6401, 853.3563
580.1222, 854.3236
580.6042, 853.9208
581.0864, 852.1666
581.5685, 848.8355
582.0506, 842.3083
582.5327, 836.2715
583.0148, 830.9318
583.4969, 827.2034
583.9791, 827.0507
584.4612, 830.7834
584.9433, 834.7393
585.4254, 834.4269
585.9075, 831.1407
586.3896, 830.5988
586.8718, 833.3744
587.3539, 836.9850
587.8360, 841.3044
588.3181, 844.8976
588.8002, 844.1237
589.2823, 837.6766
589.7645, 831.1266
590.2466, 824.4530
590.7287, 818.7474
591.2108, 815.9367
591.6929, 814.7781
592.1750, 811.2031
592.6572, 802.7222
593.1393, 793.6664
593.6214, 793.5452
594.1035, 803.5759
594.5856, 809.8406
595.0677, 810.0959
595.5499, 807.5078
596.0320, 801.2451
596.5141, 793.8996
596.9962, 792.5468
597.4783, 804.4391
597.9604, 812.6238
598.4426, 804.3371
598.9247, 790.1854
599.4068, 785.7789
599.8889, 791.9279
600.3710, 796.7198
600.8531, 789.8984
601.3353, 775.1094
601.8174, 769.3876
602.2995, 776.9739
602.7816, 783.1756
603.2637, 782.9559
603.7458, 782.5620
604.2280, 788.5444
604.7101, 798.9372
605.1922, 803.5406
605.6743, 794.6080
606.1564, 782.0450
606.6385, 771.8725
607.1207, 764.7376
607.6028, 762.9617
608.0849, 767.1142
608.5670, 773.6919
609.0491, 779.7719
609.5313, 785.3484
610.0134, 784.1536
610.4955, 767.1555
610.9776, 756.6858
611.4597, 763.7460
611.9418, 774.4783
612.4240, 774.7020
612.9061, 763.7005
613.3882, 754.6193
613.8703, 758.2701
614.3524, 766.0880
614.8345, 764.4828
615.3167, 755.6502
615.7988, 752.7025
616.2809, 761.2345
616.7630, 773.5761
617.2451, 779.0359
617.7272, 777.0220
618.2094, 771.1607
618.6915, 755.8196
619.1736, 743.1921
619.6557, 735.2654
620.1378, 732.5887
620.6199, 737.2903
621.1021, 749.5779
621.5842, 762.1060
622.0663, 770.5059
622.5484, 774.7405
623.0305, 772.6447
623.5126, 764.7310
623.9948, 760.1698
624.4769, 764.3413
624.9590, 771.2372
625.4411, 769.4232
625.9232, 755.2300
626.4053, 742.9459
626.8875, 730.5706
627.3696, 721.9657
627.8517, 718.6622
628.3338, 720.0909
628.8159, 726.9390
629.2980, 739.5900
629.7802, 750.8780
630.2623, 753.1366
630.7444, 748.9777
631.2265, 744.5957
631.7086, 740.4094
632.1907, 737.8707
632.6729, 738.0370
633.1550, 739.9483
633.6371, 741.4573
634.1192, 742.3888
634.6013, 743.2571
635.0834, 744.8762
635.5656, 745.5963
