##NAMES=Chabazite-Na
##RRUFFID=R070440
##IDEAL CHEMISTRY=(Na_3_K)Al_4_Si_8_O_24_&#183;11H_2_O
##LOCALITY=Faraglione dei Ciclopi, Aci Castello, Catania Province, Sicily, Italy
##OWNER=RRUFF
##SOURCE=Michael Scott
##DESCRIPTION=Group of colorless blocky crystals associated with phillipsite-Na, R061094
##STATUS=The identification of this mineral is confirmed by single-crystal X-ray diffraction and chemical analysis.
##URL=rruff.info/R070440
##MEASURED CHEMISTRY=Na_2.00_(Ca_0.75_Na_0.25_)_Σ=1_(Si_7.88_Al_4.12_)O_24_·((H_2_O)_11.64_K_0.21_Na_0.15_)_Σ=12_; H_2_O estimated by difference
139.8317, 1657.711
140.3138, 1677.504
140.7960, 1699.423
141.2781, 1729.950
141.7602, 1774.512
142.2423, 1830.935
142.7244, 1892.347
143.2065, 1955.558
143.6887, 2020.006
144.1708, 2073.662
144.6529, 2097.925
145.1350, 2127.981
145.6171, 2190.017
146.0992, 2280.885
146.5814, 2373.042
147.0635, 2443.701
147.5456, 2492.255
148.0277, 2550.541
148.5098, 2626.337
148.9919, 2705.819
149.4741, 2780.722
149.9562, 2850.816
150.4383, 2916.569
150.9204, 2979.378
151.4025, 3038.182
151.8846, 3090.024
152.3668, 3141.886
152.8489, 3182.273
153.3310, 3199.156
153.8131, 3191.292
154.2952, 3169.745
154.7773, 3137.378
155.2595, 3096.816
155.7416, 3059.920
156.2237, 3030.637
156.7058, 3004.858
157.1879, 2976.036
157.6700, 2942.710
158.1522, 2914.478
158.6343, 2902.793
159.1164, 2902.459
159.5985, 2901.914
160.0806, 2894.239
160.5627, 2886.251
161.0449, 2887.619
161.5270, 2899.044
162.0091, 2918.050
162.4912, 2949.731
162.9733, 2987.593
163.4554, 3020.091
163.9376, 3045.450
164.4197, 3062.205
164.9018, 3063.039
165.3839, 3040.439
165.8660, 3023.171
166.3481, 3034.901
166.8303, 3063.395
167.3124, 3089.060
167.7945, 3105.401
168.2766, 3113.546
168.7587, 3114.389
169.2408, 3104.210
169.7230, 3095.162
170.2051, 3096.787
170.6872, 3103.275
171.1693, 3104.932
171.6514, 3093.447
172.1335, 3075.901
172.6157, 3072.457
173.0978, 3092.806
173.5799, 3107.631
174.0620, 3101.507
174.5441, 3082.844
175.0262, 3062.929
175.5084, 3046.025
175.9905, 3032.064
176.4726, 3021.022
176.9547, 3014.321
177.4368, 3008.045
177.9189, 3003.800
178.4010, 2998.349
178.8832, 2986.296
179.3653, 2962.648
179.8474, 2932.700
180.3295, 2911.778
180.8116, 2902.138
181.2937, 2898.545
181.7759, 2906.270
182.2580, 2915.945
182.7401, 2914.627
183.2222, 2894.068
183.7043, 2861.740
184.1864, 2839.398
184.6686, 2833.104
185.1507, 2826.932
185.6328, 2811.375
186.1149, 2795.296
186.5970, 2790.187
187.0791, 2802.710
187.5613, 2825.516
188.0434, 2840.365
188.5255, 2848.904
189.0076, 2844.593
189.4897, 2815.942
189.9718, 2780.302
190.4540, 2756.741
190.9361, 2754.595
191.4182, 2764.350
191.9003, 2762.573
192.3824, 2741.849
192.8645, 2722.183
193.3467, 2704.121
193.8288, 2689.776
194.3109, 2682.083
194.7930, 2682.289
195.2751, 2687.116
195.7572, 2690.403
196.2394, 2695.417
196.7215, 2691.889
197.2036, 2670.828
197.6857, 2646.351
198.1678, 2631.168
198.6499, 2629.431
199.1321, 2635.419
199.6142, 2639.068
200.0963, 2640.654
200.5784, 2638.900
201.0605, 2633.426
201.5426, 2625.484
202.0248, 2615.816
202.5069, 2604.661
202.9890, 2592.284
203.4711, 2578.635
203.9532, 2561.948
204.4353, 2548.194
204.9175, 2538.497
205.3996, 2530.665
205.8817, 2524.455
206.3638, 2519.274
206.8459, 2512.945
207.3280, 2501.740
207.8102, 2482.765
208.2923, 2466.513
208.7744, 2451.686
209.2565, 2440.159
209.7386, 2435.201
210.2207, 2436.041
210.7029, 2437.421
211.1850, 2432.979
211.6671, 2421.056
212.1492, 2409.372
212.6313, 2396.826
213.1134, 2385.468
213.5956, 2377.792
214.0777, 2372.892
214.5598, 2366.771
215.0419, 2353.897
215.5240, 2331.688
216.0061, 2320.533
216.4883, 2336.525
216.9704, 2348.474
217.4525, 2340.417
217.9346, 2317.050
218.4167, 2294.272
218.8988, 2285.968
219.3810, 2292.641
219.8631, 2295.499
220.3452, 2292.435
220.8273, 2287.313
221.3094, 2277.375
221.7915, 2266.160
222.2737, 2260.929
222.7558, 2268.159
223.2379, 2285.987
223.7200, 2293.747
224.2021, 2285.297
224.6842, 2272.285
225.1664, 2253.006
225.6485, 2231.500
226.1306, 2213.480
226.6127, 2202.574
227.0948, 2197.012
227.5770, 2189.189
228.0591, 2175.084
228.5412, 2164.235
229.0233, 2160.498
229.5054, 2159.853
229.9875, 2158.456
230.4697, 2154.683
230.9518, 2147.910
231.4339, 2134.741
231.9160, 2102.832
232.3981, 2087.045
232.8802, 2102.382
233.3624, 2127.375
233.8445, 2144.136
234.3266, 2146.640
234.8087, 2140.254
235.2908, 2133.160
235.7729, 2123.445
236.2551, 2117.766
236.7372, 2117.822
237.2193, 2120.661
237.7014, 2124.991
238.1835, 2130.306
238.6656, 2135.976
239.1478, 2141.954
239.6299, 2149.402
240.1120, 2152.708
240.5941, 2147.174
241.0762, 2141.143
241.5583, 2140.410
242.0405, 2143.971
242.5226, 2145.134
243.0047, 2134.126
243.4868, 2108.806
243.9689, 2097.319
244.4510, 2115.162
244.9332, 2132.904
245.4153, 2138.955
245.8974, 2135.749
246.3795, 2131.547
246.8616, 2132.625
247.3437, 2138.154
247.8259, 2140.381
248.3080, 2136.055
248.7901, 2132.708
249.2722, 2134.118
249.7543, 2137.960
250.2364, 2140.497
250.7186, 2139.760
251.2007, 2136.401
251.6828, 2131.129
252.1649, 2119.810
252.6470, 2115.405
253.1291, 2129.203
253.6113, 2148.327
254.0934, 2158.576
254.5755, 2154.186
255.0576, 2141.659
255.5397, 2129.537
256.0219, 2116.531
256.5040, 2109.081
256.9861, 2113.871
257.4682, 2122.279
257.9503, 2128.175
258.4324, 2130.223
258.9146, 2131.655
259.3967, 2136.472
259.8788, 2144.905
260.3609, 2151.604
260.8430, 2155.594
261.3251, 2157.342
261.8073, 2156.951
262.2894, 2154.533
262.7715, 2151.263
263.2536, 2145.378
263.7357, 2138.320
264.2178, 2140.152
264.7000, 2158.772
265.1821, 2175.691
265.6642, 2176.664
266.1463, 2165.047
266.6284, 2151.330
267.1105, 2135.322
267.5927, 2121.470
268.0748, 2122.256
268.5569, 2142.721
269.0390, 2162.242
269.5211, 2163.358
270.0032, 2153.995
270.4854, 2147.112
270.9675, 2149.725
271.4496, 2153.146
271.9317, 2144.164
272.4138, 2122.229
272.8959, 2106.601
273.3781, 2108.459
273.8602, 2122.545
274.3423, 2138.278
274.8244, 2158.881
275.3065, 2174.426
275.7886, 2174.219
276.2708, 2162.138
276.7529, 2155.181
277.2350, 2162.029
277.7171, 2172.911
278.1992, 2169.307
278.6813, 2147.428
279.1635, 2131.602
279.6456, 2134.180
280.1277, 2147.730
280.6098, 2160.419
281.0919, 2169.947
281.5740, 2176.732
282.0562, 2179.896
282.5383, 2178.841
283.0204, 2181.630
283.5025, 2194.524
283.9846, 2208.248
284.4667, 2212.920
284.9489, 2208.363
285.4310, 2203.374
285.9131, 2205.195
286.3952, 2213.816
286.8773, 2220.917
287.3594, 2223.814
287.8416, 2227.928
288.3237, 2237.357
288.8058, 2250.311
289.2879, 2262.859
289.7700, 2273.660
290.2521, 2281.076
290.7343, 2277.467
291.2164, 2249.561
291.6985, 2227.792
292.1806, 2218.473
292.6627, 2217.131
293.1448, 2218.236
293.6270, 2219.841
294.1091, 2223.658
294.5912, 2233.476
295.0733, 2258.757
295.5554, 2271.407
296.0375, 2260.027
296.5197, 2245.167
297.0018, 2241.129
297.4839, 2249.394
297.9660, 2263.584
298.4481, 2279.054
298.9302, 2298.137
299.4124, 2301.569
299.8945, 2270.747
300.3766, 2243.339
300.8587, 2232.555
301.3408, 2235.370
301.8229, 2244.158
302.3050, 2255.203
302.7871, 2266.760
303.2693, 2268.894
303.7514, 2250.376
304.2335, 2239.116
304.7156, 2244.372
305.1977, 2257.433
305.6798, 2268.968
306.1620, 2275.490
306.6441, 2280.237
307.1262, 2290.026
307.6083, 2308.007
308.0904, 2319.079
308.5725, 2313.394
309.0547, 2304.821
309.5368, 2299.920
310.0189, 2299.815
310.5010, 2304.427
310.9831, 2315.962
311.4652, 2333.589
311.9474, 2348.456
312.4295, 2362.079
312.9116, 2369.161
313.3937, 2362.753
313.8758, 2347.705
314.3579, 2336.600
314.8401, 2332.105
315.3222, 2336.309
315.8043, 2357.959
316.2864, 2401.038
316.7685, 2437.886
317.2506, 2448.564
317.7328, 2444.666
318.2149, 2446.266
318.6970, 2460.785
319.1791, 2472.042
319.6612, 2462.133
320.1433, 2436.654
320.6255, 2420.930
321.1076, 2424.751
321.5897, 2440.222
322.0718, 2457.648
322.5539, 2478.648
323.0360, 2492.656
323.5182, 2491.100
324.0003, 2483.302
324.4824, 2480.223
324.9645, 2483.724
325.4466, 2493.435
325.9287, 2511.921
326.4109, 2540.479
326.8930, 2554.020
327.3751, 2539.074
327.8572, 2522.155
328.3393, 2517.467
328.8214, 2523.343
329.3036, 2532.589
329.7857, 2541.350
330.2678, 2549.656
330.7499, 2557.361
331.2320, 2572.973
331.7141, 2577.354
332.1963, 2557.315
332.6784, 2530.181
333.1605, 2515.348
333.6426, 2518.420
334.1247, 2529.926
334.6068, 2536.034
335.0890, 2534.769
335.5711, 2533.191
336.0532, 2528.143
336.5353, 2525.554
337.0174, 2533.359
337.4995, 2547.366
337.9817, 2554.686
338.4638, 2543.934
338.9459, 2517.146
339.4280, 2491.200
339.9101, 2456.676
340.3922, 2438.576
340.8744, 2459.039
341.3565, 2492.647
341.8386, 2504.925
342.3207, 2480.512
342.8028, 2442.548
343.2849, 2428.081
343.7671, 2441.515
344.2492, 2446.651
344.7313, 2427.319
345.2134, 2402.443
345.6955, 2385.252
346.1776, 2376.571
346.6598, 2374.789
347.1419, 2388.526
347.6240, 2408.289
348.1061, 2403.056
348.5882, 2362.042
349.0703, 2320.141
349.5525, 2309.409
350.0346, 2320.408
350.5167, 2325.996
350.9988, 2313.306
351.4809, 2299.970
351.9630, 2304.527
352.4452, 2323.106
352.9273, 2335.158
353.4094, 2330.626
353.8915, 2314.065
354.3736, 2295.977
354.8557, 2274.058
355.3379, 2255.700
355.8200, 2240.767
356.3021, 2231.080
356.7842, 2231.415
357.2663, 2242.122
357.7484, 2255.261
358.2306, 2262.392
358.7127, 2263.153
359.1948, 2258.942
359.6769, 2243.026
360.1590, 2229.564
360.6411, 2227.243
361.1233, 2232.274
361.6054, 2235.805
362.0875, 2232.542
362.5696, 2224.218
363.0517, 2217.251
363.5338, 2213.750
364.0160, 2208.121
364.4981, 2194.607
364.9802, 2182.062
365.4623, 2180.664
365.9444, 2191.421
366.4265, 2202.777
366.9087, 2198.936
367.3908, 2178.410
367.8729, 2167.883
368.3550, 2177.783
368.8371, 2186.602
369.3192, 2180.390
369.8014, 2164.723
370.2835, 2153.158
370.7656, 2152.086
371.2477, 2158.665
371.7298, 2171.253
372.2119, 2191.110
372.6941, 2204.431
373.1762, 2202.247
373.6583, 2191.672
374.1404, 2183.697
374.6225, 2178.851
375.1046, 2175.843
375.5868, 2177.065
376.0689, 2179.183
376.5510, 2173.020
377.0331, 2155.489
377.5152, 2139.388
377.9973, 2139.678
378.4795, 2158.576
378.9616, 2169.576
379.4437, 2163.046
379.9258, 2156.916
380.4079, 2165.882
380.8900, 2184.517
381.3722, 2195.782
381.8543, 2189.759
382.3364, 2172.601
382.8185, 2162.925
383.3006, 2171.632
383.7827, 2173.725
384.2649, 2160.946
384.7470, 2146.458
385.2291, 2141.903
385.7112, 2148.481
386.1933, 2158.731
386.6754, 2166.033
387.1576, 2170.550
387.6397, 2168.142
388.1218, 2150.054
388.6039, 2135.042
389.0860, 2129.819
389.5681, 2131.400
390.0503, 2135.005
390.5324, 2138.693
391.0145, 2143.287
391.4966, 2150.749
391.9787, 2161.446
392.4608, 2171.555
392.9430, 2182.589
393.4251, 2190.017
393.9072, 2187.630
394.3893, 2175.583
394.8714, 2166.274
395.3535, 2167.397
395.8357, 2174.557
396.3178, 2180.285
396.7999, 2183.802
397.2820, 2188.664
397.7641, 2198.264
398.2462, 2211.340
398.7284, 2221.169
399.2105, 2224.421
399.6926, 2228.133
400.1747, 2239.203
400.6568, 2251.546
401.1389, 2252.227
401.6211, 2236.902
402.1032, 2218.239
402.5853, 2215.438
403.0674, 2235.400
403.5495, 2250.841
404.0316, 2259.795
404.5138, 2266.878
404.9959, 2273.242
405.4780, 2279.753
405.9601, 2288.101
406.4422, 2299.844
406.9243, 2313.109
407.4065, 2320.881
407.8886, 2321.186
408.3707, 2319.859
408.8528, 2314.820
409.3349, 2310.816
409.8170, 2313.427
410.2992, 2322.912
410.7813, 2331.290
411.2634, 2330.836
411.7455, 2323.094
412.2276, 2315.286
412.7097, 2306.789
413.1919, 2300.924
413.6740, 2304.279
414.1561, 2311.661
414.6382, 2311.856
415.1203, 2295.844
415.6024, 2280.599
416.0846, 2282.269
416.5667, 2295.297
417.0488, 2301.253
417.5309, 2292.678
418.0130, 2279.276
418.4951, 2276.307
418.9773, 2288.821
419.4594, 2294.488
419.9415, 2284.304
420.4236, 2273.825
420.9057, 2276.095
421.3878, 2287.969
421.8700, 2297.029
422.3521, 2295.109
422.8342, 2284.494
423.3163, 2274.030
423.7984, 2251.695
424.2805, 2249.651
424.7627, 2290.305
425.2448, 2337.766
425.7269, 2361.943
426.2090, 2359.323
426.6911, 2347.840
427.1732, 2340.301
427.6554, 2337.195
428.1375, 2347.463
428.6196, 2380.433
429.1017, 2408.758
429.5838, 2412.250
430.0659, 2403.971
430.5481, 2402.660
431.0302, 2412.943
431.5123, 2430.526
431.9944, 2457.867
432.4765, 2490.592
432.9586, 2510.242
433.4408, 2508.860
433.9229, 2504.466
434.4050, 2520.524
434.8871, 2559.746
435.3692, 2589.904
435.8513, 2603.997
436.3335, 2613.255
436.8156, 2620.955
437.2977, 2629.499
437.7798, 2643.715
438.2619, 2666.234
438.7440, 2694.846
439.2262, 2724.150
439.7083, 2756.464
440.1904, 2785.022
440.6725, 2802.966
441.1546, 2823.317
441.6367, 2860.132
442.1189, 2908.800
442.6010, 2949.705
443.0831, 2963.951
443.5652, 2960.339
444.0473, 2974.705
444.5294, 3013.808
445.0116, 3051.996
445.4937, 3078.399
445.9758, 3099.864
446.4579, 3120.362
446.9400, 3139.067
447.4221, 3166.564
447.9043, 3223.392
448.3864, 3290.913
448.8685, 3323.016
449.3506, 3311.261
449.8327, 3299.588
450.3148, 3324.990
450.7970, 3383.158
451.2791, 3425.386
451.7612, 3437.959
452.2433, 3451.835
452.7254, 3475.817
453.2076, 3507.600
453.6897, 3546.338
454.1718, 3590.945
454.6539, 3634.480
455.1360, 3668.127
455.6181, 3691.103
456.1003, 3708.430
456.5824, 3707.216
457.0645, 3713.500
457.5466, 3739.982
458.0287, 3778.128
458.5108, 3814.517
458.9930, 3843.808
459.4751, 3868.118
459.9572, 3888.218
460.4393, 3903.878
460.9214, 3926.624
461.4035, 3963.151
461.8857, 4001.263
462.3678, 4030.949
462.8499, 4053.115
463.3320, 4071.707
463.8141, 4080.666
464.2962, 4092.203
464.7784, 4118.355
465.2605, 4156.904
465.7426, 4199.023
466.2247, 4241.266
466.7068, 4283.657
467.1889, 4325.649
467.6711, 4367.968
468.1532, 4408.357
468.6353, 4447.656
469.1174, 4484.424
469.5995, 4515.806
470.0816, 4543.551
470.5638, 4571.028
471.0459, 4599.820
471.5280, 4631.717
472.0101, 4674.643
472.4922, 4734.277
472.9743, 4788.677
473.4565, 4825.307
473.9386, 4860.656
474.4207, 4905.393
474.9028, 4959.655
475.3849, 5017.186
475.8670, 5081.229
476.3492, 5143.481
476.8313, 5187.609
477.3134, 5213.036
477.7955, 5235.472
478.2776, 5262.051
478.7597, 5291.077
479.2419, 5319.575
479.7240, 5350.349
480.2061, 5373.746
480.6882, 5379.385
481.1703, 5382.585
481.6524, 5401.112
482.1346, 5433.097
482.6167, 5461.723
483.0988, 5475.170
483.5809, 5474.119
484.0630, 5461.212
484.5451, 5423.034
485.0273, 5395.197
485.5094, 5388.600
485.9915, 5388.849
486.4736, 5385.055
486.9557, 5375.925
487.4378, 5366.365
487.9200, 5364.801
488.4021, 5365.550
488.8842, 5351.936
489.3663, 5323.741
489.8484, 5280.701
490.3305, 5212.740
490.8127, 5134.784
491.2948, 5079.947
491.7769, 5058.539
492.2590, 5029.826
492.7411, 4969.721
493.2232, 4901.307
493.7054, 4853.251
494.1875, 4826.638
494.6696, 4802.490
495.1517, 4767.419
495.6338, 4721.807
496.1159, 4666.569
496.5981, 4590.146
497.0802, 4520.616
497.5623, 4472.439
498.0444, 4423.641
498.5265, 4350.240
499.0086, 4253.490
499.4908, 4160.838
499.9729, 4098.932
500.4550, 4058.944
500.9371, 4008.212
501.4192, 3944.583
501.9013, 3878.659
502.3835, 3812.260
502.8656, 3747.590
503.3477, 3689.315
503.8298, 3639.892
504.3119, 3587.672
504.7940, 3527.952
505.2762, 3463.501
505.7583, 3393.687
506.2404, 3320.754
506.7225, 3259.652
507.2046, 3222.855
507.6867, 3201.646
508.1689, 3157.832
508.6510, 3063.982
509.1331, 2987.155
509.6152, 2941.533
510.0973, 2905.115
510.5794, 2864.948
511.0616, 2818.847
511.5437, 2767.944
512.0258, 2709.296
512.5079, 2648.907
512.9901, 2604.794
513.4722, 2579.878
513.9543, 2555.650
514.4364, 2528.226
514.9185, 2496.118
515.4006, 2452.497
515.8828, 2394.940
516.3649, 2355.384
516.8470, 2366.362
517.3291, 2382.574
517.8112, 2356.731
518.2933, 2295.518
518.7755, 2234.826
519.2576, 2193.633
519.7397, 2165.454
520.2218, 2134.801
520.7039, 2097.189
521.1860, 2065.658
521.6682, 2039.977
522.1503, 2019.799
522.6324, 2007.908
523.1145, 2001.284
523.5966, 1993.742
524.0787, 1982.620
524.5609, 1967.543
525.0430, 1945.437
525.5251, 1916.379
526.0072, 1893.236
526.4893, 1881.931
526.9714, 1872.717
527.4536, 1851.838
527.9357, 1821.278
528.4178, 1801.409
528.8999, 1804.177
529.3820, 1809.382
529.8641, 1805.167
530.3463, 1794.727
530.8284, 1784.831
531.3105, 1777.767
531.7926, 1771.598
532.2747, 1763.695
532.7568, 1753.836
533.2390, 1743.332
533.7211, 1727.891
534.2032, 1716.911
534.6853, 1715.520
535.1674, 1719.316
535.6495, 1724.013
536.1317, 1729.069
536.6138, 1728.417
537.0959, 1710.610
537.5780, 1682.361
538.0601, 1666.916
538.5422, 1668.237
539.0244, 1673.392
539.5065, 1674.842
539.9886, 1672.528
540.4707, 1666.448
540.9528, 1651.605
541.4349, 1640.175
541.9171, 1638.983
542.3992, 1639.482
542.8813, 1631.898
543.3634, 1616.596
543.8455, 1601.845
544.3276, 1593.755
544.8098, 1591.956
545.2919, 1596.597
545.7740, 1612.605
546.2561, 1621.475
546.7382, 1612.849
547.2203, 1599.358
547.7024, 1591.536
548.1845, 1589.042
548.6666, 1582.802
549.1487, 1560.725
549.6309, 1538.741
550.1130, 1539.414
550.5951, 1557.343
551.0772, 1567.502
551.5593, 1559.359
552.0414, 1541.981
552.5236, 1529.553
553.0057, 1522.589
553.4878, 1519.022
553.9699, 1518.337
554.4520, 1521.036
554.9341, 1534.274
555.4163, 1548.884
555.8984, 1549.632
556.3805, 1530.667
556.8626, 1504.376
557.3447, 1480.565
557.8268, 1460.678
558.3090, 1459.433
558.7911, 1483.445
559.2732, 1509.832
559.7553, 1527.542
560.2374, 1535.158
560.7195, 1530.097
561.2017, 1502.397
561.6838, 1479.466
562.1659, 1468.743
562.6480, 1467.703
563.1301, 1478.370
563.6122, 1497.562
564.0944, 1513.684
564.5765, 1518.749
565.0586, 1513.506
565.5407, 1498.187
566.0228, 1462.373
566.5049, 1442.907
566.9871, 1466.262
567.4692, 1491.765
567.9513, 1490.136
568.4334, 1466.240
568.9155, 1447.829
569.3976, 1451.695
569.8798, 1461.471
570.3619, 1458.651
570.8440, 1447.461
571.3261, 1442.593
571.8082, 1448.771
572.2903, 1460.479
572.7725, 1472.610
573.2546, 1486.443
573.7367, 1488.559
574.2188, 1464.444
574.7009, 1446.563
575.1830, 1449.076
575.6652, 1458.849
576.1473, 1460.467
576.6294, 1450.818
577.1115, 1438.930
577.5936, 1431.852
578.0757, 1429.085
578.5579, 1429.299
579.0400, 1432.623
579.5221, 1437.913
580.0042, 1446.066
580.4863, 1454.635
580.9684, 1457.787
581.4506, 1453.531
581.9327, 1453.125
582.4148, 1464.081
582.8969, 1473.932
583.3790, 1475.260
583.8611, 1468.765
584.3433, 1455.198
584.8254, 1434.833
585.3075, 1415.060
585.7896, 1408.708
586.2717, 1416.980
586.7538, 1425.680
587.2360, 1437.823
587.7181, 1444.305
588.2002, 1433.088
588.6823, 1414.653
589.1644, 1407.480
589.6465, 1419.176
590.1287, 1428.378
590.6108, 1421.121
591.0929, 1407.584
591.5750, 1400.264
592.0571, 1400.070
592.5392, 1402.437
593.0214, 1404.421
593.5035, 1406.666
593.9856, 1412.111
594.4677, 1425.281
594.9498, 1430.811
595.4319, 1420.708
595.9141, 1408.662
596.3962, 1400.281
596.8783, 1395.413
597.3604, 1392.717
597.8425, 1391.809
598.3246, 1392.747
598.8068, 1397.427
599.2889, 1403.848
599.7710, 1406.761
600.2531, 1405.159
600.7352, 1400.993
601.2173, 1395.416
601.6995, 1388.780
602.1816, 1384.006
602.6637, 1384.294
603.1458, 1382.031
603.6279, 1372.037
604.1100, 1362.959
604.5922, 1363.135
605.0743, 1370.850
605.5564, 1377.004
606.0385, 1376.210
606.5206, 1371.289
607.0027, 1365.894
607.4849, 1360.045
607.9670, 1353.693
608.4491, 1346.458
608.9312, 1339.960
609.4133, 1335.418
609.8954, 1332.858
610.3776, 1334.066
610.8597, 1342.193
611.3418, 1349.702
611.8239, 1357.833
612.3060, 1362.660
612.7881, 1358.070
613.2703, 1345.043
613.7524, 1332.161
614.2345, 1326.001
614.7166, 1324.495
615.1987, 1323.673
615.6808, 1323.710
616.1630, 1319.857
616.6451, 1308.893
617.1272, 1296.908
617.6093, 1290.987
618.0914, 1291.272
618.5735, 1291.450
619.0557, 1291.283
619.5378, 1290.976
620.0199, 1290.715
620.5020, 1290.304
620.9841, 1287.156
621.4662, 1282.203
621.9484, 1283.588
622.4305, 1302.848
622.9126, 1332.525
623.3947, 1340.998
623.8768, 1324.747
624.3589, 1307.204
624.8411, 1292.598
625.3232, 1282.839
625.8053, 1282.920
626.2874, 1292.172
626.7695, 1297.976
627.2516, 1291.243
627.7338, 1288.619
628.2159, 1306.076
628.6980, 1329.890
629.1801, 1338.758
629.6622, 1328.572
630.1443, 1311.320
630.6265, 1296.156
631.1086, 1284.431
631.5907, 1285.759
