##NAMES=Chabazite-Ca
##RRUFFID=R050075
##IDEAL CHEMISTRY=Ca_2_Al_4_Si_8_O_24_&#183;13H_2_O
##LOCALITY=Victoria, Australia
##OWNER=RRUFF
##SOURCE=Rock Currier
##DESCRIPTION=White pseudohexagonal crystals
##STATUS=The identification of this mineral has been confirmed by X-ray diffraction and chemical analysis
##URL=rruff.info/R050075
##MEASURED CHEMISTRY=(Ca_0.79_Na_0.22_K_0.14_)_Σ=1.15_(Si_4.08_Al_1.92_)O_12_·6H_2_O
137.6089, 3140.345
138.0910, 3192.348
138.5731, 3233.955
139.0553, 3263.645
139.5374, 3293.809
140.0195, 3329.644
140.5016, 3365.682
140.9837, 3376.385
141.4658, 3349.296
141.9480, 3316.635
142.4301, 3301.483
142.9122, 3314.158
143.3943, 3321.818
143.8764, 3315.280
144.3585, 3295.232
144.8407, 3296.102
145.3228, 3334.241
145.8049, 3380.882
146.2870, 3408.133
146.7691, 3395.530
147.2512, 3389.978
147.7334, 3402.379
148.2155, 3438.268
148.6976, 3467.696
149.1797, 3480.986
149.6618, 3490.668
150.1439, 3513.080
150.6261, 3566.868
151.1082, 3616.393
151.5903, 3651.171
152.0724, 3663.493
152.5545, 3677.687
153.0366, 3699.481
153.5188, 3724.049
154.0009, 3741.825
154.4830, 3746.242
154.9651, 3747.642
155.4472, 3751.137
155.9293, 3763.319
156.4115, 3768.815
156.8936, 3761.563
157.3757, 3744.478
157.8578, 3727.665
158.3399, 3711.316
158.8221, 3697.758
159.3042, 3688.399
159.7863, 3694.543
160.2684, 3694.223
160.7505, 3673.614
161.2326, 3635.843
161.7148, 3606.562
162.1969, 3601.231
162.6790, 3607.752
163.1611, 3614.447
163.6432, 3617.594
164.1253, 3619.855
164.6075, 3622.610
165.0896, 3625.908
165.5717, 3628.981
166.0538, 3632.805
166.5359, 3635.883
167.0180, 3636.123
167.5002, 3628.078
167.9823, 3619.737
168.4644, 3618.020
168.9465, 3624.212
169.4286, 3631.620
169.9107, 3637.959
170.3929, 3642.001
170.8750, 3641.306
171.3571, 3632.442
171.8392, 3619.152
172.3213, 3604.412
172.8034, 3587.772
173.2856, 3572.901
173.7677, 3564.111
174.2498, 3560.252
174.7319, 3557.504
175.2140, 3555.082
175.6961, 3551.961
176.1783, 3547.472
176.6604, 3543.518
177.1425, 3534.613
177.6246, 3509.508
178.1067, 3470.752
178.5888, 3433.187
179.0710, 3409.282
179.5531, 3394.948
180.0352, 3382.033
180.5173, 3369.617
180.9994, 3356.811
181.4815, 3341.132
181.9637, 3322.592
182.4458, 3305.952
182.9279, 3296.550
183.4100, 3292.704
183.8921, 3287.992
184.3742, 3280.952
184.8564, 3271.693
185.3385, 3260.411
185.8206, 3246.939
186.3027, 3232.272
186.7848, 3218.107
187.2669, 3204.035
187.7491, 3186.407
188.2312, 3161.067
188.7133, 3131.156
189.1954, 3107.928
189.6775, 3092.030
190.1596, 3080.668
190.6418, 3072.852
191.1239, 3068.424
191.6060, 3060.018
192.0881, 3042.059
192.5702, 3016.013
193.0524, 2995.972
193.5345, 2983.756
194.0166, 2972.952
194.4987, 2952.043
194.9808, 2920.210
195.4629, 2890.515
195.9451, 2870.235
196.4272, 2858.924
196.9093, 2848.015
197.3914, 2837.624
197.8735, 2827.027
198.3556, 2815.320
198.8378, 2802.777
199.3199, 2787.740
199.8020, 2768.363
200.2841, 2744.441
200.7662, 2722.085
201.2483, 2702.284
201.7305, 2683.660
202.2126, 2661.352
202.6947, 2633.440
203.1768, 2609.018
203.6589, 2594.290
204.1410, 2590.498
204.6232, 2589.421
205.1053, 2592.911
205.5874, 2597.547
206.0695, 2590.338
206.5516, 2567.716
207.0337, 2542.612
207.5159, 2524.230
207.9980, 2514.699
208.4801, 2502.986
208.9622, 2486.130
209.4443, 2466.108
209.9264, 2453.709
210.4086, 2452.027
210.8907, 2451.732
211.3728, 2446.079
211.8549, 2434.556
212.3370, 2418.822
212.8191, 2397.002
213.3013, 2370.478
213.7834, 2349.081
214.2655, 2332.995
214.7476, 2321.713
215.2297, 2316.433
215.7118, 2320.793
216.1940, 2320.739
216.6761, 2312.767
217.1582, 2297.257
217.6403, 2283.102
218.1224, 2270.948
218.6045, 2259.502
219.0867, 2247.201
219.5688, 2232.918
220.0509, 2220.753
220.5330, 2212.486
221.0151, 2208.123
221.4972, 2201.791
221.9794, 2191.781
222.4615, 2181.648
222.9436, 2175.794
223.4257, 2177.709
223.9078, 2176.475
224.3899, 2168.269
224.8721, 2152.080
225.3542, 2141.495
225.8363, 2140.469
226.3184, 2141.219
226.8005, 2133.507
227.2827, 2111.586
227.7648, 2092.175
228.2469, 2078.943
228.7290, 2072.004
229.2111, 2071.181
229.6932, 2080.485
230.1754, 2092.661
230.6575, 2097.356
231.1396, 2088.126
231.6217, 2083.100
232.1038, 2090.961
232.5859, 2117.601
233.0681, 2123.801
233.5502, 2098.411
234.0323, 2060.658
234.5144, 2037.967
234.9965, 2035.478
235.4786, 2040.041
235.9608, 2051.007
236.4429, 2072.680
236.9250, 2079.086
237.4071, 2061.212
237.8892, 2033.598
238.3713, 2020.015
238.8535, 2028.711
239.3356, 2037.665
239.8177, 2039.824
240.2998, 2033.413
240.7819, 2026.688
241.2640, 2018.209
241.7462, 2010.142
242.2283, 2006.347
242.7104, 2008.539
243.1925, 2012.207
243.6746, 2016.081
244.1567, 2020.340
244.6389, 2024.412
245.1210, 2029.102
245.6031, 2033.132
246.0852, 2034.417
246.5673, 2033.502
247.0494, 2028.791
247.5316, 2017.671
248.0137, 1994.956
248.4958, 1984.141
248.9779, 1990.385
249.4600, 2005.714
249.9421, 2015.367
250.4243, 2017.714
250.9064, 2017.413
251.3885, 2015.346
251.8706, 2009.875
252.3527, 2008.661
252.8348, 2014.557
253.3170, 2022.940
253.7991, 2024.519
254.2812, 2016.276
254.7633, 2006.957
255.2454, 1999.080
255.7275, 1991.901
256.2097, 1989.484
256.6918, 1993.323
257.1739, 2000.920
257.6560, 2008.399
258.1381, 2017.281
258.6202, 2022.897
259.1024, 2023.079
259.5845, 2016.688
260.0666, 2008.620
260.5487, 1995.221
261.0308, 1982.964
261.5129, 1985.260
261.9951, 2008.291
262.4772, 2031.099
262.9593, 2045.660
263.4414, 2051.156
263.9235, 2052.362
264.4056, 2047.841
264.8878, 2040.371
265.3699, 2034.297
265.8520, 2029.238
266.3341, 2026.511
266.8162, 2026.495
267.2983, 2029.144
267.7805, 2036.083
268.2626, 2050.718
268.7447, 2065.762
269.2268, 2066.379
269.7089, 2048.032
270.1910, 2031.512
270.6732, 2024.113
271.1553, 2026.229
271.6374, 2036.526
272.1195, 2059.261
272.6016, 2083.955
273.0837, 2090.409
273.5659, 2074.787
274.0480, 2060.785
274.5301, 2057.762
275.0122, 2066.094
275.4943, 2076.331
275.9764, 2089.268
276.4586, 2102.615
276.9407, 2114.121
277.4228, 2124.065
277.9049, 2128.672
278.3870, 2123.192
278.8691, 2108.385
279.3513, 2102.459
279.8334, 2106.784
280.3155, 2116.467
280.7976, 2127.202
281.2798, 2139.155
281.7619, 2146.126
282.2440, 2142.883
282.7261, 2131.363
283.2082, 2126.489
283.6903, 2128.861
284.1725, 2135.669
284.6546, 2146.330
285.1367, 2160.427
285.6188, 2168.892
286.1009, 2162.804
286.5830, 2147.922
287.0652, 2151.657
287.5473, 2176.102
288.0294, 2206.426
288.5115, 2228.667
288.9936, 2243.068
289.4757, 2250.847
289.9579, 2249.977
290.4400, 2243.460
290.9221, 2239.217
291.4042, 2237.310
291.8863, 2236.893
292.3684, 2238.383
292.8506, 2241.051
293.3327, 2241.483
293.8148, 2236.059
294.2969, 2229.201
294.7790, 2231.761
295.2611, 2243.775
295.7433, 2254.665
296.2254, 2252.276
296.7075, 2241.164
297.1896, 2234.408
297.6717, 2237.587
298.1538, 2245.318
298.6360, 2250.781
299.1181, 2253.966
299.6002, 2254.173
300.0823, 2247.240
300.5644, 2237.360
301.0465, 2232.798
301.5287, 2238.034
302.0108, 2246.541
302.4929, 2251.754
302.9750, 2253.945
303.4571, 2254.366
303.9392, 2251.590
304.4214, 2248.256
304.9035, 2248.601
305.3856, 2256.510
305.8677, 2263.682
306.3498, 2260.154
306.8319, 2248.907
307.3141, 2240.393
307.7962, 2240.653
308.2783, 2246.782
308.7604, 2257.133
309.2425, 2273.924
309.7246, 2288.837
310.2068, 2295.557
310.6889, 2296.144
311.1710, 2296.064
311.6531, 2298.059
312.1352, 2300.340
312.6173, 2300.183
313.0995, 2294.329
313.5816, 2294.349
314.0637, 2311.588
314.5458, 2338.155
315.0279, 2359.319
315.5100, 2369.826
315.9922, 2373.149
316.4743, 2367.731
316.9564, 2349.193
317.4385, 2339.438
317.9206, 2354.365
318.4027, 2380.433
318.8849, 2398.724
319.3670, 2394.007
319.8491, 2389.583
320.3312, 2395.302
320.8133, 2413.897
321.2954, 2430.498
321.7776, 2442.888
322.2597, 2451.743
322.7418, 2457.783
323.2239, 2456.934
323.7060, 2457.449
324.1881, 2462.613
324.6703, 2473.151
325.1524, 2480.075
325.6345, 2482.340
326.1166, 2480.897
326.5987, 2476.396
327.0808, 2458.039
327.5630, 2449.463
328.0451, 2458.615
328.5272, 2484.299
329.0093, 2500.328
329.4914, 2501.196
329.9735, 2497.104
330.4557, 2494.548
330.9378, 2495.340
331.4199, 2494.509
331.9020, 2491.529
332.3841, 2486.605
332.8662, 2480.140
333.3484, 2469.674
333.8305, 2461.495
334.3126, 2460.760
334.7947, 2472.761
335.2768, 2475.380
335.7589, 2464.825
336.2411, 2445.774
336.7232, 2428.563
337.2053, 2412.359
337.6874, 2400.824
338.1695, 2398.876
338.6516, 2408.871
339.1338, 2406.175
339.6159, 2386.294
340.0980, 2360.144
340.5801, 2348.797
341.0622, 2354.076
341.5443, 2355.955
342.0265, 2343.367
342.5086, 2318.456
342.9907, 2300.793
343.4728, 2291.494
343.9549, 2285.673
344.4370, 2277.352
344.9192, 2266.955
345.4013, 2258.235
345.8834, 2253.538
346.3655, 2251.292
346.8476, 2248.070
347.3297, 2243.922
347.8119, 2238.061
348.2940, 2230.445
348.7761, 2220.605
349.2582, 2206.840
349.7403, 2185.238
350.2225, 2162.671
350.7046, 2150.891
351.1867, 2148.479
351.6688, 2145.321
352.1509, 2130.989
352.6331, 2112.035
353.1152, 2098.760
353.5973, 2095.405
354.0794, 2094.573
354.5615, 2088.337
355.0436, 2078.906
355.5258, 2072.997
356.0079, 2079.592
356.4900, 2088.391
356.9721, 2089.763
357.4542, 2080.477
357.9363, 2069.723
358.4185, 2061.980
358.9006, 2056.327
359.3827, 2051.175
359.8648, 2047.121
360.3469, 2042.441
360.8290, 2036.184
361.3112, 2028.135
361.7933, 2019.288
362.2754, 2004.322
362.7575, 1990.742
363.2396, 1986.690
363.7217, 2005.576
364.2039, 2022.665
364.6860, 2031.501
365.1681, 2031.864
365.6502, 2029.716
366.1323, 2024.927
366.6144, 2018.348
367.0966, 2010.481
367.5787, 1996.180
368.0608, 1987.051
368.5429, 1984.694
369.0250, 1988.376
369.5071, 1994.911
369.9893, 2010.030
370.4714, 2021.346
370.9535, 2022.404
371.4356, 2009.173
371.9177, 1994.198
372.3998, 1974.628
372.8820, 1954.871
373.3641, 1945.687
373.8462, 1950.052
374.3283, 1957.253
374.8104, 1962.666
375.2925, 1965.845
375.7747, 1974.643
376.2568, 1992.082
376.7389, 2009.301
377.2210, 2012.752
377.7031, 2001.543
378.1852, 1989.265
378.6674, 1978.794
379.1495, 1970.630
379.6316, 1967.307
380.1137, 1969.198
380.5958, 1972.793
381.0779, 1975.282
381.5601, 1976.802
382.0422, 1977.587
382.5243, 1976.835
383.0064, 1976.510
383.4885, 1981.008
383.9706, 1989.706
384.4528, 1997.702
384.9349, 2001.921
385.4170, 2003.245
385.8991, 2001.853
386.3812, 1995.931
386.8633, 1993.298
387.3455, 2007.281
387.8276, 2030.397
388.3097, 2045.714
388.7918, 2037.320
389.2739, 2022.216
389.7560, 2014.090
390.2382, 2014.477
390.7203, 2016.007
391.2024, 2012.170
391.6845, 2008.138
392.1666, 2009.860
392.6487, 2029.422
393.1309, 2045.650
393.6130, 2048.585
394.0951, 2039.149
394.5772, 2029.053
395.0593, 2016.515
395.5414, 2007.250
396.0236, 2004.995
396.5057, 2020.603
396.9878, 2030.974
397.4699, 2030.655
397.9520, 2023.083
398.4341, 2018.991
398.9163, 2018.038
399.3984, 2020.993
399.8805, 2029.683
400.3626, 2049.053
400.8447, 2058.912
401.3268, 2054.494
401.8090, 2044.072
402.2911, 2039.076
402.7732, 2040.709
403.2553, 2044.813
403.7374, 2050.795
404.2195, 2058.554
404.7017, 2067.259
405.1838, 2078.485
405.6659, 2086.415
406.1480, 2083.557
406.6301, 2069.702
407.1122, 2058.702
407.5944, 2052.591
408.0765, 2051.227
408.5586, 2056.034
409.0407, 2066.909
409.5228, 2077.723
410.0049, 2081.743
410.4871, 2082.415
410.9692, 2090.946
411.4513, 2110.064
411.9334, 2130.727
412.4155, 2142.663
412.8976, 2147.968
413.3798, 2152.329
413.8619, 2153.927
414.3440, 2158.559
414.8261, 2176.670
415.3082, 2208.354
415.7903, 2234.637
416.2725, 2235.652
416.7546, 2227.399
417.2367, 2228.177
417.7188, 2251.308
418.2009, 2276.216
418.6830, 2289.632
419.1652, 2296.018
419.6473, 2311.233
420.1294, 2353.899
420.6115, 2397.094
421.0937, 2425.679
421.5758, 2429.154
422.0579, 2435.135
422.5400, 2446.075
423.0221, 2461.864
423.5042, 2482.688
423.9864, 2512.426
424.4685, 2542.517
424.9506, 2571.042
425.4327, 2597.310
425.9148, 2626.055
426.3969, 2657.116
426.8791, 2690.807
427.3612, 2727.133
427.8433, 2766.161
428.3254, 2807.797
428.8075, 2853.821
429.2896, 2901.640
429.7718, 2939.073
430.2539, 2963.601
430.7360, 2991.326
431.2181, 3035.177
431.7002, 3093.558
432.1823, 3140.939
432.6645, 3173.443
433.1466, 3203.844
433.6287, 3250.158
434.1108, 3309.862
434.5929, 3371.057
435.0750, 3427.333
435.5572, 3482.165
436.0393, 3544.264
436.5214, 3613.117
437.0035, 3678.087
437.4856, 3724.138
437.9677, 3762.512
438.4499, 3808.803
438.9320, 3869.217
439.4141, 3934.634
439.8962, 4000.292
440.3783, 4065.773
440.8604, 4131.957
441.3426, 4195.070
441.8247, 4261.208
442.3068, 4336.090
442.7889, 4423.417
443.2710, 4504.492
443.7531, 4572.376
444.2353, 4632.034
444.7174, 4690.138
445.1995, 4742.082
445.6816, 4797.662
446.1637, 4858.633
446.6458, 4924.325
447.1280, 4994.948
447.6101, 5078.467
448.0922, 5158.413
448.5743, 5223.984
449.0564, 5269.569
449.5385, 5317.576
450.0207, 5369.762
450.5028, 5423.381
450.9849, 5473.159
451.4670, 5518.397
451.9491, 5561.115
452.4312, 5602.667
452.9134, 5642.470
453.3955, 5679.005
453.8776, 5712.898
454.3597, 5738.469
454.8418, 5744.229
455.3239, 5735.101
455.8061, 5730.987
456.2882, 5736.196
456.7703, 5748.674
457.2524, 5768.502
457.7345, 5793.964
458.2166, 5818.574
458.6988, 5841.290
459.1809, 5859.489
459.6630, 5870.780
460.1451, 5875.365
460.6272, 5870.522
461.1093, 5844.076
461.5915, 5810.451
462.0736, 5788.140
462.5557, 5796.833
463.0378, 5804.516
463.5199, 5796.992
464.0020, 5776.417
464.4842, 5759.851
464.9663, 5745.217
465.4484, 5739.829
465.9305, 5748.706
466.4126, 5786.645
466.8947, 5813.069
467.3769, 5823.327
467.8590, 5824.080
468.3411, 5825.627
468.8232, 5826.917
469.3053, 5831.255
469.7874, 5840.356
470.2696, 5853.902
470.7517, 5867.043
471.2338, 5880.918
471.7159, 5890.835
472.1980, 5888.193
472.6801, 5873.527
473.1623, 5870.758
473.6444, 5885.050
474.1265, 5909.011
474.6086, 5935.194
475.0907, 5962.066
475.5728, 5979.710
476.0550, 5981.154
476.5371, 5970.589
477.0192, 5950.378
477.5013, 5920.325
477.9834, 5895.435
478.4655, 5898.591
478.9477, 5910.314
479.4298, 5904.601
479.9119, 5863.270
480.3940, 5815.881
480.8761, 5783.605
481.3582, 5758.412
481.8404, 5717.453
482.3225, 5634.782
482.8046, 5549.938
483.2867, 5486.389
483.7688, 5461.187
484.2509, 5404.843
484.7331, 5281.664
485.2152, 5140.366
485.6973, 5023.739
486.1794, 4944.235
486.6615, 4868.220
487.1436, 4791.796
487.6258, 4714.929
488.1079, 4638.342
488.5900, 4564.658
489.0721, 4485.092
489.5542, 4389.954
490.0363, 4278.580
490.5185, 4184.767
491.0006, 4113.215
491.4827, 4049.053
491.9648, 3973.806
492.4470, 3889.409
492.9291, 3807.416
493.4112, 3733.268
493.8933, 3664.149
494.3754, 3600.320
494.8575, 3540.251
495.3397, 3478.177
495.8218, 3404.203
496.3039, 3328.053
496.7860, 3262.117
497.2681, 3209.305
497.7502, 3158.261
498.2324, 3100.373
498.7145, 3040.968
499.1966, 2986.167
499.6787, 2941.871
500.1608, 2898.955
500.6429, 2858.073
501.1251, 2818.401
501.6072, 2768.724
502.0893, 2691.277
502.5714, 2618.059
503.0535, 2564.761
503.5356, 2540.666
504.0178, 2514.623
504.4999, 2485.774
504.9820, 2455.969
505.4641, 2427.583
505.9462, 2400.966
506.4283, 2374.777
506.9105, 2350.513
507.3926, 2326.152
507.8747, 2290.613
508.3568, 2243.010
508.8389, 2198.214
509.3210, 2166.589
509.8032, 2145.683
510.2853, 2130.202
510.7674, 2121.154
511.2495, 2110.327
511.7316, 2083.823
512.2137, 2049.495
512.6959, 2023.696
513.1780, 2023.100
513.6601, 2024.795
514.1422, 2012.331
514.6243, 1987.613
515.1064, 1964.728
515.5886, 1953.162
516.0707, 1942.275
516.5528, 1924.419
517.0349, 1890.066
517.5170, 1866.353
517.9991, 1866.195
518.4813, 1874.181
518.9634, 1870.567
519.4455, 1847.514
519.9276, 1826.192
520.4097, 1810.301
520.8918, 1799.710
521.3740, 1793.148
521.8561, 1792.450
522.3382, 1789.710
522.8203, 1776.901
523.3024, 1755.101
523.7845, 1742.755
524.2667, 1742.667
524.7488, 1744.991
525.2309, 1737.021
525.7130, 1721.026
526.1951, 1704.766
526.6772, 1687.622
527.1594, 1674.473
527.6415, 1673.961
528.1236, 1683.643
528.6057, 1692.809
529.0878, 1698.464
529.5699, 1699.148
530.0521, 1691.512
530.5342, 1672.246
531.0163, 1657.685
531.4984, 1654.883
531.9805, 1658.509
532.4626, 1662.851
532.9448, 1674.762
533.4269, 1678.003
533.9090, 1667.087
534.3911, 1645.786
534.8732, 1628.688
535.3553, 1614.961
535.8375, 1606.837
536.3196, 1607.841
536.8017, 1618.796
537.2838, 1620.134
537.7659, 1609.531
538.2480, 1597.010
538.7302, 1595.855
539.2123, 1603.829
539.6944, 1604.786
540.1765, 1593.030
540.6586, 1576.793
541.1407, 1567.064
541.6229, 1562.521
542.1050, 1558.224
542.5871, 1550.362
543.0692, 1542.307
543.5513, 1536.562
544.0334, 1533.335
544.5156, 1533.321
544.9977, 1541.807
545.4798, 1550.792
545.9619, 1553.665
546.4440, 1544.296
546.9261, 1536.069
547.4083, 1533.437
547.8904, 1532.498
548.3725, 1525.823
548.8546, 1507.514
549.3367, 1493.232
549.8188, 1488.154
550.3010, 1491.281
550.7831, 1491.035
551.2652, 1487.065
551.7473, 1480.866
552.2294, 1470.904
552.7115, 1458.167
553.1937, 1454.167
553.6758, 1460.884
554.1579, 1471.893
554.6400, 1481.284
555.1221, 1488.749
555.6042, 1493.370
556.0864, 1495.936
556.5685, 1494.476
557.0506, 1483.558
557.5327, 1466.013
558.0148, 1452.562
558.4969, 1451.402
558.9791, 1453.699
559.4612, 1454.706
559.9433, 1454.043
560.4254, 1451.424
560.9075, 1440.397
561.3896, 1431.097
561.8718, 1432.891
562.3539, 1458.436
562.8360, 1473.057
563.3181, 1469.962
563.8002, 1456.340
564.2823, 1450.503
564.7645, 1454.980
565.2466, 1455.827
565.7287, 1444.763
566.2108, 1425.361
566.6929, 1415.962
567.1750, 1416.906
567.6572, 1421.877
568.1393, 1428.297
568.6214, 1434.493
569.1035, 1435.808
569.5856, 1430.167
570.0677, 1425.268
570.5499, 1430.539
571.0320, 1440.120
571.5141, 1444.772
571.9962, 1436.176
572.4783, 1426.932
572.9604, 1421.569
573.4426, 1419.783
573.9247, 1419.482
574.4068, 1421.489
574.8889, 1423.919
575.3710, 1426.215
575.8531, 1428.476
576.3353, 1429.800
576.8174, 1429.535
577.2995, 1429.282
577.7816, 1431.956
578.2637, 1438.322
578.7458, 1438.253
579.2280, 1428.535
579.7101, 1414.969
580.1922, 1407.989
580.6743, 1406.660
581.1564, 1405.695
581.6385, 1401.350
582.1207, 1396.673
582.6028, 1397.310
583.0849, 1402.375
583.5670, 1404.989
584.0491, 1397.200
584.5313, 1387.825
585.0134, 1384.494
585.4955, 1390.804
585.9776, 1395.113
586.4597, 1393.184
586.9418, 1388.251
587.4240, 1384.002
587.9061, 1381.542
588.3882, 1378.138
588.8703, 1372.615
589.3524, 1366.203
589.8345, 1361.333
590.3167, 1356.536
590.7988, 1359.519
591.2809, 1379.865
591.7630, 1411.625
592.2451, 1421.013
592.7272, 1407.428
593.2094, 1386.181
593.6915, 1362.625
594.1736, 1341.963
594.6557, 1336.541
595.1378, 1351.506
595.6199, 1368.623
596.1021, 1377.717
596.5842, 1379.428
597.0663, 1374.641
597.5485, 1352.382
598.0306, 1335.649
598.5127, 1335.203
598.9948, 1347.318
599.4769, 1355.567
599.9590, 1358.798
600.4412, 1358.250
600.9233, 1352.737
601.4054, 1341.570
601.8875, 1337.312
602.3696, 1343.218
602.8517, 1348.099
603.3339, 1339.092
603.8160, 1317.722
604.2981, 1305.755
604.7802, 1306.734
605.2623, 1313.923
605.7444, 1321.258
606.2266, 1328.069
606.7087, 1332.232
607.1908, 1332.310
607.6729, 1330.281
608.1550, 1326.207
608.6371, 1321.071
609.1193, 1317.928
609.6014, 1321.634
610.0835, 1324.527
610.5656, 1321.731
611.0477, 1311.757
611.5298, 1305.837
612.0120, 1307.213
612.4941, 1309.882
612.9762, 1310.132
613.4583, 1307.831
613.9404, 1302.750
614.4225, 1292.929
614.9047, 1283.816
615.3868, 1285.857
615.8689, 1297.932
616.3510, 1304.876
616.8331, 1301.309
617.3152, 1291.638
617.7974, 1278.602
618.2795, 1264.295
618.7616, 1256.076
619.2437, 1264.815
619.7258, 1276.138
620.2079, 1277.968
620.6901, 1269.760
621.1722, 1263.855
621.6543, 1266.354
622.1364, 1271.278
622.6185, 1274.545
623.1006, 1273.762
623.5828, 1276.467
624.0649, 1285.626
624.5470, 1295.549
625.0291, 1299.344
625.5112, 1296.293
625.9933, 1290.313
626.4755, 1280.698
626.9576, 1270.525
627.4397, 1266.915
627.9218, 1269.205
628.4039, 1272.345
628.8860, 1274.680
629.3682, 1276.002
629.8503, 1275.934
630.3324, 1274.532
630.8145, 1272.188
631.2966, 1266.543
631.7787, 1261.861
632.2609, 1261.985
632.7430, 1269.080
633.2251, 1274.314
633.7072, 1275.715
