##NAMES=Chabazite-Ca
##RRUFFID=R050014
##IDEAL CHEMISTRY=Ca_2_Al_4_Si_8_O_24_&#183;13H_2_O
##LOCALITY=Tablo Mountain, Baja California, Mexico
##OWNER=RRUFF
##SOURCE=University of Arizona Mineral Museum
##DESCRIPTION=Light tan colored rhombohedral single crystals
##STATUS=The identification of this mineral has been confirmed by X-ray diffraction and chemical analysis
##URL=rruff.info/R050014
##MEASURED CHEMISTRY=(Ca_0.72_Mg_0.11_K_0.09_Sr_0.06_Na_0.01_)_Σ=1_(Si_4.12_Al_1.88_)O_12_·6H_2_O
168.7490, 7682.442
169.2311, 7712.654
169.7132, 7732.809
170.1953, 7742.567
170.6774, 7748.569
171.1595, 7762.337
171.6417, 7794.836
172.1238, 7836.110
172.6059, 7859.589
173.0880, 7857.180
173.5701, 7852.636
174.0522, 7851.118
174.5344, 7855.362
175.0165, 7871.153
175.4986, 7906.040
175.9807, 7951.444
176.4628, 7984.518
176.9449, 8003.434
177.4271, 8011.931
177.9092, 8001.203
178.3913, 7985.001
178.8734, 7983.559
179.3555, 8010.692
179.8376, 8055.329
180.3197, 8085.259
180.8019, 8096.599
181.2840, 8098.497
181.7661, 8084.753
182.2482, 8067.681
182.7303, 8065.019
183.2124, 8088.845
183.6946, 8126.891
184.1767, 8142.357
184.6588, 8120.201
185.1409, 8100.784
185.6230, 8085.796
186.1051, 8081.978
186.5873, 8102.820
187.0694, 8159.350
187.5515, 8230.654
188.0336, 8259.243
188.5157, 8217.702
188.9978, 8178.093
189.4800, 8154.471
189.9621, 8141.313
190.4442, 8131.582
190.9263, 8121.907
191.4084, 8116.886
191.8905, 8130.588
192.3727, 8182.505
192.8548, 8218.032
193.3369, 8223.488
193.8190, 8213.433
194.3011, 8199.688
194.7832, 8186.806
195.2654, 8176.014
195.7475, 8170.372
196.2296, 8172.414
196.7117, 8175.140
197.1938, 8175.813
197.6759, 8177.539
198.1581, 8186.963
198.6402, 8205.783
199.1223, 8222.888
199.6044, 8213.356
200.0865, 8150.598
200.5686, 8115.283
201.0508, 8137.929
201.5329, 8171.028
202.0150, 8174.097
202.4971, 8137.289
202.9792, 8086.062
203.4613, 8062.871
203.9435, 8084.202
204.4256, 8097.178
204.9077, 8100.917
205.3898, 8095.990
205.8719, 8077.750
206.3540, 8047.473
206.8362, 8016.671
207.3183, 8001.527
207.8004, 8007.829
208.2825, 8016.129
208.7646, 8033.905
209.2467, 8047.679
209.7289, 8049.133
210.2110, 8037.589
210.6931, 8017.848
211.1752, 7992.700
211.6573, 7956.788
212.1395, 7936.348
212.6216, 7941.829
213.1037, 7952.684
213.5858, 7959.218
214.0679, 7961.403
214.5500, 7965.429
215.0322, 7979.835
215.5143, 8008.601
215.9964, 8020.414
216.4785, 7993.802
216.9606, 7970.421
217.4427, 7968.592
217.9249, 7984.454
218.4070, 8003.052
218.8891, 8012.255
219.3712, 8011.841
219.8533, 8009.957
220.3354, 7990.882
220.8176, 7986.103
221.2997, 8022.416
221.7818, 8079.770
222.2639, 8118.029
222.7460, 8106.667
223.2281, 8050.668
223.7103, 8004.869
224.1924, 7975.721
224.6745, 7950.739
225.1566, 7922.552
225.6387, 7897.654
226.1208, 7886.219
226.6030, 7894.707
227.0851, 7919.835
227.5672, 7949.332
228.0493, 8001.547
228.5314, 8031.742
229.0135, 8020.768
229.4957, 7989.590
229.9778, 7961.466
230.4599, 7946.862
230.9420, 7940.608
231.4241, 7929.249
231.9062, 7906.010
232.3884, 7889.749
232.8705, 7884.355
233.3526, 7884.985
233.8347, 7887.895
234.3168, 7891.782
234.7989, 7896.843
235.2811, 7903.251
235.7632, 7910.670
236.2453, 7920.498
236.7274, 7940.729
237.2095, 7957.844
237.6916, 7960.976
238.1738, 7948.874
238.6559, 7930.655
239.1380, 7915.628
239.6201, 7902.135
240.1022, 7898.377
240.5843, 7918.765
241.0665, 7937.391
241.5486, 7940.271
242.0307, 7928.058
242.5128, 7911.267
242.9949, 7896.897
243.4770, 7884.052
243.9592, 7884.998
244.4413, 7920.848
244.9234, 7950.883
245.4055, 7955.319
245.8876, 7940.808
246.3697, 7926.499
246.8519, 7926.546
247.3340, 7939.265
247.8161, 7950.009
248.2982, 7962.682
248.7803, 7967.302
249.2624, 7955.233
249.7446, 7934.573
250.2267, 7918.152
250.7088, 7912.750
251.1909, 7916.003
251.6730, 7921.925
252.1551, 7933.001
252.6373, 7941.621
253.1194, 7946.772
253.6015, 7948.008
254.0836, 7943.200
254.5657, 7930.358
255.0478, 7915.916
255.5300, 7911.840
256.0121, 7921.958
256.4942, 7927.913
256.9763, 7911.163
257.4584, 7896.007
257.9406, 7906.039
258.4227, 7947.073
258.9048, 7990.152
259.3869, 8001.231
259.8690, 7978.639
260.3511, 7963.037
260.8333, 7964.891
261.3154, 7973.972
261.7975, 7983.879
262.2796, 7994.129
262.7617, 8004.397
263.2438, 8018.563
263.7260, 8034.222
264.2081, 8036.221
264.6902, 8017.985
265.1723, 7993.018
265.6544, 7965.827
266.1365, 7939.096
266.6187, 7923.168
267.1008, 7927.416
267.5829, 7944.932
268.0650, 7963.823
268.5471, 7986.458
269.0292, 8001.748
269.5114, 7994.493
269.9935, 7975.094
270.4756, 7960.572
270.9577, 7955.377
271.4398, 7956.782
271.9219, 7964.701
272.4041, 7979.441
272.8862, 7990.271
273.3683, 7990.292
273.8504, 7983.462
274.3325, 7977.869
274.8146, 7973.697
275.2968, 7971.089
275.7789, 7968.704
276.2610, 7967.517
276.7431, 7972.546
277.2252, 7987.934
277.7073, 8007.202
278.1895, 8018.435
278.6716, 8019.476
279.1537, 8023.981
279.6358, 8046.684
280.1179, 8073.828
280.6000, 8077.850
281.0822, 8050.293
281.5643, 8014.186
282.0464, 7995.623
282.5285, 7995.618
283.0106, 8001.389
283.4927, 8011.761
283.9749, 8027.243
284.4570, 8052.683
284.9391, 8087.011
285.4212, 8117.092
285.9033, 8131.995
286.3854, 8131.340
286.8676, 8127.923
287.3497, 8118.986
287.8318, 8110.217
288.3139, 8100.830
288.7960, 8093.467
289.2781, 8096.962
289.7603, 8118.389
290.2424, 8150.750
290.7245, 8163.713
291.2066, 8137.644
291.6887, 8117.887
292.1708, 8117.891
292.6530, 8125.485
293.1351, 8123.940
293.6172, 8107.555
294.0993, 8085.468
294.5814, 8074.161
295.0635, 8066.092
295.5457, 8097.312
296.0278, 8116.952
296.5099, 8125.631
296.9920, 8090.528
297.4741, 8111.962
297.9562, 8110.738
298.4384, 8108.586
298.9205, 8137.977
299.4026, 8109.242
299.8847, 8138.133
300.3668, 8144.020
300.8489, 8160.436
301.3311, 8154.055
301.8131, 8154.714
302.2953, 8178.179
302.7774, 8189.016
303.2595, 8180.010
303.7416, 8170.198
304.2237, 8178.380
304.7058, 8193.221
305.1880, 8207.215
305.6701, 8209.021
306.1522, 8193.926
306.6343, 8175.822
307.1164, 8182.306
307.5985, 8224.356
308.0807, 8249.850
308.5628, 8232.547
309.0449, 8207.420
309.5270, 8192.655
310.0091, 8190.576
310.4912, 8196.112
310.9734, 8207.793
311.4555, 8224.844
311.9376, 8239.272
312.4197, 8253.814
312.9018, 8260.125
313.3839, 8245.532
313.8661, 8218.889
314.3482, 8204.074
314.8303, 8223.596
315.3124, 8256.349
315.7945, 8261.828
316.2766, 8235.432
316.7588, 8208.734
317.2409, 8199.605
317.7230, 8200.860
318.2051, 8199.250
318.6872, 8187.023
319.1693, 8182.767
319.6515, 8209.962
320.1336, 8260.200
320.6157, 8294.582
321.0978, 8295.844
321.5799, 8281.788
322.0620, 8282.229
322.5442, 8300.052
323.0263, 8311.435
323.5084, 8301.719
323.9905, 8285.212
324.4726, 8279.840
324.9547, 8288.610
325.4369, 8306.776
325.9190, 8332.908
326.4011, 8368.178
326.8832, 8389.860
327.3653, 8388.832
327.8474, 8383.296
328.3296, 8380.373
328.8117, 8381.187
329.2938, 8387.683
329.7759, 8401.884
330.2580, 8421.156
330.7401, 8433.091
331.2223, 8439.258
331.7044, 8436.027
332.1865, 8414.648
332.6686, 8387.467
333.1507, 8366.463
333.6328, 8355.637
334.1150, 8353.136
334.5971, 8358.056
335.0792, 8377.608
335.5613, 8384.475
336.0434, 8373.826
336.5255, 8356.476
337.0077, 8333.198
337.4898, 8307.403
337.9719, 8286.182
338.4540, 8276.244
338.9361, 8276.163
339.4182, 8273.528
339.9004, 8270.603
340.3825, 8261.156
340.8646, 8238.156
341.3467, 8210.271
341.8288, 8188.766
342.3109, 8178.256
342.7931, 8173.197
343.2752, 8164.406
343.7573, 8150.597
344.2394, 8142.377
344.7215, 8146.382
345.2036, 8153.830
345.6858, 8164.327
346.1679, 8176.823
346.6500, 8170.893
347.1321, 8115.380
347.6142, 8031.892
348.0963, 7982.223
348.5785, 7978.033
349.0606, 7990.119
349.5427, 7998.940
350.0248, 8006.160
350.5069, 8017.026
350.9890, 8041.476
351.4712, 8062.807
351.9533, 8067.731
352.4354, 8057.484
352.9175, 8036.367
353.3996, 8001.727
353.8817, 7962.829
354.3639, 7947.062
354.8460, 7967.325
355.3281, 7978.459
355.8102, 7962.812
356.2923, 7936.253
356.7744, 7917.494
357.2566, 7910.409
357.7387, 7908.409
358.2208, 7905.583
358.7029, 7903.973
359.1850, 7888.307
359.6671, 7834.196
360.1493, 7792.211
360.6314, 7797.502
361.1135, 7832.266
361.5956, 7853.539
362.0777, 7834.113
362.5598, 7789.319
363.0420, 7777.139
363.5241, 7828.977
364.0062, 7863.345
364.4883, 7867.978
364.9704, 7855.097
365.4525, 7828.711
365.9347, 7792.229
366.4168, 7758.603
366.8989, 7746.055
367.3810, 7756.233
367.8631, 7757.331
368.3452, 7736.098
368.8274, 7720.388
369.3095, 7731.034
369.7916, 7757.680
370.2737, 7774.450
370.7558, 7761.784
371.2379, 7738.472
371.7201, 7739.596
372.2022, 7768.051
372.6843, 7793.121
373.1664, 7802.229
373.6485, 7799.826
374.1306, 7792.373
374.6128, 7777.799
375.0949, 7766.287
375.5770, 7766.564
376.0591, 7773.125
376.5412, 7775.258
377.0233, 7770.745
377.5055, 7761.970
377.9876, 7750.161
378.4697, 7734.910
378.9518, 7722.911
379.4339, 7718.486
379.9160, 7713.555
380.3982, 7700.069
380.8803, 7681.808
381.3624, 7669.321
381.8445, 7668.272
382.3266, 7676.930
382.8087, 7690.467
383.2909, 7722.620
383.7730, 7740.847
384.2551, 7734.081
384.7372, 7720.096
385.2193, 7714.743
385.7014, 7719.581
386.1836, 7723.645
386.6657, 7713.592
387.1478, 7688.239
387.6299, 7672.546
388.1120, 7674.450
388.5941, 7677.286
389.0763, 7672.920
389.5584, 7666.497
390.0405, 7666.605
390.5226, 7677.531
391.0047, 7694.673
391.4868, 7713.559
391.9690, 7735.175
392.4511, 7748.063
392.9332, 7744.722
393.4153, 7734.982
393.8974, 7727.157
394.3795, 7721.438
394.8617, 7718.752
395.3438, 7723.279
395.8259, 7729.862
396.3080, 7726.660
396.7901, 7711.838
397.2722, 7703.384
397.7544, 7720.001
398.2365, 7753.642
398.7186, 7762.802
399.2007, 7721.224
399.6828, 7685.067
400.1649, 7685.285
400.6471, 7703.077
401.1292, 7703.713
401.6113, 7675.639
402.0934, 7640.132
402.5755, 7629.317
403.0576, 7654.303
403.5398, 7671.090
404.0219, 7680.566
404.5040, 7682.475
404.9861, 7670.313
405.4682, 7650.351
405.9503, 7638.259
406.4325, 7645.721
406.9146, 7664.331
407.3967, 7661.948
407.8788, 7623.463
408.3609, 7595.103
408.8430, 7586.883
409.3252, 7590.448
409.8073, 7604.575
410.2894, 7627.508
410.7715, 7645.954
411.2536, 7642.999
411.7357, 7624.014
412.2179, 7617.576
412.7000, 7628.639
413.1821, 7644.778
413.6642, 7658.235
414.1463, 7670.642
414.6284, 7685.450
415.1106, 7708.245
415.5927, 7727.672
416.0748, 7733.590
416.5569, 7729.170
417.0390, 7723.475
417.5211, 7719.091
418.0033, 7716.173
418.4854, 7713.562
418.9675, 7707.665
419.4496, 7716.447
419.9317, 7751.636
420.4138, 7792.608
420.8960, 7830.689
421.3781, 7862.799
421.8602, 7884.351
422.3423, 7891.897
422.8244, 7887.879
423.3065, 7882.032
423.7887, 7864.518
424.2708, 7861.418
424.7529, 7881.938
425.2350, 7912.045
425.7171, 7944.026
426.1992, 7975.010
426.6814, 8000.275
427.1635, 8011.785
427.6456, 8011.257
428.1277, 8017.696
428.6098, 8030.429
429.0919, 8051.669
429.5741, 8090.424
430.0562, 8136.193
430.5383, 8171.903
431.0204, 8188.827
431.5025, 8205.211
431.9846, 8241.387
432.4668, 8290.477
432.9489, 8323.311
433.4310, 8327.180
433.9131, 8331.396
434.3952, 8376.833
434.8773, 8469.258
435.3595, 8537.828
435.8416, 8556.723
436.3237, 8570.416
436.8058, 8606.295
437.2879, 8659.603
437.7701, 8715.406
438.2522, 8766.337
438.7343, 8813.109
439.2164, 8856.379
439.6985, 8888.137
440.1806, 8931.033
440.6628, 8987.457
441.1449, 9052.336
441.6270, 9130.592
442.1091, 9216.033
442.5912, 9289.902
443.0733, 9332.338
443.5555, 9354.010
444.0376, 9398.974
444.5197, 9476.881
445.0018, 9551.133
445.4839, 9606.135
445.9660, 9651.826
446.4482, 9694.963
446.9303, 9735.050
447.4124, 9781.594
447.8945, 9845.258
448.3766, 9918.632
448.8587, 9988.918
449.3409, 10055.39
449.8230, 10108.40
450.3051, 10134.81
450.7872, 10138.84
451.2693, 10163.30
451.7514, 10227.23
452.2336, 10287.72
452.7157, 10331.31
453.1978, 10362.70
453.6799, 10387.56
454.1620, 10407.84
454.6441, 10423.66
455.1263, 10435.05
455.6084, 10441.76
456.0905, 10445.43
456.5726, 10445.49
457.0547, 10442.83
457.5368, 10438.27
458.0190, 10430.97
458.5011, 10416.85
458.9832, 10392.04
459.4653, 10370.27
459.9474, 10379.35
460.4295, 10420.03
460.9117, 10437.56
461.3938, 10411.71
461.8759, 10372.77
462.3580, 10344.85
462.8401, 10326.81
463.3222, 10314.06
463.8044, 10314.52
464.2865, 10312.45
464.7686, 10289.46
465.2507, 10250.56
465.7328, 10214.45
466.2149, 10188.09
466.6971, 10172.96
467.1792, 10173.53
467.6613, 10203.33
468.1434, 10220.27
468.6255, 10214.74
469.1076, 10204.99
469.5898, 10202.13
470.0719, 10205.11
470.5540, 10207.36
471.0361, 10204.61
471.5182, 10198.76
472.0003, 10196.35
472.4825, 10201.17
472.9646, 10199.14
473.4467, 10179.45
473.9288, 10157.46
474.4109, 10146.10
474.8930, 10144.26
475.3752, 10135.98
475.8573, 10106.55
476.3394, 10067.13
476.8215, 10039.40
477.3036, 10024.03
477.7857, 10000.77
478.2679, 9955.950
478.7500, 9899.837
479.2321, 9858.103
479.7142, 9838.042
480.1963, 9812.454
480.6784, 9775.458
481.1606, 9731.240
481.6427, 9680.465
482.1248, 9625.188
482.6069, 9572.733
483.0890, 9529.140
483.5711, 9491.863
484.0533, 9445.608
484.5354, 9386.366
485.0175, 9324.027
485.4996, 9259.211
485.9817, 9192.884
486.4638, 9128.004
486.9460, 9063.685
487.4281, 8994.122
487.9102, 8910.157
488.3923, 8817.593
488.8744, 8732.658
489.3565, 8655.091
489.8387, 8588.883
490.3208, 8542.674
490.8029, 8506.335
491.2850, 8458.931
491.7671, 8398.093
492.2492, 8333.239
492.7314, 8260.915
493.2135, 8190.440
493.6956, 8133.904
494.1777, 8091.678
494.6598, 8054.281
495.1419, 8014.485
495.6241, 7973.476
496.1062, 7938.303
496.5883, 7921.368
497.0704, 7892.646
497.5525, 7842.789
498.0346, 7784.881
498.5168, 7726.715
498.9989, 7670.940
499.4810, 7620.664
499.9631, 7577.643
500.4452, 7542.117
500.9273, 7517.737
501.4095, 7507.218
501.8916, 7496.533
502.3737, 7481.987
502.8558, 7461.961
503.3379, 7433.300
503.8200, 7393.336
504.3022, 7356.279
504.7843, 7326.920
505.2664, 7303.654
505.7485, 7287.119
506.2306, 7276.144
506.7127, 7265.212
507.1949, 7250.478
507.6770, 7232.917
508.1591, 7216.844
508.6412, 7199.762
509.1233, 7188.128
509.6054, 7193.419
510.0876, 7195.492
510.5697, 7175.551
511.0518, 7136.384
511.5339, 7097.599
512.0161, 7073.963
512.4982, 7060.413
512.9803, 7039.303
513.4624, 7006.902
513.9445, 6992.765
514.4266, 7025.171
514.9088, 7065.189
515.3909, 7055.785
515.8730, 6992.076
516.3551, 6944.003
516.8372, 6944.804
517.3193, 6961.414
517.8015, 6962.099
518.2836, 6949.557
518.7657, 6946.201
519.2478, 6965.853
519.7299, 6992.923
520.2120, 6987.527
520.6942, 6915.614
521.1763, 6876.668
521.6584, 6902.199
522.1405, 6927.292
522.6226, 6909.851
523.1047, 6862.950
523.5869, 6826.114
524.0690, 6821.297
524.5511, 6833.752
525.0332, 6842.889
525.5153, 6848.684
525.9974, 6845.834
526.4796, 6827.997
526.9617, 6809.436
527.4438, 6811.606
527.9259, 6831.042
528.4080, 6833.858
528.8901, 6794.206
529.3723, 6757.540
529.8544, 6758.918
530.3365, 6781.127
530.8186, 6788.503
531.3007, 6769.119
531.7828, 6740.020
532.2650, 6725.328
532.7471, 6728.304
533.2292, 6724.854
533.7113, 6704.400
534.1934, 6689.724
534.6755, 6693.630
535.1577, 6705.042
535.6398, 6708.365
536.1219, 6698.669
536.6040, 6685.152
537.0861, 6675.367
537.5682, 6668.624
538.0504, 6662.221
538.5325, 6655.527
539.0146, 6652.481
539.4967, 6659.068
539.9788, 6671.426
540.4609, 6670.421
540.9431, 6642.324
541.4252, 6621.193
541.9073, 6615.652
542.3894, 6618.967
542.8715, 6627.601
543.3536, 6639.266
543.8358, 6650.311
544.3179, 6659.495
544.8000, 6664.127
545.2821, 6648.914
545.7642, 6602.837
546.2463, 6567.188
546.7285, 6557.996
547.2106, 6559.457
547.6927, 6561.704
548.1748, 6563.960
548.6569, 6565.245
549.1390, 6567.117
549.6211, 6566.385
550.1032, 6554.448
550.5853, 6535.375
551.0674, 6529.918
551.5496, 6548.544
552.0317, 6572.728
552.5138, 6571.158
552.9959, 6532.557
553.4780, 6506.168
553.9601, 6495.049
554.4423, 6490.836
554.9244, 6492.103
555.4065, 6497.449
555.8886, 6505.978
556.3707, 6517.481
556.8528, 6529.524
557.3350, 6541.061
557.8171, 6551.364
558.2992, 6553.531
558.7813, 6545.145
559.2634, 6534.353
559.7455, 6527.479
560.2277, 6521.975
560.7098, 6509.670
561.1919, 6482.825
561.6740, 6462.573
562.1561, 6459.481
562.6382, 6463.837
563.1204, 6464.565
563.6025, 6461.446
564.0846, 6462.571
564.5667, 6475.042
565.0488, 6494.284
565.5309, 6502.466
566.0131, 6497.604
566.4952, 6486.667
566.9773, 6461.833
567.4594, 6438.444
567.9415, 6426.942
568.4236, 6425.969
568.9058, 6427.193
569.3879, 6429.611
569.8700, 6430.444
570.3521, 6425.344
570.8342, 6416.104
571.3163, 6409.875
571.7985, 6409.276
572.2806, 6407.440
572.7627, 6394.541
573.2448, 6368.059
573.7269, 6354.188
574.2090, 6364.613
574.6912, 6372.863
575.1733, 6367.787
575.6554, 6359.507
576.1375, 6361.784
576.6196, 6376.695
577.1017, 6390.876
577.5839, 6389.959
578.0660, 6378.650
578.5481, 6373.675
579.0302, 6376.163
579.5123, 6377.557
579.9944, 6375.778
580.4766, 6369.045
580.9587, 6349.675
581.4408, 6310.447
581.9229, 6289.555
582.4050, 6304.923
582.8871, 6328.874
583.3693, 6350.910
583.8514, 6365.857
584.3335, 6364.469
584.8156, 6342.285
585.2977, 6312.073
585.7798, 6292.882
586.2620, 6285.174
586.7441, 6284.758
587.2262, 6296.303
587.7083, 6307.113
588.1904, 6308.972
588.6725, 6305.628
589.1547, 6303.358
589.6368, 6304.657
590.1189, 6302.597
590.6010, 6288.610
591.0831, 6272.207
591.5652, 6268.004
592.0474, 6275.138
592.5295, 6279.830
593.0116, 6272.359
593.4937, 6257.756
593.9758, 6252.353
594.4579, 6262.345
594.9401, 6266.846
595.4222, 6260.835
595.9043, 6251.852
596.3864, 6240.985
596.8685, 6230.164
597.3506, 6222.920
597.8328, 6218.757
598.3149, 6222.192
598.7970, 6247.150
599.2791, 6282.100
599.7612, 6296.105
600.2433, 6283.211
600.7255, 6256.880
601.2076, 6224.664
601.6897, 6189.409
602.1718, 6174.587
602.6539, 6200.270
603.1360, 6219.577
603.6182, 6234.224
604.1003, 6237.309
604.5824, 6212.276
605.0645, 6168.439
605.5466, 6142.152
606.0287, 6163.358
606.5109, 6200.815
606.9930, 6207.563
607.4751, 6186.471
607.9572, 6156.898
608.4393, 6119.545
608.9214, 6090.775
609.4036, 6090.409
609.8857, 6118.611
610.3678, 6134.593
610.8499, 6134.620
611.3320, 6128.434
611.8141, 6110.407
612.2963, 6092.143
612.7784, 6086.669
613.2605, 6094.142
613.7426, 6104.146
614.2247, 6109.257
614.7068, 6110.966
615.1890, 6114.706
615.6711, 6120.935
616.1532, 6117.998
616.6353, 6100.090
617.1174, 6076.109
617.5995, 6052.839
618.0817, 6030.257
618.5638, 6020.095
619.0459, 6033.938
619.5280, 6047.402
620.0101, 6049.905
620.4922, 6047.331
620.9744, 6046.844
621.4565, 6050.074
621.9386, 6055.658
622.4207, 6065.286
622.9028, 6075.057
623.3849, 6065.965
623.8671, 6033.650
624.3492, 6007.547
624.8313, 5995.230
625.3134, 5994.325
625.7955, 6007.208
626.2776, 6032.940
626.7598, 6050.586
627.2419, 6052.365
627.7240, 6050.681
628.2061, 6055.080
628.6882, 6058.552
629.1703, 6045.879
629.6525, 6016.272
630.1346, 5990.085
630.6167, 5989.930
631.0988, 6009.956
631.5809, 6015.538
632.0630, 6001.840
632.5452, 5992.967
633.0273, 5999.720
633.5094, 6010.963
633.9915, 6015.659
634.4736, 6014.000
634.9557, 6006.682
635.4379, 5988.108
635.9200, 5969.950
636.4021, 5955.511
636.8842, 5946.992
637.3663, 5950.865
637.8484, 5966.872
638.3306, 5982.263
638.8127, 5983.437
639.2948, 5973.080
639.7769, 5968.951
640.2590, 5974.673
640.7411, 5972.912
641.2233, 5949.992
641.7054, 5926.080
642.1875, 5925.619
642.6696, 5946.305
643.1517, 5959.393
643.6339, 5957.527
644.1160, 5948.158
644.5981, 5929.207
645.0802, 5907.825
645.5623, 5892.625
646.0444, 5886.433
646.5266, 5892.169
647.0087, 5916.422
647.4908, 5952.565
647.9729, 5967.988
648.4550, 5958.607
648.9371, 5943.867
649.4193, 5924.703
649.9014, 5906.147
650.3835, 5891.131
650.8656, 5880.061
651.3477, 5876.613
651.8298, 5888.801
652.3120, 5900.304
652.7941, 5902.949
653.2762, 5900.628
653.7583, 5898.977
654.2404, 5898.581
654.7225, 5895.424
655.2047, 5885.316
655.6868, 5871.268
656.1689, 5865.223
656.6510, 5869.623
657.1331, 5866.044
657.6152, 5845.704
658.0974, 5823.557
658.5795, 5815.504
659.0616, 5817.925
659.5437, 5814.743
660.0258, 5798.201
660.5079, 5783.690
660.9901, 5777.189
661.4722, 5774.820
661.9543, 5772.381
662.4364, 5769.745
662.9185, 5769.900
