##NAMES=Chabazite-Ca
##RRUFFID=R070353
##IDEAL CHEMISTRY=Ca_2_Al_4_Si_8_O_24_&#183;13H_2_O
##LOCALITY=Maze, Niigata perfecture, Japan
##OWNER=RRUFF
##SOURCE=Michael Scott
##DESCRIPTION=Colorless vitreous pseudocubic crystals in cavity
##STATUS=The identification of this mineral is confirmed by single-crystal X-ray diffraction and chemical analysis.
##URL=rruff.info/R070353
##MEASURED CHEMISTRY=(Ca_0.90_Na_0.08_K_0.02_)_Σ=1_(Si_4.10_Al_1.90_)O_12_·5.89H_2_O ; H_2_O estimated by difference
147.5358, 3485.436
148.0179, 3599.912
148.5001, 3700.096
148.9822, 3787.995
149.4643, 3862.705
149.9464, 3925.137
150.4285, 3982.475
150.9106, 4043.348
151.3928, 4105.193
151.8749, 4150.972
152.3570, 4173.039
152.8391, 4182.574
153.3212, 4190.032
153.8033, 4196.215
154.2855, 4195.759
154.7676, 4181.914
155.2497, 4156.859
155.7318, 4130.345
156.2139, 4101.144
156.6960, 4072.508
157.1782, 4048.144
157.6603, 4028.427
158.1424, 4011.656
158.6245, 3991.996
159.1066, 3973.969
159.5887, 3971.288
160.0709, 3998.823
160.5530, 4039.454
161.0351, 4068.215
161.5172, 4082.367
161.9993, 4092.348
162.4814, 4101.753
162.9636, 4112.215
163.4457, 4127.975
163.9278, 4152.127
164.4099, 4181.974
164.8920, 4212.851
165.3741, 4244.901
165.8563, 4277.419
166.3384, 4312.070
166.8205, 4346.764
167.3026, 4377.378
167.7847, 4398.742
168.2668, 4416.195
168.7490, 4444.290
169.2311, 4491.251
169.7132, 4529.989
170.1953, 4541.123
170.6774, 4536.250
171.1595, 4533.361
171.6417, 4544.989
172.1238, 4562.073
172.6059, 4559.560
173.0880, 4527.291
173.5701, 4495.363
174.0522, 4480.646
174.5344, 4474.003
175.0165, 4461.597
175.4986, 4432.525
175.9807, 4395.796
176.4628, 4378.089
176.9449, 4391.310
177.4271, 4402.005
177.9092, 4398.556
178.3913, 4384.990
178.8734, 4365.427
179.3555, 4339.341
179.8376, 4310.644
180.3197, 4291.738
180.8019, 4289.877
181.2840, 4285.108
181.7661, 4268.650
182.2482, 4246.831
182.7303, 4228.177
183.2124, 4217.832
183.6946, 4211.603
184.1767, 4195.823
184.6588, 4160.119
185.1409, 4133.620
185.6230, 4132.000
186.1051, 4139.543
186.5873, 4138.104
187.0694, 4118.770
187.5515, 4087.040
188.0336, 4056.255
188.5157, 4025.399
188.9978, 3998.081
189.4800, 3975.835
189.9621, 3956.704
190.4442, 3938.697
190.9263, 3921.166
191.4084, 3903.967
191.8905, 3886.879
192.3727, 3870.269
192.8548, 3852.935
193.3369, 3832.574
193.8190, 3812.405
194.3011, 3796.812
194.7832, 3787.648
195.2654, 3780.286
195.7475, 3763.242
196.2296, 3724.973
196.7117, 3699.030
197.1938, 3700.015
197.6759, 3707.394
198.1581, 3701.874
198.6402, 3677.180
199.1223, 3644.025
199.6044, 3623.948
200.0865, 3629.987
200.5686, 3622.496
201.0508, 3585.363
201.5329, 3543.642
202.0150, 3519.870
202.4971, 3519.167
202.9792, 3525.901
203.4613, 3513.555
203.9435, 3470.458
204.4256, 3434.294
204.9077, 3405.239
205.3898, 3383.386
205.8719, 3372.411
206.3540, 3371.451
206.8362, 3372.054
207.3183, 3362.579
207.8004, 3340.323
208.2825, 3314.364
208.7646, 3281.522
209.2467, 3247.969
209.7289, 3216.293
210.2110, 3187.459
210.6931, 3161.724
211.1752, 3139.006
211.6573, 3118.479
212.1395, 3104.891
212.6216, 3113.311
213.1037, 3115.577
213.5858, 3089.073
214.0679, 3039.596
214.5500, 2994.533
215.0322, 2984.266
215.5143, 3016.496
215.9964, 3032.457
216.4785, 3022.892
216.9606, 3006.017
217.4427, 2983.302
217.9249, 2958.240
218.4070, 2936.953
218.8891, 2924.993
219.3712, 2922.613
219.8533, 2920.501
220.3354, 2918.326
220.8176, 2916.779
221.2997, 2921.004
221.7818, 2925.962
222.2639, 2921.178
222.7460, 2897.761
223.2281, 2857.925
223.7103, 2827.628
224.1924, 2814.279
224.6745, 2803.256
225.1566, 2791.563
225.6387, 2780.203
226.1208, 2771.872
226.6030, 2768.759
227.0851, 2768.458
227.5672, 2760.329
228.0493, 2734.350
228.5314, 2713.930
229.0135, 2710.827
229.4957, 2712.265
229.9778, 2700.592
230.4599, 2667.263
230.9420, 2624.697
231.4241, 2605.260
231.9062, 2628.924
232.3884, 2641.936
232.8705, 2629.476
233.3526, 2609.374
233.8347, 2597.092
234.3168, 2597.734
234.7989, 2605.352
235.2811, 2610.160
235.7632, 2611.626
236.2453, 2611.364
236.7274, 2607.418
237.2095, 2603.462
237.6916, 2602.268
238.1738, 2604.212
238.6559, 2607.256
239.1380, 2610.498
239.6201, 2616.449
240.1022, 2612.883
240.5843, 2584.267
241.0665, 2558.413
241.5486, 2549.789
242.0307, 2558.018
242.5128, 2573.052
242.9949, 2587.738
243.4770, 2602.720
243.9592, 2609.709
244.4413, 2608.480
244.9234, 2598.297
245.4055, 2566.876
245.8876, 2524.794
246.3697, 2498.514
246.8519, 2514.125
247.3340, 2564.947
247.8161, 2588.745
248.2982, 2565.859
248.7803, 2540.656
249.2624, 2525.013
249.7446, 2518.125
250.2267, 2519.136
250.7088, 2529.775
251.1909, 2545.596
251.6730, 2554.032
252.1551, 2554.078
252.6373, 2548.208
253.1194, 2530.774
253.6015, 2511.187
254.0836, 2500.490
254.5657, 2503.620
255.0478, 2513.324
255.5300, 2518.459
256.0121, 2518.184
256.4942, 2516.425
256.9763, 2512.254
257.4584, 2508.176
257.9406, 2505.901
258.4227, 2505.798
258.9048, 2507.432
259.3869, 2511.479
259.8690, 2518.159
260.3511, 2522.216
260.8333, 2521.691
261.3154, 2518.879
261.7975, 2514.451
262.2796, 2508.730
262.7617, 2504.366
263.2438, 2504.501
263.7260, 2508.133
264.2081, 2509.391
264.6902, 2507.232
265.1723, 2503.156
265.6544, 2495.143
266.1365, 2485.432
266.6187, 2482.143
267.1008, 2494.372
267.5829, 2514.656
268.0650, 2527.220
268.5471, 2530.654
269.0292, 2529.761
269.5114, 2525.428
269.9935, 2519.152
270.4756, 2512.966
270.9577, 2502.821
271.4398, 2496.726
271.9219, 2508.416
272.4041, 2538.585
272.8862, 2563.413
273.3683, 2571.287
273.8504, 2565.459
274.3325, 2552.902
274.8146, 2528.035
275.2968, 2507.110
275.7789, 2501.806
276.2610, 2509.846
276.7431, 2522.609
277.2252, 2538.618
277.7073, 2556.058
278.1895, 2574.161
278.6716, 2595.666
279.1537, 2606.862
279.6358, 2592.160
280.1179, 2566.244
280.6000, 2556.549
281.0822, 2570.641
281.5643, 2591.519
282.0464, 2598.466
282.5285, 2590.076
283.0106, 2585.370
283.4927, 2587.597
283.9749, 2593.674
284.4570, 2603.037
284.9391, 2614.932
285.4212, 2623.884
285.9033, 2624.556
286.3854, 2617.050
286.8676, 2613.027
287.3497, 2611.711
287.8318, 2614.220
288.3139, 2623.129
288.7960, 2636.521
289.2781, 2649.442
289.7603, 2659.105
290.2424, 2666.318
290.7245, 2674.267
291.2066, 2684.180
291.6887, 2693.278
292.1708, 2700.419
292.6530, 2706.777
293.1351, 2714.626
293.6172, 2724.679
294.0993, 2734.292
294.5814, 2738.750
295.0635, 2736.280
295.5457, 2731.306
296.0278, 2718.174
296.5099, 2706.790
296.9920, 2704.906
297.4741, 2712.832
297.9562, 2725.351
298.4384, 2737.459
298.9205, 2749.179
299.4026, 2760.458
299.8847, 2771.918
300.3668, 2782.333
300.8489, 2792.887
301.3310, 2802.058
301.8131, 2806.102
302.2953, 2801.548
302.7774, 2790.990
303.2595, 2788.112
303.7416, 2799.312
304.2237, 2809.071
304.7058, 2812.869
305.1880, 2814.305
305.6701, 2816.891
306.1522, 2821.885
306.6343, 2829.156
307.1164, 2839.474
307.5985, 2854.385
308.0807, 2866.408
308.5628, 2868.163
309.0449, 2870.869
309.5270, 2883.155
310.0091, 2905.062
310.4912, 2927.096
310.9734, 2940.478
311.4555, 2946.017
311.9376, 2951.727
312.4197, 2955.480
312.9018, 2963.629
313.3839, 2985.148
313.8661, 3014.169
314.3482, 3034.763
314.8303, 3033.204
315.3124, 3021.729
315.7945, 3022.455
316.2766, 3037.007
316.7588, 3054.298
317.2409, 3070.126
317.7230, 3084.271
318.2051, 3095.916
318.6872, 3103.009
319.1693, 3110.903
319.6515, 3123.829
320.1336, 3141.000
320.6157, 3160.233
321.0978, 3182.890
321.5799, 3203.759
322.0620, 3213.526
322.5442, 3211.286
323.0263, 3207.686
323.5084, 3201.576
323.9905, 3197.517
324.4726, 3203.250
324.9547, 3220.042
325.4369, 3239.506
325.9190, 3255.245
326.4011, 3266.968
326.8832, 3268.885
327.3653, 3251.615
327.8474, 3233.549
328.3296, 3225.669
328.8117, 3225.833
329.2938, 3225.661
329.7759, 3219.844
330.2580, 3210.554
330.7401, 3207.850
331.2223, 3222.498
331.7044, 3230.372
332.1865, 3224.080
332.6686, 3212.052
333.1507, 3204.145
333.6328, 3203.100
334.1150, 3203.341
334.5971, 3196.133
335.0792, 3178.139
335.5613, 3161.664
336.0434, 3148.480
336.5255, 3135.103
337.0077, 3119.137
337.4898, 3101.292
337.9719, 3084.173
338.4540, 3070.270
338.9361, 3059.070
339.4182, 3045.756
339.9004, 3028.272
340.3825, 3011.841
340.8646, 2996.608
341.3467, 2983.569
341.8288, 2975.901
342.3109, 2976.148
342.7931, 2975.494
343.2752, 2956.135
343.7573, 2913.674
344.2394, 2884.125
344.7215, 2885.820
345.2036, 2896.130
345.6858, 2899.529
346.1679, 2894.944
346.6500, 2882.586
347.1321, 2855.998
347.6142, 2821.844
348.0963, 2800.239
348.5785, 2796.420
349.0606, 2794.837
349.5427, 2780.762
350.0248, 2758.782
350.5069, 2742.788
350.9890, 2740.962
351.4712, 2741.366
351.9533, 2733.355
352.4354, 2718.403
352.9175, 2704.925
353.3996, 2697.807
353.8817, 2693.538
354.3639, 2681.928
354.8460, 2658.620
355.3281, 2638.853
355.8102, 2630.313
356.2923, 2625.168
356.7744, 2612.948
357.2566, 2591.771
357.7387, 2569.621
358.2208, 2555.764
358.7029, 2552.189
359.1850, 2545.921
359.6671, 2531.822
360.1493, 2520.509
360.6314, 2518.282
361.1135, 2522.525
361.5956, 2528.236
362.0777, 2533.082
362.5598, 2535.172
363.0420, 2526.432
363.5241, 2493.140
364.0062, 2471.415
364.4883, 2475.604
364.9704, 2485.459
365.4525, 2481.442
365.9347, 2460.556
366.4168, 2438.359
366.8989, 2436.343
367.3810, 2456.508
367.8631, 2462.321
368.3452, 2442.561
368.8274, 2419.473
369.3095, 2403.160
369.7916, 2392.453
370.2737, 2383.807
370.7558, 2373.268
371.2379, 2365.692
371.7201, 2373.205
372.2022, 2397.955
372.6843, 2416.657
373.1664, 2415.801
373.6485, 2405.210
374.1306, 2400.807
374.6128, 2405.021
375.0949, 2408.313
375.5770, 2403.883
376.0591, 2395.354
376.5412, 2391.271
377.0233, 2394.065
377.5055, 2395.702
377.9876, 2386.316
378.4697, 2364.404
378.9518, 2349.988
379.4339, 2345.567
379.9160, 2346.701
380.3982, 2356.625
380.8803, 2370.496
381.3624, 2374.424
381.8445, 2359.736
382.3266, 2334.150
382.8087, 2321.058
383.2909, 2339.524
383.7730, 2345.698
384.2551, 2325.562
384.7372, 2301.457
385.2193, 2293.051
385.7014, 2302.424
386.1836, 2316.741
386.6657, 2322.273
387.1478, 2318.343
387.6299, 2318.570
388.1120, 2331.077
388.5941, 2338.110
389.0763, 2328.586
389.5584, 2311.267
390.0405, 2300.393
390.5226, 2302.801
391.0047, 2311.652
391.4868, 2317.199
391.9690, 2319.442
392.4511, 2318.281
392.9332, 2314.243
393.4153, 2305.822
393.8974, 2288.020
394.3795, 2261.099
394.8617, 2242.880
395.3438, 2244.410
395.8259, 2259.356
396.3080, 2283.500
396.7901, 2317.673
397.2722, 2338.155
397.7544, 2321.956
398.2365, 2277.367
398.7186, 2251.504
399.2007, 2257.490
399.6828, 2267.194
400.1649, 2269.861
400.6471, 2269.103
401.1292, 2271.950
401.6113, 2280.763
402.0934, 2290.494
402.5755, 2293.870
403.0576, 2289.686
403.5398, 2282.014
404.0219, 2261.799
404.5040, 2246.846
404.9861, 2250.922
405.4682, 2268.084
405.9503, 2282.111
406.4325, 2282.032
406.9146, 2272.854
407.3967, 2272.384
407.8788, 2283.545
408.3609, 2297.712
408.8430, 2315.619
409.3252, 2334.098
409.8073, 2352.328
410.2894, 2369.677
410.7715, 2382.067
411.2536, 2380.093
411.7357, 2368.322
412.2179, 2372.805
412.7000, 2401.516
413.1821, 2431.277
413.6642, 2445.970
414.1463, 2450.257
414.6284, 2451.280
415.1106, 2445.336
415.5927, 2442.655
416.0748, 2452.856
416.5569, 2472.680
417.0390, 2491.894
417.5211, 2506.778
418.0033, 2520.453
418.4854, 2536.785
418.9675, 2554.597
419.4496, 2580.317
419.9317, 2622.778
420.4138, 2666.015
420.8960, 2697.123
421.3781, 2719.036
421.8602, 2745.133
422.3423, 2785.507
422.8244, 2834.025
423.3065, 2863.184
423.7887, 2854.204
424.2708, 2854.994
424.7529, 2872.183
425.2350, 2898.983
425.7171, 2932.499
426.1992, 2971.028
426.6814, 3009.579
427.1635, 3040.638
427.6456, 3065.763
428.1277, 3101.872
428.6098, 3154.231
429.0919, 3207.445
429.5741, 3256.373
430.0562, 3300.648
430.5383, 3337.054
431.0204, 3359.250
431.5025, 3385.595
431.9846, 3435.435
432.4668, 3502.774
432.9489, 3566.711
433.4310, 3622.193
433.9131, 3671.845
434.3952, 3716.791
434.8773, 3755.910
435.3595, 3801.008
435.8416, 3855.376
436.3237, 3913.326
436.8058, 3973.714
437.2879, 4034.919
437.7701, 4093.310
438.2522, 4146.559
438.7343, 4198.679
439.2164, 4259.882
439.6985, 4336.877
440.1806, 4410.988
440.6628, 4486.506
441.1449, 4556.277
441.6270, 4610.939
442.1091, 4654.302
442.5912, 4701.642
443.0733, 4765.714
443.5555, 4841.916
444.0376, 4912.003
444.5197, 4973.742
445.0018, 5035.745
445.4839, 5103.618
445.9660, 5172.728
446.4482, 5237.680
446.9303, 5296.782
447.4124, 5357.868
447.8945, 5427.653
448.3766, 5502.510
448.8587, 5576.235
449.3409, 5648.743
449.8230, 5714.105
450.3051, 5766.877
450.7872, 5807.885
451.2693, 5848.293
451.7514, 5885.578
452.2336, 5925.177
452.7157, 5970.826
453.1978, 6019.064
453.6799, 6065.738
454.1620, 6109.392
454.6441, 6149.128
455.1263, 6183.846
455.6084, 6213.464
456.0905, 6238.299
456.5726, 6252.942
457.0547, 6267.953
457.5368, 6287.371
458.0190, 6309.042
458.5011, 6328.781
458.9832, 6344.431
459.4653, 6359.636
459.9474, 6382.698
460.4295, 6413.791
460.9117, 6433.437
461.3938, 6428.818
461.8759, 6424.223
462.3580, 6448.010
462.8401, 6493.639
463.3222, 6526.024
463.8044, 6522.688
464.2865, 6512.465
464.7686, 6520.814
465.2507, 6544.804
465.7328, 6570.900
466.2149, 6593.205
466.6971, 6614.742
467.1792, 6641.849
467.6613, 6683.656
468.1434, 6710.895
468.6255, 6700.961
469.1076, 6696.303
469.5898, 6726.362
470.0719, 6785.397
470.5540, 6852.604
471.0361, 6917.284
471.5182, 6975.539
472.0003, 7012.805
472.4825, 7015.174
472.9646, 7033.947
473.4467, 7104.075
473.9288, 7176.715
474.4109, 7219.937
474.8930, 7233.170
475.3752, 7236.415
475.8573, 7228.807
476.3394, 7223.315
476.8215, 7248.910
477.3036, 7306.438
477.7857, 7359.204
478.2679, 7389.855
478.7500, 7403.315
479.2321, 7409.242
479.7142, 7401.480
480.1963, 7402.299
480.6784, 7437.829
481.1606, 7469.054
481.6427, 7453.663
482.1248, 7394.554
482.6069, 7329.255
483.0890, 7286.867
483.5711, 7260.264
484.0533, 7207.183
484.5354, 7105.228
485.0175, 7012.997
485.4996, 6951.201
485.9817, 6892.592
486.4638, 6815.578
486.9460, 6718.020
487.4281, 6613.303
487.9102, 6508.393
488.3923, 6404.406
488.8744, 6305.297
489.3565, 6211.876
489.8387, 6120.047
490.3208, 6031.036
490.8029, 5940.800
491.2850, 5841.778
491.7671, 5731.213
492.2492, 5619.676
492.7314, 5510.866
493.2135, 5403.804
493.6956, 5295.345
494.1777, 5186.784
494.6598, 5085.854
495.1419, 5000.320
495.6241, 4926.501
496.1062, 4837.727
496.5883, 4720.378
497.0704, 4607.244
497.5525, 4496.681
498.0346, 4394.199
498.5168, 4309.813
498.9989, 4241.373
499.4810, 4171.162
499.9631, 4080.324
500.4452, 3976.041
500.9273, 3889.146
501.4095, 3823.871
501.8916, 3757.514
502.3737, 3678.104
502.8558, 3592.708
503.3379, 3511.131
503.8200, 3431.985
504.3022, 3364.680
504.7843, 3323.841
505.2664, 3290.569
505.7485, 3241.930
506.2306, 3177.659
506.7127, 3114.005
507.1949, 3062.197
507.6770, 3018.471
508.1591, 2966.786
508.6412, 2896.749
509.1233, 2833.575
509.6054, 2777.506
510.0876, 2729.185
510.5697, 2692.241
511.0518, 2664.616
511.5339, 2638.491
512.0161, 2609.188
512.4982, 2576.824
512.9803, 2540.999
513.4624, 2501.597
513.9445, 2460.423
514.4266, 2415.672
514.9088, 2371.656
515.3909, 2333.359
515.8730, 2300.793
516.3551, 2272.266
516.8372, 2250.047
517.3193, 2229.502
517.8015, 2207.113
518.2836, 2182.460
518.7657, 2153.020
519.2478, 2116.509
519.7299, 2079.271
520.2120, 2057.533
520.6942, 2064.795
521.1763, 2061.671
521.6584, 2044.305
522.1405, 2021.544
522.6226, 1994.148
523.1047, 1965.261
523.5869, 1941.625
524.0690, 1927.513
524.5511, 1918.392
525.0332, 1907.229
525.5153, 1894.039
525.9974, 1881.191
526.4796, 1869.857
526.9617, 1857.999
527.4438, 1841.282
527.9259, 1820.632
528.4080, 1806.489
528.8901, 1805.426
529.3723, 1806.192
529.8544, 1804.784
530.3365, 1799.885
530.8186, 1787.782
531.3007, 1767.412
531.7828, 1745.405
532.2650, 1731.401
532.7471, 1727.096
533.2292, 1719.718
533.7113, 1699.850
534.1934, 1688.033
534.6755, 1700.749
535.1577, 1721.125
535.6398, 1724.328
536.1219, 1701.925
536.6040, 1674.719
537.0861, 1662.252
537.5682, 1660.580
538.0504, 1657.444
538.5325, 1651.458
539.0146, 1643.878
539.4967, 1634.956
539.9788, 1625.239
540.4609, 1617.604
540.9431, 1614.486
541.4252, 1609.788
541.9073, 1596.377
542.3894, 1584.640
542.8715, 1590.262
543.3536, 1610.373
543.8358, 1623.257
544.3179, 1609.850
544.8000, 1577.016
545.2821, 1554.699
545.7642, 1545.127
546.2463, 1540.057
546.7285, 1540.662
547.2106, 1542.815
547.6926, 1543.945
548.1747, 1543.848
548.6569, 1542.236
549.1390, 1540.272
549.6211, 1535.817
550.1032, 1524.572
550.5853, 1508.189
551.0674, 1493.636
551.5496, 1483.387
552.0317, 1477.122
552.5138, 1474.330
552.9959, 1475.277
553.4780, 1479.004
553.9601, 1490.450
554.4423, 1499.020
554.9244, 1499.582
555.4065, 1494.741
555.8886, 1487.927
556.3707, 1480.262
556.8528, 1474.087
557.3350, 1473.856
557.8171, 1478.504
558.2992, 1478.604
558.7813, 1471.884
559.2634, 1465.125
559.7455, 1463.206
560.2277, 1464.640
560.7098, 1464.548
561.1919, 1463.416
561.6740, 1459.843
562.1561, 1448.564
562.6382, 1437.566
563.1204, 1438.004
563.6025, 1448.724
564.0846, 1458.036
564.5667, 1457.506
565.0488, 1448.821
565.5309, 1437.543
566.0131, 1420.139
566.4952, 1409.090
566.9773, 1410.038
567.4594, 1415.404
567.9415, 1421.866
568.4236, 1428.907
568.9058, 1435.687
569.3879, 1446.108
569.8700, 1452.320
570.3521, 1440.235
570.8342, 1416.517
571.3163, 1406.048
571.7985, 1417.424
572.2806, 1433.959
572.7627, 1435.219
573.2448, 1419.218
573.7269, 1406.660
574.2090, 1395.657
574.6912, 1389.991
575.1733, 1393.604
575.6554, 1401.488
576.1375, 1410.255
576.6196, 1418.354
577.1017, 1421.157
577.5839, 1410.300
578.0660, 1390.842
578.5481, 1379.719
579.0302, 1377.546
579.5123, 1381.029
579.9944, 1391.425
580.4766, 1404.236
580.9587, 1410.503
581.4408, 1409.587
581.9229, 1406.760
582.4050, 1404.638
582.8871, 1399.087
583.3693, 1383.154
583.8514, 1362.156
584.3335, 1347.559
584.8156, 1344.751
585.2977, 1348.169
585.7798, 1349.234
586.2620, 1347.653
586.7441, 1347.390
587.2262, 1350.056
587.7083, 1351.695
588.1904, 1350.293
588.6725, 1346.336
589.1547, 1339.759
589.6368, 1328.733
590.1189, 1319.869
590.6010, 1316.098
591.0831, 1316.400
591.5652, 1322.539
592.0474, 1332.653
592.5295, 1337.385
593.0116, 1329.821
593.4937, 1314.494
593.9758, 1305.843
594.4579, 1308.311
594.9401, 1306.980
595.4222, 1298.473
595.9043, 1287.811
596.3864, 1274.970
596.8685, 1262.015
597.3506, 1253.771
597.8328, 1253.120
598.3149, 1255.648
598.7970, 1259.234
599.2791, 1262.732
599.7612, 1262.670
600.2433, 1258.368
600.7255, 1252.623
601.2076, 1246.933
601.6897, 1241.961
602.1718, 1243.288
602.6539, 1263.430
603.1360, 1272.506
603.6182, 1259.556
604.1003, 1241.829
604.5824, 1229.172
605.0645, 1223.581
605.5466, 1226.676
606.0287, 1244.986
606.5109, 1264.836
606.9930, 1260.662
607.4751, 1236.212
607.9572, 1223.736
608.4393, 1234.133
608.9214, 1246.361
609.4036, 1237.005
609.8857, 1205.948
610.3678, 1189.388
610.8499, 1200.106
611.3320, 1207.718
611.8141, 1201.214
612.2963, 1190.774
612.7784, 1188.187
613.2605, 1193.599
613.7426, 1196.942
614.2247, 1188.180
614.7068, 1173.982
615.1890, 1173.794
615.6711, 1188.562
616.1532, 1194.859
616.6353, 1182.526
617.1174, 1165.448
617.5995, 1158.810
618.0817, 1162.867
618.5638, 1168.634
619.0459, 1180.840
619.5280, 1188.850
620.0101, 1185.385
620.4922, 1176.976
620.9744, 1172.373
621.4565, 1172.836
621.9386, 1172.466
622.4207, 1164.212
622.9028, 1151.618
623.3849, 1151.051
623.8671, 1165.543
624.3492, 1173.989
624.8313, 1167.487
625.3134, 1155.156
625.7955, 1146.412
626.2776, 1141.037
626.7598, 1139.784
627.2419, 1146.584
627.7240, 1153.417
628.2061, 1156.006
628.6882, 1156.144
629.1703, 1156.648
629.6525, 1158.126
630.1346, 1159.136
630.6167, 1157.933
631.0988, 1155.101
631.5809, 1154.821
632.0630, 1158.866
632.5452, 1157.965
633.0273, 1144.014
633.5094, 1129.053
633.9915, 1129.269
634.4736, 1143.626
634.9557, 1151.008
635.4379, 1140.616
635.9200, 1129.173
636.4021, 1125.531
636.8842, 1127.181
637.3663, 1131.853
637.8484, 1137.971
638.3306, 1140.011
638.8127, 1129.943
639.2948, 1111.437
639.7769, 1109.662
640.2590, 1130.991
640.7411, 1146.070
641.2233, 1142.061
641.7054, 1132.618
