##NAMES=Chabourneite
##RRUFFID=R140106
##IDEAL CHEMISTRY=Tl^1+^_4_Pb^2+^_2_(Sb^3+^,As^3+^)_20_S^2-^_34_
##LOCALITY=Jas Roux, La Chapelle En Valgaudemard, Hautes-Alpes, Provence-Alpes-CÃ´te D'Azur, France
##OWNER=RRUFF
##SOURCE=Rock Currier
##DESCRIPTION=Black metallic grains with conchoidal fracture, associated with red realgar, yellow braded or fibrous wakabayashilite (R150064), and colorless massive or tabular celestine.
##STATUS=The identification of this mineral has been confirmed only by single crystal X-ray diffraction.
##URL=rruff.info/R140106
8.930109e+001, 0.000000e+000
8.978320e+001, 4.406459e+002
9.026532e+001, 4.388346e+002
9.074744e+001, 4.390794e+002
9.122955e+001, 4.423390e+002
9.171167e+001, 4.468070e+002
9.219379e+001, 4.501432e+002
9.267590e+001, 4.526563e+002
9.315802e+001, 4.543568e+002
9.364014e+001, 4.549351e+002
9.412225e+001, 4.547561e+002
9.460437e+001, 4.546341e+002
9.508649e+001, 4.549443e+002
9.556860e+001, 4.552301e+002
9.605072e+001, 4.545861e+002
9.653284e+001, 4.533088e+002
9.701495e+001, 4.523390e+002
9.749707e+001, 4.526026e+002
9.797919e+001, 4.540327e+002
9.846130e+001, 4.556129e+002
9.894342e+001, 4.570020e+002
9.942554e+001, 4.582387e+002
9.990765e+001, 4.598565e+002
1.003898e+002, 4.620196e+002
1.008719e+002, 4.642546e+002
1.013540e+002, 4.656629e+002
1.018361e+002, 4.658774e+002
1.023182e+002, 4.666481e+002
1.028004e+002, 4.687550e+002
1.032825e+002, 4.724935e+002
1.037646e+002, 4.761844e+002
1.042467e+002, 4.798952e+002
1.047288e+002, 4.835554e+002
1.052109e+002, 4.868017e+002
1.056931e+002, 4.888118e+002
1.061752e+002, 4.916564e+002
1.066573e+002, 4.964332e+002
1.071394e+002, 5.050157e+002
1.076215e+002, 5.123163e+002
1.081036e+002, 5.181450e+002
1.085858e+002, 5.226501e+002
1.090679e+002, 5.263295e+002
1.095500e+002, 5.273895e+002
1.100321e+002, 5.289524e+002
1.105142e+002, 5.326531e+002
1.109963e+002, 5.417576e+002
1.114785e+002, 5.493556e+002
1.119606e+002, 5.539739e+002
1.124427e+002, 5.557620e+002
1.129248e+002, 5.583219e+002
1.134069e+002, 5.626887e+002
1.138890e+002, 5.677261e+002
1.143712e+002, 5.725754e+002
1.148533e+002, 5.772625e+002
1.153354e+002, 5.815282e+002
1.158175e+002, 5.851731e+002
1.162996e+002, 5.882062e+002
1.167817e+002, 5.911505e+002
1.172639e+002, 5.945420e+002
1.177460e+002, 5.979065e+002
1.182281e+002, 6.006389e+002
1.187102e+002, 6.020941e+002
1.191923e+002, 6.031544e+002
1.196744e+002, 6.042820e+002
1.201566e+002, 6.055187e+002
1.206387e+002, 6.068248e+002
1.211208e+002, 6.080033e+002
1.216029e+002, 6.092018e+002
1.220850e+002, 6.107225e+002
1.225671e+002, 6.132775e+002
1.230493e+002, 6.159612e+002
1.235314e+002, 6.178952e+002
1.240135e+002, 6.189450e+002
1.244956e+002, 6.191545e+002
1.249777e+002, 6.180438e+002
1.254598e+002, 6.159182e+002
1.259420e+002, 6.139886e+002
1.264241e+002, 6.131237e+002
1.269062e+002, 6.129675e+002
1.273883e+002, 6.129481e+002
1.278704e+002, 6.131117e+002
1.283525e+002, 6.131279e+002
1.288347e+002, 6.123427e+002
1.293168e+002, 6.107874e+002
1.297989e+002, 6.091602e+002
1.302810e+002, 6.082550e+002
1.307631e+002, 6.078234e+002
1.312452e+002, 6.067678e+002
1.317274e+002, 6.046053e+002
1.322095e+002, 6.017481e+002
1.326916e+002, 5.991726e+002
1.331737e+002, 5.968468e+002
1.336558e+002, 5.949742e+002
1.341379e+002, 5.938107e+002
1.346201e+002, 5.933526e+002
1.351022e+002, 5.930502e+002
1.355843e+002, 5.926840e+002
1.360664e+002, 5.923149e+002
1.365485e+002, 5.924350e+002
1.370306e+002, 5.930989e+002
1.375128e+002, 5.941348e+002
1.379949e+002, 5.954971e+002
1.384770e+002, 5.973099e+002
1.389591e+002, 5.988408e+002
1.394412e+002, 5.998354e+002
1.399233e+002, 6.002520e+002
1.404055e+002, 6.004521e+002
1.408876e+002, 6.003007e+002
1.413697e+002, 6.000498e+002
1.418518e+002, 6.000637e+002
1.423339e+002, 6.002528e+002
1.428160e+002, 6.008829e+002
1.432982e+002, 6.021234e+002
1.437803e+002, 6.041573e+002
1.442624e+002, 6.061836e+002
1.447445e+002, 6.081837e+002
1.452266e+002, 6.101876e+002
1.457087e+002, 6.121565e+002
1.461909e+002, 6.140212e+002
1.466730e+002, 6.159921e+002
1.471551e+002, 6.182361e+002
1.476372e+002, 6.213163e+002
1.481193e+002, 6.236829e+002
1.486014e+002, 6.248721e+002
1.490836e+002, 6.252913e+002
1.495657e+002, 6.264019e+002
1.500478e+002, 6.288875e+002
1.505299e+002, 6.314901e+002
1.510120e+002, 6.336778e+002
1.514941e+002, 6.347545e+002
1.519763e+002, 6.361985e+002
1.524584e+002, 6.387525e+002
1.529405e+002, 6.419738e+002
1.534226e+002, 6.437214e+002
1.539047e+002, 6.421954e+002
1.543868e+002, 6.402105e+002
1.548690e+002, 6.392986e+002
1.553511e+002, 6.410281e+002
1.558332e+002, 6.423472e+002
1.563153e+002, 6.427510e+002
1.567974e+002, 6.422960e+002
1.572795e+002, 6.414745e+002
1.577617e+002, 6.404531e+002
1.582438e+002, 6.390819e+002
1.587259e+002, 6.372545e+002
1.592080e+002, 6.342180e+002
1.596901e+002, 6.314346e+002
1.601722e+002, 6.292839e+002
1.606544e+002, 6.277745e+002
1.611365e+002, 6.267949e+002
1.616186e+002, 6.268193e+002
1.621007e+002, 6.271462e+002
1.625828e+002, 6.271257e+002
1.630649e+002, 6.260039e+002
1.635471e+002, 6.249336e+002
1.640292e+002, 6.245590e+002
1.645113e+002, 6.248973e+002
1.649934e+002, 6.251664e+002
1.654755e+002, 6.245693e+002
1.659576e+002, 6.237734e+002
1.664398e+002, 6.236100e+002
1.669219e+002, 6.248167e+002
1.674040e+002, 6.264548e+002
1.678861e+002, 6.279924e+002
1.683682e+002, 6.294157e+002
1.688503e+002, 6.306424e+002
1.693325e+002, 6.312419e+002
1.698146e+002, 6.316589e+002
1.702967e+002, 6.325983e+002
1.707788e+002, 6.348434e+002
1.712609e+002, 6.375060e+002
1.717430e+002, 6.396166e+002
1.722252e+002, 6.410429e+002
1.727073e+002, 6.427032e+002
1.731894e+002, 6.459716e+002
1.736715e+002, 6.500983e+002
1.741536e+002, 6.532977e+002
1.746357e+002, 6.538849e+002
1.751179e+002, 6.534824e+002
1.756000e+002, 6.541240e+002
1.760821e+002, 6.560837e+002
1.765642e+002, 6.584261e+002
1.770463e+002, 6.602213e+002
1.775284e+002, 6.616488e+002
1.780106e+002, 6.632299e+002
1.784927e+002, 6.655437e+002
1.789748e+002, 6.681371e+002
1.794569e+002, 6.701161e+002
1.799390e+002, 6.713185e+002
1.804211e+002, 6.722976e+002
1.809033e+002, 6.736557e+002
1.813854e+002, 6.753693e+002
1.818675e+002, 6.772656e+002
1.823496e+002, 6.792702e+002
1.828317e+002, 6.813846e+002
1.833138e+002, 6.837024e+002
1.837960e+002, 6.861970e+002
1.842781e+002, 6.889329e+002
1.847602e+002, 6.919257e+002
1.852423e+002, 6.952025e+002
1.857244e+002, 6.987657e+002
1.862065e+002, 7.029310e+002
1.866887e+002, 7.074634e+002
1.871708e+002, 7.115430e+002
1.876529e+002, 7.150193e+002
1.881350e+002, 7.181100e+002
1.886171e+002, 7.215518e+002
1.890992e+002, 7.253265e+002
1.895814e+002, 7.277908e+002
1.900635e+002, 7.275985e+002
1.905456e+002, 7.250045e+002
1.910277e+002, 7.219239e+002
1.915098e+002, 7.187473e+002
1.919919e+002, 7.149045e+002
1.924741e+002, 7.087610e+002
1.929562e+002, 7.002385e+002
1.934383e+002, 6.917322e+002
1.939204e+002, 6.850235e+002
1.944025e+002, 6.800204e+002
1.948846e+002, 6.751223e+002
1.953668e+002, 6.700688e+002
1.958489e+002, 6.651003e+002
1.963310e+002, 6.606867e+002
1.968131e+002, 6.567997e+002
1.972952e+002, 6.536859e+002
1.977773e+002, 6.517552e+002
1.982595e+002, 6.510558e+002
1.987416e+002, 6.500945e+002
1.992237e+002, 6.485494e+002
1.997058e+002, 6.467724e+002
2.001879e+002, 6.458074e+002
2.006700e+002, 6.457557e+002
2.011522e+002, 6.460471e+002
2.016343e+002, 6.463483e+002
2.021164e+002, 6.466639e+002
2.025985e+002, 6.469954e+002
2.030806e+002, 6.473889e+002
2.035627e+002, 6.477715e+002
2.040449e+002, 6.478503e+002
2.045270e+002, 6.475378e+002
2.050091e+002, 6.471935e+002
2.054912e+002, 6.470741e+002
2.059733e+002, 6.472126e+002
2.064554e+002, 6.473389e+002
2.069376e+002, 6.473629e+002
2.074197e+002, 6.473685e+002
2.079018e+002, 6.476721e+002
2.083839e+002, 6.482900e+002
2.088660e+002, 6.491787e+002
2.093481e+002, 6.502813e+002
2.098303e+002, 6.515776e+002
2.103124e+002, 6.532794e+002
2.107945e+002, 6.555971e+002
2.112766e+002, 6.583127e+002
2.117587e+002, 6.606808e+002
2.122408e+002, 6.628264e+002
2.127230e+002, 6.643748e+002
2.132051e+002, 6.649307e+002
2.136872e+002, 6.641297e+002
2.141693e+002, 6.636085e+002
2.146514e+002, 6.637319e+002
2.151335e+002, 6.642474e+002
2.156157e+002, 6.639108e+002
2.160978e+002, 6.623065e+002
2.165799e+002, 6.605719e+002
2.170620e+002, 6.594394e+002
2.175441e+002, 6.590652e+002
2.180262e+002, 6.588011e+002
2.185084e+002, 6.585293e+002
2.189905e+002, 6.583127e+002
2.194726e+002, 6.584982e+002
2.199547e+002, 6.592320e+002
2.204368e+002, 6.601362e+002
2.209189e+002, 6.609017e+002
2.214011e+002, 6.612957e+002
2.218832e+002, 6.622914e+002
2.223653e+002, 6.643880e+002
2.228474e+002, 6.671716e+002
2.233295e+002, 6.687540e+002
2.238116e+002, 6.686015e+002
2.242938e+002, 6.680543e+002
2.247759e+002, 6.678024e+002
2.252580e+002, 6.676578e+002
2.257401e+002, 6.683308e+002
2.262222e+002, 6.702911e+002
2.267043e+002, 6.731008e+002
2.271865e+002, 6.748591e+002
2.276686e+002, 6.746507e+002
2.281507e+002, 6.746878e+002
2.286328e+002, 6.764619e+002
2.291149e+002, 6.812396e+002
2.295970e+002, 6.847264e+002
2.300792e+002, 6.862787e+002
2.305613e+002, 6.863555e+002
2.310434e+002, 6.865528e+002
2.315255e+002, 6.864345e+002
2.320076e+002, 6.870861e+002
2.324897e+002, 6.892372e+002
2.329719e+002, 6.937072e+002
2.334540e+002, 6.978533e+002
2.339361e+002, 7.015707e+002
2.344182e+002, 7.049249e+002
2.349003e+002, 7.081303e+002
2.353824e+002, 7.109265e+002
2.358646e+002, 7.139495e+002
2.363467e+002, 7.176837e+002
2.368288e+002, 7.230351e+002
2.373109e+002, 7.269562e+002
2.377930e+002, 7.285850e+002
2.382751e+002, 7.288491e+002
2.387573e+002, 7.305750e+002
2.392394e+002, 7.344184e+002
2.397215e+002, 7.387551e+002
2.402036e+002, 7.430564e+002
2.406857e+002, 7.479099e+002
2.411678e+002, 7.512593e+002
2.416500e+002, 7.523644e+002
2.421321e+002, 7.521541e+002
2.426142e+002, 7.529762e+002
2.430963e+002, 7.549273e+002
2.435784e+002, 7.577865e+002
2.440605e+002, 7.616032e+002
2.445427e+002, 7.670305e+002
2.450248e+002, 7.717857e+002
2.455069e+002, 7.756718e+002
2.459890e+002, 7.789900e+002
2.464711e+002, 7.822133e+002
2.469532e+002, 7.848882e+002
2.474354e+002, 7.882833e+002
2.479175e+002, 7.928344e+002
2.483996e+002, 7.986542e+002
2.488817e+002, 8.054462e+002
2.493638e+002, 8.136738e+002
2.498459e+002, 8.226312e+002
2.503281e+002, 8.309793e+002
2.508102e+002, 8.384063e+002
2.512923e+002, 8.458301e+002
2.517744e+002, 8.538069e+002
2.522565e+002, 8.626232e+002
2.527386e+002, 8.706930e+002
2.532208e+002, 8.788541e+002
2.537029e+002, 8.856469e+002
2.541850e+002, 8.887689e+002
2.546671e+002, 8.873101e+002
2.551492e+002, 8.838904e+002
2.556313e+002, 8.791055e+002
2.561135e+002, 8.728655e+002
2.565956e+002, 8.658770e+002
2.570777e+002, 8.580293e+002
2.575598e+002, 8.495954e+002
2.580419e+002, 8.406182e+002
2.585240e+002, 8.302015e+002
2.590062e+002, 8.214904e+002
2.594883e+002, 8.157345e+002
2.599704e+002, 8.132582e+002
2.604525e+002, 8.101013e+002
2.609346e+002, 8.058841e+002
2.614167e+002, 8.015095e+002
2.618989e+002, 7.981580e+002
2.623810e+002, 7.963756e+002
2.628631e+002, 7.942131e+002
2.633452e+002, 7.908848e+002
2.638273e+002, 7.863793e+002
2.643094e+002, 7.837330e+002
2.647916e+002, 7.834340e+002
2.652737e+002, 7.841672e+002
2.657558e+002, 7.846775e+002
2.662379e+002, 7.848264e+002
2.667200e+002, 7.852322e+002
2.672021e+002, 7.860595e+002
2.676843e+002, 7.872712e+002
2.681664e+002, 7.884365e+002
2.686485e+002, 7.893331e+002
2.691306e+002, 7.906201e+002
2.696127e+002, 7.930447e+002
2.700948e+002, 7.969265e+002
2.705770e+002, 8.003135e+002
2.710591e+002, 8.024480e+002
2.715412e+002, 8.038173e+002
2.720233e+002, 8.072576e+002
2.725054e+002, 8.134116e+002
2.729875e+002, 8.197002e+002
2.734697e+002, 8.240170e+002
2.739518e+002, 8.260284e+002
2.744339e+002, 8.284445e+002
2.749160e+002, 8.315109e+002
2.753981e+002, 8.352158e+002
2.758802e+002, 8.397499e+002
2.763624e+002, 8.451948e+002
2.768445e+002, 8.509171e+002
2.773266e+002, 8.568278e+002
2.778087e+002, 8.630215e+002
2.782908e+002, 8.679230e+002
2.787729e+002, 8.710798e+002
2.792551e+002, 8.732715e+002
2.797372e+002, 8.761516e+002
2.802193e+002, 8.798085e+002
2.807014e+002, 8.836876e+002
2.811835e+002, 8.877389e+002
2.816656e+002, 8.919517e+002
2.821478e+002, 8.952758e+002
2.826299e+002, 8.972938e+002
2.831120e+002, 8.991683e+002
2.835941e+002, 9.031663e+002
2.840762e+002, 9.094138e+002
2.845583e+002, 9.156172e+002
2.850405e+002, 9.207221e+002
2.855226e+002, 9.248378e+002
2.860047e+002, 9.289489e+002
2.864868e+002, 9.330559e+002
2.869689e+002, 9.371684e+002
2.874510e+002, 9.412590e+002
2.879332e+002, 9.453317e+002
2.884153e+002, 9.495498e+002
2.888974e+002, 9.538019e+002
2.893795e+002, 9.581912e+002
2.898616e+002, 9.632842e+002
2.903438e+002, 9.692247e+002
2.908259e+002, 9.748495e+002
2.913080e+002, 9.786683e+002
2.917901e+002, 9.808909e+002
2.922722e+002, 9.830240e+002
2.927543e+002, 9.856844e+002
2.932365e+002, 9.884852e+002
2.937186e+002, 9.902888e+002
2.942007e+002, 9.910639e+002
2.946828e+002, 9.918165e+002
2.951649e+002, 9.939439e+002
2.956470e+002, 9.968616e+002
2.961292e+002, 9.987191e+002
2.966113e+002, 9.989835e+002
2.970934e+002, 9.979847e+002
2.975755e+002, 9.959963e+002
2.980576e+002, 9.930601e+002
2.985397e+002, 9.897376e+002
2.990219e+002, 9.861768e+002
2.995040e+002, 9.825154e+002
2.999861e+002, 9.792105e+002
3.004682e+002, 9.766101e+002
3.009503e+002, 9.738913e+002
3.014324e+002, 9.701832e+002
3.019146e+002, 9.655441e+002
3.023967e+002, 9.600273e+002
3.028788e+002, 9.534436e+002
3.033609e+002, 9.461046e+002
3.038430e+002, 9.385148e+002
3.043251e+002, 9.307094e+002
3.048073e+002, 9.227922e+002
3.052894e+002, 9.147608e+002
3.057715e+002, 9.066581e+002
3.062536e+002, 8.983655e+002
3.067357e+002, 8.903996e+002
3.072178e+002, 8.819598e+002
3.077000e+002, 8.720070e+002
3.081821e+002, 8.602975e+002
3.086642e+002, 8.485460e+002
3.091463e+002, 8.382896e+002
3.096284e+002, 8.288102e+002
3.101105e+002, 8.188397e+002
3.105927e+002, 8.072371e+002
3.110748e+002, 7.955417e+002
3.115569e+002, 7.849043e+002
3.120390e+002, 7.753456e+002
3.125211e+002, 7.656982e+002
3.130032e+002, 7.550089e+002
3.134854e+002, 7.438845e+002
3.139675e+002, 7.331100e+002
3.144496e+002, 7.226390e+002
3.149317e+002, 7.129019e+002
3.154138e+002, 7.041552e+002
3.158959e+002, 6.963546e+002
3.163781e+002, 6.889091e+002
3.168602e+002, 6.819332e+002
3.173423e+002, 6.750936e+002
3.178244e+002, 6.681223e+002
3.183065e+002, 6.604793e+002
3.187886e+002, 6.533995e+002
3.192708e+002, 6.476176e+002
3.197529e+002, 6.427912e+002
3.202350e+002, 6.379395e+002
3.207171e+002, 6.332266e+002
3.211992e+002, 6.281222e+002
3.216813e+002, 6.221708e+002
3.221635e+002, 6.145416e+002
3.226456e+002, 6.078165e+002
3.231277e+002, 6.026812e+002
3.236098e+002, 5.987151e+002
3.240919e+002, 5.952031e+002
3.245740e+002, 5.929052e+002
3.250562e+002, 5.902881e+002
3.255383e+002, 5.867636e+002
3.260204e+002, 5.820367e+002
3.265025e+002, 5.775148e+002
3.269846e+002, 5.728873e+002
3.274667e+002, 5.686916e+002
3.279489e+002, 5.654515e+002
3.284310e+002, 5.646946e+002
3.289131e+002, 5.631868e+002
3.293952e+002, 5.600885e+002
3.298773e+002, 5.553504e+002
3.303594e+002, 5.512781e+002
3.308416e+002, 5.478914e+002
3.313237e+002, 5.451984e+002
3.318058e+002, 5.433102e+002
3.322879e+002, 5.430438e+002
3.327700e+002, 5.421471e+002
3.332521e+002, 5.401161e+002
3.337343e+002, 5.372455e+002
3.342164e+002, 5.350310e+002
3.346985e+002, 5.339280e+002
3.351806e+002, 5.327961e+002
3.356627e+002, 5.308633e+002
3.361448e+002, 5.275754e+002
3.366270e+002, 5.253204e+002
3.371091e+002, 5.245800e+002
3.375912e+002, 5.246077e+002
3.380733e+002, 5.237879e+002
3.385554e+002, 5.218655e+002
3.390375e+002, 5.199626e+002
3.395197e+002, 5.186471e+002
3.400018e+002, 5.179919e+002
3.404839e+002, 5.166857e+002
3.409660e+002, 5.145281e+002
3.414481e+002, 5.122101e+002
3.419302e+002, 5.108400e+002
3.424124e+002, 5.104970e+002
3.428945e+002, 5.097982e+002
3.433766e+002, 5.081335e+002
3.438587e+002, 5.057871e+002
3.443408e+002, 5.039456e+002
3.448229e+002, 5.026292e+002
3.453051e+002, 5.017509e+002
3.457872e+002, 5.014703e+002
3.462693e+002, 5.016730e+002
3.467514e+002, 5.015757e+002
3.472335e+002, 5.009830e+002
3.477156e+002, 5.000631e+002
3.481978e+002, 4.991631e+002
3.486799e+002, 4.982733e+002
3.491620e+002, 4.972226e+002
3.496441e+002, 4.956554e+002
3.501262e+002, 4.938632e+002
3.506083e+002, 4.926372e+002
3.510905e+002, 4.921853e+002
3.515726e+002, 4.918527e+002
3.520547e+002, 4.907755e+002
3.525368e+002, 4.891615e+002
3.530189e+002, 4.876418e+002
3.535010e+002, 4.862927e+002
3.539832e+002, 4.853218e+002
3.544653e+002, 4.853833e+002
3.549474e+002, 4.865569e+002
3.554295e+002, 4.871968e+002
3.559116e+002, 4.851412e+002
3.563937e+002, 4.818871e+002
3.568759e+002, 4.797140e+002
3.573580e+002, 4.805881e+002
3.578401e+002, 4.818495e+002
3.583222e+002, 4.815233e+002
3.588043e+002, 4.798517e+002
3.592864e+002, 4.782961e+002
3.597686e+002, 4.777277e+002
3.602507e+002, 4.775572e+002
3.607328e+002, 4.772958e+002
3.612149e+002, 4.768044e+002
3.616970e+002, 4.762492e+002
3.621791e+002, 4.756056e+002
3.626613e+002, 4.749372e+002
3.631434e+002, 4.743966e+002
3.636255e+002, 4.742822e+002
3.641076e+002, 4.740975e+002
3.645897e+002, 4.735962e+002
3.650718e+002, 4.727036e+002
3.655540e+002, 4.716852e+002
3.660361e+002, 4.703565e+002
3.665182e+002, 4.690051e+002
3.670003e+002, 4.679765e+002
3.674824e+002, 4.674464e+002
3.679645e+002, 4.671108e+002
3.684467e+002, 4.669141e+002
3.689288e+002, 4.668628e+002
3.694109e+002, 4.670194e+002
3.698930e+002, 4.678642e+002
3.703751e+002, 4.685631e+002
3.708572e+002, 4.684763e+002
3.713394e+002, 4.666092e+002
3.718215e+002, 4.657010e+002
3.723036e+002, 4.665182e+002
3.727857e+002, 4.684191e+002
3.732678e+002, 4.690500e+002
3.737499e+002, 4.678579e+002
3.742321e+002, 4.663705e+002
3.747142e+002, 4.651960e+002
3.751963e+002, 4.642549e+002
3.756784e+002, 4.640196e+002
3.761605e+002, 4.647972e+002
3.766426e+002, 4.658807e+002
3.771248e+002, 4.660169e+002
3.776069e+002, 4.650064e+002
3.780890e+002, 4.642899e+002
3.785711e+002, 4.646378e+002
3.790532e+002, 4.657809e+002
3.795353e+002, 4.655404e+002
3.800175e+002, 4.637092e+002
3.804996e+002, 4.615301e+002
3.809817e+002, 4.602124e+002
3.814638e+002, 4.596616e+002
3.819459e+002, 4.590113e+002
3.824280e+002, 4.580213e+002
3.829102e+002, 4.569359e+002
3.833923e+002, 4.563345e+002
3.838744e+002, 4.561611e+002
3.843565e+002, 4.559246e+002
3.848386e+002, 4.549355e+002
3.853207e+002, 4.537116e+002
3.858029e+002, 4.535901e+002
3.862850e+002, 4.549005e+002
3.867671e+002, 4.562279e+002
3.872492e+002, 4.559045e+002
3.877313e+002, 4.544798e+002
3.882134e+002, 4.532080e+002
3.886956e+002, 4.532736e+002
3.891777e+002, 4.533698e+002
3.896598e+002, 4.518355e+002
3.901419e+002, 4.487909e+002
3.906240e+002, 4.463954e+002
3.911061e+002, 4.464280e+002
3.915883e+002, 4.475884e+002
3.920704e+002, 4.485109e+002
3.925525e+002, 4.486481e+002
3.930346e+002, 4.487323e+002
3.935167e+002, 4.493709e+002
3.939988e+002, 4.502591e+002
3.944810e+002, 4.505473e+002
3.949631e+002, 4.491300e+002
3.954452e+002, 4.476690e+002
3.959273e+002, 4.471617e+002
3.964094e+002, 4.482013e+002
3.968915e+002, 4.486530e+002
3.973737e+002, 4.472066e+002
3.978558e+002, 4.452598e+002
3.983379e+002, 4.445350e+002
3.988200e+002, 4.466132e+002
3.993021e+002, 4.484174e+002
3.997842e+002, 4.493546e+002
4.002664e+002, 4.494223e+002
4.007485e+002, 4.492523e+002
4.012306e+002, 4.485789e+002
4.017127e+002, 4.479176e+002
4.021948e+002, 4.476181e+002
4.026769e+002, 4.478940e+002
4.031591e+002, 4.480666e+002
4.036412e+002, 4.481153e+002
4.041233e+002, 4.480282e+002
4.046054e+002, 4.477122e+002
4.050875e+002, 4.470444e+002
4.055696e+002, 4.465259e+002
4.060518e+002, 4.464167e+002
4.065339e+002, 4.467342e+002
4.070160e+002, 4.470213e+002
4.074981e+002, 4.473246e+002
4.079802e+002, 4.474840e+002
4.084623e+002, 4.472834e+002
4.089445e+002, 4.467304e+002
4.094266e+002, 4.459831e+002
4.099087e+002, 4.448213e+002
4.103908e+002, 4.437167e+002
4.108729e+002, 4.441889e+002
4.113550e+002, 4.461885e+002
4.118372e+002, 4.479532e+002
