##NAMES=Chalcopyrite
##RRUFFID=R050559
##IDEAL CHEMISTRY=Cu^1+^Fe^3+^S^2-^_2_
##LOCALITY=Recuerdo Vein, Haunzala mine, Huallanca District, Dos de Mayo Province, Huanuco Department, Peru
##OWNER=RRUFF
##SOURCE=Dave Bunk Minerals
##DESCRIPTION=Brass-yellow striated crystals
##STATUS=The identification of this mineral has been confirmed by X-ray diffraction and chemical analysis
##URL=rruff.info/R050559
##MEASURED CHEMISTRY=Cu^1+^_1.00_Fe^3+^_1.00_S_2.00_
92.06543, 197.2910
92.54755, 199.0208
93.02966, 200.3922
93.51178, 198.7134
93.99390, 195.6160
94.47601, 191.9285
94.95813, 187.8852
95.44025, 183.2974
95.92236, 177.8759
96.40448, 171.4429
96.88660, 166.4051
97.36871, 163.0988
97.85082, 160.6947
98.33294, 158.9367
98.81506, 157.6745
99.29717, 156.0169
99.77929, 153.6702
100.2614, 150.7792
100.7435, 147.4431
101.2256, 142.3041
101.7078, 136.6814
102.1899, 134.0711
102.6720, 136.6024
103.1541, 140.3808
103.6362, 141.7222
104.1183, 140.6801
104.6005, 138.8202
105.0826, 137.4573
105.5647, 136.7074
106.0468, 135.4481
106.5289, 133.6726
107.0110, 131.1352
107.4931, 127.0087
107.9753, 121.0983
108.4574, 114.9262
108.9395, 111.7212
109.4216, 114.3629
109.9037, 115.5574
110.3858, 113.5054
110.8680, 110.1269
111.3501, 107.3737
111.8322, 106.2987
112.3143, 106.7096
112.7964, 107.4552
113.2785, 108.8977
113.7607, 110.2593
114.2428, 111.5430
114.7249, 112.6193
115.2070, 113.2096
115.6891, 113.0696
116.1712, 112.1553
116.6534, 111.0765
117.1355, 109.8639
117.6176, 108.4766
118.0997, 106.5148
118.5818, 103.8748
119.0639, 101.8303
119.5461, 102.3268
120.0282, 104.5608
120.5103, 106.1657
120.9924, 105.9302
121.4745, 104.5973
121.9566, 104.0299
122.4388, 105.0459
122.9209, 105.7929
123.4030, 105.0261
123.8851, 102.9898
124.3672, 100.5046
124.8493, 97.85046
125.3315, 94.93785
125.8136, 93.05866
126.2957, 93.32563
126.7778, 93.96037
127.2599, 94.44186
127.7420, 94.62532
128.2242, 94.50600
128.7063, 93.94431
129.1884, 92.29222
129.6705, 91.60049
130.1526, 93.12126
130.6347, 94.70246
131.1169, 94.52324
131.5990, 92.03572
132.0811, 88.25215
132.5632, 85.39005
133.0453, 83.40054
133.5274, 82.49471
134.0096, 83.54785
134.4917, 85.53948
134.9738, 87.07273
135.4559, 87.51791
135.9380, 87.05754
136.4201, 86.25312
136.9023, 84.47094
137.3844, 83.21210
137.8665, 83.49249
138.3486, 85.00625
138.8307, 86.40781
139.3128, 87.10402
139.7950, 87.05029
140.2771, 86.36758
140.7592, 84.78467
141.2413, 82.85442
141.7234, 80.89742
142.2055, 78.78707
142.6877, 77.35800
143.1698, 77.56953
143.6519, 78.60018
144.1340, 79.66203
144.6161, 80.67202
145.0982, 81.39597
145.5803, 81.05910
146.0625, 78.69926
146.5446, 76.81612
147.0267, 76.58313
147.5088, 77.29809
147.9909, 77.84230
148.4730, 77.36843
148.9552, 75.96099
149.4373, 75.35787
149.9194, 76.69349
150.4015, 77.84275
150.8836, 78.34357
151.3657, 78.21036
151.8479, 77.58332
152.3300, 76.48104
152.8121, 74.66086
153.2942, 73.90846
153.7763, 74.98310
154.2584, 76.21191
154.7406, 76.88585
155.2227, 76.89670
155.7048, 76.39445
156.1869, 75.41623
156.6690, 73.64001
157.1511, 72.78603
157.6333, 73.85088
158.1154, 75.26315
158.5975, 75.46870
159.0796, 74.11445
159.5617, 72.27407
160.0438, 71.38113
160.5260, 71.46203
161.0081, 71.51978
161.4902, 71.06291
161.9723, 70.47865
162.4544, 70.59856
162.9365, 71.86496
163.4187, 73.36673
163.9008, 74.09079
164.3829, 74.08463
164.8650, 73.76039
165.3471, 73.30556
165.8292, 72.71502
166.3113, 71.88620
166.7935, 70.24546
167.2756, 68.92834
167.7577, 68.89729
168.2398, 70.15682
168.7219, 71.78445
169.2040, 73.08569
169.6862, 74.10819
170.1683, 74.46028
170.6504, 73.52063
171.1325, 72.24150
171.6146, 70.86842
172.0967, 69.52668
172.5789, 68.55895
173.0610, 68.64336
173.5431, 70.58764
174.0252, 71.72297
174.5073, 71.58601
174.9894, 70.91978
175.4716, 70.17300
175.9537, 69.51555
176.4358, 68.93180
176.9179, 68.37200
177.4000, 67.48412
177.8821, 67.17271
178.3643, 67.84309
178.8464, 68.90388
179.3285, 69.92251
179.8106, 70.72396
180.2927, 71.14056
180.7748, 70.66683
181.2570, 68.11918
181.7391, 66.15175
182.2212, 65.24761
182.7033, 65.06348
183.1854, 65.18253
183.6675, 65.47298
184.1497, 65.81343
184.6318, 65.78562
185.1139, 65.26464
185.5960, 64.67716
186.0781, 64.17430
186.5602, 63.72081
187.0423, 63.17435
187.5245, 62.36944
188.0066, 61.53878
188.4887, 61.20882
188.9708, 61.62446
189.4529, 62.09688
189.9350, 62.02534
190.4172, 61.48471
190.8993, 61.33440
191.3814, 62.33246
191.8635, 63.74347
192.3456, 63.38921
192.8277, 64.21902
193.3099, 64.40410
193.7920, 63.97934
194.2741, 61.11768
194.7562, 61.40277
195.2383, 60.42678
195.7204, 59.39908
196.2026, 60.12692
196.6847, 57.61971
197.1668, 58.31985
197.6489, 57.73966
198.1310, 57.57904
198.6131, 57.89553
199.0953, 58.00871
199.5774, 57.97939
200.0595, 57.75474
200.5416, 57.27833
201.0237, 56.81515
201.5058, 57.03046
201.9880, 58.48176
202.4701, 59.62001
202.9522, 60.26125
203.4343, 60.46780
203.9164, 60.08673
204.3985, 59.02299
204.8807, 57.72795
205.3628, 57.60899
205.8449, 59.81104
206.3270, 61.78971
206.8091, 63.68082
207.2912, 65.07027
207.7733, 65.36607
208.2555, 64.24491
208.7376, 62.11581
209.2197, 60.49558
209.7018, 59.40720
210.1839, 58.86079
210.6660, 59.13912
211.1482, 59.91043
211.6303, 60.87780
212.1124, 61.94318
212.5945, 62.89203
213.0766, 62.78526
213.5587, 60.09040
214.0409, 58.21931
214.5230, 58.23199
215.0051, 59.49209
215.4872, 61.02119
215.9693, 62.46238
216.4514, 63.61209
216.9336, 63.57265
217.4157, 61.49862
217.8978, 59.62752
218.3799, 58.57939
218.8620, 58.27402
219.3441, 58.63981
219.8263, 59.89502
220.3084, 61.53117
220.7905, 62.12054
221.2726, 60.98771
221.7547, 60.09566
222.2368, 60.90585
222.7190, 62.93977
223.2011, 64.16706
223.6832, 63.41410
224.1653, 61.57433
224.6474, 60.42773
225.1295, 60.04062
225.6117, 60.14711
226.0938, 60.95036
226.5759, 62.31997
227.0580, 63.07084
227.5401, 62.33321
228.0222, 61.06579
228.5043, 60.50390
228.9865, 60.81480
229.4686, 61.40498
229.9507, 61.87445
230.4328, 62.22267
230.9149, 62.39548
231.3970, 62.07470
231.8792, 61.79551
232.3613, 62.08839
232.8434, 63.04735
233.3255, 64.13793
233.8076, 65.10580
234.2897, 66.02599
234.7719, 65.92613
235.2540, 63.12767
235.7361, 60.19279
236.2182, 58.73519
236.7003, 58.97363
237.1824, 60.05738
237.6646, 61.24881
238.1467, 62.62324
238.6288, 63.71107
239.1109, 64.48069
239.5930, 64.90684
240.0751, 64.58057
240.5573, 63.61251
241.0394, 62.93686
241.5215, 64.02298
242.0036, 67.65266
242.4857, 69.84605
242.9678, 69.46300
243.4500, 68.35837
243.9321, 66.97346
244.4142, 65.58981
244.8963, 64.70767
245.3784, 65.09428
245.8605, 67.27634
246.3427, 68.78928
246.8248, 69.66819
247.3069, 69.91431
247.7890, 69.15341
248.2711, 67.59068
248.7532, 66.00092
249.2354, 65.24076
249.7175, 65.57806
250.1996, 65.61600
250.6817, 64.86184
251.1638, 64.27634
251.6459, 64.33581
252.1281, 65.01861
252.6102, 66.05372
253.0923, 67.28296
253.5744, 68.87758
254.0565, 69.50122
254.5386, 68.58231
255.0208, 67.41396
255.5029, 66.39961
255.9850, 65.63150
256.4671, 65.13554
256.9492, 64.96425
257.4313, 65.15780
257.9135, 65.21172
258.3956, 65.39940
258.8777, 65.23255
259.3598, 63.97511
259.8419, 62.07203
260.3240, 60.85310
260.8062, 61.44276
261.2883, 63.82790
261.7704, 65.35091
262.2525, 65.85174
262.7346, 65.90085
263.2167, 65.52583
263.6989, 64.85927
264.1810, 64.07277
264.6631, 63.14142
265.1452, 62.21907
265.6273, 62.70184
266.1094, 66.06481
266.5916, 68.94878
267.0737, 69.72909
267.5558, 69.07696
268.0379, 68.54214
268.5200, 68.87827
269.0021, 70.06055
269.4843, 72.04398
269.9664, 75.18685
270.4485, 78.48967
270.9306, 82.32813
271.4127, 86.09126
271.8948, 88.20502
272.3770, 87.65252
272.8591, 85.63929
273.3412, 85.42302
273.8233, 87.69068
274.3054, 89.84126
274.7875, 90.88235
275.2697, 91.28377
275.7518, 91.96858
276.2339, 93.31773
276.7160, 94.92357
277.1981, 96.06398
277.6802, 96.84940
278.1623, 97.10242
278.6444, 96.16594
279.1266, 94.79205
279.6087, 94.14339
280.0908, 94.45901
280.5729, 95.76389
281.0550, 98.79800
281.5371, 103.6322
282.0193, 107.3462
282.5014, 108.5780
282.9835, 108.4688
283.4656, 108.7177
283.9477, 109.6881
284.4298, 110.5488
284.9120, 110.0401
285.3941, 108.3957
285.8762, 107.4871
286.3583, 108.8108
286.8404, 110.5567
287.3225, 110.2441
287.8047, 107.4795
288.2868, 104.3139
288.7689, 102.7536
289.2510, 102.1881
289.7331, 100.3500
290.2152, 95.88638
290.6974, 90.59476
291.1795, 86.40459
291.6616, 83.38273
292.1437, 80.35302
292.6258, 76.31413
293.1079, 71.79128
293.5901, 67.99162
294.0722, 65.22950
294.5543, 63.00389
295.0364, 61.10511
295.5185, 59.49883
296.0006, 57.65010
296.4828, 54.99390
296.9649, 52.15271
297.4470, 50.08181
297.9291, 48.76600
298.4112, 48.32758
298.8933, 49.57955
299.3755, 52.13211
299.8576, 53.51104
300.3397, 52.38549
300.8218, 50.22791
301.3039, 49.15277
301.7860, 49.30058
302.2682, 49.46333
302.7503, 48.77579
303.2324, 47.52844
303.7145, 46.77556
304.1966, 46.90163
304.6787, 47.31467
305.1609, 47.39155
305.6430, 47.17115
306.1251, 46.93787
306.6072, 46.72248
307.0893, 46.59180
307.5714, 46.79026
308.0536, 47.49894
308.5357, 48.10226
309.0178, 48.01461
309.4999, 47.40669
309.9820, 46.63963
310.4641, 45.25624
310.9463, 44.00685
311.4284, 44.35390
311.9105, 46.63447
312.3926, 48.78289
312.8747, 49.30228
313.3568, 48.78078
313.8390, 48.15807
314.3211, 47.33529
314.8032, 46.76374
315.2853, 47.16893
315.7674, 48.57441
316.2495, 49.64874
316.7317, 49.60736
317.2138, 48.95736
317.6959, 48.54809
318.1780, 48.57609
318.6601, 48.48223
319.1422, 47.44814
319.6243, 45.70227
320.1064, 44.99693
320.5886, 46.46389
321.0707, 48.54832
321.5528, 49.33078
322.0349, 48.77233
322.5170, 47.78535
322.9991, 46.54277
323.4813, 45.22816
323.9634, 44.35866
324.4455, 44.07019
324.9276, 44.16991
325.4097, 44.73947
325.8918, 45.64988
326.3740, 46.12833
326.8561, 45.58907
327.3382, 44.56074
327.8203, 43.92751
328.3024, 43.82574
328.7845, 43.72153
329.2667, 42.79946
329.7488, 41.56805
330.2309, 41.37621
330.7130, 43.65636
331.1951, 46.24238
331.6772, 46.63764
332.1594, 44.88019
332.6415, 43.41399
333.1236, 43.82921
333.6057, 45.23140
334.0878, 45.59671
334.5699, 44.34753
335.0521, 43.00901
335.5342, 42.53334
336.0163, 42.79275
336.4984, 43.36296
336.9805, 44.43420
337.4626, 45.26167
337.9448, 44.44638
338.4269, 41.73450
338.9090, 39.44225
339.3911, 38.89375
339.8732, 39.31157
340.3553, 39.11124
340.8375, 37.84035
341.3196, 36.50415
341.8017, 36.30497
342.2838, 37.13244
342.7659, 38.09689
343.2480, 39.19450
343.7302, 40.25830
344.2123, 41.18288
344.6944, 41.95146
345.1765, 42.36115
345.6586, 42.15872
346.1407, 41.41529
346.6229, 40.80215
347.1050, 40.40229
347.5871, 40.06713
348.0692, 39.64713
348.5513, 39.19950
349.0334, 38.96578
349.5156, 39.12707
349.9977, 39.51402
350.4798, 39.64784
350.9619, 39.40196
351.4440, 39.20910
351.9261, 39.38518
352.4083, 39.66381
352.8904, 39.44872
353.3725, 38.49339
353.8546, 37.51362
354.3367, 37.76881
354.8188, 39.80621
355.3010, 40.68546
355.7831, 39.11477
356.2652, 36.91845
356.7473, 35.70150
357.2294, 35.64318
357.7115, 36.06903
358.1937, 36.52898
358.6758, 37.01855
359.1579, 36.77000
359.6400, 34.83952
360.1221, 33.15992
360.6042, 32.71849
361.0863, 33.30629
361.5685, 34.35445
362.0506, 35.62583
362.5327, 36.97333
363.0148, 37.76744
363.4969, 37.73296
363.9790, 37.53426
364.4612, 37.06137
364.9433, 36.54844
365.4254, 36.41257
365.9075, 36.77057
366.3896, 37.15129
366.8717, 36.74230
367.3539, 34.87313
367.8360, 33.75290
368.3181, 33.48861
368.8002, 33.82686
369.2823, 35.04603
369.7644, 36.86804
370.2466, 38.24965
370.7287, 38.07906
371.2108, 36.19197
371.6929, 35.68327
372.1750, 38.55583
372.6571, 40.56658
373.1393, 39.94349
373.6214, 37.66858
374.1035, 35.43361
374.5856, 34.15259
375.0677, 33.68082
375.5498, 33.58839
376.0320, 34.37077
376.5141, 34.79182
376.9962, 34.53154
377.4783, 34.02256
377.9604, 33.61710
378.4425, 33.40997
378.9247, 33.30156
379.4068, 33.14255
379.8889, 32.88063
380.3710, 32.75466
380.8531, 32.82270
381.3352, 32.97500
381.8174, 33.04629
382.2995, 33.14465
382.7816, 33.64693
383.2637, 35.10468
383.7458, 37.21619
384.2279, 37.77106
384.7101, 35.75281
385.1922, 33.64820
385.6743, 31.95123
386.1564, 30.70633
386.6385, 29.95096
387.1206, 29.71924
387.6028, 29.93791
388.0849, 30.59584
388.5670, 31.80076
389.0491, 32.92629
389.5312, 34.06075
390.0133, 34.89065
390.4955, 35.10862
390.9776, 34.72350
391.4597, 34.13733
391.9418, 33.62643
392.4239, 33.17225
392.9060, 32.62528
393.3882, 31.78828
393.8703, 31.20475
394.3524, 31.45050
394.8345, 32.18422
395.3166, 32.67399
395.7987, 32.57295
396.2809, 32.15369
396.7630, 31.73135
397.2451, 31.29714
397.7272, 30.95435
398.2093, 30.81561
398.6914, 30.75609
399.1736, 30.56725
399.6557, 30.20130
400.1378, 29.83527
400.6199, 29.31460
401.1020, 28.86641
401.5841, 29.37183
402.0662, 31.35957
402.5483, 33.33723
403.0305, 33.14069
403.5126, 30.93340
403.9947, 29.37087
404.4768, 29.29859
404.9589, 29.82017
405.4410, 30.31953
405.9232, 30.70184
406.4053, 30.64241
406.8874, 29.75108
407.3695, 28.28976
407.8516, 27.59371
408.3337, 28.30542
408.8159, 28.92450
409.2980, 28.41220
409.7801, 27.64347
410.2622, 28.43594
410.7443, 31.47215
411.2264, 34.96376
411.7086, 35.96785
412.1907, 33.03741
412.6728, 31.06422
413.1549, 30.29730
413.6370, 30.24673
414.1191, 30.97834
414.6013, 32.21753
415.0834, 33.19059
415.5655, 33.25596
416.0476, 32.46668
416.5297, 31.74143
417.0118, 30.90519
417.4940, 30.34728
417.9761, 30.21334
418.4582, 30.36651
418.9403, 30.70740
419.4224, 31.18824
419.9045, 31.66938
420.3867, 31.91920
420.8688, 31.92215
421.3509, 31.72096
421.8330, 30.81930
422.3151, 30.14724
422.7972, 30.42167
423.2794, 31.45490
423.7615, 32.43316
424.2436, 32.67210
424.7257, 32.29576
425.2078, 32.20226
425.6899, 32.75695
426.1721, 32.93649
426.6542, 32.28341
427.1363, 31.14116
427.6184, 29.67230
428.1005, 27.76516
428.5826, 26.37633
429.0648, 27.27846
429.5469, 30.52497
430.0290, 32.37879
430.5111, 31.26760
430.9932, 29.30625
431.4753, 28.31569
431.9575, 28.22130
432.4396, 28.39123
432.9217, 28.64800
433.4038, 28.93835
433.8859, 29.16997
434.3680, 29.33379
434.8502, 29.50045
435.3323, 29.90491
435.8144, 30.27774
436.2965, 29.88582
436.7786, 27.94911
437.2607, 26.38994
437.7429, 26.51050
438.2250, 27.76538
438.7071, 29.03554
439.1892, 30.04415
439.6713, 30.61533
440.1534, 30.30758
440.6356, 28.76174
441.1177, 28.03437
441.5998, 28.93931
442.0819, 30.13942
442.5640, 30.70727
443.0461, 30.66365
443.5282, 30.49416
444.0103, 30.54291
444.4925, 30.71462
444.9746, 30.46295
445.4567, 29.40368
445.9388, 28.38970
446.4209, 27.23678
446.9030, 26.31638
447.3852, 26.08210
447.8673, 26.61193
448.3494, 27.50427
448.8315, 28.33749
449.3136, 29.21490
449.7957, 29.50345
450.2779, 28.40560
450.7600, 27.49854
451.2421, 27.67081
451.7242, 28.39266
452.2063, 28.48950
452.6884, 27.16702
453.1706, 25.27242
453.6527, 24.96201
454.1348, 26.77439
454.6169, 28.46966
455.0990, 29.90875
455.5811, 30.74009
456.0633, 30.42501
456.5454, 28.99116
457.0275, 27.43421
457.5096, 26.04869
457.9917, 25.07904
458.4738, 25.79415
458.9560, 29.03606
459.4381, 31.79151
459.9202, 31.37523
460.4023, 29.14218
460.8844, 27.51239
461.3665, 26.97299
461.8487, 27.02610
462.3308, 27.48958
462.8129, 28.27131
463.2950, 29.15734
463.7771, 30.21617
464.2592, 30.98629
464.7414, 30.59627
465.2235, 28.82562
465.7056, 27.55197
466.1877, 27.19988
466.6698, 27.24602
467.1519, 27.28576
467.6341, 27.32774
468.1162, 27.68967
468.5983, 28.68619
469.0804, 30.00702
469.5625, 30.17657
470.0446, 27.66073
470.5268, 25.92969
471.0089, 25.74661
471.4910, 26.17104
471.9731, 26.39069
472.4552, 26.22012
472.9373, 25.86856
473.4195, 25.48397
473.9016, 25.02330
474.3837, 25.12663
474.8658, 26.72214
475.3479, 27.85254
475.8300, 27.33276
476.3122, 26.20779
476.7943, 26.14347
477.2764, 27.93680
477.7585, 30.29026
478.2406, 31.15520
478.7227, 30.36991
479.2049, 29.49366
479.6870, 28.48756
480.1691, 27.80498
480.6512, 27.86460
481.1333, 28.54933
481.6154, 29.29394
482.0976, 30.16547
482.5797, 30.78877
483.0618, 30.29878
483.5439, 28.65365
484.0260, 27.32515
484.5081, 27.14456
484.9902, 27.65605
485.4724, 27.83773
485.9545, 27.57915
486.4366, 27.34363
486.9187, 27.22381
487.4008, 27.24597
487.8829, 27.56446
488.3651, 28.17022
488.8472, 28.64658
489.3293, 28.60324
489.8114, 28.04428
490.2935, 27.53798
490.7756, 26.58802
491.2578, 26.25159
491.7399, 27.51087
492.2220, 29.30452
492.7041, 30.10361
493.1862, 29.43214
493.6683, 28.20123
494.1505, 27.73427
494.6326, 28.21459
495.1147, 28.73471
495.5968, 29.86523
496.0789, 30.45965
496.5610, 29.59044
497.0432, 27.93099
497.5253, 26.79432
498.0074, 26.92600
498.4895, 27.71949
498.9716, 28.07540
499.4537, 27.93478
499.9359, 27.70231
500.4180, 27.14120
500.9001, 26.83956
501.3822, 27.54296
501.8643, 29.12119
502.3464, 30.28204
502.8286, 30.56061
503.3107, 29.99937
503.7928, 28.19065
504.2749, 25.13697
504.7570, 22.78810
505.2391, 22.33417
505.7213, 23.17571
506.2034, 23.67296
506.6855, 23.49502
507.1676, 23.76925
507.6497, 25.49561
508.1318, 27.45397
508.6140, 28.01821
509.0961, 27.10094
509.5782, 26.13151
510.0603, 26.47373
510.5424, 28.00986
511.0245, 28.24642
511.5067, 25.49159
511.9888, 23.48211
512.4709, 22.96479
512.9530, 23.43054
513.4351, 24.64264
513.9172, 26.39630
514.3994, 27.92892
514.8815, 28.16147
515.3636, 26.96683
515.8457, 26.20609
516.3278, 26.16643
516.8099, 26.19151
517.2921, 26.06468
517.7742, 25.80906
518.2563, 25.45266
518.7384, 24.98685
519.2205, 24.47758
519.7026, 23.82532
520.1848, 23.10730
520.6669, 23.09441
521.1490, 24.33911
521.6311, 25.52699
522.1132, 24.66955
522.5953, 22.27256
523.0775, 21.32736
523.5596, 24.04580
524.0417, 26.85008
524.5238, 26.81031
525.0059, 24.76678
525.4880, 23.23648
525.9702, 23.27266
526.4523, 24.10574
526.9344, 24.43436
527.4165, 24.01474
527.8986, 23.69178
528.3807, 22.93184
528.8629, 22.74972
529.3450, 24.25998
529.8271, 26.78041
530.3092, 28.75229
530.7913, 29.28717
531.2734, 28.80822
531.7556, 28.29617
532.2377, 27.73458
532.7198, 27.19037
533.2019, 27.06984
533.6840, 26.63553
534.1661, 24.82552
534.6483, 22.13225
535.1304, 20.61248
535.6125, 22.40200
536.0946, 25.47307
536.5767, 25.62559
537.0588, 22.67587
537.5410, 20.77736
538.0231, 22.07034
538.5052, 24.76667
538.9873, 26.10301
539.4694, 26.01278
539.9515, 25.50463
540.4337, 24.15149
540.9158, 22.98458
541.3979, 23.34711
541.8800, 25.03098
542.3621, 26.65174
542.8442, 27.40752
543.3264, 27.38224
543.8085, 26.83777
544.2906, 24.61662
544.7726, 23.52824
545.2548, 24.63059
545.7369, 26.07525
546.2190, 26.49117
546.7011, 25.90236
547.1832, 25.09287
547.6653, 24.61444
548.1475, 24.41961
548.6296, 24.35798
549.1117, 24.49836
549.5938, 24.59025
550.0759, 24.53390
550.5580, 24.41803
551.0402, 24.17279
551.5223, 23.83136
552.0044, 23.84729
552.4865, 24.97321
552.9686, 26.44830
553.4507, 26.70376
553.9329, 25.67064
554.4150, 24.86173
554.8971, 25.21921
555.3792, 26.20116
555.8613, 26.38374
556.3434, 25.50922
556.8256, 24.66246
557.3077, 23.82772
557.7898, 23.25842
558.2719, 23.27943
558.7540, 23.83267
559.2361, 24.66411
559.7183, 25.68892
560.2004, 26.67329
560.6825, 26.55752
561.1646, 24.34008
561.6467, 22.72912
562.1288, 21.74304
562.6110, 21.54710
563.0931, 22.62835
563.5752, 24.73190
564.0573, 26.81152
564.5394, 28.36204
565.0215, 29.25111
565.5037, 28.88209
565.9858, 27.03149
566.4679, 25.34581
566.9500, 24.26372
567.4321, 23.81409
567.9142, 24.12061
568.3964, 25.24861
568.8785, 26.17025
569.3606, 26.47708
569.8427, 26.45875
570.3248, 26.23646
570.8069, 25.91737
571.2891, 25.94375
571.7712, 26.62045
572.2533, 27.59952
572.7354, 28.02731
573.2175, 27.89872
573.6996, 27.14965
574.1818, 24.60387
574.6639, 22.51133
575.1460, 22.75108
575.6281, 24.62473
576.1102, 26.09500
576.5923, 25.93586
577.0745, 24.78269
577.5566, 24.10294
578.0387, 24.08077
578.5208, 23.42443
579.0029, 20.57594
579.4850, 18.46026
579.9672, 20.03986
580.4493, 24.40523
580.9314, 27.60555
581.4135, 27.48013
581.8956, 26.17510
582.3777, 25.68654
582.8599, 25.80090
583.3420, 25.65354
583.8241, 24.91505
584.3062, 23.96790
584.7883, 23.25504
585.2704, 22.72072
585.7526, 22.82673
586.2347, 24.17731
586.7168, 25.47857
587.1989, 26.25396
