##NAMES=Chalcopyrite
##RRUFFID=R050222
##IDEAL CHEMISTRY=Cu^1+^Fe^3+^S^2-^_2_
##LOCALITY=Iron Cap mine, Landsman Camp, Graham County, Arizona, USA
##OWNER=RRUFF
##SOURCE=Bob Downs
##DESCRIPTION=Group of brass yellow metallic tetrahedra, dark streaks represent alteration by bacteria where S is left behind
##STATUS=The identification of this mineral has been confirmed by X-ray diffraction and chemical analysis
##URL=rruff.info/R050222
##MEASURED CHEMISTRY=Cu_1.00_Fe_1.00_S_2.00_
93.74609, 23.06643
94.22821, 22.81425
94.71033, 22.97145
95.19244, 23.45440
95.67456, 23.92516
96.15668, 24.20015
96.63879, 24.33620
97.12091, 24.56829
97.60303, 24.93288
98.08514, 25.30643
98.56726, 25.36649
99.04938, 25.08924
99.53149, 25.05089
100.0136, 25.77622
100.4957, 27.28949
100.9778, 28.30484
101.4600, 28.62663
101.9421, 28.46441
102.4242, 28.33573
102.9063, 28.16748
103.3884, 28.21588
103.8705, 28.70039
104.3527, 29.78198
104.8348, 30.83594
105.3169, 31.76397
105.7990, 32.58496
106.2811, 33.61376
106.7632, 34.89031
107.2454, 36.32805
107.7275, 37.93780
108.2096, 40.86470
108.6917, 42.36869
109.1738, 41.42139
109.6559, 37.39825
110.1381, 34.96404
110.6202, 35.17885
111.1023, 36.58453
111.5844, 37.64219
112.0665, 38.07212
112.5486, 38.39990
113.0308, 38.49004
113.5129, 37.87075
113.9950, 38.56098
114.4771, 41.78269
114.9592, 46.31297
115.4413, 50.34083
115.9235, 53.45356
116.4056, 55.94234
116.8877, 57.96714
117.3698, 59.82045
117.8519, 60.73682
118.3340, 59.73899
118.8162, 57.52440
119.2983, 55.81208
119.7804, 55.45452
120.2625, 55.79697
120.7446, 56.26287
121.2267, 56.28801
121.7089, 57.01728
122.1910, 59.85765
122.6731, 64.31702
123.1552, 68.19493
123.6373, 70.81258
124.1194, 71.89765
124.6016, 70.99288
125.0837, 66.50036
125.5658, 61.15676
126.0479, 57.61476
126.5300, 55.82970
127.0121, 55.04837
127.4943, 54.35509
127.9764, 54.18194
128.4585, 55.54031
128.9406, 60.12457
129.4227, 66.07639
129.9048, 70.10153
130.3869, 72.13522
130.8691, 72.88195
131.3512, 72.81483
131.8333, 72.00545
132.3154, 70.87492
132.7975, 69.49941
133.2796, 67.92400
133.7618, 66.10258
134.2439, 63.60662
134.7260, 61.42457
135.2081, 62.03066
135.6902, 65.60835
136.1723, 69.04737
136.6545, 70.56315
137.1366, 70.18320
137.6187, 70.60693
138.1008, 72.11242
138.5829, 74.21230
139.0650, 76.29855
139.5472, 78.71679
140.0293, 79.88242
140.5114, 78.74854
140.9935, 74.92181
141.4756, 70.58898
141.9577, 65.22388
142.4399, 59.55341
142.9220, 56.66393
143.4041, 57.70977
143.8862, 59.32947
144.3683, 59.25641
144.8504, 56.27449
145.3326, 54.52753
145.8147, 54.76829
146.2968, 56.73819
146.7789, 58.35204
147.2610, 59.76140
147.7431, 60.69709
148.2253, 60.93946
148.7074, 59.92760
149.1895, 59.02746
149.6716, 58.28947
150.1537, 57.69409
150.6358, 57.69473
151.1180, 58.50513
151.6001, 59.78518
152.0822, 61.24225
152.5643, 63.98872
153.0464, 65.76456
153.5285, 65.70009
154.0107, 63.43909
154.4928, 62.28752
154.9749, 63.87062
155.4570, 66.05553
155.9391, 66.73083
156.4212, 64.33171
156.9034, 61.65163
157.3855, 59.13353
157.8676, 56.63819
158.3497, 55.37533
158.8318, 56.62933
159.3139, 58.94576
159.7961, 60.48171
160.2782, 59.71103
160.7603, 58.94406
161.2424, 59.31148
161.7245, 61.30218
162.2066, 62.96069
162.6888, 63.47069
163.1709, 63.24400
163.6530, 62.94794
164.1351, 62.88099
164.6172, 62.77903
165.0993, 62.46104
165.5815, 61.83332
166.0636, 61.19127
166.5457, 60.54028
167.0278, 59.97112
167.5099, 59.67378
167.9921, 59.90867
168.4742, 60.35387
168.9563, 60.77292
169.4384, 61.14192
169.9205, 61.44211
170.4026, 61.72560
170.8848, 61.94596
171.3669, 61.96845
171.8490, 61.77698
172.3311, 61.32866
172.8132, 60.45615
173.2953, 58.77502
173.7775, 57.30374
174.2596, 57.36275
174.7417, 58.55448
175.2238, 59.38169
175.7059, 58.32766
176.1880, 56.45127
176.6702, 55.28215
177.1523, 55.34626
177.6344, 55.98079
178.1165, 56.68935
178.5986, 57.41764
179.0807, 57.79550
179.5629, 57.41586
180.0450, 56.51130
180.5271, 55.51563
181.0092, 54.37939
181.4913, 53.35663
181.9734, 52.93251
182.4556, 53.07182
182.9377, 53.32808
183.4198, 53.44299
183.9019, 53.40929
184.3840, 53.15191
184.8661, 52.41585
185.3483, 51.63725
185.8304, 51.78918
186.3125, 52.87649
186.7946, 54.10253
187.2767, 54.87980
187.7588, 55.23761
188.2409, 55.25326
188.7231, 54.85505
189.2052, 54.17659
189.6873, 53.50857
190.1694, 52.83824
190.6515, 52.25500
191.1336, 51.87284
191.6158, 51.67351
192.0979, 51.49027
192.5800, 51.22582
193.0621, 50.95214
193.5442, 50.98590
194.0263, 51.37291
194.5085, 51.79932
194.9906, 52.00443
195.4727, 51.99083
195.9548, 51.65033
196.4369, 50.68859
196.9190, 49.35796
197.4012, 49.17630
197.8833, 50.39790
198.3654, 51.74071
198.8475, 51.49803
199.3296, 49.57132
199.8117, 48.13932
200.2939, 48.00702
200.7760, 48.96103
201.2581, 49.35838
201.7402, 49.09057
202.2223, 48.55061
202.7044, 48.10760
203.1866, 47.74920
203.6687, 47.62372
204.1508, 47.89089
204.6329, 48.50486
205.1150, 48.71756
205.5971, 48.43405
206.0793, 47.95628
206.5614, 47.60059
207.0435, 47.37051
207.5256, 47.27744
208.0077, 47.45687
208.4898, 47.89317
208.9720, 47.65263
209.4541, 46.43795
209.9362, 45.06002
210.4183, 44.61292
210.9004, 45.42779
211.3825, 45.96238
211.8647, 45.62718
212.3468, 44.39671
212.8289, 44.01278
213.3110, 44.79465
213.7931, 45.96461
214.2752, 46.55263
214.7574, 46.37219
215.2395, 46.16817
215.7216, 46.06458
216.2037, 46.05355
216.6858, 46.47409
217.1679, 47.62807
217.6501, 48.83479
218.1322, 49.14803
218.6143, 48.08695
219.0964, 47.38243
219.5785, 47.67738
220.0606, 49.05778
220.5428, 49.56786
221.0249, 48.80180
221.5070, 47.62482
221.9891, 46.99229
222.4712, 46.91844
222.9533, 47.38058
223.4355, 48.62248
223.9176, 50.75647
224.3997, 51.93198
224.8818, 51.88656
225.3639, 51.18476
225.8460, 50.32151
226.3282, 48.99771
226.8103, 48.16224
227.2924, 48.09418
227.7745, 48.82142
228.2566, 49.79969
228.7387, 51.40577
229.2209, 52.86787
229.7030, 53.21225
230.1851, 51.65086
230.6672, 50.54679
231.1493, 50.49192
231.6314, 51.52880
232.1136, 52.41509
232.5957, 53.19979
233.0778, 53.78345
233.5599, 53.96033
234.0420, 53.25213
234.5241, 53.11243
235.0063, 54.13550
235.4884, 56.32137
235.9705, 57.43995
236.4526, 56.85973
236.9347, 55.88276
237.4168, 55.75049
237.8990, 56.96494
238.3811, 58.04162
238.8632, 58.70579
239.3453, 58.96288
239.8274, 59.17583
240.3095, 59.18565
240.7917, 59.32796
241.2738, 59.97443
241.7559, 61.62187
242.2380, 62.75573
242.7201, 62.94324
243.2022, 62.25957
243.6844, 62.03205
244.1665, 62.44682
244.6486, 63.09541
245.1307, 63.69688
245.6128, 64.33371
246.0949, 64.73285
246.5771, 64.67146
247.0592, 64.24888
247.5413, 64.47419
248.0234, 65.67418
248.5055, 67.10739
248.9876, 68.18532
249.4697, 68.53817
249.9519, 69.40200
250.4340, 71.16524
250.9161, 73.60842
251.3982, 75.41821
251.8803, 76.47816
252.3624, 77.04127
252.8446, 77.17240
253.3267, 76.59167
253.8088, 76.22832
254.2909, 76.05762
254.7730, 76.15822
255.2551, 76.95671
255.7373, 78.89799
256.2194, 80.81149
256.7015, 81.89853
257.1836, 81.58411
257.6657, 82.08632
258.1479, 83.97325
258.6300, 86.62855
259.1121, 88.14085
259.5942, 88.05873
260.0763, 87.64444
260.5584, 87.46472
261.0406, 87.54810
261.5227, 87.80185
262.0048, 88.31155
262.4869, 88.94463
262.9690, 89.33270
263.4511, 89.25831
263.9333, 89.40601
264.4154, 90.24301
264.8975, 92.16453
265.3796, 93.12922
265.8617, 92.70885
266.3438, 91.71026
266.8260, 91.72099
267.3081, 93.09421
267.7902, 94.52866
268.2723, 95.40483
268.7544, 95.59141
269.2365, 96.28124
269.7187, 97.55870
270.2008, 99.22826
270.6829, 100.8271
271.1650, 102.0987
271.6471, 104.2324
272.1292, 107.8843
272.6114, 113.0999
273.0935, 117.7585
273.5756, 121.8744
274.0577, 125.3331
274.5398, 127.8059
275.0219, 129.0325
275.5041, 130.5331
275.9862, 133.0057
276.4683, 136.3028
276.9504, 138.2181
277.4325, 138.3025
277.9146, 138.1742
278.3968, 139.5738
278.8788, 142.6012
279.3610, 146.1167
279.8431, 149.9706
280.3252, 154.0590
280.8073, 157.9377
281.2894, 161.5112
281.7715, 165.2699
282.2537, 169.6622
282.7358, 174.6947
283.2179, 179.9914
283.7000, 185.3718
284.1821, 191.0604
284.6642, 197.2753
285.1464, 203.9092
285.6285, 212.1781
286.1106, 223.3020
286.5927, 237.1465
287.0748, 251.9123
287.5569, 267.4434
288.0391, 283.7000
288.5212, 300.8173
289.0033, 318.8905
289.4854, 336.1548
289.9675, 352.7635
290.4496, 368.1422
290.9318, 379.1492
291.4139, 386.3324
291.8960, 387.3104
292.3781, 377.2772
292.8602, 356.6205
293.3423, 330.5501
293.8245, 298.6453
294.3066, 263.0983
294.7887, 230.4227
295.2708, 201.1187
295.7529, 175.3668
296.2350, 153.8170
296.7172, 136.3394
297.1993, 121.8598
297.6814, 110.4245
298.1635, 101.4051
298.6456, 93.77660
299.1277, 87.50204
299.6099, 82.31411
300.0920, 78.19240
300.5741, 75.01566
301.0562, 72.67030
301.5383, 71.51751
302.0204, 70.90832
302.5026, 69.82035
302.9847, 68.27220
303.4668, 66.91773
303.9489, 66.46645
304.4310, 66.54182
304.9131, 66.44318
305.3953, 65.83875
305.8774, 65.11327
306.3595, 64.60287
306.8416, 64.31072
307.3237, 64.24764
307.8058, 64.66096
308.2880, 65.22565
308.7701, 65.47153
309.2522, 65.05054
309.7343, 64.77419
310.2164, 65.45775
310.6985, 66.84026
311.1807, 68.16225
311.6628, 68.96804
312.1449, 69.56704
312.6270, 70.12840
313.1091, 70.58553
313.5912, 71.34409
314.0734, 72.94469
314.5555, 74.99179
315.0376, 76.77962
315.5197, 76.98254
316.0018, 77.59312
316.4839, 80.41105
316.9661, 85.98611
317.4482, 90.45791
317.9303, 91.19968
318.4124, 90.23309
318.8945, 89.93112
319.3766, 92.76219
319.8588, 94.84933
320.3409, 94.16812
320.8230, 90.72883
321.3051, 87.56658
321.7872, 85.78516
322.2693, 84.51270
322.7515, 83.06270
323.2336, 81.58047
323.7157, 79.60821
324.1978, 76.58473
324.6799, 72.79579
325.1620, 69.74175
325.6442, 68.30895
326.1263, 67.19347
326.6084, 65.74192
327.0905, 63.91559
327.5726, 61.72804
328.0547, 58.24612
328.5369, 54.35871
329.0190, 52.33302
329.5011, 53.99524
329.9832, 55.81313
330.4653, 56.58862
330.9474, 55.81290
331.4296, 55.29551
331.9117, 54.94477
332.3938, 54.89651
332.8759, 55.40191
333.3580, 57.04704
333.8401, 58.36173
334.3223, 58.86153
334.8044, 58.45562
335.2865, 58.32811
335.7686, 58.59165
336.2507, 59.00768
336.7328, 59.32082
337.2150, 59.43567
337.6971, 59.74042
338.1792, 60.46484
338.6613, 61.46095
339.1434, 61.70611
339.6255, 60.87129
340.1077, 60.05570
340.5898, 60.13164
341.0719, 61.24474
341.5540, 62.15261
342.0361, 62.71354
342.5182, 63.01553
343.0004, 63.09264
343.4825, 62.85804
343.9646, 63.02216
344.4467, 64.18877
344.9288, 66.25137
345.4109, 67.85250
345.8931, 68.75053
346.3752, 69.74919
346.8573, 72.21297
347.3394, 76.04261
347.8215, 79.73055
348.3036, 82.79406
348.7858, 85.25222
349.2679, 87.03748
349.7500, 88.12634
350.2321, 88.94786
350.7142, 89.89807
351.1964, 90.89591
351.6785, 91.80618
352.1606, 92.96499
352.6427, 93.58386
353.1248, 92.50740
353.6069, 89.83823
354.0891, 86.27445
354.5712, 81.83305
355.0533, 76.95705
355.5354, 72.13168
356.0175, 67.34553
356.4996, 62.96727
356.9818, 59.40295
357.4639, 56.45761
357.9460, 53.66611
358.4281, 50.50182
358.9102, 47.57406
359.3923, 45.41181
359.8745, 44.08283
360.3566, 43.30845
360.8387, 43.58158
361.3208, 44.13367
361.8029, 44.01159
362.2850, 41.77874
362.7672, 39.80420
363.2493, 39.40289
363.7314, 40.45723
364.2135, 41.27302
364.6956, 40.93875
365.1777, 40.36243
365.6599, 40.17955
366.1420, 40.93156
366.6241, 41.56747
367.1062, 41.95885
367.5883, 42.10408
368.0704, 41.98684
368.5526, 41.06569
369.0347, 40.34037
369.5168, 40.27456
369.9989, 41.37361
370.4810, 41.97113
370.9631, 41.71912
371.4453, 41.11717
371.9274, 40.85657
372.4095, 41.27855
372.8916, 41.53047
373.3737, 41.27837
373.8558, 40.48845
374.3380, 40.34768
374.8201, 41.13636
375.3022, 42.19506
375.7843, 42.98673
376.2664, 43.47732
376.7485, 43.81717
377.2307, 43.95144
377.7128, 43.97949
378.1949, 44.43734
378.6770, 45.57140
379.1591, 46.11800
379.6412, 44.98202
380.1234, 42.13512
380.6055, 40.14381
381.0876, 39.26023
381.5697, 38.87609
382.0518, 38.15477
382.5339, 37.11452
383.0161, 35.93574
383.4982, 34.47362
383.9803, 32.96250
384.4624, 32.24493
384.9445, 32.33964
385.4266, 32.65071
385.9088, 32.67811
386.3909, 32.50841
386.8730, 32.37989
387.3551, 32.40761
387.8372, 32.41721
388.3193, 32.13108
388.8015, 31.61564
389.2836, 31.14310
389.7657, 30.92012
390.2478, 30.80646
390.7299, 30.62475
391.2120, 30.31687
391.6942, 30.10440
392.1763, 30.15562
392.6584, 30.40265
393.1405, 30.73786
393.6226, 31.37568
394.1047, 31.87376
394.5869, 31.87354
395.0690, 31.38714
395.5511, 31.03505
396.0332, 31.33794
396.5153, 31.69837
396.9974, 31.65582
397.4796, 30.37105
397.9617, 29.54734
398.4438, 29.84348
398.9259, 30.87925
399.4080, 31.46453
399.8901, 30.94595
400.3723, 30.42745
400.8544, 30.36957
401.3365, 31.05459
401.8186, 31.35815
402.3007, 30.96316
402.7828, 30.37964
403.2649, 30.28165
403.7470, 31.06415
404.2292, 31.55730
404.7113, 31.33526
405.1934, 30.50581
405.6755, 30.47195
406.1576, 31.60492
406.6397, 32.70537
407.1219, 32.75008
407.6040, 31.56961
408.0861, 30.78487
408.5682, 30.60505
409.0503, 30.80665
409.5324, 31.02490
410.0146, 31.26339
410.4967, 31.39022
410.9788, 31.25005
411.4609, 30.92798
411.9430, 30.77119
412.4251, 30.78246
412.9073, 30.93783
413.3894, 31.30034
413.8715, 31.79840
414.3536, 32.22153
414.8357, 32.52880
415.3178, 32.71261
415.8000, 32.71265
416.2821, 32.55806
416.7642, 32.38731
417.2463, 32.13064
417.7284, 31.97871
418.2105, 32.31466
418.6927, 33.42143
419.1748, 34.07396
419.6569, 32.98465
420.1390, 31.06122
420.6211, 29.73111
421.1032, 29.98385
421.5854, 30.47237
422.0675, 30.60774
422.5496, 30.38748
423.0317, 30.21814
423.5138, 30.22611
423.9959, 30.30765
424.4781, 30.39110
424.9602, 30.24644
425.4423, 30.38947
425.9244, 31.28765
426.4065, 32.47106
426.8886, 32.85659
427.3708, 31.58845
427.8529, 30.59721
428.3350, 30.64223
428.8171, 31.97009
429.2992, 32.53976
429.7813, 32.00348
430.2635, 31.17116
430.7456, 30.89784
431.2277, 31.36952
431.7098, 31.58102
432.1919, 31.20359
432.6740, 30.54120
433.1562, 30.78701
433.6383, 32.08527
434.1204, 33.05588
434.6025, 32.50390
435.0846, 30.75171
435.5667, 29.85292
436.0489, 30.00660
436.5310, 30.46900
437.0131, 30.29261
437.4952, 29.64988
437.9773, 29.13524
438.4594, 29.08085
438.9416, 29.18010
439.4237, 28.89911
439.9058, 28.31662
440.3879, 27.98322
440.8700, 28.55466
441.3521, 29.42078
441.8343, 29.90487
442.3164, 29.78352
442.7985, 29.58327
443.2806, 29.82098
443.7627, 30.14163
444.2448, 29.98084
444.7270, 28.24999
445.2091, 26.82658
445.6912, 26.65826
446.1733, 27.77477
446.6554, 28.70725
447.1375, 28.88034
447.6197, 28.96174
448.1018, 29.37627
448.5839, 31.10743
449.0660, 31.86066
449.5481, 31.03161
450.0302, 29.36399
450.5124, 28.46884
450.9945, 28.70874
451.4766, 29.09426
451.9587, 29.36104
452.4408, 29.50955
452.9229, 29.50419
453.4051, 29.26738
453.8872, 29.05815
454.3693, 29.26391
454.8514, 29.92604
455.3335, 30.05224
455.8156, 29.36560
456.2978, 28.24333
456.7799, 27.29283
457.2620, 26.52232
457.7441, 26.15384
458.2262, 26.60146
458.7083, 27.47601
459.1905, 27.87460
459.6726, 27.74949
460.1547, 27.57895
460.6368, 27.94961
461.1189, 28.52023
461.6010, 28.71863
462.0832, 28.23014
462.5653, 27.52870
463.0474, 26.73015
463.5295, 25.96223
464.0116, 25.60793
464.4937, 26.44248
464.9759, 27.27569
465.4580, 27.37158
465.9401, 26.54509
466.4222, 25.65093
466.9043, 24.55893
467.3864, 23.66084
467.8686, 23.32564
468.3507, 23.96335
468.8328, 24.74376
469.3149, 25.88144
469.7970, 27.13825
470.2791, 27.56199
470.7613, 26.65942
471.2434, 25.65835
471.7255, 25.01862
472.2076, 24.74836
472.6897, 24.85017
473.1718, 25.45856
473.6540, 26.17887
474.1361, 26.57514
474.6182, 26.64038
475.1003, 26.51232
475.5824, 26.14535
476.0645, 25.68071
476.5467, 25.47406
477.0288, 25.50800
477.5109, 25.57914
477.9930, 25.44645
478.4751, 25.28912
478.9572, 25.53887
479.4394, 26.25652
479.9215, 26.98664
480.4036, 27.38184
480.8857, 27.51354
481.3678, 27.48487
481.8499, 27.35972
482.3321, 27.04962
482.8142, 26.19494
483.2963, 25.05602
483.7784, 24.45917
484.2605, 25.44672
484.7426, 26.46954
485.2248, 26.67996
485.7069, 25.77697
486.1890, 25.00511
486.6711, 24.56705
487.1532, 24.30927
487.6353, 24.06736
488.1175, 23.60030
488.5996, 23.56812
489.0817, 24.32610
489.5638, 25.52699
490.0459, 25.96699
490.5280, 25.36249
491.0102, 24.70089
491.4923, 24.44175
491.9744, 24.59225
492.4565, 24.52185
492.9386, 24.17092
493.4207, 23.83803
493.9029, 23.89993
494.3850, 24.29659
494.8671, 24.66702
495.3492, 24.99461
495.8313, 25.15822
496.3134, 24.69956
496.7956, 23.83937
497.2777, 23.40468
497.7598, 24.52140
498.2419, 25.91677
498.7240, 26.11841
499.2061, 25.06378
499.6883, 23.89214
500.1704, 23.06223
500.6525, 22.54183
501.1346, 22.30462
501.6167, 22.36737
502.0988, 22.67196
502.5810, 23.51334
503.0631, 24.56682
503.5452, 25.14317
504.0273, 24.57196
504.5094, 24.10247
504.9915, 24.12631
505.4737, 24.66794
505.9558, 24.94390
506.4379, 24.89974
506.9200, 24.65813
507.4021, 24.23134
507.8842, 23.51066
508.3664, 23.12032
508.8485, 23.17684
509.3306, 23.44082
509.8127, 23.51447
510.2948, 23.40231
510.7769, 23.28735
511.2591, 23.22516
511.7412, 23.21368
512.2233, 23.28901
512.7054, 23.43998
513.1875, 23.53396
513.6696, 23.34799
514.1517, 23.09349
514.6339, 23.10928
515.1160, 23.49641
515.5981, 23.89015
516.0802, 24.14476
516.5623, 24.22642
517.0444, 24.08997
517.5266, 23.28699
518.0087, 22.70440
518.4908, 22.87020
518.9729, 23.59131
519.4550, 23.98498
519.9371, 23.47410
520.4193, 22.99117
520.9014, 22.98414
521.3835, 23.67932
521.8656, 23.81794
522.3477, 22.97264
522.8298, 22.04333
523.3120, 22.01346
523.7941, 23.13731
524.2762, 23.99237
524.7583, 24.35610
525.2404, 24.37123
525.7225, 24.30955
526.2047, 24.17176
526.6868, 24.04054
527.1689, 23.85171
527.6510, 23.71605
528.1331, 24.14701
528.6152, 25.12380
529.0974, 25.73867
529.5795, 24.76771
530.0616, 23.17179
530.5437, 22.37691
531.0258, 22.87276
531.5079, 23.55948
531.9901, 23.85740
532.4722, 23.88514
532.9543, 23.82430
533.4364, 23.61179
533.9185, 23.44328
534.4006, 23.45841
534.8828, 23.62205
535.3649, 23.58604
535.8470, 22.77319
536.3291, 22.29440
536.8112, 22.75467
537.2933, 24.57084
537.7755, 25.67261
538.2576, 25.91769
538.7397, 25.63235
539.2218, 25.04620
539.7039, 24.11767
540.1860, 23.37110
540.6682, 22.88427
541.1503, 22.66748
541.6324, 22.86285
542.1145, 23.42720
542.5966, 23.93634
543.0787, 24.19880
543.5609, 24.25577
544.0430, 24.07769
544.5251, 23.68458
545.0072, 23.38524
545.4893, 23.54203
545.9714, 23.83792
546.4536, 23.95001
546.9357, 23.79123
547.4178, 23.50448
547.8999, 22.75117
548.3820, 22.01950
548.8641, 21.98332
549.3463, 23.89103
549.8284, 25.25196
550.3105, 25.29506
550.7926, 24.30083
551.2747, 23.74198
551.7568, 23.76640
552.2390, 23.97167
552.7211, 24.24638
553.2032, 24.61574
553.6853, 24.72236
554.1674, 24.51826
554.6495, 24.20100
555.1317, 23.93682
555.6138, 23.73003
556.0959, 23.56424
556.5780, 23.41433
557.0601, 23.36270
557.5422, 23.70300
558.0244, 24.26035
558.5065, 24.52459
558.9886, 23.92061
559.4707, 23.16555
559.9528, 22.81004
560.4349, 22.83429
560.9171, 23.09666
561.3992, 23.96005
561.8813, 24.73095
562.3634, 24.86406
562.8455, 23.99214
563.3276, 23.48987
563.8098, 23.87757
564.2919, 24.50446
564.7740, 24.79711
565.2561, 24.58923
565.7382, 24.36718
566.2203, 24.14498
566.7025, 23.95441
567.1846, 23.94380
567.6667, 24.16252
568.1488, 24.19299
568.6309, 23.71148
569.1130, 22.94001
569.5952, 22.82972
570.0773, 23.36898
570.5594, 23.81417
571.0415, 23.21081
571.5236, 22.27674
572.0057, 22.39008
572.4879, 23.89286
572.9700, 25.28507
573.4521, 25.45702
573.9342, 24.91164
574.4163, 24.24373
574.8984, 23.07019
575.3806, 22.44596
575.8627, 23.14091
576.3448, 24.62706
576.8269, 25.43817
577.3090, 25.02335
577.7911, 24.42626
578.2733, 23.80767
578.7554, 23.18082
579.2375, 22.86004
579.7196, 22.91642
580.2017, 23.10795
580.6838, 23.28478
581.1660, 23.44666
581.6481, 23.65502
582.1302, 23.92471
582.6123, 24.18503
583.0944, 24.42174
583.5765, 24.58518
584.0587, 24.47412
584.5408, 23.82992
585.0229, 23.24169
585.5050, 23.35076
585.9871, 23.97977
586.4692, 24.69067
586.9514, 25.73115
587.4335, 26.41743
587.9156, 26.24764
588.3977, 25.25479
