##NAMES=Chalcocite
##RRUFFID=R050067
##IDEAL CHEMISTRY=Cu^1+^_2_S^2-^
##LOCALITY=Flambeau, Rusk County, Wisconsin, USA
##OWNER=RRUFF
##SOURCE=Rock Currier
##DESCRIPTION=Iridescent blue irregular hexagonal tablet
##STATUS=The identification of this mineral has been confirmed by X-ray diffraction and chemical analysis
##URL=rruff.info/R050067
##MEASURED CHEMISTRY=Cu_2.00_S_1.00_
180.175, 4264.000
181.564, 4241.000
182.953, 4230.000
184.342, 4278.000
185.731, 4262.000
187.119, 4333.000
188.507, 4351.000
189.895, 4301.000
191.283, 4369.000
192.670, 4369.000
194.057, 4384.000
195.444, 4589.000
196.830, 4573.000
198.216, 4698.000
199.603, 4746.000
200.988, 4825.000
202.374, 5027.000
203.759, 5191.000
205.144, 5429.000
206.529, 5643.000
207.913, 5848.733
209.298, 6106.000
210.682, 6314.000
212.065, 6582.000
213.449, 6884.000
214.832, 7284.000
216.215, 7427.000
217.598, 7442.000
218.981, 7260.000
220.363, 7002.000
221.745, 6700.000
223.127, 6213.000
224.508, 5852.000
225.889, 5541.000
227.270, 5230.000
228.651, 5035.000
230.032, 4918.000
231.412, 4766.000
232.792, 4606.000
234.171, 4666.000
235.551, 4530.000
236.930, 4569.000
238.309, 4593.000
239.688, 4449.000
241.066, 4448.000
242.445, 4449.000
243.823, 4457.000
245.200, 4405.000
246.578, 4436.000
247.955, 4540.000
249.332, 4475.000
250.709, 4510.000
252.085, 4600.000
253.462, 4574.000
254.838, 4702.000
256.213, 4651.000
257.589, 4779.000
258.964, 4837.000
260.339, 4953.000
261.714, 5046.413
263.088, 5078.000
264.462, 5250.000
265.836, 5340.000
267.210, 5466.000
268.584, 5502.000
269.957, 5662.000
271.330, 5788.000
272.703, 5987.000
274.075, 6086.000
275.447, 6237.000
276.819, 6363.000
278.191, 6508.000
279.563, 6534.000
280.934, 6591.000
282.305, 6575.000
283.676, 6534.000
285.046, 6483.000
286.416, 6402.000
287.786, 6289.000
289.156, 6081.000
290.526, 5962.000
291.895, 5825.000
293.264, 5554.000
294.633, 5438.000
296.001, 5314.000
297.370, 5182.000
298.738, 4942.000
300.105, 4911.000
301.473, 4707.000
302.840, 4669.000
304.207, 4605.000
305.574, 4569.000
306.940, 4450.000
308.307, 4351.000
309.673, 4306.000
311.039, 4202.000
312.404, 4186.000
313.769, 4143.000
315.135, 4108.000
316.499, 4091.487
317.864, 4084.000
319.228, 4053.000
320.592, 4027.000
321.956, 4007.000
323.320, 3980.394
324.683, 3927.000
326.046, 3937.000
327.409, 3914.000
328.771, 3897.000
330.134, 3966.000
331.496, 3884.000
332.858, 3950.000
334.219, 3838.000
335.581, 3934.000
336.942, 3914.000
338.303, 3823.000
339.663, 3857.000
341.024, 3856.000
342.384, 3930.000
343.744, 3824.000
345.103, 3795.000
346.463, 3890.000
347.822, 3848.000
349.181, 3948.000
350.539, 3831.000
351.898, 3969.000
353.256, 3889.000
354.614, 3938.000
355.972, 3860.000
357.329, 3908.000
358.686, 4003.000
360.043, 3854.000
361.400, 3969.000
362.756, 3974.000
364.112, 3984.000
365.468, 4064.000
366.824, 4052.000
368.180, 4055.000
369.535, 4135.000
370.890, 4138.000
372.245, 4414.871
373.599, 4333.000
374.953, 4347.506
376.307, 4258.000
377.661, 4241.000
379.015, 4390.000
380.368, 4384.000
381.721, 4445.000
383.074, 4418.000
384.426, 4545.000
385.778, 4459.000
387.131, 4579.000
388.482, 4646.000
389.834, 4630.000
391.185, 4625.000
392.536, 4786.000
393.887, 4741.701
395.238, 4768.619
396.588, 4759.000
397.938, 4740.000
399.288, 4715.000
400.638, 4684.000
401.987, 4657.000
403.336, 4560.000
404.685, 4571.000
406.034, 4397.000
407.382, 4426.000
408.730, 4326.000
410.078, 4303.000
411.426, 4292.000
412.773, 4187.000
414.120, 4177.000
415.467, 4108.000
416.814, 4066.000
418.161, 4043.000
419.507, 4032.000
420.853, 4022.000
422.198, 3969.000
423.544, 3907.000
424.889, 3894.000
426.234, 3896.000
427.579, 3948.000
428.924, 3877.000
430.268, 3883.000
431.612, 3867.000
432.956, 3779.000
434.299, 3867.000
435.643, 3844.000
436.986, 3830.000
438.328, 3782.000
439.671, 3791.480
441.013, 3766.000
442.356, 3800.000
443.697, 3824.000
445.039, 3836.000
446.380, 3842.462
447.722, 3836.289
449.062, 3849.000
450.403, 3817.000
451.744, 3847.000
453.084, 3862.000
454.424, 3776.000
455.763, 3835.000
457.103, 3800.000
458.442, 3851.000
459.781, 3869.000
461.120, 3834.000
462.458, 3904.000
463.797, 3855.000
465.135, 3903.000
466.472, 3911.000
467.810, 3840.000
469.147, 3982.000
470.484, 3920.000
471.821, 3906.000
473.158, 3931.000
474.494, 3896.000
475.830, 3999.000
477.166, 3970.000
478.502, 4034.000
479.837, 4035.247
481.172, 4154.000
482.507, 4046.000
483.842, 3950.000
485.176, 3990.000
486.510, 4012.000
487.844, 3985.000
489.178, 4016.000
490.511, 4023.000
491.845, 4105.000
493.178, 4026.000
494.510, 4052.000
495.843, 4033.000
497.175, 4000.661
498.507, 4045.000
499.839, 3979.000
501.171, 3930.000
502.502, 3962.000
503.833, 3934.000
505.164, 4007.000
506.495, 3961.000
507.825, 4011.000
509.155, 3914.000
510.485, 3986.000
511.815, 4032.000
513.144, 3926.000
514.473, 3927.000
515.802, 3952.000
517.131, 3954.000
518.459, 4024.000
519.788, 3902.000
521.116, 3985.000
522.443, 3892.000
523.771, 3920.000
525.098, 3992.000
526.425, 3971.000
527.752, 3995.000
529.078, 3935.000
530.405, 4023.000
531.731, 4135.000
533.057, 4063.000
534.382, 4068.000
535.708, 3923.000
537.033, 3960.000
538.358, 4004.000
539.683, 3954.000
541.007, 4032.000
542.331, 4000.000
543.655, 4102.000
544.979, 4021.000
546.302, 3916.000
547.626, 4057.000
548.949, 3990.000
550.271, 4063.000
551.594, 4035.000
552.916, 4050.000
554.238, 4122.000
555.560, 4086.000
556.882, 4143.000
558.203, 4172.000
559.524, 4085.000
560.845, 4105.000
562.166, 4145.000
563.486, 4144.000
564.806, 4209.000
566.126, 4165.000
567.446, 4233.000
568.766, 4171.000
570.085, 4284.000
571.404, 4223.000
572.723, 4288.000
574.041, 4308.000
575.359, 4232.000
576.678, 4354.000
577.995, 4324.000
579.313, 4344.000
580.630, 4334.000
581.947, 4365.864
583.264, 4406.000
584.581, 4428.000
585.897, 4441.525
587.214, 4436.778
588.530, 4416.000
589.845, 4482.000
591.161, 4460.000
592.476, 4522.000
593.791, 4568.000
595.106, 4469.000
596.420, 4467.000
597.735, 4481.000
599.049, 4570.000
600.363, 4414.000
601.676, 4435.000
602.990, 4520.000
604.303, 4416.000
605.616, 4515.000
606.928, 4367.000
608.241, 4411.000
609.553, 4404.000
610.865, 4334.000
612.177, 4431.000
613.488, 4259.000
614.800, 4258.000
616.111, 4363.000
617.422, 4249.000
618.732, 4352.000
620.042, 4305.000
621.353, 4211.000
622.662, 4260.000
623.972, 4282.000
625.282, 4241.856
626.591, 4271.085
627.900, 4200.000
629.208, 4277.000
630.517, 4233.000
631.825, 4253.000
633.133, 4194.000
634.441, 4206.000
635.749, 4340.000
637.056, 4165.000
638.363, 4204.000
639.670, 4254.000
640.976, 4162.000
642.283, 4254.000
643.589, 4149.000
644.895, 4281.000
646.201, 4160.000
647.506, 4263.000
648.811, 4276.000
650.116, 4174.000
651.421, 4262.000
652.726, 4201.000
654.030, 4168.000
655.334, 4250.000
656.638, 4160.000
657.942, 4222.000
659.245, 4165.000
660.548, 4160.000
661.851, 4226.000
663.154, 4173.000
664.456, 4180.000
665.758, 4182.000
667.060, 4204.000
668.362, 4185.000
669.664, 4154.000
670.965, 4238.000
672.266, 4145.000
673.567, 4218.000
674.868, 4196.000
676.168, 4126.000
677.468, 4184.000
678.768, 4115.000
680.068, 4169.000
681.367, 4192.000
682.666, 4039.000
683.965, 4160.000
685.264, 4091.000
686.563, 4169.000
687.861, 4154.000
689.159, 4071.000
690.457, 4187.000
691.755, 4102.000
693.052, 4118.000
694.349, 4190.000
695.646, 4084.000
696.943, 4128.000
698.239, 4082.000
699.536, 4128.000
700.832, 4162.000
702.127, 4070.000
703.423, 4156.000
704.718, 4106.000
706.013, 4178.000
707.308, 4118.000
708.603, 4114.000
709.897, 4137.000
711.191, 4070.000
712.485, 4166.000
713.779, 4139.000
715.073, 4116.000
716.366, 4156.000
717.659, 4167.000
718.952, 4167.000
720.244, 4245.000
721.537, 4099.000
722.829, 4185.000
724.121, 4142.000
725.412, 4171.000
726.704, 4188.564
727.995, 4126.000
729.286, 4204.000
730.577, 4180.000
731.867, 4180.000
733.158, 4233.000
734.448, 4120.000
735.738, 4157.000
737.027, 4140.000
738.317, 4201.000
739.606, 4187.000
740.895, 4157.000
742.183, 4255.000
743.472, 4196.000
744.760, 4253.000
746.048, 4226.000
747.336, 4057.000
748.623, 4273.000
749.911, 4139.000
751.198, 4142.000
752.485, 4201.000
753.771, 4175.000
755.058, 4235.000
756.344, 4144.000
757.630, 4230.000
758.916, 4304.000
760.201, 4147.000
761.487, 4190.000
762.772, 4239.000
764.057, 4237.000
765.341, 4315.000
766.626, 4219.000
767.910, 4320.000
769.194, 4292.000
770.477, 4261.000
771.761, 4262.000
773.044, 4189.000
774.327, 4341.000
775.610, 4274.000
776.893, 4212.000
778.175, 4341.000
779.457, 4225.000
780.739, 4354.000
782.021, 4242.000
783.302, 4269.000
784.583, 4368.000
785.864, 4248.000
787.145, 4293.000
788.426, 4337.000
789.706, 4260.000
790.986, 4388.000
792.266, 4362.110
793.546, 4413.000
794.825, 4404.000
796.104, 4341.000
797.383, 4376.000
798.662, 4250.000
799.941, 4308.000
801.219, 4396.000
802.497, 4201.000
803.775, 4422.000
805.052, 4358.000
806.330, 4358.000
807.607, 4346.000
808.884, 4353.000
810.161, 4413.000
811.437, 4411.000
812.714, 4316.000
813.990, 4402.000
815.265, 4348.000
816.541, 4344.000
817.816, 4340.000
819.092, 4292.000
820.366, 4329.632
821.641, 4368.000
822.916, 4389.000
824.190, 4406.000
825.464, 4448.000
826.738, 4473.000
828.011, 4400.000
829.285, 4440.000
830.558, 4390.000
831.831, 4457.000
833.104, 4479.000
834.376, 4395.000
835.648, 4462.000
836.920, 4503.000
838.192, 4495.000
839.464, 4498.000
840.735, 4477.000
842.006, 4535.000
843.277, 4529.000
844.548, 4541.247
845.818, 4521.000
847.088, 4565.000
848.358, 4506.000
849.628, 4524.000
850.898, 4508.000
852.167, 4555.000
853.436, 4500.000
854.705, 4545.000
855.974, 4580.000
857.242, 4546.000
858.511, 4551.000
859.779, 4592.000
861.046, 4576.000
862.314, 4649.000
863.581, 4541.000
864.848, 4563.000
866.115, 4585.000
867.382, 4619.000
868.649, 4682.000
869.915, 4597.000
871.181, 4647.000
872.447, 4756.000
873.712, 4566.000
874.978, 4738.000
876.243, 4668.000
877.508, 4655.000
878.772, 4675.000
880.037, 4658.000
881.301, 4747.000
882.565, 4687.000
883.829, 4625.000
885.092, 4711.000
886.356, 4684.000
887.619, 4647.000
888.882, 4714.000
890.144, 4678.000
891.407, 4730.000
892.669, 4721.000
893.931, 4702.000
895.193, 4759.000
896.455, 4631.000
897.716, 4798.000
898.977, 4750.000
900.238, 4762.000
901.499, 4841.000
902.759, 4744.000
904.020, 4844.000
905.280, 4801.000
906.539, 4814.000
907.799, 4903.000
909.058, 4791.000
910.318, 4857.000
911.577, 4902.000
912.835, 4891.000
914.094, 4942.000
915.352, 4971.000
916.610, 4965.000
917.868, 4944.000
919.126, 4892.000
920.383, 4957.000
921.640, 4971.000
922.897, 4908.000
924.154, 5046.000
925.410, 5006.000
926.667, 4968.000
927.923, 5041.743
929.179, 5045.000
930.434, 5112.000
931.690, 4987.000
932.945, 5033.000
934.200, 5000.000
935.455, 4954.000
936.709, 4996.935
937.964, 4996.200
939.218, 5021.000
940.472, 5079.000
941.725, 5054.000
942.979, 5124.000
944.232, 5151.000
945.485, 5020.000
946.738, 5134.000
947.991, 5208.000
949.243, 5113.000
950.495, 5239.000
951.747, 5088.000
952.999, 5234.000
954.250, 5136.000
955.502, 5201.000
956.753, 5271.000
958.003, 5250.000
959.254, 5376.000
960.504, 5194.000
961.755, 5236.000
963.005, 5392.000
964.254, 5254.000
965.504, 5325.000
966.753, 5400.000
968.002, 5323.000
969.251, 5493.000
970.500, 5436.000
971.748, 5440.000
972.997, 5408.000
974.245, 5348.000
975.492, 5535.000
976.740, 5532.000
977.987, 5585.000
979.234, 5592.000
980.481, 5613.910
981.728, 5693.000
982.975, 5657.000
984.221, 5679.000
985.467, 5709.000
986.713, 5763.000
987.958, 5763.000
989.204, 5862.000
990.449, 5772.000
991.694, 5924.000
992.939, 5870.000
994.183, 5886.000
995.428, 5948.000
996.672, 5840.000
997.916, 5987.000
999.159, 5964.000
1000.403, 5892.000
1001.646, 5961.000
1002.889, 5978.000
1004.132, 6001.000
1005.374, 5930.000
1006.617, 5894.000
1007.859, 5935.000
1009.101, 6050.000
1010.343, 5935.000
1011.584, 5970.000
1012.825, 5909.000
1014.067, 5916.000
1015.307, 5944.000
1016.548, 5942.000
1017.788, 5907.000
1019.029, 5974.000
1020.269, 5982.000
1021.508, 6102.000
1022.748, 6181.000
1023.987, 6072.000
1025.227, 5945.000
1026.466, 6095.000
1027.704, 6037.000
1028.943, 5975.000
1030.181, 6121.000
1031.419, 6148.000
1032.657, 6112.000
1033.895, 6069.000
1035.132, 6100.000
1036.369, 6211.000
1037.606, 6189.000
1038.843, 6095.000
1040.080, 6175.000
1041.316, 6116.000
1042.552, 6129.000
1043.788, 6151.000
1045.024, 6170.000
1046.259, 6193.000
1047.495, 6183.000
1048.730, 6150.000
1049.964, 6280.000
1051.199, 6116.000
1052.433, 6155.000
1053.668, 6253.000
1054.902, 6154.000
1056.135, 6244.000
1057.369, 6128.000
1058.602, 6148.000
1059.836, 6294.000
1061.068, 6189.000
1062.301, 6336.000
1063.534, 6225.000
1064.766, 6163.000
1065.998, 6204.000
1067.230, 6138.000
1068.462, 6208.000
1069.693, 6294.000
1070.924, 6181.000
1072.155, 6252.000
1073.386, 6278.000
1074.617, 6105.000
1075.847, 6324.000
1077.077, 6214.000
1078.307, 6185.000
1079.537, 6292.000
1080.766, 6105.000
1081.996, 6204.000
1083.225, 6155.000
1084.454, 6083.000
1085.682, 6311.000
1086.911, 6178.000
1088.139, 6225.000
1089.367, 6212.000
1090.595, 6140.000
1091.822, 6201.000
1093.050, 6180.000
1094.277, 6118.000
1095.504, 6106.000
1096.731, 6174.000
1097.957, 6182.000
1099.184, 6182.000
1100.410, 6075.000
1101.636, 6179.000
1102.861, 6194.000
1104.087, 6108.000
1105.312, 6260.000
1106.537, 6070.000
1107.762, 6202.000
1108.987, 6145.000
1110.211, 6140.000
1111.435, 6173.000
1112.659, 6118.000
1113.883, 6106.000
1115.107, 6107.000
1116.330, 6180.000
1117.553, 6189.000
1118.776, 6149.000
1119.999, 6167.000
1121.221, 6140.000
1122.444, 6120.000
1123.666, 6149.000
1124.888, 6108.000
1126.109, 6189.000
1127.331, 6105.000
1128.552, 6189.000
1129.773, 6074.000
1130.994, 6176.000
1132.215, 6064.000
1133.435, 6076.000
1134.655, 6112.000
1135.875, 6052.000
1137.095, 6117.000
1138.315, 6081.000
1139.534, 6054.000
1140.753, 6106.247
1141.972, 6080.329
1143.191, 6128.000
1144.409, 6128.000
1145.628, 6041.000
1146.846, 6131.000
1148.064, 6112.000
1149.281, 6084.000
1150.499, 6199.000
1151.716, 6103.000
1152.933, 6190.000
1154.150, 6149.000
1155.367, 6088.000
1156.583, 6196.000
1157.799, 6095.000
1159.015, 6061.000
1160.231, 6214.000
1161.447, 6068.000
1162.662, 6210.000
1163.877, 6147.000
1165.092, 6147.000
1166.307, 6178.000
1167.522, 6240.000
1168.736, 6202.000
1169.950, 6238.000
1171.164, 6175.000
1172.378, 6250.000
1173.591, 6231.000
1174.804, 6130.000
1176.018, 6251.000
1177.230, 6266.000
1178.443, 6162.000
1179.656, 6343.000
1180.868, 6216.000
1182.080, 6322.000
1183.292, 6246.000
1184.503, 6292.000
1185.715, 6400.000
1186.926, 6287.000
1188.137, 6436.000
1189.348, 6571.000
1190.558, 6618.000
1191.769, 6684.247
1192.979, 6766.000
1194.189, 6700.000
1195.399, 6670.680
1196.608, 6621.119
1197.817, 6447.000
1199.027, 6513.000
1200.235, 6380.000
1201.444, 6355.013
1202.653, 6409.549
1203.861, 6446.000
1205.069, 6494.000
1206.277, 6523.780
1207.485, 6614.000
1208.692, 6559.000
1209.899, 6626.000
1211.106, 6606.000
1212.313, 6597.000
1213.520, 6640.000
1214.726, 6622.000
1215.932, 6646.000
1217.138, 6638.000
1218.344, 6721.000
1219.550, 6692.000
1220.755, 6730.881
1221.960, 6801.000
1223.165, 6748.000
1224.370, 6815.000
1225.575, 6769.000
1226.779, 6763.000
1227.983, 6846.000
1229.187, 6779.000
1230.391, 6787.000
1231.595, 6869.000
1232.798, 6769.000
1234.001, 6937.000
1235.204, 6992.000
1236.407, 6833.000
1237.609, 6978.000
1238.811, 6883.000
1240.013, 6872.000
1241.215, 7036.000
1242.417, 6940.000
1243.619, 6982.000
1244.820, 6994.000
1246.021, 7095.000
1247.222, 7045.000
1248.422, 6953.000
1249.623, 7004.000
1250.823, 7104.000
1252.023, 7001.000
1253.223, 7013.000
1254.423, 7136.000
1255.622, 6991.000
1256.821, 7148.000
1258.020, 7101.000
1259.219, 7124.000
1260.418, 7228.000
1261.616, 7131.000
1262.814, 7216.000
1264.012, 7185.000
1265.210, 7198.000
1266.407, 7255.000
1267.605, 7278.000
1268.802, 7208.000
1269.999, 7320.000
1271.196, 7175.000
1272.392, 7326.000
1273.589, 7333.000
1274.785, 7344.000
1275.981, 7352.000
1277.176, 7458.000
1278.372, 7459.000
1279.567, 7385.000
1280.762, 7231.000
1281.957, 7331.000
1283.152, 7347.000
1284.346, 7319.000
1285.541, 7417.000
1286.735, 7466.000
1287.929, 7409.000
1289.122, 7449.000
1290.316, 7445.000
1291.509, 7337.000
1292.702, 7416.000
1293.895, 7354.000
1295.088, 7486.000
1296.280, 7488.000
1297.472, 7270.000
1298.665, 7532.000
1299.856, 7558.000
1301.048, 7348.000
1302.239, 7526.000
1303.431, 7313.000
1304.622, 7450.000
1305.813, 7439.000
1307.003, 7339.000
1308.194, 7304.000
1309.384, 7418.000
1310.574, 7384.000
1311.764, 7391.000
1312.953, 7363.000
1314.143, 7345.000
1315.332, 7474.000
1316.521, 7320.000
1317.710, 7414.000
1318.898, 7318.000
1320.087, 7229.000
1321.275, 7354.000
1322.463, 7326.000
1323.651, 7305.000
1324.838, 7413.000
1326.026, 7302.000
1327.213, 7232.000
1328.400, 7294.000
1329.587, 7316.000
1330.773, 7307.000
1331.960, 7375.000
1333.146, 7230.000
1334.332, 7348.000
1335.517, 7289.000
1336.703, 7304.000
1337.888, 7351.000
1339.074, 7280.000
1340.259, 7262.000
1341.443, 7358.000
1342.628, 7285.000
1343.812, 7298.000
1344.996, 7203.000
1346.180, 7278.000
1347.364, 7265.000
1348.548, 7377.000
1349.731, 7280.000
1350.914, 7287.000
1352.097, 7226.000
1353.280, 7243.732
1354.462, 7300.000
1355.645, 7273.000
1356.827, 7327.000
1358.009, 7284.000
1359.190, 7219.000
1360.372, 7347.000
1361.553, 7269.000
1362.734, 7257.000
1363.915, 7353.000
1365.096, 7299.000
1366.277, 7259.000
1367.457, 7346.000
1368.637, 7227.000
1369.817, 7237.000
1370.997, 7370.000
1372.176, 7280.000
1373.356, 7242.000
1374.535, 7408.000
1375.714, 7307.000
1376.892, 7297.000
1378.071, 7384.000
1379.249, 7407.000
1380.427, 7406.000
1381.605, 7245.000
1382.783, 7433.000
1383.960, 7296.000
1385.138, 7256.000
1386.315, 7350.000
1387.492, 7334.000
1388.669, 7273.000
1389.845, 7400.000
1391.021, 7378.000
1392.198, 7435.000
1393.373, 7318.000
1394.549, 7331.000
1395.725, 7386.000
1396.900, 7328.000
1398.075, 7300.000
1399.250, 7360.000
1400.425, 7304.000
1401.599, 7409.000
1402.774, 7380.000
1403.948, 7273.000
1405.122, 7330.000
1406.295, 7368.000
1407.469, 7422.000
1408.642, 7434.280
1409.815, 7446.118
1410.988, 7418.000
1412.161, 7437.000
1413.334, 7358.000
1414.506, 7343.000
1415.678, 7363.268
1416.850, 7329.000
1418.022, 7415.000
1419.193, 7409.000
1420.365, 7441.000
1421.536, 7492.000
1422.707, 7468.745
1423.877, 7377.000
1425.048, 7425.000
1426.218, 7466.000
1427.389, 7400.000
1428.558, 7468.306
1429.728, 7432.000
1430.898, 7524.000
1432.067, 7526.000
1433.236, 7543.000
1434.405, 7485.000
1435.574, 7518.000
1436.743, 7522.000
1437.911, 7605.000
1439.079, 7608.000
1440.247, 7622.454
1441.415, 7636.000
1442.582, 7633.000
1443.750, 7637.000
1444.917, 7654.244
1446.084, 7625.541
1447.251, 7620.000
1448.417, 7600.000
1449.584, 7560.000
1450.750, 7601.000
1451.916, 7622.000
1453.082, 7693.000
1454.247, 7739.000
1455.413, 7691.000
1456.578, 7846.000
1457.743, 7673.000
1458.908, 7824.000
1460.072, 7836.000
1461.237, 7774.000
1462.401, 7780.000
1463.565, 7859.000
1464.729, 7749.000
1465.893, 7754.000
1467.056, 7858.000
1468.219, 7884.000
1469.382, 7838.000
1470.545, 7822.000
1471.708, 7804.000
1472.870, 7924.000
1474.032, 7897.000
1475.195, 7812.000
1476.356, 7998.000
1477.518, 7788.000
1478.680, 7885.000
1479.841, 7885.000
1481.002, 7823.000
1482.163, 7848.000
1483.323, 7861.838
1484.484, 7995.000
1485.644, 7944.000
1486.804, 7940.000
1487.964, 8004.000
1489.124, 7918.000
1490.283, 7844.000
1491.443, 7977.000
##END=



