##NAMES=Chalcophanite
##RRUFFID=R050451
##IDEAL CHEMISTRY=Zn^2+^Mn^4+^_3_O_7_&#183;3H_2_O
##LOCALITY=Morenci mine, Morenci, Greenlee County, Arizona, USA
##OWNER=RRUFF
##SOURCE=University of Arizona Mineral Museum
##DESCRIPTION=A mass of small black hexagonal plates, not homogeneous
##STATUS=The identification of this mineral has been confirmed by X-ray diffraction and chemical analysis
##URL=rruff.info/R050451
##MEASURED CHEMISTRY=(Zn_0.60_Fe^2+^_0.20_Cu_0.12_Fe^3+^_0.08_)_Σ=1_(Mn^4+^_2.92_Fe^3+^_0.08_)_Σ=3_O_7_·3H_2_O ; = bright phase. The gray phase is jacobsite (Mn_0.65_Zn_0.25_Cu_0.09_)_Σ=1_(Fe^3+^_1.58_Mn^3+^_0.42_)_Σ=2_O_4_; dark phase: K-feldspar
95.71167, 85.68122
96.19379, 83.57999
96.67590, 79.94443
97.15803, 76.85484
97.64014, 74.69266
98.12226, 73.21259
98.60438, 72.06319
99.08649, 71.26088
99.56861, 70.59279
100.0507, 69.78630
100.5328, 68.79510
101.0150, 67.49226
101.4971, 65.55799
101.9792, 62.93440
102.4613, 60.75740
102.9434, 59.48411
103.4255, 58.81221
103.9077, 58.66048
104.3898, 59.04928
104.8719, 59.80178
105.3540, 60.66669
105.8361, 62.09285
106.3182, 62.79101
106.8004, 62.42898
107.2825, 61.33399
107.7646, 59.83834
108.2467, 58.11351
108.7288, 56.17552
109.2109, 54.26859
109.6931, 52.08293
110.1752, 50.21001
110.6573, 48.89769
111.1394, 48.05371
111.6215, 47.40638
112.1037, 46.71907
112.5858, 45.96543
113.0679, 45.46588
113.5500, 45.31566
114.0321, 45.32323
114.5142, 45.43758
114.9964, 45.64885
115.4785, 45.77171
115.9606, 45.47339
116.4427, 44.77996
116.9248, 44.27924
117.4069, 44.22304
117.8891, 44.44503
118.3712, 44.61337
118.8533, 44.67619
119.3354, 44.64383
119.8175, 44.46734
120.2996, 44.16520
120.7818, 43.97113
121.2639, 44.15346
121.7460, 44.73217
122.2281, 45.13014
122.7102, 45.07137
123.1923, 44.90742
123.6745, 44.80682
124.1566, 44.79975
124.6387, 44.81795
125.1208, 44.76750
125.6029, 44.64048
126.0850, 44.44880
126.5672, 44.18886
127.0493, 43.88312
127.5314, 43.52551
128.0135, 43.11529
128.4956, 42.69795
128.9778, 42.39429
129.4599, 42.43795
129.9420, 42.34108
130.4241, 41.93457
130.9062, 41.38599
131.3883, 40.95869
131.8705, 40.81158
132.3526, 40.87971
132.8347, 40.78654
133.3168, 40.32003
133.7989, 39.93857
134.2810, 39.87075
134.7632, 40.07708
135.2453, 40.34137
135.7274, 40.54347
136.2095, 40.69406
136.6916, 40.84669
137.1737, 41.03518
137.6559, 41.20832
138.1380, 41.30287
138.6201, 41.30445
139.1022, 41.29493
139.5843, 41.30494
140.0664, 41.34072
140.5486, 41.42331
141.0307, 41.59673
141.5128, 41.81851
141.9949, 41.96859
142.4770, 42.06547
142.9591, 42.04463
143.4413, 41.86708
143.9234, 41.57310
144.4055, 41.22533
144.8876, 40.83836
145.3697, 40.41153
145.8518, 40.12619
146.3340, 40.24856
146.8161, 40.28386
147.2982, 40.01610
147.7803, 39.50576
148.2624, 38.97037
148.7445, 38.63943
149.2267, 38.61060
149.7088, 38.37894
150.1909, 37.67097
150.6730, 37.01944
151.1551, 36.79280
151.6372, 37.00567
152.1194, 37.34644
152.6015, 37.42968
153.0836, 37.12088
153.5657, 36.88070
154.0478, 36.76581
154.5300, 36.69195
155.0121, 36.55762
155.4942, 36.33196
155.9763, 36.10362
156.4584, 36.04335
156.9405, 36.16962
157.4227, 36.23326
157.9048, 36.12037
158.3869, 35.89977
158.8690, 35.71324
159.3511, 35.59414
159.8332, 35.52850
160.3154, 35.50075
160.7975, 35.51132
161.2796, 35.52535
161.7617, 35.55191
162.2438, 35.58370
162.7259, 35.52082
163.2081, 35.26836
163.6902, 34.96399
164.1723, 34.69230
164.6544, 34.46058
165.1365, 34.28492
165.6186, 34.20182
166.1008, 34.23960
166.5829, 34.24410
167.0650, 34.10161
167.5471, 33.97521
168.0292, 33.99504
168.5113, 34.18717
168.9935, 34.44337
169.4756, 34.58628
169.9577, 34.57803
170.4398, 34.51525
170.9219, 34.37658
171.4040, 34.21332
171.8862, 34.04977
172.3683, 33.89821
172.8504, 33.78117
173.3325, 33.75392
173.8146, 33.96520
174.2967, 34.09160
174.7789, 34.05120
175.2610, 33.94563
175.7431, 33.91350
176.2252, 34.02228
176.7073, 34.20227
177.1894, 34.21659
177.6716, 33.93915
178.1537, 33.67241
178.6358, 33.43260
179.1179, 33.24257
179.6000, 33.16287
180.0822, 33.25068
180.5643, 33.43428
181.0464, 33.48722
181.5285, 33.34424
182.0106, 33.19310
182.4927, 33.12146
182.9749, 33.11730
183.4570, 33.12807
183.9391, 33.13519
184.4212, 33.13807
184.9033, 33.13163
185.3854, 33.09591
185.8676, 33.08365
186.3497, 33.17128
186.8318, 33.36322
187.3139, 33.49752
187.7960, 33.43989
188.2781, 33.31117
188.7603, 33.25053
189.2424, 33.30626
189.7245, 33.38694
190.2066, 33.33989
190.6887, 33.10139
191.1708, 32.97116
191.6530, 33.16931
192.1351, 33.46703
192.6172, 33.67398
193.0993, 33.71914
193.5814, 33.65767
194.0635, 33.58429
194.5457, 33.46199
195.0278, 33.40813
195.5099, 33.50946
195.9920, 33.65153
196.4741, 33.72112
196.9562, 33.66649
197.4384, 33.52255
197.9205, 33.37934
198.4026, 33.14440
198.8847, 33.05410
199.3668, 33.24107
199.8489, 33.54206
200.3311, 33.77145
200.8132, 33.83413
201.2953, 33.77524
201.7774, 33.77280
202.2595, 33.97069
202.7417, 34.06437
203.2238, 33.91286
203.7059, 33.66204
204.1880, 33.52337
204.6701, 33.61516
205.1522, 33.88265
205.6344, 34.08302
206.1165, 34.17482
206.5986, 34.25805
207.0807, 34.36697
207.5628, 34.48114
208.0449, 34.55635
208.5271, 34.56385
209.0092, 34.52362
209.4913, 34.51965
209.9734, 34.63078
210.4555, 34.67937
210.9376, 34.54969
211.4198, 34.30010
211.9019, 34.09040
212.3840, 34.00427
212.8661, 34.01281
213.3482, 34.01225
213.8303, 33.93973
214.3125, 33.95213
214.7946, 34.21843
215.2767, 34.68538
215.7588, 35.05256
216.2409, 35.16144
216.7230, 35.10115
217.2052, 35.06681
217.6873, 35.06651
218.1694, 35.07939
218.6515, 35.04632
219.1336, 34.97359
219.6157, 35.04271
220.0979, 35.46000
220.5800, 35.96989
221.0621, 36.27502
221.5442, 36.30896
222.0263, 36.28098
222.5084, 36.43156
222.9906, 36.78787
223.4727, 37.02942
223.9548, 36.93780
224.4369, 36.75837
224.9190, 36.66668
225.4011, 36.69661
225.8833, 36.77193
226.3654, 36.79893
226.8475, 36.76265
227.3296, 36.74958
227.8117, 36.82904
228.2939, 36.90425
228.7760, 36.90834
229.2581, 36.82893
229.7402, 36.71000
230.2223, 36.59306
230.7044, 36.45254
231.1866, 36.39954
231.6687, 36.53238
232.1508, 36.68879
232.6329, 36.77737
233.1150, 36.77852
233.5971, 36.72235
234.0793, 36.64798
234.5614, 36.55489
235.0435, 36.44300
235.5256, 36.25555
236.0077, 36.09245
236.4898, 36.02013
236.9720, 36.04809
237.4541, 36.13934
237.9362, 36.26139
238.4183, 36.48545
238.9004, 36.55095
239.3825, 36.28438
239.8647, 36.01709
240.3468, 36.01735
240.8289, 36.29044
241.3110, 36.59906
241.7931, 36.64806
242.2752, 36.34692
242.7574, 36.01073
243.2395, 35.53885
243.7216, 35.11125
244.2037, 34.85456
244.6858, 34.77739
245.1679, 34.79453
245.6501, 34.81938
246.1322, 34.85888
246.6143, 34.87243
247.0964, 34.83691
247.5785, 34.79586
248.0606, 34.79842
248.5428, 34.83883
249.0249, 34.85130
249.5070, 34.77221
249.9891, 34.58612
250.4712, 34.36625
250.9533, 34.03757
251.4355, 33.73429
251.9176, 33.54665
252.3997, 33.47697
252.8818, 33.47875
253.3639, 33.53828
253.8461, 33.65211
254.3282, 33.66949
254.8103, 33.50722
255.2924, 33.31705
255.7745, 33.20956
256.2566, 33.18196
256.7387, 33.14830
257.2209, 33.00911
257.7030, 32.81321
258.1851, 32.81515
258.6672, 33.22543
259.1493, 33.66236
259.6314, 33.84641
260.1136, 33.79721
260.5957, 33.71895
261.0778, 33.72732
261.5599, 33.79503
262.0420, 33.82454
262.5241, 33.77488
263.0063, 33.73426
263.4884, 33.80250
263.9705, 33.96125
264.4526, 34.03931
264.9348, 33.90129
265.4169, 33.66750
265.8990, 33.56998
266.3811, 33.64426
266.8632, 33.78234
267.3453, 33.93754
267.8275, 34.10347
268.3096, 34.23309
268.7917, 34.31885
269.2738, 34.34420
269.7559, 34.28106
270.2380, 34.10930
270.7202, 33.95744
271.2023, 33.89792
271.6844, 33.92926
272.1665, 34.06474
272.6486, 34.42331
273.1307, 34.75616
273.6129, 34.81723
274.0950, 34.60846
274.5771, 34.33508
275.0592, 34.06112
275.5413, 33.80964
276.0234, 33.73138
276.5056, 33.92669
276.9877, 34.20715
277.4698, 34.47956
277.9519, 34.72373
278.4340, 34.84180
278.9161, 34.65879
279.3983, 34.26934
279.8804, 34.12587
280.3625, 34.40749
280.8446, 34.70066
281.3267, 34.71534
281.8088, 34.54692
282.2910, 34.41756
282.7731, 34.44906
283.2552, 34.61109
283.7373, 34.82866
284.2194, 35.17965
284.7015, 35.43226
285.1837, 35.45130
285.6658, 35.32351
286.1479, 35.16095
286.6300, 34.98297
287.1121, 34.83240
287.5942, 34.82670
288.0764, 35.03069
288.5585, 35.22937
289.0406, 35.35713
289.5227, 35.43468
290.0048, 35.46516
290.4869, 35.43863
290.9691, 35.40738
291.4512, 35.46669
291.9333, 35.64069
292.4154, 35.83023
292.8975, 36.03658
293.3796, 36.23229
293.8618, 36.42724
294.3439, 36.62351
294.8260, 36.72623
295.3081, 36.49640
295.7902, 35.78102
296.2723, 35.46390
296.7545, 36.13312
297.2366, 36.93813
297.7187, 37.41678
298.2008, 37.52438
298.6829, 37.49196
299.1650, 37.52161
299.6472, 37.61216
300.1293, 37.77383
300.6114, 38.07180
301.0935, 38.38753
301.5756, 38.71538
302.0577, 39.02466
302.5399, 39.24408
303.0220, 39.28725
303.5041, 39.16343
303.9862, 39.07446
304.4683, 38.95099
304.9504, 38.95918
305.4326, 39.24574
305.9147, 39.69208
306.3968, 40.07743
306.8789, 40.25027
307.3610, 40.27051
307.8431, 40.39758
308.3253, 40.70846
308.8074, 41.01022
309.2895, 41.24446
309.7716, 41.44304
310.2537, 41.62916
310.7358, 41.80793
311.2180, 42.00881
311.7001, 42.33065
312.1822, 42.92045
312.6643, 43.29904
313.1465, 43.25690
313.6286, 43.06639
314.1107, 42.90832
314.5928, 42.83778
315.0749, 42.86227
315.5570, 43.03630
316.0392, 43.43970
316.5213, 43.69724
317.0034, 43.65712
317.4855, 43.55006
317.9676, 43.51076
318.4497, 43.54134
318.9319, 43.54314
319.4140, 43.41619
319.8961, 43.15299
320.3782, 42.83929
320.8603, 42.35035
321.3424, 41.93314
321.8246, 41.78232
322.3067, 41.78972
322.7888, 41.67643
323.2709, 41.19479
323.7530, 40.40982
324.2351, 39.82368
324.7173, 39.54437
325.1994, 39.32721
325.6815, 39.15816
326.1636, 38.97836
326.6457, 38.68751
327.1278, 38.21626
327.6100, 37.66313
328.0921, 37.27215
328.5742, 37.10913
329.0563, 36.97173
329.5384, 36.83862
330.0205, 36.69251
330.5027, 36.51836
330.9848, 36.31110
331.4669, 36.07739
331.9490, 35.80360
332.4311, 35.46058
332.9132, 35.20683
333.3954, 35.12767
333.8775, 35.10157
334.3596, 35.11325
334.8417, 35.13885
335.3238, 35.09507
335.8059, 34.84553
336.2881, 34.38474
336.7702, 34.08398
337.2523, 34.05857
337.7344, 34.08474
338.2165, 34.05619
338.6986, 33.99535
339.1808, 33.96701
339.6629, 34.03133
340.1450, 34.15310
340.6271, 34.19549
341.1092, 34.12325
341.5913, 34.03665
342.0735, 33.96053
342.5556, 33.89833
343.0377, 33.84152
343.5198, 33.77287
344.0019, 33.75130
344.4840, 33.92409
344.9662, 34.36782
345.4483, 34.67418
345.9304, 34.59074
346.4125, 34.39379
346.8946, 34.24463
347.3767, 34.16968
347.8589, 34.16411
348.3410, 34.26003
348.8231, 34.45380
349.3052, 34.58096
349.7873, 34.58496
350.2694, 34.55180
350.7516, 34.53178
351.2337, 34.52597
351.7158, 34.53334
352.1979, 34.51567
352.6800, 34.50795
353.1621, 34.64768
353.6443, 34.99947
354.1264, 35.35652
354.6085, 35.59751
355.0906, 35.76508
355.5727, 35.91353
356.0548, 36.04560
356.5370, 36.18485
357.0191, 36.36895
357.5012, 36.60057
357.9833, 36.84080
358.4654, 37.12466
358.9475, 37.37394
359.4297, 37.45752
359.9118, 37.31917
360.3939, 37.23087
360.8760, 37.44188
361.3581, 37.89453
361.8402, 38.30320
362.3224, 38.60352
362.8045, 38.83468
363.2866, 38.99318
363.7687, 39.09112
364.2509, 39.28521
364.7330, 39.73356
365.2151, 40.28794
365.6972, 40.69489
366.1793, 40.92183
366.6614, 41.08125
367.1436, 41.25663
367.6257, 41.42934
368.1078, 41.54101
368.5899, 41.55528
369.0720, 41.53054
369.5541, 41.52815
370.0363, 41.53790
370.5184, 41.48094
371.0005, 41.29297
371.4826, 41.04004
371.9647, 40.87628
372.4468, 40.83511
372.9290, 40.78846
373.4111, 40.73958
373.8932, 40.64237
374.3753, 40.37318
374.8574, 39.87896
375.3395, 39.34022
375.8217, 38.98751
376.3038, 38.83692
376.7859, 38.73771
377.2680, 38.71585
377.7501, 38.71323
378.2322, 38.67245
378.7144, 38.59494
379.1965, 38.52781
379.6786, 38.50420
380.1607, 38.52338
380.6428, 38.56347
381.1249, 38.68990
381.6071, 38.76289
382.0892, 38.64849
382.5713, 38.45583
383.0534, 38.41879
383.5355, 38.64882
384.0176, 39.00388
384.4998, 39.17584
384.9819, 38.99819
385.4640, 38.90179
385.9461, 38.90461
386.4282, 38.98673
386.9103, 39.17834
387.3925, 39.45860
387.8746, 39.71474
388.3567, 39.81633
388.8388, 39.73675
389.3209, 39.69295
389.8030, 39.58577
390.2852, 39.60653
390.7673, 40.00785
391.2494, 40.58125
391.7315, 40.89847
392.2136, 40.69256
392.6957, 40.10938
393.1779, 39.71807
393.6600, 39.74010
394.1421, 39.64395
394.6242, 39.30887
395.1063, 38.88397
395.5884, 38.47936
396.0706, 38.13163
396.5527, 37.85580
397.0348, 37.70831
397.5169, 37.76599
397.9990, 37.64697
398.4811, 37.15017
398.9633, 36.65613
399.4454, 36.30070
399.9275, 36.07399
400.4096, 35.91874
400.8917, 35.82554
401.3738, 35.75995
401.8560, 35.54299
402.3381, 35.01775
402.8202, 34.64677
403.3023, 34.67350
403.7844, 34.85418
404.2665, 34.95118
404.7487, 34.89484
405.2308, 34.74865
405.7129, 34.55667
406.1950, 34.31131
406.6771, 34.13849
407.1592, 34.05232
407.6414, 34.06393
408.1235, 34.26357
408.6056, 34.59795
409.0877, 34.79309
409.5698, 34.58929
410.0519, 34.14973
410.5341, 33.84983
411.0162, 33.71137
411.4983, 33.66618
411.9804, 33.70968
412.4626, 33.81440
412.9447, 33.95315
413.4268, 34.18256
413.9089, 34.34186
414.3910, 34.19784
414.8731, 33.83387
415.3553, 33.68145
415.8374, 33.94588
416.3195, 34.36597
416.8016, 34.56817
417.2837, 34.55946
417.7658, 34.47115
418.2480, 34.18191
418.7301, 33.91323
419.2122, 33.98846
419.6943, 34.42494
420.1764, 34.88546
420.6585, 35.13624
421.1407, 35.17031
421.6228, 35.03357
422.1049, 34.47426
422.5870, 34.03372
423.0691, 34.03606
423.5512, 34.28630
424.0334, 34.40845
424.5155, 34.24757
424.9976, 33.96453
425.4797, 33.86262
425.9618, 34.06631
426.4439, 34.21349
426.9261, 34.27322
427.4082, 34.30379
427.8903, 34.35199
428.3724, 34.41480
428.8545, 34.45339
429.3366, 34.43291
429.8188, 34.35647
430.3009, 34.29323
430.7830, 34.23378
431.2651, 34.20060
431.7472, 34.21187
432.2293, 34.24615
432.7115, 34.26014
433.1936, 34.24023
433.6757, 34.24854
434.1578, 34.43563
434.6399, 34.91590
435.1220, 35.16612
435.6042, 34.85332
436.0863, 34.54704
436.5684, 34.55145
437.0505, 34.81280
437.5326, 35.08841
438.0147, 35.23109
438.4969, 35.25503
438.9790, 35.18148
439.4611, 34.94159
439.9432, 34.77941
440.4253, 34.90528
440.9074, 35.11117
441.3896, 35.16362
441.8717, 34.99389
442.3538, 34.79069
442.8359, 34.72683
443.3180, 34.78082
443.8001, 34.83971
444.2823, 34.91235
444.7644, 34.92892
445.2465, 34.74139
445.7286, 34.40779
446.2107, 34.21899
446.6928, 34.37935
447.1750, 34.63564
447.6571, 34.71627
448.1392, 34.63381
448.6213, 34.57123
449.1034, 34.64133
449.5855, 34.77996
450.0677, 34.80215
450.5498, 34.66787
451.0319, 34.52760
451.5140, 34.39314
451.9961, 34.28487
452.4782, 34.21729
452.9604, 34.19605
453.4425, 34.25648
453.9246, 34.46717
454.4067, 34.86494
454.8888, 35.00376
455.3709, 34.61522
455.8531, 34.30626
456.3352, 34.37748
456.8173, 34.66135
457.2994, 34.85363
457.7815, 34.81256
458.2636, 34.65074
458.7458, 34.62115
459.2279, 34.86773
459.7100, 34.94010
460.1921, 34.62996
460.6742, 34.32985
461.1564, 34.29395
461.6385, 34.49226
462.1206, 34.72705
462.6027, 34.84963
463.0848, 34.88166
463.5670, 34.93955
464.0491, 35.04533
464.5312, 35.13009
465.0133, 35.12106
465.4954, 35.10490
465.9775, 35.18074
466.4597, 35.37618
466.9418, 35.59991
467.4239, 35.81511
467.9060, 36.00335
468.3881, 36.00462
468.8702, 35.68386
469.3524, 35.39227
469.8345, 35.47393
470.3166, 35.82715
470.7987, 36.18326
471.2808, 36.56733
471.7629, 36.85646
472.2451, 36.86457
472.7272, 36.64872
473.2093, 36.50709
473.6914, 36.57925
474.1735, 36.76296
474.6556, 36.86766
475.1378, 36.88859
475.6199, 36.86565
476.1020, 36.80968
476.5841, 36.70906
477.0662, 36.44693
477.5483, 36.08204
478.0305, 35.94068
478.5126, 36.31778
478.9947, 37.12786
479.4768, 37.60303
479.9589, 37.45382
480.4410, 37.32137
480.9232, 37.27460
481.4053, 37.28936
481.8874, 37.34923
482.3695, 37.44444
482.8516, 37.55479
483.3337, 37.68700
483.8159, 37.86710
484.2980, 37.83573
484.7801, 37.28758
485.2622, 36.87434
485.7443, 36.94063
486.2264, 37.25869
486.7086, 37.44640
487.1907, 37.32522
487.6728, 37.08392
488.1549, 37.00616
488.6370, 37.10430
489.1191, 37.16394
489.6013, 37.11056
490.0834, 37.03495
490.5655, 37.01308
491.0476, 37.04095
491.5297, 37.09132
492.0118, 37.11937
492.4940, 37.18316
492.9761, 37.37531
493.4582, 37.69269
493.9403, 38.04186
494.4224, 38.40808
494.9045, 38.74639
495.3867, 38.93430
495.8688, 38.96376
496.3509, 38.90604
496.8330, 38.62724
497.3151, 38.35443
497.7972, 38.40305
498.2794, 38.76658
498.7615, 39.10622
499.2436, 39.10521
499.7257, 38.79380
500.2078, 38.73283
500.6899, 39.19250
501.1721, 39.57658
501.6542, 39.77442
502.1363, 39.85746
502.6184, 39.89907
503.1005, 39.92272
503.5826, 39.92339
504.0648, 39.89816
504.5469, 39.84898
505.0290, 39.75404
505.5111, 39.57439
505.9932, 39.39573
506.4753, 39.24865
506.9575, 39.12589
507.4396, 39.00965
507.9217, 38.88694
508.4038, 38.79090
508.8859, 38.78656
509.3680, 38.86688
509.8502, 38.90931
510.3323, 38.89376
510.8144, 38.82181
511.2965, 38.66524
511.7787, 38.44244
512.2607, 38.25047
512.7429, 38.09528
513.2250, 37.99482
513.7071, 38.02463
514.1892, 38.13894
514.6713, 38.12513
515.1534, 37.86119
515.6356, 37.49848
516.1177, 37.32734
516.5998, 37.36766
517.0819, 37.58089
517.5640, 38.18652
518.0461, 38.78496
518.5283, 39.03160
519.0104, 39.00965
519.4925, 39.05505
519.9746, 39.39730
520.4567, 39.95080
520.9388, 40.38760
521.4210, 40.59137
521.9031, 40.89745
522.3852, 41.33492
522.8673, 41.88129
523.3494, 42.57619
523.8315, 43.38423
524.3137, 44.16477
524.7958, 44.82979
525.2779, 45.37482
525.7600, 45.71192
526.2421, 45.74590
526.7242, 45.92488
527.2064, 46.46174
527.6885, 47.25501
528.1706, 48.22527
528.6527, 49.40696
529.1348, 50.53083
529.6169, 51.40597
530.0991, 52.15851
530.5812, 53.03192
531.0633, 54.05279
531.5454, 55.01730
532.0275, 55.78794
532.5096, 56.37380
532.9918, 56.81498
533.4739, 57.17919
533.9560, 57.33950
534.4381, 57.19617
534.9202, 56.87513
535.4024, 56.50442
535.8845, 56.11226
536.3666, 55.65403
536.8488, 55.08337
537.3309, 54.39955
537.8130, 53.68633
538.2951, 52.91639
538.7772, 52.14970
539.2593, 51.39545
539.7415, 50.65425
540.2236, 49.94344
540.7057, 49.26626
541.1878, 48.56026
541.6699, 47.63831
542.1520, 46.57802
542.6342, 45.98582
543.1163, 46.08868
543.5984, 46.21181
544.0805, 45.92448
544.5626, 45.35523
545.0447, 44.69798
545.5269, 43.87287
546.0090, 43.16525
546.4911, 42.80774
546.9732, 42.66500
547.4553, 42.48132
547.9374, 42.19954
548.4196, 41.90442
548.9017, 41.68124
549.3838, 41.53157
549.8659, 41.34372
550.3480, 41.11588
550.8301, 40.85881
551.3123, 40.53359
551.7944, 40.20021
552.2765, 39.93459
552.7586, 39.75502
553.2407, 39.61890
553.7228, 39.49067
554.2050, 39.37421
554.6871, 39.17858
555.1692, 38.74942
555.6513, 38.46760
556.1334, 38.62911
556.6155, 38.93573
557.0977, 38.97445
557.5798, 38.61073
558.0619, 38.17133
558.5440, 37.90696
559.0261, 37.80634
559.5082, 37.86705
559.9904, 38.13143
560.4725, 38.36641
560.9546, 38.38497
561.4367, 38.21494
561.9188, 38.04685
562.4009, 37.78966
562.8831, 37.65165
563.3652, 37.85849
563.8473, 38.16997
564.3294, 38.22019
564.8115, 37.94830
565.2936, 37.59251
565.7758, 37.38053
566.2579, 37.31199
566.7400, 37.31873
567.2221, 37.53161
567.7042, 37.66156
568.1863, 37.62380
568.6685, 37.50092
569.1506, 37.33712
569.6327, 37.15896
570.1148, 37.05377
570.5969, 37.20872
571.0790, 37.54936
571.5612, 37.55243
572.0433, 37.08599
572.5254, 36.64151
573.0075, 36.44006
573.4896, 36.43125
573.9717, 36.57636
574.4539, 36.93879
574.9360, 37.21849
575.4181, 37.19528
575.9002, 37.04118
576.3823, 37.00809
576.8644, 37.11612
577.3466, 37.21395
577.8287, 37.17773
578.3108, 37.05597
578.7929, 37.08816
579.2750, 37.54000
579.7571, 37.79591
580.2393, 37.64650
580.7214, 37.42075
581.2035, 37.40120
581.6856, 37.57502
582.1677, 37.72108
582.6498, 37.65350
583.1320, 37.45232
583.6141, 37.42575
584.0962, 37.65644
584.5783, 37.77335
585.0604, 37.54836
585.5425, 37.26839
