##NAMES=Chalcocite
##RRUFFID=R050067
##IDEAL CHEMISTRY=Cu^1+^_2_S^2-^
##LOCALITY=Flambeau, Rusk County, Wisconsin, USA
##OWNER=RRUFF
##SOURCE=Rock Currier
##DESCRIPTION=Iridescent blue irregular hexagonal tablet
##STATUS=The identification of this mineral has been confirmed by X-ray diffraction and chemical analysis
##URL=rruff.info/R050067
##MEASURED CHEMISTRY=Cu_2.00_S_1.00_
160.2684, 1700.409
160.7505, 1707.957
161.2326, 1712.003
161.7148, 1716.743
162.1969, 1724.531
162.6790, 1733.681
163.1611, 1742.466
163.6432, 1752.687
164.1253, 1760.615
164.6075, 1762.724
165.0896, 1758.831
165.5717, 1755.990
166.0538, 1756.839
166.5359, 1761.467
167.0180, 1769.929
167.5002, 1788.744
167.9823, 1807.412
168.4644, 1816.629
168.9465, 1814.577
169.4286, 1810.993
169.9107, 1811.823
170.3929, 1816.314
170.8750, 1822.910
171.3571, 1836.044
171.8392, 1848.562
172.3213, 1850.284
172.8034, 1836.554
173.2856, 1823.137
173.7677, 1827.688
174.2498, 1845.856
174.7319, 1862.581
175.2140, 1866.969
175.6961, 1864.604
176.1783, 1864.410
176.6604, 1869.439
177.1425, 1874.507
177.6246, 1873.195
178.1067, 1866.012
178.5888, 1856.110
179.0710, 1842.142
179.5531, 1827.243
180.0352, 1818.523
180.5173, 1817.553
180.9994, 1823.817
181.4815, 1840.537
181.9637, 1867.462
182.4458, 1892.046
182.9279, 1903.343
183.4100, 1903.388
183.8921, 1899.818
184.3742, 1892.779
184.8564, 1884.411
185.3385, 1880.409
185.8206, 1880.992
186.3027, 1882.862
186.7848, 1879.448
187.2669, 1872.395
187.7491, 1874.359
188.2312, 1897.331
188.7133, 1933.005
189.1954, 1947.974
189.6775, 1938.983
190.1596, 1923.344
190.6418, 1923.435
191.1239, 1938.850
191.6060, 1952.486
192.0881, 1956.192
192.5702, 1951.202
193.0524, 1948.544
193.5345, 1948.786
194.0166, 1949.901
194.4987, 1947.985
194.9808, 1942.731
195.4629, 1939.109
195.9451, 1940.338
196.4272, 1946.315
196.9093, 1950.790
197.3914, 1953.127
197.8735, 1954.650
198.3556, 1958.529
198.8378, 1965.329
199.3199, 1970.821
199.8020, 1970.731
200.2841, 1964.279
200.7662, 1965.237
201.2483, 1977.671
201.7305, 1994.951
202.2126, 1998.847
202.6947, 1985.943
203.1768, 1972.411
203.6589, 1969.903
204.1410, 1980.853
204.6232, 1984.760
205.1053, 1976.671
205.5874, 1961.755
206.0695, 1958.442
206.5516, 1970.112
207.0337, 1984.507
207.5159, 1993.208
207.9980, 1994.822
208.4801, 1996.594
208.9622, 1999.339
209.4443, 2002.911
209.9264, 2006.891
210.4086, 2011.889
210.8907, 2016.083
211.3728, 2017.839
211.8549, 2016.575
212.3370, 2014.354
212.8191, 2008.919
213.3013, 2001.853
213.7834, 2009.114
214.2655, 2039.587
214.7476, 2070.159
215.2297, 2078.466
215.7118, 2055.304
216.1940, 2035.475
216.6761, 2025.000
217.1582, 2023.542
217.6403, 2025.562
218.1224, 2032.083
218.6045, 2040.673
219.0867, 2049.740
219.5688, 2060.951
220.0509, 2068.257
220.5330, 2068.492
221.0151, 2061.390
221.4972, 2060.717
221.9794, 2070.005
222.4615, 2081.766
222.9436, 2088.510
223.4257, 2090.172
223.9078, 2086.511
224.3899, 2074.987
224.8721, 2054.145
225.3542, 2042.680
225.8363, 2042.698
226.3184, 2049.976
226.8005, 2060.496
227.2827, 2077.128
227.7648, 2091.453
228.2469, 2101.849
228.7290, 2108.457
229.2111, 2109.163
229.6932, 2099.366
230.1754, 2087.391
230.6575, 2084.721
231.1396, 2096.689
231.6217, 2108.611
232.1038, 2116.459
232.5859, 2119.492
233.0681, 2122.674
233.5502, 2127.553
234.0323, 2131.475
234.5144, 2129.768
234.9965, 2117.503
235.4786, 2107.999
235.9608, 2105.924
236.4429, 2113.150
236.9250, 2119.072
237.4071, 2122.841
237.8892, 2125.787
238.3713, 2130.394
238.8535, 2138.951
239.3356, 2145.275
239.8177, 2146.476
240.2998, 2140.183
240.7819, 2138.047
241.2640, 2141.585
241.7462, 2148.357
242.2283, 2154.195
242.7104, 2158.434
243.1925, 2162.840
243.6746, 2168.181
244.1567, 2175.073
244.6389, 2181.070
245.1210, 2187.146
245.6031, 2191.762
246.0852, 2191.574
246.5673, 2183.542
247.0494, 2175.873
247.5316, 2171.362
248.0137, 2170.518
248.4958, 2171.220
248.9779, 2173.836
249.4600, 2177.795
249.9421, 2182.114
250.4243, 2187.250
250.9064, 2191.977
251.3885, 2195.703
251.8706, 2197.975
252.3527, 2201.080
252.8348, 2206.369
253.3170, 2211.660
253.7991, 2212.050
254.2812, 2204.398
254.7633, 2197.864
255.2454, 2196.198
255.7275, 2200.849
256.2097, 2204.865
256.6918, 2207.176
257.1739, 2209.539
257.6560, 2215.749
258.1381, 2227.835
258.6202, 2239.635
259.1024, 2248.993
259.5845, 2255.490
260.0666, 2261.522
260.5487, 2269.418
261.0308, 2275.042
261.5129, 2268.154
261.9951, 2240.907
262.4772, 2220.133
262.9593, 2219.579
263.4414, 2245.761
263.9235, 2259.892
264.4056, 2256.914
264.8878, 2246.744
265.3699, 2248.288
265.8520, 2266.489
266.3341, 2282.317
266.8162, 2287.345
267.2983, 2279.377
267.7805, 2274.396
268.2626, 2272.925
268.7447, 2273.924
269.2268, 2275.690
269.7089, 2278.159
270.1910, 2281.669
270.6732, 2288.242
271.1553, 2298.982
271.6374, 2299.664
272.1195, 2286.319
272.6016, 2268.726
273.0837, 2264.330
273.5659, 2275.590
274.0480, 2287.248
274.5301, 2293.433
275.0122, 2293.911
275.4943, 2294.469
275.9764, 2295.239
276.4586, 2295.839
276.9407, 2295.426
277.4228, 2293.835
277.9049, 2292.560
278.3870, 2289.892
278.8691, 2286.312
279.3513, 2296.142
279.8334, 2323.801
280.3155, 2353.507
280.7976, 2361.901
281.2798, 2348.073
281.7619, 2332.552
282.2440, 2320.878
282.7261, 2313.386
283.2082, 2314.409
283.6903, 2325.604
284.1725, 2339.217
284.6546, 2346.278
285.1367, 2346.857
285.6188, 2344.126
286.1009, 2337.719
286.5830, 2328.757
287.0652, 2320.376
287.5473, 2311.854
288.0294, 2308.648
288.5115, 2321.188
288.9936, 2347.352
289.4757, 2369.149
289.9579, 2380.797
290.4400, 2383.838
290.9221, 2380.920
291.4042, 2371.618
291.8863, 2361.687
292.3684, 2356.636
292.8506, 2355.872
293.3327, 2356.826
293.8148, 2359.844
294.2969, 2363.420
294.7790, 2364.027
295.2611, 2361.660
295.7433, 2359.416
296.2254, 2359.877
296.7075, 2362.597
297.1896, 2366.429
297.6717, 2372.272
298.1538, 2378.075
298.6360, 2378.495
299.1181, 2374.212
299.6002, 2373.222
300.0823, 2388.421
300.5644, 2410.522
301.0465, 2421.344
301.5287, 2411.609
302.0108, 2394.376
302.4929, 2381.579
302.9750, 2373.235
303.4571, 2370.170
303.9392, 2378.294
304.4214, 2390.361
304.9035, 2396.254
305.3856, 2390.978
305.8677, 2382.886
306.3498, 2377.771
306.8319, 2375.578
307.3141, 2376.065
307.7962, 2382.001
308.2783, 2389.207
308.7604, 2393.117
309.2425, 2390.988
309.7246, 2389.308
310.2068, 2393.060
310.6889, 2400.617
311.1710, 2407.775
311.6531, 2414.228
312.1352, 2418.468
312.6173, 2418.774
313.0995, 2413.707
313.5816, 2408.137
314.0637, 2402.024
314.5458, 2397.110
315.0279, 2396.584
315.5100, 2407.840
315.9922, 2419.155
316.4743, 2423.305
316.9564, 2417.465
317.4385, 2412.744
317.9206, 2416.874
318.4027, 2423.395
318.8849, 2423.275
319.3670, 2402.900
319.8491, 2385.314
320.3312, 2379.793
320.8133, 2388.590
321.2954, 2399.905
321.7776, 2413.025
322.2597, 2426.984
322.7418, 2440.757
323.2239, 2459.154
323.7060, 2472.404
324.1881, 2478.225
324.6703, 2476.378
325.1524, 2469.167
325.6345, 2447.579
326.1166, 2425.607
326.5987, 2414.401
327.0808, 2425.611
327.5630, 2433.925
328.0451, 2434.918
328.5272, 2429.049
329.0093, 2426.332
329.4914, 2428.310
329.9735, 2432.081
330.4557, 2435.869
330.9378, 2439.845
331.4199, 2443.694
331.9020, 2448.515
332.3841, 2453.396
332.8662, 2453.434
333.3484, 2446.123
333.8305, 2437.764
334.3126, 2430.801
334.7947, 2423.589
335.2768, 2423.924
335.7589, 2435.919
336.2411, 2453.613
336.7232, 2461.750
337.2053, 2458.030
337.6874, 2451.272
338.1695, 2444.544
338.6516, 2437.570
339.1338, 2434.207
339.6159, 2435.943
340.0980, 2439.096
340.5801, 2435.477
341.0622, 2423.827
341.5443, 2416.856
342.0265, 2422.697
342.5086, 2439.433
342.9907, 2449.513
343.4728, 2452.357
343.9549, 2450.456
344.4370, 2444.228
344.9192, 2434.437
345.4013, 2428.236
345.8834, 2428.940
346.3655, 2434.891
346.8476, 2442.699
347.3297, 2452.401
347.8119, 2461.978
348.2940, 2469.637
348.7761, 2475.609
349.2582, 2480.774
349.7403, 2487.219
350.2225, 2491.245
350.7046, 2485.437
351.1867, 2470.888
351.6688, 2456.443
352.1509, 2444.883
352.6331, 2438.377
353.1152, 2441.721
353.5973, 2460.705
354.0794, 2480.857
354.5615, 2488.775
355.0436, 2487.129
355.5258, 2484.035
356.0079, 2483.630
356.4900, 2483.910
356.9721, 2483.820
357.4542, 2484.122
357.9363, 2480.924
358.4185, 2464.849
358.9006, 2444.549
359.3827, 2434.996
359.8648, 2452.567
360.3469, 2474.033
360.8290, 2487.177
361.3112, 2489.969
361.7933, 2491.786
362.2754, 2495.965
362.7575, 2500.618
363.2396, 2503.709
363.7217, 2502.692
364.2039, 2502.109
364.6860, 2503.777
365.1681, 2507.760
365.6502, 2510.150
366.1323, 2512.772
366.6144, 2512.340
367.0966, 2506.422
367.5787, 2479.748
368.0608, 2466.536
368.5429, 2476.201
369.0250, 2503.383
369.5071, 2519.910
369.9893, 2517.149
370.4714, 2513.737
370.9535, 2520.618
371.4356, 2550.120
371.9177, 2560.186
372.3998, 2540.803
372.8820, 2506.480
373.3641, 2490.426
373.8462, 2498.184
374.3283, 2509.917
374.8104, 2518.786
375.2925, 2524.858
375.7747, 2528.024
376.2568, 2528.196
376.7389, 2525.697
377.2210, 2519.222
377.7031, 2508.237
378.1852, 2500.975
378.6674, 2499.815
379.1495, 2504.364
379.6316, 2515.099
380.1137, 2532.728
380.5958, 2549.326
381.0779, 2555.659
381.5601, 2553.809
382.0422, 2554.317
382.5243, 2561.877
383.0064, 2569.968
383.4885, 2564.266
383.9706, 2546.792
384.4528, 2532.830
384.9349, 2536.019
385.4170, 2548.619
385.8991, 2557.515
386.3812, 2559.925
386.8633, 2561.489
387.3455, 2571.138
387.8276, 2584.169
388.3097, 2589.902
388.7918, 2574.941
389.2739, 2555.544
389.7560, 2543.198
390.2382, 2538.694
390.7203, 2542.436
391.2024, 2564.664
391.6845, 2591.823
392.1666, 2608.531
392.6487, 2600.938
393.1309, 2589.943
393.6130, 2582.701
394.0951, 2579.168
394.5772, 2577.106
395.0593, 2575.042
395.5414, 2574.832
396.0236, 2577.677
396.5057, 2586.811
396.9878, 2595.384
397.4699, 2603.763
397.9520, 2611.233
398.4341, 2615.552
398.9163, 2616.286
399.3984, 2614.307
399.8805, 2609.864
400.3626, 2602.847
400.8447, 2593.088
401.3268, 2576.649
401.8090, 2560.396
402.2911, 2554.417
402.7732, 2561.811
403.2553, 2571.694
403.7374, 2582.235
404.2195, 2593.253
404.7017, 2601.221
405.1838, 2605.637
405.6659, 2608.393
406.1480, 2611.803
406.6301, 2615.947
407.1122, 2616.280
407.5944, 2610.145
408.0765, 2601.629
408.5586, 2601.545
409.0407, 2609.738
409.5228, 2618.746
410.0049, 2624.170
410.4871, 2626.548
410.9692, 2627.004
411.4513, 2625.276
411.9334, 2623.133
412.4155, 2622.806
412.8976, 2623.733
413.3798, 2624.298
413.8619, 2619.731
414.3440, 2616.747
414.8261, 2625.274
415.3082, 2645.435
415.7903, 2663.092
416.2725, 2670.403
416.7546, 2669.712
417.2367, 2663.429
417.7188, 2644.961
418.2009, 2629.259
418.6830, 2626.606
419.1652, 2633.346
419.6473, 2636.166
420.1294, 2619.926
420.6115, 2606.465
421.0937, 2609.283
421.5758, 2640.459
422.0579, 2665.567
422.5400, 2678.217
423.0221, 2682.622
423.5042, 2685.861
423.9864, 2687.291
424.4685, 2688.617
424.9506, 2691.391
425.4327, 2696.129
425.9148, 2694.130
426.3969, 2679.123
426.8791, 2664.523
427.3612, 2664.038
427.8433, 2684.379
428.3254, 2697.220
428.8075, 2696.185
429.2896, 2685.896
429.7718, 2682.642
430.2539, 2687.638
430.7360, 2693.109
431.2181, 2692.876
431.7002, 2687.649
432.1823, 2688.944
432.6645, 2698.649
433.1466, 2710.512
433.6287, 2717.097
434.1108, 2718.635
434.5929, 2715.882
435.0750, 2705.645
435.5572, 2692.819
436.0393, 2686.007
436.5214, 2685.060
437.0035, 2686.860
437.4856, 2690.718
437.9677, 2695.286
438.4499, 2698.530
438.9320, 2699.175
439.4141, 2699.667
439.8962, 2700.555
440.3783, 2702.528
440.8604, 2707.393
441.3426, 2721.035
441.8247, 2733.885
442.3068, 2739.426
442.7889, 2735.152
443.2710, 2732.292
443.7531, 2734.935
444.2353, 2740.086
444.7174, 2744.482
445.1995, 2749.666
445.6816, 2751.810
446.1637, 2749.302
446.6458, 2742.600
447.1280, 2735.636
447.6101, 2724.076
448.0922, 2717.042
448.5743, 2721.193
449.0564, 2743.949
449.5385, 2757.826
450.0207, 2759.768
450.5028, 2754.671
450.9849, 2750.095
451.4670, 2745.153
451.9491, 2745.814
452.4312, 2759.225
452.9134, 2782.047
453.3955, 2785.065
453.8776, 2765.837
454.3597, 2744.311
454.8418, 2740.216
455.3239, 2750.641
455.8061, 2764.429
456.2882, 2781.105
456.7703, 2797.059
457.2524, 2808.509
457.7345, 2815.214
458.2166, 2816.310
458.6988, 2805.350
459.1809, 2791.421
459.6630, 2784.627
460.1451, 2786.431
460.6272, 2791.668
461.1093, 2801.464
461.5915, 2811.425
462.0736, 2815.856
462.5557, 2802.113
463.0378, 2793.083
463.5199, 2804.067
464.0020, 2831.162
464.4842, 2845.068
464.9663, 2823.357
465.4484, 2798.859
465.9305, 2789.198
466.4126, 2805.104
466.8947, 2818.099
467.3769, 2828.579
467.8590, 2835.957
468.3411, 2839.293
468.8232, 2838.108
469.3053, 2833.360
469.7874, 2822.934
470.2696, 2807.579
470.7517, 2802.046
471.2338, 2808.109
471.7159, 2818.503
472.1980, 2828.816
472.6801, 2838.972
473.1623, 2843.666
473.6444, 2840.519
474.1265, 2834.909
474.6086, 2838.021
475.0907, 2848.240
475.5728, 2855.117
476.0550, 2847.208
476.5371, 2834.486
477.0192, 2835.906
477.5013, 2852.283
477.9834, 2867.445
478.4655, 2866.293
478.9477, 2857.244
479.4298, 2851.346
479.9119, 2853.385
480.3940, 2857.351
480.8761, 2858.089
481.3582, 2857.983
481.8404, 2863.955
482.3225, 2891.385
482.8046, 2914.572
483.2867, 2919.646
483.7688, 2898.736
484.2509, 2883.006
484.7331, 2875.537
485.2152, 2874.249
485.6973, 2878.165
486.1794, 2895.306
486.6615, 2903.348
487.1436, 2895.024
487.6258, 2875.053
488.1079, 2865.956
488.5900, 2869.691
489.0721, 2879.147
489.5542, 2893.859
490.0363, 2914.031
490.5185, 2922.592
491.0006, 2917.161
491.4827, 2906.352
491.9648, 2899.950
492.4470, 2897.615
492.9291, 2897.812
493.4112, 2900.476
493.8933, 2905.007
494.3754, 2911.429
494.8575, 2919.385
495.3397, 2926.234
495.8218, 2931.366
496.3039, 2934.029
496.7860, 2931.573
497.2681, 2921.065
497.7502, 2915.510
498.2324, 2924.575
498.7145, 2941.925
499.1966, 2959.129
499.6787, 2976.580
500.1608, 2990.481
500.6429, 3001.216
501.1251, 3008.412
501.6072, 3006.793
502.0893, 2987.458
502.5714, 2966.796
503.0535, 2951.464
503.5356, 2939.036
504.0178, 2939.089
504.4999, 2958.463
504.9820, 2984.097
505.4641, 2996.160
505.9462, 2992.800
506.4283, 2984.875
506.9105, 2972.644
507.3926, 2958.871
507.8747, 2955.542
508.3568, 2963.039
508.8389, 2974.225
509.3210, 2984.781
509.8032, 2995.033
510.2853, 3007.772
510.7674, 3025.059
511.2495, 3037.460
511.7316, 3030.054
512.2137, 3010.836
512.6959, 2996.204
513.1780, 2993.326
513.6601, 2996.894
514.1422, 3007.564
514.6243, 3023.621
515.1064, 3034.006
515.5886, 3026.972
516.0707, 3018.127
516.5528, 3017.882
517.0349, 3034.363
517.5170, 3045.167
517.9991, 3045.061
518.4813, 3039.292
518.9634, 3033.711
519.4455, 3025.138
519.9276, 3022.620
520.4097, 3030.898
520.8918, 3047.390
521.3740, 3054.712
521.8561, 3050.228
522.3382, 3045.311
522.8203, 3050.279
523.3024, 3064.000
523.7845, 3066.074
524.2667, 3053.548
524.7488, 3036.238
525.2309, 3022.401
525.7130, 3012.956
526.1951, 3011.454
526.6772, 3021.630
527.1594, 3037.892
527.6415, 3057.953
528.1236, 3079.740
528.6057, 3094.502
529.0878, 3088.691
529.5699, 3079.372
530.0521, 3081.651
530.5342, 3101.501
531.0163, 3114.550
531.4984, 3109.752
531.9805, 3095.714
532.4626, 3081.618
532.9448, 3063.069
533.4269, 3051.270
533.9090, 3047.750
534.3911, 3051.915
534.8732, 3062.915
535.3553, 3086.819
535.8375, 3106.233
536.3196, 3109.300
536.8017, 3094.463
537.2838, 3101.456
537.7659, 3136.685
538.2480, 3172.816
538.7302, 3175.569
539.2123, 3150.054
539.6944, 3132.154
540.1765, 3132.136
540.6586, 3138.493
541.1407, 3132.299
541.6229, 3117.793
542.1050, 3110.061
542.5871, 3128.536
543.0692, 3149.998
543.5513, 3149.825
544.0334, 3126.959
544.5156, 3107.514
544.9977, 3102.421
545.4798, 3106.524
545.9619, 3116.385
546.4440, 3138.184
546.9261, 3155.536
547.4083, 3167.313
547.8904, 3172.958
548.3725, 3170.472
548.8546, 3150.749
549.3367, 3138.163
549.8188, 3141.624
550.3010, 3159.167
550.7831, 3166.181
551.2652, 3159.411
551.7473, 3152.961
552.2294, 3159.397
552.7115, 3176.989
553.1937, 3188.881
553.6758, 3194.073
554.1579, 3192.171
554.6400, 3174.989
555.1221, 3149.461
555.6042, 3136.076
556.0864, 3149.025
556.5685, 3170.070
557.0506, 3183.606
557.5327, 3190.780
558.0148, 3195.559
558.4969, 3197.069
558.9791, 3198.914
559.4612, 3205.043
559.9433, 3218.010
560.4254, 3223.848
560.9075, 3208.979
561.3896, 3192.159
561.8718, 3190.475
562.3539, 3220.072
562.8360, 3236.780
563.3181, 3232.301
563.8002, 3215.289
564.2823, 3206.538
564.7645, 3207.607
565.2466, 3210.103
565.7287, 3209.079
566.2108, 3206.636
566.6929, 3216.975
567.1750, 3240.719
567.6572, 3261.241
568.1393, 3260.052
568.6214, 3246.111
569.1035, 3236.844
569.5856, 3234.981
570.0677, 3237.625
570.5499, 3246.424
571.0320, 3257.296
571.5141, 3263.856
571.9962, 3256.628
572.4783, 3251.746
572.9604, 3259.578
573.4426, 3276.836
573.9247, 3286.447
574.4068, 3279.881
574.8889, 3270.233
575.3710, 3261.819
575.8531, 3254.549
576.3353, 3249.374
576.8174, 3246.186
577.2995, 3245.327
577.7816, 3246.813
578.2637, 3250.513
578.7458, 3259.168
579.2280, 3275.253
579.7101, 3292.649
580.1922, 3299.872
580.6743, 3298.168
581.1564, 3294.587
581.6385, 3290.194
582.1207, 3286.936
582.6028, 3288.381
583.0849, 3293.988
583.5670, 3299.604
584.0491, 3302.803
584.5313, 3305.013
585.0134, 3308.678
585.4955, 3317.044
585.9776, 3317.357
586.4597, 3295.021
586.9418, 3267.706
587.4240, 3256.028
587.9061, 3271.465
588.3882, 3285.007
588.8703, 3291.907
589.3524, 3295.383
589.8345, 3307.145
590.3167, 3331.114
590.7988, 3348.014
591.2809, 3344.833
591.7630, 3326.904
592.2451, 3324.776
592.7272, 3339.162
593.2094, 3351.950
593.6915, 3340.866
594.1736, 3318.922
594.6557, 3313.859
595.1378, 3334.341
595.6199, 3354.163
596.1021, 3345.759
596.5842, 3326.391
597.0663, 3320.661
597.5485, 3356.059
598.0306, 3386.100
598.5127, 3392.430
598.9948, 3380.150
599.4769, 3372.339
599.9590, 3376.924
600.4412, 3378.012
600.9233, 3365.911
601.4054, 3338.245
601.8875, 3338.180
602.3696, 3376.203
602.8517, 3416.106
603.3339, 3423.137
603.8160, 3400.135
604.2981, 3381.066
604.7802, 3368.777
605.2623, 3364.956
605.7444, 3378.890
606.2266, 3403.750
606.7087, 3420.389
607.1908, 3416.043
607.6729, 3407.150
608.1550, 3405.045
608.6371, 3408.925
609.1193, 3416.109
609.6014, 3434.688
610.0835, 3448.415
610.5656, 3445.587
611.0477, 3422.138
611.5298, 3409.714
612.0120, 3416.500
612.4941, 3427.441
612.9762, 3431.770
613.4583, 3425.747
613.9404, 3426.697
614.4225, 3436.043
614.9047, 3451.263
615.3868, 3474.335
615.8689, 3503.909
616.3510, 3518.595
616.8331, 3507.585
617.3152, 3484.579
617.7974, 3467.057
618.2795, 3455.042
618.7616, 3447.584
619.2437, 3446.971
619.7258, 3448.674
620.2079, 3450.962
620.6901, 3453.594
621.1722, 3451.594
621.6543, 3433.023
622.1364, 3416.391
622.6185, 3414.876
623.1006, 3437.477
623.5828, 3456.645
624.0649, 3472.493
624.5470, 3484.803
625.0291, 3493.254
625.5112, 3497.756
625.9933, 3498.250
626.4755, 3493.193
626.9576, 3486.194
627.4397, 3485.804
627.9218, 3491.135
628.4039, 3495.412
628.8860, 3493.510
629.3682, 3489.566
629.8503, 3489.102
630.3324, 3491.855
630.8145, 3495.708
631.2966, 3499.615
631.7787, 3504.010
632.2609, 3510.069
632.7430, 3519.396
633.2251, 3524.566
633.7072, 3518.416
634.1893, 3511.000
634.6714, 3510.763
635.1536, 3520.860
635.6357, 3532.157
636.1178, 3546.946
636.5999, 3559.443
637.0820, 3554.956
637.5641, 3532.556
638.0463, 3516.809
638.5284, 3517.597
639.0105, 3528.111
639.4926, 3537.371
639.9747, 3544.975
640.4568, 3548.459
640.9390, 3540.157
641.4211, 3531.137
641.9032, 3532.729
642.3853, 3545.690
642.8674, 3559.740
643.3495, 3576.713
643.8317, 3589.335
644.3138, 3592.090
644.7959, 3577.181
645.2780, 3565.780
645.7601, 3557.943
646.2422, 3553.574
646.7244, 3552.534
647.2065, 3554.823
647.6886, 3561.287
648.1707, 3574.038
648.6528, 3588.180
649.1349, 3592.693
649.6171, 3588.794
650.0992, 3585.314
650.5813, 3589.384
651.0634, 3594.251
651.5455, 3587.375
652.0276, 3571.834
652.5098, 3564.544
652.9919, 3585.272
653.4740, 3608.706
653.9561, 3619.099
654.4382, 3613.386
654.9203, 3603.688
655.4025, 3583.584
655.8846, 3566.383
656.3667, 3561.865
656.8488, 3574.438
657.3309, 3586.862
