##NAMES=Chalcocite
##RRUFFID=R070730
##IDEAL CHEMISTRY=Cu^1+^_2_S^2-^
##LOCALITY=La Mesa, Chihuahua, Mexico
##OWNER=RRUFF
##SOURCE=Michael Scott
##DESCRIPTION=Dark gray rounded metallic grains associated with ajoite
##STATUS=The identification of this mineral is confirmed by single-crystal X-ray diffraction and chemical analysis.
##URL=rruff.info/R070730
##MEASURED CHEMISTRY=Cu_1.97_Ag_0.01_S
89.15009, 43798.20
89.63220, 44616.91
90.11432, 45277.50
90.59644, 46003.64
91.07855, 46840.71
91.56067, 47696.29
92.04279, 48561.37
92.52490, 49418.07
93.00702, 50203.91
93.48914, 50802.43
93.97125, 51033.43
94.45337, 51211.73
94.93549, 50952.32
95.41760, 50440.04
95.89972, 49934.48
96.38184, 49378.08
96.86395, 48810.63
97.34607, 48342.21
97.82819, 47971.73
98.31030, 47664.89
98.79242, 47423.71
99.27454, 47243.63
99.75665, 47055.28
100.2388, 46780.96
100.7209, 46468.88
101.2030, 46209.83
101.6851, 46054.02
102.1672, 45957.23
102.6494, 45819.65
103.1315, 45592.88
103.6136, 45398.59
104.0957, 45287.74
104.5778, 45247.14
105.0599, 45248.45
105.5421, 45294.46
106.0242, 45395.21
106.5063, 45430.27
106.9884, 45345.23
107.4705, 45229.62
107.9526, 45110.25
108.4348, 44994.63
108.9169, 44882.36
109.3990, 44770.69
109.8811, 44638.41
110.3632, 44544.30
110.8453, 44501.73
111.3275, 44485.77
111.8096, 44480.56
112.2917, 44479.33
112.7738, 44475.87
113.2559, 44446.37
113.7380, 44371.52
114.2202, 44294.25
114.7023, 44211.83
115.1844, 44131.90
115.6665, 44070.49
116.1486, 44040.19
116.6307, 44039.95
117.1129, 44043.59
117.5950, 44059.96
118.0771, 44073.09
118.5592, 44075.93
119.0413, 44068.63
119.5234, 44039.73
120.0056, 43955.96
120.4877, 43837.40
120.9698, 43743.57
121.4519, 43696.99
121.9340, 43687.54
122.4161, 43693.60
122.8982, 43718.37
123.3804, 43752.71
123.8625, 43801.88
124.3446, 43859.89
124.8267, 43896.45
125.3088, 43874.64
125.7909, 43788.62
126.2731, 43727.40
126.7552, 43715.18
127.2373, 43722.97
127.7194, 43750.46
128.2015, 43793.94
128.6837, 43832.16
129.1658, 43830.61
129.6479, 43764.79
130.1300, 43704.25
130.6121, 43665.49
131.0942, 43628.68
131.5764, 43566.88
132.0585, 43468.55
132.5406, 43355.09
133.0227, 43304.10
133.5048, 43394.84
133.9869, 43465.84
134.4691, 43504.94
134.9512, 43511.48
135.4333, 43482.35
135.9154, 43411.38
136.3975, 43301.89
136.8796, 43215.00
137.3618, 43145.73
137.8439, 43098.01
138.3260, 43075.27
138.8081, 43077.07
139.2902, 43101.43
139.7723, 43158.54
140.2545, 43246.57
140.7366, 43297.85
141.2187, 43295.09
141.7008, 43260.02
142.1829, 43206.04
142.6650, 43128.13
143.1472, 43059.71
143.6293, 43046.20
144.1114, 43075.89
144.5935, 43100.09
145.0756, 43083.27
145.5577, 43042.16
146.0399, 43040.25
146.5220, 43126.30
147.0041, 43206.06
147.4862, 43186.75
147.9683, 43073.95
148.4504, 42971.62
148.9326, 42985.82
149.4147, 43130.59
149.8968, 43242.68
150.3789, 43285.32
150.8610, 43288.57
151.3431, 43251.36
151.8252, 43175.45
152.3074, 43089.62
152.7895, 43036.14
153.2716, 43017.30
153.7537, 43030.80
154.2358, 43119.99
154.7179, 43213.67
155.2001, 43242.36
155.6822, 43175.96
156.1643, 43048.57
156.6464, 42965.34
157.1285, 42965.69
157.6106, 42969.92
158.0928, 42960.98
158.5749, 42952.59
159.0570, 42968.85
159.5391, 43026.79
160.0212, 43120.30
160.5033, 43177.37
160.9855, 43186.51
161.4676, 43177.64
161.9497, 43148.87
162.4318, 43107.37
162.9139, 43069.80
163.3960, 43049.69
163.8782, 43047.92
164.3603, 43040.52
164.8424, 43026.71
165.3245, 43008.52
165.8066, 42984.21
166.2887, 42954.21
166.7709, 42926.15
167.2530, 42903.91
167.7351, 42888.38
168.2172, 42892.17
168.6993, 42954.21
169.1814, 43021.74
169.6636, 43007.54
170.1457, 42877.39
170.6278, 42752.71
171.1099, 42806.60
171.5920, 43002.34
172.0741, 43141.04
172.5563, 43097.65
173.0384, 42933.98
173.5205, 42830.84
174.0026, 42837.95
174.4847, 42884.62
174.9668, 42912.23
175.4490, 42921.36
175.9311, 42915.41
176.4132, 42881.29
176.8953, 42820.49
177.3774, 42796.64
177.8595, 42868.66
178.3417, 42943.07
178.8238, 42949.69
179.3059, 42884.02
179.7880, 42808.22
180.2701, 42799.78
180.7522, 42880.59
181.2344, 42936.32
181.7165, 42927.53
182.1986, 42903.18
182.6807, 42893.15
183.1628, 42905.43
183.6449, 42925.92
184.1271, 42928.70
184.6092, 42897.39
185.0913, 42881.34
185.5734, 42889.73
186.0555, 42910.49
186.5376, 42939.71
187.0198, 42975.57
187.5019, 43007.49
187.9840, 43007.38
188.4661, 42947.74
188.9482, 42887.04
189.4303, 42803.32
189.9125, 42728.93
190.3946, 42713.76
190.8767, 42786.59
191.3588, 42918.37
191.8409, 42972.42
192.3230, 42851.04
192.8052, 42760.29
193.2873, 42757.30
193.7694, 42808.25
194.2515, 42850.23
194.7336, 42843.71
195.2157, 42795.84
195.6979, 42778.36
196.1800, 42816.20
196.6621, 42851.11
197.1442, 42851.55
197.6263, 42828.72
198.1084, 42821.24
198.5906, 42861.15
199.0727, 42942.63
199.5548, 42987.73
200.0369, 42990.07
200.5190, 42966.14
201.0011, 42903.02
201.4833, 42808.26
201.9654, 42739.92
202.4475, 42750.32
202.9296, 42833.88
203.4117, 42897.97
203.8938, 42941.66
204.3760, 42964.35
204.8581, 42958.90
205.3402, 42923.95
205.8223, 42882.64
206.3044, 42845.26
206.7865, 42815.20
207.2687, 42806.83
207.7508, 42848.81
208.2329, 42904.09
208.7150, 42913.40
209.1971, 42860.69
209.6792, 42811.21
210.1614, 42823.24
210.6435, 42878.18
211.1256, 42940.15
211.6077, 43017.11
212.0898, 43089.78
212.5719, 43107.10
213.0541, 43041.07
213.5362, 42970.93
214.0183, 42963.37
214.5004, 42996.01
214.9825, 43013.09
215.4646, 42974.29
215.9468, 42893.12
216.4289, 42824.59
216.9110, 42764.24
217.3931, 42728.26
217.8752, 42731.60
218.3573, 42764.37
218.8395, 42797.95
219.3216, 42806.59
219.8037, 42793.72
220.2858, 42803.99
220.7679, 42868.66
221.2500, 42923.98
221.7322, 42928.66
222.2143, 42896.17
222.6964, 42870.58
223.1785, 42897.17
223.6606, 42979.50
224.1427, 43033.52
224.6249, 43046.23
225.1070, 43038.10
225.5891, 43005.48
226.0712, 42955.26
226.5533, 42905.46
227.0354, 42870.76
227.5176, 42851.14
227.9997, 42846.11
228.4818, 42873.88
228.9639, 42900.54
229.4460, 42913.13
229.9281, 42911.25
230.4103, 42900.89
230.8924, 42885.35
231.3745, 42860.16
231.8566, 42849.93
232.3387, 42868.53
232.8208, 42889.18
233.3030, 42899.98
233.7851, 42900.48
234.2672, 42896.84
234.7493, 42894.56
235.2314, 42891.46
235.7135, 42899.57
236.1957, 42933.31
236.6778, 42965.28
237.1599, 42981.12
237.6420, 42979.88
238.1241, 42968.96
238.6062, 42956.91
239.0884, 42945.90
239.5705, 42925.82
240.0526, 42868.55
240.5347, 42825.17
241.0168, 42838.14
241.4989, 42905.01
241.9811, 42983.17
242.4632, 43024.39
242.9453, 43019.02
243.4274, 42999.38
243.9095, 42951.20
244.3916, 42901.36
244.8738, 42861.16
245.3559, 42834.65
245.8380, 42826.64
246.3201, 42846.79
246.8022, 42913.70
247.2843, 42946.05
247.7665, 42917.20
248.2486, 42876.26
248.7307, 42855.24
249.2128, 42859.21
249.6949, 42877.99
250.1770, 42901.59
250.6592, 42932.91
251.1413, 42958.41
251.6234, 42980.47
252.1055, 42995.54
252.5876, 42997.06
253.0697, 42985.62
253.5519, 42973.35
254.0340, 42975.91
254.5161, 43001.09
254.9982, 43005.72
255.4803, 42967.10
255.9624, 42923.34
256.4445, 42901.79
256.9267, 42906.60
257.4088, 42930.25
257.8909, 42969.77
258.3730, 43031.44
258.8551, 43070.36
259.3372, 43066.74
259.8194, 43052.98
260.3015, 43062.37
260.7836, 43096.88
261.2657, 43121.88
261.7478, 43097.08
262.2299, 43011.80
262.7121, 42960.00
263.1942, 42969.57
263.6763, 42995.75
264.1584, 42996.96
264.6405, 42970.57
265.1227, 42952.36
265.6048, 42983.38
266.0869, 43067.87
266.5690, 43111.09
267.0511, 43055.42
267.5332, 42995.21
268.0154, 43034.13
268.4975, 43173.38
268.9796, 43289.91
269.4617, 43265.42
269.9438, 43099.86
270.4259, 42998.42
270.9081, 43006.08
271.3902, 43051.16
271.8723, 43088.38
272.3544, 43113.89
272.8365, 43121.00
273.3186, 43092.55
273.8008, 43035.92
274.2829, 43022.30
274.7650, 43097.03
275.2471, 43182.37
275.7292, 43224.13
276.2113, 43221.80
276.6935, 43194.63
277.1756, 43147.08
277.6577, 43083.65
278.1398, 43037.00
278.6219, 43003.17
279.1040, 42989.16
279.5862, 43020.95
280.0683, 43090.12
280.5504, 43126.11
281.0325, 43066.14
281.5146, 42940.89
281.9967, 42882.67
282.4789, 42927.40
282.9610, 43003.77
283.4431, 43089.38
283.9252, 43177.70
284.4073, 43227.98
284.8894, 43207.96
285.3716, 43137.99
285.8537, 43088.49
286.3358, 43064.92
286.8179, 43053.62
287.3000, 43054.13
287.7821, 43062.89
288.2643, 43065.61
288.7464, 43055.56
289.2285, 43035.11
289.7106, 43008.56
290.1927, 42959.98
290.6748, 42933.36
291.1570, 42973.89
291.6391, 43057.52
292.1212, 43106.95
292.6033, 43085.07
293.0854, 43022.53
293.5675, 42982.52
294.0497, 42971.54
294.5318, 42960.54
295.0139, 42935.84
295.4960, 42902.68
295.9781, 42870.65
296.4602, 42840.07
296.9424, 42817.78
297.4245, 42821.59
297.9066, 42856.97
298.3887, 42884.61
298.8708, 42879.72
299.3529, 42861.13
299.8351, 42868.43
300.3172, 42918.07
300.7993, 42972.62
301.2814, 42964.89
301.7635, 42885.64
302.2456, 42843.03
302.7278, 42900.39
303.2099, 42994.32
303.6920, 43031.75
304.1741, 42990.53
304.6562, 42930.32
305.1383, 42923.31
305.6205, 42973.46
306.1026, 43001.81
306.5847, 42972.56
307.0668, 42930.54
307.5489, 42927.02
308.0310, 42968.43
308.5132, 43017.61
308.9953, 43044.61
309.4774, 43047.38
309.9595, 43030.91
310.4416, 42973.58
310.9237, 42912.60
311.4059, 42872.35
311.8880, 42855.19
312.3701, 42861.64
312.8522, 42899.79
313.3343, 42966.66
313.8164, 43011.29
314.2986, 43016.19
314.7807, 43015.02
315.2628, 43024.38
315.7449, 43043.85
316.2270, 43072.07
316.7091, 43114.61
317.1913, 43162.78
317.6734, 43169.15
318.1555, 43085.32
318.6376, 43017.92
319.1197, 43020.09
319.6018, 43069.47
320.0840, 43113.99
320.5661, 43128.41
321.0482, 43120.67
321.5303, 43116.32
322.0124, 43139.53
322.4945, 43134.37
322.9767, 43060.33
323.4588, 42957.67
323.9409, 42884.38
324.4230, 42862.08
324.9051, 42879.39
325.3872, 42917.43
325.8694, 43006.02
326.3515, 43061.50
326.8336, 43068.75
327.3157, 43044.03
327.7978, 42986.74
328.2799, 42900.17
328.7621, 42825.54
329.2442, 42823.39
329.7263, 42937.60
330.2084, 43019.07
330.6905, 43013.08
331.1726, 43014.38
331.6548, 43134.32
332.1369, 43361.61
332.6190, 43549.70
333.1011, 43533.21
333.5832, 43255.89
334.0653, 43090.34
334.5475, 43096.06
335.0296, 43135.75
335.5117, 43155.18
335.9938, 43151.12
336.4759, 43135.81
336.9580, 43115.31
337.4402, 43090.16
337.9223, 43098.50
338.4044, 43192.02
338.8865, 43261.87
339.3686, 43278.93
339.8507, 43252.95
340.3329, 43197.09
340.8150, 43115.47
341.2971, 43020.32
341.7792, 42963.89
342.2613, 42979.08
342.7434, 42995.17
343.2256, 43012.59
343.7077, 43023.67
344.1898, 43015.75
344.6719, 42984.26
345.1540, 42945.22
345.6361, 42934.25
346.1183, 42979.57
346.6004, 42997.63
347.0825, 42955.36
347.5646, 42907.01
348.0467, 42897.12
348.5288, 42932.10
349.0110, 42978.68
349.4931, 42990.68
349.9752, 42954.54
350.4573, 42937.93
350.9394, 42947.69
351.4215, 42972.96
351.9037, 43027.10
352.3858, 43098.13
352.8679, 43147.48
353.3500, 43128.91
353.8321, 43045.49
354.3142, 43001.86
354.7964, 43033.36
355.2785, 43063.86
355.7606, 43059.95
356.2427, 43033.05
356.7248, 43007.64
357.2069, 42999.88
357.6891, 43001.66
358.1712, 42988.11
358.6533, 42950.96
359.1354, 42916.72
359.6175, 42885.46
360.0996, 42866.23
360.5818, 42874.73
361.0639, 42922.32
361.5460, 42983.06
362.0281, 43028.14
362.5102, 43058.87
362.9923, 43062.75
363.4745, 43021.09
363.9566, 42958.66
364.4387, 42889.94
364.9208, 42811.67
365.4029, 42762.36
365.8850, 42791.97
366.3672, 42884.13
366.8493, 42947.21
367.3314, 42951.49
367.8135, 42936.01
368.2956, 42946.35
368.7777, 42980.16
369.2599, 42999.11
369.7420, 42993.03
370.2241, 42960.72
370.7062, 42882.74
371.1883, 42745.69
371.6704, 42628.81
372.1526, 42616.67
372.6347, 42690.46
373.1168, 42739.67
373.5989, 42725.52
374.0810, 42700.46
374.5631, 42717.74
375.0453, 42771.60
375.5274, 42804.57
376.0095, 42775.00
376.4916, 42700.12
376.9737, 42657.30
377.4558, 42670.81
377.9380, 42684.00
378.4201, 42659.59
378.9022, 42622.06
379.3843, 42629.70
379.8664, 42711.14
380.3485, 42819.94
380.8307, 42855.96
381.3128, 42766.12
381.7949, 42701.61
382.2770, 42681.81
382.7591, 42685.95
383.2412, 42699.69
383.7234, 42718.41
384.2055, 42738.29
384.6876, 42756.92
385.1697, 42779.97
385.6518, 42775.16
386.1339, 42705.58
386.6161, 42647.06
387.0982, 42643.64
387.5803, 42684.75
388.0624, 42734.46
388.5445, 42768.22
389.0266, 42786.62
389.5088, 42795.89
389.9909, 42801.60
390.4730, 42789.81
390.9551, 42735.14
391.4372, 42669.41
391.9193, 42632.63
392.4015, 42642.38
392.8836, 42682.84
393.3657, 42726.79
393.8478, 42783.88
394.3299, 42818.18
394.8120, 42798.23
395.2942, 42773.61
395.7763, 42784.73
396.2584, 42834.71
396.7405, 42885.22
397.2226, 42888.45
397.7047, 42843.89
398.1869, 42832.07
398.6690, 42891.74
399.1511, 42944.86
399.6332, 42942.27
400.1153, 42897.61
400.5974, 42851.36
401.0796, 42824.09
401.5617, 42810.14
402.0438, 42795.80
402.5259, 42779.47
403.0080, 42770.14
403.4901, 42778.19
403.9723, 42795.29
404.4544, 42809.60
404.9365, 42820.28
405.4186, 42825.87
405.9007, 42817.50
406.3828, 42799.53
406.8650, 42800.30
407.3471, 42839.85
407.8292, 42888.91
408.3113, 42889.32
408.7934, 42825.24
409.2755, 42794.97
409.7577, 42879.04
410.2398, 42994.68
410.7219, 43003.18
411.2040, 42879.69
411.6861, 42760.16
412.1682, 42797.78
412.6504, 43022.06
413.1325, 43133.03
413.6146, 43030.76
414.0967, 42911.98
414.5788, 42892.50
415.0609, 42952.26
415.5431, 43013.44
416.0252, 43030.29
416.5073, 43008.55
416.9894, 42974.11
417.4715, 42896.82
417.9536, 42844.21
418.4358, 42840.38
418.9179, 42856.82
419.4000, 42859.21
419.8821, 42838.40
420.3642, 42816.61
420.8463, 42833.93
421.3285, 42918.42
421.8106, 42964.21
422.2927, 42933.76
422.7748, 42899.55
423.2569, 42890.70
423.7390, 42909.24
424.2212, 42949.15
424.7033, 43018.72
425.1854, 43106.44
425.6675, 43135.38
426.1496, 43062.09
426.6317, 43002.31
427.1139, 43004.03
427.5960, 43040.93
428.0781, 43087.02
428.5602, 43141.89
429.0423, 43178.97
429.5244, 43149.93
430.0066, 43052.92
430.4887, 42976.68
430.9708, 42945.47
431.4529, 42948.49
431.9350, 42978.01
432.4171, 43036.28
432.8993, 43080.79
433.3814, 43079.97
433.8635, 43054.91
434.3456, 43045.40
434.8277, 43058.13
435.3098, 43074.17
435.7920, 43077.54
436.2741, 43068.97
436.7562, 43062.90
437.2383, 43062.43
437.7204, 43062.08
438.2025, 43057.27
438.6847, 43049.72
439.1668, 43045.92
439.6489, 43050.14
440.1310, 43057.09
440.6131, 43052.32
441.0952, 43022.59
441.5774, 42999.60
442.0595, 42981.29
442.5416, 42972.35
443.0237, 42981.71
443.5058, 43008.41
443.9879, 43037.39
444.4701, 43048.51
444.9522, 43034.93
445.4343, 43051.89
445.9164, 43186.33
446.3985, 43262.83
446.8806, 43164.82
447.3628, 42974.58
447.8449, 42846.71
448.3270, 42870.82
448.8091, 42991.94
449.2912, 43083.47
449.7733, 43152.16
450.2555, 43170.23
450.7376, 43070.41
451.2197, 42954.53
451.7018, 42906.26
452.1839, 42938.85
452.6660, 42981.84
453.1482, 42971.73
453.6303, 42922.04
454.1124, 42902.72
454.5945, 42940.24
455.0766, 42968.21
455.5587, 42900.96
456.0409, 42773.85
456.5230, 42695.41
457.0051, 42725.32
457.4872, 42786.19
457.9693, 42810.98
458.4514, 42804.59
458.9336, 42797.88
459.4156, 42804.57
459.8978, 42821.38
460.3799, 42840.00
460.8620, 42856.68
461.3441, 42881.05
461.8262, 42926.36
462.3083, 42973.75
462.7905, 43009.08
463.2726, 43027.25
463.7547, 43016.39
464.2368, 42954.59
464.7189, 42827.71
465.2010, 42774.55
465.6832, 42865.54
466.1653, 42950.31
466.6474, 42972.46
467.1295, 42957.40
467.6116, 42956.57
468.0938, 42997.77
468.5759, 43052.99
469.0580, 43048.80
469.5401, 42948.45
470.0222, 42893.74
470.5043, 42965.38
470.9865, 43049.59
471.4686, 43067.35
471.9507, 43016.89
472.4328, 42962.84
472.9149, 42965.38
473.3970, 43004.55
473.8792, 42998.27
474.3613, 42923.35
474.8434, 42861.89
475.3255, 42872.66
475.8076, 42935.05
476.2897, 43014.19
476.7719, 43147.67
477.2540, 43242.29
477.7361, 43198.47
478.2182, 43059.99
478.7003, 42962.91
479.1824, 42958.99
479.6646, 42996.58
480.1467, 42994.64
480.6288, 42934.61
481.1109, 42894.79
481.5930, 42891.34
482.0751, 42899.86
482.5573, 42909.52
483.0394, 42915.93
483.5215, 42909.72
484.0036, 42881.02
484.4857, 42836.36
484.9678, 42820.35
485.4500, 42853.87
485.9321, 42889.57
486.4142, 42933.41
486.8963, 42969.46
487.3784, 42978.17
487.8605, 42956.11
488.3427, 42924.46
488.8248, 42901.95
489.3069, 42888.15
489.7890, 42900.55
490.2711, 42969.96
490.7532, 43025.36
491.2354, 43020.66
491.7175, 42974.72
492.1996, 42929.69
492.6817, 42888.86
493.1638, 42869.48
493.6459, 42909.53
494.1281, 43003.61
494.6102, 43073.68
495.0923, 43086.95
495.5744, 43064.91
496.0565, 43045.85
496.5386, 43035.50
497.0208, 43004.30
497.5029, 42891.80
497.9850, 42787.17
498.4671, 42808.09
498.9492, 42948.00
499.4313, 43083.04
499.9135, 43111.73
500.3956, 43042.72
500.8777, 42993.98
501.3598, 42982.80
501.8419, 42971.54
502.3240, 42954.05
502.8062, 42933.91
503.2883, 42912.72
503.7704, 42892.00
504.2525, 42878.25
504.7346, 42887.05
505.2167, 42925.48
505.6989, 42934.73
506.1810, 42881.52
506.6631, 42836.10
507.1452, 42841.42
507.6273, 42878.88
508.1094, 42905.38
508.5916, 42898.48
509.0737, 42877.27
509.5558, 42865.20
510.0379, 42862.11
510.5200, 42865.12
511.0021, 42875.97
511.4843, 42888.96
511.9664, 42890.95
512.4485, 42877.51
512.9306, 42882.52
513.4127, 42939.09
513.8948, 43002.14
514.3770, 43026.37
514.8591, 43010.80
515.3412, 42974.73
515.8233, 42924.74
516.3054, 42869.95
516.7875, 42870.39
517.2697, 43020.55
517.7518, 43109.38
518.2339, 43076.96
518.7160, 42997.03
519.1981, 42933.50
519.6802, 42902.64
520.1624, 42892.76
520.6445, 42897.46
521.1266, 42917.52
521.6087, 42919.39
522.0908, 42887.86
522.5729, 42860.59
523.0551, 42858.71
523.5372, 42870.11
524.0193, 42874.70
524.5014, 42862.84
524.9835, 42851.05
525.4656, 42858.76
525.9478, 42882.12
526.4299, 42900.15
526.9120, 42905.46
527.3941, 42909.27
527.8762, 42930.39
528.3583, 42970.43
528.8405, 42986.23
529.3226, 42943.49
529.8047, 42902.05
530.2868, 42908.95
530.7689, 42950.29
531.2510, 42986.41
531.7332, 42998.00
532.2153, 42986.98
532.6974, 42955.23
533.1795, 42876.68
533.6616, 42825.78
534.1437, 42827.04
534.6259, 42833.43
535.1080, 42801.49
535.5901, 42744.15
536.0722, 42718.24
536.5543, 42780.45
537.0364, 42894.83
537.5186, 42943.43
538.0007, 42911.13
538.4828, 42871.01
538.9649, 42837.34
539.4470, 42818.00
539.9291, 42833.57
540.4113, 42894.33
540.8934, 42925.55
541.3755, 42857.47
541.8576, 42749.06
542.3397, 42691.74
542.8218, 42695.52
543.3040, 42725.98
543.7861, 42761.30
544.2682, 42800.94
544.7503, 42841.04
545.2324, 42901.51
545.7145, 42937.75
546.1967, 42937.13
546.6788, 42909.86
547.1609, 42849.03
547.6430, 42762.37
548.1251, 42696.99
548.6072, 42716.57
549.0894, 42825.51
549.5715, 42892.71
550.0536, 42900.56
550.5357, 42890.69
551.0178, 42870.44
551.4999, 42847.38
551.9821, 42831.08
552.4642, 42824.07
552.9463, 42825.02
553.4284, 42830.92
553.9105, 42843.18
554.3926, 42871.47
554.8748, 42921.64
555.3569, 42971.85
555.8390, 43003.12
556.3211, 43014.40
556.8032, 43015.26
557.2853, 43003.48
557.7675, 42983.25
558.2496, 42938.72
558.7317, 42891.03
559.2138, 42875.62
559.6959, 42905.16
560.1780, 42969.34
560.6602, 43067.62
561.1423, 43235.34
561.6244, 43296.61
562.1065, 43155.31
562.5886, 42997.96
563.0707, 42856.54
563.5529, 42750.29
564.0350, 42707.79
564.5171, 42750.23
564.9992, 42836.07
565.4813, 42926.07
565.9634, 43017.99
566.4456, 43070.51
566.9277, 43061.29
567.4098, 43033.34
567.8919, 43035.79
568.3740, 43064.51
568.8561, 43078.56
569.3383, 43048.06
569.8204, 43022.80
570.3025, 43058.60
570.7846, 43124.33
571.2667, 43132.00
571.7488, 43043.52
572.2310, 42923.43
572.7131, 42892.44
573.1952, 42994.50
573.6773, 43067.50
574.1594, 43111.33
574.6415, 43128.35
575.1237, 43093.93
575.6058, 43035.66
576.0879, 43012.04
576.5700, 43060.39
577.0521, 43132.33
577.5342, 43150.53
578.0164, 43114.63
578.4985, 43076.05
578.9806, 43042.23
579.4627, 43016.39
579.9448, 43002.58
580.4269, 42999.86
580.9091, 43005.59
581.3912, 43022.43
581.8733, 43044.70
582.3554, 43085.50
582.8375, 43128.40
583.3196, 43123.75
583.8018, 43049.02
584.2839, 42952.78
584.7660, 42922.14
585.2481, 42984.79
585.7302, 43035.21
