##NAMES=Chalcocite
##RRUFFID=R050067
##IDEAL CHEMISTRY=Cu^1+^_2_S^2-^
##LOCALITY=Flambeau, Rusk County, Wisconsin, USA
##OWNER=RRUFF
##SOURCE=Rock Currier
##DESCRIPTION=Iridescent blue irregular hexagonal tablet
##STATUS=The identification of this mineral has been confirmed by X-ray diffraction and chemical analysis
##URL=rruff.info/R050067
##MEASURED CHEMISTRY=Cu_2.00_S_1.00_
157.911, 0.000
159.305, 23.877
160.698, 72.709
162.091, 125.963
163.483, 210.732
164.876, 121.801
166.268, 59.158
167.660, 37.855
169.051, 31.139
170.443, 112.363
171.834, 74.409
173.225, 89.198
174.615, 33.106
176.006, 33.033
177.396, 28.164
178.785, 15.052
180.175, 25.443
181.564, 2.068
182.953, 18.575
184.342, 23.128
185.731, 0.689
187.119, 62.378
188.507, 72.414
189.895, 4.625
191.283, 64.081
192.670, 55.862
194.057, 62.684
195.444, 259.640
196.830, 235.470
198.216, 352.725
199.603, 393.270
200.988, 464.733
202.374, 659.803
203.759, 815.219
205.144, 1042.427
206.529, 1250.371
207.913, 1448.970
209.298, 1700.598
210.682, 1903.104
212.065, 2166.073
213.449, 2463.202
214.832, 2858.477
216.215, 2996.895
217.598, 3007.449
218.981, 2823.943
220.363, 2565.134
221.745, 2262.755
223.127, 1774.907
224.508, 1420.937
225.889, 1112.961
227.270, 798.211
228.651, 602.421
230.032, 481.718
231.412, 325.914
232.792, 162.066
234.171, 218.164
235.551, 78.208
236.930, 113.203
238.309, 133.153
239.688, 14.937
241.066, 20.273
242.445, 23.882
243.823, 20.775
245.200, 77.902
246.578, 52.768
247.955, 44.925
249.332, 26.316
250.709, 2.300
252.085, 86.015
253.462, 53.881
254.838, 175.929
256.213, 119.194
257.589, 241.707
258.964, 294.503
260.339, 405.618
261.714, 491.699
263.088, 515.778
264.462, 680.392
265.836, 764.073
267.210, 876.493
268.584, 903.641
269.957, 1062.396
271.330, 1184.893
272.703, 1384.095
274.075, 1484.185
275.447, 1637.116
276.819, 1765.891
278.191, 1914.529
279.563, 1945.056
280.934, 2007.498
282.305, 1997.905
283.676, 1964.565
285.046, 1922.369
286.416, 1851.366
287.786, 1749.549
289.156, 1553.986
290.526, 1448.631
291.895, 1326.097
293.264, 1070.839
294.633, 972.042
296.001, 865.688
297.370, 751.682
298.738, 530.360
300.105, 518.919
301.473, 335.250
302.840, 319.495
304.207, 283.726
305.574, 272.411
306.940, 179.784
308.307, 108.062
309.673, 85.113
311.039, 6.644
312.404, 12.620
313.769, 0.748
315.135, 14.082
316.499, 9.288
317.864, 10.612
319.228, 1.749
320.592, 2.864
321.956, 3.271
323.320, 7.706
324.683, 35.475
326.046, 8.575
327.409, 14.643
328.771, 16.893
330.134, 69.437
331.496, 0.073
332.858, 77.555
334.219, 23.901
335.581, 82.964
336.942, 70.266
338.303, 14.135
339.663, 31.099
341.024, 34.739
342.384, 112.055
343.744, 8.159
345.103, 21.240
346.463, 66.608
347.822, 20.449
349.181, 113.972
350.539, 11.038
351.898, 123.388
353.256, 35.633
354.614, 79.702
355.972, 11.635
357.329, 30.137
358.686, 118.444
360.043, 44.153
361.400, 61.494
362.756, 57.072
364.112, 58.608
365.468, 126.714
366.824, 98.475
368.180, 92.905
369.535, 163.380
370.890, 158.084
372.245, 423.125
373.599, 333.366
374.953, 340.290
376.307, 243.431
377.661, 217.714
379.015, 360.224
380.368, 348.105
381.721, 398.105
383.074, 366.114
384.426, 488.652
385.778, 398.701
387.131, 515.391
388.482, 579.879
389.834, 561.924
391.185, 555.571
392.536, 716.123
393.887, 672.084
395.238, 699.841
396.588, 691.640
397.938, 674.828
399.288, 652.777
400.638, 625.519
401.987, 602.850
403.336, 510.891
404.685, 527.457
406.034, 359.463
407.382, 394.918
408.730, 301.794
410.078, 286.062
411.426, 282.690
412.773, 195.600
414.120, 193.974
415.467, 133.579
416.814, 100.454
418.161, 92.260
419.507, 94.045
420.853, 100.472
422.198, 58.100
423.544, 5.268
424.889, 1.363
426.234, 12.349
427.579, 73.205
428.924, 10.898
430.268, 25.552
431.612, 17.833
432.956, 62.133
434.299, 37.428
435.643, 21.212
436.986, 14.794
438.328, 27.110
439.671, 12.298
441.013, 33.084
442.356, 4.731
443.697, 32.036
445.039, 46.929
446.380, 55.839
447.722, 51.794
449.062, 66.153
450.403, 35.386
451.744, 66.195
453.084, 81.596
454.424, 14.359
455.763, 43.977
457.103, 7.961
458.442, 57.493
459.781, 67.935
461.120, 27.217
462.458, 87.660
463.797, 34.688
465.135, 79.944
466.472, 85.017
467.810, 10.927
469.147, 149.680
470.484, 84.300
471.821, 66.651
473.158, 88.056
474.494, 49.379
475.830, 144.508
477.166, 112.074
478.502, 171.496
479.837, 169.351
481.172, 284.924
482.507, 174.028
483.842, 75.424
485.176, 112.918
486.510, 132.478
487.844, 103.108
489.178, 131.756
490.511, 136.549
491.845, 216.425
493.178, 135.394
494.510, 159.448
495.843, 138.696
497.175, 104.828
498.507, 147.709
499.839, 81.840
501.171, 31.571
502.502, 66.176
503.833, 37.289
505.164, 109.078
506.495, 62.245
507.825, 111.391
509.155, 13.703
510.485, 84.849
511.815, 129.941
513.144, 22.968
514.473, 22.917
515.802, 49.900
517.131, 50.647
518.459, 119.265
519.788, 3.467
521.116, 77.750
522.443, 17.198
523.771, 8.421
525.098, 77.832
526.425, 65.790
527.752, 86.777
529.078, 25.431
530.405, 109.915
531.731, 218.144
533.057, 142.113
534.382, 142.822
535.708, 6.731
537.033, 25.241
538.358, 63.951
539.683, 8.404
541.007, 79.090
542.331, 40.990
543.655, 132.821
544.979, 44.947
546.302, 66.808
547.626, 66.468
548.949, 8.440
550.271, 56.215
551.594, 19.842
552.916, 26.329
554.238, 89.693
555.560, 44.950
556.882, 89.994
558.203, 110.100
559.524, 14.165
560.845, 24.416
562.166, 55.509
563.486, 45.620
564.806, 101.897
566.126, 49.243
567.446, 96.927
568.766, 26.479
570.085, 129.273
571.404, 60.154
572.723, 117.226
574.041, 129.507
575.359, 46.013
576.678, 160.759
577.995, 123.868
579.313, 137.249
580.630, 120.914
581.947, 146.817
583.264, 181.298
584.581, 197.961
585.897, 206.472
587.214, 197.042
588.530, 172.332
589.845, 234.741
591.161, 209.566
592.476, 268.736
593.791, 312.257
595.106, 211.125
596.420, 207.340
597.735, 219.975
599.049, 307.949
600.363, 151.255
601.676, 173.302
602.990, 258.301
604.303, 154.692
605.616, 254.385
606.928, 107.380
608.241, 153.399
609.553, 147.937
610.865, 79.725
612.177, 178.750
613.488, 9.016
614.800, 10.480
616.111, 118.148
617.422, 9.292
618.732, 115.323
620.042, 71.513
621.353, 17.747
622.662, 34.624
623.972, 62.523
625.282, 25.983
626.591, 59.091
627.900, 8.213
629.208, 72.586
630.517, 32.446
631.825, 56.358
633.133, 1.311
634.441, 17.292
635.749, 155.295
637.056, 15.688
638.363, 27.179
639.670, 81.043
640.976, 7.103
642.283, 87.272
643.589, 13.773
644.895, 121.991
646.201, 4.729
647.506, 111.414
648.811, 127.314
650.116, 28.949
651.421, 120.532
652.726, 63.061
654.030, 33.517
655.334, 118.925
656.638, 32.274
657.942, 95.268
659.245, 41.491
660.548, 39.645
661.851, 107.324
663.154, 64.548
664.456, 72.137
665.758, 77.222
667.060, 101.848
668.362, 85.560
669.664, 58.341
670.965, 144.882
672.266, 54.384
673.567, 129.781
674.868, 110.074
676.168, 42.479
677.468, 102.555
678.768, 35.868
680.068, 91.799
681.367, 116.618
682.666, 33.870
683.965, 88.300
685.264, 20.436
686.563, 99.441
687.861, 85.337
689.159, 3.128
690.457, 119.735
691.755, 37.080
693.052, 53.475
694.349, 125.762
695.646, 19.943
696.943, 64.005
698.239, 17.964
699.536, 63.803
700.832, 97.542
702.127, 5.316
703.423, 83.669
704.718, 33.087
706.013, 104.248
707.308, 43.523
708.603, 39.043
709.897, 60.358
711.191, 7.251
712.485, 87.952
713.779, 60.096
715.073, 36.182
716.366, 74.993
717.659, 84.977
718.952, 83.638
720.244, 160.518
721.537, 13.362
722.829, 97.393
724.121, 53.368
725.412, 81.299
726.704, 97.757
727.995, 43.506
729.286, 120.282
730.577, 95.024
731.867, 91.849
733.158, 143.449
734.448, 28.985
735.738, 64.454
737.027, 46.073
738.317, 105.416
739.606, 89.700
740.895, 58.293
742.183, 154.309
743.472, 93.418
744.760, 148.462
746.048, 119.441
747.336, 51.645
748.623, 161.582
749.911, 24.747
751.198, 24.850
752.485, 80.958
753.771, 52.069
755.058, 109.064
756.344, 15.007
757.630, 97.882
758.916, 168.708
760.201, 8.497
761.487, 48.219
762.772, 93.906
764.057, 88.828
765.341, 163.711
766.626, 64.557
767.910, 152.903
769.194, 121.706
770.477, 87.504
771.761, 85.297
773.044, 9.082
774.327, 157.854
775.610, 87.618
776.893, 22.165
778.175, 147.912
779.457, 28.974
780.739, 154.463
782.021, 39.324
783.302, 71.468
784.583, 167.271
785.864, 44.029
787.145, 85.738
788.426, 126.709
789.706, 46.625
790.986, 171.483
792.266, 142.390
793.546, 189.953
794.825, 177.617
796.104, 111.225
797.383, 142.764
798.662, 13.225
799.941, 71.673
801.219, 156.220
802.497, 42.610
803.775, 173.908
805.052, 105.321
806.330, 100.629
807.607, 83.830
808.884, 85.915
810.161, 140.885
811.437, 133.740
812.714, 33.480
813.990, 114.110
815.265, 55.001
816.541, 45.411
817.816, 35.715
819.092, 18.410
820.366, 13.046
821.641, 45.123
822.916, 51.443
824.190, 61.999
825.464, 97.499
826.738, 115.950
828.011, 36.354
829.285, 69.719
830.558, 13.049
831.831, 73.350
833.104, 88.628
834.376, 2.112
835.648, 58.179
836.920, 92.461
838.192, 77.741
839.464, 69.953
840.735, 42.011
842.006, 93.379
843.277, 81.061
844.548, 87.031
845.818, 60.567
847.088, 98.396
848.358, 33.274
849.628, 45.214
850.898, 23.205
852.167, 64.248
853.436, 3.341
854.705, 44.243
855.974, 73.432
857.242, 33.665
858.511, 33.252
859.779, 69.016
861.046, 47.826
862.314, 115.668
863.581, 2.529
864.848, 19.864
866.115, 36.757
867.382, 65.654
868.649, 123.969
869.915, 33.857
871.181, 78.738
872.447, 182.600
873.712, 12.560
874.978, 154.118
876.243, 78.763
877.508, 69.864
878.772, 84.400
880.037, 61.854
881.301, 145.224
882.565, 79.504
883.829, 11.971
885.092, 92.029
886.356, 58.986
887.619, 15.837
888.882, 76.557
890.144, 34.321
891.407, 79.827
892.669, 64.219
893.931, 36.367
895.193, 86.539
896.455, 48.396
897.716, 110.998
898.977, 55.286
900.238, 59.481
901.499, 130.567
902.759, 25.543
904.020, 116.943
905.280, 65.688
906.539, 70.327
907.799, 150.610
909.058, 30.209
910.318, 87.691
911.577, 124.066
912.835, 104.334
914.094, 146.708
915.352, 166.971
916.610, 144.462
917.868, 114.676
919.126, 54.166
920.383, 110.106
921.640, 114.932
922.897, 42.471
924.154, 171.204
925.410, 121.830
926.667, 79.455
927.923, 143.617
929.179, 137.007
930.434, 194.148
931.690, 59.145
932.945, 99.254
934.200, 55.931
935.455, 0.542
936.709, 33.205
937.964, 22.002
939.218, 36.108
940.472, 83.214
941.725, 49.802
942.979, 108.497
944.232, 123.969
945.485, 18.246
946.738, 83.434
947.991, 144.882
949.243, 37.103
950.495, 150.091
951.747, 14.153
952.999, 118.088
954.250, 6.101
955.502, 61.613
956.753, 116.966
958.003, 80.716
959.254, 191.689
960.504, 5.545
961.755, 20.817
963.005, 160.968
964.254, 6.918
965.504, 56.548
966.753, 115.103
968.002, 21.507
969.251, 174.774
970.500, 100.918
971.748, 83.689
972.997, 34.641
974.245, 43.585
975.492, 125.867
976.740, 105.289
977.987, 140.708
979.234, 130.127
980.481, 131.808
981.728, 193.395
982.975, 139.948
984.221, 144.034
985.467, 156.916
986.713, 193.902
987.958, 177.090
989.204, 259.411
990.449, 152.879
991.694, 288.716
992.939, 218.724
994.183, 212.357
995.428, 258.802
996.672, 135.474
997.916, 267.380
999.159, 230.177
1000.403, 143.672
1001.646, 198.426
1002.889, 201.447
1004.132, 210.763
1005.374, 126.354
1006.617, 79.663
1007.859, 107.811
1009.101, 210.241
1010.343, 84.894
1011.584, 107.888
1012.825, 35.166
1014.067, 30.950
1015.307, 48.020
1016.548, 35.377
1017.788, 9.978
1019.029, 46.905
1020.269, 45.076
1021.508, 155.534
1022.748, 225.279
1023.987, 107.311
1025.227, 28.372
1026.466, 113.063
1027.704, 46.783
1028.943, 23.210
1030.181, 114.948
1031.419, 134.391
1032.657, 91.120
1033.895, 41.127
1035.132, 65.409
1036.369, 169.968
1037.606, 141.171
1038.843, 41.297
1040.080, 115.697
1041.316, 51.370
1042.552, 59.313
1043.788, 76.525
1045.024, 88.568
1046.259, 107.323
1047.495, 93.410
1048.730, 54.831
1049.964, 181.460
1051.199, 14.363
1052.433, 50.530
1053.668, 145.957
1054.902, 44.641
1056.135, 133.054
1057.369, 15.264
1058.602, 33.716
1059.836, 178.404
1061.068, 72.321
1062.301, 218.462
1063.534, 106.879
1064.766, 44.592
1065.998, 87.261
1067.230, 21.388
1068.462, 91.763
1069.693, 178.431
1070.924, 66.122
1072.155, 137.983
1073.386, 164.990
1074.617, 6.843
1075.847, 213.462
1077.077, 104.914
1078.307, 77.406
1079.537, 186.020
1080.766, 0.744
1081.996, 103.254
1083.225, 56.192
1084.454, 13.773
1085.682, 216.523
1086.911, 85.363
1088.139, 137.959
1089.367, 122.463
1090.595, 52.772
1091.822, 115.679
1093.050, 97.222
1094.277, 37.888
1095.504, 28.591
1096.731, 96.446
1097.957, 106.880
1099.184, 109.179
1100.410, 4.781
1101.636, 111.336
1102.861, 129.031
1104.087, 46.122
1105.312, 191.063
1106.537, 4.471
1107.762, 0.000
##END=



