##NAMES=Chalcocite
##RRUFFID=R050067
##IDEAL CHEMISTRY=Cu^1+^_2_S^2-^
##LOCALITY=Flambeau, Rusk County, Wisconsin, USA
##OWNER=RRUFF
##SOURCE=Rock Currier
##DESCRIPTION=Iridescent blue irregular hexagonal tablet
##STATUS=The identification of this mineral has been confirmed by X-ray diffraction and chemical analysis
##URL=rruff.info/R050067
##MEASURED CHEMISTRY=Cu_2.00_S_1.00_
200.5686, 4985.575
201.0508, 5003.866
201.5329, 5024.854
202.0150, 5040.540
202.4971, 5048.746
202.9792, 5052.323
203.4613, 5056.458
203.9435, 5064.575
204.4256, 5064.957
204.9077, 5045.730
205.3898, 5027.580
205.8719, 5026.990
206.3540, 5046.067
206.8362, 5072.241
207.3183, 5088.427
207.8004, 5090.424
208.2825, 5092.422
208.7646, 5095.237
209.2467, 5097.565
209.7289, 5099.060
210.2110, 5099.443
210.6931, 5097.975
211.1752, 5091.621
211.6573, 5075.099
212.1395, 5073.913
212.6216, 5106.960
213.1037, 5138.167
213.5858, 5146.480
214.0679, 5134.189
214.5500, 5118.997
215.0322, 5118.707
215.5143, 5135.835
215.9964, 5151.404
216.4785, 5162.132
216.9606, 5174.424
217.4427, 5193.978
217.9249, 5217.878
218.4070, 5238.129
218.8891, 5247.694
219.3712, 5246.304
219.8533, 5243.911
220.3354, 5240.485
220.8176, 5235.983
221.2997, 5226.991
221.7818, 5216.918
222.2639, 5212.404
222.7460, 5218.675
223.2281, 5234.736
223.7103, 5249.404
224.1924, 5265.988
224.6745, 5277.063
225.1566, 5278.193
225.6387, 5273.481
226.1208, 5268.124
226.6030, 5264.658
227.0851, 5263.861
227.5672, 5269.330
228.0493, 5286.883
228.5314, 5303.278
229.0135, 5317.475
229.4957, 5328.917
229.9778, 5337.102
230.4599, 5341.800
230.9420, 5343.202
231.4241, 5341.782
231.9062, 5337.583
232.3884, 5329.965
232.8705, 5314.057
233.3526, 5297.849
233.8347, 5286.466
234.3168, 5281.940
234.7989, 5286.004
235.2811, 5305.165
235.7632, 5353.293
236.2453, 5383.017
236.7274, 5375.390
237.2095, 5361.087
237.6916, 5361.950
238.1738, 5381.397
238.6559, 5405.802
239.1380, 5417.786
239.6201, 5413.540
240.1022, 5410.904
240.5843, 5408.150
241.0665, 5409.034
241.5486, 5418.225
242.0307, 5434.207
242.5128, 5449.662
242.9949, 5457.674
243.4770, 5457.820
243.9592, 5455.548
244.4413, 5449.297
244.9234, 5441.831
245.4055, 5429.297
245.8876, 5415.816
246.3697, 5411.709
246.8519, 5428.653
247.3340, 5463.096
247.8161, 5481.638
248.2982, 5474.621
248.7803, 5463.426
249.2624, 5454.025
249.7446, 5446.141
250.2267, 5437.907
250.7088, 5426.034
251.1909, 5415.597
251.6730, 5424.759
252.1551, 5469.109
252.6373, 5501.039
253.1194, 5495.992
253.6015, 5475.941
254.0836, 5464.174
254.5657, 5469.617
255.0478, 5484.176
255.5300, 5497.195
256.0121, 5510.246
256.4942, 5515.452
256.9763, 5496.920
257.4584, 5477.460
257.9406, 5476.820
258.4227, 5499.685
258.9048, 5526.887
259.3869, 5539.717
259.8690, 5537.827
260.3511, 5528.184
260.8333, 5496.757
261.3154, 5472.024
261.7975, 5479.543
262.2796, 5518.056
262.7617, 5556.756
263.2438, 5575.834
263.7260, 5576.891
264.2081, 5566.944
264.6902, 5538.152
265.1723, 5511.670
265.6544, 5504.187
266.1365, 5511.520
266.6187, 5520.564
267.1008, 5522.387
267.5829, 5522.235
268.0650, 5533.037
268.5471, 5558.259
269.0292, 5583.997
269.5114, 5604.217
269.9935, 5618.051
270.4756, 5621.616
270.9577, 5605.268
271.4398, 5585.306
271.9219, 5583.709
272.4041, 5601.163
272.8862, 5612.861
273.3683, 5602.645
273.8504, 5580.420
274.3325, 5565.743
274.8146, 5560.773
275.2968, 5561.060
275.7789, 5566.536
276.2610, 5575.613
276.7431, 5581.601
277.2252, 5581.572
277.7073, 5578.087
278.1895, 5573.889
278.6716, 5567.188
279.1537, 5567.004
279.6358, 5582.927
280.1179, 5606.101
280.6000, 5621.201
281.0822, 5624.619
281.5643, 5621.486
282.0464, 5615.791
282.5285, 5607.015
283.0106, 5602.723
283.4927, 5610.581
283.9749, 5618.973
284.4570, 5613.244
284.9391, 5593.738
285.4212, 5578.610
285.9033, 5584.185
286.3854, 5610.259
286.8676, 5628.721
287.3497, 5635.042
287.8318, 5638.945
288.3139, 5645.202
288.7960, 5652.908
289.2781, 5658.978
289.7603, 5661.646
290.2424, 5661.504
290.7245, 5660.920
291.2066, 5659.662
291.6887, 5658.281
292.1708, 5654.729
292.6530, 5651.854
293.1351, 5655.045
293.6172, 5665.994
294.0993, 5678.506
294.5814, 5681.350
295.0635, 5668.195
295.5457, 5656.663
296.0278, 5641.773
296.5099, 5631.930
296.9920, 5633.743
297.4741, 5647.481
297.9562, 5669.582
298.4384, 5699.447
298.9205, 5741.496
299.4026, 5759.774
299.8847, 5730.442
300.3668, 5701.920
300.8489, 5690.740
301.3311, 5693.415
301.8131, 5699.937
302.2953, 5704.277
302.7774, 5706.536
303.2595, 5707.341
303.7416, 5707.912
304.2237, 5704.807
304.7058, 5692.168
305.1880, 5678.142
305.6701, 5670.208
306.1522, 5671.002
306.6343, 5681.208
307.1164, 5707.236
307.5985, 5757.871
308.0807, 5791.039
308.5628, 5784.668
309.0449, 5768.228
309.5270, 5756.369
310.0091, 5751.125
310.4912, 5749.358
310.9734, 5749.035
311.4555, 5750.080
311.9376, 5752.216
312.4197, 5757.984
312.9018, 5760.900
313.3839, 5755.624
313.8661, 5744.599
314.3482, 5734.133
314.8303, 5725.934
315.3124, 5720.515
315.7945, 5719.699
316.2766, 5724.227
316.7588, 5729.082
317.2409, 5732.459
317.7230, 5734.068
318.2051, 5733.770
318.6872, 5732.664
319.1693, 5727.663
319.6515, 5709.794
320.1336, 5683.877
320.6157, 5672.734
321.0978, 5687.592
321.5799, 5715.173
322.0620, 5735.342
322.5442, 5747.676
323.0263, 5757.958
323.5084, 5772.366
323.9905, 5783.749
324.4726, 5776.744
324.9547, 5748.934
325.4369, 5726.094
325.9190, 5737.239
326.4011, 5786.847
326.8832, 5812.050
327.3653, 5787.752
327.8474, 5763.145
328.3296, 5771.161
328.8117, 5803.078
329.2938, 5829.467
329.7759, 5833.101
330.2580, 5818.117
330.7401, 5803.092
331.2223, 5773.233
331.7044, 5761.779
332.1865, 5793.062
332.6686, 5834.900
333.1507, 5847.664
333.6328, 5820.979
334.1150, 5782.162
334.5971, 5773.331
335.0792, 5809.436
335.5613, 5835.521
336.0434, 5855.496
336.5255, 5863.471
337.0077, 5850.559
337.4898, 5821.602
337.9719, 5789.748
338.4540, 5762.780
338.9361, 5741.926
339.4182, 5740.079
339.9004, 5774.020
340.3825, 5802.488
340.8646, 5811.451
341.3467, 5809.460
341.8288, 5807.495
342.3109, 5809.964
342.7931, 5812.497
343.2752, 5806.340
343.7573, 5789.377
344.2394, 5778.881
344.7215, 5781.737
345.2036, 5790.750
345.6858, 5801.128
346.1679, 5812.519
346.6500, 5823.751
347.1321, 5838.153
347.6142, 5851.805
348.0963, 5852.155
348.5785, 5835.061
349.0606, 5813.469
349.5427, 5790.700
350.0248, 5770.701
350.5069, 5767.611
350.9890, 5802.784
351.4712, 5840.837
351.9533, 5846.322
352.4354, 5826.018
352.9175, 5818.724
353.3996, 5848.306
353.8817, 5895.673
354.3639, 5907.195
354.8460, 5865.567
355.3281, 5832.998
355.8102, 5826.121
356.2923, 5834.214
356.7744, 5847.609
357.2566, 5863.581
357.7387, 5879.016
358.2208, 5890.999
358.7029, 5900.153
359.1850, 5901.277
359.6671, 5885.337
360.1493, 5871.550
360.6314, 5873.215
361.1135, 5883.624
361.5956, 5885.972
362.0777, 5869.279
362.5598, 5840.921
363.0420, 5828.578
363.5241, 5845.838
364.0062, 5857.729
364.4883, 5856.302
364.9704, 5850.792
365.4525, 5850.550
365.9347, 5856.880
366.4168, 5861.480
366.8989, 5849.579
367.3810, 5818.925
367.8631, 5809.659
368.3452, 5842.323
368.8274, 5874.197
369.3095, 5881.791
369.7916, 5872.014
370.2737, 5861.618
370.7558, 5855.697
371.2379, 5855.871
371.7201, 5870.019
372.2022, 5900.652
372.6843, 5919.990
373.1664, 5906.356
373.6485, 5880.609
374.1306, 5875.889
374.6128, 5898.691
375.0949, 5922.572
375.5770, 5933.624
376.0591, 5936.040
376.5412, 5937.975
377.0233, 5941.142
377.5055, 5943.488
377.9876, 5943.705
378.4697, 5941.632
378.9518, 5933.511
379.4339, 5908.080
379.9160, 5886.683
380.3982, 5885.922
380.8803, 5900.261
381.3624, 5914.146
381.8445, 5919.631
382.3266, 5917.302
382.8087, 5908.571
383.2909, 5878.091
383.7730, 5862.000
384.2551, 5868.940
384.7372, 5885.184
385.2193, 5903.593
385.7014, 5920.761
386.1836, 5931.280
386.6657, 5926.392
387.1478, 5904.598
387.6299, 5897.158
388.1120, 5921.055
388.5941, 5939.929
389.0763, 5934.873
389.5584, 5918.868
390.0405, 5913.981
390.5226, 5931.880
391.0047, 5958.073
391.4868, 5969.165
391.9690, 5963.620
392.4511, 5956.877
392.9332, 5950.117
393.4153, 5946.398
393.8974, 5950.582
394.3795, 5962.510
394.8617, 5970.819
395.3438, 5965.913
395.8259, 5955.227
396.3080, 5952.073
396.7901, 5957.976
397.2722, 5964.536
397.7544, 5966.382
398.2365, 5963.865
398.7186, 5960.287
399.2007, 5950.096
399.6828, 5945.038
400.1649, 5954.757
400.6471, 5971.427
401.1292, 5983.094
401.6113, 5985.866
402.0934, 5980.132
402.5755, 5963.942
403.0576, 5925.793
403.5398, 5914.354
404.0219, 5955.264
404.5040, 5995.144
404.9861, 6004.777
405.4682, 5990.146
405.9503, 5971.076
406.4325, 5959.522
406.9146, 5954.181
407.3967, 5950.456
407.8788, 5946.952
408.3609, 5948.192
408.8430, 5958.173
409.3252, 5970.759
409.8073, 5983.686
410.2894, 5995.840
410.7715, 6001.537
411.2536, 5986.569
411.7357, 5958.054
412.2179, 5958.997
412.7000, 6006.439
413.1821, 6048.908
413.6642, 6035.409
414.1463, 5992.419
414.6284, 5973.984
415.1106, 6012.897
415.5927, 6050.982
416.0748, 6035.488
416.5569, 5983.176
417.0390, 5946.625
417.5211, 5944.769
418.0033, 5961.442
418.4854, 5973.323
418.9675, 5977.835
419.4496, 5986.434
419.9317, 6008.768
420.4138, 6027.592
420.8960, 6026.103
421.3781, 6009.821
421.8602, 5998.499
422.3423, 6005.352
422.8244, 6026.049
423.3065, 6042.042
423.7887, 6053.204
424.2708, 6059.340
424.7529, 6055.125
425.2350, 6049.946
425.7171, 6052.321
426.1992, 6062.933
426.6814, 6075.103
427.1635, 6085.193
427.6456, 6092.643
428.1277, 6087.125
428.6098, 6058.089
429.0919, 6036.526
429.5741, 6047.471
430.0562, 6073.386
430.5383, 6087.595
431.0204, 6079.564
431.5025, 6067.917
431.9846, 6069.542
432.4668, 6080.613
432.9489, 6087.760
433.4310, 6087.706
433.9131, 6082.300
434.3952, 6072.091
434.8773, 6056.370
435.3595, 6044.351
435.8416, 6039.083
436.3237, 6035.398
436.8058, 6026.126
437.2879, 6015.724
437.7701, 6018.015
438.2522, 6041.147
438.7343, 6074.142
439.2164, 6087.906
439.6985, 6064.178
440.1806, 6053.678
440.6628, 6071.211
441.1449, 6089.282
441.6270, 6086.974
442.1091, 6067.312
442.5912, 6048.799
443.0733, 6045.104
443.5555, 6053.545
444.0376, 6064.836
444.5197, 6080.688
445.0018, 6094.668
445.4839, 6109.247
445.9660, 6117.994
446.4482, 6109.225
446.9303, 6078.437
447.4124, 6054.970
447.8945, 6064.356
448.3766, 6092.335
448.8587, 6110.802
449.3409, 6116.195
449.8230, 6110.329
450.3051, 6089.732
450.7872, 6057.344
451.2693, 6041.632
451.7514, 6047.702
452.2336, 6062.972
452.7157, 6094.456
453.1978, 6128.692
453.6799, 6146.410
454.1620, 6142.339
454.6441, 6125.348
455.1263, 6104.277
455.6084, 6075.685
456.0905, 6062.661
456.5726, 6078.613
457.0547, 6097.270
457.5368, 6116.712
458.0190, 6132.258
458.5011, 6135.639
458.9832, 6121.685
459.4653, 6102.589
459.9474, 6096.344
460.4295, 6103.165
460.9117, 6109.121
461.3938, 6108.881
461.8759, 6110.902
462.3580, 6128.343
462.8401, 6156.970
463.3222, 6173.236
463.8044, 6159.913
464.2865, 6140.146
464.7686, 6136.708
465.2507, 6145.505
465.7328, 6147.071
466.2149, 6131.324
466.6971, 6109.761
467.1792, 6104.960
467.6613, 6124.735
468.1434, 6146.375
468.6255, 6181.451
469.1076, 6208.455
469.5898, 6208.051
470.0719, 6187.121
470.5540, 6166.826
471.0361, 6160.471
471.5182, 6163.703
472.0003, 6163.088
472.4825, 6155.513
472.9646, 6152.627
473.4467, 6164.603
473.9288, 6176.521
474.4109, 6177.492
474.8930, 6167.821
475.3752, 6157.140
475.8573, 6152.367
476.3394, 6149.552
476.8215, 6138.625
477.3036, 6119.294
477.7857, 6108.792
478.2679, 6118.279
478.7500, 6139.958
479.2321, 6155.432
479.7142, 6163.903
480.1963, 6169.354
480.6784, 6170.983
481.1606, 6170.949
481.6427, 6172.189
482.1248, 6174.151
482.6069, 6171.857
483.0890, 6160.009
483.5711, 6142.508
484.0533, 6142.345
484.5354, 6177.810
485.0175, 6200.425
485.4996, 6192.783
485.9817, 6178.616
486.4638, 6179.260
486.9460, 6195.464
487.4281, 6209.139
487.9102, 6200.653
488.3923, 6179.025
488.8744, 6175.501
489.3565, 6194.580
489.8387, 6205.974
490.3208, 6185.864
490.8029, 6152.996
491.2850, 6148.325
491.7671, 6183.899
492.2492, 6212.292
492.7314, 6207.864
493.2135, 6193.204
493.6956, 6196.263
494.1777, 6217.938
494.6598, 6240.176
495.1419, 6250.482
495.6241, 6248.678
496.1062, 6232.572
496.5883, 6172.264
497.0704, 6140.817
497.5525, 6170.227
498.0346, 6212.691
498.5168, 6227.785
498.9989, 6212.126
499.4810, 6189.978
499.9631, 6179.541
500.4452, 6178.651
500.9273, 6179.688
501.4095, 6182.737
501.8916, 6187.521
502.3737, 6195.457
502.8558, 6204.193
503.3379, 6209.847
503.8200, 6211.631
504.3022, 6213.303
504.7843, 6213.155
505.2664, 6215.402
505.7485, 6229.632
506.2306, 6253.747
506.7127, 6269.838
507.1949, 6264.526
507.6770, 6243.783
508.1591, 6233.903
508.6412, 6244.963
509.1233, 6252.455
509.6054, 6250.799
510.0876, 6248.557
510.5697, 6258.255
511.0518, 6275.513
511.5339, 6278.217
512.0161, 6240.055
512.4982, 6182.616
512.9803, 6171.122
513.4624, 6214.213
513.9445, 6251.668
514.4266, 6262.968
514.9088, 6257.819
515.3909, 6246.535
515.8730, 6228.000
516.3551, 6217.192
516.8372, 6230.125
517.3193, 6244.269
517.8015, 6229.457
518.2836, 6194.153
518.7657, 6178.963
519.2478, 6207.850
519.7299, 6258.887
520.2120, 6278.132
520.6942, 6238.139
521.1763, 6218.788
521.6584, 6234.481
522.1405, 6254.792
522.6226, 6265.795
523.1047, 6267.808
523.5869, 6263.881
524.0690, 6252.241
524.5511, 6243.020
525.0332, 6261.037
525.5153, 6305.990
525.9974, 6328.291
526.4796, 6310.982
526.9617, 6275.848
527.4438, 6233.456
527.9259, 6186.521
528.4080, 6172.676
528.8901, 6234.516
529.3723, 6294.013
529.8544, 6297.095
530.3365, 6266.039
530.8186, 6244.951
531.3007, 6248.935
531.7828, 6265.400
532.2650, 6278.226
532.7471, 6287.854
533.2292, 6291.278
533.7113, 6284.043
534.1934, 6275.404
534.6755, 6261.970
535.1577, 6251.200
535.6398, 6256.907
536.1219, 6285.082
536.6040, 6310.496
537.0861, 6304.097
537.5682, 6275.854
538.0504, 6257.834
538.5325, 6254.289
539.0146, 6256.969
539.4967, 6259.274
539.9788, 6263.279
540.4609, 6278.854
540.9431, 6328.347
541.4252, 6357.864
541.9073, 6340.167
542.3894, 6308.265
542.8715, 6292.539
543.3536, 6296.041
543.8358, 6306.170
544.3179, 6313.884
544.8000, 6319.125
545.2821, 6321.903
545.7642, 6322.954
546.2463, 6319.382
546.7285, 6301.307
547.2106, 6285.304
547.6927, 6285.569
548.1748, 6301.507
548.6569, 6320.054
549.1390, 6345.585
549.6211, 6363.733
550.1032, 6352.534
550.5853, 6317.996
551.0674, 6284.637
551.5496, 6260.655
552.0317, 6249.373
552.5138, 6257.859
552.9959, 6295.104
553.4780, 6321.878
553.9601, 6334.414
554.4423, 6342.254
554.9244, 6352.966
555.4065, 6360.375
555.8886, 6349.907
556.3707, 6315.504
556.8528, 6281.696
557.3350, 6283.778
557.8171, 6316.466
558.2992, 6335.449
558.7813, 6333.638
559.2634, 6327.828
559.7455, 6329.216
560.2277, 6334.905
560.7098, 6334.941
561.1919, 6321.847
561.6740, 6316.062
562.1561, 6334.385
562.6382, 6356.837
563.1204, 6358.037
563.6025, 6339.242
564.0846, 6323.833
564.5667, 6330.116
565.0488, 6350.662
565.5309, 6354.375
566.0131, 6331.272
566.4952, 6316.598
566.9773, 6323.505
567.4594, 6335.114
567.9415, 6341.468
568.4236, 6343.114
568.9058, 6345.169
569.3879, 6348.864
569.8700, 6354.753
570.3521, 6366.125
570.8342, 6380.521
571.3163, 6388.951
571.7985, 6388.368
572.2806, 6384.433
572.7627, 6385.153
573.2448, 6392.402
573.7269, 6386.187
574.2090, 6346.128
574.6912, 6317.519
575.1733, 6321.077
575.6554, 6337.020
576.1375, 6341.514
576.6196, 6330.018
577.1017, 6318.402
577.5839, 6319.137
578.0660, 6331.272
578.5481, 6359.173
579.0302, 6406.997
579.5123, 6431.509
579.9944, 6402.037
580.4766, 6347.285
580.9587, 6325.009
581.4408, 6342.885
581.9229, 6353.538
582.4050, 6341.066
582.8871, 6328.042
583.3693, 6331.484
583.8514, 6346.085
584.3335, 6358.486
584.8156, 6362.531
585.2977, 6361.807
585.7798, 6359.317
586.2620, 6353.946
586.7441, 6361.735
587.2262, 6392.479
587.7083, 6421.693
588.1904, 6434.632
588.6725, 6437.159
589.1547, 6438.327
589.6368, 6440.413
590.1189, 6438.336
590.6010, 6424.567
591.0831, 6408.001
591.5652, 6400.969
592.0474, 6403.447
592.5295, 6407.509
593.0116, 6408.146
593.4937, 6406.008
593.9758, 6402.829
594.4579, 6397.633
594.9401, 6393.760
595.4222, 6395.137
595.9043, 6394.537
596.3864, 6383.542
596.8685, 6367.783
597.3506, 6362.040
597.8328, 6375.088
598.3149, 6393.352
598.7970, 6408.335
599.2791, 6418.683
599.7612, 6420.660
600.2433, 6413.542
600.7255, 6398.663
601.2076, 6374.349
601.6897, 6343.445
602.1718, 6329.381
602.6539, 6349.251
603.1360, 6363.073
603.6182, 6362.813
604.1003, 6359.531
604.5824, 6366.277
605.0645, 6378.991
605.5466, 6377.351
606.0287, 6338.722
606.5109, 6294.360
606.9930, 6297.086
607.4751, 6341.111
607.9572, 6381.145
608.4393, 6406.888
608.9214, 6423.366
609.4036, 6436.092
609.8857, 6444.995
610.3678, 6442.158
610.8499, 6415.986
611.3320, 6393.963
611.8141, 6381.340
612.2963, 6376.539
612.7784, 6380.809
613.2605, 6392.215
613.7426, 6402.992
614.2247, 6406.387
614.7068, 6405.736
615.1890, 6409.630
615.6711, 6418.290
616.1532, 6427.514
616.6353, 6438.659
617.1174, 6445.171
617.5995, 6435.750
618.0817, 6409.980
618.5638, 6396.084
619.0459, 6405.271
619.5280, 6414.789
620.0101, 6416.527
620.4922, 6413.335
620.9744, 6406.359
621.4565, 6397.500
621.9386, 6394.224
622.4207, 6406.516
622.9028, 6428.371
623.3849, 6433.571
623.8671, 6418.462
624.3492, 6408.786
624.8313, 6417.027
625.3134, 6428.555
625.7955, 6422.229
626.2776, 6399.282
626.7598, 6386.454
627.2419, 6391.991
627.7240, 6403.531
628.2061, 6417.236
628.6882, 6432.080
629.1703, 6448.382
629.6525, 6465.409
630.1346, 6479.112
630.6167, 6485.857
631.0988, 6485.760
631.5809, 6479.209
632.0630, 6465.465
632.5452, 6447.147
633.0273, 6417.153
633.5094, 6390.528
633.9915, 6384.523
634.4736, 6398.168
634.9557, 6417.462
635.4379, 6455.013
635.9200, 6481.318
636.4021, 6468.142
636.8842, 6437.138
637.3663, 6424.883
637.8484, 6438.492
638.3306, 6454.144
638.8127, 6445.812
639.2948, 6419.272
639.7769, 6412.364
640.2590, 6431.819
640.7411, 6446.779
641.2233, 6445.789
641.7054, 6439.217
642.1875, 6437.133
642.6696, 6439.286
643.1517, 6443.052
643.6339, 6448.613
644.1160, 6454.882
644.5981, 6465.114
645.0802, 6474.155
645.5623, 6471.917
646.0444, 6457.640
646.5266, 6442.610
647.0087, 6438.299
647.4908, 6441.479
647.9729, 6435.358
648.4550, 6416.528
648.9371, 6401.812
649.4193, 6392.622
649.9014, 6392.309
650.3835, 6411.063
650.8656, 6444.790
651.3477, 6463.819
651.8298, 6453.090
652.3120, 6438.217
652.7941, 6426.035
653.2762, 6419.368
653.7583, 6423.045
654.2404, 6436.860
654.7225, 6455.904
655.2047, 6477.862
655.6868, 6499.782
656.1689, 6511.192
656.6510, 6511.109
657.1331, 6505.750
657.6152, 6492.617
658.0974, 6480.058
658.5795, 6481.362
659.0616, 6491.351
659.5437, 6485.586
660.0258, 6436.822
660.5079, 6403.145
660.9901, 6413.993
661.4722, 6443.463
661.9543, 6469.792
662.4364, 6487.550
662.9185, 6494.298
663.4006, 6486.706
663.8828, 6471.948
664.3649, 6466.831
664.8470, 6471.808
665.3291, 6470.875
665.8112, 6459.548
666.2933, 6446.627
666.7755, 6437.210
667.2576, 6431.640
667.7397, 6430.463
668.2218, 6434.689
668.7039, 6441.577
669.1860, 6448.345
669.6682, 6459.411
670.1503, 6490.150
670.6324, 6528.067
671.1145, 6537.158
671.5966, 6496.868
672.0787, 6441.573
672.5609, 6415.327
673.0430, 6416.633
673.5251, 6441.343
674.0072, 6494.771
674.4893, 6538.740
674.9714, 6551.740
675.4536, 6539.089
675.9357, 6511.844
676.4178, 6452.240
676.8999, 6417.128
677.3820, 6421.091
677.8641, 6436.464
678.3463, 6457.094
678.8284, 6476.435
679.3105, 6485.820
679.7926, 6482.489
680.2747, 6472.481
680.7568, 6455.411
681.2390, 6437.366
681.7211, 6434.836
682.2032, 6447.811
682.6853, 6465.653
683.1674, 6486.427
683.6495, 6500.723
684.1317, 6490.284
684.6138, 6445.474
685.0959, 6427.309
685.5780, 6453.627
686.0601, 6485.444
686.5422, 6527.783
687.0244, 6562.422
687.5065, 6564.755
687.9886, 6534.826
688.4707, 6506.523
688.9528, 6506.006
689.4349, 6511.586
689.9171, 6491.519
690.3992, 6456.956
690.8813, 6442.957
691.3634, 6458.796
691.8455, 6485.914
692.3276, 6507.459
692.8098, 6522.972
693.2919, 6526.839
693.7740, 6513.291
694.2561, 6500.765
694.7382, 6489.848
695.2203, 6483.595
695.7025, 6488.063
696.1846, 6499.513
696.6667, 6503.812
697.1488, 6491.888
697.6309, 6480.507
