##NAMES=Chalcomenite
##RRUFFID=R100123
##IDEAL CHEMISTRY=Cu^2+^Se^4+^O_3_&#183;2H_2_O
##LOCALITY=Baccu Locci mine, Villaputen, Sardinia
##OWNER=RRUFF
##SOURCE=William W. Pinch
##DESCRIPTION=Blue tabular crystals associated with colorless bladed orlandiite, R100122, and colorless anglesite.
##STATUS=The identification of this mineral has been confirmed only by single crystal X-ray diffraction.
##URL=rruff.info/R100123
127.1939, 8.444032
127.6761, 9.462296
128.1582, 10.69410
128.6403, 11.42914
129.1224, 11.71963
129.6045, 11.81753
130.0867, 11.76070
130.5688, 11.60800
131.0509, 11.52422
131.5330, 11.49124
132.0151, 11.59894
132.4972, 12.09082
132.9794, 12.96757
133.4615, 13.85625
133.9436, 14.50489
134.4257, 14.93018
134.9078, 15.20919
135.3899, 15.18782
135.8721, 15.15414
136.3542, 16.04374
136.8363, 17.99708
137.3184, 20.25917
137.8005, 22.24601
138.2826, 23.95095
138.7648, 25.50293
139.2469, 26.69165
139.7290, 27.69479
140.2111, 29.85461
140.6932, 33.51868
141.1753, 37.72850
141.6575, 41.62206
142.1396, 45.29366
142.6217, 48.47748
143.1038, 50.99439
143.5859, 52.82650
144.0681, 54.79370
144.5502, 56.90623
145.0323, 59.15900
145.5144, 61.65091
145.9965, 64.77515
146.4786, 67.49844
146.9608, 69.40097
147.4429, 70.24632
147.9250, 71.42530
148.4071, 73.25063
148.8892, 75.29745
149.3713, 76.88493
149.8535, 77.20647
150.3356, 77.88636
150.8177, 79.48153
151.2998, 82.69678
151.7819, 85.29846
152.2640, 86.71035
152.7462, 87.57342
153.2283, 89.00496
153.7104, 91.74384
154.1925, 94.51450
154.6746, 96.87648
155.1567, 98.70946
155.6389, 100.2252
156.1210, 101.1832
156.6031, 101.8269
157.0852, 102.7666
157.5673, 104.7042
158.0495, 106.5548
158.5316, 107.7802
159.0137, 107.9366
159.4958, 107.9438
159.9779, 107.7860
160.4600, 107.6081
160.9422, 107.8837
161.4243, 108.7489
161.9064, 110.1342
162.3885, 112.0268
162.8706, 115.0824
163.3527, 117.9047
163.8349, 119.5129
164.3170, 120.2289
164.7991, 121.5910
165.2812, 124.7629
165.7633, 128.7168
166.2454, 132.5186
166.7276, 135.5326
167.2097, 138.6350
167.6918, 142.4862
168.1739, 146.9808
168.6560, 151.5284
169.1381, 155.9701
169.6203, 160.1514
170.1024, 162.8643
170.5845, 164.4443
171.0666, 165.8443
171.5487, 167.3028
172.0309, 168.8182
172.5130, 170.4586
172.9951, 172.3410
173.4772, 174.3657
173.9593, 176.3848
174.4414, 178.1372
174.9236, 179.9503
175.4057, 181.9686
175.8878, 184.1959
176.3699, 187.0741
176.8520, 191.4601
177.3341, 196.7992
177.8163, 201.9097
178.2984, 206.1754
178.7805, 209.9175
179.2626, 213.5938
179.7447, 217.1550
180.2268, 220.5837
180.7090, 223.6579
181.1911, 226.5042
181.6732, 229.4874
182.1553, 232.5230
182.6374, 235.8318
183.1195, 239.9188
183.6017, 244.9271
184.0838, 250.2272
184.5659, 256.0727
185.0480, 262.0459
185.5301, 266.2464
186.0123, 268.7003
186.4944, 268.7759
186.9765, 263.5794
187.4586, 252.2787
187.9407, 238.3814
188.4228, 225.7945
188.9050, 214.5806
189.3871, 205.0540
189.8692, 197.3968
190.3513, 191.6227
190.8334, 187.9874
191.3155, 186.8041
191.7977, 187.0141
192.2798, 187.1410
192.7619, 187.1864
193.2440, 187.2700
193.7261, 187.2331
194.2082, 187.1488
194.6904, 187.9780
195.1725, 189.9417
195.6546, 192.4962
196.1367, 194.5425
196.6188, 196.0513
197.1009, 197.5956
197.5831, 199.6006
198.0652, 202.0800
198.5473, 204.2129
199.0294, 206.0012
199.5115, 207.3611
199.9937, 208.0348
200.4758, 207.9529
200.9579, 207.5930
201.4400, 207.2954
201.9221, 207.1038
202.4042, 206.2666
202.8864, 204.5294
203.3685, 202.3359
203.8506, 200.8255
204.3327, 200.1951
204.8148, 199.5006
205.2969, 198.1102
205.7791, 195.8791
206.2612, 193.9811
206.7433, 192.4385
207.2254, 191.2954
207.7075, 190.7644
208.1896, 191.0127
208.6718, 191.3831
209.1539, 191.3892
209.6360, 190.8241
210.1181, 191.0249
210.6002, 192.3540
211.0823, 194.3340
211.5645, 195.5091
212.0466, 195.5220
212.5287, 195.5998
213.0108, 196.3762
213.4929, 197.9239
213.9750, 199.9001
214.4572, 202.3349
214.9393, 205.1616
215.4214, 208.4005
215.9035, 212.4199
216.3856, 216.1280
216.8678, 218.7986
217.3499, 220.1773
217.8320, 221.5666
218.3141, 223.4413
218.7962, 225.2334
219.2783, 224.9660
219.7605, 221.9284
220.2426, 218.1191
220.7247, 214.5512
221.2068, 211.3022
221.6889, 208.0848
222.1710, 204.8720
222.6532, 201.6968
223.1353, 198.8064
223.6174, 196.3371
224.0995, 193.8795
224.5816, 191.2061
225.0637, 188.1356
225.5459, 185.2149
226.0280, 182.3203
226.5101, 179.6076
226.9922, 177.6884
227.4743, 176.8212
227.9564, 176.3082
228.4386, 175.8061
228.9207, 175.2474
229.4028, 174.8923
229.8849, 174.8314
230.3670, 174.9505
230.8492, 174.8788
231.3313, 174.3259
231.8134, 174.0196
232.2955, 174.3585
232.7776, 175.7293
233.2597, 176.8363
233.7419, 177.6021
234.2240, 178.1258
234.7061, 178.6178
235.1882, 178.9889
235.6703, 179.4680
236.1524, 180.1757
236.6346, 181.2207
237.1167, 182.2701
237.5988, 183.4603
238.0809, 184.6122
238.5630, 185.3008
239.0451, 185.3507
239.5273, 185.1852
240.0094, 184.9148
240.4915, 184.3666
240.9736, 184.1446
241.4557, 184.2299
241.9378, 184.6392
242.4200, 185.4780
242.9021, 187.1432
243.3842, 188.6283
243.8663, 189.5182
244.3484, 189.5920
244.8306, 189.7301
245.3127, 189.9736
245.7948, 190.2587
246.2769, 190.3889
246.7590, 189.9745
247.2411, 190.0764
247.7233, 191.2873
248.2054, 194.1898
248.6875, 195.9700
249.1696, 196.0932
249.6517, 195.4439
250.1338, 195.4482
250.6160, 196.3534
251.0981, 197.4733
251.5802, 198.5810
252.0623, 199.6399
252.5444, 200.9123
253.0265, 202.4120
253.5087, 204.1071
253.9908, 205.9806
254.4729, 208.2645
254.9550, 210.2831
255.4371, 211.7996
255.9192, 212.7349
256.4014, 213.6916
256.8835, 214.6097
257.3656, 215.6095
257.8477, 217.0124
258.3298, 219.3337
258.8120, 220.9077
259.2941, 221.3207
259.7762, 220.5371
260.2583, 219.0667
260.7404, 216.7423
261.2225, 213.9154
261.7047, 210.8780
262.1868, 207.6097
262.6689, 204.1179
263.1510, 200.1784
263.6331, 195.8530
264.1152, 192.2391
264.5974, 189.3962
265.0795, 187.2136
265.5616, 185.8759
266.0437, 185.8054
266.5258, 185.0700
267.0079, 183.0402
267.4901, 179.9263
267.9722, 177.8729
268.4543, 177.2659
268.9364, 176.9133
269.4185, 175.6376
269.9006, 173.0312
270.3828, 171.3181
270.8649, 170.9812
271.3470, 171.7707
271.8291, 172.5413
272.3112, 173.3079
272.7933, 174.0279
273.2755, 174.6835
273.7576, 175.2861
274.2397, 175.7350
274.7218, 176.0148
275.2039, 176.1261
275.6860, 175.9644
276.1682, 175.4023
276.6503, 175.0426
277.1324, 175.2991
277.6145, 176.2037
278.0966, 177.3114
278.5787, 178.6394
279.0609, 180.0967
279.5430, 181.5517
280.0251, 183.0241
280.5072, 184.3619
280.9893, 185.4096
281.4715, 186.1632
281.9536, 187.0841
282.4357, 188.2112
282.9178, 189.4725
283.3999, 190.8807
283.8820, 192.4601
284.3642, 193.6942
284.8463, 194.1333
285.3284, 193.8653
285.8105, 194.0785
286.2926, 194.9375
286.7747, 195.7540
287.2569, 195.5121
287.7390, 194.2391
288.2211, 192.7306
288.7032, 191.5490
289.1853, 190.4303
289.6674, 187.9655
290.1496, 183.9975
290.6317, 179.6689
291.1138, 176.3212
291.5959, 173.8065
292.0780, 171.1990
292.5602, 168.1247
293.0423, 164.7579
293.5244, 161.5788
294.0065, 158.6148
294.4886, 155.5647
294.9707, 151.7898
295.4529, 147.5835
295.9350, 144.1166
296.4171, 141.8496
296.8992, 140.2840
297.3813, 138.6173
297.8634, 136.8719
298.3456, 135.2180
298.8277, 133.8857
299.3098, 132.7508
299.7919, 131.5522
300.2740, 130.2462
300.7561, 128.8526
301.2383, 127.2902
301.7204, 125.6216
302.2025, 124.2414
302.6846, 123.4341
303.1667, 123.0491
303.6488, 122.9289
304.1310, 123.1531
304.6131, 123.3203
305.0952, 122.8475
305.5773, 121.9679
306.0594, 121.3140
306.5415, 121.5201
307.0237, 121.9679
307.5058, 121.9071
307.9879, 121.1896
308.4700, 120.5121
308.9521, 120.7586
309.4343, 121.3729
309.9164, 121.3862
310.3985, 119.3156
310.8806, 117.2076
311.3627, 116.9091
311.8448, 118.5169
312.3270, 120.1036
312.8091, 120.4402
313.2912, 120.1318
313.7733, 119.8934
314.2554, 120.1394
314.7375, 120.3802
315.2197, 120.2841
315.7018, 119.8977
316.1839, 119.6309
316.6660, 119.8870
317.1481, 120.2278
317.6302, 120.2875
318.1124, 119.7899
318.5945, 119.2381
319.0766, 118.7984
319.5587, 118.4380
320.0408, 118.0365
320.5229, 117.2078
321.0051, 116.5710
321.4872, 116.5541
321.9693, 117.7543
322.4514, 118.5720
322.9335, 118.4085
323.4156, 117.6686
323.8978, 117.1325
324.3799, 116.9308
324.8620, 116.9576
325.3441, 117.2866
325.8262, 118.1561
326.3083, 118.5798
326.7905, 118.0796
327.2726, 117.2231
327.7547, 116.7147
328.2368, 116.6971
328.7189, 116.9020
329.2010, 117.3709
329.6832, 118.1382
330.1653, 118.7469
330.6474, 119.1962
331.1295, 119.4873
331.6116, 119.5987
332.0938, 119.2580
332.5759, 119.1855
333.0580, 119.6278
333.5401, 120.4797
334.0222, 120.8582
334.5043, 120.3189
334.9865, 119.9219
335.4686, 120.3932
335.9507, 122.1901
336.4328, 123.6324
336.9149, 124.6510
337.3970, 125.2661
337.8792, 125.4018
338.3613, 124.8440
338.8434, 124.4177
339.3255, 124.5246
339.8076, 125.2336
340.2898, 126.0391
340.7719, 127.0762
341.2540, 127.9954
341.7361, 128.1976
342.2182, 127.6105
342.7003, 126.9583
343.1825, 126.3659
343.6646, 125.8882
344.1467, 126.0028
344.6288, 126.7787
345.1109, 127.8010
345.5930, 128.7758
346.0752, 129.6739
346.5573, 130.3110
347.0394, 130.5303
347.5215, 130.5606
348.0036, 130.9409
348.4857, 131.6636
348.9679, 132.4729
349.4500, 133.2210
349.9321, 133.9163
350.4142, 134.6234
350.8963, 135.4205
351.3784, 136.0695
351.8606, 135.9948
352.3427, 135.4159
352.8248, 135.1459
353.3069, 136.1633
353.7890, 137.5631
354.2711, 138.0231
354.7533, 137.3677
355.2354, 136.4696
355.7175, 135.8967
356.1996, 135.6148
356.6817, 135.5637
357.1638, 136.0605
357.6460, 136.5293
358.1281, 136.3426
358.6102, 135.5664
359.0923, 135.0664
359.5744, 135.7195
360.0565, 136.7203
360.5387, 137.2597
361.0208, 136.6147
361.5029, 136.0941
361.9850, 136.6247
362.4671, 137.8079
362.9492, 138.4073
363.4314, 137.1437
363.9135, 135.7995
364.3956, 135.4597
364.8777, 136.8047
365.3598, 137.8792
365.8419, 138.1020
366.3241, 137.8471
366.8062, 137.6709
367.2883, 137.3427
367.7704, 137.3969
368.2526, 138.0878
368.7347, 139.5525
369.2168, 140.8949
369.6989, 142.2107
370.1810, 143.3362
370.6631, 144.1210
371.1453, 144.1104
371.6274, 144.4439
372.1095, 145.3750
372.5916, 146.8080
373.0737, 148.0483
373.5558, 148.9306
374.0380, 149.8797
374.5201, 151.2851
375.0022, 153.5228
375.4843, 154.8306
375.9664, 154.7855
376.4485, 154.1039
376.9307, 154.3540
377.4128, 155.8174
377.8949, 156.9992
378.3770, 157.1413
378.8591, 156.3106
379.3412, 155.9634
379.8234, 156.2445
380.3055, 156.5073
380.7876, 155.8518
381.2697, 154.3360
381.7518, 153.1286
382.2339, 152.7395
382.7161, 152.7011
383.1982, 151.7514
383.6803, 149.9304
384.1624, 148.1426
384.6445, 147.1153
385.1266, 146.6461
385.6088, 146.3151
386.0909, 146.1512
386.5730, 145.8294
387.0551, 144.7531
387.5372, 143.1789
388.0193, 141.8211
388.5015, 141.0801
388.9836, 140.7442
389.4657, 140.5550
389.9478, 140.4921
390.4299, 140.7791
390.9120, 142.1348
391.3942, 143.7544
391.8763, 144.6181
392.3584, 143.6153
392.8405, 142.5009
393.3226, 142.2835
393.8047, 142.7691
394.2869, 143.0678
394.7690, 142.5922
395.2511, 141.9870
395.7332, 141.6522
396.2154, 141.7411
396.6975, 141.9130
397.1796, 142.4770
397.6617, 143.0215
398.1438, 142.8452
398.6259, 140.7670
399.1081, 139.0197
399.5902, 138.3352
400.0723, 138.8874
400.5544, 139.3071
401.0365, 139.6367
401.5186, 139.7988
402.0008, 139.7228
402.4829, 139.3452
402.9650, 138.8338
403.4471, 138.1292
403.9292, 137.3012
404.4113, 136.6541
404.8935, 136.1874
405.3756, 135.8905
405.8577, 135.8444
406.3398, 136.1216
406.8219, 136.1522
407.3040, 135.9727
407.7862, 135.4700
408.2683, 134.1720
408.7504, 132.0378
409.2325, 130.5314
409.7146, 130.3116
410.1967, 131.0651
410.6789, 131.9615
411.1610, 133.0244
411.6431, 133.6746
412.1252, 133.1259
412.6073, 131.7449
413.0894, 130.5110
413.5716, 129.5536
414.0537, 128.9945
414.5358, 129.2379
415.0179, 130.0737
415.5000, 130.8270
415.9821, 130.9895
416.4643, 130.9476
416.9464, 131.1164
417.4285, 131.5373
417.9106, 131.9585
418.3927, 132.0872
418.8748, 132.1650
419.3570, 132.4767
419.8391, 133.5117
420.3212, 134.4208
420.8033, 134.8459
421.2854, 134.8407
421.7675, 134.6761
422.2497, 134.0789
422.7318, 133.6128
423.2139, 133.6566
423.6960, 134.6522
424.1781, 135.2830
424.6602, 134.9751
425.1424, 134.3394
425.6245, 134.2834
426.1066, 135.3843
426.5887, 136.3376
427.0709, 136.8309
427.5530, 136.8639
428.0351, 136.9447
428.5172, 137.1282
428.9993, 137.2823
429.4814, 137.3049
429.9636, 137.1671
430.4457, 136.9468
430.9278, 136.4911
431.4099, 136.1121
431.8920, 136.6445
432.3741, 138.2148
432.8563, 139.7522
433.3384, 140.8039
433.8205, 141.4116
434.3026, 141.7767
434.7847, 141.8799
435.2668, 141.9133
435.7490, 141.9538
436.2311, 142.0643
436.7132, 142.5280
437.1953, 143.6397
437.6774, 144.8269
438.1595, 145.2452
438.6417, 145.0374
439.1238, 144.7935
439.6059, 145.1054
440.0880, 145.4428
440.5701, 145.1777
441.0522, 144.1774
441.5344, 143.0256
442.0165, 141.8318
442.4986, 140.7810
442.9807, 140.1085
443.4628, 140.2011
443.9449, 140.3830
444.4271, 140.3220
444.9092, 140.0874
445.3913, 140.0954
445.8734, 140.6682
446.3555, 141.3379
446.8376, 141.8784
447.3198, 142.2444
447.8019, 142.5323
448.2840, 142.6721
448.7661, 142.7640
449.2482, 142.9594
449.7303, 143.3830
450.2125, 143.7102
450.6946, 143.9623
451.1767, 144.1102
451.6588, 143.5778
452.1409, 141.9890
452.6230, 140.5834
453.1052, 140.5015
453.5873, 141.8920
454.0694, 142.5391
454.5515, 142.1204
455.0337, 141.2090
455.5158, 140.6580
455.9979, 140.4571
456.4800, 140.5392
456.9621, 141.0036
457.4442, 141.6932
457.9264, 142.2055
458.4085, 142.5473
458.8906, 142.9605
459.3727, 143.7510
459.8548, 144.7139
460.3369, 145.4812
460.8191, 145.9111
461.3012, 146.3068
461.7833, 147.0540
462.2654, 147.9470
462.7475, 148.5544
463.2296, 148.1783
463.7118, 147.8923
464.1939, 148.4473
464.6760, 149.9027
465.1581, 151.1581
465.6402, 151.6137
466.1223, 151.8869
466.6045, 152.4042
467.0866, 153.4619
467.5687, 154.4608
468.0508, 155.2415
468.5329, 155.9565
469.0150, 156.9902
469.4972, 158.6375
469.9793, 160.1358
470.4614, 161.2141
470.9435, 161.8532
471.4256, 162.4326
471.9077, 162.8619
472.3899, 163.4166
472.8720, 164.5702
473.3541, 166.4525
473.8362, 167.3811
474.3183, 166.8026
474.8004, 165.6849
475.2826, 166.1390
475.7647, 168.0519
476.2468, 169.8299
476.7289, 170.5152
477.2110, 170.5203
477.6931, 170.6168
478.1753, 170.8132
478.6574, 171.3318
479.1395, 172.7011
479.6216, 174.4127
480.1037, 175.6671
480.5858, 176.0195
481.0680, 176.3313
481.5501, 177.4049
482.0322, 178.8697
482.5143, 179.9419
482.9964, 180.1693
483.4786, 180.0646
483.9607, 179.6756
484.4428, 178.9682
484.9249, 178.7427
485.4070, 179.8329
485.8892, 181.0379
486.3713, 181.4842
486.8534, 180.3665
487.3355, 179.6786
487.8176, 179.7668
488.2997, 180.2109
488.7819, 180.0601
489.2640, 179.0033
489.7461, 178.0539
490.2282, 177.6163
490.7103, 177.6399
491.1924, 177.3270
491.6746, 176.6362
492.1567, 175.7659
492.6388, 174.6729
493.1209, 173.4327
493.6030, 172.9717
494.0851, 173.6155
494.5673, 174.4781
495.0494, 174.0683
495.5315, 172.7221
496.0136, 171.6681
496.4957, 171.5953
496.9778, 172.0402
497.4600, 172.6979
497.9421, 173.5108
498.4242, 173.9983
498.9063, 173.5708
499.3884, 172.8698
499.8705, 172.4594
500.3527, 172.5541
500.8348, 172.6911
501.3169, 172.5910
501.7990, 172.4665
502.2811, 172.6194
502.7632, 173.3460
503.2454, 174.0953
503.7275, 174.7230
504.2096, 175.2481
504.6917, 175.9123
505.1738, 176.7119
505.6559, 177.6466
506.1381, 178.7911
506.6202, 180.3104
507.1023, 181.3140
507.5844, 181.6314
508.0665, 181.7434
508.5486, 182.1819
509.0308, 182.9477
509.5129, 184.2511
509.9950, 186.3675
510.4771, 188.8320
510.9592, 190.6024
511.4413, 191.7319
511.9235, 192.8371
512.4056, 194.1599
512.8877, 195.7514
513.3698, 197.8047
513.8519, 200.3571
514.3340, 202.9647
514.8162, 205.3415
515.2983, 207.5729
515.7804, 209.7638
516.2625, 211.9852
516.7446, 214.1340
517.2267, 216.0307
517.7089, 217.8131
518.1910, 219.7982
518.6731, 222.3459
519.1552, 224.8484
519.6373, 226.9519
520.1194, 228.5860
520.6016, 230.6839
521.0837, 233.2889
521.5658, 236.2745
522.0479, 239.6423
522.5300, 243.5304
523.0121, 247.1522
523.4943, 250.3847
523.9764, 253.4178
524.4585, 256.6282
524.9406, 259.9674
525.4227, 263.2263
525.9048, 266.1021
526.3870, 268.9416
526.8691, 272.8747
527.3513, 277.8569
527.8334, 282.9057
528.3155, 287.2448
528.7976, 291.2954
529.2797, 295.6494
529.7618, 300.4008
530.2440, 305.4831
530.7261, 310.9954
531.2082, 316.7376
531.6903, 322.3497
532.1724, 327.6212
532.6545, 332.9084
533.1367, 338.3710
533.6188, 343.9749
534.1009, 349.8004
534.5830, 355.9496
535.0651, 362.1847
535.5472, 368.2867
536.0294, 374.2320
536.5115, 380.6747
536.9936, 387.9019
537.4757, 395.2296
537.9578, 402.0425
538.4399, 408.3243
538.9221, 414.5529
539.4042, 420.8358
539.8863, 427.1095
540.3684, 433.2302
540.8505, 439.2233
541.3326, 445.4086
541.8148, 452.0073
542.2969, 458.7953
542.7790, 465.5893
543.2611, 472.3342
543.7432, 478.8187
544.2253, 484.6075
544.7075, 490.2202
545.1896, 496.2682
545.6717, 502.9285
546.1538, 509.4891
546.6359, 516.0522
547.1180, 522.1632
547.6002, 527.2494
548.0823, 530.7125
548.5644, 533.6855
549.0465, 536.1409
549.5286, 538.2545
550.0107, 540.5687
550.4929, 543.5840
550.9750, 546.0414
551.4571, 547.5304
551.9392, 548.0472
552.4213, 548.1084
552.9034, 547.8166
553.3856, 546.7581
553.8677, 544.4196
554.3498, 540.8831
554.8319, 537.2676
555.3140, 533.8232
555.7961, 529.7825
556.2783, 523.9361
556.7604, 516.6986
557.2425, 509.2833
557.7246, 502.1201
558.2067, 494.9707
558.6888, 487.9292
559.1710, 480.8210
559.6531, 473.1001
560.1352, 464.1377
560.6173, 454.8400
561.0994, 445.8565
561.5815, 437.2398
562.0637, 428.5431
562.5458, 419.5521
563.0279, 410.5458
563.5100, 401.6178
563.9921, 392.6981
564.4742, 383.9316
564.9564, 375.4288
565.4385, 367.0126
565.9206, 358.2490
566.4027, 349.0018
566.8848, 340.4562
567.3669, 333.1633
567.8491, 326.7618
568.3312, 320.4393
568.8133, 314.2180
569.2954, 307.9405
569.7775, 301.3413
570.2596, 294.7133
570.7418, 288.9019
571.2239, 283.9311
571.7060, 278.9439
572.1881, 272.4652
572.6702, 265.9834
573.1523, 261.2209
573.6345, 259.6711
574.1166, 258.0458
574.5987, 255.4360
575.0808, 251.9345
575.5629, 247.6277
576.0450, 240.9977
576.5272, 235.4123
577.0093, 231.9485
577.4914, 230.2522
577.9735, 227.8516
578.4556, 224.4627
578.9377, 220.9990
579.4199, 217.8366
579.9020, 215.0198
580.3841, 212.3721
580.8662, 209.9298
581.3483, 207.5199
581.8304, 204.8086
582.3126, 201.9867
582.7947, 199.7984
583.2768, 198.5181
583.7589, 197.4820
584.2410, 196.0123
584.7231, 194.2628
585.2053, 192.5394
585.6874, 190.8238
586.1696, 189.2985
586.6517, 188.2533
587.1338, 187.5389
587.6159, 186.5085
588.0980, 184.2942
588.5801, 182.3462
589.0623, 181.4495
589.5444, 181.8212
590.0265, 181.7781
590.5086, 181.3211
590.9907, 180.4518
591.4728, 179.0217
591.9550, 176.8979
592.4371, 175.1628
592.9192, 173.9219
593.4013, 173.0755
593.8834, 172.7015
594.3655, 172.6991
594.8477, 172.3988
595.3298, 171.5043
595.8119, 170.3228
596.2940, 169.1365
596.7761, 167.9946
597.2582, 167.0241
597.7404, 166.2249
598.2225, 165.6717
598.7046, 165.4493
599.1867, 165.5595
599.6688, 165.8164
600.1509, 166.6542
600.6331, 167.2630
601.1152, 167.0406
601.5973, 165.4120
602.0794, 164.3176
602.5615, 164.0883
603.0436, 164.0854
603.5258, 163.5350
604.0079, 162.3045
604.4900, 161.2752
604.9721, 160.6374
605.4542, 160.2197
605.9363, 159.6050
606.4185, 158.8471
606.9006, 158.3757
607.3827, 158.7968
607.8648, 159.3729
608.3469, 158.8122
608.8290, 157.3071
609.3112, 155.9704
609.7933, 155.5952
610.2754, 155.5342
610.7575, 155.2642
611.2396, 154.6871
611.7217, 154.2594
612.2039, 154.2269
612.6860, 154.3177
613.1681, 154.3392
613.6502, 154.4857
614.1323, 154.1603
614.6144, 152.9881
615.0966, 151.6676
615.5787, 151.3050
616.0608, 152.0784
616.5429, 152.6836
617.0250, 152.7733
617.5071, 152.5715
617.9893, 152.6039
618.4714, 152.8362
618.9535, 152.9897
619.4356, 153.0972
619.9177, 152.9512
620.3998, 151.9130
620.8820, 150.1378
621.3641, 148.9962
621.8462, 150.0008
622.3283, 151.4067
622.8104, 151.8462
623.2925, 150.8616
