##NAMES=Chalcophanite
##RRUFFID=R050451
##IDEAL CHEMISTRY=Zn^2+^Mn^4+^_3_O_7_&#183;3H_2_O
##LOCALITY=Morenci mine, Morenci, Greenlee County, Arizona, USA
##OWNER=RRUFF
##SOURCE=University of Arizona Mineral Museum
##DESCRIPTION=A mass of small black hexagonal plates, not homogeneous
##STATUS=The identification of this mineral has been confirmed by X-ray diffraction and chemical analysis
##URL=rruff.info/R050451
##MEASURED CHEMISTRY=(Zn_0.60_Fe^2+^_0.20_Cu_0.12_Fe^3+^_0.08_)_Σ=1_(Mn^4+^_2.92_Fe^3+^_0.08_)_Σ=3_O_7_·3H_2_O ; = bright phase. The gray phase is jacobsite (Mn_0.65_Zn_0.25_Cu_0.09_)_Σ=1_(Fe^3+^_1.58_Mn^3+^_0.42_)_Σ=2_O_4_; dark phase: K-feldspar
91.00781, 4.646358
91.48993, 4.725850
91.97205, 4.757779
92.45416, 4.716560
92.93628, 4.629097
93.41840, 4.561424
93.90051, 4.539492
94.38263, 4.515071
94.86475, 4.374637
95.34686, 4.119666
95.82898, 3.890923
96.31110, 3.837097
96.79321, 3.939131
97.27533, 3.989612
97.75745, 3.904954
98.23956, 3.738005
98.72168, 3.723668
99.20380, 3.883048
99.68591, 4.128801
100.1680, 4.376489
100.6501, 4.622737
101.1323, 4.879584
101.6144, 5.171990
102.0965, 5.512233
102.5786, 5.710696
103.0607, 5.673239
103.5428, 5.578157
104.0250, 5.749103
104.5071, 6.349154
104.9892, 6.938776
105.4713, 7.340352
105.9534, 7.437987
106.4355, 7.597990
106.9177, 7.821858
107.3998, 8.107553
107.8819, 8.462915
108.3640, 9.033975
108.8461, 9.553645
109.3282, 9.902938
109.8104, 9.700768
110.2925, 9.755887
110.7746, 10.19835
111.2567, 10.98123
111.7388, 11.75806
112.2209, 12.54839
112.7031, 13.28365
113.1852, 13.92501
113.6673, 14.28255
114.1494, 14.71153
114.6315, 15.35738
115.1136, 16.23780
115.5958, 17.05783
116.0779, 17.68209
116.5600, 18.21060
117.0421, 18.75315
117.5242, 19.34792
118.0063, 19.97172
118.4885, 20.58965
118.9706, 21.17587
119.4527, 21.88357
119.9348, 22.78368
120.4169, 23.85920
120.8990, 25.09667
121.3812, 26.75871
121.8633, 28.44865
122.3454, 29.84480
122.8275, 31.00445
123.3096, 31.62545
123.7917, 31.19263
124.2739, 29.90760
124.7560, 28.51039
125.2381, 27.23960
125.7202, 26.20214
126.2023, 25.62356
126.6844, 25.65211
127.1666, 26.01864
127.6487, 26.43368
128.1308, 26.89347
128.6129, 27.30791
129.0950, 27.57699
129.5771, 27.73578
130.0593, 27.91166
130.5414, 28.14704
131.0235, 28.41968
131.5056, 28.59751
131.9877, 28.55658
132.4698, 28.47576
132.9520, 28.81578
133.4341, 29.54617
133.9162, 30.07201
134.3983, 30.06658
134.8804, 29.63059
135.3625, 29.53909
135.8447, 29.83825
136.3268, 30.34606
136.8089, 30.80504
137.2910, 31.19000
137.7731, 31.68463
138.2552, 32.45908
138.7374, 33.58340
139.2195, 34.39993
139.7016, 34.95111
140.1837, 35.18172
140.6658, 34.86090
141.1479, 33.71272
141.6301, 32.64797
142.1122, 32.06865
142.5943, 32.05126
143.0764, 32.29477
143.5585, 32.82296
144.0406, 33.59440
144.5228, 34.49738
145.0049, 35.52290
145.4870, 36.67702
145.9691, 37.97635
146.4512, 39.70887
146.9333, 41.14552
147.4155, 42.20346
147.8976, 42.91970
148.3797, 43.54271
148.8618, 44.38802
149.3439, 44.92830
149.8260, 44.83034
150.3082, 43.60538
150.7903, 42.28994
151.2724, 40.90180
151.7545, 39.44202
152.2366, 38.08569
152.7188, 36.55110
153.2009, 35.25359
153.6830, 34.54574
154.1651, 35.30267
154.6472, 35.82137
155.1293, 35.59100
155.6115, 34.49241
156.0936, 33.55289
156.5757, 32.87898
157.0578, 32.46664
157.5399, 32.32302
158.0220, 32.64441
158.5042, 33.06578
158.9863, 33.46122
159.4684, 33.81661
159.9505, 34.17040
160.4326, 34.38662
160.9147, 34.63034
161.3969, 35.14739
161.8790, 36.21437
162.3611, 37.43682
162.8432, 38.63540
163.3253, 39.79589
163.8074, 40.86217
164.2896, 42.02787
164.7717, 43.08290
165.2538, 43.60596
165.7359, 43.32940
166.2180, 42.49688
166.7001, 41.21651
167.1823, 39.36800
167.6644, 37.42682
168.1465, 35.51680
168.6286, 33.71873
169.1107, 32.26225
169.5928, 31.55081
170.0750, 31.13183
170.5571, 30.50127
171.0392, 29.43445
171.5213, 28.33256
172.0034, 27.49616
172.4855, 26.90256
172.9677, 26.47050
173.4498, 26.22555
173.9319, 26.08449
174.4140, 25.92587
174.8961, 25.69202
175.3782, 25.45779
175.8604, 25.28192
176.3425, 25.16543
176.8246, 25.12312
177.3067, 25.27876
177.7888, 25.51169
178.2709, 25.56664
178.7531, 25.29589
179.2352, 24.86728
179.7173, 24.46817
180.1994, 24.09960
180.6815, 23.85927
181.1636, 23.91861
181.6458, 24.19200
182.1279, 24.42024
182.6100, 24.48340
183.0921, 24.46522
183.5742, 24.57066
184.0563, 24.80526
184.5385, 25.01647
185.0206, 25.00605
185.5027, 24.81864
185.9848, 24.67528
186.4669, 24.74055
186.9490, 24.89736
187.4312, 24.70685
187.9133, 24.12098
188.3954, 23.53061
188.8775, 23.46710
189.3596, 23.87681
189.8417, 24.25606
190.3239, 24.41853
190.8060, 24.39183
191.2881, 24.25852
191.7702, 23.98596
192.2523, 23.73940
192.7344, 23.77801
193.2166, 24.10153
193.6987, 24.40523
194.1808, 24.57420
194.6629, 24.61504
195.1450, 24.60051
195.6271, 24.51559
196.1093, 24.41380
196.5914, 24.37756
197.0735, 24.41119
197.5556, 24.45429
198.0377, 24.45701
198.5198, 24.41824
199.0020, 24.51258
199.4841, 24.79499
199.9662, 25.11329
200.4483, 25.18498
200.9304, 24.96526
201.4125, 24.77106
201.8947, 24.79240
202.3768, 25.05971
202.8589, 25.12986
203.3410, 24.93744
203.8231, 24.63047
204.3052, 24.49088
204.7874, 24.54519
205.2695, 24.64946
205.7516, 24.74440
206.2337, 24.82720
206.7158, 24.91424
207.1979, 24.99051
207.6801, 25.08650
208.1622, 25.29043
208.6443, 25.65411
209.1264, 25.96996
209.6085, 26.13160
210.0906, 26.10699
210.5728, 26.06519
211.0549, 25.98215
211.5370, 25.90248
212.0191, 25.93721
212.5012, 26.11627
212.9833, 26.33647
213.4655, 26.54942
213.9476, 26.75072
214.4297, 26.96718
214.9118, 27.20445
215.3939, 27.45438
215.8760, 27.70721
216.3581, 27.96912
216.8403, 28.21677
217.3224, 28.43422
217.8045, 28.61522
218.2866, 28.78340
218.7687, 28.91415
219.2508, 29.04053
219.7330, 29.26954
220.2151, 29.68135
220.6972, 30.04526
221.1793, 30.20707
221.6614, 30.01180
222.1435, 30.04342
222.6257, 30.37305
223.1078, 30.91599
223.5899, 31.45658
224.0720, 32.00962
224.5541, 32.53925
225.0362, 33.03384
225.5184, 33.46476
226.0005, 33.92362
226.4826, 34.42157
226.9647, 34.94773
227.4468, 35.48357
227.9289, 36.00643
228.4111, 36.56996
228.8932, 37.21926
229.3753, 38.04406
229.8574, 38.73379
230.3395, 39.22824
230.8216, 39.59277
231.3038, 40.04567
231.7859, 40.76456
232.2680, 41.30454
232.7501, 41.43665
233.2322, 40.95968
233.7143, 40.51517
234.1965, 40.04084
234.6786, 39.61129
235.1607, 39.44835
235.6428, 39.69325
236.1249, 39.99796
236.6070, 40.20071
237.0892, 40.20816
237.5713, 40.31539
238.0534, 40.51764
238.5355, 40.82025
239.0176, 41.24384
239.4997, 41.84300
239.9819, 42.49483
240.4640, 43.17846
240.9461, 44.04449
241.4282, 44.60097
241.9103, 44.84110
242.3924, 44.77502
242.8746, 44.40549
243.3567, 43.62553
243.8388, 42.70572
244.3209, 41.72517
244.8030, 40.63499
245.2851, 39.64347
245.7673, 38.77085
246.2494, 37.98895
246.7315, 37.23838
247.2136, 36.51754
247.6957, 35.83033
248.1778, 35.16829
248.6600, 34.51371
249.1421, 33.96837
249.6242, 33.62177
250.1063, 33.33319
250.5884, 32.81235
251.0705, 31.93502
251.5527, 31.03276
252.0348, 30.23821
252.5169, 29.58159
252.9990, 28.88252
253.4811, 28.05707
253.9632, 27.23551
254.4454, 26.67935
254.9275, 26.50736
255.4096, 26.36544
255.8917, 26.12655
256.3738, 25.75665
256.8560, 25.44907
257.3381, 25.19124
257.8202, 25.00365
258.3023, 24.93291
258.7844, 25.04553
259.2665, 25.13114
259.7487, 25.11366
260.2308, 24.97298
260.7129, 24.87160
261.1950, 24.82514
261.6771, 24.80103
262.1592, 24.75074
262.6414, 24.65617
263.1235, 24.58147
263.6056, 24.54131
264.0877, 24.53483
264.5698, 24.57598
265.0519, 24.67759
265.5341, 24.80877
266.0162, 24.94927
266.4983, 25.12178
266.9804, 25.22438
267.4625, 25.19286
267.9446, 25.03145
268.4268, 25.04585
268.9089, 25.32495
269.3910, 25.62239
269.8731, 25.64485
270.3552, 25.30301
270.8373, 25.04910
271.3195, 25.00352
271.8016, 25.14451
272.2837, 25.24496
272.7658, 25.30668
273.2479, 25.32554
273.7300, 25.28358
274.2122, 25.16784
274.6943, 25.06960
275.1764, 24.99226
275.6585, 24.94743
276.1406, 25.01699
276.6227, 25.22972
277.1049, 25.46249
277.5870, 25.59941
278.0691, 25.62826
278.5512, 25.71755
279.0333, 25.93470
279.5154, 26.21003
279.9976, 26.28161
280.4797, 26.11603
280.9618, 25.91875
281.4439, 25.81365
281.9260, 25.80161
282.4081, 25.88356
282.8903, 26.09763
283.3724, 26.36369
283.8545, 26.49491
284.3366, 26.48664
284.8187, 26.39220
285.3008, 26.15751
285.7830, 25.80911
286.2651, 25.72738
286.7472, 26.01974
287.2293, 26.44888
287.7114, 26.55989
288.1935, 26.35501
288.6757, 26.11156
289.1578, 25.93336
289.6399, 25.83343
290.1220, 25.93030
290.6041, 26.27485
291.0862, 26.67030
291.5684, 26.81272
292.0505, 26.72560
292.5326, 26.62800
293.0147, 26.64554
293.4968, 26.73579
293.9789, 26.76050
294.4611, 26.70709
294.9432, 26.64266
295.4253, 26.64473
295.9074, 26.70371
296.3895, 26.77694
296.8716, 26.87322
297.3538, 26.96628
297.8359, 26.98001
298.3180, 26.91032
298.8001, 26.85510
299.2822, 26.89326
299.7643, 27.01710
300.2465, 27.21237
300.7286, 27.57531
301.2107, 27.93894
301.6928, 28.02606
302.1749, 27.85243
302.6570, 27.67047
303.1392, 27.70459
303.6213, 27.86331
304.1034, 27.98312
304.5855, 27.97421
305.0676, 27.96035
305.5497, 28.09667
306.0319, 28.35543
306.5140, 28.59939
306.9961, 28.69642
307.4782, 28.74048
307.9603, 28.86031
308.4424, 29.14137
308.9246, 29.39564
309.4067, 29.39690
309.8888, 29.23780
310.3709, 29.18426
310.8530, 29.49847
311.3351, 29.91548
311.8173, 30.19541
312.2994, 30.26131
312.7815, 30.31989
313.2636, 30.56243
313.7457, 30.87743
314.2278, 31.06496
314.7100, 30.83766
315.1921, 30.60205
315.6742, 30.64843
316.1563, 31.05657
316.6384, 31.42290
317.1205, 31.49544
317.6027, 31.44406
318.0848, 31.48327
318.5669, 31.77038
319.0490, 32.08003
319.5311, 32.32827
320.0132, 32.50903
320.4954, 32.66497
320.9775, 32.83929
321.4596, 32.97759
321.9417, 33.03039
322.4238, 32.89482
322.9059, 32.76909
323.3881, 32.73069
323.8702, 32.76727
324.3523, 32.71986
324.8344, 32.44147
325.3165, 32.15472
325.7986, 31.98873
326.2808, 32.24446
326.7629, 32.27927
327.2450, 31.90563
327.7271, 31.24220
328.2092, 30.75710
328.6913, 30.60233
329.1735, 30.49633
329.6556, 30.32927
330.1377, 30.08386
330.6198, 29.80540
331.1019, 29.43503
331.5840, 29.04961
332.0662, 28.79102
332.5483, 28.71218
333.0304, 28.68749
333.5125, 28.72807
333.9946, 28.90027
334.4767, 28.76271
334.9589, 28.14954
335.4410, 27.39101
335.9231, 26.90943
336.4052, 26.78826
336.8873, 26.73817
337.3694, 26.70383
337.8516, 26.68520
338.3336, 26.68239
338.8158, 26.70591
339.2979, 26.72409
339.7800, 26.68789
340.2621, 26.57962
340.7442, 26.55464
341.2263, 26.67284
341.7085, 26.87700
342.1906, 26.94720
342.6727, 26.86121
343.1548, 26.78450
343.6369, 26.87958
344.1190, 27.12803
344.6012, 27.21763
345.0833, 27.07106
345.5654, 26.83577
346.0475, 26.78071
346.5296, 26.89613
347.0117, 27.03279
347.4939, 27.10136
347.9760, 27.12630
348.4581, 27.22349
348.9402, 27.42158
349.4223, 27.55494
349.9044, 27.31657
350.3866, 26.83002
350.8687, 26.51616
351.3508, 26.66238
351.8329, 27.03101
352.3150, 27.24454
352.7971, 27.30845
353.2793, 27.37857
353.7614, 27.62064
354.2435, 27.94419
354.7256, 28.20586
355.2077, 28.36476
355.6898, 28.44583
356.1720, 28.38773
356.6541, 28.24059
357.1362, 28.21676
357.6183, 28.55636
358.1004, 29.01038
358.5826, 29.34680
359.0647, 29.48214
359.5468, 29.60056
360.0289, 29.78502
360.5110, 30.02303
360.9931, 30.29202
361.4753, 30.61315
361.9574, 30.93576
362.4395, 31.22538
362.9216, 31.47043
363.4037, 31.73817
363.8858, 32.10205
364.3680, 32.47820
364.8501, 32.77956
365.3322, 32.73596
365.8143, 32.87004
366.2964, 33.47607
366.7785, 34.53900
367.2607, 35.23523
367.7428, 35.06688
368.2249, 34.79551
368.7070, 34.88472
369.1891, 35.65574
369.6712, 36.36613
370.1534, 37.01545
370.6355, 37.59290
371.1176, 38.05047
371.5997, 38.25217
372.0818, 38.50898
372.5639, 38.97840
373.0461, 39.78259
373.5282, 40.39779
374.0103, 40.77683
374.4924, 41.02238
374.9745, 41.29711
375.4566, 41.64294
375.9388, 41.89441
376.4209, 42.00976
376.9030, 41.98999
377.3851, 41.84399
377.8672, 41.57804
378.3493, 41.16957
378.8315, 40.51894
379.3136, 39.61419
379.7957, 38.88738
380.2778, 38.45260
380.7599, 38.20159
381.2420, 37.89091
381.7242, 37.52580
382.2063, 37.08004
382.6884, 36.46783
383.1705, 35.75143
383.6526, 35.18008
384.1347, 34.79491
384.6169, 34.48431
385.0990, 34.07668
385.5811, 33.62241
386.0632, 33.30607
386.5453, 33.36729
387.0274, 33.54495
387.5096, 33.47092
387.9917, 33.14333
388.4738, 32.76493
388.9559, 32.46577
389.4380, 32.22607
389.9201, 32.01232
390.4023, 31.74833
390.8844, 31.58816
391.3665, 31.74687
391.8486, 32.12895
392.3307, 32.37725
392.8128, 32.22728
393.2950, 31.94562
393.7771, 31.68884
394.2592, 31.44894
394.7413, 31.32327
395.2234, 31.45055
395.7055, 31.69154
396.1877, 31.83115
396.6698, 31.83322
397.1519, 31.71587
397.6340, 31.44626
398.1161, 31.00339
398.5982, 30.60486
399.0804, 30.22030
399.5625, 29.91346
400.0446, 29.73385
400.5267, 29.75380
401.0088, 29.80293
401.4909, 29.92534
401.9731, 30.07282
402.4552, 30.02272
402.9373, 29.64561
403.4194, 29.28257
403.9015, 29.10689
404.3836, 29.17099
404.8658, 29.22262
405.3479, 29.27820
405.8300, 29.29746
406.3121, 29.17879
406.7942, 28.88881
407.2763, 28.70143
407.7585, 28.77747
408.2406, 29.03710
408.7227, 28.95885
409.2048, 28.49884
409.6869, 28.06790
410.1690, 28.13257
410.6512, 28.58032
411.1333, 28.85599
411.6154, 28.82123
412.0975, 28.63320
412.5796, 28.49238
413.0617, 28.39817
413.5439, 28.34302
414.0260, 28.33558
414.5081, 28.35925
414.9902, 28.40272
415.4723, 28.46927
415.9544, 28.51411
416.4366, 28.45571
416.9187, 28.36144
417.4008, 28.33212
417.8829, 28.49345
418.3650, 28.65484
418.8471, 28.68519
419.3293, 28.60564
419.8114, 28.54696
420.2935, 28.57748
420.7756, 28.64033
421.2577, 28.69771
421.7398, 28.74233
422.2220, 28.78527
422.7041, 28.79965
423.1862, 28.81847
423.6683, 28.90037
424.1504, 29.19192
424.6325, 29.40927
425.1147, 29.44318
425.5968, 29.26470
426.0789, 29.17067
426.5610, 29.17739
427.0431, 29.25337
427.5252, 29.37958
428.0074, 29.57728
428.4895, 29.77937
428.9716, 29.99392
429.4537, 30.19998
429.9358, 30.32279
430.4179, 30.34921
430.9001, 30.33784
431.3822, 30.28467
431.8643, 30.18740
432.3464, 30.21719
432.8285, 30.39535
433.3106, 30.63248
433.7928, 30.82024
434.2749, 30.96445
434.7570, 31.11040
435.2391, 31.25483
435.7212, 31.42327
436.2033, 31.71655
436.6855, 32.11508
437.1676, 32.44550
437.6497, 32.46827
438.1318, 32.37711
438.6139, 32.48978
439.0960, 32.89511
439.5782, 33.36587
440.0603, 33.76722
440.5424, 34.09816
441.0245, 34.35162
441.5066, 34.41062
441.9887, 34.48865
442.4709, 34.71784
442.9530, 35.09851
443.4351, 35.52381
443.9172, 35.98899
444.3993, 36.45929
444.8814, 36.90300
445.3636, 37.31360
445.8457, 37.70363
446.3278, 38.09394
446.8099, 38.46294
447.2920, 38.76537
447.7741, 38.89457
448.2563, 39.08123
448.7384, 39.43943
449.2205, 40.02507
449.7026, 40.36671
450.1847, 40.41011
450.6668, 40.27571
451.1490, 40.05514
451.6311, 39.73016
452.1132, 39.38798
452.5953, 39.03847
453.0774, 38.67995
453.5595, 38.29378
454.0417, 37.87951
454.5238, 37.42424
455.0059, 36.91092
455.4880, 36.34749
455.9701, 35.70554
456.4522, 34.96377
456.9344, 34.30154
457.4165, 33.94925
457.8986, 33.83344
458.3807, 33.76833
458.8628, 33.73967
459.3449, 33.68193
459.8271, 33.45849
460.3092, 33.11722
460.7913, 32.85911
461.2734, 32.80197
461.7555, 32.87886
462.2376, 33.07514
462.7198, 33.42762
463.2019, 33.70490
463.6840, 33.75596
464.1661, 33.68296
464.6482, 33.60947
465.1303, 33.42946
465.6125, 33.39565
466.0946, 33.66474
466.5767, 34.19685
467.0588, 34.59901
467.5409, 34.76617
468.0230, 34.86535
468.5052, 34.94855
468.9873, 34.94371
469.4694, 35.11602
469.9515, 35.55243
470.4336, 36.08968
470.9157, 36.49633
471.3979, 36.73198
471.8800, 36.96546
472.3621, 37.22702
472.8442, 37.52058
473.3263, 37.89500
473.8084, 38.36086
474.2906, 38.82525
474.7727, 39.18830
475.2548, 39.48180
475.7369, 39.86829
476.2190, 40.37592
476.7011, 40.93476
477.1833, 41.48174
477.6654, 42.01892
478.1475, 42.55239
478.6296, 43.10644
479.1117, 43.64305
479.5938, 44.10780
480.0760, 44.51264
480.5581, 44.92089
481.0402, 45.41390
481.5223, 45.90377
482.0044, 46.34469
482.4865, 46.77612
482.9687, 47.01647
483.4508, 46.90171
483.9329, 46.58492
484.4150, 46.28666
484.8971, 45.97028
485.3792, 45.75385
485.8614, 45.71313
486.3435, 45.83138
486.8256, 45.87141
487.3077, 45.75149
487.7898, 45.64901
488.2719, 45.69008
488.7541, 45.98069
489.2362, 46.05072
489.7183, 45.81964
490.2004, 45.47066
490.6825, 45.30249
491.1646, 45.33986
491.6468, 45.28693
492.1289, 44.99325
492.6110, 44.58058
493.0931, 44.42826
493.5752, 44.53267
494.0573, 44.64627
494.5395, 44.57292
495.0216, 44.38375
495.5037, 44.22459
495.9858, 44.11902
496.4679, 44.02258
496.9500, 43.84938
497.4322, 43.66684
497.9143, 43.59013
498.3964, 43.67055
498.8785, 43.86361
499.3606, 44.15904
499.8427, 44.55377
500.3249, 45.01212
500.8070, 45.53503
501.2891, 46.11235
501.7712, 46.75069
502.2533, 47.49189
502.7354, 48.17085
503.2176, 48.67541
503.6997, 49.15985
504.1818, 49.77578
504.6639, 50.52822
505.1460, 51.41528
505.6281, 52.50782
506.1103, 53.72761
506.5924, 54.69648
507.0745, 55.33940
507.5566, 55.99321
508.0387, 56.90908
508.5208, 58.06089
509.0030, 58.93019
509.4851, 59.50948
509.9672, 59.84745
510.4493, 59.94734
510.9314, 59.84206
511.4135, 59.64533
511.8957, 59.40554
512.3778, 59.05883
512.8599, 58.52699
513.3420, 57.82746
513.8242, 57.01264
514.3063, 56.08097
514.7884, 55.05156
515.2705, 53.95033
515.7526, 52.78390
516.2347, 51.50890
516.7169, 49.91930
517.1990, 48.32574
517.6811, 46.96548
518.1632, 45.99675
518.6453, 45.09827
519.1274, 44.19800
519.6096, 43.35238
520.0917, 42.68257
520.5738, 42.23992
521.0559, 41.88912
521.5380, 41.59245
522.0201, 41.35332
522.5023, 41.23298
522.9844, 41.23722
523.4665, 41.34617
523.9486, 41.56105
524.4307, 41.87934
524.9128, 42.22497
525.3950, 42.57837
525.8771, 42.99462
526.3592, 43.56323
526.8413, 44.25675
527.3234, 44.99759
527.8055, 45.74367
528.2877, 46.52407
528.7698, 47.38192
529.2519, 48.30626
529.7340, 49.28467
530.2161, 50.32930
530.6982, 51.40900
531.1804, 52.46812
531.6625, 53.43721
532.1446, 54.66063
532.6267, 56.45329
533.1088, 58.44605
533.5909, 60.27036
534.0731, 61.40117
534.5552, 62.98613
535.0373, 65.32787
535.5194, 68.13373
536.0015, 70.75816
536.4836, 72.96392
536.9658, 75.44112
537.4479, 78.53357
537.9300, 82.18541
538.4121, 85.43448
538.8942, 88.22293
539.3763, 90.77071
539.8585, 93.31669
540.3406, 95.80554
540.8227, 97.99039
541.3048, 99.93162
541.7869, 101.2988
542.2690, 101.8487
542.7512, 101.5198
543.2333, 100.1489
543.7154, 97.13819
544.1975, 93.50347
544.6796, 89.91969
545.1617, 86.36510
545.6439, 82.88815
546.1260, 79.30729
546.6081, 75.95995
547.0902, 73.02518
547.5723, 70.56480
548.0544, 68.47104
548.5366, 66.83309
549.0187, 65.48381
549.5008, 64.29163
549.9829, 63.45975
550.4650, 62.40233
550.9471, 60.97108
551.4293, 59.34308
551.9114, 57.93343
552.3935, 56.80397
552.8756, 55.58652
553.3577, 54.06086
553.8398, 52.33390
554.3220, 50.91621
554.8041, 49.80867
555.2862, 48.83916
555.7683, 47.85093
556.2504, 46.89875
556.7325, 46.07814
557.2147, 45.40880
557.6968, 44.83334
558.1789, 44.37126
558.6610, 43.95321
559.1431, 43.48172
559.6252, 42.75817
560.1074, 42.14279
560.5895, 41.83260
561.0716, 41.75353
561.5537, 41.66328
562.0358, 41.57864
562.5179, 41.40910
563.0001, 41.08194
563.4822, 40.57159
563.9643, 40.19987
564.4464, 39.99644
564.9285, 39.89013
565.4106, 39.87353
565.8928, 39.98740
566.3749, 39.90046
566.8570, 39.54968
567.3391, 39.07222
567.8212, 38.62994
568.3033, 38.22741
568.7855, 37.93637
569.2676, 37.83073
569.7497, 37.79453
570.2318, 37.64962
570.7139, 37.41759
571.1960, 37.18105
571.6782, 37.07854
572.1603, 36.93309
572.6424, 36.53511
573.1245, 35.84167
573.6066, 35.27942
574.0887, 35.02952
574.5709, 34.96082
575.0530, 34.96975
575.5351, 35.15858
576.0172, 35.25660
576.4993, 35.20240
576.9814, 35.08067
577.4636, 35.05242
577.9457, 35.21037
578.4278, 35.19669
578.9099, 34.83795
579.3920, 34.27379
579.8741, 34.07158
580.3563, 34.25489
580.8384, 34.49890
