##NAMES=Chalcopyrite
##RRUFFID=R050222
##IDEAL CHEMISTRY=Cu^1+^Fe^3+^S^2-^_2_
##LOCALITY=Iron Cap mine, Landsman Camp, Graham County, Arizona, USA
##OWNER=RRUFF
##SOURCE=Bob Downs
##DESCRIPTION=Group of brass yellow metallic tetrahedra, dark streaks represent alteration by bacteria where S is left behind
##STATUS=The identification of this mineral has been confirmed by X-ray diffraction and chemical analysis
##URL=rruff.info/R050222
##MEASURED CHEMISTRY=Cu_1.00_Fe_1.00_S_2.00_
140.636, 873.225
141.118, 859.594
141.600, 839.852
142.082, 833.537
142.564, 845.953
143.046, 858.090
143.529, 859.216
144.011, 845.384
144.493, 832.367
144.975, 820.149
145.457, 809.340
145.939, 805.152
146.421, 811.148
146.904, 819.388
147.386, 823.797
147.868, 821.274
148.350, 820.078
148.832, 822.185
149.314, 828.200
149.796, 831.817
150.278, 833.027
150.760, 831.897
151.242, 828.333
151.725, 814.227
152.207, 805.857
152.689, 808.938
153.171, 831.914
153.653, 846.803
154.135, 847.598
154.617, 840.575
155.100, 837.601
155.582, 841.788
156.064, 848.264
156.546, 855.610
157.028, 869.536
157.510, 876.405
157.992, 867.221
158.474, 847.089
158.956, 836.786
159.439, 849.048
159.921, 867.546
160.403, 881.775
160.885, 888.397
161.367, 891.519
161.849, 889.730
162.331, 883.361
162.813, 880.849
163.296, 888.901
163.778, 900.810
164.260, 909.638
164.742, 909.889
165.224, 909.061
165.706, 911.370
166.188, 917.720
166.670, 922.794
167.152, 921.743
167.635, 917.969
168.117, 916.984
168.599, 927.539
169.081, 938.044
169.563, 938.678
170.045, 924.737
170.527, 909.621
171.009, 902.528
171.491, 901.380
171.974, 900.042
172.456, 895.755
172.938, 889.300
173.420, 881.240
173.902, 870.474
174.384, 859.766
174.866, 851.782
175.348, 846.167
175.831, 841.107
176.313, 835.972
176.795, 830.495
177.277, 824.031
177.759, 814.102
178.241, 804.517
178.723, 801.248
179.205, 804.224
179.687, 807.193
180.169, 803.437
180.652, 795.250
181.134, 788.251
181.616, 786.200
182.098, 786.585
182.580, 784.660
183.062, 779.998
183.544, 775.188
184.027, 772.833
184.509, 772.769
184.991, 774.381
185.473, 778.135
185.955, 783.363
186.437, 788.834
186.919, 795.160
187.401, 799.789
187.883, 797.161
188.365, 787.907
188.848, 779.479
189.330, 777.433
189.812, 780.590
190.294, 783.849
190.776, 787.026
191.258, 789.281
191.740, 787.536
192.223, 781.557
192.705, 776.716
193.187, 779.657
193.669, 789.341
194.151, 793.582
194.633, 787.710
195.115, 775.495
195.597, 769.718
196.079, 771.241
196.561, 774.235
197.044, 772.511
197.526, 765.989
198.008, 760.420
198.490, 756.706
198.972, 755.128
199.454, 758.446
199.936, 767.968
200.419, 778.603
200.901, 784.640
201.383, 785.978
201.865, 783.538
202.347, 774.517
202.829, 758.819
203.311, 754.484
203.793, 764.498
204.275, 780.583
204.758, 790.482
205.240, 793.970
205.722, 792.341
206.204, 783.884
206.686, 767.047
207.168, 756.357
207.650, 753.787
208.132, 755.505
208.614, 752.816
209.097, 744.254
209.579, 735.904
210.061, 731.256
210.543, 731.168
211.025, 730.284
211.507, 727.251
211.989, 723.684
212.471, 725.361
212.954, 734.427
213.436, 743.805
213.918, 748.842
214.400, 748.409
214.882, 747.549
215.364, 746.639
215.846, 745.714
216.328, 744.555
216.810, 741.980
217.293, 741.211
217.775, 745.344
218.257, 756.443
218.739, 766.804
219.221, 775.446
219.703, 782.418
220.185, 786.640
220.667, 786.504
221.150, 785.739
221.632, 788.449
222.114, 797.175
222.596, 803.179
223.078, 803.651
223.560, 798.352
224.042, 795.854
224.524, 796.627
225.006, 799.738
225.488, 804.576
225.971, 812.794
226.453, 819.384
226.935, 822.304
227.417, 820.621
227.899, 822.431
228.381, 828.935
228.863, 837.977
229.346, 846.718
229.828, 855.809
230.310, 863.347
230.792, 868.253
231.274, 869.643
231.756, 872.436
232.238, 877.439
232.720, 883.373
233.202, 888.333
233.684, 893.655
234.167, 895.710
234.649, 891.077
235.131, 873.087
235.613, 869.141
236.095, 886.693
236.577, 915.301
237.059, 931.912
237.542, 929.074
238.024, 925.558
238.506, 929.247
238.988, 944.160
239.470, 957.195
239.952, 968.635
240.434, 978.136
240.916, 984.049
241.398, 982.403
241.880, 982.782
242.363, 990.352
242.845, 1010.091
243.327, 1026.122
243.809, 1035.660
244.291, 1041.134
244.773, 1051.590
245.255, 1071.761
245.738, 1090.553
246.220, 1100.815
246.702, 1094.097
247.184, 1097.128
247.666, 1115.933
248.148, 1146.094
248.630, 1166.233
249.112, 1168.850
249.594, 1171.298
250.077, 1184.910
250.559, 1217.494
251.041, 1244.399
251.523, 1262.164
252.005, 1272.116
252.487, 1282.748
252.969, 1292.556
253.451, 1305.070
253.933, 1322.974
254.416, 1348.891
254.898, 1374.817
255.380, 1401.360
255.862, 1427.699
256.344, 1447.626
256.826, 1458.601
257.308, 1466.873
257.790, 1476.515
258.272, 1487.085
258.755, 1500.274
259.237, 1517.098
259.719, 1536.920
260.201, 1557.053
260.683, 1579.734
261.165, 1599.633
261.647, 1611.846
262.129, 1612.883
262.612, 1614.970
263.094, 1620.314
263.576, 1628.633
264.058, 1636.233
264.540, 1643.148
265.022, 1649.280
265.504, 1654.680
265.986, 1659.932
266.469, 1662.747
266.951, 1661.877
267.433, 1657.670
267.915, 1656.007
268.397, 1658.557
268.879, 1660.825
269.361, 1657.893
269.843, 1647.824
270.325, 1639.031
270.807, 1633.564
271.290, 1631.119
271.772, 1627.748
272.254, 1623.156
272.736, 1618.314
273.218, 1612.543
273.700, 1603.862
274.182, 1603.376
274.664, 1615.333
275.147, 1638.494
275.629, 1659.406
276.111, 1675.153
276.593, 1694.484
277.075, 1725.900
277.557, 1770.417
278.039, 1822.772
278.521, 1881.398
279.004, 1946.681
279.486, 2021.969
279.968, 2106.104
280.450, 2200.588
280.932, 2305.578
281.414, 2421.115
281.896, 2546.937
282.378, 2684.005
282.860, 2831.462
283.343, 2982.981
283.825, 3137.853
284.307, 3301.295
284.789, 3482.015
285.271, 3680.173
285.753, 3886.131
286.235, 4100.464
286.717, 4320.497
287.199, 4532.951
287.682, 4737.354
288.164, 4940.362
288.646, 5169.986
289.128, 5421.612
289.610, 5621.945
290.092, 5761.100
290.574, 5831.727
291.056, 5807.187
291.539, 5685.073
292.021, 5480.873
292.503, 5188.438
292.985, 4816.690
293.467, 4426.145
293.949, 4015.561
294.431, 3607.107
294.913, 3243.032
295.396, 2923.605
295.878, 2640.647
296.360, 2397.612
296.842, 2189.765
297.324, 2009.198
297.806, 1856.141
298.288, 1727.644
298.770, 1615.532
299.252, 1519.455
299.735, 1440.955
300.217, 1387.067
300.699, 1351.613
301.181, 1320.451
301.663, 1290.038
302.145, 1261.174
302.627, 1234.310
303.109, 1209.370
303.591, 1186.776
304.074, 1163.808
304.556, 1143.754
305.038, 1132.921
305.520, 1136.566
306.002, 1146.469
306.484, 1154.215
306.966, 1160.129
307.448, 1165.970
307.931, 1170.397
308.413, 1176.179
308.895, 1187.113
309.377, 1205.458
309.859, 1227.710
310.341, 1251.966
310.823, 1277.995
311.305, 1305.005
311.788, 1330.186
312.270, 1357.280
312.752, 1391.019
313.234, 1435.686
313.716, 1482.941
314.198, 1530.579
314.680, 1577.017
315.162, 1617.845
315.644, 1645.546
316.126, 1668.977
316.609, 1697.120
317.091, 1740.508
317.573, 1773.866
318.055, 1780.650
318.537, 1767.569
319.019, 1752.571
319.501, 1754.222
319.983, 1748.638
320.466, 1719.084
320.948, 1652.104
321.430, 1582.376
321.912, 1516.621
322.394, 1455.799
322.876, 1402.006
323.358, 1360.445
323.840, 1322.321
324.323, 1283.590
324.805, 1241.375
325.287, 1203.480
325.769, 1172.432
326.251, 1146.430
326.733, 1122.256
327.215, 1102.216
327.697, 1081.446
328.179, 1058.193
328.662, 1030.890
329.144, 1004.683
329.626, 977.407
330.108, 951.883
330.590, 932.450
331.072, 919.151
331.554, 911.761
332.036, 912.478
332.518, 924.934
333.001, 930.025
333.483, 924.498
333.965, 913.476
334.447, 902.519
334.929, 888.283
335.411, 879.400
335.893, 878.904
336.375, 887.537
336.858, 894.845
337.340, 899.455
337.822, 904.370
338.304, 912.485
338.786, 923.659
339.268, 938.532
339.750, 958.661
340.232, 983.503
340.715, 1002.815
341.197, 1014.168
341.679, 1025.272
342.161, 1042.940
342.643, 1068.007
343.125, 1095.147
343.607, 1123.973
344.089, 1154.436
344.571, 1184.664
345.054, 1214.884
345.536, 1245.939
346.018, 1278.709
346.500, 1313.395
346.982, 1347.805
347.464, 1381.240
347.946, 1415.224
348.428, 1457.922
348.910, 1509.166
349.393, 1551.434
349.875, 1571.740
350.357, 1573.338
350.839, 1567.541
351.321, 1554.266
351.803, 1537.514
352.285, 1523.755
352.767, 1512.013
353.250, 1497.269
353.732, 1478.508
354.214, 1454.496
354.696, 1419.234
355.178, 1369.364
355.660, 1321.970
356.142, 1296.910
356.624, 1287.746
357.107, 1280.352
357.589, 1268.946
358.071, 1255.311
358.553, 1241.081
359.035, 1226.372
359.517, 1210.963
359.999, 1192.498
360.481, 1173.623
360.963, 1157.763
361.445, 1147.553
361.928, 1139.740
362.410, 1133.156
362.892, 1127.719
363.374, 1121.879
363.856, 1113.265
364.338, 1104.697
364.820, 1098.678
365.302, 1098.253
365.785, 1098.108
366.267, 1097.097
366.749, 1095.156
367.231, 1091.991
367.713, 1088.143
368.195, 1082.657
368.677, 1074.896
369.159, 1062.745
369.642, 1050.705
370.124, 1040.077
370.606, 1030.064
371.088, 1017.586
371.570, 1001.275
372.052, 983.775
372.534, 966.157
373.016, 947.459
373.498, 930.475
373.981, 917.334
374.463, 905.032
374.945, 886.907
375.427, 859.110
375.909, 832.490
376.391, 811.363
376.873, 796.788
377.355, 781.031
377.837, 763.040
378.320, 745.226
378.802, 730.808
379.284, 720.354
379.766, 710.552
380.248, 700.114
380.730, 689.428
381.212, 680.299
381.694, 672.965
382.177, 666.518
382.659, 660.674
383.141, 655.293
383.623, 648.552
384.105, 638.386
384.587, 627.922
385.069, 625.200
385.551, 630.055
386.034, 635.373
386.516, 635.271
386.998, 631.444
387.480, 628.256
387.962, 626.487
388.444, 625.564
388.926, 625.321
389.408, 625.482
389.890, 625.046
390.372, 622.855
390.855, 620.025
391.337, 617.776
391.819, 616.297
392.301, 615.234
392.783, 613.811
393.265, 612.666
393.747, 612.881
394.229, 616.252
394.712, 620.055
395.194, 622.487
395.676, 623.351
396.158, 624.744
396.640, 628.877
397.122, 633.352
397.604, 635.853
398.086, 632.049
398.569, 630.129
399.051, 634.424
399.533, 643.980
400.015, 649.198
400.497, 641.965
400.979, 634.625
401.461, 634.194
401.943, 650.294
402.426, 660.709
402.908, 662.492
403.390, 658.515
403.872, 656.727
404.354, 657.506
404.836, 659.975
405.318, 664.340
405.800, 671.666
406.282, 676.773
406.764, 679.625
407.247, 680.286
407.729, 677.266
408.211, 668.504
408.693, 665.129
409.175, 672.655
409.657, 689.574
410.139, 701.695
410.621, 709.019
411.104, 711.947
411.586, 708.661
412.068, 699.865
412.550, 693.664
413.032, 691.930
413.514, 693.644
413.996, 698.574
414.478, 706.309
414.961, 711.888
415.443, 709.485
415.925, 702.839
416.407, 698.850
416.889, 698.913
417.371, 700.980
417.853, 703.712
418.335, 706.950
418.817, 710.381
419.300, 716.379
419.782, 720.861
420.264, 718.948
420.746, 709.690
421.228, 701.661
421.710, 698.887
422.192, 699.998
422.674, 703.476
423.156, 712.949
423.639, 720.729
424.121, 722.292
424.603, 718.421
425.085, 717.509
425.567, 724.396
426.049, 732.555
426.531, 738.106
427.013, 741.190
427.496, 741.078
427.978, 735.520
428.460, 726.925
428.942, 721.261
429.424, 718.355
429.906, 718.696
430.388, 723.744
430.870, 735.485
431.353, 741.620
431.835, 740.274
432.317, 735.827
432.799, 733.949
433.281, 735.053
433.763, 736.083
434.245, 735.294
434.727, 733.790
435.209, 737.461
435.691, 746.778
436.174, 757.839
436.656, 769.005
437.138, 779.727
437.620, 786.260
438.102, 786.504
438.584, 785.067
439.066, 790.045
439.548, 799.991
440.031, 807.918
440.513, 807.375
440.995, 803.634
441.477, 802.680
441.959, 804.925
442.441, 810.980
442.923, 822.791
443.405, 838.451
443.888, 854.930
444.370, 873.009
444.852, 890.078
445.334, 905.723
445.816, 919.767
446.298, 930.451
446.780, 931.449
447.262, 932.484
447.744, 940.198
448.227, 962.928
448.709, 982.648
449.191, 994.276
449.673, 1001.637
450.155, 1014.628
450.637, 1034.843
451.119, 1058.691
451.601, 1086.942
452.083, 1121.406
452.566, 1147.379
453.048, 1160.806
453.530, 1170.615
454.012, 1187.540
454.494, 1213.290
454.976, 1239.036
455.458, 1262.738
455.940, 1285.154
456.423, 1309.180
456.905, 1334.897
457.387, 1363.287
457.869, 1396.732
458.351, 1434.312
458.833, 1471.254
459.315, 1508.118
459.797, 1541.992
460.280, 1564.315
460.762, 1579.229
461.244, 1601.282
461.726, 1644.761
462.208, 1695.490
462.690, 1737.638
463.172, 1770.566
463.654, 1797.987
464.136, 1817.907
464.619, 1835.396
465.101, 1855.789
465.583, 1882.797
466.065, 1910.701
466.547, 1942.616
467.029, 1974.685
467.511, 1993.712
467.993, 1986.739
468.475, 1972.984
468.958, 1961.299
469.440, 1954.985
469.922, 1944.327
470.404, 1930.510
470.886, 1911.755
471.368, 1885.073
471.850, 1848.534
472.332, 1808.180
472.815, 1764.194
473.297, 1716.982
473.779, 1671.847
474.261, 1629.150
474.743, 1586.457
475.225, 1542.111
475.707, 1495.922
476.189, 1447.507
476.672, 1395.656
477.154, 1343.168
477.636, 1296.505
478.118, 1254.795
478.600, 1210.576
479.082, 1155.748
479.564, 1097.291
480.046, 1047.399
480.528, 1006.407
481.010, 969.154
481.493, 931.722
481.975, 895.294
482.457, 861.468
482.939, 829.862
483.421, 801.948
483.903, 779.377
484.385, 761.256
484.867, 745.206
485.350, 730.398
485.832, 717.378
486.314, 706.611
486.796, 698.769
487.278, 691.463
487.760, 686.396
488.242, 680.909
488.724, 671.880
489.207, 655.732
489.689, 641.413
490.171, 630.521
490.653, 622.765
491.135, 615.284
491.617, 607.744
492.099, 601.329
492.581, 597.132
493.063, 595.404
493.546, 592.980
494.028, 589.721
494.510, 585.651
494.992, 580.496
495.474, 574.305
495.956, 568.417
496.438, 562.537
496.920, 557.565
497.402, 555.909
497.885, 557.388
498.367, 558.850
498.849, 558.177
499.331, 555.937
499.813, 552.885
500.295, 549.203
500.777, 544.626
501.259, 537.857
501.741, 530.119
502.224, 523.786
502.706, 518.995
503.188, 516.348
503.670, 517.473
504.152, 522.964
504.634, 525.035
505.116, 518.164
505.599, 510.446
506.081, 507.705
506.563, 514.807
507.045, 518.509
507.527, 516.944
508.009, 511.936
508.491, 507.622
508.973, 503.697
509.455, 501.331
509.938, 501.826
510.420, 504.908
510.902, 505.510
511.384, 503.427
511.866, 500.005
512.348, 496.062
512.830, 491.815
513.312, 488.458
513.794, 487.070
514.277, 485.326
514.759, 476.911
515.241, 464.689
515.723, 458.425
516.205, 472.225
516.687, 488.820
517.169, 490.798
517.651, 475.422
518.133, 462.953
518.616, 466.875
519.098, 476.470
519.580, 481.500
520.062, 474.588
520.544, 468.746
521.026, 467.212
521.508, 468.747
521.990, 468.350
522.473, 463.015
522.955, 459.527
523.437, 461.206
523.919, 469.367
524.401, 473.249
524.883, 471.301
525.365, 467.819
525.847, 467.359
526.330, 470.081
526.812, 473.328
527.294, 477.081
527.776, 480.416
528.258, 481.539
528.740, 480.483
529.222, 477.617
529.704, 470.445
530.187, 462.546
530.669, 460.469
531.151, 464.816
531.633, 469.693
532.115, 472.175
532.597, 472.236
533.079, 469.770
533.561, 461.998
534.043, 454.995
534.526, 450.985
535.008, 449.573
535.490, 449.299
535.972, 450.752
536.454, 452.519
536.936, 454.561
537.418, 457.406
537.900, 457.561
538.382, 453.738
538.865, 448.615
539.347, 444.303
539.829, 440.576
540.311, 438.627
540.793, 439.127
541.275, 440.945
541.757, 441.584
542.239, 441.041
542.721, 439.786
543.204, 436.490
543.686, 432.864
544.168, 434.702
544.650, 442.145
545.132, 448.237
545.614, 445.783
546.096, 438.779
546.578, 432.925
547.060, 429.728
547.543, 427.640
548.025, 424.902
548.507, 422.680
548.989, 423.369
549.471, 431.501
549.953, 439.155
550.435, 443.754
550.917, 445.143
551.400, 443.596
551.882, 435.339
552.364, 427.840
552.846, 426.412
553.328, 434.600
553.810, 438.648
554.292, 436.175
554.774, 431.456
555.256, 433.211
555.739, 442.006
556.221, 447.729
556.703, 445.953
557.185, 438.965
557.667, 431.254
558.149, 422.961
558.631, 417.110
559.114, 416.409
559.596, 419.248
560.078, 424.278
560.560, 432.233
561.042, 438.246
561.524, 438.247
562.006, 434.651
562.488, 430.775
562.970, 426.983
563.453, 423.723
563.935, 420.944
564.417, 418.722
564.899, 417.462
565.381, 416.026
565.863, 416.810
566.345, 421.426
566.827, 430.975
567.309, 438.328
567.792, 443.328
568.274, 446.406
568.756, 447.983
569.238, 448.045
569.720, 446.909
570.202, 444.789
570.684, 441.273
571.166, 433.842
571.648, 423.560
572.131, 415.808
572.613, 415.124
573.095, 417.736
573.577, 419.277
574.059, 419.596
574.541, 419.918
575.023, 421.694
575.505, 423.375
575.987, 423.316
576.470, 418.676
576.952, 416.764
577.434, 422.304
577.916, 430.910
578.398, 435.189
578.880, 432.582
579.362, 429.052
579.844, 425.155
580.327, 421.144
580.809, 419.064
581.291, 419.152
581.773, 420.395
582.255, 423.330
582.737, 427.581
583.219, 427.384
583.701, 421.837
584.183, 415.626
584.666, 414.837
585.148, 417.474
585.630, 418.262
586.112, 414.027
586.594, 409.770
587.076, 410.075
587.558, 413.824
588.041, 418.006
588.523, 421.716
589.005, 425.286
589.487, 429.254
589.969, 433.813
590.451, 436.676
590.933, 438.066
591.415, 437.261
591.898, 432.917
592.380, 420.379
592.862, 416.114
593.344, 423.769
593.826, 436.141
594.308, 442.008
594.790, 441.058
595.272, 438.532
595.754, 436.412
596.237, 433.479
596.719, 424.506
597.201, 410.647
597.683, 400.589
598.165, 401.982
598.647, 409.326
599.129, 417.772
599.611, 427.305
600.093, 432.350
600.576, 424.612
601.058, 413.331
601.540, 407.641
602.022, 414.339
602.504, 420.376
602.986, 423.839
603.468, 425.447
603.950, 426.471
604.432, 427.159
604.915, 426.770
605.397, 424.836
605.879, 421.603
606.361, 418.979
606.843, 417.192
607.325, 414.708
607.807, 408.014
608.289, 399.363
608.771, 399.359
609.254, 409.825
609.736, 420.409
610.218, 418.757
610.700, 411.053
611.182, 407.606
611.664, 414.438
612.146, 422.309
612.628, 425.692
613.111, 426.246
613.593, 427.884
614.075, 436.931
614.557, 441.865
615.039, 435.518
615.521, 418.339
616.003, 410.417
616.485, 415.836
616.968, 424.325
617.450, 430.524
617.932, 434.315
618.414, 436.372
618.896, 436.466
619.378, 435.688
619.860, 436.064
620.342, 436.905
620.825, 435.152
621.307, 428.969
621.789, 421.564
622.271, 414.525
622.753, 408.982
623.235, 407.765
623.717, 418.844
624.199, 429.005
624.681, 429.787
625.164, 421.170
625.646, 413.132
626.128, 405.703
626.610, 400.895
627.092, 400.415
627.574, 406.987
628.056, 408.783
628.538, 403.193
629.020, 396.633
629.503, 398.003
629.985, 407.646
630.467, 413.468
630.949, 412.154
631.431, 407.841
631.913, 406.913
632.395, 408.924
632.877, 412.138
633.359, 418.261
633.842, 423.391
634.324, 422.039
634.806, 415.240
635.288, 411.469
635.770, 418.745
636.252, 426.776
636.734, 428.876
637.216, 421.386
637.698, 417.547
638.181, 419.584
638.663, 423.727
639.145, 426.754
639.627, 428.445
640.109, 429.973
640.591, 431.930
641.073, 433.027
641.555, 429.582
642.038, 422.188
642.520, 416.763
643.002, 416.631
643.484, 419.022
643.966, 420.194
644.448, 420.326
644.930, 420.124
645.412, 419.844
645.894, 419.483
646.377, 418.899
646.859, 418.002
647.341, 417.623
647.823, 417.442
648.305, 418.239
648.787, 420.588
649.269, 425.315
649.752, 430.151
650.234, 436.217
650.716, 440.944
651.198, 440.065
651.680, 433.356
652.162, 425.738
652.644, 417.754
653.126, 410.466
653.608, 405.175
654.091, 402.051
654.573, 401.669
655.055, 405.269
655.537, 411.080
656.019, 419.886
656.501, 431.015
656.983, 436.844
657.465, 428.636
657.947, 418.615
658.430, 414.298
658.912, 419.116
659.394, 421.215
659.876, 419.403
660.358, 416.156
660.840, 413.328
661.322, 410.717
661.804, 407.378
662.286, 398.693
662.769, 398.611
663.251, 409.517
663.733, 400.620
664.215, 402.827
664.697, 409.128
665.179, 405.135
665.661, 407.746
666.143, 402.269
666.625, 402.622
667.108, 403.520
667.590, 406.510
668.072, 402.911
668.554, 403.041
669.036, 402.767
669.518, 400.336
670.000, 399.012
670.482, 400.771
670.965, 406.233
671.447, 412.702
671.929, 421.289
672.411, 427.956
672.893, 426.342
673.375, 418.034
673.857, 411.780
674.339, 409.465
674.821, 409.272
675.304, 409.731
675.786, 410.743
676.268, 412.122
676.750, 415.862
677.232, 417.903
677.714, 414.359
678.196, 407.069
678.679, 403.434
679.161, 406.813
679.643, 411.570
680.125, 417.894
680.607, 425.612
681.089, 422.683
681.571, 405.221
682.053, 390.674
682.535, 395.542
683.018, 415.074
683.500, 424.370
683.982, 421.314
684.464, 416.142
