##NAMES=Chalcophanite
##RRUFFID=R050605
##IDEAL CHEMISTRY=Zn^2+^Mn^4+^_3_O_7_&#183;3H_2_O
##LOCALITY=Mina Ojuela, Mapimi, Durango, Mexico
##OWNER=RRUFF
##SOURCE=University of Arizona Mineral Museum
##DESCRIPTION=Druse of grayish black pseudo-octahedra
##STATUS=The identification of this mineral has been confirmed by single-crystal X-ray diffraction.
##URL=rruff.info/R050605
92.06543, 46.93649
92.54755, 46.59114
93.02966, 46.73321
93.51178, 47.64113
93.99390, 47.88346
94.47601, 46.92272
94.95813, 45.24688
95.44025, 43.83018
95.92236, 43.54711
96.40448, 44.51891
96.88660, 44.42329
97.36871, 42.20965
97.85082, 39.96963
98.33294, 39.38587
98.81506, 40.64233
99.29717, 42.12273
99.77929, 41.90216
100.2614, 40.17508
100.7435, 39.14114
101.2256, 39.89165
101.7078, 41.68332
102.1899, 42.75559
102.6720, 42.35431
103.1541, 41.69630
103.6362, 41.88165
104.1183, 42.88794
104.6005, 44.24291
105.0826, 45.80652
105.5647, 47.70742
106.0468, 48.87514
106.5289, 48.72984
107.0110, 47.99275
107.4931, 46.85345
107.9753, 45.37996
108.4574, 43.86921
108.9395, 42.92303
109.4216, 42.89600
109.9037, 42.93433
110.3858, 42.68856
110.8680, 42.52778
111.3501, 43.02054
111.8322, 44.52485
112.3143, 46.73613
112.7964, 47.67610
113.2785, 45.68161
113.7607, 44.28900
114.2428, 44.78042
114.7249, 46.68140
115.2070, 48.68677
115.6891, 49.90251
116.1712, 50.27728
116.6534, 50.34117
117.1355, 49.64226
117.6176, 48.95711
118.0997, 49.05930
118.5818, 50.05584
119.0639, 51.02600
119.5461, 50.65802
120.0282, 49.45708
120.5103, 49.05902
120.9924, 50.44014
121.4745, 52.94227
121.9566, 55.18925
122.4388, 57.41352
122.9209, 58.69542
123.4030, 58.21511
123.8851, 56.34968
124.3672, 54.40048
124.8493, 53.27252
125.3315, 52.98426
125.8136, 53.18154
126.2957, 54.64334
126.7778, 56.01515
127.2599, 56.71257
127.7420, 56.68223
128.2242, 56.26966
128.7063, 55.92531
129.1884, 55.73484
129.6705, 55.42494
130.1526, 55.14822
130.6347, 54.69073
131.1169, 53.93661
131.5990, 52.83792
132.0811, 51.36529
132.5632, 49.43868
133.0453, 45.83821
133.5274, 43.27739
134.0096, 42.58460
134.4917, 42.88447
134.9738, 42.94519
135.4559, 42.17438
135.9380, 40.84112
136.4201, 39.85517
136.9023, 39.04647
137.3844, 38.68195
137.8665, 39.37047
138.3486, 40.81549
138.8307, 41.58496
139.3128, 40.49794
139.7950, 38.31536
140.2771, 36.93663
140.7592, 36.87985
141.2413, 37.22295
141.7234, 36.94402
142.2055, 35.88916
142.6877, 35.01534
143.1698, 35.23505
143.6519, 35.84505
144.1340, 36.00746
144.6161, 35.22482
145.0982, 33.88977
145.5803, 33.00781
146.0625, 32.66523
146.5446, 32.71452
147.0267, 33.20105
147.5088, 33.95760
147.9909, 34.76628
148.4730, 35.54186
148.9552, 36.26827
149.4373, 36.60261
149.9194, 36.02479
150.4015, 35.50606
150.8836, 35.36544
151.3657, 35.50255
151.8479, 35.59499
152.3300, 35.30523
152.8121, 34.47211
153.2942, 34.29363
153.7763, 35.50725
154.2584, 36.59872
154.7406, 36.71630
155.2227, 35.85838
155.7048, 34.62829
156.1869, 33.61258
156.6690, 32.79008
157.1511, 32.53377
157.6333, 33.31076
158.1154, 34.37864
158.5975, 35.07362
159.0796, 35.25141
159.5617, 35.20452
160.0438, 35.30964
160.5260, 35.58063
161.0081, 35.75926
161.4902, 35.71980
161.9723, 35.55920
162.4544, 35.48674
162.9365, 35.61732
163.4187, 35.70366
163.9008, 35.42482
164.3829, 34.80253
164.8650, 34.16196
165.3471, 33.65248
165.8292, 33.26936
166.3113, 32.97301
166.7935, 32.62488
167.2756, 32.52471
167.7577, 33.03033
168.2398, 34.12634
168.7219, 35.20430
169.2040, 35.69465
169.6862, 35.54921
170.1683, 35.13927
170.6504, 33.91940
171.1325, 32.85453
171.6146, 32.54227
172.0967, 33.08149
172.5789, 34.06900
173.0610, 35.03950
173.5431, 36.27600
174.0252, 36.77658
174.5073, 36.00261
174.9894, 34.91021
175.4716, 34.13203
175.9537, 33.88828
176.4358, 34.04622
176.9179, 34.38245
177.4000, 35.51764
177.8821, 35.91584
178.3643, 34.91759
178.8464, 33.46934
179.3285, 32.57649
179.8106, 32.64846
180.2927, 33.29618
180.7748, 33.45893
181.2570, 32.39793
181.7391, 31.76905
182.2212, 31.98089
182.7033, 32.69490
183.1854, 33.43719
183.6675, 34.01058
184.1497, 34.43351
184.6318, 34.78404
185.1139, 35.42814
185.5960, 35.52354
186.0781, 34.15113
186.5602, 31.88686
187.0423, 30.49515
187.5245, 31.12587
188.0066, 32.88356
188.4887, 33.48153
188.9708, 32.20984
189.4529, 31.03445
189.9350, 31.60020
190.4172, 33.71207
190.8993, 35.24500
191.3814, 34.97209
191.8635, 33.66424
192.3456, 32.41516
192.8277, 31.21929
193.3099, 30.32318
193.7920, 29.97043
194.2741, 30.18144
194.7562, 30.79454
195.2383, 32.57587
195.7204, 34.36920
196.2026, 35.03465
196.6847, 34.10897
197.1668, 32.49061
197.6489, 31.46502
198.1310, 31.09389
198.6131, 31.18443
199.0953, 32.19941
199.5774, 33.36599
200.0595, 33.92929
200.5416, 33.57209
201.0237, 32.70123
201.5058, 32.20390
201.9880, 32.21107
202.4701, 32.39671
202.9522, 32.68118
203.4343, 33.08458
203.9164, 33.67686
204.3985, 34.49506
204.8807, 35.42389
205.3628, 36.11594
205.8449, 36.49302
206.3270, 36.68729
206.8091, 36.56716
207.2912, 36.33199
207.7733, 36.23011
208.2555, 36.39064
208.7376, 36.70933
209.2197, 36.79715
209.7018, 36.16005
210.1839, 35.84666
210.6660, 36.28273
211.1482, 37.03984
211.6303, 37.45812
212.1124, 37.16887
212.5945, 36.41963
213.0766, 36.23806
213.5587, 37.07532
214.0409, 37.89066
214.5230, 38.65217
215.0051, 39.24068
215.4872, 39.39145
215.9693, 38.90467
216.4514, 37.99102
216.9336, 37.47238
217.4157, 37.57529
217.8978, 37.67383
218.3799, 37.51678
218.8620, 37.19543
219.3441, 36.90552
219.8263, 36.68866
220.3084, 36.63369
220.7905, 37.04100
221.2726, 38.54017
221.7547, 39.42091
222.2368, 38.33942
222.7190, 35.76015
223.2011, 33.58185
223.6832, 32.67247
224.1653, 32.62533
224.6474, 32.41365
225.1295, 31.76917
225.6117, 31.57951
226.0938, 33.00236
226.5759, 35.77462
227.0580, 37.55951
227.5401, 36.91178
228.0222, 35.23769
228.5043, 34.36765
228.9865, 34.51050
229.4686, 34.97948
229.9507, 35.25535
230.4328, 35.33931
230.9149, 35.44722
231.3970, 35.86967
231.8792, 36.15613
232.3613, 35.74503
232.8434, 34.51420
233.3255, 33.36510
233.8076, 33.38637
234.2897, 34.71096
234.7719, 35.64241
235.2540, 35.33972
235.7361, 34.81798
236.2182, 34.65383
236.7003, 34.93534
237.1824, 35.49148
237.6646, 36.42186
238.1467, 37.97710
238.6288, 38.49298
239.1109, 36.27758
239.5930, 33.97176
240.0751, 32.99849
240.5573, 33.50028
241.0394, 34.64149
241.5215, 35.53545
242.0036, 36.15587
242.4857, 36.64027
242.9678, 37.18368
243.4500, 37.44994
243.9321, 36.99067
244.4142, 35.91616
244.8963, 34.91583
245.3784, 34.89177
245.8605, 36.24163
246.3427, 37.10794
246.8248, 37.54801
247.3069, 37.50520
247.7890, 36.63859
248.2711, 35.11934
248.7532, 33.60078
249.2354, 32.74780
249.7175, 32.65007
250.1996, 32.89994
250.6817, 34.10917
251.1638, 35.08867
251.6459, 35.06059
252.1281, 34.17766
252.6102, 33.23539
253.0923, 33.02827
253.5744, 33.70842
254.0565, 34.20028
254.5386, 34.41721
255.0208, 34.56444
255.5029, 34.67992
255.9850, 34.79791
256.4671, 35.02074
256.9492, 35.50381
257.4313, 36.32959
257.9135, 36.36385
258.3956, 34.76911
258.8777, 33.37317
259.3598, 32.94021
259.8419, 33.38578
260.3240, 34.32058
260.8062, 35.55959
261.2883, 37.09491
261.7704, 37.76632
262.2525, 37.05330
262.7346, 36.22831
263.2167, 35.79427
263.6989, 35.66778
264.1810, 35.57241
264.6631, 35.35979
265.1452, 35.01391
265.6273, 34.38462
266.1094, 32.69223
266.5916, 31.59289
267.0737, 31.90918
267.5558, 33.28809
268.0379, 35.01995
268.5200, 36.87964
269.0021, 38.63222
269.4843, 39.24276
269.9664, 37.67243
270.4485, 36.47819
270.9306, 36.83948
271.4127, 38.15198
271.8948, 39.12297
272.3770, 39.15120
272.8591, 38.56504
273.3412, 38.14501
273.8233, 37.69316
274.3054, 37.70777
274.7875, 38.75604
275.2697, 40.33053
275.7518, 41.43431
276.2339, 41.66424
276.7160, 41.43234
277.1981, 41.47749
277.6802, 41.80791
278.1623, 42.21833
278.6444, 42.79842
279.1266, 43.39352
279.6087, 43.64937
280.0908, 43.39769
280.5729, 43.08737
281.0550, 43.42577
281.5371, 44.39933
282.0193, 45.33537
282.5014, 46.27719
282.9835, 47.01348
283.4656, 47.05718
283.9477, 46.21107
284.4298, 45.32703
284.9120, 45.44227
285.3941, 46.41371
285.8762, 47.28155
286.3583, 47.73137
286.8404, 48.03051
287.3225, 48.55365
287.8047, 49.36325
288.2868, 50.12372
288.7689, 50.53796
289.2510, 50.67278
289.7331, 50.77394
290.2152, 50.78019
290.6974, 50.82748
291.1795, 51.01070
291.6616, 51.32878
292.1437, 51.89658
292.6258, 52.97758
293.1079, 54.33398
293.5901, 55.42686
294.0722, 56.30868
294.5543, 56.79561
295.0364, 56.54033
295.5185, 55.58459
296.0006, 54.72779
296.4828, 54.49783
296.9649, 54.48350
297.4470, 53.89354
297.9291, 52.40852
298.4112, 51.04170
298.8933, 50.65059
299.3755, 51.08221
299.8576, 51.41510
300.3397, 51.42649
300.8218, 51.09624
301.3039, 50.43183
301.7860, 49.40890
302.2682, 48.27637
302.7503, 46.96389
303.2324, 45.61126
303.7145, 44.70235
304.1966, 44.39936
304.6787, 44.48436
305.1609, 44.98341
305.6430, 45.82332
306.1251, 46.12616
306.6072, 44.94262
307.0893, 43.02549
307.5714, 42.18676
308.0536, 42.98067
308.5357, 43.85671
309.0178, 43.18217
309.4999, 41.49155
309.9820, 40.19627
310.4641, 40.16465
310.9463, 40.62907
311.4284, 40.29169
311.9105, 38.94126
312.3926, 37.83808
312.8747, 38.08931
313.3568, 39.11175
313.8390, 39.89986
314.3211, 40.21718
314.8032, 40.27856
315.2853, 40.27304
315.7674, 40.20010
316.2495, 40.07362
316.7317, 39.84310
317.2138, 39.59307
317.6959, 39.45127
318.1780, 39.44619
318.6601, 39.49852
319.1422, 39.61848
319.6243, 39.77872
320.1064, 39.77625
320.5886, 39.50146
321.0707, 39.07947
321.5528, 38.59028
322.0349, 38.00377
322.5170, 37.67765
322.9991, 38.08867
323.4813, 38.92231
323.9634, 39.17640
324.4455, 38.42695
324.9276, 37.59866
325.4097, 37.85631
325.8918, 38.95967
326.3740, 39.68126
326.8561, 39.16766
327.3382, 38.15338
327.8203, 37.85884
328.3024, 38.46702
328.7845, 39.30967
329.2667, 40.06408
329.7488, 40.67120
330.2309, 40.95095
330.7130, 40.79238
331.1951, 40.34297
331.6772, 39.57202
332.1594, 38.48854
332.6415, 37.68386
333.1236, 37.52446
333.6057, 37.85143
334.0878, 38.26510
334.5699, 38.86035
335.0521, 39.34352
335.5342, 39.45573
336.0163, 39.27262
336.4984, 39.14836
336.9805, 39.27002
337.4626, 39.40730
337.9448, 39.13084
338.4269, 38.36327
338.9090, 37.76839
339.3911, 37.64132
339.8732, 37.85822
340.3553, 38.27718
340.8375, 38.93745
341.3196, 39.51355
341.8017, 39.53842
342.2838, 39.07061
342.7659, 38.68603
343.2480, 38.22459
343.7302, 38.04938
344.2123, 38.76373
344.6944, 40.39263
345.1765, 42.04071
345.6586, 43.17402
346.1407, 43.72435
346.6229, 43.79043
347.1050, 42.95064
347.5871, 42.00066
348.0692, 41.34548
348.5513, 40.97028
349.0334, 40.81976
349.5156, 40.92790
349.9977, 41.18303
350.4798, 41.28372
350.9619, 41.22345
351.4440, 41.06591
351.9261, 40.68217
352.4083, 40.24712
352.8904, 40.08466
353.3725, 40.31098
353.8546, 40.69891
354.3367, 40.90362
354.8188, 40.84147
355.3010, 40.96099
355.7831, 41.26280
356.2652, 41.78629
356.7473, 42.79618
357.2294, 44.24142
357.7115, 45.40070
358.1937, 45.52466
358.6758, 44.55548
359.1579, 44.29686
359.6400, 45.28605
360.1221, 46.38491
360.6042, 47.28778
361.0863, 47.86927
361.5685, 47.73045
362.0506, 46.50221
362.5327, 44.64685
363.0148, 44.11253
363.4969, 46.25610
363.9790, 47.92614
364.4612, 48.36278
364.9433, 48.21414
365.4254, 48.30149
365.9075, 48.88780
366.3896, 49.57793
366.8717, 49.69592
367.3539, 48.72390
367.8360, 48.37679
368.3181, 48.79456
368.8002, 49.67496
369.2823, 51.10530
369.7644, 52.90045
370.2466, 54.49901
370.7287, 55.38890
371.2108, 55.53894
371.6929, 55.44353
372.1750, 54.55204
372.6571, 54.01807
373.1393, 54.67056
373.6214, 55.84374
374.1035, 56.24117
374.5856, 55.08428
375.0677, 53.04956
375.5498, 52.38258
376.0320, 54.32978
376.5141, 55.85979
376.9962, 56.79523
377.4783, 57.19244
377.9604, 56.95144
378.4425, 56.10998
378.9247, 55.03788
379.4068, 54.27296
379.8889, 53.98304
380.3710, 53.40953
380.8531, 51.89020
381.3352, 50.68147
381.8174, 50.70583
382.2995, 51.59164
382.7816, 52.18940
383.2637, 51.57651
383.7458, 49.92731
384.2279, 48.36573
384.7101, 46.46338
385.1922, 45.38062
385.6743, 46.14506
386.1564, 47.54371
386.6385, 48.03323
387.1206, 46.93151
387.6028, 45.12993
388.0849, 43.97034
388.5670, 43.52348
389.0491, 43.40265
389.5312, 43.75835
390.0133, 44.26494
390.4955, 45.01215
390.9776, 45.90852
391.4597, 46.13530
391.9418, 44.62649
392.4239, 41.72305
392.9060, 39.35615
393.3882, 37.37347
393.8703, 36.50748
394.3524, 38.02272
394.8345, 40.89732
395.3166, 42.89810
395.7987, 42.64941
396.2809, 41.55012
396.7630, 41.71206
397.2451, 43.24683
397.7272, 44.30414
398.2093, 43.74633
398.6914, 42.39496
399.1736, 41.61433
399.6557, 41.59296
400.1378, 41.64851
400.6199, 41.16808
401.1020, 40.44749
401.5841, 40.46127
402.0662, 41.65627
402.5483, 42.94501
403.0305, 42.81498
403.5126, 41.37255
403.9947, 40.30318
404.4768, 39.86787
404.9589, 39.95538
405.4410, 40.91513
405.9232, 42.58134
406.4053, 43.51388
406.8874, 42.49648
407.3695, 40.04046
407.8516, 38.81788
408.3337, 39.65101
408.8159, 40.57737
409.2980, 41.03826
409.7801, 41.19126
410.2622, 41.25330
410.7443, 41.29594
411.2264, 41.36127
411.7086, 41.51897
412.1907, 41.80653
412.6728, 42.10485
413.1549, 42.54348
413.6370, 42.89148
414.1191, 42.96700
414.6013, 42.79087
415.0834, 42.49660
415.5655, 42.16938
416.0476, 41.81842
416.5297, 41.62910
417.0118, 41.73161
417.4940, 41.85407
417.9761, 41.85468
418.4582, 41.88733
418.9403, 42.25392
419.4224, 43.05384
419.9045, 43.89895
420.3867, 44.03742
420.8688, 43.08247
421.3509, 42.45096
421.8330, 42.66003
422.3151, 42.80160
422.7972, 42.09311
423.2794, 40.78584
423.7615, 39.90264
424.2436, 40.40795
424.7257, 42.05684
425.2078, 43.19741
425.6899, 43.65957
426.1721, 43.88155
426.6542, 43.96425
427.1363, 43.95362
427.6184, 43.90499
428.1005, 43.83878
428.5826, 43.72204
429.0648, 43.46207
429.5469, 43.05349
430.0290, 42.79816
430.5111, 42.90068
430.9932, 43.02187
431.4753, 42.82463
431.9575, 42.34850
432.4396, 41.91802
432.9217, 41.41289
433.4038, 41.14441
433.8859, 41.90319
434.3680, 43.84790
434.8502, 45.60796
435.3323, 46.31741
435.8144, 46.17446
436.2965, 45.86214
436.7786, 45.16599
437.2607, 44.65832
437.7429, 44.84722
438.2250, 45.44478
438.7071, 45.75230
439.1892, 45.52711
439.6713, 45.11669
440.1534, 45.06007
440.6356, 45.52242
441.1177, 45.54173
441.5998, 44.50523
442.0819, 43.45430
442.5640, 43.21672
443.0461, 43.70242
443.5282, 44.35182
444.0103, 44.84502
444.4925, 45.13076
444.9746, 44.89560
445.4567, 42.99177
445.9388, 41.99809
446.4209, 42.79380
446.9030, 44.31601
447.3852, 45.73349
447.8673, 46.72880
448.3494, 47.10717
448.8315, 46.45644
449.3136, 44.43689
449.7957, 43.10072
450.2779, 42.78731
450.7600, 42.83875
451.2421, 43.40651
451.7242, 44.13957
452.2063, 44.34631
452.6884, 43.52816
453.1706, 42.29534
453.6527, 42.28496
454.1348, 44.06248
454.6169, 45.27156
455.0990, 44.72490
455.5811, 43.78911
456.0633, 43.37010
456.5454, 43.55164
457.0275, 43.84465
457.5096, 43.79541
457.9917, 43.55872
458.4738, 43.79931
458.9560, 44.77779
459.4381, 45.60665
459.9202, 45.43640
460.4023, 44.73359
460.8844, 44.34301
461.3665, 44.41415
461.8487, 44.82389
462.3308, 45.82153
462.8129, 47.14523
463.2950, 47.77739
463.7771, 47.26025
464.2592, 46.29998
464.7414, 45.97806
465.2235, 46.44004
465.7056, 46.45798
466.1877, 45.05300
466.6698, 43.79092
467.1519, 44.19289
467.6341, 46.02060
468.1162, 47.84168
468.5983, 48.71970
469.0804, 48.89539
469.5625, 49.44194
470.0446, 51.22692
470.5268, 52.27312
471.0089, 51.63591
471.4910, 50.65330
471.9731, 50.79057
472.4552, 52.19733
472.9373, 53.69939
473.4195, 53.91792
473.9016, 52.71735
474.3837, 52.07340
474.8658, 52.22709
475.3479, 52.73028
475.8300, 53.81005
476.3122, 55.04913
476.7943, 55.92736
477.2764, 56.23328
477.7585, 56.04842
478.2406, 55.16707
478.7227, 53.40132
479.2049, 52.75955
479.6870, 54.74191
480.1691, 56.78421
480.6512, 56.82800
481.1333, 55.21174
481.6154, 53.68014
482.0976, 53.04753
482.5797, 53.00322
483.0618, 53.26356
483.5439, 53.84328
484.0260, 53.97262
484.5081, 52.92797
484.9902, 51.44381
485.4724, 51.22902
485.9545, 52.91170
486.4366, 53.94351
486.9187, 52.82426
487.4008, 50.83092
487.8829, 49.69240
488.3651, 49.65827
488.8472, 49.93320
489.3293, 49.81134
489.8114, 49.29725
490.2935, 49.13951
490.7756, 49.67030
491.2578, 50.10091
491.7399, 50.04103
492.2220, 49.81415
492.7041, 49.91481
493.1862, 50.49163
493.6683, 51.20520
494.1505, 51.50829
494.6326, 51.20292
495.1147, 51.26948
495.5968, 52.12889
496.0789, 52.95524
496.5610, 53.43786
497.0432, 53.66566
497.5253, 53.80564
498.0074, 53.88888
498.4895, 54.07480
498.9716, 54.86754
499.4537, 56.47054
499.9359, 57.34578
500.4180, 56.44169
500.9001, 55.30629
501.3822, 55.25565
501.8643, 56.22974
502.3464, 57.35756
502.8286, 58.24156
503.3107, 59.03232
503.7928, 59.97871
504.2749, 61.08703
504.7570, 62.27705
505.2391, 63.68462
505.7213, 65.01340
506.2034, 65.37843
506.6855, 64.24074
507.1676, 63.51964
507.6497, 64.07217
508.1318, 65.11608
508.6140, 65.98849
509.0961, 66.50439
509.5782, 66.29958
510.0603, 64.85043
510.5424, 62.28191
511.0245, 61.26665
511.5067, 64.06961
511.9888, 65.68627
512.4709, 64.92628
512.9530, 62.75208
513.4351, 59.80054
513.9172, 56.41673
514.3994, 53.42702
514.8815, 51.97988
515.3636, 52.19961
515.8457, 52.22686
516.3278, 51.96326
516.8099, 51.62782
517.2921, 51.24128
517.7742, 50.86892
518.2563, 50.70015
518.7384, 50.92311
519.2205, 50.93479
519.7026, 49.76907
520.1848, 47.62569
520.6669, 45.98183
521.1490, 44.99027
521.6311, 44.88676
522.1132, 46.73203
522.5953, 50.04482
523.0775, 51.96291
523.5596, 50.85521
524.0417, 49.22064
524.5238, 48.77838
525.0059, 49.24343
525.4880, 49.74313
525.9702, 49.93971
526.4523, 49.89620
526.9344, 49.72166
527.4165, 49.44718
527.8986, 48.92434
528.3807, 47.69651
528.8629, 46.66171
529.3450, 46.39100
529.8271, 46.71585
530.3092, 47.17220
530.7913, 47.50131
531.2734, 47.78911
531.7556, 48.28604
532.2377, 49.12297
532.7198, 49.79350
533.2019, 50.27227
533.6840, 50.51937
534.1661, 50.44253
534.6483, 50.08815
535.1304, 49.63499
535.6125, 49.05444
536.0946, 48.51778
536.5767, 48.36763
537.0588, 48.61745
537.5410, 49.01698
538.0231, 49.69191
538.5052, 50.23969
538.9873, 49.73717
539.4694, 47.91581
539.9515, 47.12344
540.4337, 48.95560
540.9158, 51.48494
541.3979, 52.87299
541.8800, 53.08732
542.3621, 52.79598
542.8442, 52.31209
543.3264, 51.80037
543.8085, 51.82560
544.2906, 52.72525
544.7726, 53.73287
545.2548, 55.34411
545.7369, 56.67024
546.2190, 56.65226
546.7011, 55.61140
547.1832, 54.94698
547.6653, 55.80747
548.1475, 57.79143
548.6296, 59.32988
549.1117, 60.38797
549.5938, 61.08852
550.0759, 60.56990
550.5580, 60.30019
551.0402, 61.68748
551.5223, 64.74965
552.0044, 67.83409
552.4865, 70.03655
552.9686, 71.63028
553.4507, 72.95029
553.9329, 74.00964
554.4150, 75.31674
554.8971, 77.22025
555.3792, 79.48170
555.8613, 81.49709
556.3434, 83.29319
556.8256, 84.84761
557.3077, 85.68306
557.7898, 86.61146
558.2719, 88.53157
558.7540, 91.33865
559.2361, 94.17757
559.7183, 96.46696
560.2004, 98.32068
560.6825, 100.2912
561.1646, 102.4912
561.6467, 104.5900
562.1288, 106.4586
562.6110, 108.3093
563.0931, 110.4472
563.5752, 112.7721
564.0573, 114.7957
564.5394, 116.0911
565.0215, 116.8907
565.5037, 117.8725
565.9858, 119.1342
566.4679, 119.9521
566.9500, 119.9414
567.4321, 119.4297
567.9142, 118.9660
568.3964, 118.5881
568.8785, 117.7565
569.3606, 116.3012
569.8427, 114.2997
570.3248, 111.5752
570.8069, 108.3010
571.2891, 105.2125
571.7712, 102.8076
572.2533, 100.6302
572.7354, 97.53590
573.2175, 92.43186
573.6996, 88.33372
574.1818, 85.66048
574.6639, 83.53681
575.1460, 81.57710
575.6281, 79.70028
576.1102, 77.88981
576.5923, 76.11480
577.0745, 74.46384
577.5566, 73.13726
578.0387, 72.15746
578.5208, 71.40842
579.0029, 71.12017
579.4850, 70.80291
579.9672, 69.87029
580.4493, 68.53252
580.9314, 67.70246
581.4135, 68.42194
581.8956, 69.20210
582.3777, 68.17188
582.8599, 65.86790
583.3420, 64.48449
583.8241, 64.89776
584.3062, 65.84994
584.7883, 65.55352
585.2704, 63.57512
585.7526, 62.51382
586.2347, 63.19423
586.7168, 63.84118
587.1989, 63.45255
587.6810, 62.59370
588.1631, 62.35429
588.6453, 63.10237
589.1274, 64.01255
