##NAMES=Chalcomenite
##RRUFFID=R060586
##IDEAL CHEMISTRY=Cu^2+^Se^4+^O_3_&#183;2H_2_O
##LOCALITY=El Dragon mine, Potosi, Bolivia
##OWNER=RRUFF
##SOURCE=Michael Scott
##DESCRIPTION=Blue crystalline mass, associated with white needle calcite
##STATUS=The identification of this mineral is confirmed by single-crystal X-ray diffraction and chemical analysis.
##URL=rruff.info/R060586
##MEASURED CHEMISTRY=Cu_1.00_Se^4+^_1.00_O_3_Â·1.84H_2_O ; trace amounts of Fe
162.8097, 33.40491
163.2918, 36.65257
163.7739, 36.29375
164.2560, 35.58875
164.7382, 35.76403
165.2203, 36.70649
165.7024, 37.98319
166.1845, 39.33540
166.6666, 40.96074
167.1487, 43.07691
167.6309, 46.68313
168.1130, 49.84454
168.5951, 50.37946
169.0772, 48.84839
169.5593, 48.64511
170.0414, 53.42942
170.5236, 60.21602
171.0057, 65.35777
171.4878, 66.87695
171.9699, 66.95921
172.4520, 66.72881
172.9341, 66.27637
173.4163, 66.82435
173.8984, 69.76678
174.3805, 74.27845
174.8626, 78.88107
175.3447, 85.15278
175.8268, 90.22465
176.3090, 89.38073
176.7911, 82.56953
177.2732, 76.02871
177.7553, 74.61367
178.2374, 77.17586
178.7195, 81.41585
179.2017, 87.89291
179.6838, 94.95097
180.1659, 99.57114
180.6480, 101.6648
181.1301, 103.3237
181.6122, 107.0387
182.0944, 112.1775
182.5765, 116.5571
183.0586, 119.1363
183.5407, 120.3609
184.0228, 120.9978
184.5049, 120.9391
184.9871, 121.0397
185.4692, 123.5453
185.9513, 127.7384
186.4334, 129.5276
186.9155, 125.7645
187.3976, 117.9919
187.8798, 110.8879
188.3619, 104.4482
188.8440, 99.32609
189.3261, 96.99977
189.8082, 97.28061
190.2903, 98.15001
190.7725, 98.77584
191.2546, 99.17591
191.7367, 99.35524
192.2188, 99.27150
192.7009, 99.08949
193.1830, 99.02700
193.6652, 99.08069
194.1473, 99.31663
194.6294, 99.73906
195.1115, 100.3522
195.5936, 101.3514
196.0757, 102.9116
196.5579, 104.5780
197.0400, 105.0431
197.5221, 104.1121
198.0042, 104.0051
198.4863, 106.5683
198.9684, 111.8340
199.4506, 115.9710
199.9327, 118.7276
200.4148, 120.2001
200.8969, 119.9866
201.3790, 117.6694
201.8611, 115.8979
202.3433, 116.6983
202.8254, 120.3787
203.3075, 122.8852
203.7896, 123.7542
204.2717, 123.4183
204.7538, 122.5334
205.2360, 120.6906
205.7181, 119.7768
206.2002, 121.6051
206.6823, 126.8971
207.1644, 130.0900
207.6465, 130.2638
208.1287, 128.3302
208.6108, 126.6163
209.0929, 124.6868
209.5750, 124.1486
210.0571, 126.5720
210.5392, 132.8775
211.0214, 137.7000
211.5035, 140.0347
211.9856, 140.7517
212.4677, 143.0086
212.9498, 147.2050
213.4319, 152.0605
213.9140, 156.7713
214.3962, 161.0854
214.8783, 166.3133
215.3604, 173.0354
215.8425, 180.6878
216.3246, 186.7502
216.8067, 191.1267
217.2889, 194.2265
217.7710, 196.2974
218.2531, 197.2856
218.7352, 197.4876
219.2173, 197.2838
219.6994, 196.3021
220.1816, 192.7528
220.6637, 185.7927
221.1458, 177.6482
221.6279, 169.5582
222.1100, 161.0359
222.5921, 153.8017
223.0743, 148.6868
223.5564, 145.0023
224.0385, 138.7632
224.5206, 128.0867
225.0027, 118.0455
225.4848, 111.8844
225.9670, 110.8728
226.4491, 110.8718
226.9312, 112.0443
227.4133, 114.0313
227.8954, 115.2286
228.3775, 115.7907
228.8597, 115.3199
229.3418, 113.2059
229.8239, 107.9401
230.3060, 104.5715
230.7881, 103.8820
231.2702, 105.4254
231.7524, 107.3703
232.2345, 110.6042
232.7166, 112.9568
233.1987, 112.7875
233.6808, 108.1878
234.1629, 105.3411
234.6451, 105.1538
235.1272, 107.0372
235.6093, 108.3340
236.0914, 108.4149
236.5735, 108.7701
237.0556, 110.4037
237.5378, 114.3952
238.0199, 117.3438
238.5020, 119.1426
238.9841, 119.7900
239.4662, 119.0470
239.9483, 116.0354
240.4305, 112.8424
240.9126, 110.4647
241.3947, 108.8426
241.8768, 108.2644
242.3589, 109.4246
242.8410, 111.5993
243.3232, 112.0936
243.8053, 109.8626
244.2874, 107.3781
244.7695, 106.0238
245.2516, 106.7417
245.7337, 106.3439
246.2159, 103.9064
246.6980, 100.3871
247.1801, 98.99488
247.6622, 100.6481
248.1443, 103.0112
248.6264, 105.0475
249.1086, 106.8076
249.5907, 108.1605
250.0728, 109.1270
250.5549, 109.6816
251.0370, 109.5848
251.5191, 108.0412
252.0013, 107.1124
252.4834, 108.1196
252.9655, 112.8186
253.4476, 114.6021
253.9297, 111.8447
254.4118, 106.9003
254.8940, 105.0531
255.3761, 107.3152
255.8582, 110.9023
256.3403, 115.0800
256.8224, 120.6527
257.3046, 123.9955
257.7867, 124.3205
258.2688, 122.8911
258.7509, 122.1190
259.2330, 122.2720
259.7151, 122.5538
260.1973, 122.8442
260.6794, 123.3889
261.1615, 122.7766
261.6436, 120.7364
262.1257, 117.7911
262.6078, 114.7012
263.0900, 111.3169
263.5721, 108.2061
264.0542, 105.5131
264.5363, 103.1482
265.0184, 101.6508
265.5005, 101.1182
265.9827, 101.2992
266.4648, 102.1258
266.9469, 104.1540
267.4290, 105.1595
267.9111, 104.0613
268.3932, 100.6653
268.8754, 98.52194
269.3575, 97.98711
269.8396, 98.15128
270.3217, 97.80552
270.8038, 96.71902
271.2859, 96.03770
271.7681, 96.27464
272.2502, 97.37828
272.7323, 97.74308
273.2144, 97.09272
273.6965, 96.24985
274.1786, 96.16805
274.6608, 97.00161
275.1429, 97.74826
275.6250, 98.10082
276.1071, 98.13774
276.5892, 98.50029
277.0714, 99.24925
277.5535, 100.1352
278.0356, 101.2493
278.5177, 102.7330
278.9998, 102.7836
279.4819, 100.2903
279.9641, 96.22355
280.4462, 95.37035
280.9283, 98.36108
281.4104, 101.8504
281.8925, 103.1030
282.3746, 102.0944
282.8568, 100.6543
283.3389, 98.64220
283.8210, 96.73368
284.3031, 97.20206
284.7852, 100.2933
285.2673, 103.7205
285.7495, 106.3527
286.2316, 108.1415
286.7137, 108.0332
287.1958, 105.2612
287.6779, 101.4771
288.1600, 100.5103
288.6422, 102.4082
289.1243, 104.1063
289.6064, 103.0379
290.0885, 99.86193
290.5706, 98.34201
291.0527, 99.27345
291.5349, 100.8288
292.0170, 100.0973
292.4991, 97.20872
292.9812, 93.54155
293.4633, 89.04428
293.9454, 84.30102
294.4276, 81.51589
294.9097, 81.08784
295.3918, 81.47493
295.8739, 80.66898
296.3560, 78.94125
296.8381, 77.53568
297.3203, 77.96535
297.8024, 78.97112
298.2845, 77.26238
298.7666, 72.48406
299.2487, 67.91628
299.7308, 67.63802
300.2130, 70.33345
300.6951, 72.20945
301.1772, 70.87086
301.6593, 68.27916
302.1414, 67.44299
302.6235, 68.33006
303.1057, 69.26295
303.5878, 68.60033
304.0699, 67.01964
304.5520, 65.78118
305.0341, 65.39474
305.5162, 65.43527
305.9984, 65.53238
306.4805, 65.68334
306.9626, 65.87592
307.4447, 66.50007
307.9268, 67.03712
308.4089, 66.59925
308.8911, 63.98907
309.3732, 61.84809
309.8553, 63.50274
310.3374, 67.72507
310.8195, 70.38557
311.3016, 67.37063
311.7838, 62.63311
312.2659, 59.76010
312.7480, 59.98537
313.2301, 60.87452
313.7122, 61.33410
314.1943, 61.40196
314.6765, 61.14488
315.1586, 59.59941
315.6407, 58.43435
316.1228, 59.12748
316.6049, 62.47236
317.0870, 65.03794
317.5692, 64.71066
318.0513, 62.80659
318.5334, 61.16064
319.0155, 60.49998
319.4976, 60.10671
319.9797, 59.50718
320.4619, 58.59496
320.9440, 58.44733
321.4261, 60.46697
321.9082, 62.93430
322.3903, 64.21180
322.8724, 63.32846
323.3546, 61.84958
323.8367, 59.62635
324.3188, 56.74320
324.8009, 55.02275
325.2830, 55.44857
325.7651, 56.71561
326.2473, 57.98226
326.7294, 59.80008
327.2115, 60.89238
327.6936, 60.71247
328.1757, 59.55573
328.6578, 58.89233
329.1400, 59.59019
329.6221, 60.07479
330.1042, 59.56660
330.5863, 56.32942
331.0684, 54.99775
331.5505, 56.35246
332.0327, 59.46924
332.5148, 62.45125
332.9969, 66.29579
333.4790, 68.63889
333.9611, 68.37984
334.4432, 64.65467
334.9254, 61.72566
335.4075, 59.65537
335.8896, 58.35596
336.3717, 57.66842
336.8538, 57.41667
337.3359, 58.31016
337.8180, 61.18633
338.3001, 65.97236
338.7823, 68.11717
339.2644, 66.71738
339.7465, 64.42588
340.2286, 63.84999
340.7107, 65.25803
341.1928, 66.80692
341.6750, 68.07553
342.1571, 69.23656
342.6392, 71.29605
343.1213, 74.60761
343.6034, 77.04580
344.0855, 76.17480
344.5677, 72.20333
345.0498, 70.37716
345.5319, 71.74415
346.0140, 74.84977
346.4961, 77.26643
346.9782, 78.98930
347.4604, 80.01916
347.9425, 80.06686
348.4246, 79.36855
348.9067, 78.66592
349.3888, 77.93896
349.8709, 77.49920
350.3531, 77.67779
350.8352, 78.45191
351.3173, 79.73116
351.7994, 82.18948
352.2815, 84.90054
352.7636, 86.29929
353.2458, 86.38423
353.7279, 85.78030
354.2100, 84.57089
354.6921, 83.09603
355.1742, 81.98399
355.6563, 81.76751
356.1385, 81.61216
356.6206, 80.73671
357.1027, 79.21128
357.5848, 77.42332
358.0669, 74.36063
358.5490, 71.74596
359.0312, 71.59102
359.5133, 75.46751
359.9954, 79.13108
360.4775, 79.66970
360.9596, 78.21726
361.4417, 77.17561
361.9239, 77.58044
362.4060, 78.60648
362.8881, 80.11379
363.3702, 82.33958
363.8523, 83.66061
364.3344, 83.00011
364.8166, 81.34985
365.2987, 79.82838
365.7808, 77.67781
366.2629, 76.74094
366.7450, 78.36112
367.2271, 82.51049
367.7093, 85.12221
368.1914, 85.04937
368.6735, 83.72082
369.1556, 82.02443
369.6377, 77.94852
370.1198, 76.16786
370.6020, 78.22990
371.0841, 82.90803
371.5662, 85.75655
372.0483, 85.92577
372.5304, 85.25956
373.0125, 84.37141
373.4947, 83.01103
373.9768, 82.13585
374.4589, 81.65232
374.9410, 81.71844
375.4231, 82.69605
375.9052, 84.89140
376.3874, 87.21012
376.8695, 89.65394
377.3516, 92.20515
377.8337, 92.71812
378.3158, 90.71938
378.7979, 88.04382
379.2801, 86.43822
379.7622, 85.92097
380.2443, 85.90233
380.7264, 86.61205
381.2085, 87.45969
381.6906, 86.34810
382.1728, 83.23170
382.6549, 80.63113
383.1370, 80.69212
383.6191, 82.79731
384.1012, 84.49231
384.5833, 85.46627
385.0655, 86.26022
385.5476, 87.61792
386.0297, 89.42270
386.5118, 91.18184
386.9939, 93.42541
387.4760, 95.19008
387.9582, 94.37437
388.4403, 90.91146
388.9224, 87.92892
389.4045, 88.60743
389.8866, 91.20268
390.3687, 93.24570
390.8509, 93.36952
391.3330, 93.27003
391.8151, 94.84446
392.2972, 97.45853
392.7793, 98.56828
393.2614, 94.82369
393.7436, 90.43405
394.2257, 88.55434
394.7078, 90.77660
395.1899, 93.01222
395.6720, 93.54800
396.1541, 93.22700
396.6363, 93.40504
397.1184, 95.64065
397.6005, 97.28140
398.0826, 97.06764
398.5647, 94.64594
399.0468, 92.94119
399.5290, 92.83737
400.0111, 93.22118
400.4932, 93.19138
400.9753, 92.20607
401.4574, 91.52860
401.9395, 91.32390
402.4217, 91.52451
402.9038, 91.93788
403.3859, 93.20376
403.8680, 93.74425
404.3501, 92.48173
404.8322, 88.53220
405.3144, 85.95934
405.7965, 85.06454
406.2786, 85.21752
406.7607, 85.57188
407.2428, 86.18961
407.7249, 86.68055
408.2071, 86.97256
408.6892, 87.03928
409.1713, 86.74374
409.6534, 86.10682
410.1355, 84.95267
410.6176, 82.57126
411.0998, 79.29197
411.5819, 77.19410
412.0640, 76.90105
412.5461, 77.59224
413.0282, 78.37975
413.5103, 79.13756
413.9925, 79.16353
414.4746, 76.57955
414.9567, 73.48089
415.4388, 73.96754
415.9209, 78.79378
416.4030, 83.21265
416.8852, 82.60746
417.3673, 79.06686
417.8494, 76.01315
418.3315, 74.80430
418.8136, 74.45749
419.2957, 74.83318
419.7779, 75.74207
420.2600, 76.00229
420.7421, 74.65535
421.2242, 72.70430
421.7063, 70.82471
422.1884, 68.77976
422.6706, 67.43132
423.1527, 66.81175
423.6348, 67.03841
424.1169, 68.30875
424.5990, 72.95981
425.0811, 76.46326
425.5633, 76.96873
426.0454, 73.92136
426.5275, 71.78492
427.0096, 70.46796
427.4917, 70.11526
427.9738, 71.06718
428.4560, 74.55824
428.9381, 76.73180
429.4202, 76.88523
429.9023, 75.47110
430.3844, 73.87679
430.8665, 71.95496
431.3487, 70.30211
431.8308, 69.26985
432.3129, 68.88583
432.7950, 68.52750
433.2771, 68.08910
433.7592, 67.96004
434.2414, 69.14742
434.7235, 71.47339
435.2056, 72.69418
435.6877, 71.58816
436.1698, 69.29651
436.6519, 68.37549
437.1341, 68.75197
437.6162, 69.06829
438.0983, 67.61996
438.5804, 65.59362
439.0625, 65.36842
439.5446, 67.85159
440.0268, 70.41044
440.5089, 70.63330
440.9910, 69.19907
441.4731, 67.50538
441.9552, 65.20318
442.4373, 63.60302
442.9195, 64.00631
443.4016, 66.37666
443.8837, 68.34081
444.3658, 68.47465
444.8479, 68.05728
445.3300, 68.11714
445.8122, 69.94529
446.2943, 70.83699
446.7764, 69.34032
447.2585, 66.54665
447.7406, 65.25479
448.2227, 67.36998
448.7049, 69.29644
449.1870, 69.82936
449.6691, 68.59537
450.1512, 68.25973
450.6333, 69.41408
451.1154, 70.82761
451.5976, 71.29812
452.0797, 70.57165
452.5618, 69.66526
453.0439, 68.45178
453.5260, 67.30926
454.0081, 67.48011
454.4903, 69.10857
454.9724, 71.13642
455.4545, 73.74902
455.9366, 76.57272
456.4187, 76.45463
456.9008, 72.85084
457.3830, 68.76185
457.8651, 67.93311
458.3472, 69.58823
458.8293, 71.30663
459.3114, 72.39246
459.7935, 73.06968
460.2757, 73.28333
460.7578, 73.20477
461.2399, 73.69955
461.7220, 75.86057
462.2041, 78.54298
462.6862, 80.87263
463.1684, 82.90828
463.6505, 83.73531
464.1326, 81.60143
464.6147, 78.35423
465.0968, 76.35288
465.5789, 77.36501
466.0611, 78.68876
466.5432, 79.69921
467.0253, 80.37196
467.5074, 80.74577
467.9895, 80.10568
468.4716, 79.75228
468.9538, 80.41082
469.4359, 82.94629
469.9180, 84.53686
470.4001, 84.73308
470.8822, 84.30698
471.3643, 84.50105
471.8465, 85.65732
472.3286, 86.43337
472.8107, 86.45046
473.2928, 85.80028
473.7749, 84.80573
474.2570, 83.33962
474.7392, 82.22936
475.2213, 82.24398
475.7034, 83.23855
476.1855, 84.25099
476.6676, 85.19534
477.1497, 86.10021
477.6319, 86.83794
478.1140, 87.52866
478.5961, 88.56460
479.0782, 90.86760
479.5603, 93.14283
480.0424, 93.57021
480.5246, 92.35537
481.0067, 91.16758
481.4888, 91.18111
481.9709, 91.61864
482.4530, 91.81390
482.9352, 91.61674
483.4173, 91.22227
483.8994, 90.23463
484.3815, 89.19768
484.8636, 88.94901
485.3457, 91.05213
485.8279, 92.54887
486.3100, 92.34974
486.7921, 90.43214
487.2742, 89.06104
487.7563, 89.01916
488.2384, 88.71742
488.7206, 86.99746
489.2027, 82.55161
489.6848, 80.33089
490.1669, 80.95152
490.6490, 83.21348
491.1311, 85.66056
491.6133, 88.47981
492.0954, 90.05007
492.5775, 89.77305
493.0596, 87.87941
493.5417, 84.49377
494.0238, 79.58486
494.5060, 75.73026
494.9881, 75.31393
495.4702, 77.41191
495.9523, 80.15287
496.4344, 83.61267
496.9165, 86.15637
497.3987, 84.84607
497.8808, 81.56918
498.3629, 79.91176
498.8450, 83.20554
499.3271, 87.04313
499.8092, 88.70763
500.2914, 88.42263
500.7735, 87.40540
501.2556, 85.44317
501.7377, 83.40451
502.2198, 81.51293
502.7019, 78.96996
503.1841, 78.70248
503.6662, 83.72617
504.1483, 90.10925
504.6304, 93.16096
505.1125, 90.58100
505.5946, 88.34810
506.0768, 87.40694
506.5589, 87.52150
507.0410, 87.51218
507.5231, 87.36880
508.0052, 87.12890
508.4873, 86.47094
508.9695, 85.39046
509.4516, 85.97913
509.9337, 88.54231
510.4158, 91.54359
510.8979, 93.43720
511.3800, 94.30614
511.8622, 94.31219
512.3443, 93.04748
512.8264, 91.61152
513.3085, 91.51253
513.7906, 92.51341
514.2728, 93.76395
514.7549, 94.57607
515.2370, 95.56762
515.7191, 97.68153
516.2012, 101.0861
516.6833, 103.5781
517.1655, 102.8008
517.6476, 101.3996
518.1297, 101.6533
518.6118, 105.8090
519.0939, 109.4329
519.5760, 112.0862
520.0582, 113.7117
520.5403, 114.2293
521.0224, 112.1935
521.5045, 111.0825
521.9866, 112.1530
522.4688, 115.4070
522.9509, 117.6211
523.4330, 118.2061
523.9151, 119.1434
524.3972, 122.5174
524.8793, 128.3914
525.3615, 132.5261
525.8436, 134.1712
526.3257, 135.0984
526.8078, 138.4311
527.2899, 143.5672
527.7720, 147.5429
528.2542, 148.3650
528.7363, 147.9988
529.2184, 149.0511
529.7005, 151.3227
530.1826, 153.7787
530.6647, 155.5853
531.1469, 157.4155
531.6290, 159.7812
532.1111, 162.6833
532.5932, 166.4328
533.0753, 172.5455
533.5574, 178.9783
534.0396, 183.5113
534.5217, 184.0538
535.0038, 184.7308
535.4859, 185.5829
535.9680, 186.9565
536.4501, 190.1998
536.9323, 196.7008
537.4144, 202.6912
537.8965, 206.5093
538.3786, 208.0739
538.8607, 210.4571
539.3428, 213.6793
539.8250, 217.5910
540.3071, 222.8616
540.7892, 229.0994
541.2713, 232.6004
541.7534, 231.9584
542.2355, 230.6808
542.7177, 234.4990
543.1998, 241.9579
543.6819, 248.3283
544.1640, 250.4311
544.6461, 251.0876
545.1282, 252.9328
545.6104, 255.7598
546.0925, 258.2880
546.5746, 259.2144
547.0567, 260.0577
547.5388, 261.9944
548.0209, 265.6037
548.5031, 268.8729
548.9852, 271.4730
549.4673, 273.5102
549.9494, 275.0919
550.4315, 276.0045
550.9136, 276.8086
551.3958, 277.5869
551.8779, 278.2853
552.3600, 278.8589
552.8421, 279.5044
553.3242, 279.3261
553.8063, 277.5674
554.2885, 274.5126
554.7706, 272.5596
555.2527, 271.7958
555.7348, 271.2168
556.2169, 270.4740
556.6990, 269.2274
557.1812, 266.2803
557.6633, 261.0899
558.1454, 255.5862
558.6275, 251.8567
559.1096, 249.0999
559.5917, 245.8166
560.0739, 242.4111
560.5560, 237.4408
561.0381, 228.4778
561.5202, 216.8412
562.0023, 207.9436
562.4844, 204.7981
562.9666, 203.2600
563.4487, 202.0790
563.9308, 201.6877
564.4129, 199.1042
564.8950, 192.5758
565.3771, 185.7673
565.8593, 182.2581
566.3414, 183.4551
566.8235, 181.5487
567.3056, 174.9093
567.7877, 166.1425
568.2698, 159.7084
568.7520, 155.4881
569.2341, 152.4346
569.7162, 150.4619
570.1983, 149.1564
570.6804, 147.8917
571.1625, 146.6400
571.6447, 145.1667
572.1268, 143.4689
572.6089, 141.3895
573.0910, 138.5325
573.5731, 134.6616
574.0552, 131.3886
574.5374, 129.5812
575.0195, 128.6155
575.5016, 127.8964
575.9837, 128.9024
576.4658, 128.1591
576.9479, 124.1799
577.4301, 118.5225
577.9122, 114.0906
578.3943, 110.7091
578.8764, 108.9307
579.3585, 109.5499
579.8406, 112.0350
580.3228, 112.6666
580.8049, 111.3434
581.2870, 108.8324
581.7691, 104.8905
582.2512, 100.0607
582.7333, 96.44511
583.2155, 94.17521
583.6975, 92.94180
584.1796, 93.04948
584.6617, 93.81731
585.1439, 94.15659
585.6260, 93.88330
586.1081, 92.91190
586.5902, 90.29538
587.0723, 87.02809
587.5544, 85.06786
588.0366, 86.12569
588.5187, 87.35550
589.0008, 87.75471
589.4829, 87.36137
589.9650, 87.50378
590.4471, 89.25826
590.9293, 90.12403
591.4114, 88.41887
591.8935, 83.47907
592.3756, 80.78672
592.8577, 80.69840
593.3398, 81.89426
593.8220, 83.86173
594.3041, 86.28150
594.7862, 86.26106
595.2683, 82.62081
595.7504, 78.11791
596.2325, 75.90675
596.7147, 75.64717
597.1968, 76.46825
597.6789, 79.14396
598.1610, 81.78413
598.6431, 83.00810
599.1252, 82.98788
599.6074, 82.60414
600.0895, 82.11127
600.5716, 81.38517
601.0537, 80.13245
601.5358, 78.03484
602.0179, 77.03531
602.5001, 77.99848
602.9822, 79.22173
603.4643, 79.37041
603.9464, 78.08692
604.4285, 77.16521
604.9106, 76.78844
605.3928, 76.65005
605.8749, 76.27489
606.3570, 75.67898
606.8391, 75.05360
607.3212, 74.27206
607.8033, 73.72607
608.2855, 74.34181
608.7676, 75.79772
609.2497, 76.93349
609.7318, 77.26939
610.2139, 76.89916
610.6960, 75.46455
611.1782, 73.02354
611.6603, 71.26083
612.1424, 71.08758
612.6245, 71.52699
613.1066, 72.05059
613.5887, 72.87055
614.0709, 73.18127
614.5530, 72.86890
615.0351, 72.15267
615.5172, 71.08633
615.9993, 69.41856
616.4814, 68.53226
616.9636, 68.71375
617.4457, 69.62879
617.9278, 70.91106
618.4099, 72.49409
618.8920, 73.70237
619.3741, 74.14430
619.8563, 74.14861
620.3384, 74.13972
620.8205, 74.10461
621.3026, 73.98073
621.7847, 74.16171
622.2668, 73.92874
622.7490, 72.27024
623.2311, 68.88088
623.7132, 66.73655
624.1953, 67.69398
624.6774, 69.44751
625.1595, 70.35629
625.6417, 69.62540
626.1238, 69.58085
626.6059, 70.45350
627.0880, 71.75944
627.5701, 73.14120
628.0522, 74.72987
628.5344, 75.04871
629.0165, 73.54302
629.4986, 70.96996
629.9807, 68.09528
630.4628, 65.19193
630.9449, 63.78015
631.4271, 65.68223
631.9092, 68.73832
632.3913, 70.87277
632.8734, 72.11411
633.3555, 72.71897
633.8376, 72.55050
634.3198, 72.00620
634.8019, 71.03503
635.2840, 69.32620
635.7661, 68.87659
636.2482, 70.99520
636.7303, 73.49878
637.2125, 74.81273
637.6946, 74.27830
638.1767, 74.66264
638.6588, 76.55704
639.1409, 78.54520
639.6230, 78.22060
640.1052, 75.75761
640.5873, 73.81725
641.0694, 73.23006
641.5515, 73.23754
642.0336, 72.67254
642.5157, 71.76085
642.9979, 71.15396
643.4800, 71.27668
643.9621, 71.73919
644.4442, 72.39268
644.9263, 73.19172
645.4084, 73.90707
645.8906, 74.56806
646.3727, 75.03205
646.8548, 75.14122
647.3369, 74.82303
647.8190, 74.83294
648.3011, 75.62039
648.7833, 76.06100
649.2654, 75.02522
649.7475, 72.31107
650.2296, 70.43644
650.7117, 69.52802
651.1938, 69.47553
651.6760, 70.48545
652.1581, 72.28568
652.6402, 73.99272
653.1223, 75.31290
653.6044, 76.60668
654.0865, 78.70152
654.5687, 80.97240
655.0508, 82.23547
655.5329, 80.94669
656.0150, 79.72153
656.4971, 79.14779
656.9792, 79.35365
657.4614, 81.00981
657.9435, 86.53769
