##NAMES=Chalcocite
##RRUFFID=R070730
##IDEAL CHEMISTRY=Cu^1+^_2_S^2-^
##LOCALITY=La Mesa, Chihuahua, Mexico
##OWNER=RRUFF
##SOURCE=Michael Scott
##DESCRIPTION=Dark gray rounded metallic grains associated with ajoite
##STATUS=The identification of this mineral is confirmed by single-crystal X-ray diffraction and chemical analysis.
##URL=rruff.info/R070730
##MEASURED CHEMISTRY=Cu_1.97_Ag_0.01_S
80.11163, 0.0000000E+00
80.59375, 156.9007
81.07587, 172.4001
81.55798, 183.6100
82.04010, 190.4464
82.52222, 191.9704
83.00433, 183.4277
83.48645, 171.5978
83.96857, 161.6692
84.45068, 155.1229
84.93280, 150.7687
85.41492, 149.5500
85.89703, 152.1692
86.37915, 152.4033
86.86127, 143.5004
87.34338, 129.9281
87.82550, 119.7768
88.30762, 117.1691
88.78973, 119.8403
89.27185, 126.5389
89.75397, 139.9049
90.23608, 152.8111
90.71819, 156.0494
91.20031, 150.7967
91.68243, 145.9563
92.16454, 148.3587
92.64666, 156.4224
93.12878, 166.3274
93.61089, 182.8958
94.09301, 199.7079
94.57513, 197.1139
95.05724, 170.5827
95.53936, 142.2149
96.02148, 145.7108
96.50359, 180.1015
96.98571, 213.0263
97.46783, 225.2847
97.94994, 217.8610
98.43206, 206.0513
98.91418, 188.1180
99.39629, 168.6777
99.87841, 164.7919
100.3605, 180.5055
100.8426, 200.2588
101.3248, 209.2335
101.8069, 204.4794
102.2890, 200.3464
102.7711, 200.7066
103.2532, 206.3226
103.7353, 209.1003
104.2175, 207.7869
104.6996, 204.5277
105.1817, 202.4818
105.6638, 199.2793
106.1459, 200.5375
106.6280, 209.4489
107.1102, 238.1665
107.5923, 255.0416
108.0744, 250.3741
108.5565, 228.8307
109.0386, 224.6710
109.5207, 250.8335
110.0029, 287.1248
110.4850, 320.7892
110.9671, 354.8332
111.4492, 383.3558
111.9313, 402.7040
112.4134, 410.5901
112.8956, 424.0684
113.3777, 455.4127
113.8598, 491.5002
114.3419, 515.2964
114.8240, 505.7013
115.3061, 495.0403
115.7883, 498.8770
116.2704, 526.3055
116.7525, 555.7412
117.2346, 580.0515
117.7167, 600.3905
118.1988, 620.5096
118.6810, 641.6775
119.1631, 663.8053
119.6452, 686.6147
120.1273, 712.6210
120.6094, 737.5950
121.0915, 755.7221
121.5737, 766.8952
122.0558, 783.5690
122.5379, 829.0643
123.0200, 885.5642
123.5021, 920.9222
123.9842, 898.8521
124.4664, 855.5164
124.9485, 834.9555
125.4306, 845.7652
125.9127, 867.7298
126.3948, 878.3612
126.8769, 880.4961
127.3591, 887.8188
127.8412, 918.2371
128.3233, 961.0341
128.8054, 989.5592
129.2875, 993.0634
129.7696, 981.7173
130.2518, 975.6159
130.7339, 976.2441
131.2160, 976.9203
131.6981, 962.1559
132.1802, 935.0923
132.6623, 920.8317
133.1445, 934.5656
133.6266, 971.3196
134.1087, 998.4278
134.5908, 1015.345
135.0729, 1024.872
135.5550, 1030.730
136.0372, 1032.755
136.5193, 1032.165
137.0014, 1027.111
137.4835, 1016.632
137.9656, 1014.481
138.4477, 1024.874
138.9299, 1043.057
139.4120, 1052.212
139.8941, 1050.430
140.3762, 1044.036
140.8583, 1037.247
141.3404, 1029.707
141.8225, 1023.197
142.3047, 1018.327
142.7868, 1015.211
143.2689, 1010.802
143.7510, 1001.674
144.2331, 994.2135
144.7152, 997.9010
145.1974, 1022.442
145.6795, 1043.111
146.1616, 1052.911
146.6437, 1049.204
147.1258, 1041.009
147.6079, 1024.138
148.0901, 1002.821
148.5722, 989.0578
149.0543, 983.6722
149.5364, 984.7397
150.0185, 991.5048
150.5006, 1011.818
150.9828, 1028.500
151.4649, 1041.932
151.9470, 1051.888
152.4291, 1055.565
152.9112, 1044.532
153.3933, 1031.701
153.8755, 1026.076
154.3576, 1043.735
154.8397, 1053.864
155.3218, 1046.204
155.8039, 1016.861
156.2860, 993.6333
156.7682, 982.1333
157.2503, 979.3057
157.7324, 981.4000
158.2145, 998.0690
158.6966, 1011.344
159.1787, 1011.995
159.6609, 991.8206
160.1430, 975.1359
160.6251, 973.2355
161.1072, 980.5947
161.5893, 984.4466
162.0714, 975.4911
162.5536, 964.1060
163.0357, 957.5208
163.5178, 962.4434
163.9999, 966.9452
164.4820, 962.6541
164.9641, 951.4130
165.4463, 945.1210
165.9284, 958.9963
166.4105, 977.8705
166.8926, 985.3900
167.3747, 959.4354
167.8568, 931.5317
168.3390, 925.6116
168.8211, 943.7129
169.3032, 963.1006
169.7853, 970.2715
170.2674, 968.5629
170.7495, 963.8007
171.2317, 958.5245
171.7138, 951.5789
172.1959, 940.3943
172.6780, 922.9633
173.1601, 907.5488
173.6422, 900.7647
174.1244, 901.8083
174.6065, 908.0839
175.0886, 922.7532
175.5707, 940.5911
176.0528, 954.1383
176.5349, 961.8074
177.0171, 964.5732
177.4992, 961.0494
177.9813, 952.0186
178.4634, 944.0470
178.9455, 943.3923
179.4276, 947.6119
179.9098, 951.1609
180.3919, 952.5457
180.8740, 952.1055
181.3561, 950.1923
181.8382, 946.7808
182.3203, 942.6085
182.8025, 938.9040
183.2846, 935.2906
183.7667, 930.0268
184.2488, 918.0008
184.7309, 903.6119
185.2130, 902.2202
185.6951, 916.4551
186.1773, 934.1104
186.6594, 939.1136
187.1415, 932.2345
187.6236, 922.1216
188.1057, 910.7697
188.5878, 899.2555
189.0700, 892.7898
189.5521, 892.8874
190.0342, 896.6321
190.5163, 897.8210
190.9984, 896.2319
191.4805, 897.3548
191.9627, 908.2850
192.4448, 927.8124
192.9269, 940.9918
193.4090, 944.1824
193.8911, 940.0523
194.3732, 936.4822
194.8554, 933.7288
195.3375, 929.9611
195.8196, 923.0654
196.3017, 913.0052
196.7838, 902.4819
197.2659, 890.5967
197.7481, 878.4260
198.2302, 874.1595
198.7123, 879.3030
199.1944, 888.0887
199.6765, 895.0109
200.1586, 900.5060
200.6408, 901.2533
201.1229, 892.6356
201.6050, 874.4318
202.0871, 867.5757
202.5692, 874.3856
203.0513, 888.9118
203.5335, 904.0099
204.0156, 921.7299
204.4977, 931.3487
204.9798, 923.3734
205.4619, 893.7712
205.9440, 877.3505
206.4262, 878.9962
206.9083, 891.5769
207.3904, 897.3289
207.8725, 894.9822
208.3546, 889.2446
208.8367, 880.9061
209.3189, 867.4942
209.8010, 862.5477
210.2831, 869.9741
210.7652, 886.3601
211.2473, 896.7636
211.7294, 900.3744
212.2116, 899.6876
212.6937, 894.6435
213.1758, 881.6320
213.6579, 876.6908
214.1400, 886.0498
214.6221, 908.1145
215.1043, 917.0085
215.5864, 907.3534
216.0685, 892.5334
216.5506, 886.2799
217.0327, 891.8832
217.5148, 897.5011
217.9970, 900.3157
218.4791, 900.0588
218.9612, 901.5484
219.4433, 907.0587
219.9254, 911.9476
220.4075, 908.5710
220.8897, 890.7363
221.3718, 877.4903
221.8539, 876.5278
222.3360, 891.7045
222.8181, 899.9514
223.3002, 898.2708
223.7824, 891.4527
224.2645, 888.7237
224.7466, 893.8137
225.2287, 896.4929
225.7108, 891.1559
226.1929, 871.2315
226.6750, 862.4421
227.1572, 870.6042
227.6393, 888.2558
228.1214, 895.2018
228.6035, 883.8607
229.0856, 873.0445
229.5677, 873.3286
230.0499, 893.4765
230.5320, 903.9072
231.0141, 897.9330
231.4962, 881.0118
231.9783, 876.7185
232.4604, 893.7711
232.9426, 912.2296
233.4247, 919.7363
233.9068, 909.8615
234.3889, 902.1005
234.8710, 899.4569
235.3531, 901.0560
235.8353, 898.3265
236.3174, 886.1680
236.7995, 875.4777
237.2816, 875.8563
237.7637, 896.8052
238.2458, 910.3083
238.7280, 909.9623
239.2101, 896.0485
239.6922, 887.1986
240.1743, 885.9339
240.6564, 887.2174
241.1385, 886.1876
241.6207, 880.5016
242.1028, 876.6252
242.5849, 875.8644
243.0670, 878.3735
243.5491, 882.3994
244.0313, 890.4478
244.5134, 897.9249
244.9955, 898.7912
245.4776, 888.0661
245.9597, 879.4260
246.4418, 877.0253
246.9240, 882.4808
247.4061, 884.6424
247.8882, 881.8821
248.3703, 877.0027
248.8524, 873.9621
249.3345, 873.1298
249.8167, 873.5082
250.2988, 874.8794
250.7809, 877.3466
251.2630, 880.2579
251.7451, 882.8861
252.2272, 886.3341
252.7094, 893.5278
253.1915, 908.9757
253.6736, 920.4394
254.1557, 922.6906
254.6378, 912.3815
255.1199, 903.2577
255.6021, 895.2340
256.0842, 888.5064
256.5663, 883.5070
257.0484, 879.9824
257.5305, 878.6415
258.0126, 881.4855
258.4948, 893.7847
258.9769, 893.8803
259.4590, 873.1816
259.9411, 843.1782
260.4232, 838.0352
260.9053, 871.9945
261.3875, 904.7708
261.8696, 913.7107
262.3517, 888.8685
262.8338, 871.2109
263.3159, 863.3646
263.7980, 863.9348
264.2802, 869.9745
264.7623, 885.2942
265.2444, 898.5448
265.7265, 900.4852
266.2086, 885.1895
266.6907, 881.2224
267.1729, 895.9665
267.6550, 922.8245
268.1371, 935.4899
268.6192, 928.9678
269.1013, 919.0933
269.5834, 917.7593
270.0656, 927.7990
270.5477, 932.6025
271.0298, 927.4844
271.5119, 916.0165
271.9940, 915.1581
272.4761, 928.8207
272.9583, 943.1828
273.4404, 947.6061
273.9225, 940.5338
274.4046, 931.3740
274.8867, 919.4858
275.3688, 906.8281
275.8510, 903.7171
276.3331, 912.7219
276.8152, 923.6425
277.2973, 927.8256
277.7794, 924.6624
278.2615, 920.7581
278.7437, 917.8460
279.2258, 915.1003
279.7079, 907.1539
280.1900, 892.2997
280.6721, 878.8391
281.1542, 876.0163
281.6364, 884.3693
282.1185, 890.3660
282.6006, 889.7323
283.0827, 884.8018
283.5648, 886.6188
284.0469, 896.6564
284.5291, 905.8343
285.0112, 903.2761
285.4933, 889.4172
285.9754, 878.6641
286.4575, 875.4365
286.9396, 877.8176
287.4217, 878.8896
287.9038, 878.2296
288.3860, 879.1832
288.8681, 886.8986
289.3502, 900.3788
289.8323, 911.5867
290.3144, 919.2250
290.7965, 922.5438
291.2787, 915.5679
291.7608, 897.0984
292.2429, 881.3950
292.7250, 887.6880
293.2071, 910.9863
293.6892, 925.9831
294.1714, 919.2202
294.6535, 901.1772
295.1356, 896.0429
295.6177, 904.3411
296.0998, 914.3594
296.5819, 913.6494
297.0641, 905.3114
297.5462, 899.7882
298.0283, 903.1406
298.5104, 910.0311
298.9925, 909.7274
299.4746, 902.1501
299.9568, 896.4932
300.4389, 906.7567
300.9210, 925.2656
301.4031, 934.1617
301.8852, 917.8525
302.3673, 893.7894
302.8495, 886.0408
303.3316, 894.3647
303.8137, 904.6644
304.2958, 904.8155
304.7779, 898.9655
305.2600, 894.5382
305.7422, 897.8251
306.2243, 901.5077
306.7064, 895.4213
307.1885, 880.1608
307.6706, 868.7017
308.1527, 873.3286
308.6349, 886.7369
309.1170, 898.7075
309.5991, 909.4090
310.0812, 914.6402
310.5633, 907.2662
311.0454, 888.1774
311.5276, 873.2141
312.0097, 875.7270
312.4918, 886.1808
312.9739, 893.9865
313.4560, 894.9966
313.9381, 892.6677
314.4203, 886.2468
314.9024, 876.3071
315.3845, 870.7775
315.8666, 880.9460
316.3487, 894.0558
316.8308, 898.0546
317.3130, 878.7677
317.7951, 859.4796
318.2772, 851.1304
318.7593, 852.6682
319.2414, 851.9733
319.7235, 837.0919
320.2057, 822.4139
320.6878, 819.3424
321.1699, 845.5659
321.6520, 868.3584
322.1341, 875.0481
322.6162, 867.7453
323.0984, 868.1677
323.5805, 892.5926
324.0626, 919.0255
324.5447, 932.6353
325.0268, 922.7921
325.5089, 909.6267
325.9911, 891.3301
326.4732, 869.3928
326.9553, 857.2712
327.4374, 860.3766
327.9195, 870.4574
328.4016, 882.8989
328.8838, 908.5618
329.3659, 922.7690
329.8480, 918.7943
330.3301, 899.9166
330.8122, 886.6722
331.2943, 879.9392
331.7765, 877.8081
332.2586, 879.8746
332.7407, 890.7876
333.2228, 897.3233
333.7049, 896.8228
334.1870, 891.3309
334.6692, 889.3896
335.1513, 892.3707
335.6334, 896.7071
336.1155, 901.4600
336.5976, 908.8533
337.0797, 909.1915
337.5619, 899.4847
338.0440, 883.4597
338.5261, 871.1010
339.0082, 861.6325
339.4903, 858.0762
339.9724, 864.7423
340.4546, 883.5016
340.9367, 896.6552
341.4188, 903.3698
341.9009, 904.1200
342.3830, 897.9789
342.8651, 884.1513
343.3473, 871.3096
343.8294, 864.1420
344.3115, 862.3457
344.7936, 863.5608
345.2757, 868.8558
345.7578, 874.3604
346.2400, 871.0734
346.7221, 859.8258
347.2042, 853.6832
347.6863, 866.2444
348.1684, 889.7437
348.6505, 896.5568
349.1327, 883.1127
349.6148, 864.1851
350.0969, 857.0000
350.5790, 859.4956
351.0611, 863.7494
351.5432, 869.3768
352.0254, 873.2856
352.5075, 868.2632
352.9896, 853.1317
353.4717, 838.7075
353.9538, 835.5366
354.4359, 840.2888
354.9181, 846.5776
355.4002, 852.6537
355.8823, 858.4571
356.3644, 864.5413
356.8465, 870.9365
357.3286, 875.4413
357.8108, 872.4703
358.2929, 867.9431
358.7750, 869.5096
359.2571, 890.4022
359.7392, 909.4437
360.2213, 913.8603
360.7035, 904.2876
361.1856, 891.8909
361.6677, 877.2017
362.1498, 863.9651
362.6319, 855.2454
363.1140, 853.7983
363.5962, 854.9827
364.0783, 860.7327
364.5604, 869.6526
365.0425, 872.1283
365.5246, 858.0655
366.0067, 841.8651
366.4889, 832.4039
366.9710, 837.7629
367.4531, 841.5900
367.9352, 840.0241
368.4173, 835.0502
368.8994, 835.5797
369.3815, 848.5402
369.8636, 861.1030
370.3458, 867.2563
370.8279, 860.0648
371.3100, 858.8226
371.7921, 868.4015
372.2742, 882.8625
372.7563, 886.4313
373.2385, 871.5981
373.7206, 858.1898
374.2027, 855.2206
374.6848, 866.1036
375.1669, 873.0024
375.6490, 874.5272
376.1312, 873.5070
376.6133, 875.7758
377.0954, 883.1838
377.5775, 886.2282
378.0596, 878.0362
378.5417, 859.3503
379.0239, 853.2697
379.5060, 863.1555
379.9881, 875.7717
380.4702, 871.0820
380.9523, 849.8540
381.4344, 835.4101
381.9166, 838.9008
382.3987, 854.1631
382.8808, 863.8325
383.3629, 867.8063
383.8450, 866.3586
384.3271, 856.2855
384.8093, 840.3678
385.2914, 827.0440
385.7735, 816.8880
386.2556, 812.4580
386.7377, 820.9791
387.2198, 840.8620
387.7020, 860.4755
388.1841, 872.9281
388.6662, 879.4776
389.1483, 881.3757
389.6304, 876.7986
390.1125, 871.0937
390.5947, 868.8961
391.0768, 869.0043
391.5589, 867.6901
392.0410, 858.4216
392.5231, 849.9360
393.0052, 850.1019
393.4874, 865.2526
393.9695, 876.6631
394.4516, 873.9462
394.9337, 862.9177
395.4158, 854.2288
395.8979, 851.2292
396.3801, 850.7329
396.8622, 852.1456
397.3443, 856.2975
397.8264, 859.0183
398.3085, 859.2616
398.7906, 857.9274
399.2728, 856.0317
399.7549, 850.0010
400.2370, 847.5121
400.7191, 851.4577
401.2012, 862.4942
401.6833, 870.2670
402.1655, 873.9523
402.6476, 875.1548
403.1297, 874.9080
403.6118, 872.3826
404.0939, 870.5621
404.5760, 870.4116
405.0582, 871.3749
405.5403, 870.0504
406.0224, 865.6891
406.5045, 861.2421
406.9866, 857.0538
407.4688, 852.7259
407.9509, 857.2496
408.4330, 874.4049
408.9151, 896.9377
409.3972, 910.8099
409.8793, 915.9177
410.3615, 914.6669
410.8436, 905.9721
411.3257, 891.7089
411.8078, 877.8954
412.2899, 864.5588
412.7720, 852.9985
413.2542, 842.9365
413.7363, 835.6876
414.2184, 835.0833
414.7005, 852.1716
415.1826, 872.2200
415.6647, 875.1778
416.1469, 860.2523
416.6290, 844.7814
417.1111, 838.2952
417.5932, 839.5984
418.0753, 847.2203
418.5574, 870.4138
419.0396, 891.0528
419.5217, 899.5721
420.0038, 896.9639
420.4859, 890.5820
420.9680, 880.6628
421.4501, 869.5106
421.9323, 858.7980
422.4144, 846.1312
422.8965, 837.3620
423.3786, 834.7637
423.8607, 836.9246
424.3428, 839.6606
424.8250, 839.7734
425.3071, 843.1636
425.7892, 853.5928
426.2713, 878.7101
426.7534, 890.1611
427.2355, 879.9379
427.7177, 861.0164
428.1998, 852.9450
428.6819, 860.3684
429.1640, 868.2447
429.6461, 872.9449
430.1282, 874.4050
430.6104, 873.2950
431.0925, 868.3448
431.5746, 863.9787
432.0567, 864.5969
432.5388, 870.2542
433.0209, 879.3495
433.5031, 894.5485
433.9852, 910.5301
434.4673, 912.3939
434.9494, 900.4541
435.4315, 886.5228
435.9136, 879.2267
436.3958, 876.5380
436.8779, 873.2263
437.3600, 868.4278
437.8421, 863.3845
438.3242, 855.3800
438.8063, 847.6107
439.2885, 849.0416
439.7706, 879.1144
440.2527, 911.6958
440.7348, 920.1104
441.2169, 900.3455
441.6990, 877.5577
442.1812, 860.5306
442.6633, 850.1435
443.1454, 847.1696
443.6275, 855.7934
444.1096, 868.0502
444.5917, 884.6700
445.0739, 904.8079
445.5560, 917.4680
446.0381, 917.8067
446.5202, 911.8652
447.0023, 903.1080
447.4844, 881.8004
447.9666, 870.6890
448.4487, 875.2200
448.9308, 889.6253
449.4129, 898.5298
449.8950, 900.6461
450.3771, 899.1365
450.8592, 894.1861
451.3413, 884.7745
451.8235, 878.0901
452.3056, 874.1641
452.7877, 872.9172
453.2698, 875.7401
453.7519, 883.2402
454.2340, 887.1826
454.7162, 882.2933
455.1983, 872.6313
455.6804, 874.5668
456.1625, 888.7405
456.6446, 903.5875
457.1267, 910.6335
457.6089, 910.7216
458.0910, 905.9728
458.5731, 895.4265
459.0552, 882.8215
459.5373, 868.7969
460.0194, 855.6246
460.5016, 850.7111
460.9837, 871.3838
461.4658, 894.6916
461.9479, 896.3782
462.4300, 869.2625
462.9121, 845.8040
463.3943, 846.6102
463.8764, 859.7399
464.3585, 869.7857
464.8406, 867.6684
465.3227, 866.1851
465.8048, 870.7588
466.2870, 881.4569
466.7691, 889.0956
467.2512, 889.3846
467.7333, 888.6291
468.2154, 891.0184
468.6975, 902.7282
469.1797, 907.0511
469.6618, 898.9008
470.1439, 884.0605
470.6260, 878.6344
471.1081, 886.4496
471.5902, 894.3928
472.0724, 896.3229
472.5545, 891.7455
473.0366, 889.7857
473.5187, 890.7721
474.0008, 893.4864
474.4829, 897.5271
474.9651, 902.6360
475.4472, 905.7354
475.9293, 906.4022
476.4114, 904.1600
476.8935, 895.0051
477.3756, 879.8176
477.8578, 868.4872
478.3399, 871.0354
478.8220, 881.2710
479.3041, 890.7697
479.7862, 899.0208
480.2683, 903.5145
480.7505, 900.0867
481.2326, 891.5123
481.7147, 883.6684
482.1968, 876.6118
482.6789, 872.7458
483.1610, 873.7000
483.6432, 879.8704
484.1253, 888.1697
484.6074, 903.6617
485.0895, 917.8780
485.5716, 923.5786
486.0537, 906.0790
486.5359, 896.9294
487.0180, 902.8488
487.5001, 919.9579
487.9822, 930.2882
488.4643, 931.8329
488.9464, 929.7609
489.4286, 924.7665
489.9107, 914.8993
490.3928, 914.7092
490.8749, 928.5087
491.3570, 944.5129
491.8391, 943.1371
492.3213, 924.5109
492.8034, 907.2687
493.2855, 897.6730
493.7676, 894.2777
494.2497, 894.4424
494.7318, 898.1194
495.2140, 902.7499
495.6961, 908.0961
496.1782, 912.6099
496.6603, 912.7438
497.1424, 905.7236
497.6245, 898.7395
498.1067, 897.3985
498.5888, 900.3710
499.0709, 904.5131
499.5530, 910.9772
500.0351, 916.1844
500.5172, 917.5350
500.9994, 914.1804
501.4815, 911.5946
501.9636, 911.9812
502.4457, 913.1534
502.9278, 913.1152
503.4099, 907.2664
503.8921, 906.1960
504.3742, 916.2874
504.8563, 932.5345
505.3384, 931.7722
505.8205, 903.8392
506.3026, 878.3851
506.7848, 871.4035
507.2669, 885.9274
507.7490, 896.6441
508.2311, 903.3514
508.7132, 906.7422
509.1953, 907.2194
509.6775, 904.9394
510.1596, 901.3925
510.6417, 895.7420
511.1238, 889.9907
511.6059, 888.1374
512.0880, 890.0121
512.5701, 893.9033
513.0522, 899.2505
513.5344, 905.6174
514.0165, 913.8712
514.4986, 926.7394
514.9807, 933.7288
515.4628, 919.4505
515.9449, 896.1727
516.4271, 884.9019
516.9092, 909.3814
517.3913, 931.2022
517.8734, 932.0261
518.3555, 910.1940
518.8376, 896.8756
519.3198, 903.7313
519.8019, 914.3410
520.2840, 918.5169
520.7661, 910.5152
521.2482, 907.9452
521.7303, 915.3380
522.2125, 926.4318
522.6946, 925.1706
523.1767, 907.9562
523.6588, 893.4966
524.1409, 888.9141
524.6230, 893.6153
525.1052, 905.5611
525.5873, 925.9789
526.0694, 943.9677
526.5515, 947.3943
527.0336, 939.6727
527.5157, 929.4312
527.9979, 916.3472
528.4800, 906.1257
528.9621, 907.1577
529.4442, 916.5535
529.9263, 925.8024
530.4084, 930.9706
530.8906, 934.0027
531.3727, 936.2149
531.8548, 937.8405
532.3369, 937.7315
532.8190, 931.4104
533.3011, 925.1573
533.7833, 924.7787
534.2654, 939.5375
534.7475, 949.8810
535.2296, 952.9771
535.7117, 950.3326
536.1938, 947.3175
536.6760, 944.3130
537.1581, 940.0878
537.6402, 932.2772
538.1223, 920.0023
538.6044, 917.5944
539.0865, 927.1690
539.5687, 940.4135
540.0508, 949.8714
540.5329, 955.3345
541.0150, 952.7855
541.4971, 936.7603
541.9792, 918.0240
542.4614, 915.5042
542.9435, 926.4304
543.4256, 937.9006
543.9077, 944.6122
544.3898, 946.7620
544.8719, 943.7839
545.3541, 935.1792
545.8362, 924.9523
546.3183, 911.1203
546.8004, 898.1611
547.2825, 890.8439
547.7646, 894.8719
548.2468, 899.5870
548.7289, 903.6254
549.2110, 906.8966
549.6931, 909.0813
550.1752, 909.6923
550.6573, 909.8012
551.1395, 908.4520
551.6216, 903.9959
552.1037, 910.6427
552.5858, 933.3991
553.0679, 956.4863
553.5500, 957.6506
554.0322, 937.9965
554.5143, 925.4901
554.9964, 929.3738
555.4785, 940.5666
555.9606, 942.9791
556.4427, 937.7339
556.9249, 930.7314
557.4070, 924.2968
557.8891, 918.6598
558.3712, 913.3049
558.8533, 907.9000
559.3354, 906.0496
559.8176, 911.0707
560.2997, 920.0276
560.7818, 929.9475
561.2639, 950.3636
561.7460, 959.9248
562.2281, 943.9254
562.7103, 911.5759
563.1924, 898.0218
563.6745, 914.6655
564.1566, 935.4285
564.6387, 952.5573
565.1208, 966.4301
565.6030, 974.0992
566.0851, 975.4059
566.5672, 970.8423
567.0493, 956.8079
567.5314, 934.2896
568.0135, 920.4242
568.4957, 919.8199
568.9778, 927.0245
569.4599, 934.4033
569.9420, 942.1837
570.4241, 950.9911
570.9063, 969.0453
571.3884, 983.5574
571.8705, 977.7842
572.3526, 951.2531
572.8347, 926.8016
573.3168, 915.3204
573.7990, 911.8849
574.2811, 912.7318
574.7632, 920.0714
575.2453, 927.3971
575.7274, 934.3389
576.2095, 940.5833
576.6917, 945.2939
