##NAMES=Chalcanthite
##RRUFFID=R060018
##IDEAL CHEMISTRY=Cu^2+^S^6+^O_4_&#183;5H_2_O
##LOCALITY=Chuquicamata, Chile
##OWNER=RRUFF
##SOURCE=American Museum of Natural History
##DESCRIPTION=Dark blue fragment
##STATUS=The identification of this mineral is confirmed by single-crystal X-ray diffraction and chemical analysis.
##URL=rruff.info/R060018
##MEASURED CHEMISTRY=Cu_1.00_S_1.00_O_4_Â·5H_2_O
93.40625, 34.72246
93.88837, 33.66613
94.37048, 34.19624
94.85260, 36.14083
95.33472, 39.07656
95.81683, 43.15371
96.29895, 48.00556
96.78107, 52.93345
97.26318, 57.97065
97.74530, 62.99070
98.22742, 67.79646
98.70953, 72.41167
99.19165, 76.97291
99.67377, 81.41089
100.1559, 85.74483
100.6380, 90.41514
101.1201, 95.42567
101.6022, 100.6865
102.0844, 105.9285
102.5665, 111.0938
103.0486, 116.5571
103.5307, 122.3242
104.0128, 128.3859
104.4949, 135.1431
104.9771, 142.8197
105.4592, 151.1476
105.9413, 159.6829
106.4234, 167.9273
106.9055, 176.9543
107.3876, 187.1619
107.8698, 199.4216
108.3519, 211.6983
108.8340, 223.6836
109.3161, 235.6647
109.7982, 248.5211
110.2803, 262.4505
110.7624, 277.2676
111.2446, 292.8502
111.7267, 310.1024
112.2088, 327.3612
112.6909, 344.5620
113.1730, 361.8419
113.6551, 378.9216
114.1373, 395.5540
114.6194, 412.0045
115.1015, 428.6898
115.5836, 445.6465
116.0657, 462.8043
116.5478, 479.5456
117.0300, 495.9549
117.5121, 513.5934
117.9942, 533.6414
118.4763, 555.1218
118.9584, 576.6809
119.4405, 597.9612
119.9227, 619.4117
120.4048, 640.9835
120.8869, 662.6649
121.3690, 685.0751
121.8511, 710.0792
122.3332, 736.1705
122.8154, 760.1769
123.2975, 779.7162
123.7796, 796.5994
124.2617, 813.0745
124.7438, 829.5900
125.2259, 844.8734
125.7081, 858.4592
126.1902, 869.6000
126.6723, 872.9614
127.1544, 868.1492
127.6365, 859.7570
128.1186, 849.5841
128.6008, 837.2957
129.0829, 824.5143
129.5650, 813.5374
130.0471, 804.2937
130.5292, 796.1947
131.0113, 788.9612
131.4935, 782.4981
131.9756, 776.4299
132.4577, 770.5947
132.9398, 765.0939
133.4219, 760.3425
133.9040, 756.2629
134.3862, 753.0402
134.8683, 751.5031
135.3504, 751.5911
135.8325, 750.8031
136.3146, 747.8762
136.7967, 743.1146
137.2789, 739.6254
137.7610, 737.6143
138.2431, 736.2612
138.7252, 734.5497
139.2073, 732.4881
139.6894, 730.0033
140.1716, 726.7990
140.6537, 722.6301
141.1358, 719.4890
141.6179, 717.5576
142.1000, 716.3899
142.5821, 715.1364
143.0643, 713.5738
143.5464, 712.3762
144.0285, 712.0001
144.5106, 713.2076
144.9927, 713.2090
145.4748, 711.5178
145.9570, 708.7196
146.4391, 706.6902
146.9212, 706.5952
147.4033, 705.8455
147.8854, 703.2230
148.3675, 698.2106
148.8497, 692.1474
149.3318, 685.0240
149.8139, 676.9257
150.2960, 668.1705
150.7781, 659.2161
151.2602, 649.3132
151.7424, 638.1473
152.2245, 625.4797
152.7066, 611.8493
153.1887, 596.9285
153.6708, 580.9439
154.1529, 565.1575
154.6351, 549.6580
155.1172, 534.2215
155.5993, 518.7207
156.0814, 502.2128
156.5635, 486.3736
157.0456, 471.5300
157.5278, 457.8161
158.0099, 444.6314
158.4920, 431.2999
158.9741, 418.5830
159.4562, 407.1003
159.9383, 397.3530
160.4205, 388.5295
160.9026, 380.3996
161.3847, 372.9489
161.8668, 366.1817
162.3489, 359.9185
162.8310, 354.3852
163.3132, 349.8449
163.7953, 346.9244
164.2774, 344.5892
164.7595, 342.3069
165.2416, 339.9840
165.7237, 337.9862
166.2059, 336.2647
166.6880, 334.9853
167.1701, 334.4040
167.6522, 334.8788
168.1343, 335.9223
168.6164, 337.2362
169.0986, 338.8127
169.5807, 340.5621
170.0628, 342.5994
170.5449, 344.7719
171.0270, 346.7621
171.5091, 347.5909
171.9913, 348.5674
172.4734, 351.1064
172.9555, 355.6822
173.4376, 360.9313
173.9197, 365.7532
174.4018, 370.3360
174.8840, 375.1566
175.3661, 380.5263
175.8482, 386.2322
176.3303, 391.9736
176.8124, 397.7164
177.2945, 403.5097
177.7767, 409.3992
178.2588, 415.4280
178.7409, 421.5219
179.2230, 427.3201
179.7051, 433.2700
180.1872, 440.2748
180.6694, 448.9161
181.1515, 457.9989
181.6336, 465.8936
182.1157, 472.6755
182.5978, 478.8439
183.0799, 484.4159
183.5621, 489.6794
184.0442, 495.3567
184.5263, 501.8053
185.0084, 508.5127
185.4905, 514.5617
185.9726, 519.9626
186.4547, 525.6382
186.9369, 532.2444
187.4190, 539.7501
187.9011, 547.8524
188.3832, 556.9401
188.8653, 566.2971
189.3474, 574.0746
189.8296, 580.2878
190.3117, 586.5313
190.7938, 594.4296
191.2759, 603.7592
191.7580, 612.7265
192.2401, 621.0724
192.7223, 628.8148
193.2044, 636.1583
193.6865, 643.2039
194.1686, 649.6035
194.6507, 654.9060
195.1328, 659.1400
195.6150, 662.9085
196.0971, 666.4215
196.5792, 669.5125
197.0613, 671.5959
197.5434, 672.6735
198.0255, 672.6989
198.5077, 671.6785
198.9898, 669.6228
199.4719, 666.2432
199.9540, 661.2463
200.4361, 654.8845
200.9182, 648.3303
201.4004, 641.6644
201.8825, 634.6912
202.3646, 627.3117
202.8467, 619.6586
203.3288, 611.0984
203.8109, 601.3064
204.2931, 590.4225
204.7752, 579.4280
205.2573, 568.0996
205.7394, 557.1946
206.2215, 547.7031
206.7036, 540.0186
207.1858, 532.1097
207.6679, 523.3738
208.1500, 513.8884
208.6321, 504.8229
209.1142, 496.1466
209.5963, 487.9410
210.0785, 480.3973
210.5606, 473.7624
211.0427, 467.0196
211.5248, 459.7131
212.0069, 451.8742
212.4890, 444.9362
212.9712, 439.1372
213.4533, 433.8512
213.9354, 428.4512
214.4175, 422.7781
214.8996, 417.3093
215.3817, 411.9562
215.8639, 406.7589
216.3460, 402.5650
216.8281, 399.6630
217.3102, 397.3623
217.7923, 395.0879
218.2744, 393.1198
218.7566, 390.3251
219.2387, 386.0515
219.7208, 380.1891
220.2029, 375.9531
220.6850, 373.6052
221.1671, 372.6164
221.6493, 372.6213
222.1314, 374.1232
222.6135, 375.4435
223.0956, 375.9949
223.5777, 375.7211
224.0598, 376.3770
224.5420, 378.3974
225.0241, 380.8728
225.5062, 382.7237
225.9883, 383.1968
226.4704, 384.6412
226.9525, 387.7755
227.4347, 392.7251
227.9168, 397.1245
228.3989, 400.3648
228.8810, 403.7005
229.3631, 408.4617
229.8452, 415.4066
230.3274, 422.3734
230.8095, 428.8250
231.2916, 434.7227
231.7737, 441.2762
232.2558, 448.8073
232.7379, 456.6609
233.2201, 463.9529
233.7022, 469.8786
234.1843, 476.8120
234.6664, 485.4494
235.1485, 495.7396
235.6306, 505.8086
236.1128, 515.8061
236.5949, 525.5573
237.0770, 534.8615
237.5591, 543.2792
238.0412, 552.1201
238.5233, 562.0556
239.0055, 573.1223
239.4876, 582.0070
239.9697, 587.7265
240.4518, 592.4254
240.9339, 598.1022
241.4160, 605.7591
241.8982, 612.4109
242.3803, 617.4866
242.8624, 621.0234
243.3445, 623.8292
243.8266, 626.0989
244.3087, 627.4503
244.7909, 627.4930
245.2730, 625.7904
245.7551, 623.6088
246.2372, 620.9242
246.7193, 617.7898
247.2014, 615.0488
247.6836, 613.0515
248.1657, 611.0364
248.6478, 608.3732
249.1299, 604.5236
249.6120, 601.1776
250.0941, 598.7371
250.5762, 597.0586
251.0584, 594.8441
251.5405, 591.4691
252.0226, 588.4329
252.5047, 586.8605
252.9868, 587.1917
253.4689, 587.9990
253.9511, 589.4625
254.4332, 591.3707
254.9153, 592.2841
255.3974, 591.4306
255.8795, 590.7980
256.3617, 591.8607
256.8438, 595.6768
257.3259, 598.3943
257.8080, 599.3321
258.2901, 598.9813
258.7722, 599.4146
259.2544, 601.2726
259.7365, 602.8237
260.2186, 602.9684
260.7007, 601.0779
261.1828, 599.6872
261.6649, 599.2192
262.1471, 599.2274
262.6292, 598.2291
263.1113, 595.6921
263.5934, 593.2112
264.0755, 591.6181
264.5576, 591.1044
265.0398, 590.7424
265.5219, 590.5381
266.0040, 590.4543
266.4861, 590.2893
266.9682, 589.8022
267.4503, 589.8657
267.9325, 591.0748
268.4146, 593.8176
268.8967, 595.8744
269.3788, 596.7543
269.8609, 597.4572
270.3430, 600.0276
270.8252, 604.9453
271.3073, 610.1194
271.7894, 614.5755
272.2715, 618.2216
272.7536, 622.1796
273.2357, 626.4797
273.7179, 630.9718
274.2000, 635.5515
274.6821, 640.2355
275.1642, 644.8118
275.6463, 649.5486
276.1284, 654.4459
276.6106, 657.5215
277.0927, 658.7112
277.5748, 658.2170
278.0569, 656.2971
278.5390, 652.9913
279.0211, 648.1285
279.5032, 641.6203
279.9854, 633.5552
280.4675, 624.0375
280.9496, 612.9919
281.4317, 600.7779
281.9138, 587.5587
282.3959, 573.3094
282.8781, 558.8676
283.3602, 544.7081
283.8423, 530.4221
284.3244, 514.3493
284.8065, 496.1948
285.2886, 477.6188
285.7708, 459.8778
286.2529, 442.9662
286.7350, 426.9067
287.2171, 411.8709
287.6992, 397.5049
288.1813, 383.0679
288.6635, 368.4691
289.1456, 354.2081
289.6277, 340.4818
290.1098, 327.2976
290.5919, 315.1810
291.0740, 304.1646
291.5562, 294.1115
292.0383, 285.2469
292.5204, 277.4492
293.0025, 269.7878
293.4846, 261.2346
293.9667, 252.1993
294.4489, 244.1415
294.9310, 237.4256
295.4131, 231.4557
295.8952, 225.5938
296.3773, 219.8376
296.8594, 214.0274
297.3416, 207.4044
297.8237, 200.6620
298.3058, 195.7579
298.7879, 193.0324
299.2700, 190.9134
299.7521, 187.3832
300.2343, 182.8948
300.7164, 179.0762
301.1985, 176.5376
301.6806, 175.1583
302.1627, 175.2474
302.6448, 176.9227
303.1270, 178.4249
303.6091, 178.0215
304.0912, 176.2599
304.5733, 174.2585
305.0554, 172.9960
305.5375, 171.4463
306.0197, 167.4439
306.5018, 161.2194
306.9839, 156.5934
307.4660, 158.2067
307.9481, 162.8194
308.4302, 165.8584
308.9124, 165.6115
309.3945, 163.5791
309.8766, 160.0369
310.3587, 155.3484
310.8408, 151.6071
311.3229, 150.5489
311.8051, 150.8341
312.2872, 151.1485
312.7693, 151.1058
313.2514, 151.1533
313.7335, 151.6311
314.2156, 152.4238
314.6978, 153.1979
315.1799, 153.7173
315.6620, 154.2139
316.1441, 154.8033
316.6262, 155.4414
317.1083, 156.3513
317.5905, 157.8560
318.0726, 159.6641
318.5547, 161.2924
319.0368, 162.5835
319.5189, 163.6303
320.0010, 164.3329
320.4832, 164.5618
320.9653, 165.1223
321.4474, 166.6269
321.9295, 168.4563
322.4116, 169.8857
322.8937, 170.2065
323.3759, 170.6420
323.8580, 171.6053
324.3401, 173.1297
324.8222, 174.6532
325.3043, 176.3781
325.7864, 177.9212
326.2686, 178.9870
326.7507, 179.1020
327.2328, 179.2321
327.7149, 179.4939
328.1970, 179.8779
328.6791, 180.3014
329.1613, 181.2198
329.6434, 181.8151
330.1255, 181.6616
330.6076, 180.2181
331.0897, 178.8009
331.5718, 177.4208
332.0540, 176.0807
332.5361, 174.8109
333.0182, 173.8778
333.5003, 172.6453
333.9824, 170.7932
334.4645, 167.9963
334.9467, 165.5418
335.4288, 163.5279
335.9109, 161.8036
336.3930, 160.1704
336.8751, 158.5993
337.3572, 157.1652
337.8394, 155.9586
338.3215, 155.0146
338.8036, 153.6905
339.2857, 151.8426
339.7678, 149.8596
340.2499, 148.1792
340.7321, 146.9108
341.2142, 145.4268
341.6963, 143.4377
342.1784, 141.1492
342.6605, 139.6497
343.1426, 139.0604
343.6248, 138.7464
344.1069, 138.2647
344.5890, 137.6256
345.0711, 136.8972
345.5532, 136.0716
346.0353, 135.1961
346.5175, 134.3384
346.9996, 133.4933
347.4817, 132.8063
347.9638, 132.4609
348.4459, 132.3590
348.9280, 132.1218
349.4102, 131.6972
349.8923, 131.2446
350.3744, 131.0305
350.8565, 130.9890
351.3386, 130.8570
351.8207, 130.2551
352.3029, 129.5731
352.7850, 129.5849
353.2671, 130.3091
353.7492, 131.0388
354.2313, 131.0537
354.7134, 130.6677
355.1956, 130.4272
355.6777, 130.5257
356.1598, 130.8413
356.6419, 131.3445
357.1240, 132.0025
357.6061, 132.6349
358.0883, 133.1408
358.5704, 133.5660
359.0525, 133.9122
359.5346, 134.0646
360.0167, 134.3770
360.4988, 135.2075
360.9810, 136.3499
361.4631, 137.3447
361.9452, 137.9988
362.4273, 138.4508
362.9094, 138.7084
363.3915, 138.7029
363.8737, 138.8302
364.3558, 139.2263
364.8379, 139.8185
365.3200, 140.5212
365.8021, 141.4293
366.2842, 142.3362
366.7664, 143.2941
367.2485, 144.3100
367.7306, 144.9084
368.2127, 144.5832
368.6948, 144.1069
369.1769, 143.9915
369.6591, 144.7478
370.1412, 145.2561
370.6233, 145.2148
371.1054, 144.8498
371.5875, 145.0640
372.0696, 146.4521
372.5518, 147.6911
373.0339, 148.1604
373.5160, 147.4422
373.9981, 147.1641
374.4802, 147.4756
374.9623, 148.1039
375.4445, 148.6234
375.9266, 149.0220
376.4087, 149.3415
376.8908, 149.4837
377.3729, 149.4688
377.8550, 150.0634
378.3372, 151.4392
378.8193, 152.9539
379.3014, 153.9182
379.7835, 154.3142
380.2656, 154.7464
380.7477, 155.3529
381.2299, 156.0413
381.7120, 156.4602
382.1941, 156.5932
382.6762, 157.0129
383.1583, 158.2310
383.6404, 160.0817
384.1226, 161.8669
384.6047, 163.4951
385.0868, 165.1289
385.5689, 167.1702
386.0510, 169.4591
386.5331, 171.4238
387.0153, 172.2138
387.4974, 172.7802
387.9795, 174.8502
388.4616, 178.4363
388.9437, 181.7880
389.4258, 183.0955
389.9080, 183.4375
390.3901, 184.3483
390.8722, 186.6290
391.3543, 189.2394
391.8364, 191.3448
392.3185, 193.1001
392.8007, 195.1496
393.2828, 197.7780
393.7649, 200.8272
394.2470, 204.1772
394.7291, 207.8280
395.2112, 211.7186
395.6934, 216.0169
396.1755, 220.4969
396.6576, 224.8222
397.1397, 228.7200
397.6218, 232.6270
398.1039, 236.6448
398.5861, 240.7728
399.0682, 245.0815
399.5503, 249.3801
400.0324, 254.0029
400.5145, 259.1442
400.9966, 265.0406
401.4788, 271.1668
401.9609, 277.4537
402.4430, 283.9440
402.9251, 290.8563
403.4072, 298.5352
403.8893, 306.1416
404.3714, 313.0233
404.8535, 318.7447
405.3357, 325.7900
405.8178, 334.3638
406.2999, 343.8697
406.7820, 353.5085
407.2641, 363.3008
407.7462, 373.0801
408.2284, 382.7788
408.7105, 392.3413
409.1926, 402.5391
409.6747, 413.4652
410.1568, 424.3501
410.6389, 433.9191
411.1211, 442.5592
411.6032, 453.1865
412.0853, 466.8173
412.5674, 481.6521
413.0495, 495.5624
413.5316, 508.7465
414.0138, 521.7935
414.4959, 534.9114
414.9780, 548.3333
415.4601, 562.4857
415.9422, 577.5812
416.4243, 592.3529
416.9065, 605.5865
417.3886, 617.9559
417.8707, 630.1929
418.3528, 642.9633
418.8349, 655.4282
419.3170, 667.3447
419.7992, 678.7570
420.2813, 689.2659
420.7634, 698.3482
421.2455, 706.9618
421.7276, 715.9471
422.2097, 726.3215
422.6919, 735.1154
423.1740, 741.1615
423.6561, 745.3164
424.1382, 749.0389
424.6203, 751.6833
425.1024, 754.6822
425.5846, 758.7562
426.0667, 764.0014
426.5488, 768.1846
427.0309, 770.0425
427.5130, 771.9977
427.9951, 775.8231
428.4773, 782.4648
428.9594, 788.8745
429.4415, 794.5498
429.9236, 799.9827
430.4057, 806.5834
430.8878, 814.5089
431.3700, 823.0402
431.8521, 831.8415
432.3342, 840.9189
432.8163, 850.6872
433.2984, 861.1375
433.7805, 872.3375
434.2627, 884.5507
434.7448, 897.7066
435.2269, 910.9191
435.7090, 923.7551
436.1911, 936.9844
436.6732, 952.5687
437.1554, 970.2766
437.6375, 987.7647
438.1196, 1003.274
438.6017, 1017.587
439.0838, 1031.889
439.5659, 1046.343
440.0481, 1060.871
440.5302, 1075.528
441.0123, 1090.343
441.4944, 1105.376
441.9765, 1122.652
442.4586, 1138.492
442.9408, 1149.723
443.4229, 1156.790
443.9050, 1164.391
444.3871, 1175.274
444.8692, 1186.701
445.3513, 1196.876
445.8335, 1205.223
446.3156, 1212.866
446.7977, 1219.632
447.2798, 1225.830
447.7619, 1231.971
448.2440, 1239.059
448.7262, 1244.983
449.2083, 1249.412
449.6904, 1252.398
450.1725, 1253.305
450.6546, 1251.910
451.1367, 1248.719
451.6189, 1243.996
452.1010, 1237.475
452.5831, 1230.438
453.0652, 1223.630
453.5473, 1215.677
454.0294, 1202.926
454.5116, 1184.960
454.9937, 1165.068
455.4758, 1144.023
455.9579, 1122.056
456.4400, 1100.455
456.9221, 1079.183
457.4043, 1056.866
457.8864, 1031.055
458.3685, 1002.907
458.8506, 975.0188
459.3327, 948.4641
459.8148, 922.1190
460.2970, 894.4238
460.7791, 865.6180
461.2612, 837.3702
461.7433, 810.3220
462.2254, 784.3146
462.7076, 759.8431
463.1897, 736.8079
463.6718, 714.1545
464.1539, 691.6309
464.6360, 669.2156
465.1181, 647.2642
465.6003, 624.6232
466.0824, 603.7872
466.5645, 586.5136
467.0466, 571.9213
467.5287, 556.6293
468.0108, 539.3326
468.4930, 522.0980
468.9751, 505.5915
469.4572, 489.8640
469.9393, 474.8421
470.4214, 460.7721
470.9035, 447.2961
471.3857, 434.0546
471.8678, 420.9994
472.3499, 408.2184
472.8320, 395.3845
473.3141, 382.7784
473.7962, 371.2698
474.2784, 360.9465
474.7605, 351.1129
475.2426, 341.3813
475.7247, 331.7531
476.2068, 322.5781
476.6889, 313.8566
477.1711, 305.3698
477.6532, 296.3746
478.1353, 287.3747
478.6174, 279.8495
479.0995, 274.9534
479.5816, 270.9452
480.0638, 265.9507
480.5459, 260.1996
481.0280, 254.6318
481.5101, 249.8837
481.9922, 245.4366
482.4743, 240.8119
482.9565, 235.7993
483.4386, 231.3245
483.9207, 228.3136
484.4028, 225.8414
484.8849, 222.9410
485.3670, 218.9961
485.8492, 215.1191
486.3313, 211.3638
486.8134, 207.8084
487.2955, 204.7614
487.7776, 202.6347
488.2597, 200.6161
488.7419, 198.3951
489.2240, 195.9523
489.7061, 193.4362
490.1882, 190.6190
490.6703, 188.0610
491.1524, 186.6149
491.6346, 186.4924
492.1167, 185.6650
492.5988, 183.4833
493.0809, 180.5744
493.5630, 178.5478
494.0451, 177.3682
494.5273, 176.5159
495.0094, 175.9583
495.4915, 175.4483
495.9736, 174.2944
496.4557, 172.4389
496.9378, 170.5348
497.4200, 169.1879
497.9021, 168.1763
498.3842, 167.2073
498.8663, 166.2930
499.3484, 165.2380
499.8305, 163.7112
500.3127, 161.9340
500.7948, 160.4728
501.2769, 159.9371
501.7590, 159.4031
502.2411, 158.3282
502.7232, 156.5419
503.2054, 155.1195
503.6875, 154.5343
504.1696, 154.1657
504.6517, 153.5720
505.1338, 152.5805
505.6159, 151.6657
506.0981, 150.8777
506.5802, 150.1733
507.0623, 149.4698
507.5444, 148.7713
508.0265, 148.0190
508.5086, 147.1164
508.9908, 146.1104
509.4729, 145.4975
509.9550, 145.3430
510.4371, 145.0948
510.9192, 144.0088
511.4013, 142.3733
511.8835, 141.3775
512.3655, 141.3109
512.8477, 141.5428
513.3298, 141.4069
513.8119, 141.0010
514.2940, 140.5553
514.7761, 140.1401
515.2582, 139.7548
515.7404, 139.4153
516.2225, 139.1126
516.7046, 138.7818
517.1867, 138.2872
517.6688, 137.8279
518.1509, 137.5632
518.6331, 137.6461
519.1152, 137.5956
519.5973, 137.4231
520.0794, 137.0334
520.5615, 136.2896
521.0436, 134.6600
521.5258, 133.5053
522.0079, 133.1987
522.4900, 133.5449
522.9721, 133.5922
523.4542, 133.2815
523.9363, 132.8448
524.4185, 132.3210
524.9006, 131.7116
525.3827, 131.4013
525.8648, 131.4298
526.3469, 131.5546
526.8290, 131.5142
527.3112, 131.3478
527.7933, 131.2179
528.2754, 131.2145
528.7575, 131.1724
529.2396, 130.8279
529.7217, 130.2690
530.2039, 129.7608
530.6860, 129.3255
531.1681, 129.0707
531.6502, 129.1693
532.1323, 129.6160
532.6144, 129.9397
533.0966, 129.8535
533.5787, 129.6416
534.0608, 129.5007
534.5429, 129.4885
535.0250, 129.5016
535.5071, 129.6489
535.9893, 129.7722
536.4714, 129.5908
536.9535, 128.7842
537.4356, 128.3172
537.9177, 128.5502
538.3998, 129.3238
538.8820, 129.6027
539.3641, 129.3078
539.8462, 128.8801
540.3283, 128.5080
540.8104, 128.2130
541.2925, 128.2001
541.7747, 128.5129
542.2568, 128.8798
542.7389, 129.0214
543.2210, 128.9930
543.7031, 128.9151
544.1852, 128.7864
544.6674, 128.6786
545.1495, 128.6476
545.6316, 128.6903
546.1137, 128.7982
546.5958, 128.9021
547.0779, 129.1265
547.5601, 129.6705
548.0422, 130.5542
548.5243, 131.1078
549.0064, 130.9053
549.4885, 130.5288
549.9706, 130.3282
550.4528, 130.3085
550.9349, 130.4626
551.4170, 130.8213
551.8991, 131.3288
552.3812, 131.7462
552.8633, 131.8163
553.3455, 133.0450
553.8276, 136.5667
554.3097, 141.0706
554.7918, 141.6778
555.2739, 138.3855
555.7560, 135.0894
556.2382, 134.3432
556.7203, 135.2547
557.2024, 135.9649
557.6845, 136.3898
558.1666, 136.6890
558.6487, 136.8382
559.1309, 136.9959
559.6130, 137.3968
560.0951, 138.2744
560.5772, 139.0616
561.0593, 139.3434
561.5414, 139.3743
562.0236, 139.5992
562.5057, 140.2581
562.9878, 140.9848
563.4699, 141.6126
563.9520, 142.1677
564.4341, 143.0873
564.9163, 144.7659
565.3984, 146.2517
565.8805, 147.0102
566.3626, 146.8882
566.8447, 146.9311
567.3268, 147.0757
567.8090, 147.5514
568.2911, 148.9186
568.7732, 151.0379
569.2553, 152.4150
569.7374, 152.4578
570.2195, 152.2611
570.7017, 153.6538
571.1838, 156.1704
571.6659, 158.3048
572.1480, 158.8067
572.6301, 159.0144
573.1122, 160.1679
573.5944, 162.1782
574.0765, 164.0192
574.5586, 164.9368
575.0407, 165.7636
575.5228, 167.0632
576.0049, 169.1302
576.4871, 170.9947
576.9692, 172.3355
577.4513, 173.6062
577.9334, 175.2881
578.4155, 177.5730
578.8976, 179.7574
579.3798, 181.7395
579.8619, 183.5939
580.3440, 185.3301
580.8261, 186.9002
581.3082, 188.8855
581.7903, 191.7013
582.2725, 195.0598
582.7546, 198.0931
583.2367, 200.8164
583.7188, 203.4208
584.2009, 205.5673
584.6830, 207.8480
585.1652, 211.2565
585.6473, 216.1129
586.1294, 220.8458
586.6115, 224.1021
587.0936, 226.9922
587.5757, 230.6426
588.0579, 235.8689
588.5400, 241.2518
589.0221, 246.4638
589.5042, 251.6704
589.9863, 257.2757
