##NAMES=Chalcosiderite
##RRUFFID=R060007
##IDEAL CHEMISTRY=Cu^2+^Fe^3+^_6_(PO_4_)_4_(OH)_8_&#183;4H_2_O
##LOCALITY=Cerro Negro mine, Carrizalillo, Chile
##OWNER=RRUFF
##SOURCE=William W. Pinch, Bob Jenkins
##DESCRIPTION=Groups of green foliated crystals associated with pseudomalachite, R050597
##STATUS=The identification of this mineral has been confirmed by X-ray diffraction and chemical analysis
##URL=rruff.info/R060007
##MEASURED CHEMISTRY=Cu_1.00_(Fe^3+^_3.69_Al_2.31_)_Σ=6_(P_1.00_O_4_)_4_(OH)_8_·4H_2_O
156.0814, 1232.335
156.5635, 1231.675
157.0456, 1231.844
157.5278, 1232.840
158.0099, 1233.878
158.4920, 1234.358
158.9741, 1235.036
159.4562, 1236.586
159.9383, 1240.345
160.4205, 1243.953
160.9026, 1246.279
161.3847, 1247.177
161.8668, 1248.779
162.3489, 1252.226
162.8310, 1256.663
163.3132, 1261.091
163.7953, 1264.628
164.2774, 1268.480
164.7595, 1273.423
165.2416, 1279.666
165.7237, 1285.914
166.2059, 1291.210
166.6880, 1296.171
167.1701, 1301.737
167.6522, 1307.616
168.1343, 1314.655
168.6164, 1323.847
169.0986, 1335.740
169.5807, 1347.876
170.0628, 1358.200
170.5449, 1367.618
171.0270, 1377.813
171.5091, 1389.478
171.9913, 1402.407
172.4734, 1416.565
172.9555, 1432.212
173.4376, 1448.478
173.9197, 1464.436
174.4018, 1480.427
174.8840, 1497.272
175.3661, 1515.575
175.8482, 1534.791
176.3303, 1554.174
176.8124, 1573.731
177.2945, 1593.305
177.7767, 1612.916
178.2588, 1632.624
178.7409, 1651.827
179.2230, 1670.623
179.7051, 1688.837
180.1872, 1705.890
180.6694, 1721.824
181.1515, 1736.638
181.6336, 1748.984
182.1157, 1759.333
182.5978, 1770.998
183.0799, 1788.177
183.5621, 1808.734
184.0442, 1826.311
184.5263, 1839.120
185.0084, 1849.432
185.4905, 1861.235
185.9726, 1874.437
186.4547, 1887.899
186.9369, 1901.166
187.4190, 1914.165
187.9011, 1925.821
188.3832, 1935.587
188.8653, 1944.406
189.3474, 1954.791
189.8296, 1966.925
190.3117, 1978.629
190.7938, 1987.373
191.2759, 1993.646
191.7580, 2001.235
192.2401, 2011.427
192.7223, 2023.338
193.2044, 2034.576
193.6865, 2045.218
194.1686, 2055.381
194.6507, 2065.036
195.1328, 2074.173
195.6150, 2082.995
196.0971, 2091.535
196.5792, 2099.684
197.0613, 2107.035
197.5434, 2113.497
198.0255, 2119.399
198.5077, 2124.993
198.9898, 2130.317
199.4719, 2134.774
199.9540, 2138.072
200.4361, 2140.368
200.9182, 2142.632
201.4004, 2144.949
201.8825, 2146.989
202.3646, 2148.734
202.8467, 2150.343
203.3288, 2150.442
203.8109, 2148.808
204.2931, 2145.436
204.7752, 2139.807
205.2573, 2131.391
205.7394, 2122.017
206.2215, 2114.133
206.7036, 2108.567
207.1858, 2100.534
207.6679, 2088.769
208.1500, 2073.396
208.6321, 2055.856
209.1142, 2035.313
209.5963, 2014.161
210.0785, 1995.226
210.5606, 1979.429
211.0427, 1962.802
211.5248, 1943.912
212.0069, 1922.846
212.4890, 1903.268
212.9712, 1885.732
213.4533, 1868.775
213.9354, 1850.594
214.4175, 1829.953
214.8996, 1811.432
215.3817, 1796.411
215.8639, 1785.018
216.3460, 1772.832
216.8281, 1759.287
217.3102, 1745.622
217.7923, 1733.451
218.2744, 1723.126
218.7566, 1713.079
219.2387, 1703.237
219.7208, 1693.516
220.2029, 1683.599
220.6850, 1673.641
221.1671, 1663.390
221.6493, 1652.618
222.1314, 1640.809
222.6135, 1629.430
223.0956, 1619.097
223.5777, 1609.713
224.0598, 1600.546
224.5420, 1591.717
225.0241, 1582.894
225.5062, 1573.682
225.9883, 1564.528
226.4704, 1554.085
226.9525, 1541.792
227.4347, 1527.352
227.9168, 1514.342
228.3989, 1503.122
228.8810, 1492.946
229.3631, 1483.519
229.8452, 1475.890
230.3274, 1466.627
230.8095, 1454.119
231.2916, 1438.141
231.7737, 1425.532
232.2558, 1417.893
232.7379, 1411.963
233.2201, 1404.739
233.7022, 1396.292
234.1843, 1386.377
234.6664, 1374.170
235.1485, 1359.713
235.6306, 1347.767
236.1128, 1339.029
236.5949, 1331.933
237.0770, 1325.059
237.5591, 1318.531
238.0412, 1311.985
238.5233, 1305.259
239.0055, 1298.329
239.4876, 1292.219
239.9697, 1287.578
240.4518, 1283.012
240.9339, 1277.128
241.4160, 1268.841
241.8982, 1261.403
242.3803, 1255.412
242.8624, 1250.827
243.3445, 1246.984
243.8266, 1244.063
244.3087, 1241.632
244.7909, 1239.540
245.2730, 1238.657
245.7551, 1236.225
246.2372, 1231.010
246.7193, 1223.344
247.2014, 1218.075
247.6836, 1216.504
248.1657, 1215.785
248.6478, 1213.831
249.1299, 1210.234
249.6120, 1206.293
250.0941, 1202.414
250.5762, 1198.435
251.0584, 1192.809
251.5405, 1184.749
252.0226, 1176.190
252.5047, 1168.604
252.9868, 1162.381
253.4689, 1156.164
253.9511, 1149.826
254.4332, 1143.385
254.9153, 1137.078
255.3974, 1131.064
255.8795, 1125.003
256.3617, 1118.834
256.8438, 1112.686
257.3259, 1105.986
257.8080, 1098.427
258.2901, 1090.329
258.7722, 1082.684
259.2544, 1075.570
259.7365, 1068.701
260.2186, 1061.674
260.7007, 1054.274
261.1828, 1047.551
261.6649, 1041.792
262.1471, 1036.656
262.6292, 1030.856
263.1113, 1024.002
263.5934, 1017.298
264.0755, 1011.302
264.5576, 1005.936
265.0398, 1001.459
265.5219, 998.2334
266.0040, 995.6437
266.4861, 991.8818
266.9682, 986.2031
267.4503, 981.3173
267.9325, 978.9421
268.4146, 979.8425
268.8967, 979.4117
269.3788, 976.9808
269.8609, 973.9162
270.3430, 972.9886
270.8252, 974.7303
271.3073, 976.8484
271.7894, 978.4230
272.2715, 979.4017
272.7536, 980.2032
273.2357, 980.4366
273.7179, 981.0244
274.2000, 983.6589
274.6821, 988.7421
275.1642, 993.9459
275.6463, 998.1583
276.1284, 1001.367
276.6106, 1006.251
277.0927, 1013.182
277.5748, 1020.966
278.0569, 1027.988
278.5390, 1034.073
279.0211, 1040.645
279.5032, 1047.961
279.9854, 1056.021
280.4675, 1065.598
280.9496, 1076.949
281.4317, 1088.995
281.9138, 1100.536
282.3959, 1111.544
282.8781, 1123.006
283.3602, 1135.370
283.8423, 1148.418
284.3244, 1160.626
284.8065, 1171.867
285.2886, 1183.442
285.7708, 1196.663
286.2529, 1211.454
286.7350, 1226.578
287.2171, 1242.002
287.6992, 1257.482
288.1813, 1271.825
288.6635, 1285.027
289.1456, 1298.205
289.6277, 1312.281
290.1098, 1327.194
290.5919, 1342.198
291.0740, 1357.519
291.5562, 1372.586
292.0383, 1385.311
292.5204, 1395.941
293.0025, 1407.408
293.4846, 1423.003
293.9667, 1441.315
294.4489, 1457.149
294.9310, 1469.250
295.4131, 1480.038
295.8952, 1493.115
296.3773, 1508.125
296.8594, 1522.962
297.3416, 1536.374
297.8237, 1548.943
298.3058, 1561.827
298.7879, 1575.269
299.2700, 1588.745
299.7521, 1601.008
300.2343, 1612.555
300.7164, 1624.377
301.1985, 1637.410
301.6806, 1651.008
302.1627, 1664.084
302.6448, 1676.713
303.1270, 1688.667
303.6091, 1700.284
304.0912, 1711.076
304.5733, 1720.589
305.0554, 1727.787
305.5375, 1733.948
306.0197, 1740.701
306.5018, 1747.930
306.9839, 1754.098
307.4660, 1757.185
307.9481, 1758.635
308.4302, 1760.562
308.9124, 1764.958
309.3945, 1768.792
309.8766, 1768.866
310.3587, 1765.827
310.8408, 1763.048
311.3229, 1764.121
311.8051, 1765.784
312.2872, 1764.454
312.7693, 1757.662
313.2514, 1750.518
313.7335, 1746.431
314.2156, 1744.442
314.6978, 1741.684
315.1799, 1736.781
315.6620, 1730.607
316.1441, 1723.735
316.6262, 1715.945
317.1083, 1708.166
317.5905, 1700.758
318.0726, 1693.642
318.5547, 1686.571
319.0368, 1680.283
319.5189, 1673.396
320.0010, 1665.216
320.4832, 1655.481
320.9653, 1645.293
321.4474, 1634.945
321.9295, 1624.332
322.4116, 1613.335
322.8937, 1601.650
323.3759, 1589.883
323.8580, 1578.417
324.3401, 1567.424
324.8222, 1555.551
325.3043, 1541.538
325.7864, 1527.167
326.2686, 1513.813
326.7507, 1502.889
327.2328, 1491.565
327.7149, 1479.021
328.1970, 1465.521
328.6791, 1452.797
329.1613, 1441.492
329.6434, 1430.570
330.1255, 1419.563
330.6076, 1408.974
331.0897, 1397.509
331.5718, 1384.256
332.0540, 1370.131
332.5361, 1357.730
333.0182, 1348.166
333.5003, 1338.697
333.9824, 1328.169
334.4645, 1315.738
334.9467, 1304.677
335.4288, 1295.536
335.9109, 1287.454
336.3930, 1279.151
336.8751, 1270.154
337.3572, 1261.899
337.8394, 1254.845
338.3215, 1249.100
338.8036, 1243.588
339.2857, 1238.601
339.7678, 1233.316
340.2499, 1226.167
340.7321, 1216.713
341.2142, 1208.826
341.6963, 1203.766
342.1784, 1200.955
342.6605, 1197.902
343.1426, 1194.602
343.6248, 1191.167
344.1069, 1187.608
344.5890, 1183.979
345.0711, 1180.622
345.5532, 1177.773
346.0353, 1175.003
346.5175, 1171.100
346.9996, 1166.056
347.4817, 1161.707
347.9638, 1159.957
348.4459, 1159.929
348.9280, 1158.317
349.4102, 1154.731
349.8923, 1150.237
350.3744, 1146.341
350.8565, 1142.810
351.3386, 1138.609
351.8207, 1132.278
352.3029, 1125.357
352.7850, 1120.965
353.2671, 1119.147
353.7492, 1116.743
354.2313, 1109.660
354.7134, 1100.305
355.1956, 1092.827
355.6777, 1089.461
356.1598, 1087.856
356.6419, 1086.151
357.1240, 1084.358
357.6061, 1082.506
358.0883, 1080.823
358.5704, 1078.997
359.0525, 1076.710
359.5346, 1073.752
360.0167, 1070.582
360.4988, 1066.823
360.9810, 1063.035
361.4631, 1060.499
361.9452, 1061.319
362.4273, 1062.329
362.9094, 1061.385
363.3915, 1057.649
363.8737, 1054.721
364.3558, 1053.829
364.8379, 1054.360
365.3200, 1055.615
365.8021, 1059.039
366.2842, 1061.597
366.7664, 1061.672
367.2485, 1059.222
367.7306, 1058.298
368.2127, 1060.574
368.6948, 1063.802
369.1769, 1066.514
369.6591, 1067.782
370.1412, 1069.662
370.6233, 1072.470
371.1054, 1076.013
371.5875, 1079.549
372.0696, 1082.930
372.5518, 1086.432
373.0339, 1090.054
373.5160, 1093.398
373.9981, 1098.230
374.4802, 1105.591
374.9623, 1113.658
375.4445, 1119.113
375.9266, 1120.910
376.4087, 1123.136
376.8908, 1126.976
377.3729, 1132.401
377.8550, 1138.467
378.3372, 1145.378
378.8193, 1152.252
379.3014, 1157.693
379.7835, 1161.629
380.2656, 1166.883
380.7477, 1174.364
381.2299, 1183.107
381.7120, 1190.944
382.1941, 1197.795
382.6762, 1204.123
383.1583, 1209.520
383.6404, 1214.476
384.1226, 1221.124
384.6047, 1230.089
385.0868, 1239.176
385.5689, 1245.188
386.0510, 1248.849
386.5331, 1252.963
387.0153, 1259.518
387.4974, 1267.096
387.9795, 1273.652
388.4616, 1279.173
388.9437, 1284.508
389.4258, 1290.414
389.9080, 1296.565
390.3901, 1302.359
390.8722, 1307.233
391.3543, 1312.177
391.8364, 1318.401
392.3185, 1325.379
392.8007, 1331.374
393.2828, 1334.631
393.7649, 1337.176
394.2470, 1340.460
394.7291, 1345.087
395.2112, 1349.362
395.6934, 1352.806
396.1755, 1355.470
396.6576, 1357.442
397.1397, 1357.928
397.6218, 1358.465
398.1039, 1359.843
398.5861, 1362.237
399.0682, 1363.610
399.5503, 1363.063
400.0324, 1361.848
400.5145, 1360.909
400.9966, 1360.750
401.4788, 1360.252
401.9609, 1360.063
402.4430, 1359.573
402.9251, 1356.078
403.4072, 1347.549
403.8893, 1339.088
404.3714, 1333.291
404.8535, 1331.034
405.3357, 1327.463
405.8178, 1322.007
406.2999, 1316.035
406.7820, 1312.116
407.2641, 1310.911
407.7462, 1307.818
408.2284, 1300.796
408.7105, 1290.822
409.1926, 1282.016
409.6747, 1274.423
410.1568, 1267.703
410.6389, 1262.164
411.1211, 1257.526
411.6032, 1251.764
412.0853, 1244.281
412.5674, 1236.050
413.0495, 1227.951
413.5316, 1220.032
414.0138, 1212.744
414.4959, 1206.371
414.9780, 1200.663
415.4601, 1195.445
415.9422, 1190.677
416.4243, 1185.995
416.9065, 1180.673
417.3886, 1175.295
417.8707, 1170.853
418.3528, 1168.345
418.8349, 1166.178
419.3170, 1163.148
419.7992, 1159.454
420.2813, 1156.221
420.7634, 1153.074
421.2455, 1151.047
421.7276, 1151.054
422.2097, 1154.145
422.6919, 1157.051
423.1740, 1158.379
423.6561, 1159.164
424.1382, 1161.030
424.6203, 1164.359
425.1024, 1168.615
425.5846, 1174.063
426.0667, 1180.769
426.5488, 1186.962
427.0309, 1192.298
427.5130, 1197.492
427.9951, 1203.025
428.4773, 1208.880
428.9594, 1215.085
429.4415, 1221.489
429.9236, 1228.293
430.4057, 1236.452
430.8878, 1246.540
431.3700, 1256.095
431.8521, 1263.651
432.3342, 1269.219
432.8163, 1276.333
433.2984, 1285.349
433.7805, 1294.721
434.2627, 1302.487
434.7448, 1308.831
435.2269, 1315.570
435.7090, 1323.450
436.1911, 1331.827
436.6732, 1339.241
437.1554, 1345.818
437.6375, 1352.391
438.1196, 1359.899
438.6017, 1367.631
439.0838, 1374.454
439.5659, 1380.227
440.0481, 1385.186
440.5302, 1389.461
441.0123, 1393.129
441.4944, 1396.324
441.9765, 1399.049
442.4586, 1401.373
442.9408, 1403.034
443.4229, 1404.155
443.9050, 1405.774
444.3871, 1409.821
444.8692, 1413.520
445.3513, 1414.868
445.8335, 1411.956
446.3156, 1409.563
446.7977, 1409.244
447.2798, 1409.876
447.7619, 1409.477
448.2440, 1407.161
448.7262, 1404.611
449.2083, 1402.213
449.6904, 1399.971
450.1725, 1397.492
450.6546, 1394.770
451.1367, 1391.859
451.6189, 1389.070
452.1010, 1386.959
452.5831, 1382.857
453.0652, 1375.998
453.5473, 1367.485
454.0294, 1359.388
454.5116, 1351.641
454.9937, 1344.678
455.4758, 1339.461
455.9579, 1335.369
456.4400, 1328.285
456.9221, 1317.866
457.4043, 1307.032
457.8864, 1298.367
458.3685, 1291.507
458.8506, 1285.374
459.3327, 1280.403
459.8148, 1274.940
460.2970, 1266.342
460.7791, 1255.389
461.2612, 1244.939
461.7433, 1237.186
462.2254, 1230.231
462.7076, 1222.363
463.1897, 1213.251
463.6718, 1204.653
464.1539, 1198.291
464.6360, 1192.610
465.1181, 1186.171
465.6003, 1176.691
466.0824, 1168.484
466.5645, 1163.806
467.0466, 1161.594
467.5287, 1157.759
468.0108, 1150.493
468.4930, 1142.715
468.9751, 1135.208
469.4572, 1127.648
469.9393, 1121.699
470.4214, 1118.398
470.9035, 1115.783
471.3857, 1111.534
471.8678, 1104.863
472.3499, 1099.042
472.8320, 1094.774
473.3141, 1091.604
473.7962, 1087.776
474.2784, 1083.170
474.7605, 1078.851
475.2426, 1075.708
475.7247, 1073.501
476.2068, 1070.756
476.6889, 1067.353
477.1711, 1063.830
477.6532, 1060.773
478.1353, 1058.074
478.6174, 1055.402
479.0995, 1052.456
479.5816, 1049.687
480.0638, 1048.075
480.5459, 1047.220
481.0280, 1045.677
481.5101, 1041.360
481.9922, 1036.801
482.4743, 1034.201
482.9565, 1034.049
483.4386, 1034.287
483.9207, 1034.922
484.4028, 1035.181
484.8849, 1034.243
485.3670, 1030.194
485.8492, 1026.915
486.3313, 1025.603
486.8134, 1025.856
487.2955, 1025.437
487.7776, 1023.623
488.2597, 1022.076
488.7419, 1021.633
489.2240, 1022.705
489.7061, 1022.890
490.1882, 1021.836
490.6703, 1020.417
491.1524, 1019.632
491.6346, 1019.560
492.1167, 1019.411
492.5988, 1019.052
493.0809, 1018.458
493.5630, 1017.342
494.0451, 1015.712
494.5273, 1014.505
495.0094, 1014.623
495.4915, 1015.488
495.9736, 1015.871
496.4557, 1015.712
496.9378, 1015.071
497.4200, 1013.367
497.9021, 1011.378
498.3842, 1010.386
498.8663, 1011.312
499.3484, 1012.566
499.8305, 1013.561
500.3127, 1014.145
500.7948, 1013.921
501.2769, 1011.472
501.7590, 1009.285
502.2411, 1008.570
502.7232, 1009.552
503.2054, 1010.945
503.6875, 1013.802
504.1696, 1016.204
504.6517, 1016.636
505.1338, 1013.588
505.6159, 1011.171
506.0981, 1009.605
506.5802, 1008.798
507.0623, 1008.686
507.5444, 1009.508
508.0265, 1010.218
508.5086, 1010.303
508.9908, 1009.889
509.4729, 1010.198
509.9550, 1011.339
510.4371, 1012.366
510.9192, 1011.983
511.4013, 1010.704
511.8835, 1010.607
512.3655, 1012.221
512.8477, 1014.418
513.3298, 1016.359
513.8119, 1017.892
514.2940, 1018.643
514.7761, 1017.194
515.2582, 1015.879
515.7404, 1016.507
516.2225, 1018.953
516.7046, 1022.081
517.1867, 1026.787
517.6688, 1031.031
518.1509, 1033.173
518.6331, 1031.649
519.1152, 1031.299
519.5973, 1033.474
520.0794, 1037.002
520.5615, 1040.381
521.0436, 1043.815
521.5258, 1046.740
522.0079, 1048.860
522.4900, 1050.362
522.9721, 1052.306
523.4542, 1054.860
523.9363, 1057.229
524.4185, 1058.792
524.9006, 1059.567
525.3827, 1061.272
525.8648, 1064.166
526.3469, 1066.815
526.8290, 1067.027
527.3112, 1065.544
527.7933, 1065.308
528.2754, 1067.517
528.7575, 1070.379
529.2396, 1071.949
529.7217, 1072.455
530.2039, 1072.534
530.6860, 1072.089
531.1681, 1071.654
531.6502, 1071.903
532.1323, 1072.818
532.6144, 1072.943
533.0966, 1070.612
533.5787, 1067.959
534.0608, 1066.498
534.5429, 1067.376
535.0250, 1067.953
535.5071, 1068.037
535.9893, 1067.686
536.4714, 1066.897
536.9535, 1065.255
537.4356, 1064.008
537.9177, 1063.563
538.3998, 1063.773
538.8820, 1063.796
539.3641, 1063.679
539.8462, 1063.212
540.3283, 1061.980
540.8104, 1060.163
541.2925, 1058.909
541.7747, 1058.246
542.2568, 1058.339
542.7389, 1060.274
543.2210, 1063.079
543.7031, 1064.282
544.1852, 1062.307
544.6674, 1059.945
545.1495, 1060.075
545.6316, 1061.853
546.1137, 1063.163
546.5958, 1062.797
547.0779, 1061.932
547.5601, 1060.875
548.0422, 1059.639
548.5243, 1059.223
549.0064, 1060.100
549.4885, 1061.677
549.9706, 1063.688
550.4528, 1067.159
550.9349, 1068.938
551.4170, 1067.951
551.8991, 1066.125
552.3812, 1066.447
552.8633, 1069.433
553.3455, 1072.445
553.8276, 1074.856
554.3097, 1076.854
554.7918, 1079.085
555.2739, 1081.516
555.7560, 1083.904
556.2382, 1085.948
556.7203, 1087.874
557.2024, 1090.331
557.6845, 1093.374
558.1666, 1096.252
558.6487, 1098.395
559.1309, 1099.978
559.6130, 1101.210
560.0951, 1102.276
560.5772, 1102.771
561.0593, 1102.421
561.5414, 1101.371
562.0236, 1099.895
562.5057, 1097.355
562.9878, 1095.098
563.4699, 1093.531
563.9520, 1092.604
564.4341, 1091.885
564.9163, 1092.181
565.3984, 1091.519
565.8805, 1088.513
566.3626, 1082.501
566.8447, 1078.221
567.3268, 1076.024
567.8090, 1074.395
568.2911, 1071.574
568.7732, 1067.685
569.2553, 1064.118
569.7374, 1061.255
570.2195, 1058.560
570.7017, 1055.154
571.1838, 1051.180
571.6659, 1047.169
572.1480, 1043.416
572.6301, 1039.657
573.1122, 1035.821
573.5944, 1031.826
574.0765, 1027.322
574.5586, 1021.509
575.0407, 1015.633
575.5228, 1010.469
576.0049, 1006.503
576.4871, 1002.260
576.9692, 997.6523
577.4513, 992.6757
577.9334, 987.1736
578.4155, 981.0128
578.8976, 974.8853
579.3798, 969.0163
579.8619, 963.1225
580.3440, 956.4852
580.8261, 949.0555
581.3082, 941.8887
581.7903, 935.6110
582.2725, 929.9089
582.7546, 924.1235
583.2367, 918.2428
583.7188, 912.0181
584.2009, 905.2205
584.6830, 898.0515
585.1652, 890.6910
585.6473, 883.0783
586.1294, 875.6241
586.6115, 868.6331
587.0936, 861.7889
587.5757, 854.8486
588.0579, 847.2397
588.5400, 840.1036
589.0221, 833.9119
589.5042, 828.3048
589.9863, 822.4492
590.4684, 816.3806
590.9506, 810.0833
591.4327, 803.4163
591.9148, 796.4713
592.3969, 789.9625
592.8790, 783.8311
593.3611, 778.4163
593.8433, 774.4363
594.3254, 771.5717
594.8075, 767.5176
595.2896, 762.1141
595.7717, 756.3197
596.2538, 750.6868
596.7360, 745.4103
597.2181, 740.7991
597.7002, 737.0387
598.1823, 733.9646
598.6644, 732.0589
599.1465, 730.6907
599.6287, 728.7658
600.1108, 725.1354
600.5929, 721.7454
601.0750, 719.0721
601.5571, 717.1516
602.0392, 715.9271
602.5214, 716.1943
603.0035, 716.0368
603.4856, 714.4995
603.9677, 711.4199
604.4498, 708.9630
604.9319, 707.1086
605.4141, 705.8498
605.8962, 705.6788
606.3783, 706.3182
606.8604, 705.7211
607.3425, 703.3804
607.8246, 700.7894
608.3068, 700.1589
608.7889, 700.6123
609.2710, 700.2324
609.7531, 697.4313
610.2352, 694.6428
610.7173, 693.8836
611.1995, 694.4274
611.6816, 694.2838
612.1637, 692.2806
612.6458, 690.0009
613.1279, 687.9932
613.6100, 686.3201
614.0922, 684.5616
614.5743, 682.4063
615.0564, 680.5647
615.5385, 679.6747
616.0206, 680.0948
616.5027, 679.1764
616.9849, 676.6500
617.4670, 673.6160
617.9491, 671.0516
618.4312, 669.0270
618.9133, 668.2410
619.3954, 669.2714
619.8776, 670.3898
620.3597, 669.3974
620.8418, 666.9011
621.3239, 664.2939
621.8060, 662.2762
622.2881, 660.1516
622.7703, 657.4872
623.2524, 654.3587
623.7345, 651.1048
624.2166, 647.0214
624.6987, 643.5668
625.1808, 641.7073
625.6630, 641.6107
626.1451, 640.2496
626.6272, 637.1067
627.1093, 633.4927
627.5914, 630.2425
628.0735, 627.3697
628.5557, 624.8033
629.0378, 622.7338
629.5199, 620.3068
630.0020, 616.3083
630.4841, 611.0870
630.9662, 605.5250
631.4484, 599.3556
631.9305, 594.0070
632.4126, 591.6756
632.8947, 591.1487
633.3768, 589.9098
633.8589, 586.7064
634.3411, 582.8692
634.8232, 578.7170
635.3053, 574.3321
635.7874, 570.0641
636.2695, 565.6186
636.7516, 561.7087
637.2338, 558.8336
637.7159, 557.0370
638.1980, 554.4363
638.6801, 550.8160
639.1622, 546.9150
639.6443, 543.2498
640.1265, 539.8155
640.6086, 536.3293
641.0907, 532.7581
641.5728, 529.2890
642.0549, 526.1264
642.5370, 523.1882
643.0192, 520.2881
643.5013, 517.4503
643.9834, 514.5030
644.4655, 511.2509
644.9476, 507.8390
645.4297, 504.3798
645.9119, 500.6229
646.3940, 497.1950
646.8761, 494.4687
647.3582, 492.2399
647.8403, 489.8678
648.3224, 487.3391
648.8046, 484.6302
649.2867, 481.6462
649.7688, 478.4105
