##NAMES=Chalcopyrite
##RRUFFID=R050018
##IDEAL CHEMISTRY=Cu^1+^Fe^3+^S^2-^_2_
##LOCALITY=Sudbury, Ontario, Canada
##OWNER=RRUFF
##SOURCE=Eugene Schlepp
##DESCRIPTION=Massive fragment
##STATUS=The identification of this mineral has been confirmed by X-ray diffraction and chemical analysis
##URL=rruff.info/R050018
##MEASURED CHEMISTRY=Cu_1.00_Fe_1.00_S_2.00_
113.3055, 73.40862
113.7877, 81.65861
114.2698, 94.17285
114.7519, 115.4434
115.2340, 139.4664
115.7161, 158.5778
116.1982, 170.6141
116.6804, 181.5859
117.1625, 198.1516
117.6446, 221.2629
118.1267, 242.8973
118.6088, 263.1435
119.0909, 278.8108
119.5731, 284.9094
120.0552, 278.0587
120.5373, 266.8904
121.0194, 264.7405
121.5015, 274.3411
121.9836, 285.5054
122.4658, 297.7112
122.9479, 308.8364
123.4300, 316.2148
123.9121, 318.3597
124.3942, 317.4998
124.8763, 318.8276
125.3585, 322.8576
125.8406, 328.5495
126.3227, 330.5312
126.8048, 335.2529
127.2869, 350.1068
127.7690, 378.9346
128.2512, 420.2442
128.7333, 466.9201
129.2154, 517.8954
129.6975, 576.8542
130.1796, 650.0464
130.6617, 729.9993
131.1439, 805.6569
131.6260, 869.8597
132.1081, 924.6085
132.5902, 985.5858
133.0723, 1070.464
133.5544, 1143.407
134.0366, 1203.828
134.5187, 1246.847
135.0008, 1263.983
135.4829, 1247.845
135.9650, 1200.006
136.4471, 1151.392
136.9293, 1110.287
137.4114, 1060.373
137.8935, 990.1573
138.3756, 906.3716
138.8577, 822.7708
139.3398, 748.2803
139.8220, 682.8854
140.3041, 634.4438
140.7862, 602.9388
141.2683, 583.7101
141.7504, 576.9146
142.2325, 581.4402
142.7147, 594.7037
143.1968, 615.4636
143.6789, 644.0911
144.1610, 676.2290
144.6431, 714.2584
145.1252, 753.2043
145.6074, 789.1821
146.0895, 822.7198
146.5716, 858.1667
147.0537, 899.0822
147.5358, 945.8811
148.0179, 993.5937
148.5001, 1048.833
148.9822, 1100.141
149.4643, 1143.598
149.9464, 1178.398
150.4285, 1195.942
150.9106, 1186.281
151.3928, 1149.631
151.8749, 1107.257
152.3570, 1054.972
152.8391, 1000.637
153.3212, 951.5916
153.8033, 908.5923
154.2855, 866.4289
154.7676, 820.0568
155.2497, 770.6273
155.7318, 723.7827
156.2139, 675.4368
156.6960, 632.5446
157.1782, 604.1710
157.6603, 591.7194
158.1424, 587.2924
158.6245, 588.5486
159.1066, 593.6500
159.5887, 598.4479
160.0709, 606.1253
160.5530, 611.3558
161.0351, 604.0504
161.5172, 580.9893
161.9993, 556.7833
162.4814, 542.0126
162.9636, 533.5620
163.4457, 526.3736
163.9278, 519.3286
164.4099, 512.3973
164.8920, 505.5693
165.3741, 498.8228
165.8563, 492.2895
166.3384, 487.7560
166.8205, 483.4041
167.3026, 475.5879
167.7847, 459.4837
168.2668, 440.0049
168.7490, 428.4684
169.2311, 427.6149
169.7132, 428.6166
170.1953, 428.0217
170.6774, 425.8926
171.1595, 421.9483
171.6417, 414.8883
172.1238, 406.4142
172.6059, 401.3014
173.0880, 401.6568
173.5701, 401.1357
174.0522, 396.2074
174.5344, 388.8376
175.0165, 381.9825
175.4986, 377.6111
175.9807, 374.3264
176.4628, 367.7585
176.9449, 355.5708
177.4271, 344.3789
177.9092, 337.9863
178.3913, 333.7005
178.8734, 327.5246
179.3555, 316.4880
179.8376, 303.1541
180.3197, 295.4318
180.8019, 296.6975
181.2840, 297.8311
181.7661, 295.0899
182.2482, 290.7774
182.7303, 287.6326
183.2124, 286.9069
183.6946, 288.2990
184.1767, 291.2043
184.6588, 296.7250
185.1409, 301.8321
185.6230, 306.1641
186.1051, 309.5497
186.5873, 311.8291
187.0694, 312.9210
187.5515, 312.8683
188.0336, 311.6227
188.5157, 308.2859
188.9978, 305.2900
189.4800, 304.5876
189.9621, 303.9022
190.4442, 300.4479
190.9263, 292.8338
191.4084, 282.9296
191.8905, 275.1663
192.3727, 269.8992
192.8548, 266.3955
193.3369, 265.5305
193.8190, 265.5457
194.3011, 264.8129
194.7832, 262.6866
195.2654, 259.5739
195.7475, 256.6681
196.2296, 255.7105
196.7117, 251.3351
197.1938, 238.2627
197.6759, 224.5190
198.1581, 217.8712
198.6402, 220.7858
199.1223, 228.6400
199.6044, 232.7727
200.0865, 230.7393
200.5686, 229.7548
201.0508, 231.9597
201.5329, 234.3657
202.0150, 234.3428
202.4971, 231.2712
202.9792, 226.9344
203.4613, 224.2018
203.9435, 223.7922
204.4256, 223.4588
204.9077, 223.9781
205.3898, 223.9351
205.8719, 221.9659
206.3540, 217.9817
206.8362, 213.3904
207.3183, 210.2907
207.8004, 209.8390
208.2825, 207.9455
208.7646, 201.7014
209.2467, 196.3681
209.7289, 196.3553
210.2110, 201.3928
210.6931, 206.8153
211.1752, 206.6252
211.6573, 198.4927
212.1395, 193.3366
212.6216, 193.3336
213.1037, 194.2326
213.5858, 193.8477
214.0679, 192.2916
214.5500, 191.1663
215.0322, 192.3405
215.5143, 196.3835
215.9964, 198.8948
216.4785, 199.0665
216.9606, 198.4960
217.4427, 197.4535
217.9249, 196.1275
218.4070, 194.6732
218.8891, 193.0155
219.3712, 191.1018
219.8533, 190.9277
220.3354, 196.4711
220.8176, 199.9000
221.2997, 196.8568
221.7818, 190.0383
222.2639, 185.2174
222.7460, 186.9568
223.2281, 194.3599
223.7103, 197.5586
224.1924, 190.9126
224.6745, 186.0172
225.1566, 187.6180
225.6387, 192.0249
226.1208, 193.2746
226.6030, 187.5910
227.0851, 176.9661
227.5672, 169.7679
228.0493, 167.8192
228.5314, 167.1992
229.0135, 166.1371
229.4957, 166.3174
229.9778, 171.0514
230.4599, 182.0744
230.9420, 195.1871
231.4241, 199.3302
231.9062, 187.0703
232.3884, 178.3678
232.8705, 176.0057
233.3526, 177.5790
233.8347, 182.1810
234.3168, 189.3015
234.7989, 196.5166
235.2811, 198.9796
235.7632, 193.4103
236.2453, 190.9354
236.7274, 195.2161
237.2095, 200.5948
237.6916, 203.7127
238.1738, 203.7756
238.6559, 201.6613
239.1380, 197.3532
239.6201, 189.0259
240.1022, 185.4087
240.5843, 192.2592
241.0665, 199.4152
241.5486, 201.8081
242.0307, 199.4834
242.5128, 195.7650
242.9949, 193.9099
243.4770, 194.1592
243.9592, 193.2542
244.4413, 187.3192
244.9234, 184.0381
245.4055, 187.8846
245.8876, 196.9651
246.3697, 206.1559
246.8519, 211.8555
247.3340, 214.4307
247.8161, 216.8168
248.2982, 218.5739
248.7803, 220.7778
249.2624, 224.5630
249.7446, 228.8886
250.2267, 231.8355
250.7088, 231.8728
251.1909, 230.4454
251.6730, 232.1036
252.1551, 238.8639
252.6373, 244.6320
253.1194, 246.2325
253.6015, 246.4292
254.0836, 248.7048
254.5657, 254.8134
255.0478, 261.5063
255.5300, 262.7583
256.0121, 256.6741
256.4942, 252.3437
256.9763, 253.7207
257.4584, 257.0967
257.9406, 260.6266
258.4227, 263.9958
258.9048, 265.7896
259.3869, 262.9462
259.8690, 255.1014
260.3511, 251.2872
260.8333, 256.4225
261.3154, 263.4156
261.7975, 267.4863
262.2796, 268.4557
262.7617, 268.0528
263.2438, 266.4495
263.7260, 264.1218
264.2081, 264.1628
264.6902, 268.2623
265.1723, 272.6834
265.6544, 274.5653
266.1365, 274.4972
266.6187, 274.3347
267.1008, 275.7606
267.5829, 277.5400
268.0650, 276.6316
268.5471, 272.2174
269.0292, 267.5727
269.5114, 265.7941
269.9935, 265.2786
270.4756, 263.1091
270.9577, 257.2245
271.4398, 250.4560
271.9219, 245.1711
272.4041, 241.3232
272.8862, 240.8685
273.3683, 246.8856
273.8504, 256.0624
274.3325, 261.6110
274.8146, 261.1388
275.2968, 260.8415
275.7789, 264.4142
276.2610, 271.5142
276.7431, 281.1222
277.2252, 293.6371
277.7073, 307.5597
278.1895, 320.5145
278.6716, 332.4317
279.1537, 343.9512
279.6358, 355.1459
280.1179, 366.1032
280.6000, 377.0656
281.0822, 388.2081
281.5643, 398.7416
282.0464, 406.8758
282.5285, 412.0997
283.0106, 420.9390
283.4927, 436.7984
283.9749, 454.8911
284.4570, 469.2371
284.9391, 479.9834
285.4212, 494.5438
285.9033, 519.2444
286.3854, 554.2117
286.8676, 590.2269
287.3497, 629.0739
287.8318, 667.1909
288.3139, 704.1785
288.7960, 739.2714
289.2781, 770.9182
289.7603, 798.6945
290.2424, 821.7505
290.7245, 835.4740
291.2066, 845.7530
291.6887, 840.4568
292.1708, 813.5579
292.6530, 771.4866
293.1351, 720.0964
293.6172, 661.6540
294.0993, 598.9934
294.5814, 537.0657
295.0635, 472.4538
295.5457, 415.5975
296.0278, 367.0314
296.5099, 325.4592
296.9920, 291.1261
297.4741, 263.4019
297.9562, 240.8307
298.4384, 221.8757
298.9205, 206.5625
299.4026, 194.7623
299.8847, 188.5684
300.3668, 183.6743
300.8489, 178.5800
301.3311, 173.6229
301.8131, 169.9420
302.2953, 168.4273
302.7774, 168.6286
303.2595, 168.2104
303.7416, 166.5076
304.2237, 165.1637
304.7058, 165.0432
305.1880, 165.1897
305.6701, 164.4889
306.1522, 162.5106
306.6343, 159.9286
307.1164, 157.7798
307.5985, 156.1104
308.0807, 154.7374
308.5628, 154.6199
309.0449, 154.0887
309.5270, 151.5502
310.0091, 147.0810
310.4912, 142.9588
310.9734, 140.7826
311.4555, 140.5427
311.9376, 142.4569
312.4197, 147.6044
312.9018, 153.4706
313.3839, 159.3619
313.8661, 164.7826
314.3482, 168.2690
314.8303, 168.4275
315.3124, 166.5770
315.7945, 164.4707
316.2766, 161.8122
316.7588, 160.7338
317.2409, 164.1296
317.7230, 169.2841
318.2051, 171.4703
318.6872, 168.6956
319.1693, 165.4014
319.6515, 165.0459
320.1336, 167.0636
320.6157, 168.7461
321.0978, 168.7997
321.5799, 168.7297
322.0620, 171.6822
322.5442, 178.3798
323.0263, 183.1031
323.5084, 183.0117
323.9905, 180.5826
324.4726, 179.0143
324.9547, 178.8367
325.4369, 178.8250
325.9190, 177.8513
326.4011, 175.8053
326.8832, 173.4749
327.3653, 169.5118
327.8474, 166.4849
328.3296, 167.8298
328.8117, 171.6139
329.2938, 171.6133
329.7759, 163.6068
330.2580, 149.9998
330.7401, 141.9667
331.2223, 143.5338
331.7044, 145.7054
332.1865, 148.1711
332.6686, 150.5229
333.1507, 152.5116
333.6328, 154.0159
334.1150, 154.8018
334.5971, 154.2230
335.0792, 150.9567
335.5613, 150.0113
336.0434, 153.6379
336.5255, 157.3103
337.0077, 159.4055
337.4898, 159.5363
337.9719, 157.4395
338.4540, 152.4317
338.9361, 144.9355
339.4182, 138.6149
339.9004, 132.8288
340.3825, 129.4769
340.8646, 130.4986
341.3467, 133.4332
341.8288, 135.0217
342.3109, 133.8605
342.7931, 131.8495
343.2752, 132.4094
343.7573, 136.1784
344.2394, 137.9125
344.7215, 135.1180
345.2036, 130.7269
345.6858, 125.9426
346.1679, 120.9904
346.6500, 118.8617
347.1321, 123.6588
347.6142, 132.6825
348.0963, 138.4997
348.5785, 140.0959
349.0606, 139.3755
349.5427, 136.6466
350.0248, 132.6319
350.5069, 129.5125
350.9890, 128.4439
351.4712, 127.7804
351.9533, 125.3262
352.4354, 121.7048
352.9175, 120.4968
353.3996, 124.0160
353.8817, 130.2630
354.3639, 133.9831
354.8460, 134.6671
355.3281, 134.5904
355.8102, 133.5920
356.2923, 132.3867
356.7744, 132.2591
357.2566, 133.3632
357.7387, 133.9757
358.2208, 131.8857
358.7029, 126.1986
359.1850, 122.8658
359.6671, 124.5916
360.1493, 125.6450
360.6314, 121.8555
361.1135, 115.4347
361.5956, 111.5519
362.0777, 113.4212
362.5598, 119.4457
363.0420, 123.8628
363.5241, 126.2864
364.0062, 127.5384
364.4883, 126.9410
364.9704, 125.8513
365.4525, 125.6510
365.9347, 126.5264
366.4168, 127.2064
366.8989, 125.4320
367.3810, 120.8602
367.8631, 119.6523
368.3452, 125.2589
368.8274, 130.4471
369.3095, 130.4824
369.7916, 127.2974
370.2737, 125.7475
370.7558, 129.3694
371.2379, 134.8835
371.7201, 135.9759
372.2022, 132.0525
372.6843, 129.6094
373.1664, 133.3149
373.6485, 138.8318
374.1306, 139.1883
374.6128, 132.7068
375.0949, 126.3804
375.5770, 124.8201
376.0591, 125.8322
376.5412, 124.7813
377.0233, 120.5401
377.5055, 115.7120
377.9876, 113.2252
378.4697, 113.4176
378.9518, 111.7585
379.4339, 104.2576
379.9160, 98.44165
380.3982, 100.6714
380.8803, 108.5285
381.3624, 114.9257
381.8445, 115.9655
382.3266, 113.1634
382.8087, 111.1120
383.2909, 112.2492
383.7730, 110.8228
384.2551, 102.7297
384.7372, 94.65082
385.2193, 93.03936
385.7014, 98.26622
386.1836, 104.9442
386.6657, 107.0528
387.1478, 104.2006
387.6299, 104.3327
388.1120, 112.3044
388.5941, 117.5755
389.0763, 115.2353
389.5584, 108.4091
390.0405, 101.8336
390.5226, 97.24450
391.0047, 94.44465
391.4868, 93.24487
391.9690, 93.72743
392.4511, 95.26037
392.9332, 99.48630
393.4153, 102.9983
393.8974, 101.6231
394.3795, 95.41634
394.8617, 90.74007
395.3438, 91.87234
395.8259, 96.11559
396.3080, 98.94627
396.7901, 99.90393
397.2722, 100.8902
397.7544, 103.7040
398.2365, 107.6317
398.7186, 109.1740
399.2007, 106.2030
399.6828, 103.2791
400.1649, 102.5470
400.6471, 102.9326
401.1292, 102.6808
401.6113, 101.2091
402.0934, 98.94857
402.5755, 96.40786
403.0576, 93.21307
403.5398, 90.98370
404.0219, 89.36984
404.5040, 88.86889
404.9861, 90.54397
405.4682, 93.56322
405.9503, 95.97451
406.4325, 96.48112
406.9146, 95.61393
407.3967, 94.98583
407.8788, 93.64374
408.3609, 94.61292
408.8430, 101.3137
409.3252, 108.5033
409.8073, 112.2975
410.2894, 112.0507
410.7715, 109.1890
411.2536, 102.9216
411.7357, 94.47211
412.2179, 90.95425
412.7000, 94.44576
413.1821, 98.99991
413.6642, 100.3816
414.1463, 99.90817
414.6284, 100.0286
415.1106, 101.1698
415.5927, 103.0606
416.0748, 106.4237
416.5569, 110.4913
417.0390, 112.8549
417.5211, 112.6645
418.0033, 110.5010
418.4854, 106.6888
418.9675, 99.92857
419.4496, 96.27406
419.9317, 98.76830
420.4138, 102.1352
420.8960, 102.6641
421.3781, 100.8119
421.8602, 98.96643
422.3423, 98.61288
422.8244, 99.58531
423.3065, 101.1866
423.7887, 103.8887
424.2708, 106.5177
424.7529, 110.7697
425.2350, 113.7192
425.7171, 111.5658
426.1992, 104.5265
426.6814, 97.91581
427.1635, 97.60084
427.6456, 102.9477
428.1277, 106.3530
428.6098, 107.2608
429.0919, 107.2535
429.5741, 106.3868
430.0562, 105.3569
430.5383, 105.3492
431.0204, 107.0347
431.5025, 108.9430
431.9846, 110.6142
432.4668, 111.6274
432.9489, 109.8276
433.4310, 103.9434
433.9131, 97.58195
434.3952, 95.24377
434.8773, 97.40987
435.3595, 98.98894
435.8416, 98.77785
436.3237, 98.76125
436.8058, 100.8982
437.2879, 104.2495
437.7701, 106.2006
438.2522, 105.3289
438.7343, 102.7910
439.2164, 101.5711
439.6985, 102.8487
440.1806, 103.3580
440.6628, 102.4748
441.1449, 101.3616
441.6270, 100.7038
442.1091, 100.5267
442.5912, 100.4743
443.0733, 100.0639
443.5555, 99.65684
444.0376, 101.3435
444.5197, 106.8108
445.0018, 109.6169
445.4839, 104.0496
445.9660, 96.24651
446.4482, 92.12637
446.9303, 92.65185
447.4124, 95.05329
447.8945, 98.92682
448.3766, 103.2362
448.8587, 105.7299
449.3409, 106.0712
449.8230, 105.1886
450.3051, 103.2599
450.7872, 100.5793
451.2693, 99.79618
451.7514, 102.1966
452.2336, 104.8347
452.7157, 107.2205
453.1978, 109.0929
453.6799, 109.9338
454.1620, 109.6502
454.6441, 108.8907
455.1263, 108.4579
455.6084, 108.3830
456.0905, 108.4607
456.5726, 110.8447
457.0547, 111.0899
457.5368, 104.9074
458.0190, 96.37096
458.5011, 92.74760
458.9832, 97.85731
459.4653, 105.2109
459.9474, 104.0470
460.4295, 94.18346
460.9117, 88.87542
461.3938, 92.62363
461.8759, 98.99072
462.3580, 103.3103
462.8401, 105.5780
463.3222, 105.2163
463.8044, 98.58712
464.2865, 91.99246
464.7686, 91.89988
465.2507, 97.00050
465.7328, 102.1589
466.2149, 105.4133
466.6971, 106.5963
467.1792, 105.1115
467.6613, 98.52808
468.1434, 94.42431
468.6255, 94.56068
469.1076, 95.58842
469.5898, 95.71026
470.0719, 94.89806
470.5540, 93.60786
471.0361, 91.96463
471.5182, 90.46622
472.0003, 90.60553
472.4825, 92.70560
472.9646, 95.57073
473.4467, 102.6570
473.9288, 107.6645
474.4109, 103.9649
474.8930, 92.49379
475.3752, 83.55922
475.8573, 84.97942
476.3394, 91.92741
476.8215, 96.82465
477.3036, 99.47417
477.7857, 100.0356
478.2679, 97.78032
478.7500, 94.13970
479.2321, 92.67517
479.7142, 94.02007
480.1963, 95.53901
480.6784, 97.90791
481.1606, 99.45114
481.6427, 97.87394
482.1248, 93.60334
482.6069, 89.40117
483.0890, 87.23872
483.5711, 86.95010
484.0533, 87.68919
484.5354, 90.52245
485.0175, 92.62744
485.4996, 92.88642
485.9817, 92.85372
486.4638, 94.24746
486.9460, 96.98550
487.4281, 98.88519
487.9102, 97.82335
488.3923, 94.63429
488.8744, 91.39587
489.3565, 87.83714
489.8387, 86.07135
490.3208, 88.39948
490.8029, 92.60200
491.2850, 93.90176
491.7671, 91.27580
492.2492, 88.78145
492.7314, 87.44121
493.2135, 87.14509
493.6956, 88.20055
494.1777, 90.39837
494.6598, 92.48872
495.1419, 93.43433
495.6241, 93.51012
496.1062, 94.59779
496.5883, 98.73361
497.0704, 100.9467
497.5525, 99.50086
498.0346, 96.90709
498.5168, 94.84452
498.9989, 93.71364
499.4810, 93.51955
499.9631, 94.34712
500.4452, 96.11276
500.9273, 99.27172
501.4095, 104.8228
501.8916, 107.3791
502.3737, 102.7031
502.8558, 94.69244
503.3379, 89.45461
503.8200, 87.41270
504.3022, 86.89118
504.7843, 89.06112
505.2664, 91.40588
505.7485, 89.98113
506.2306, 85.15949
506.7127, 81.57652
507.1949, 82.51929
507.6770, 86.87777
508.1591, 89.76094
508.6412, 89.48701
509.1233, 90.19854
509.6054, 93.90063
510.0876, 97.25426
510.5697, 97.16422
511.0518, 94.06601
511.5339, 91.11374
512.0161, 90.66120
512.4982, 91.92277
512.9803, 92.98369
513.4624, 93.93302
513.9445, 93.97288
514.4266, 91.88930
514.9088, 89.57624
515.3909, 89.59343
515.8730, 92.09381
516.3551, 94.75127
516.8372, 97.60706
517.3193, 99.77068
517.8015, 99.72357
518.2836, 98.06119
518.7657, 97.52174
519.2478, 99.75557
519.7299, 103.0758
520.2120, 103.3603
520.6942, 98.71585
521.1763, 94.57263
521.6584, 90.28125
522.1405, 87.02953
522.6226, 85.77901
523.1047, 86.09293
523.5869, 86.95241
524.0690, 88.03245
524.5511, 88.92117
525.0332, 88.52763
525.5153, 86.86668
525.9974, 86.35398
526.4796, 87.80743
526.9617, 90.18070
527.4438, 92.14111
527.9259, 93.82671
528.4080, 96.94211
528.8901, 105.9816
529.3723, 112.3109
529.8544, 107.4834
530.3365, 96.89434
530.8186, 91.57781
531.3007, 95.19823
531.7828, 102.3593
532.2650, 105.7363
532.7471, 104.8064
533.2292, 103.3722
533.7113, 100.1511
534.1934, 97.92854
534.6755, 98.21491
535.1577, 99.72554
535.6398, 100.7688
536.1219, 100.8637
536.6040, 100.4627
537.0861, 99.75524
537.5682, 98.88303
538.0504, 98.20522
538.5325, 97.71375
539.0146, 97.86328
539.4967, 99.25681
539.9788, 101.5490
540.4609, 102.9848
540.9431, 103.0445
541.4252, 103.0829
541.9073, 104.5022
542.3894, 105.2981
542.8715, 102.3948
543.3536, 96.36985
543.8358, 91.50066
544.3179, 91.45928
544.8000, 95.05223
545.2821, 97.00005
545.7642, 96.70839
546.2463, 96.38195
546.7285, 95.90800
547.2106, 96.12949
547.6927, 98.55427
548.1748, 102.8650
548.6569, 105.5445
549.1390, 104.3866
549.6211, 101.2871
550.1032, 97.49057
550.5853, 93.39902
551.0674, 90.70509
551.5496, 90.19489
552.0317, 90.62515
552.5138, 89.67353
552.9959, 85.74458
553.4780, 85.99059
553.9601, 94.75513
554.4423, 102.4332
554.9244, 105.5981
555.4065, 105.0049
555.8886, 101.1692
556.3707, 94.13007
556.8528, 87.86768
557.3350, 88.64037
557.8171, 95.31643
558.2992, 98.00527
558.7813, 94.47313
559.2634, 91.27200
559.7455, 93.87165
560.2277, 99.94904
560.7098, 101.8292
561.1919, 96.36613
561.6740, 92.13188
562.1561, 92.90852
562.6382, 95.56226
563.1204, 97.15572
563.6025, 97.22076
564.0846, 96.07866
564.5667, 93.68649
565.0488, 90.74950
565.5309, 90.08613
566.0131, 92.31648
566.4952, 95.26198
566.9773, 100.7479
567.4594, 105.0352
567.9415, 105.2909
568.4236, 102.0321
568.9058, 98.06797
569.3879, 93.01413
569.8700, 89.15968
570.3521, 89.90226
570.8342, 93.90956
571.3163, 96.44314
571.7985, 95.94222
572.2806, 94.80630
572.7627, 96.16797
573.2448, 100.5430
573.7269, 102.5347
574.2090, 100.6416
574.6912, 98.30865
575.1733, 95.46043
575.6554, 93.10394
576.1375, 92.79302
576.6196, 94.65828
577.1017, 96.40052
577.5839, 95.05801
578.0660, 91.93281
578.5481, 91.85901
579.0302, 95.26243
579.5123, 98.62285
579.9944, 100.7368
580.4766, 101.5220
580.9587, 100.4370
581.4408, 97.03609
581.9229, 94.04613
582.4050, 91.46566
582.8871, 89.76361
583.3693, 89.54107
583.8514, 90.41550
584.3335, 91.63352
584.8156, 92.85122
585.2977, 94.06672
585.7798, 95.28509
586.2620, 96.50412
586.7441, 97.79366
587.2262, 99.55286
587.7083, 100.7408
588.1904, 100.8207
588.6725, 99.93385
589.1547, 98.09172
589.6368, 94.92073
590.1189, 91.77650
590.6010, 88.59197
591.0831, 86.18459
591.5652, 86.47282
592.0474, 88.99488
592.5295, 90.33218
593.0116, 87.93863
593.4937, 83.57435
593.9758, 83.07274
594.4579, 89.13150
594.9401, 92.63728
595.4222, 90.25488
595.9043, 87.47865
596.3864, 86.17694
596.8685, 86.68751
597.3506, 89.76163
597.8328, 97.00829
598.3149, 104.2695
598.7970, 108.2645
599.2791, 109.3177
599.7612, 107.6621
600.2433, 103.3265
600.7255, 98.60414
601.2076, 95.27664
601.6897, 93.30003
602.1718, 92.32892
602.6539, 93.39848
603.1360, 94.08620
603.6182, 93.62570
604.1003, 93.18593
604.5824, 94.61951
605.0645, 97.11797
605.5466, 97.14827
606.0287, 91.08131
606.5109, 83.63271
606.9930, 82.67522
607.4751, 87.37867
607.9572, 90.87280
608.4393, 91.12319
608.9214, 91.27959
609.4036, 95.27373
609.8857, 103.1185
610.3678, 106.0668
610.8499, 99.42010
