##NAMES=Chalcophanite
##RRUFFID=R060271
##IDEAL CHEMISTRY=Zn^2+^Mn^4+^_3_O_7_&#183;3H_2_O
##LOCALITY=&#34;Glory Hole&#34;, Gold Hill mine, Tooele County, Utah, USA
##OWNER=RRUFF
##SOURCE=Michael Scott
##DESCRIPTION=Black hexagonal plates
##STATUS=The identification of this mineral has been confirmed by X-ray diffraction and chemical analysis
##URL=rruff.info/R060271
##MEASURED CHEMISTRY=(Zn_0.97_Mn^2+^_0.03_)_Σ=1_Mn^4+^_3.00_O_7_·3(H_2_O)
92.06543, 33.57233
92.54755, 34.35265
93.02966, 34.70429
93.51178, 33.63617
93.99390, 32.47871
94.47601, 31.49119
94.95813, 30.73889
95.44025, 30.27816
95.92236, 30.25484
96.40448, 30.73966
96.88660, 30.25860
97.36871, 27.65669
97.85082, 25.15864
98.33294, 24.58484
98.81506, 26.13947
99.29717, 28.02837
99.77929, 28.05202
100.2614, 26.41868
100.7435, 25.52543
101.2256, 26.47231
101.7078, 28.54174
102.1899, 30.14170
102.6720, 30.93595
103.1541, 31.16476
103.6362, 30.91465
104.1183, 30.19904
104.6005, 29.80001
105.0826, 30.74997
105.5647, 33.33843
106.0468, 35.00004
106.5289, 34.75179
107.0110, 33.69462
107.4931, 32.16138
107.9753, 30.26602
108.4574, 28.37584
108.9395, 27.24981
109.4216, 27.44612
109.9037, 27.59533
110.3858, 27.18514
110.8680, 26.76978
111.3501, 27.15946
111.8322, 28.85660
112.3143, 31.46473
112.7964, 32.39874
113.2785, 29.60353
113.7607, 27.46313
114.2428, 27.46911
114.7249, 29.11289
115.2070, 30.95662
115.6891, 32.01500
116.1712, 32.24513
116.6534, 32.25005
117.1355, 31.70296
117.6176, 31.16530
118.0997, 31.18969
118.5818, 31.85165
119.0639, 32.50904
119.5461, 32.27995
120.0282, 31.49271
120.5103, 31.20091
120.9924, 32.00191
121.4745, 33.50417
121.9566, 34.89273
122.4388, 36.31834
122.9209, 37.20691
123.4030, 37.06016
123.8851, 36.09657
124.3672, 35.07134
124.8493, 34.58389
125.3315, 34.66995
125.8136, 34.74199
126.2957, 34.77022
126.7778, 34.77245
127.2599, 34.67355
127.7420, 34.50586
128.2242, 34.43098
128.7063, 34.73514
129.1884, 35.82718
129.6705, 36.43470
130.1526, 36.39298
130.6347, 36.05890
131.1169, 35.88016
131.5990, 35.96173
132.0811, 35.83704
132.5632, 34.44933
133.0453, 29.22223
133.5274, 25.86715
134.0096, 25.99567
134.4917, 27.91674
134.9738, 29.25017
135.4559, 28.86084
135.9380, 27.24681
136.4201, 26.09110
136.9023, 25.26879
137.3844, 24.91279
137.8665, 25.64470
138.3486, 27.13702
138.8307, 27.77403
139.3128, 26.08400
139.7950, 23.13992
140.2771, 21.54474
140.7592, 22.17101
141.2413, 23.42846
141.7234, 23.54865
142.2055, 22.25830
142.6877, 21.24342
143.1698, 22.05614
143.6519, 23.52441
144.1340, 24.26457
144.6161, 23.48767
145.0982, 21.79133
145.5803, 20.73995
146.0625, 20.61691
146.5446, 20.75776
147.0267, 20.99377
147.5088, 21.27677
147.9909, 21.54720
148.4730, 21.77657
148.9552, 21.96266
149.4373, 22.05582
149.9194, 21.87456
150.4015, 21.76440
150.8836, 21.99317
151.3657, 22.39358
151.8479, 22.52805
152.3300, 21.90713
152.8121, 20.23903
153.2942, 19.67502
153.7763, 21.13244
154.2584, 22.64448
154.7406, 23.20091
155.2227, 22.75507
155.7048, 21.89727
156.1869, 21.20898
156.6690, 20.67986
157.1511, 20.55971
157.6333, 21.29906
158.1154, 22.18795
158.5975, 22.49378
159.0796, 22.04755
159.5617, 21.42480
160.0438, 21.45648
160.5260, 22.17549
161.0081, 22.73921
161.4902, 22.94464
161.9723, 22.87432
162.4544, 22.65364
162.9365, 22.27732
163.4187, 21.81919
163.9008, 21.35550
164.3829, 20.88821
164.8650, 20.43338
165.3471, 19.88534
165.8292, 19.29902
166.3113, 19.06865
166.7935, 19.45759
167.2756, 20.09242
167.7577, 20.77325
168.2398, 21.47599
168.7219, 22.02722
169.2040, 22.27793
169.6862, 22.22549
170.1683, 21.88692
170.6504, 20.66121
171.1325, 19.55218
171.6146, 19.14152
172.0967, 19.53569
172.5789, 20.40377
173.0610, 21.40198
173.5431, 22.90434
174.0252, 23.61329
174.5073, 22.81248
174.9894, 21.73158
175.4716, 21.38104
175.9537, 22.04921
176.4358, 23.15589
176.9179, 23.51696
177.4000, 22.50492
177.8821, 21.52838
178.3643, 20.39007
178.8464, 19.40178
179.3285, 18.99937
179.8106, 19.35818
180.2927, 20.13429
180.7748, 20.38258
181.2570, 19.51642
181.7391, 18.85310
182.2212, 18.44840
182.7033, 18.34476
183.1854, 18.69043
183.6675, 19.61304
184.1497, 20.89264
184.6318, 21.86057
185.1139, 22.79891
185.5960, 23.14877
186.0781, 22.23284
186.5602, 20.48675
187.0423, 19.18370
187.5245, 19.01829
188.0066, 19.61581
188.4887, 19.98039
188.9708, 20.02525
189.4529, 19.99675
189.9350, 20.10773
190.4172, 20.33145
190.8993, 20.36444
191.3814, 19.92083
191.8635, 19.28215
192.3456, 18.85903
192.8277, 18.74514
193.3099, 18.74712
193.7920, 18.62393
194.2741, 18.33399
194.7562, 18.23258
195.2383, 18.77299
195.7204, 19.44346
196.2026, 19.79227
196.6847, 19.66286
197.1668, 19.30145
197.6489, 19.02410
198.1310, 18.77217
198.6131, 18.79289
199.0953, 19.51353
199.5774, 20.34853
200.0595, 20.74155
200.5416, 20.46381
201.0237, 19.77946
201.5058, 19.21560
201.9880, 18.59434
202.4701, 18.47168
202.9522, 19.22061
203.4343, 20.30996
203.9164, 21.25586
204.3985, 21.84182
204.8807, 22.11403
205.3628, 22.19492
205.8449, 21.93974
206.3270, 21.65947
206.8091, 21.26766
207.2912, 20.91149
207.7733, 20.80254
208.2555, 21.05494
208.7376, 21.53239
209.2197, 21.72659
209.7018, 21.06818
210.1839, 20.76352
210.6660, 21.29868
211.1482, 22.18478
211.6303, 22.62227
212.1124, 22.14932
212.5945, 21.13907
213.0766, 21.16214
213.5587, 23.64790
214.0409, 25.40719
214.5230, 25.45718
215.0051, 24.38410
215.4872, 23.14853
215.9693, 22.15963
216.4514, 21.46123
216.9336, 21.28518
217.4157, 22.04722
217.8978, 22.66621
218.3799, 22.74487
218.8620, 22.40923
219.3441, 21.88960
219.8263, 21.14652
220.3084, 20.46894
220.7905, 20.69981
221.2726, 22.67680
221.7547, 24.05764
222.2368, 23.14456
222.7190, 20.47903
223.2011, 18.27687
223.6832, 17.55803
224.1653, 17.83219
224.6474, 17.91891
225.1295, 17.59615
225.6117, 17.60227
226.0938, 18.85811
226.5759, 21.16087
227.0580, 22.71286
227.5401, 22.43929
228.0222, 21.35136
228.5043, 20.76859
228.9865, 20.82685
229.4686, 21.10266
229.9507, 21.30636
230.4328, 21.43789
230.9149, 21.49964
231.3970, 21.50862
231.8792, 21.42308
232.3613, 21.14098
232.8434, 20.63175
233.3255, 20.18194
233.8076, 20.15910
234.2897, 20.61394
234.7719, 20.89581
235.2540, 20.50395
235.7361, 20.13627
236.2182, 20.27592
236.7003, 20.98244
237.1824, 21.90042
237.6646, 22.91166
238.1467, 24.22404
238.6288, 24.45523
239.1109, 21.78387
239.5930, 19.11044
240.0751, 18.03839
240.5573, 18.71455
241.0394, 20.13397
241.5215, 21.22059
242.0036, 21.92830
242.4857, 22.49722
242.9678, 23.16244
243.4500, 23.52210
243.9321, 23.13303
244.4142, 22.08360
244.8963, 20.99220
245.3784, 20.63488
245.8605, 21.29864
246.3427, 21.64730
246.8248, 21.77942
247.3069, 21.54775
247.7890, 20.58235
248.2711, 19.04666
248.7532, 17.59450
249.2354, 16.89514
249.7175, 17.04668
250.1996, 17.60376
250.6817, 19.23623
251.1638, 20.63660
251.6459, 20.99925
252.1281, 20.45981
252.6102, 19.78434
253.0923, 19.73278
253.5744, 20.43623
254.0565, 20.96304
254.5386, 21.50550
255.0208, 21.74161
255.5029, 21.23414
255.9850, 20.20590
256.4671, 19.39332
256.9492, 19.49450
257.4313, 20.63564
257.9135, 21.20081
258.3956, 20.78671
258.8777, 20.32602
259.3598, 20.14576
259.8419, 20.25326
260.3240, 20.58342
260.8062, 21.14191
261.2883, 21.92411
261.7704, 22.23857
262.2525, 21.84299
262.7346, 21.34795
263.2167, 21.01857
263.6989, 20.79435
264.1810, 20.45873
264.6631, 19.84411
265.1452, 19.00088
265.6273, 18.38111
266.1094, 17.72833
266.5916, 17.50530
267.0737, 18.02774
267.5558, 19.11628
268.0379, 20.46343
268.5200, 22.02886
269.0021, 23.59095
269.4843, 24.17852
269.9664, 22.87610
270.4485, 21.92802
270.9306, 22.39778
271.4127, 23.72644
271.8948, 24.73238
272.3770, 24.88114
272.8591, 24.42948
273.3412, 23.95493
273.8233, 23.22126
274.3054, 22.90479
274.7875, 23.51347
275.2697, 24.64840
275.7518, 25.61508
276.2339, 26.21222
276.7160, 26.43971
277.1981, 26.00624
277.6802, 24.59777
278.1623, 23.97356
278.6444, 25.40924
279.1266, 27.78302
279.6087, 29.10758
280.0908, 28.76170
280.5729, 27.71725
281.0550, 27.14561
281.5371, 26.99202
282.0193, 27.24072
282.5014, 28.42895
282.9835, 29.83966
283.4656, 30.25381
283.9477, 29.32910
284.4298, 28.19465
284.9120, 28.14573
285.3941, 29.02769
285.8762, 29.81481
286.3583, 30.17905
286.8404, 30.39464
287.3225, 30.87881
287.8047, 31.71082
288.2868, 32.41037
288.7689, 32.48986
289.2510, 32.09739
289.7331, 31.76317
290.2152, 31.53736
290.6974, 31.42701
291.1795, 31.35892
291.6616, 31.32325
292.1437, 31.64854
292.6258, 32.78833
293.1079, 34.40461
293.5901, 35.70998
294.0722, 36.73310
294.5543, 37.30774
295.0364, 37.09347
295.5185, 36.13322
296.0006, 35.24441
296.4828, 34.95714
296.9649, 34.86375
297.4470, 34.18533
297.9291, 32.60540
298.4112, 31.12818
298.8933, 30.43829
299.3755, 30.47067
299.8576, 30.89828
300.3397, 31.95532
300.8218, 32.98713
301.3039, 33.15920
301.7860, 32.41167
302.2682, 31.32261
302.7503, 29.76111
303.2324, 28.03081
303.7145, 27.29553
304.1966, 28.18179
304.6787, 29.50091
305.1609, 30.19397
305.6430, 30.30407
306.1251, 29.76409
306.6072, 27.88232
307.0893, 25.41148
307.5714, 24.09878
308.0536, 24.39571
308.5357, 25.12902
309.0178, 25.42567
309.4999, 25.38593
309.9820, 25.20872
310.4641, 24.91310
310.9463, 24.53488
311.4284, 24.03103
311.9105, 23.33468
312.3926, 22.89929
312.8747, 23.28728
313.3568, 24.10187
313.8390, 24.64991
314.3211, 24.79134
314.8032, 24.62595
315.2853, 24.08384
315.7674, 23.15445
316.2495, 22.51134
316.7317, 22.74978
317.2138, 23.29535
317.6959, 23.16802
318.1780, 21.98705
318.6601, 20.94969
319.1422, 21.23403
319.6243, 22.61953
320.1064, 23.53676
320.5886, 23.34211
321.0707, 22.63728
321.5528, 22.20468
322.0349, 22.05834
322.5170, 21.92715
322.9991, 21.53677
323.4813, 21.04340
323.9634, 20.94714
324.4455, 21.46695
324.9276, 22.12147
325.4097, 22.44694
325.8918, 22.49555
326.3740, 22.43921
326.8561, 22.21264
327.3382, 21.95987
327.8203, 21.91740
328.3024, 22.11996
328.7845, 22.45092
329.2667, 23.03275
329.7488, 23.67789
330.2309, 23.88401
330.7130, 23.20921
331.1951, 22.30154
331.6772, 21.78080
332.1594, 21.64293
332.6415, 21.64318
333.1236, 21.65292
333.6057, 21.73505
334.0878, 22.01220
334.5699, 22.60682
335.0521, 23.17576
335.5342, 23.61782
336.0163, 23.88376
336.4984, 23.68187
336.9805, 22.67779
337.4626, 21.48853
337.9448, 21.14036
338.4269, 21.71655
338.9090, 22.28995
339.3911, 22.39194
339.8732, 22.26007
340.3553, 22.40255
340.8375, 22.98146
341.3196, 23.58614
341.8017, 23.72244
342.2838, 23.43611
342.7659, 23.10312
343.2480, 22.48968
343.7302, 22.03449
344.2123, 22.38452
344.6944, 23.57217
345.1765, 24.78302
345.6586, 25.49821
346.1407, 25.69239
346.6229, 25.60759
347.1050, 24.88750
347.5871, 24.20754
348.0692, 24.11128
348.5513, 24.44380
349.0334, 24.57541
349.5156, 24.14129
349.9977, 23.37072
350.4798, 22.88577
350.9619, 22.70783
351.4440, 22.69453
351.9261, 22.99994
352.4083, 23.39962
352.8904, 23.40791
353.3725, 22.82784
353.8546, 22.19809
354.3367, 22.39515
354.8188, 23.69721
355.3010, 24.62681
355.7831, 24.74017
356.2652, 24.62089
356.7473, 24.77575
357.2294, 25.26448
357.7115, 25.89744
358.1937, 26.55624
358.6758, 27.24006
359.1579, 27.67975
359.6400, 27.65994
360.1221, 27.63191
360.6042, 28.00503
361.0863, 28.56851
361.5685, 28.65009
362.0506, 27.77825
362.5327, 26.30947
363.0148, 25.73606
363.4969, 26.70422
363.9790, 27.68901
364.4612, 28.75329
364.9433, 29.62014
365.4254, 29.86968
365.9075, 29.37747
366.3896, 28.45348
366.8717, 27.53201
367.3539, 26.29986
367.8360, 25.88927
368.3181, 26.68671
368.8002, 27.94038
369.2823, 29.32800
369.7644, 30.71750
370.2466, 31.98592
370.7287, 33.05522
371.2108, 33.93949
371.6929, 34.29736
372.1750, 33.59659
372.6571, 32.97874
373.1393, 32.95190
373.6214, 33.21354
374.1035, 33.12106
374.5856, 32.28626
375.0677, 31.07027
375.5498, 30.66055
376.0320, 31.59362
376.5141, 32.60607
376.9962, 34.04205
377.4783, 35.24137
377.9604, 35.47425
378.4425, 34.62863
378.9247, 33.36083
379.4068, 32.57873
379.8889, 32.47454
380.3710, 32.18494
380.8531, 31.29009
381.3352, 30.58660
381.8174, 30.68273
382.2995, 31.32277
382.7816, 31.71981
383.2637, 31.22225
383.7458, 29.96900
384.2279, 28.87336
384.7101, 27.71443
385.1922, 27.10751
385.6743, 27.85271
386.1564, 28.94057
386.6385, 29.01639
387.1206, 27.44314
387.6028, 25.25175
388.0849, 24.03861
388.5670, 23.93775
389.0491, 24.20324
389.5312, 25.18650
390.0133, 26.12448
390.4955, 26.64964
390.9776, 26.69399
391.4597, 26.11380
391.9418, 24.28557
392.4239, 21.53348
392.9060, 19.84885
393.3882, 19.60046
393.8703, 20.06307
394.3524, 21.17794
394.8345, 22.59247
395.3166, 23.49886
395.7987, 23.24557
396.2809, 22.61355
396.7630, 22.80562
397.2451, 23.89141
397.7272, 24.73913
398.2093, 24.74208
398.6914, 24.25733
399.1736, 23.84365
399.6557, 23.47818
400.1378, 23.31011
400.6199, 23.47071
401.1020, 23.89652
401.5841, 24.58799
402.0662, 25.74250
402.5483, 26.55281
403.0305, 25.60501
403.5126, 23.03187
403.9947, 21.26082
404.4768, 20.96766
404.9589, 21.49480
405.4410, 22.69283
405.9232, 24.38208
406.4053, 25.36193
406.8874, 24.61408
407.3695, 22.56579
407.8516, 21.46518
408.3337, 22.00607
408.8159, 22.54886
409.2980, 22.45365
409.7801, 22.06495
410.2622, 21.97648
410.7443, 22.39784
411.2264, 23.02519
411.7086, 23.36542
412.1907, 23.23331
412.6728, 23.26342
413.1549, 23.60885
413.6370, 23.98944
414.1191, 24.27387
414.6013, 24.42462
415.0834, 24.38333
415.5655, 24.06750
416.0476, 23.50594
416.5297, 23.22497
417.0118, 23.64932
417.4940, 23.87399
417.9761, 23.45854
418.4582, 22.86631
418.9403, 22.72586
419.4224, 23.26769
419.9045, 24.13757
420.3867, 24.76545
420.8688, 25.18465
421.3509, 25.24761
421.8330, 24.81937
422.3151, 24.16639
422.7972, 23.09838
423.2794, 21.85550
423.7615, 21.14706
424.2436, 21.72439
424.7257, 23.34747
425.2078, 24.37596
425.6899, 24.52289
426.1721, 24.55464
426.6542, 24.73212
427.1363, 24.97155
427.6184, 25.22938
428.1005, 25.52983
428.5826, 25.65122
429.0648, 25.16401
429.5469, 24.05297
430.0290, 23.27301
430.5111, 23.15643
430.9932, 23.31781
431.4753, 23.52184
431.9575, 23.73374
432.4396, 23.67348
432.9217, 22.66538
433.4038, 21.48433
433.8859, 21.74585
434.3680, 23.68793
434.8502, 25.46416
435.3323, 25.76744
435.8144, 25.06563
436.2965, 24.77991
436.7786, 25.11407
437.2607, 25.62679
437.7429, 26.33357
438.2250, 27.03127
438.7071, 27.14791
439.1892, 26.44217
439.6713, 25.46743
440.1534, 25.03444
440.6356, 25.32354
441.1177, 25.32825
441.5998, 24.52739
442.0819, 23.79683
442.5640, 23.93540
443.0461, 24.79298
443.5282, 25.60007
444.0103, 25.84122
444.4925, 25.60069
444.9746, 25.33849
445.4567, 24.80402
445.9388, 24.56517
446.4209, 24.85541
446.9030, 25.38097
447.3852, 26.02537
447.8673, 26.68042
448.3494, 26.97958
448.8315, 26.32120
449.3136, 24.39267
449.7957, 23.08267
450.2779, 22.72604
450.7600, 22.67107
451.2421, 22.89435
451.7242, 23.24045
452.2063, 23.43944
452.6884, 23.30417
453.1706, 23.04285
453.6527, 23.25567
454.1348, 24.22473
454.6169, 24.77127
455.0990, 23.99927
455.5811, 23.09569
456.0633, 22.97914
456.5454, 23.69829
457.0275, 24.43240
457.5096, 24.47790
457.9917, 24.04368
458.4738, 23.93771
458.9560, 24.34581
459.4381, 24.68909
459.9202, 24.35420
460.4023, 23.71492
460.8844, 23.47937
461.3665, 23.85915
461.8487, 24.54165
462.3308, 25.68018
462.8129, 26.99957
463.2950, 27.37386
463.7771, 26.23135
464.2592, 24.58943
464.7414, 23.99129
465.2235, 24.62376
465.7056, 24.87107
466.1877, 24.02578
466.6698, 23.13065
467.1519, 23.03460
467.6341, 23.69109
468.1162, 24.59245
468.5983, 25.41175
469.0804, 26.21949
469.5625, 27.31046
470.0446, 29.56834
470.5268, 30.97371
471.0089, 30.72149
471.4910, 29.92383
471.9731, 29.70276
472.4552, 30.21696
472.9373, 30.73310
473.4195, 30.33466
473.9016, 28.89948
474.3837, 28.21953
474.8658, 28.86882
475.3479, 29.69742
475.8300, 30.68885
476.3122, 31.56590
476.7943, 31.98550
477.2764, 31.79583
477.7585, 31.13604
478.2406, 29.88017
478.7227, 27.84427
479.2049, 26.99485
479.6870, 28.66028
480.1691, 30.63974
480.6512, 31.36347
481.1333, 30.97631
481.6154, 30.32203
482.0976, 29.47338
482.5797, 28.74065
483.0618, 28.84768
483.5439, 29.83027
484.0260, 30.38631
484.5081, 29.55483
484.9902, 28.13120
485.4724, 27.94952
485.9545, 29.59682
486.4366, 30.68315
486.9187, 29.84871
487.4008, 28.22424
487.8829, 27.39745
488.3651, 27.58310
488.8472, 27.86256
489.3293, 27.35793
489.8114, 26.07712
490.2935, 25.53303
490.7756, 26.25931
491.2578, 26.95530
491.7399, 27.17131
492.2220, 27.17575
492.7041, 27.47753
493.1862, 28.20837
493.6683, 28.82347
494.1505, 28.34552
494.6326, 26.22553
495.1147, 25.19569
495.5968, 26.23293
496.0789, 27.43939
496.5610, 28.37457
497.0432, 28.94093
497.5253, 29.00129
498.0074, 28.38196
498.4895, 27.51217
498.9716, 27.28567
499.4537, 27.84265
499.9359, 28.12724
500.4180, 27.51084
500.9001, 26.89124
501.3822, 27.09851
501.8643, 28.06733
502.3464, 29.01911
502.8286, 29.66897
503.3107, 30.04981
503.7928, 29.93883
504.2749, 29.33681
504.7570, 29.49859
505.2391, 31.55521
505.7213, 34.48958
506.2034, 35.48230
506.6855, 33.69989
507.1676, 32.20263
507.6497, 31.97604
508.1318, 32.35719
508.6140, 32.82990
509.0961, 33.22369
509.5782, 33.10123
510.0603, 31.89550
510.5424, 29.72266
511.0245, 29.08164
511.5067, 31.95330
511.9888, 33.96353
512.4709, 34.18522
512.9530, 33.29250
513.4351, 31.70439
513.9172, 29.67211
514.3994, 27.88076
514.8815, 27.34152
515.3636, 28.18780
515.8457, 28.42657
516.3278, 27.46907
516.8099, 26.68545
517.2921, 26.74158
517.7742, 27.28252
518.2563, 27.83041
518.7384, 28.31144
519.2205, 28.48445
519.7026, 27.94920
520.1848, 26.79297
520.6669, 25.56482
521.1490, 24.09371
521.6311, 23.15819
522.1132, 24.20684
522.5953, 26.78438
523.0775, 28.29411
523.5596, 27.39859
524.0417, 26.09689
524.5238, 25.73181
525.0059, 26.10593
525.4880, 26.65996
525.9702, 27.20484
526.4523, 27.55617
526.9344, 27.34479
527.4165, 26.17764
527.8986, 25.48702
528.3807, 25.50073
528.8629, 25.73472
529.3450, 26.10647
529.8271, 26.47376
530.3092, 26.56576
530.7913, 26.20804
531.2734, 25.61038
531.7556, 25.26323
532.2377, 25.17552
532.7198, 25.31929
533.2019, 26.01147
533.6840, 26.67636
534.1661, 27.05709
534.6483, 27.13211
535.1304, 26.92661
535.6125, 26.26227
536.0946, 25.44741
536.5767, 25.06954
537.0588, 25.14609
537.5410, 25.31751
538.0231, 25.56301
538.5052, 25.71137
538.9873, 25.32356
539.4694, 24.24592
539.9515, 23.79639
540.4337, 24.87091
540.9158, 26.38688
541.3979, 27.37614
541.8800, 27.78038
542.3621, 27.77095
542.8442, 27.37789
543.3264, 26.78721
543.8085, 26.63513
544.2906, 27.23777
544.7726, 27.87003
545.2548, 28.74442
545.7369, 29.47448
546.2190, 29.62908
546.7011, 29.32490
547.1832, 29.08880
547.6653, 29.33986
548.1475, 29.95151
548.6296, 30.36724
549.1117, 30.39968
549.5938, 30.72711
550.0759, 31.71474
550.5580, 32.97163
551.0402, 34.20822
551.5223, 35.40821
552.0044, 36.79168
552.4865, 38.80366
552.9686, 40.97172
553.4507, 42.34069
553.9329, 42.86866
554.4150, 43.41898
554.8971, 44.49175
555.3792, 45.84458
555.8613, 46.84840
556.3434, 47.45627
556.8256, 47.92130
557.3077, 47.78971
557.7898, 47.88552
558.2719, 49.21088
558.7540, 51.60158
559.2361, 53.95230
559.7183, 55.48116
560.2004, 56.41088
560.6825, 57.76170
561.1646, 59.99669
561.6467, 61.83714
562.1288, 62.75307
562.6110, 63.60732
563.0931, 65.15463
563.5752, 67.30206
564.0573, 69.30244
564.5394, 70.56916
565.0215, 71.35513
565.5037, 72.45574
565.9858, 74.02300
566.4679, 74.86655
566.9500, 73.96347
567.4321, 72.60796
567.9142, 72.83250
568.3964, 74.81326
568.8785, 75.84309
569.3606, 74.40458
569.8427, 72.00268
570.3248, 70.14165
570.8069, 68.79537
571.2891, 67.30110
571.7712, 65.36068
572.2533, 62.91193
572.7354, 59.77045
573.2175, 54.91262
573.6996, 51.18613
574.1818, 49.01822
574.6639, 47.51090
575.1460, 46.40947
575.6281, 45.49257
576.1102, 44.37486
576.5923, 42.76668
577.0745, 41.03659
577.5566, 40.05268
578.0387, 39.94055
578.5208, 39.92078
579.0029, 40.12128
579.4850, 40.07127
579.9672, 39.15911
580.4493, 37.63813
580.9314, 36.59943
581.4135, 36.91721
581.8956, 37.49103
582.3777, 37.11214
582.8599, 36.03843
583.3420, 35.29631
583.8241, 35.27497
584.3062, 35.50599
584.7883, 35.32964
585.2704, 34.59872
585.7526, 34.20034
586.2347, 34.69232
586.7168, 34.89898
587.1989, 33.78184
587.6810, 32.20274
