##NAMES=Chalcophanite
##RRUFFID=R060271
##IDEAL CHEMISTRY=Zn^2+^Mn^4+^_3_O_7_&#183;3H_2_O
##LOCALITY=&#34;Glory Hole&#34;, Gold Hill mine, Tooele County, Utah, USA
##OWNER=RRUFF
##SOURCE=Michael Scott
##DESCRIPTION=Black hexagonal plates
##STATUS=The identification of this mineral has been confirmed by X-ray diffraction and chemical analysis
##URL=rruff.info/R060271
##MEASURED CHEMISTRY=(Zn_0.97_Mn^2+^_0.03_)_Σ=1_Mn^4+^_3.00_O_7_·3(H_2_O)
91.11523, 5.800811
91.59735, 6.194144
92.07947, 6.037971
92.56158, 5.421341
93.04370, 4.618907
93.52582, 3.453167
94.00793, 2.234716
94.49006, 1.896027
94.97218, 2.852884
95.45429, 3.971644
95.93641, 2.939526
96.41853, -0.1805643
96.90064, -2.813559
97.38276, -2.498297
97.86488, 0.4350274
98.34699, 2.178312
98.82911, 1.682855
99.31123, -0.1772142
99.79334, -0.3297013
100.2755, 1.575534
100.7576, 3.980236
101.2397, 5.625326
101.7218, 6.512748
102.2039, 6.624168
102.6861, 5.595284
103.1682, 3.440372
103.6503, 2.610592
104.1324, 3.749563
104.6145, 5.493241
105.0966, 6.189548
105.5788, 5.338295
106.0609, 4.279833
106.5430, 3.272671
107.0251, 2.203261
107.5072, 1.581760
107.9893, 1.743569
108.4715, 2.267390
108.9536, 2.382209
109.4357, 0.9626561
109.9178, 0.1432477
110.3999, 0.7768495
110.8820, 4.812577
111.3642, 7.086274
111.8463, 5.988417
112.3284, 2.827696
112.8105, 1.225598
113.2926, 3.059418
113.7747, 5.587119
114.2569, 7.414560
114.7390, 7.878918
115.2211, 8.156269
115.7032, 8.542902
116.1853, 8.977904
116.6674, 9.151646
117.1496, 8.839952
117.6317, 8.278845
118.1138, 7.668745
118.5959, 6.429556
119.0780, 5.688424
119.5602, 6.281133
120.0423, 8.145391
120.5244, 9.936027
121.0065, 10.97376
121.4886, 11.47128
121.9707, 11.70987
122.4529, 11.73158
122.9350, 11.58252
123.4171, 11.12511
123.8992, 10.30781
124.3813, 9.781211
124.8634, 10.22166
125.3456, 11.36966
125.8277, 12.64149
126.3098, 13.71335
126.7919, 14.73140
127.2740, 15.92273
127.7561, 17.32884
128.2383, 18.81353
128.7204, 20.44072
129.2025, 22.11272
129.6846, 23.31698
130.1667, 23.58117
130.6488, 23.11051
131.1310, 22.38259
131.6131, 21.20579
132.0952, 20.24153
132.5773, 21.05147
133.0594, 23.67376
133.5415, 26.28028
134.0237, 27.65943
134.5058, 27.85806
134.9879, 27.45700
135.4700, 26.20181
135.9521, 24.61002
136.4343, 24.71570
136.9164, 27.00293
137.3985, 29.00085
137.8806, 28.15497
138.3627, 23.91008
138.8448, 20.62611
139.3270, 19.29778
139.8091, 19.69557
140.2912, 19.62280
140.7733, 18.84334
141.2554, 18.00809
141.7375, 17.98039
142.2197, 19.33329
142.7018, 19.91701
143.1839, 18.94648
143.6660, 16.26384
144.1481, 14.50609
144.6302, 13.87797
145.1124, 14.01907
145.5945, 14.54615
146.0766, 15.75061
146.5587, 16.91601
147.0408, 17.96335
147.5230, 19.05063
148.0051, 19.35796
148.4872, 18.00647
148.9693, 16.04968
149.4514, 15.33285
149.9335, 17.42640
150.4157, 19.07415
150.8978, 19.11327
151.3799, 15.88266
151.8620, 14.58813
152.3441, 16.91982
152.8262, 20.97615
153.3084, 23.13054
153.7905, 21.64499
154.2726, 19.59957
154.7547, 18.00811
155.2368, 16.83378
155.7189, 16.33505
156.2011, 17.12750
156.6832, 18.65046
157.1653, 19.49991
157.6474, 18.73646
158.1295, 17.71979
158.6116, 17.11204
159.0938, 16.95839
159.5759, 17.29177
160.0580, 18.59942
160.5401, 20.51987
161.0222, 21.81171
161.5044, 21.69938
161.9865, 21.04472
162.4686, 20.43248
162.9507, 20.12844
163.4328, 19.75108
163.9149, 18.88150
164.3971, 17.68015
164.8792, 16.99899
165.3613, 17.57335
165.8434, 18.69193
166.3255, 19.71224
166.8076, 20.42600
167.2898, 20.98284
167.7719, 21.58155
168.2540, 22.18190
168.7361, 22.40611
169.2182, 21.32885
169.7003, 19.95332
170.1825, 19.47883
170.6646, 20.97211
171.1467, 23.09712
171.6288, 25.08813
172.1109, 26.91313
172.5931, 28.16818
173.0752, 27.87063
173.5573, 26.88875
174.0394, 26.62981
174.5215, 28.32303
175.0036, 30.68452
175.4858, 32.43367
175.9679, 33.57436
176.4500, 34.09118
176.9321, 33.47320
177.4142, 32.19953
177.8963, 31.37410
178.3785, 32.19422
178.8606, 33.51006
179.3427, 33.38531
179.8248, 31.71370
180.3069, 29.55161
180.7890, 27.81847
181.2712, 26.46129
181.7533, 25.34026
182.2354, 24.52068
182.7175, 23.87891
183.1996, 23.24670
183.6818, 22.64607
184.1639, 21.85889
184.6460, 20.32441
185.1281, 18.23012
185.6102, 16.48884
186.0923, 15.77065
186.5745, 15.78342
187.0566, 15.53784
187.5387, 14.88958
188.0208, 14.34981
188.5029, 14.86554
188.9850, 16.33494
189.4672, 17.54734
189.9493, 17.79814
190.4314, 17.24089
190.9135, 16.61385
191.3956, 15.89459
191.8777, 15.26509
192.3599, 14.96180
192.8420, 14.98676
193.3241, 15.30688
193.8062, 16.19753
194.2883, 17.56389
194.7704, 18.15817
195.2526, 17.78860
195.7347, 16.87035
196.2168, 15.99200
196.6989, 15.12633
197.1810, 14.61698
197.6632, 14.90084
198.1453, 15.97649
198.6274, 16.41449
199.1095, 15.96496
199.5916, 15.09004
200.0737, 14.69561
200.5559, 14.79562
201.0380, 15.24871
201.5201, 16.16150
202.0022, 17.60605
202.4843, 18.53939
202.9664, 18.73895
203.4486, 18.56824
203.9307, 18.99560
204.4128, 20.21991
204.8949, 21.22452
205.3770, 21.28201
205.8591, 20.20281
206.3413, 19.58400
206.8234, 19.63342
207.3055, 20.09670
207.7876, 20.22554
208.2697, 19.81191
208.7519, 19.68416
209.2340, 20.55014
209.7161, 22.79648
210.1982, 23.99669
210.6803, 23.70000
211.1624, 22.46368
211.6446, 21.72214
212.1267, 21.43075
212.6088, 21.75570
213.0909, 23.03497
213.5730, 25.72512
214.0551, 27.53049
214.5373, 27.99936
215.0194, 27.65633
215.5015, 28.12268
215.9836, 29.84460
216.4657, 31.47134
216.9478, 32.24401
217.4300, 31.81132
217.9121, 31.63732
218.3942, 31.74360
218.8763, 32.15656
219.3584, 33.21159
219.8405, 35.70936
220.3227, 37.35278
220.8048, 36.74689
221.2869, 32.90638
221.7690, 29.61027
222.2511, 27.01010
222.7333, 25.03169
223.2154, 23.53841
223.6975, 22.50954
224.1796, 21.97522
224.6617, 22.10941
225.1438, 23.46023
225.6260, 23.99413
226.1081, 23.39492
226.5902, 22.01982
227.0723, 20.85774
227.5544, 19.82792
228.0365, 19.11892
228.5187, 18.86754
229.0008, 19.30280
229.4829, 19.66033
229.9650, 20.05280
230.4471, 20.32781
230.9292, 19.99943
231.4114, 18.55386
231.8935, 17.28160
232.3756, 16.85891
232.8577, 17.90026
233.3398, 18.26003
233.8220, 17.51792
234.3041, 16.22968
234.7862, 15.82553
235.2683, 16.77029
235.7504, 17.87987
236.2325, 18.78823
236.7147, 19.75049
237.1968, 19.72383
237.6789, 18.08564
238.1610, 15.70750
238.6431, 14.56917
239.1252, 15.31029
239.6074, 16.28697
240.0895, 16.85675
240.5716, 16.79424
241.0537, 17.00281
241.5358, 17.77569
242.0179, 18.67898
242.5001, 18.77041
242.9822, 17.44338
243.4643, 16.29160
243.9464, 15.96140
244.4285, 16.81597
244.9106, 17.31350
245.3928, 17.48745
245.8749, 17.28947
246.3570, 16.50390
246.8391, 14.48930
247.3212, 12.99332
247.8034, 12.67798
248.2855, 13.83934
248.7676, 15.00426
249.2497, 16.41480
249.7318, 17.66369
250.2139, 18.02049
250.6961, 16.85864
251.1782, 15.95928
251.6603, 15.95663
252.1424, 17.08341
252.6245, 17.71951
253.1066, 17.75536
253.5888, 17.40776
254.0709, 16.87518
254.5530, 15.88729
255.0351, 15.28663
255.5172, 15.49801
255.9993, 16.66913
256.4815, 17.02052
256.9636, 16.19980
257.4457, 14.93468
257.9278, 14.00982
258.4099, 13.44559
258.8921, 13.19451
259.3742, 13.38744
259.8563, 14.03641
260.3384, 14.16777
260.8205, 13.49945
261.3026, 12.68775
261.7848, 12.43591
262.2669, 12.99603
262.7490, 13.43250
263.2311, 13.58885
263.7132, 13.46818
264.1953, 12.97714
264.6775, 11.81807
265.1596, 10.77788
265.6417, 10.61895
266.1238, 11.58172
266.6059, 12.63753
267.0880, 13.81394
267.5702, 14.98579
268.0523, 15.00189
268.5344, 13.27852
269.0165, 11.60176
269.4986, 11.59009
269.9807, 13.80338
270.4629, 15.15236
270.9450, 15.04609
271.4271, 13.83274
271.9092, 12.78086
272.3913, 11.78144
272.8734, 11.25207
273.3556, 11.69746
273.8377, 13.32933
274.3198, 14.47950
274.8019, 14.98280
275.2840, 14.92651
275.7661, 14.33526
276.2483, 12.98991
276.7304, 12.02441
277.2125, 12.43071
277.6946, 14.35523
278.1768, 15.46407
278.6589, 15.51726
279.1410, 14.82412
279.6231, 13.76753
280.1052, 12.21740
280.5873, 11.12043
281.0695, 11.31850
281.5516, 12.78527
282.0337, 13.24082
282.5158, 12.34593
282.9979, 11.03504
283.4800, 10.99262
283.9622, 12.28864
284.4443, 13.35528
284.9264, 13.26670
285.4085, 12.19878
285.8906, 11.82081
286.3727, 12.26754
286.8549, 12.91900
287.3370, 12.90581
287.8191, 12.26211
288.3012, 11.69849
288.7833, 11.51182
289.2654, 11.60995
289.7476, 11.57579
290.2297, 11.36744
290.7118, 11.35092
291.1939, 12.16904
291.6760, 13.64430
292.1581, 14.71988
292.6403, 14.91747
293.1224, 14.59614
293.6045, 14.65144
294.0866, 15.08636
294.5687, 15.44271
295.0508, 15.29986
295.5330, 14.74550
296.0151, 14.04540
296.4972, 13.12178
296.9793, 12.23847
297.4614, 11.76800
297.9435, 11.71027
298.4257, 12.15493
298.9078, 13.69389
299.3899, 15.74820
299.8720, 17.01299
300.3541, 17.18103
300.8362, 16.69033
301.3184, 15.69060
301.8005, 14.35960
302.2826, 13.47071
302.7647, 13.71366
303.2469, 14.60505
303.7290, 15.62508
304.2111, 16.84525
304.6932, 17.58323
305.1753, 16.59111
305.6574, 14.53584
306.1396, 13.03130
306.6217, 13.35334
307.1038, 14.37082
307.5859, 14.85046
308.0680, 14.66304
308.5501, 14.48220
309.0323, 15.19875
309.5144, 16.20215
309.9965, 16.52121
310.4786, 14.72618
310.9607, 12.83653
311.4428, 12.53409
311.9250, 13.79824
312.4071, 15.18550
312.8892, 16.11429
313.3713, 16.59799
313.8534, 16.64577
314.3355, 15.77072
314.8177, 14.90372
315.2998, 14.72339
315.7819, 15.06292
316.2640, 15.02008
316.7461, 13.36815
317.2282, 11.64267
317.7104, 11.08190
318.1925, 12.93126
318.6746, 14.52637
319.1567, 14.68270
319.6388, 13.86773
320.1209, 13.32233
320.6031, 13.89697
321.0852, 14.49263
321.5673, 14.46395
322.0494, 13.31762
322.5315, 12.50624
323.0136, 12.54661
323.4958, 13.07047
323.9779, 13.47967
324.4600, 13.68758
324.9421, 13.75366
325.4242, 13.61208
325.9064, 13.15333
326.3885, 12.97303
326.8706, 13.18481
327.3527, 13.67032
327.8348, 14.30570
328.3170, 15.86488
328.7991, 16.73393
329.2812, 16.40009
329.7633, 14.82392
330.2454, 13.60891
330.7275, 12.78143
331.2097, 12.30454
331.6918, 12.18509
332.1739, 12.70663
332.6560, 13.11960
333.1381, 13.27003
333.6202, 13.24102
334.1024, 13.50457
334.5845, 14.48975
335.0666, 15.12600
335.5487, 14.62038
336.0308, 12.16318
336.5129, 11.03582
336.9951, 11.86184
337.4772, 13.67714
337.9593, 14.43519
338.4414, 13.75965
338.9235, 13.12281
339.4056, 13.19039
339.8878, 14.03242
340.3699, 14.62224
340.8520, 14.97590
341.3341, 15.04775
341.8162, 14.51919
342.2983, 13.27591
342.7805, 12.74042
343.2626, 13.67218
343.7447, 15.69970
344.2268, 16.76296
344.7089, 16.77049
345.1910, 16.41159
345.6732, 16.31554
346.1553, 16.44071
346.6374, 16.42568
347.1195, 16.09747
347.6016, 15.70790
348.0837, 15.92820
348.5659, 16.71651
349.0480, 17.33437
349.5301, 17.13208
350.0122, 16.37537
350.4944, 15.73267
350.9765, 15.29489
351.4586, 14.96136
351.9407, 14.54305
352.4228, 14.11314
352.9049, 13.91446
353.3871, 14.24465
353.8692, 14.80250
354.3513, 15.13345
354.8334, 15.19970
355.3155, 15.37858
355.7976, 16.14791
356.2798, 17.20309
356.7619, 18.06344
357.2440, 18.55236
357.7261, 18.76166
358.2082, 18.59273
358.6903, 18.11168
359.1725, 17.77710
359.6546, 18.15676
360.1367, 18.63548
360.6188, 18.61458
361.1009, 17.51729
361.5830, 16.58557
362.0652, 16.57460
362.5473, 17.14467
363.0294, 17.45830
363.5115, 16.95509
363.9936, 16.33844
364.4757, 16.02137
364.9579, 16.21434
365.4400, 16.15711
365.9221, 15.22452
366.4042, 14.10284
366.8863, 13.66192
367.3684, 14.52970
367.8506, 15.57151
368.3327, 16.56938
368.8148, 17.50931
369.2969, 18.44024
369.7790, 19.64999
370.2611, 20.65634
370.7433, 21.08989
371.2254, 20.37128
371.7075, 19.99718
372.1896, 20.25317
372.6717, 20.95738
373.1538, 21.29048
373.6360, 20.89172
374.1181, 20.70577
374.6002, 21.24797
375.0823, 22.76703
375.5645, 24.19289
376.0466, 25.65741
376.5287, 26.86551
377.0108, 27.12985
377.4929, 26.20446
377.9750, 25.51314
378.4572, 25.68323
378.9393, 26.58879
379.4214, 26.88884
379.9035, 26.42233
380.3856, 26.01663
380.8677, 26.88070
381.3499, 28.86251
381.8320, 29.87144
382.3141, 29.18247
382.7962, 27.59318
383.2783, 26.63727
383.7604, 26.30597
384.2426, 26.34833
384.7247, 26.93622
385.2068, 27.74313
385.6889, 27.98635
386.1710, 27.50945
386.6531, 26.74500
387.1353, 25.73187
387.6174, 24.75344
388.0995, 24.52659
388.5816, 26.27714
389.0637, 28.41867
389.5458, 29.36435
390.0280, 29.10422
390.5101, 28.28471
390.9922, 26.83497
391.4743, 25.25988
391.9564, 24.09835
392.4385, 23.54807
392.9207, 23.41997
393.4028, 23.95945
393.8849, 24.90441
394.3670, 25.46756
394.8491, 24.70986
395.3312, 23.94873
395.8134, 24.12104
396.2955, 25.97029
396.7776, 26.98550
397.2597, 26.02500
397.7418, 24.10335
398.2239, 22.53423
398.7061, 21.54394
399.1882, 20.87110
399.6703, 20.49511
400.1524, 20.41742
400.6346, 20.55500
401.1167, 21.50370
401.5988, 22.15260
402.0809, 21.63981
402.5630, 18.94794
403.0451, 17.09729
403.5273, 16.50793
404.0094, 16.83169
404.4915, 17.22051
404.9736, 17.89511
405.4557, 18.08766
405.9378, 17.18570
406.4200, 15.01321
406.9021, 13.90716
407.3842, 14.10898
407.8663, 14.83560
408.3484, 15.09910
408.8305, 14.89023
409.3127, 14.78359
409.7948, 14.96374
410.2769, 15.33951
410.7590, 15.69413
411.2411, 16.02935
411.7232, 16.29981
412.2054, 16.41889
412.6875, 16.44894
413.1696, 16.62927
413.6517, 17.08814
414.1338, 17.40532
414.6159, 16.81844
415.0981, 15.65412
415.5802, 14.80670
416.0623, 15.06890
416.5444, 15.67668
417.0265, 15.75305
417.5086, 15.27899
417.9908, 14.99631
418.4729, 15.74190
418.9550, 16.77889
419.4371, 17.30417
419.9192, 16.79711
420.4013, 16.10105
420.8835, 15.49030
421.3656, 14.96066
421.8477, 14.48776
422.3298, 13.70555
422.8119, 13.27643
423.2940, 13.60882
423.7762, 15.04582
424.2583, 16.29577
424.7404, 17.35946
425.2225, 18.09213
425.7047, 18.35051
426.1868, 17.67739
426.6689, 17.13444
427.1510, 16.96830
427.6331, 17.13017
428.1152, 17.00788
428.5974, 16.35321
429.0795, 15.78361
429.5616, 15.78531
430.0437, 16.62577
430.5258, 16.82863
431.0079, 16.11164
431.4901, 15.00405
431.9722, 14.35200
432.4543, 14.14847
432.9364, 14.49402
433.4185, 15.75302
433.9006, 17.61194
434.3828, 18.52384
434.8649, 18.43746
435.3470, 18.03819
435.8291, 17.78775
436.3112, 17.71216
436.7933, 17.98978
437.2755, 18.85031
437.7576, 19.66007
438.2397, 19.43427
438.7218, 18.42661
439.2039, 17.48417
439.6860, 17.07611
440.1682, 16.95882
440.6503, 16.87919
441.1324, 16.81302
441.6145, 16.91059
442.0966, 17.37561
442.5787, 18.00648
443.0609, 18.58795
443.5430, 19.17840
444.0251, 19.57615
444.5072, 19.48553
444.9893, 19.09138
445.4714, 19.05839
445.9536, 19.88318
446.4357, 20.80877
446.9178, 21.59799
447.3999, 22.43354
447.8820, 22.55679
448.3641, 21.30207
448.8463, 19.70909
449.3284, 18.90309
449.8105, 19.33146
450.2926, 19.75131
450.7747, 19.98110
451.2569, 20.03735
451.7390, 19.98555
452.2211, 19.75853
452.7032, 19.59121
453.1853, 19.69693
453.6674, 20.10570
454.1496, 20.24010
454.6317, 20.03914
455.1138, 19.66106
455.5959, 19.25691
456.0780, 18.83921
456.5602, 18.60348
457.0423, 18.74093
457.5244, 19.02457
458.0065, 18.94726
458.4886, 18.53963
458.9707, 18.13235
459.4529, 17.85809
459.9350, 17.77549
460.4171, 18.01901
460.8992, 18.66941
461.3813, 19.42950
461.8634, 20.40622
462.3456, 21.29409
462.8277, 21.55684
463.3098, 20.18289
463.7919, 18.83176
464.2740, 18.57503
464.7561, 19.33825
465.2383, 19.72498
465.7204, 18.53744
466.2025, 17.37250
466.6846, 17.27407
467.1667, 19.24282
467.6488, 20.84690
468.1310, 21.66904
468.6131, 22.13288
469.0952, 22.97317
469.5773, 24.63636
470.0594, 25.94574
470.5415, 26.49517
471.0237, 26.31839
471.5058, 26.54597
471.9879, 27.39163
472.4700, 28.16612
472.9521, 28.11693
473.4342, 27.16524
473.9164, 27.06854
474.3985, 28.16547
474.8806, 29.80552
475.3627, 30.92122
475.8448, 31.55839
476.3270, 32.19708
476.8091, 33.15982
477.2912, 34.20736
477.7733, 34.66418
478.2554, 34.58355
478.7375, 34.77615
479.2197, 36.22004
479.7018, 38.19277
480.1839, 39.67336
480.6660, 40.36364
481.1481, 40.80278
481.6302, 41.07298
482.1124, 41.36669
482.5945, 42.00976
483.0766, 43.90460
483.5587, 45.46003
484.0408, 45.60006
484.5229, 44.36964
485.0051, 43.85643
485.4872, 45.90296
485.9693, 47.73793
486.4514, 47.63971
486.9335, 44.11415
487.4156, 41.26493
487.8978, 39.45089
488.3799, 38.13160
488.8620, 36.29988
489.3441, 33.54594
489.8262, 31.28661
490.3083, 29.87995
490.7905, 29.26726
491.2726, 29.22808
491.7547, 29.91232
492.2368, 30.43381
492.7189, 30.07186
493.2010, 28.92148
493.6832, 27.40464
494.1653, 25.31727
494.6474, 23.77357
495.1295, 24.89373
495.6116, 27.82392
496.0938, 29.91475
496.5759, 29.68703
497.0580, 28.49208
497.5401, 27.38926
498.0222, 26.45681
498.5044, 26.14896
498.9865, 27.53704
499.4686, 29.13755
499.9507, 29.54421
500.4328, 28.09882
500.9149, 27.24082
501.3971, 28.23204
501.8792, 30.07826
502.3613, 31.62345
502.8434, 32.68710
503.3255, 33.44173
503.8076, 33.44995
504.2898, 33.04373
504.7719, 33.92516
505.2540, 37.30269
505.7361, 40.17100
506.2182, 40.94861
506.7003, 39.08604
507.1825, 38.82478
507.6646, 40.56877
508.1467, 43.04749
508.6288, 44.98597
509.1109, 46.38578
509.5930, 47.36754
510.0752, 47.70031
510.5573, 48.00715
511.0394, 49.92640
511.5215, 53.15343
512.0037, 55.76131
512.4858, 56.95552
512.9679, 56.77169
513.4500, 54.79285
513.9321, 51.04047
514.4142, 47.23634
514.8964, 44.60731
515.3785, 42.53328
515.8606, 40.36555
516.3427, 37.74952
516.8248, 35.33834
517.3069, 33.47075
517.7891, 31.96972
518.2712, 30.50118
518.7533, 29.06194
519.2354, 27.59374
519.7175, 26.06674
520.1996, 24.47769
520.6818, 22.90082
521.1639, 20.79350
521.6460, 19.36537
522.1281, 19.64767
522.6102, 22.44051
523.0923, 23.70237
523.5745, 22.92261
524.0566, 21.30198
524.5387, 20.55298
525.0208, 20.66971
525.5029, 20.90673
525.9850, 21.13962
526.4672, 21.27740
526.9493, 21.07687
527.4314, 20.56185
527.9135, 19.97652
528.3956, 19.35316
528.8777, 18.79071
529.3599, 18.41225
529.8420, 18.22198
530.3241, 18.25013
530.8062, 18.65718
531.2883, 19.23759
531.7704, 19.75362
532.2526, 20.17313
532.7347, 20.49208
533.2168, 20.69612
533.6989, 20.80088
534.1810, 20.84851
534.6631, 20.96056
535.1453, 20.88339
535.6274, 20.39136
536.1095, 19.45179
536.5916, 19.19473
537.0737, 20.05940
537.5558, 20.92366
538.0380, 20.92495
538.5201, 19.89186
539.0022, 19.12560
539.4843, 18.66497
539.9664, 18.58467
540.4485, 19.22309
540.9307, 20.47792
541.4128, 21.51655
541.8949, 21.99392
542.3770, 22.15760
542.8591, 22.31592
543.3412, 22.48890
543.8234, 22.79038
544.3055, 23.34896
544.7876, 24.03389
545.2697, 24.84612
545.7518, 25.82330
546.2339, 26.38428
546.7161, 25.59790
547.1982, 24.60740
547.6803, 24.41852
548.1624, 26.03249
548.6445, 27.46151
549.1266, 28.45481
549.6088, 29.08838
550.0909, 29.44007
550.5730, 28.86803
551.0551, 29.08932
551.5372, 30.86103
552.0193, 33.96368
552.5015, 36.04707
552.9836, 36.90081
553.4657, 37.48256
553.9478, 38.32835
554.4299, 39.43798
554.9120, 40.86958
555.3942, 42.64863
555.8763, 44.55321
556.3584, 46.31711
556.8405, 48.00157
557.3226, 49.73293
557.8047, 51.41411
558.2869, 53.37152
558.7690, 56.18858
559.2511, 59.54424
559.7332, 62.59865
560.2154, 64.64976
560.6975, 66.57816
561.1796, 68.70376
561.6617, 71.04591
562.1439, 73.98433
562.6260, 78.07210
563.1081, 82.42209
563.5902, 86.56293
564.0723, 90.22604
564.5544, 94.27459
565.0366, 98.80579
565.5187, 103.6784
566.0008, 108.7406
566.4829, 114.1299
566.9650, 119.1635
567.4471, 123.5876
567.9293, 127.6745
568.4114, 132.2166
568.8935, 137.1572
569.3756, 141.4502
569.8577, 144.6508
570.3398, 146.7439
570.8220, 147.6800
571.3041, 147.4686
571.7862, 145.8989
572.2683, 143.0057
572.7504, 138.5957
573.2325, 132.1112
573.7147, 122.6380
574.1968, 113.3706
574.6789, 105.4803
575.1610, 98.50443
575.6431, 91.74358
576.1252, 84.91188
576.6074, 78.62029
577.0895, 72.82072
577.5716, 67.58669
578.0537, 63.12065
578.5358, 59.50405
579.0179, 56.47909
579.5001, 54.12250
579.9822, 52.35884
580.4643, 50.11766
580.9464, 47.27825
581.4285, 44.79484
581.9106, 43.81066
582.3928, 43.86034
582.8749, 43.27436
583.3570, 41.68571
583.8391, 40.14868
584.3212, 40.03709
584.8033, 40.62142
585.2855, 40.64172
585.7676, 38.94041
586.2497, 37.31855
