##NAMES=Chalcomenite
##RRUFFID=R060586
##IDEAL CHEMISTRY=Cu^2+^Se^4+^O_3_&#183;2H_2_O
##LOCALITY=El Dragon mine, Potosi, Bolivia
##OWNER=RRUFF
##SOURCE=Michael Scott
##DESCRIPTION=Blue crystalline mass, associated with white needle calcite
##STATUS=The identification of this mineral is confirmed by single-crystal X-ray diffraction and chemical analysis.
##URL=rruff.info/R060586
##MEASURED CHEMISTRY=Cu_1.00_Se^4+^_1.00_O_3_Â·1.84H_2_O ; trace amounts of Fe
186.5805, 15.85167
187.0626, 16.22563
187.5447, 17.04147
188.0269, 17.26237
188.5090, 16.76342
188.9911, 16.32179
189.4732, 16.07305
189.9553, 15.99643
190.4374, 16.06081
190.9196, 16.26106
191.4017, 16.60169
191.8838, 17.17377
192.3659, 18.00775
192.8480, 18.67939
193.3301, 18.93607
193.8123, 18.85725
194.2944, 18.74238
194.7765, 18.68959
195.2586, 18.58299
195.7407, 18.22536
196.2228, 17.61056
196.7050, 17.15221
197.1871, 17.38843
197.6692, 18.26749
198.1513, 18.54828
198.6334, 17.03246
199.1155, 15.68232
199.5977, 16.09181
200.0798, 18.27127
200.5619, 20.67242
201.0440, 21.83038
201.5261, 21.61662
202.0082, 21.03796
202.4904, 19.54354
202.9725, 18.18701
203.4546, 17.58347
203.9367, 17.76692
204.4188, 18.27199
204.9009, 18.55961
205.3831, 18.59075
205.8652, 18.50944
206.3473, 17.95248
206.8294, 17.56220
207.3115, 17.99119
207.7936, 19.20292
208.2758, 20.42019
208.7579, 20.46119
209.2400, 18.50861
209.7221, 17.14560
210.2042, 16.08887
210.6863, 15.68657
211.1685, 16.55636
211.6506, 18.64844
212.1327, 20.98794
212.6148, 22.15030
213.0969, 21.41570
213.5790, 20.87354
214.0612, 20.49760
214.5433, 20.31078
215.0254, 20.33612
215.5075, 20.57750
215.9896, 21.02334
216.4717, 21.70629
216.9539, 22.91730
217.4360, 23.60590
217.9181, 23.58055
218.4002, 23.11496
218.8823, 22.39025
219.3644, 21.44907
219.8466, 20.43139
220.3287, 19.50081
220.8108, 18.63753
221.2929, 17.94499
221.7750, 17.37895
222.2571, 17.01410
222.7393, 16.97140
223.2214, 17.29126
223.7035, 17.84530
224.1856, 18.90403
224.6677, 20.44686
225.1498, 20.76583
225.6320, 18.17250
226.1141, 14.38471
226.5962, 12.23571
227.0783, 12.33585
227.5604, 13.64481
228.0425, 15.71190
228.5247, 18.29607
229.0068, 20.31563
229.4889, 21.35380
229.9710, 21.52341
230.4531, 20.87817
230.9352, 19.00615
231.4174, 17.19935
231.8995, 16.37060
232.3816, 16.34940
232.8637, 16.78734
233.3458, 18.22607
233.8279, 20.06740
234.3101, 20.15311
234.7922, 17.43137
235.2743, 14.60723
235.7564, 13.20166
236.2385, 12.82477
236.7206, 12.68926
237.2028, 12.14991
237.6849, 11.48818
238.1670, 12.06645
238.6491, 14.96453
239.1312, 17.50527
239.6133, 18.78531
240.0955, 19.01269
240.5776, 18.48281
241.0597, 17.12021
241.5418, 15.19837
242.0239, 14.08192
242.5060, 14.13657
242.9882, 14.58692
243.4703, 15.70062
243.9524, 16.92057
244.4345, 17.36939
244.9166, 16.41297
245.3987, 14.44990
245.8809, 13.44388
246.3630, 14.69114
246.8451, 15.22371
247.3272, 13.64409
247.8093, 11.25324
248.2914, 9.772345
248.7736, 10.16465
249.2557, 12.00934
249.7378, 13.60846
250.2199, 15.07219
250.7020, 16.09717
251.1841, 16.61249
251.6663, 16.69116
252.1484, 16.23872
252.6305, 15.19086
253.1126, 13.91310
253.5947, 13.57428
254.0768, 16.15832
254.5590, 17.25659
255.0411, 15.19444
255.5232, 12.07445
256.0053, 10.19640
256.4874, 10.53828
256.9695, 12.43542
257.4517, 14.28508
257.9338, 16.90262
258.4159, 18.40223
258.8980, 17.85253
259.3801, 16.58035
259.8622, 15.99594
260.3444, 16.58241
260.8265, 17.80418
261.3086, 18.67143
261.7907, 19.15063
262.2728, 19.25109
262.7549, 18.88546
263.2371, 18.18420
263.7192, 17.14079
264.2013, 15.77252
264.6834, 14.39248
265.1655, 13.45179
265.6476, 13.04671
266.1298, 12.97513
266.6119, 13.35320
267.0940, 13.99656
267.5761, 14.92097
268.0582, 16.09967
268.5403, 17.05454
269.0225, 17.15952
269.5046, 16.15767
269.9867, 15.37022
270.4688, 14.94466
270.9509, 14.67155
271.4330, 14.29637
271.9152, 13.80723
272.3973, 13.54117
272.8794, 13.95536
273.3615, 15.10536
273.8436, 15.67772
274.3257, 15.11033
274.8079, 14.34306
275.2900, 14.14057
275.7721, 14.52267
276.2542, 15.01649
276.7363, 15.25633
277.2184, 15.28749
277.7006, 15.53042
278.1827, 16.32688
278.6648, 17.06194
279.1469, 17.41079
279.6290, 17.35501
280.1111, 16.71282
280.5933, 14.92289
281.0754, 12.62912
281.5575, 11.88845
282.0396, 13.90193
282.5217, 15.98993
283.0038, 16.47592
283.4860, 15.57538
283.9681, 14.30865
284.4502, 12.75136
284.9323, 11.46419
285.4144, 11.53135
285.8965, 13.38594
286.3787, 15.45118
286.8608, 17.41608
287.3429, 19.01195
287.8250, 19.01001
288.3071, 16.25142
288.7892, 12.74724
289.2714, 11.63049
289.7535, 13.16476
290.2356, 14.52020
290.7177, 13.86118
291.1998, 12.00468
291.6819, 11.30682
292.1641, 12.73938
292.6462, 14.54152
293.1283, 14.71344
293.6104, 13.45005
294.0925, 11.93187
294.5746, 10.11023
295.0568, 8.435140
295.5389, 8.012151
296.0210, 9.295364
296.5031, 10.85717
296.9852, 11.29126
297.4673, 10.98944
297.9495, 11.01717
298.4316, 12.47092
298.9137, 14.16136
299.3958, 13.88685
299.8779, 11.13855
300.3600, 8.694579
300.8422, 9.075319
301.3243, 10.93480
301.8064, 11.96242
302.2885, 11.08606
302.7706, 9.738338
303.2527, 9.725213
303.7349, 11.15195
304.2170, 12.40087
304.6991, 12.54670
305.1812, 12.14061
305.6633, 11.88077
306.1454, 11.79945
306.6276, 11.99827
307.1097, 12.76198
307.5918, 14.04397
308.0739, 15.09853
308.5560, 15.95205
309.0381, 16.14730
309.5203, 14.82835
310.0024, 11.75606
310.4845, 9.414227
310.9666, 10.45970
311.4487, 14.02245
311.9308, 15.57559
312.4130, 13.27226
312.8951, 10.11473
313.3772, 8.905871
313.8593, 9.398745
314.3414, 10.14291
314.8235, 10.54027
315.3057, 10.65231
315.7878, 10.50279
316.2699, 9.830921
316.7520, 9.542784
317.2341, 10.99830
317.7162, 13.35416
318.1984, 14.69101
318.6805, 13.50091
319.1626, 11.27076
319.6447, 10.50571
320.1268, 11.50635
320.6089, 12.45469
321.0911, 11.87575
321.5732, 10.73627
322.0553, 10.49401
322.5374, 11.92799
323.0195, 13.53106
323.5016, 13.62126
323.9838, 12.18917
324.4659, 10.64097
324.9480, 9.239415
325.4301, 8.209318
325.9122, 7.828485
326.3943, 8.179440
326.8765, 8.802724
327.3586, 9.522924
327.8407, 10.29101
328.3228, 10.79858
328.8049, 10.89862
329.2870, 10.81084
329.7692, 10.89874
330.2513, 11.12654
330.7334, 10.94874
331.2155, 9.422551
331.6976, 7.362545
332.1797, 6.839735
332.6619, 8.426764
333.1440, 10.54782
333.6261, 12.37246
334.1082, 13.79374
334.5903, 14.34614
335.0724, 13.48227
335.5546, 11.87072
336.0367, 10.16800
336.5188, 8.339706
337.0009, 6.878373
337.4830, 5.916650
337.9651, 5.614244
338.4473, 6.380063
338.9294, 9.077504
339.4115, 11.55703
339.8936, 11.65642
340.3757, 9.715158
340.8578, 8.300760
341.3400, 8.487496
341.8221, 9.555713
342.3042, 10.28296
342.7863, 10.56456
343.2684, 11.09755
343.7505, 12.96216
344.2327, 15.30769
344.7148, 15.71966
345.1969, 13.14349
345.6790, 10.02385
346.1611, 9.433931
346.6432, 10.95883
347.1254, 12.40459
347.6075, 13.40180
348.0896, 13.92058
348.5717, 13.78276
349.0538, 12.95560
349.5359, 11.92688
350.0181, 10.88304
350.5002, 9.931111
350.9823, 9.438996
351.4644, 9.332751
351.9465, 9.777105
352.4286, 11.37182
352.9108, 13.80557
353.3929, 15.63982
353.8750, 16.18928
354.3571, 15.65807
354.8392, 14.49045
355.3214, 12.25295
355.8035, 10.43202
356.2856, 9.836384
356.7677, 9.969081
357.2498, 10.03645
357.7319, 9.851933
358.2141, 9.320106
358.6962, 7.963475
359.1783, 5.413279
359.6604, 4.380995
360.1425, 6.655196
360.6246, 9.663400
361.1068, 10.85144
361.5889, 10.05646
362.0710, 8.887139
362.5531, 8.630836
363.0352, 9.302275
363.5173, 10.00566
363.9995, 11.15712
364.4816, 11.93729
364.9637, 11.74384
365.4458, 10.85023
365.9279, 9.873816
366.4100, 9.067499
366.8922, 8.552335
367.3743, 8.790712
367.8564, 10.63664
368.3385, 11.97657
368.8206, 12.61808
369.3027, 12.58381
369.7849, 11.43698
370.2670, 9.156493
370.7491, 7.042836
371.2312, 7.042639
371.7133, 10.25283
372.1954, 12.28536
372.6776, 12.78987
373.1597, 12.51763
373.6418, 11.54407
374.1239, 10.13196
374.6060, 8.893060
375.0881, 8.293558
375.5703, 8.328729
376.0524, 8.696505
376.5345, 9.594365
377.0166, 10.58952
377.4987, 12.11733
377.9808, 13.54817
378.4630, 13.86590
378.9451, 12.59567
379.4272, 10.38951
379.9093, 8.763061
380.3914, 7.794087
380.8735, 7.351768
381.3557, 8.103564
381.8378, 8.847369
382.3199, 8.408203
382.8020, 6.796245
383.2841, 5.186043
383.7662, 4.946488
384.2484, 6.283278
384.7305, 7.548099
385.2126, 8.894881
385.6947, 10.01482
386.1768, 10.67333
386.6589, 11.03168
387.1411, 11.48626
387.6232, 12.37275
388.1053, 13.38175
388.5874, 13.23091
389.0695, 10.87560
389.5516, 9.355391
390.0338, 9.951669
390.5159, 11.24704
390.9980, 11.93580
391.4801, 11.65874
391.9622, 11.04554
392.4443, 11.00743
392.9265, 11.67034
393.4086, 11.65674
393.8907, 9.919285
394.3728, 8.297170
394.8549, 8.130399
395.3370, 9.094680
395.8192, 9.811164
396.3013, 8.958347
396.7834, 7.194528
397.2655, 6.933155
397.7476, 8.849082
398.2297, 10.51203
398.7119, 10.14157
399.1940, 8.908123
399.6761, 8.375233
400.1582, 9.223597
400.6403, 10.22345
401.1224, 9.834302
401.6046, 8.165106
402.0867, 7.165658
402.5688, 7.648783
403.0509, 8.816959
403.5330, 9.902598
404.0151, 10.93172
404.4973, 11.30422
404.9794, 10.12877
405.4615, 8.302761
405.9436, 7.486250
406.4257, 7.958158
406.9078, 8.731928
407.3900, 8.973483
407.8721, 8.828322
408.3542, 9.069851
408.8363, 10.20881
409.3184, 11.33590
409.8005, 11.99334
410.2827, 12.17127
410.7648, 11.73674
411.2469, 10.49849
411.7290, 8.880975
412.2111, 7.834906
412.6932, 7.348896
413.1754, 7.323400
413.6575, 8.439419
414.1396, 9.637756
414.6217, 9.250340
415.1038, 7.199329
415.5859, 5.759350
416.0681, 7.554295
416.5502, 13.11557
417.0323, 15.79721
417.5144, 13.59810
417.9965, 11.11563
418.4786, 10.03239
418.9608, 10.05209
419.4429, 10.46705
419.9250, 10.94451
420.4071, 11.32001
420.8892, 11.12435
421.3713, 10.00511
421.8535, 8.801785
422.3356, 7.015419
422.8177, 5.513817
423.2998, 4.947860
423.7819, 5.402540
424.2640, 6.645286
424.7462, 8.727956
425.2283, 11.81955
425.7104, 13.32808
426.1925, 11.71447
426.6746, 10.09053
427.1567, 8.943675
427.6389, 8.456774
428.1210, 9.031335
428.6031, 11.01742
429.0852, 13.51064
429.5673, 14.63282
430.0494, 14.09567
430.5316, 13.25037
431.0137, 12.09840
431.4958, 10.93855
431.9779, 9.894549
432.4600, 8.999581
432.9421, 8.372296
433.4243, 7.996679
433.9064, 7.941901
434.3885, 8.746163
434.8706, 11.02693
435.3527, 12.78287
435.8348, 12.05473
436.3170, 10.04828
436.7991, 8.779249
437.2812, 9.116328
437.7633, 9.810500
438.2454, 9.401576
438.7275, 8.130767
439.2097, 7.891168
439.6918, 9.860653
440.1739, 12.35210
440.6560, 12.59676
441.1381, 10.48563
441.6202, 8.576468
442.1024, 7.333375
442.5845, 6.791139
443.0666, 7.333199
443.5487, 8.891924
444.0308, 10.33395
444.5129, 10.74733
444.9951, 10.25982
445.4772, 10.17058
445.9593, 11.28154
446.4414, 11.80708
446.9235, 10.49330
447.4056, 8.459693
447.8878, 7.551652
448.3699, 8.377114
448.8520, 9.834867
449.3341, 10.17067
449.8162, 8.639431
450.2983, 8.121316
450.7805, 9.644107
451.2626, 11.07556
451.7447, 11.20743
452.2268, 10.28771
452.7089, 9.159896
453.1910, 8.330522
453.6732, 7.848642
454.1553, 7.973724
454.6374, 9.063022
455.1195, 10.18052
455.6016, 11.91886
456.0837, 13.15644
456.5659, 12.50325
457.0480, 9.887017
457.5301, 7.105544
458.0122, 6.088780
458.4943, 6.800004
458.9764, 7.547925
459.4586, 8.524022
459.9407, 9.147860
460.4228, 8.706202
460.9049, 7.813469
461.3870, 7.635804
461.8691, 8.845901
462.3513, 10.49081
462.8334, 11.63380
463.3155, 12.26425
463.7976, 11.96777
464.2797, 10.06643
464.7618, 7.830650
465.2440, 6.851801
465.7261, 7.112740
466.2082, 7.755903
466.6903, 9.080670
467.1724, 10.32104
467.6545, 10.17535
468.1367, 8.653918
468.6188, 7.523039
469.1009, 8.167179
469.5830, 10.10975
470.0651, 10.93545
470.5472, 9.827637
471.0294, 8.800918
471.5115, 8.387763
471.9936, 8.325982
472.4757, 8.496215
472.9578, 8.804282
473.4399, 8.695767
473.9221, 7.336599
474.4042, 4.280135
474.8863, 2.608774
475.3684, 2.935261
475.8505, 3.799535
476.3326, 4.998759
476.8148, 6.301429
477.2969, 7.387756
477.7790, 8.088799
478.2611, 8.614419
478.7432, 9.503872
479.2253, 11.11650
479.7075, 12.05181
480.1896, 11.47482
480.6717, 10.74037
481.1538, 10.65356
481.6359, 11.12476
482.1180, 11.50852
482.6002, 11.33665
483.0823, 10.77344
483.5644, 10.13687
484.0465, 9.255228
484.5286, 8.980903
485.0107, 10.50382
485.4929, 12.41881
485.9750, 12.93744
486.4571, 11.65281
486.9392, 10.14195
487.4213, 9.494747
487.9034, 9.287215
488.3856, 8.345661
488.8677, 6.343185
489.3498, 4.685396
489.8319, 4.617165
490.3140, 6.125413
490.7961, 7.795755
491.2783, 10.78367
491.7604, 12.73022
492.2425, 12.11528
492.7246, 9.794104
493.2067, 7.021486
493.6888, 4.243647
494.1710, 2.068808
494.6531, 1.550345
495.1352, 3.260580
495.6173, 4.912521
496.0994, 7.181698
496.5815, 8.756797
497.0637, 8.228406
497.5458, 6.553520
498.0279, 5.867592
498.5100, 7.450480
498.9921, 10.34769
499.4742, 12.28460
499.9564, 13.29975
500.4385, 13.19556
500.9206, 10.75408
501.4027, 8.134268
501.8848, 6.296682
502.3669, 5.447489
502.8491, 5.845256
503.3312, 8.668832
503.8133, 12.63849
504.2954, 13.97777
504.7775, 12.17695
505.2596, 10.12278
505.7418, 9.027988
506.2239, 8.509823
506.7060, 8.014095
507.1881, 7.516595
507.6702, 7.038615
508.1523, 6.305886
508.6345, 5.690942
509.1166, 5.972242
509.5987, 7.268279
510.0808, 8.802398
510.5629, 10.16673
511.0450, 11.25219
511.5272, 11.07306
512.0093, 8.115652
512.4914, 5.864123
512.9735, 5.819377
513.4556, 6.857955
513.9377, 7.457179
514.4199, 7.219573
514.9020, 6.869049
515.3841, 7.430821
515.8662, 9.183848
516.3483, 9.922948
516.8304, 8.214220
517.3126, 6.998347
517.7947, 7.521832
518.2768, 8.928777
518.7589, 10.03296
519.2410, 10.38003
519.7231, 10.06394
520.2053, 8.867951
520.6874, 6.672355
521.1695, 5.475574
521.6516, 6.190017
522.1337, 7.141982
522.6158, 6.828794
523.0980, 5.792050
523.5801, 5.647923
524.0622, 7.750633
524.5443, 10.21072
525.0264, 10.79092
525.5085, 9.816045
525.9907, 9.303466
526.4728, 10.18139
526.9549, 11.30216
527.4370, 10.68878
527.9191, 7.910753
528.4012, 6.230722
528.8834, 6.719690
529.3655, 7.761304
529.8476, 8.334469
530.3297, 8.501804
530.8118, 8.613848
531.2939, 8.829950
531.7761, 9.294164
532.2582, 10.50994
532.7403, 13.83979
533.2224, 15.33335
533.7045, 13.72001
534.1866, 11.56238
534.6688, 9.915668
535.1509, 9.051718
535.6330, 9.292849
536.1151, 11.25327
536.5972, 13.92817
537.0793, 14.32235
537.5615, 11.75375
538.0436, 9.697435
538.5257, 9.212972
539.0078, 9.648710
539.4899, 10.90486
539.9720, 12.86094
540.4542, 13.93951
540.9363, 12.32963
541.4184, 9.905562
541.9005, 9.660176
542.3826, 11.57960
542.8647, 13.31675
543.3469, 13.64446
543.8290, 13.02162
544.3111, 12.61029
544.7932, 12.57573
545.2753, 12.34001
545.7574, 11.31127
546.2396, 10.41190
546.7217, 10.70934
547.2038, 12.00398
547.6859, 13.11482
548.1680, 13.17891
548.6501, 12.46927
549.1323, 12.18250
549.6144, 12.37322
550.0965, 12.93200
550.5786, 14.27099
551.0607, 15.59750
551.5428, 16.44915
552.0250, 16.73784
552.5071, 16.43388
552.9892, 14.96939
553.4713, 13.07715
553.9534, 13.22112
554.4355, 15.88134
554.9177, 18.17349
555.3998, 19.00974
555.8819, 18.80945
556.3640, 17.99863
556.8461, 16.43911
557.3282, 15.45091
557.8104, 16.25761
558.2925, 17.48557
558.7746, 17.67361
559.2567, 16.70704
559.7388, 14.57479
560.2209, 10.91927
560.7031, 6.621491
561.1852, 4.478117
561.6673, 5.717360
562.1494, 7.507528
562.6315, 11.15333
563.1136, 14.29283
563.5958, 14.58570
564.0779, 12.60824
564.5600, 11.01026
565.0421, 11.85159
565.5242, 14.11830
566.0063, 14.12450
566.4885, 10.79125
566.9706, 8.351967
567.4527, 8.370775
567.9348, 9.228764
568.4169, 10.03211
568.8990, 10.69966
569.3812, 11.28136
569.8633, 11.75980
570.3454, 12.18295
570.8275, 12.70106
571.3096, 13.28888
571.7917, 13.59463
572.2739, 13.45051
572.7560, 12.97434
573.2381, 12.22043
573.7202, 10.88388
574.2023, 10.45233
574.6844, 12.32160
575.1666, 14.04502
575.6487, 13.79248
576.1308, 11.97473
576.6129, 9.702684
577.0950, 7.487509
577.5771, 5.838047
578.0593, 6.138796
578.5414, 9.520133
579.0235, 11.75887
579.5056, 12.51699
579.9877, 12.18532
580.4698, 10.14638
580.9520, 7.170824
581.4341, 4.866850
581.9162, 3.988738
582.3983, 4.018884
582.8804, 4.503473
583.3625, 5.390523
583.8447, 6.214665
584.3268, 7.084960
584.8089, 7.353569
585.2910, 5.699565
585.7731, 2.426882
586.2552, 0.7928628
586.7374, 2.257045
587.2195, 4.190693
587.7016, 5.425896
588.1837, 6.153164
588.6658, 6.874139
589.1479, 7.712339
589.6301, 8.123142
590.1122, 7.252470
590.5943, 4.845419
591.0764, 3.622982
591.5585, 4.263101
592.0406, 5.368011
592.5228, 7.636731
593.0049, 9.706118
593.4870, 9.567535
593.9691, 6.780376
594.4512, 3.820685
594.9333, 3.039883
595.4155, 4.068019
595.8976, 5.473164
596.3797, 7.334097
596.8618, 8.857892
597.3439, 9.492547
597.8260, 9.477240
598.3082, 9.483558
598.7903, 9.586873
599.2724, 9.522642
599.7545, 8.914873
600.2366, 8.277049
600.7188, 8.319751
601.2009, 8.969015
601.6830, 9.465995
602.1651, 9.272871
602.6472, 8.603075
603.1293, 8.253851
603.6115, 8.427808
604.0936, 8.556376
604.5757, 8.722352
605.0578, 8.733014
605.5399, 8.250309
606.0220, 7.483783
606.5042, 7.084077
606.9863, 7.529226
607.4684, 8.360137
607.9505, 8.974522
608.4326, 9.365681
608.9147, 9.184941
609.3969, 8.128098
609.8790, 6.860856
610.3611, 5.985154
610.8432, 5.492425
611.3253, 5.514792
611.8074, 6.771622
612.2896, 7.811295
612.7717, 7.811059
613.2538, 7.093134
613.7359, 6.035194
614.2180, 4.807542
614.7001, 3.842091
615.1823, 3.658185
615.6644, 4.280991
616.1465, 5.190813
616.6286, 6.800572
617.1107, 8.114758
617.5928, 8.844347
618.0750, 9.195173
618.5571, 9.345341
619.0392, 9.334185
619.5213, 9.186683
620.0034, 9.047996
620.4855, 8.757593
620.9677, 7.676727
621.4498, 5.741847
621.9319, 4.377164
622.4140, 4.403664
622.8961, 5.296284
623.3782, 5.993494
623.8604, 6.462224
624.3425, 6.870513
624.8246, 7.076138
625.3067, 7.365624
625.7888, 8.330415
626.2709, 9.514762
626.7531, 9.819586
627.2352, 8.693670
627.7173, 6.706245
628.1994, 4.529677
628.6815, 1.779422
629.1636, 1.052209
629.6458, 4.018019
630.1279, 7.081144
630.6100, 8.575291
631.0921, 8.919071
631.5742, 8.767871
632.0563, 8.164175
632.5385, 7.456707
633.0206, 6.508260
633.5027, 5.732063
633.9848, 6.268717
634.4669, 8.243129
634.9490, 10.04081
635.4312, 10.38043
635.9133, 9.661196
636.3954, 9.786361
636.8775, 12.53951
637.3596, 13.70742
637.8417, 11.83151
638.3239, 9.409964
638.8060, 8.124240
639.2881, 7.928830
639.7702, 8.023899
640.2523, 7.992449
640.7344, 7.821591
641.2166, 7.317930
641.6987, 6.440180
642.1808, 6.207386
642.6629, 7.096842
643.1450, 8.226535
643.6271, 8.847406
644.1093, 9.060658
644.5914, 9.170317
645.0735, 9.150410
645.5556, 9.110327
646.0377, 9.341201
646.5198, 9.483765
647.0020, 8.858983
647.4841, 7.431955
647.9662, 5.891649
648.4483, 4.794040
648.9304, 4.157154
649.4125, 4.116276
649.8947, 4.937409
650.3768, 5.868086
650.8589, 6.759140
651.3410, 7.720670
651.8231, 9.159135
652.3052, 10.84414
652.7874, 11.71059
653.2695, 10.64031
653.7516, 9.049028
654.2337, 8.510690
654.7158, 8.953623
655.1979, 10.45507
655.6801, 13.30755
656.1622, 15.56122
656.6443, 14.74201
657.1264, 10.60828
657.6085, 8.120429
658.0906, 8.109653
658.5728, 8.453861
659.0549, 8.887569
659.5370, 9.283878
660.0191, 9.578444
660.5012, 9.740885
660.9833, 9.732260
661.4655, 9.583207
661.9476, 9.205582
662.4297, 7.928996
662.9118, 5.462937
663.3939, 4.538676
663.8760, 6.806111
664.3582, 9.997450
664.8403, 11.16299
665.3224, 10.49841
665.8045, 10.58453
666.2866, 13.28352
666.7687, 15.31229
667.2509, 14.15997
667.7330, 11.33353
668.2151, 9.048727
668.6972, 7.999419
669.1793, 8.218996
669.6614, 10.07975
670.1436, 13.36238
670.6257, 14.80432
671.1078, 13.47661
671.5899, 12.23753
672.0720, 11.76713
672.5541, 11.76713
673.0363, 12.36459
673.5184, 13.41898
674.0005, 13.78640
674.4826, 12.44244
674.9647, 10.62197
675.4468, 9.440981
675.9290, 8.807094
676.4111, 8.478614
676.8932, 8.387664
677.3753, 8.257238
677.8574, 7.604738
678.3395, 6.353047
678.8217, 6.594384
679.3038, 9.987041
679.7859, 12.78595
680.2680, 14.47353
680.7501, 15.22024
681.2322, 14.88348
681.7144, 13.64324
