##NAMES=Chalcosiderite
##RRUFFID=R060339
##IDEAL CHEMISTRY=Cu^2+^Fe^3+^_6_(PO_4_)_4_(OH)_8_&#183;4H_2_O
##LOCALITY=Gunheath Pit, St. Austell, Cornwall, England
##OWNER=RRUFF
##SOURCE=Michael Scott
##DESCRIPTION=Sheafs of green platy crystals associated with white leucophosphite, R060338, and orange cyrilovite, R060504
##STATUS=The identification of this mineral is confirmed by single-crystal X-ray diffraction and chemical analysis.
##URL=rruff.info/R060339
##MEASURED CHEMISTRY=Cu_1.00_(Fe^3+^_4.84_Al_1.16_)_Σ=6_(P_1.00_O_4_)_4_(OH)_8_·4H_2_O; H_2_O estimated by difference; (OH) by charge balance
128.0973, 32.07683
128.5794, 36.34991
129.0615, 42.49126
129.5436, 47.68501
130.0258, 51.40593
130.5079, 53.80760
130.9900, 54.66378
131.4721, 53.96867
131.9542, 53.42180
132.4363, 54.20398
132.9185, 56.31128
133.4006, 59.78762
133.8827, 65.08317
134.3648, 71.65579
134.8469, 77.69102
135.3290, 82.95610
135.8112, 88.73547
136.2933, 96.30521
136.7754, 105.7171
137.2575, 116.5267
137.7396, 128.8527
138.2217, 142.4631
138.7039, 156.7477
139.1860, 171.6787
139.6681, 187.3714
140.1502, 204.6292
140.6323, 223.7726
141.1144, 242.8468
141.5966, 261.1869
142.0787, 278.6230
142.5608, 295.6605
143.0429, 312.3319
143.5250, 328.5523
144.0071, 343.9365
144.4893, 357.9607
144.9714, 371.7836
145.4535, 385.7895
145.9356, 400.5526
146.4177, 414.5549
146.8998, 427.0832
147.3820, 438.7785
147.8641, 452.8348
148.3462, 469.1156
148.8283, 487.7007
149.3104, 508.9202
149.7925, 534.2467
150.2747, 560.1718
150.7568, 586.2213
151.2389, 612.4033
151.7210, 638.8875
152.2031, 665.5566
152.6852, 692.3209
153.1674, 719.4261
153.6495, 748.2850
154.1316, 775.7668
154.6137, 801.5158
155.0958, 825.5202
155.5779, 847.8734
156.0601, 867.9903
156.5422, 886.7816
157.0243, 904.7833
157.5064, 921.7399
157.9885, 938.2565
158.4706, 954.2144
158.9528, 969.4867
159.4349, 985.3841
159.9170, 1002.743
160.3991, 1020.757
160.8812, 1038.492
161.3633, 1054.398
161.8455, 1070.995
162.3276, 1089.900
162.8097, 1111.534
163.2918, 1132.836
163.7739, 1152.117
164.2560, 1168.912
164.7382, 1177.155
165.2203, 1183.965
165.7024, 1190.700
166.1845, 1196.670
166.6666, 1201.871
167.1487, 1206.223
167.6309, 1209.492
168.1130, 1211.955
168.5951, 1214.136
169.0772, 1215.929
169.5593, 1217.761
170.0414, 1219.875
170.5236, 1222.077
171.0057, 1225.081
171.4878, 1230.129
171.9699, 1236.597
172.4520, 1242.485
172.9341, 1246.245
173.4163, 1249.017
173.8984, 1251.998
174.3805, 1255.122
174.8626, 1259.031
175.3447, 1265.573
175.8268, 1274.026
176.3090, 1281.075
176.7911, 1283.235
177.2732, 1282.688
177.7553, 1282.961
178.2374, 1285.311
178.7195, 1288.426
179.2017, 1290.358
179.6838, 1291.274
180.1659, 1292.673
180.6480, 1295.362
181.1301, 1299.382
181.6122, 1305.048
182.0944, 1313.333
182.5765, 1322.636
183.0586, 1330.401
183.5407, 1336.520
184.0228, 1342.175
184.5049, 1348.577
184.9871, 1355.414
185.4692, 1361.264
185.9513, 1365.389
186.4334, 1368.391
186.9155, 1371.572
187.3976, 1374.884
187.8798, 1378.729
188.3619, 1383.700
188.8440, 1389.701
189.3261, 1395.790
189.8082, 1401.605
190.2903, 1407.304
190.7725, 1413.297
191.2546, 1419.554
191.7367, 1426.670
192.2188, 1436.073
192.7009, 1447.691
193.1830, 1458.623
193.6652, 1467.672
194.1473, 1475.132
194.6294, 1482.561
195.1115, 1490.235
195.5936, 1496.989
196.0757, 1501.031
196.5579, 1502.304
197.0400, 1502.767
197.5221, 1503.903
198.0042, 1505.479
198.4863, 1503.207
198.9684, 1496.502
199.4506, 1487.267
199.9327, 1478.034
200.4148, 1468.719
200.8969, 1459.770
201.3790, 1451.302
201.8611, 1443.351
202.3433, 1435.361
202.8254, 1426.869
203.3075, 1418.983
203.7896, 1414.429
204.2717, 1413.972
204.7538, 1412.694
205.2360, 1408.193
205.7181, 1400.083
206.2002, 1392.244
206.6823, 1384.812
207.1644, 1377.479
207.6465, 1369.721
208.1287, 1361.668
208.6108, 1353.058
209.0929, 1343.822
209.5750, 1333.941
210.0571, 1323.314
210.5392, 1311.465
211.0214, 1299.274
211.5035, 1288.519
211.9856, 1279.535
212.4677, 1271.404
212.9498, 1263.641
213.4319, 1256.141
213.9140, 1249.709
214.3962, 1244.157
214.8783, 1239.768
215.3604, 1237.482
215.8425, 1237.867
216.3246, 1238.953
216.8067, 1239.669
217.2889, 1239.440
217.7710, 1240.811
218.2531, 1244.380
218.7352, 1249.235
219.2173, 1253.369
219.6994, 1256.759
220.1816, 1259.453
220.6637, 1261.514
221.1458, 1262.923
221.6279, 1263.793
222.1100, 1264.201
222.5921, 1264.081
223.0743, 1263.329
223.5564, 1262.292
224.0385, 1260.088
224.5206, 1256.155
225.0027, 1249.610
225.4848, 1243.621
225.9670, 1238.210
226.4491, 1233.462
226.9312, 1229.709
227.4133, 1227.816
227.8954, 1225.538
228.3775, 1221.666
228.8597, 1214.925
229.3418, 1209.518
229.8239, 1205.793
230.3060, 1203.275
230.7881, 1200.972
231.2702, 1199.481
231.7524, 1197.153
232.2345, 1192.966
232.7166, 1185.215
233.1987, 1179.434
233.6808, 1176.292
234.1629, 1174.973
234.6451, 1173.418
235.1272, 1172.097
235.6093, 1169.913
236.0914, 1166.369
236.5735, 1161.186
237.0556, 1155.266
237.5378, 1147.892
238.0199, 1140.039
238.5020, 1134.385
238.9841, 1132.459
239.4662, 1130.416
239.9483, 1126.531
240.4305, 1120.031
240.9126, 1113.495
241.3947, 1106.375
241.8768, 1099.361
242.3589, 1094.353
242.8410, 1092.523
243.3232, 1090.850
243.8053, 1087.994
244.2874, 1083.170
244.7695, 1079.036
245.2516, 1075.865
245.7337, 1073.244
246.2159, 1070.214
246.6980, 1066.425
247.1801, 1062.793
247.6622, 1059.716
248.1443, 1057.512
248.6264, 1054.985
249.1086, 1052.034
249.5907, 1048.813
250.0728, 1045.580
250.5549, 1042.170
251.0370, 1039.022
251.5191, 1036.342
252.0013, 1034.323
252.4834, 1032.194
252.9655, 1030.108
253.4476, 1027.818
253.9297, 1024.824
254.4118, 1020.859
254.8940, 1016.717
255.3761, 1012.657
255.8582, 1008.668
256.3403, 1004.739
256.8224, 1000.913
257.3046, 997.1270
257.7867, 993.3471
258.2688, 989.5184
258.7509, 985.7825
259.2330, 982.1816
259.7151, 978.6581
260.1973, 975.7175
260.6794, 973.9946
261.1615, 972.3272
261.6436, 968.6995
262.1257, 961.8348
262.6078, 956.0609
263.0900, 952.9294
263.5721, 952.6777
264.0542, 952.5004
264.5363, 952.5866
265.0184, 952.4920
265.5005, 951.5042
265.9827, 949.2599
266.4648, 947.1269
266.9469, 945.2595
267.4290, 943.6269
267.9111, 943.6081
268.3932, 945.9203
268.8754, 948.7234
269.3575, 949.9172
269.8396, 949.2249
270.3217, 947.8668
270.8038, 945.4779
271.2859, 942.2342
271.7681, 942.3224
272.2502, 946.6938
272.7323, 952.4301
273.2144, 956.4398
273.6965, 958.4401
274.1786, 960.3754
274.6608, 962.6485
275.1429, 965.2181
275.6250, 967.6818
276.1071, 969.7980
276.5892, 972.4932
277.0714, 976.8533
277.5535, 983.1212
278.0356, 988.9538
278.5177, 993.6752
278.9998, 997.7036
279.4819, 1002.722
279.9641, 1008.860
280.4462, 1015.691
280.9283, 1023.056
281.4104, 1030.912
281.8925, 1038.886
282.3746, 1046.908
282.8568, 1055.025
283.3389, 1063.160
283.8210, 1071.210
284.3031, 1080.024
284.7852, 1090.730
285.2673, 1103.090
285.7495, 1114.401
286.2316, 1123.774
286.7137, 1132.681
287.1958, 1144.455
287.6779, 1159.151
288.1600, 1174.504
288.6422, 1188.933
289.1243, 1202.781
289.6064, 1217.590
290.0885, 1233.875
290.5706, 1250.664
291.0527, 1266.412
291.5349, 1281.176
292.0170, 1295.744
292.4991, 1310.151
292.9812, 1324.665
293.4633, 1339.632
293.9454, 1355.145
294.4276, 1371.271
294.9097, 1387.879
295.3918, 1405.033
295.8739, 1422.771
296.3560, 1441.394
296.8381, 1460.533
297.3203, 1478.570
297.8024, 1495.245
298.2845, 1512.113
298.7666, 1531.439
299.2487, 1552.273
299.7308, 1572.303
300.2130, 1590.534
300.6951, 1607.385
301.1772, 1623.657
301.6593, 1639.295
302.1414, 1654.264
302.6235, 1667.815
303.1057, 1680.631
303.5878, 1693.806
304.0699, 1708.930
304.5520, 1723.838
305.0341, 1736.494
305.5162, 1746.854
305.9984, 1754.897
306.4805, 1759.129
306.9626, 1761.319
307.4447, 1763.919
307.9268, 1768.212
308.4089, 1772.297
308.8911, 1775.085
309.3732, 1776.418
309.8553, 1775.689
310.3374, 1771.573
310.8195, 1765.645
311.3016, 1759.438
311.7838, 1753.192
312.2659, 1746.922
312.7480, 1741.236
313.2301, 1735.688
313.7122, 1729.041
314.1943, 1719.935
314.6765, 1709.990
315.1586, 1700.270
315.6407, 1690.986
316.1228, 1681.868
316.6049, 1673.198
317.0870, 1664.593
317.5692, 1655.555
318.0513, 1645.778
318.5334, 1635.496
319.0155, 1624.606
319.4976, 1612.839
319.9797, 1601.488
320.4619, 1591.350
320.9440, 1581.625
321.4261, 1571.557
321.9082, 1560.150
322.3903, 1549.026
322.8724, 1538.799
323.3546, 1529.509
323.8367, 1520.233
324.3188, 1510.292
324.8009, 1500.575
325.2830, 1491.884
325.7651, 1485.035
326.2473, 1478.383
326.7294, 1472.134
327.2115, 1466.146
327.6936, 1459.184
328.1757, 1449.617
328.6578, 1440.301
329.1400, 1432.634
329.6221, 1428.033
330.1042, 1423.276
330.5863, 1418.307
331.0684, 1413.126
331.5505, 1407.818
332.0327, 1401.843
332.5148, 1396.271
332.9969, 1391.440
333.4790, 1387.430
333.9611, 1384.157
334.4432, 1381.859
334.9254, 1380.135
335.4075, 1378.408
335.8896, 1376.820
336.3717, 1374.903
336.8538, 1372.319
337.3359, 1368.901
337.8180, 1366.457
338.3001, 1365.004
338.7823, 1364.522
339.2644, 1365.324
339.7465, 1367.840
340.2286, 1369.791
340.7107, 1370.503
341.1928, 1370.158
341.6750, 1369.755
342.1571, 1369.063
342.6392, 1369.092
343.1213, 1371.537
343.6034, 1376.432
344.0855, 1379.125
344.5677, 1378.525
345.0498, 1375.570
345.5319, 1371.859
346.0140, 1367.324
346.4961, 1363.885
346.9782, 1364.741
347.4604, 1368.390
347.9425, 1367.005
348.4246, 1359.192
348.9067, 1348.259
349.3888, 1338.461
349.8709, 1329.625
350.3531, 1320.736
350.8352, 1311.525
351.3173, 1301.917
351.7994, 1291.299
352.2815, 1279.610
352.7636, 1268.027
353.2458, 1257.905
353.7279, 1248.728
354.2100, 1239.379
354.6921, 1229.204
355.1742, 1218.830
355.6563, 1208.512
356.1385, 1198.346
356.6206, 1188.909
357.1027, 1179.969
357.5848, 1172.223
358.0669, 1166.632
358.5490, 1165.104
359.0312, 1163.331
359.5133, 1157.728
359.9954, 1149.455
360.4775, 1142.059
360.9596, 1137.909
361.4417, 1134.783
361.9239, 1131.013
362.4060, 1125.945
362.8881, 1121.399
363.3702, 1118.686
363.8523, 1116.805
364.3344, 1114.217
364.8166, 1108.908
365.2987, 1104.210
365.7808, 1101.742
366.2629, 1101.809
366.7450, 1101.831
367.2271, 1101.272
367.7093, 1100.583
368.1914, 1100.161
368.6735, 1099.952
369.1556, 1100.139
369.6377, 1100.948
370.1198, 1102.295
370.6020, 1103.357
371.0841, 1103.150
371.5662, 1103.577
372.0483, 1105.763
372.5304, 1111.090
373.0125, 1115.574
373.4947, 1118.739
373.9768, 1121.108
374.4589, 1123.876
374.9410, 1126.954
375.4231, 1130.640
375.9052, 1135.300
376.3874, 1141.168
376.8695, 1146.095
377.3516, 1149.593
377.8337, 1153.064
378.3158, 1158.654
378.7979, 1166.688
379.2801, 1174.617
379.7622, 1181.928
380.2443, 1188.594
380.7264, 1194.497
381.2085, 1199.443
381.6906, 1204.776
382.1728, 1211.922
382.6549, 1220.646
383.1370, 1229.015
383.6191, 1236.707
384.1012, 1244.029
384.5833, 1251.228
385.0655, 1258.453
385.5476, 1266.664
386.0297, 1277.945
386.5118, 1290.337
386.9939, 1299.847
387.4760, 1305.665
387.9582, 1311.675
388.4403, 1322.428
388.9224, 1336.166
389.4045, 1349.120
389.8866, 1359.397
390.3687, 1368.610
390.8509, 1377.628
391.3330, 1386.479
391.8151, 1395.811
392.2972, 1407.118
392.7793, 1418.474
393.2614, 1428.007
393.7436, 1434.287
394.2257, 1439.839
394.7078, 1446.130
395.1899, 1452.492
395.6720, 1457.161
396.1541, 1458.059
396.6363, 1458.374
397.1184, 1459.863
397.6005, 1463.508
398.0826, 1465.831
398.5647, 1465.365
399.0468, 1463.633
399.5290, 1462.481
400.0111, 1463.785
400.4932, 1463.774
400.9753, 1461.476
401.4574, 1456.881
401.9395, 1452.396
402.4217, 1448.349
402.9038, 1444.009
403.3859, 1438.858
403.8680, 1432.637
404.3501, 1426.184
404.8322, 1419.743
405.3144, 1413.023
405.7965, 1405.156
406.2786, 1395.547
406.7607, 1386.618
407.2428, 1379.746
407.7249, 1374.984
408.2071, 1369.693
408.6892, 1363.779
409.1713, 1357.522
409.6534, 1351.232
410.1355, 1344.929
410.6176, 1338.452
411.0998, 1331.498
411.5819, 1324.455
412.0640, 1318.487
412.5461, 1313.599
413.0282, 1308.554
413.5103, 1301.819
413.9925, 1294.395
414.4746, 1288.391
414.9567, 1284.365
415.4388, 1281.162
415.9209, 1277.513
416.4030, 1273.708
416.8852, 1270.365
417.3673, 1268.014
417.8494, 1266.161
418.3315, 1264.518
418.8136, 1263.084
419.2957, 1261.460
419.7779, 1258.274
420.2600, 1255.283
420.7421, 1254.300
421.2242, 1258.092
421.7063, 1261.615
422.1884, 1262.720
422.6706, 1262.127
423.1527, 1262.578
423.6348, 1264.862
424.1169, 1268.209
424.5990, 1272.751
425.0811, 1280.275
425.5633, 1284.788
426.0454, 1283.258
426.5275, 1279.836
427.0096, 1279.874
427.4917, 1285.753
427.9738, 1291.517
428.4560, 1295.986
428.9381, 1299.235
429.4202, 1302.192
429.9023, 1304.595
430.3844, 1307.092
430.8665, 1310.110
431.3487, 1313.682
431.8308, 1317.619
432.3129, 1322.112
432.7950, 1326.654
433.2771, 1329.638
433.7592, 1330.931
434.2414, 1333.122
434.7235, 1338.247
435.2056, 1345.340
435.6877, 1350.145
436.1698, 1352.470
436.6519, 1354.578
437.1341, 1359.068
437.6162, 1365.077
438.0983, 1370.434
438.5804, 1374.286
439.0625, 1377.625
439.5446, 1381.219
440.0268, 1385.182
440.5089, 1389.912
440.9910, 1396.965
441.4731, 1404.122
441.9552, 1409.303
442.4373, 1411.936
442.9195, 1414.236
443.4016, 1416.655
443.8837, 1419.595
444.3658, 1423.545
444.8479, 1430.545
445.3300, 1436.675
445.8122, 1440.800
446.2943, 1442.948
446.7764, 1443.992
447.2585, 1442.331
447.7406, 1440.905
448.2227, 1441.355
448.7049, 1445.480
449.1870, 1447.990
449.6691, 1448.194
450.1512, 1447.112
450.6333, 1446.467
451.1154, 1446.969
451.5976, 1446.315
452.0797, 1443.536
452.5618, 1438.812
453.0439, 1435.189
453.5260, 1433.141
454.0081, 1430.920
454.4903, 1427.035
454.9724, 1421.541
455.4545, 1415.769
455.9366, 1409.860
456.4187, 1403.893
456.9008, 1398.297
457.3830, 1392.920
457.8651, 1387.215
458.3472, 1380.483
458.8293, 1373.307
459.3114, 1366.692
459.7935, 1360.697
460.2757, 1354.594
460.7578, 1347.882
461.2399, 1340.747
461.7220, 1333.389
462.2041, 1325.393
462.6862, 1317.823
463.1684, 1311.710
463.6505, 1306.508
464.1326, 1301.102
464.6147, 1294.291
465.0968, 1287.730
465.5789, 1282.655
466.0611, 1279.380
466.5432, 1275.568
467.0253, 1270.469
467.5074, 1264.812
467.9895, 1259.223
468.4716, 1253.359
468.9538, 1247.950
469.4359, 1243.394
469.9180, 1239.370
470.4001, 1234.594
470.8822, 1228.032
471.3643, 1222.699
471.8465, 1220.462
472.3286, 1221.853
472.8107, 1220.486
473.2928, 1215.560
473.7749, 1209.953
474.2570, 1207.203
474.7392, 1207.293
475.2213, 1207.075
475.7034, 1205.799
476.1855, 1203.913
476.6676, 1202.009
477.1497, 1200.149
477.6319, 1199.012
478.1140, 1198.844
478.5961, 1199.674
479.0782, 1202.093
479.5603, 1206.271
480.0424, 1209.946
480.5246, 1210.675
481.0067, 1209.895
481.4888, 1209.650
481.9709, 1210.754
482.4530, 1212.355
482.9352, 1214.400
483.4173, 1216.656
483.8994, 1218.389
484.3815, 1219.198
484.8636, 1219.550
485.3457, 1219.421
485.8279, 1218.424
486.3100, 1218.453
486.7921, 1220.761
487.2742, 1223.569
487.7563, 1225.351
488.2384, 1225.781
488.7206, 1225.727
489.2027, 1225.122
489.6848, 1224.142
490.1669, 1223.479
490.6490, 1223.322
491.1311, 1222.958
491.6133, 1221.862
492.0954, 1220.057
492.5775, 1218.913
493.0596, 1218.485
493.5417, 1218.551
494.0238, 1219.202
494.5060, 1220.245
494.9881, 1220.681
495.4702, 1220.005
495.9523, 1219.002
496.4344, 1218.675
496.9165, 1218.959
497.3987, 1219.612
497.8808, 1220.707
498.3629, 1221.977
498.8450, 1223.191
499.3271, 1224.334
499.8092, 1225.396
500.2914, 1226.147
500.7735, 1226.914
501.2556, 1228.025
501.7377, 1229.330
502.2198, 1231.224
502.7019, 1234.160
503.1841, 1237.769
503.6662, 1241.064
504.1483, 1243.568
504.6304, 1246.241
505.1125, 1249.352
505.5946, 1252.934
506.0768, 1256.644
506.5589, 1260.532
507.0410, 1264.468
507.5231, 1268.226
508.0052, 1271.671
508.4873, 1275.912
508.9695, 1281.225
509.4516, 1287.034
509.9337, 1292.059
510.4158, 1296.358
510.8979, 1301.042
511.3800, 1307.128
511.8622, 1313.792
512.3443, 1318.952
512.8264, 1322.644
513.3085, 1326.513
513.7906, 1331.538
514.2728, 1337.568
514.7549, 1344.729
515.2370, 1353.628
515.7191, 1361.868
516.2012, 1366.748
516.6833, 1370.242
517.1655, 1375.464
517.6476, 1385.362
518.1297, 1395.231
518.6118, 1403.354
519.0939, 1409.847
519.5760, 1416.443
520.0582, 1423.222
520.5403, 1430.213
521.0224, 1437.435
521.5045, 1445.253
521.9866, 1452.356
522.4688, 1458.740
522.9509, 1464.392
523.4330, 1469.098
523.9151, 1472.545
524.3972, 1476.986
524.8793, 1483.672
525.3615, 1490.933
525.8436, 1493.700
526.3257, 1492.044
526.8078, 1490.471
527.2899, 1492.504
527.7720, 1496.380
528.2542, 1498.234
528.7363, 1497.904
529.2184, 1495.941
529.7005, 1491.899
530.1826, 1486.822
530.6647, 1482.138
531.1469, 1478.496
531.6290, 1474.976
532.1111, 1471.326
532.5932, 1467.440
533.0753, 1463.115
533.5574, 1458.538
534.0396, 1453.226
534.5217, 1446.459
535.0038, 1438.148
535.4859, 1430.970
535.9680, 1425.525
536.4501, 1420.725
536.9323, 1416.009
537.4144, 1411.347
537.8965, 1406.613
538.3786, 1401.527
538.8607, 1396.759
539.3428, 1393.718
539.8250, 1392.533
540.3071, 1390.984
540.7892, 1388.175
541.2713, 1384.852
541.7534, 1382.917
542.2355, 1382.313
542.7177, 1382.356
543.1998, 1383.002
543.6819, 1383.880
544.1640, 1383.916
544.6461, 1382.926
545.1282, 1383.263
545.6104, 1388.260
546.0925, 1394.801
546.5746, 1399.266
547.0567, 1398.370
547.5388, 1398.447
548.0209, 1401.887
548.5031, 1407.763
548.9852, 1414.096
549.4673, 1421.942
549.9494, 1428.757
550.4315, 1433.231
550.9136, 1435.382
551.3958, 1439.774
551.8779, 1447.227
552.3600, 1455.569
552.8421, 1463.657
553.3242, 1471.506
553.8063, 1478.926
554.2885, 1485.840
554.7706, 1492.518
555.2527, 1499.401
555.7348, 1506.413
556.2169, 1513.079
556.6990, 1519.067
557.1812, 1524.773
557.6633, 1531.040
558.1454, 1537.573
558.6275, 1543.277
559.1096, 1548.009
559.5917, 1551.279
560.0739, 1552.227
560.5560, 1550.793
561.0381, 1548.996
561.5202, 1548.359
562.0023, 1547.268
562.4844, 1544.536
562.9666, 1539.677
563.4487, 1533.538
563.9308, 1525.796
564.4129, 1517.010
564.8950, 1507.973
565.3771, 1498.654
565.8593, 1489.371
566.3414, 1480.424
566.8235, 1471.562
567.3056, 1461.150
567.7877, 1449.102
568.2698, 1436.435
568.7520, 1422.997
569.2341, 1409.341
569.7162, 1397.266
570.1983, 1387.000
570.6804, 1377.265
571.1625, 1366.826
571.6447, 1356.278
572.1268, 1346.731
572.6089, 1338.834
573.0910, 1330.996
573.5731, 1322.077
574.0552, 1312.502
574.5374, 1302.811
575.0195, 1292.166
575.5016, 1282.585
575.9837, 1275.102
576.4658, 1269.616
576.9479, 1264.047
577.4301, 1258.528
577.9122, 1252.785
578.3943, 1246.344
578.8764, 1238.804
579.3585, 1233.346
579.8406, 1230.718
580.3228, 1228.499
580.8049, 1223.664
581.2870, 1216.433
581.7691, 1210.502
582.2512, 1206.621
582.7333, 1204.060
583.2155, 1202.580
583.6975, 1201.657
584.1796, 1199.585
584.6617, 1193.835
585.1439, 1187.843
585.6260, 1185.181
586.1081, 1185.252
586.5902, 1185.051
587.0723, 1183.300
587.5544, 1180.778
588.0366, 1177.575
588.5187, 1173.315
589.0008, 1170.220
589.4829, 1169.576
589.9650, 1169.528
590.4471, 1168.662
590.9293, 1166.381
591.4114, 1164.772
591.8935, 1164.284
592.3756, 1164.191
592.8577, 1162.931
593.3398, 1160.415
593.8220, 1158.473
594.3041, 1157.823
594.7862, 1158.028
595.2683, 1158.242
595.7504, 1158.446
596.2325, 1158.516
596.7147, 1157.635
597.1968, 1156.982
597.6789, 1158.476
598.1610, 1162.301
598.6431, 1165.375
599.1252, 1165.004
599.6074, 1163.708
600.0895, 1163.628
600.5716, 1166.138
601.0537, 1168.158
601.5358, 1168.621
602.0179, 1168.588
602.5001, 1169.436
602.9822, 1171.529
603.4643, 1173.843
603.9464, 1176.635
604.4285, 1179.350
604.9106, 1179.724
605.3928, 1177.404
605.8749, 1175.773
606.3570, 1177.133
606.8391, 1180.411
607.3212, 1182.091
607.8033, 1182.209
608.2855, 1181.826
608.7676, 1181.788
609.2497, 1181.713
609.7318, 1181.018
610.2139, 1179.482
610.6960, 1177.974
611.1782, 1177.176
611.6603, 1176.568
612.1424, 1175.583
612.6245, 1173.307
613.1066, 1171.628
613.5887, 1171.417
614.0709, 1171.839
614.5530, 1171.153
615.0351, 1168.948
615.5172, 1166.529
615.9993, 1164.077
616.4814, 1161.695
616.9636, 1160.101
617.4457, 1159.417
617.9278, 1158.327
618.4099, 1155.527
618.8920, 1151.751
619.3741, 1149.164
