##NAMES=Chalcophanite
##RRUFFID=R050605
##IDEAL CHEMISTRY=Zn^2+^Mn^4+^_3_O_7_&#183;3H_2_O
##LOCALITY=Mina Ojuela, Mapimi, Durango, Mexico
##OWNER=RRUFF
##SOURCE=University of Arizona Mineral Museum
##DESCRIPTION=Druse of grayish black pseudo-octahedra
##STATUS=The identification of this mineral has been confirmed by single-crystal X-ray diffraction.
##URL=rruff.info/R050605
91.11523, 4.408960
91.59735, 4.651944
92.07947, 4.581344
92.56158, 4.233358
93.04370, 3.717643
93.52582, 2.902578
94.00793, 1.978889
94.49006, 1.509770
94.97218, 1.736279
95.45429, 2.004690
95.93641, 0.8392068
96.41853, -1.713206
96.90064, -3.730893
97.38276, -3.265378
97.86488, -0.6001136
98.34699, 0.9848242
98.82911, 0.5385717
99.31123, -1.115428
99.79334, -1.016671
100.2755, 1.227748
100.7576, 3.860581
101.2397, 5.346515
101.7218, 5.558709
102.2039, 5.228863
102.6861, 4.221873
103.1682, 2.546160
103.6503, 1.996268
104.1324, 3.117786
104.6145, 4.755864
105.0966, 5.544365
105.5788, 5.197617
106.0609, 4.462904
106.5430, 3.373216
107.0251, 1.613829
107.5072, 0.6247197
107.9893, 0.9865628
108.4715, 1.970512
108.9536, 2.249084
109.4357, 0.2228272
109.9178, -1.074785
110.3999, -0.4630183
110.8820, 4.570353
111.3642, 7.371793
111.8463, 5.952814
112.3284, 1.924811
112.8105, -0.2513247
113.2926, 1.746720
113.7747, 4.521205
114.2569, 6.338082
114.7390, 6.042784
115.2211, 5.802389
115.7032, 6.199884
116.1853, 7.107158
116.6674, 7.870684
117.1496, 8.435870
117.6317, 8.698263
118.1138, 8.572458
118.5959, 7.007766
119.0780, 5.917234
119.5602, 6.544392
120.0423, 8.811894
120.5244, 11.01997
121.0065, 12.46383
121.4886, 13.22591
121.9707, 13.41497
122.4529, 12.49269
122.9350, 11.36010
123.4171, 10.67920
123.8992, 10.47444
124.3813, 10.77303
124.8634, 11.94987
125.3456, 13.67910
125.8277, 15.22692
126.3098, 15.98472
126.7919, 16.39674
127.2740, 17.08955
127.7561, 18.12153
128.2383, 19.40192
128.7204, 20.98948
129.2025, 22.81098
129.6846, 24.48204
130.1667, 25.90001
130.6488, 26.98847
131.1310, 27.48088
131.6131, 27.15515
132.0952, 26.56386
132.5773, 26.77283
133.0594, 27.79712
133.5415, 28.93392
134.0237, 29.86827
134.5058, 30.58176
134.9879, 30.63540
135.4700, 29.60515
135.9521, 28.08271
136.4343, 28.29561
136.9164, 30.70254
137.3985, 32.96726
137.8806, 32.66850
138.3627, 29.28183
138.8448, 27.00973
139.3270, 26.99509
139.8091, 28.91467
140.2912, 29.54945
140.7733, 28.40150
141.2554, 26.85681
141.7375, 26.48943
142.2197, 27.88807
142.7018, 28.86499
143.1839, 28.79651
143.6660, 27.59352
144.1481, 26.68955
144.6302, 25.97721
145.1124, 25.66405
145.5945, 26.05715
146.0766, 27.51489
146.5587, 29.16156
147.0408, 31.00066
147.5230, 33.41839
148.0051, 34.46526
148.4872, 32.85161
148.9693, 30.07213
149.4514, 28.78991
149.9335, 30.64671
150.4157, 32.22081
150.8978, 32.36519
151.3799, 29.72418
151.8620, 28.56360
152.3441, 30.09703
152.8262, 32.95360
153.3084, 34.52484
153.7905, 33.55503
154.2726, 32.26381
154.7547, 31.40720
155.2368, 31.13555
155.7189, 31.15431
156.2011, 31.74650
156.6832, 32.62672
157.1653, 33.07204
157.6474, 32.55682
158.1295, 31.85498
158.6116, 31.32130
159.0938, 30.72221
159.5759, 30.68734
160.0580, 31.95377
160.5401, 34.05347
161.0222, 35.38108
161.5044, 34.80873
161.9865, 33.64497
162.4686, 32.78112
162.9507, 32.71203
163.4328, 32.65975
163.9149, 32.17465
164.3971, 31.37188
164.8792, 30.85050
165.3613, 30.93753
165.8434, 31.40522
166.3255, 32.05550
166.8076, 33.21833
167.2898, 34.19566
167.7719, 34.51197
168.2540, 34.22715
168.7361, 33.84544
169.2182, 33.17595
169.7003, 32.71268
170.1825, 33.04707
170.6646, 35.22804
171.1467, 37.71976
171.6288, 39.43665
172.1109, 40.37311
172.5931, 40.75018
173.0752, 40.03347
173.5573, 38.94078
174.0394, 38.63654
174.5215, 40.42835
175.0036, 42.81684
175.4858, 44.26077
175.9679, 44.75606
176.4500, 44.46515
176.9321, 42.80062
177.4142, 40.40900
177.8963, 38.79295
178.3785, 39.45162
178.8606, 40.98262
179.3427, 41.07769
179.8248, 39.62140
180.3069, 37.71571
180.7890, 36.23687
181.2712, 35.18860
181.7533, 34.61798
182.2354, 34.80635
182.7175, 35.45759
183.1996, 36.15171
183.6818, 36.99277
184.1639, 37.27116
184.6460, 35.52595
185.1281, 32.19357
185.6102, 29.48879
186.0923, 28.93143
186.5745, 29.90360
187.0566, 30.44539
187.5387, 30.41327
188.0208, 30.20690
188.5029, 30.46690
188.9850, 31.14429
189.4672, 31.65582
189.9493, 31.67129
190.4314, 31.25980
190.9135, 30.70747
191.3956, 29.95806
191.8777, 29.25475
192.3599, 28.93576
192.8420, 29.00359
193.3241, 29.35044
193.8062, 30.20249
194.2883, 31.47074
194.7704, 31.98155
195.2526, 31.55210
195.7347, 30.57927
196.2168, 29.54600
196.6989, 28.40038
197.1810, 27.80272
197.6632, 28.50973
198.1453, 30.52106
198.6274, 31.54442
199.1095, 31.25195
199.5916, 30.21191
200.0737, 29.48715
200.5559, 29.06204
201.0380, 29.00706
201.5201, 29.48597
202.0022, 30.55176
202.4843, 31.45679
202.9664, 32.13533
203.4486, 32.65821
203.9307, 33.27325
204.4128, 34.07904
204.8949, 34.56460
205.3770, 34.17350
205.8591, 32.66189
206.3413, 32.13176
206.8234, 33.00259
207.3055, 34.68418
207.7876, 35.58352
208.2697, 35.43612
208.7519, 35.27919
209.2340, 35.77765
209.7161, 37.14458
210.1982, 38.06092
210.6803, 38.34480
211.1624, 38.19999
211.6446, 38.14103
212.1267, 38.12924
212.6088, 38.29991
213.0909, 38.81501
213.5730, 39.84619
214.0551, 40.52698
214.5373, 40.66630
215.0194, 40.49233
215.5015, 40.70674
215.9836, 41.50062
216.4657, 42.29723
216.9478, 42.75093
217.4300, 42.65919
217.9121, 42.88212
218.3942, 43.49391
218.8763, 44.42401
219.3584, 45.69627
219.8405, 48.01012
220.3227, 49.35113
220.8048, 48.35785
221.2869, 43.76249
221.7690, 40.50226
222.2511, 39.15818
222.7333, 39.13888
223.2154, 38.69316
223.6975, 37.35324
224.1796, 36.37154
224.6617, 36.55408
225.1438, 38.73156
225.6260, 39.82249
226.1081, 39.36533
226.5902, 37.87914
227.0723, 36.85264
227.5544, 36.46941
228.0365, 36.23830
228.5187, 35.90854
229.0008, 35.33308
229.4829, 35.05833
229.9650, 35.34153
230.4471, 35.85513
230.9292, 35.66761
231.4114, 34.30056
231.8935, 32.95412
232.3756, 32.18689
232.8577, 32.24264
233.3398, 32.25634
233.8220, 32.13238
234.3041, 31.99633
234.7862, 32.20606
235.2683, 33.04989
235.7504, 33.79409
236.2325, 34.17131
236.7147, 34.19560
237.1968, 33.74077
237.6789, 32.41417
238.1610, 30.76578
238.6431, 30.06277
239.1252, 30.80850
239.6074, 31.71249
240.0895, 32.23505
240.5716, 32.08376
241.0537, 32.46154
241.5358, 33.91213
242.0179, 35.63084
242.5001, 35.88689
242.9822, 33.63932
243.4643, 31.62376
243.9464, 30.96339
244.4285, 32.31590
244.9106, 32.81084
245.3928, 32.09145
245.8749, 30.73178
246.3570, 29.69117
246.8391, 28.95418
247.3212, 28.56632
247.8034, 28.59508
248.2855, 29.14307
248.7676, 29.70539
249.2497, 30.38588
249.7318, 31.01067
250.2139, 31.27115
250.6961, 30.91546
251.1782, 30.66378
251.6603, 30.79959
252.1424, 31.44895
252.6245, 31.71806
253.1066, 31.45823
253.5888, 30.95630
254.0709, 30.52539
254.5530, 30.01347
255.0351, 29.90996
255.5172, 30.57867
255.9993, 32.18378
256.4815, 32.76114
256.9636, 31.85366
257.4457, 30.40340
257.9278, 29.44975
258.4099, 29.09151
258.8921, 29.02517
259.3742, 29.33137
259.8563, 30.02121
260.3384, 30.13179
260.8205, 29.36662
261.3026, 28.41611
261.7848, 28.03859
262.2669, 28.55001
262.7490, 28.75070
263.2311, 28.28885
263.7132, 27.22010
264.1953, 26.41033
264.6775, 25.79270
265.1596, 25.55547
265.6417, 25.93747
266.1238, 27.09798
266.6059, 28.37021
267.0880, 29.85795
267.5702, 31.41474
268.0523, 31.75941
268.5344, 30.38096
269.0165, 28.84807
269.4986, 28.51018
269.9807, 29.75208
270.4629, 30.41738
270.9450, 30.02873
271.4271, 28.90801
271.9092, 28.34513
272.3913, 28.41081
272.8734, 28.83272
273.3556, 29.58838
273.8377, 30.79019
274.3198, 31.52850
274.8019, 31.65183
275.2840, 31.31410
275.7661, 30.83807
276.2483, 30.14137
276.7304, 29.65110
277.2125, 29.77208
277.6946, 30.56943
278.1768, 31.02565
278.6589, 31.08072
279.1410, 30.76653
279.6231, 29.87754
280.1052, 28.24021
280.5873, 27.15145
281.0695, 27.77988
281.5516, 30.09057
282.0337, 30.86070
282.5158, 29.60485
282.9979, 27.66281
283.4800, 27.36028
283.9622, 28.78058
284.4443, 30.05477
284.9264, 30.19698
285.4085, 29.36033
285.8906, 28.98471
286.3727, 29.15948
286.8549, 29.47242
287.3370, 29.36393
287.8191, 28.85340
288.3012, 28.34045
288.7833, 27.94738
289.2654, 27.67002
289.7476, 27.39359
290.2297, 27.07701
290.7118, 27.07865
291.1939, 28.08008
291.6760, 29.87914
292.1581, 31.30458
292.6403, 31.98480
293.1224, 32.07103
293.6045, 31.80599
294.0866, 31.19018
294.5687, 30.51923
295.0508, 30.09358
295.5330, 29.83093
296.0151, 29.40788
296.4972, 28.57766
296.9793, 27.74597
297.4614, 27.56890
297.9435, 28.01902
298.4257, 28.94495
298.9078, 30.80414
299.3899, 33.02048
299.8720, 34.25339
300.3541, 34.12657
300.8362, 33.28482
301.3184, 32.15908
301.8005, 30.87839
302.2826, 30.02097
302.7647, 30.05820
303.2469, 30.68402
303.7290, 31.64581
304.2111, 33.06833
304.6932, 34.13718
305.1753, 33.61227
305.6574, 32.06469
306.1396, 30.86273
306.6217, 31.10566
307.1038, 31.80902
307.5859, 31.80312
308.0680, 30.93202
308.5501, 30.20486
309.0323, 30.70814
309.5144, 31.80976
309.9965, 32.50237
310.4786, 31.95576
310.9607, 31.15011
311.4428, 30.76436
311.9250, 30.80867
312.4071, 31.06790
312.8892, 31.74521
313.3713, 32.44426
313.8534, 32.74744
314.3355, 32.03745
314.8177, 31.33039
315.2998, 31.31044
315.7819, 31.82501
316.2640, 32.05571
316.7461, 31.26636
317.2282, 30.25742
317.7104, 29.63194
318.1925, 29.65835
318.6746, 29.88194
319.1567, 30.35724
319.6388, 30.93913
320.1209, 31.22617
320.6031, 30.87740
321.0852, 30.36381
321.5673, 29.87322
322.0494, 29.30257
322.5315, 29.05703
323.0136, 29.52395
323.4958, 30.31770
323.9779, 30.81173
324.4600, 30.92459
324.9421, 30.70055
325.4242, 29.88828
325.9064, 28.12742
326.3885, 27.35322
326.8706, 28.47885
327.3527, 30.35456
327.8348, 31.78003
328.3170, 32.79566
328.7991, 33.26878
329.2812, 32.98784
329.7633, 31.92851
330.2454, 31.06469
330.7275, 30.47796
331.2097, 30.02833
331.6918, 29.62218
332.1739, 29.24878
332.6560, 28.91730
333.1381, 28.50185
333.6202, 28.10609
334.1024, 28.35228
334.5845, 29.76494
335.0666, 31.03360
335.5487, 31.37099
336.0308, 30.31536
336.5129, 29.69513
336.9951, 29.74135
337.4772, 30.11477
337.9593, 30.01205
338.4414, 29.15994
338.9235, 28.63244
339.4056, 29.02197
339.8878, 30.42511
340.3699, 31.37000
340.8520, 31.82633
341.3341, 31.88511
341.8162, 31.36659
342.2983, 30.14577
342.7805, 29.78642
343.2626, 31.21379
343.7447, 33.93613
344.2268, 35.13762
344.7089, 34.64533
345.1910, 33.71927
345.6732, 33.57622
346.1553, 34.10997
346.6374, 34.49977
347.1195, 34.61481
347.6016, 34.45581
348.0837, 33.86071
348.5659, 32.85783
349.0480, 32.00412
349.5301, 31.72604
350.0122, 31.88761
350.4944, 32.23778
350.9765, 32.82258
351.4586, 33.32543
351.9407, 33.27982
352.4228, 32.80158
352.9049, 32.27338
353.3871, 31.72207
353.8692, 31.30546
354.3513, 31.22679
354.8334, 31.49804
355.3155, 32.05363
355.7976, 33.11641
356.2798, 34.38758
356.7619, 35.39929
357.2440, 35.97634
357.7261, 36.21110
358.2082, 35.96291
358.6903, 35.31607
359.1725, 34.85589
359.6546, 35.38457
360.1367, 36.00048
360.6188, 35.80187
361.1009, 33.78400
361.5830, 32.17232
362.0652, 32.19900
362.5473, 33.36761
363.0294, 34.45471
363.5115, 35.48905
363.9936, 35.99909
364.4757, 35.60778
364.9579, 33.96562
365.4400, 32.44370
365.9221, 31.05182
366.4042, 30.00518
366.8863, 29.57665
367.3684, 30.00735
367.8506, 30.85106
368.3327, 32.21461
368.8148, 34.16098
369.2969, 35.68645
369.7790, 36.66787
370.2611, 37.32088
370.7433, 37.79313
371.2254, 38.10230
371.7075, 38.18857
372.1896, 37.96291
372.6717, 37.50035
373.1538, 37.05330
373.6360, 36.34818
374.1181, 36.09975
374.6002, 36.76212
375.0823, 38.66625
375.5645, 40.34919
376.0466, 41.87482
376.5287, 43.08806
377.0108, 43.60724
377.4929, 43.27996
377.9750, 42.96308
378.4572, 43.04455
378.9393, 43.44314
379.4214, 43.15806
379.9035, 41.98083
380.3856, 41.00607
380.8677, 41.77710
381.3499, 44.11115
381.8320, 45.54875
382.3141, 45.38259
382.7962, 44.24396
383.2783, 43.18329
383.7604, 42.22864
384.2426, 41.74115
384.7247, 42.41045
385.2068, 43.68019
385.6889, 44.28106
386.1710, 44.02279
386.6531, 43.26278
387.1353, 41.74835
387.6174, 39.96816
388.0995, 39.16853
388.5816, 40.90059
389.0637, 43.32343
389.5458, 44.65152
390.0280, 44.86830
390.5101, 44.49561
390.9922, 43.49828
391.4743, 42.25575
391.9564, 41.15709
392.4385, 40.15973
392.9207, 39.54167
393.4028, 39.68797
393.8849, 40.37276
394.3670, 40.92364
394.8491, 40.83191
395.3312, 40.71615
395.8134, 41.02028
396.2955, 42.10405
396.7776, 42.74899
397.2597, 42.52895
397.7418, 41.77008
398.2239, 40.89053
398.7061, 39.68298
399.1882, 38.62909
399.6703, 37.74385
400.1524, 37.01034
400.6346, 36.86456
401.1167, 38.22454
401.5988, 39.38032
402.0809, 39.05561
402.5630, 36.01375
403.0451, 33.92050
403.5273, 33.25122
404.0094, 33.62684
404.4915, 34.13239
404.9736, 35.02638
405.4557, 35.41138
405.9378, 34.61320
406.4200, 32.44807
406.9021, 31.33576
407.3842, 31.49786
407.8663, 32.21715
408.3484, 32.61220
408.8305, 32.67735
409.3127, 32.85073
409.7948, 33.34312
410.2769, 33.97654
410.7590, 34.19106
411.2411, 33.98562
411.7232, 33.74686
412.2054, 33.74941
412.6875, 33.94705
413.1696, 34.27317
413.6517, 34.80097
414.1338, 35.19862
414.6159, 34.89858
415.0981, 34.12824
415.5802, 33.50787
416.0623, 33.52426
416.5444, 33.74552
417.0265, 33.61395
417.5086, 33.11848
417.9908, 32.92432
418.4729, 33.97319
418.9550, 35.33584
419.4371, 35.98360
419.9192, 35.01823
420.4013, 34.03554
420.8835, 33.92427
421.3656, 34.36132
421.8477, 34.37061
422.3298, 32.71935
422.8119, 31.34000
423.2940, 31.26083
423.7762, 33.09425
424.2583, 34.64125
424.7404, 35.71763
425.2225, 36.34802
425.7047, 36.58216
426.1868, 35.96326
426.6689, 35.56167
427.1510, 35.74699
427.6331, 36.41944
428.1152, 36.35160
428.5974, 35.00124
429.0795, 33.71925
429.5616, 33.47783
430.0437, 34.70485
430.5258, 35.05050
431.0079, 34.09715
431.4901, 32.61634
431.9722, 31.96525
432.4543, 32.18976
432.9364, 32.79018
433.4185, 33.78519
433.9006, 35.00911
434.3828, 35.60944
434.8649, 35.55123
435.3470, 35.30219
435.8291, 35.24429
436.3112, 35.33752
436.7933, 35.45101
437.2755, 35.55352
437.7576, 35.67946
438.2397, 35.86563
438.7218, 36.10985
439.2039, 36.40395
439.6860, 37.10664
440.1682, 37.65541
440.6503, 37.14048
441.1324, 35.45167
441.6145, 34.23101
442.0966, 34.76720
442.5787, 36.16916
443.0609, 37.48401
443.5430, 38.80748
444.0251, 39.58500
444.5072, 39.16147
444.9893, 37.92397
445.4714, 37.26810
445.9536, 38.02895
446.4357, 38.99471
446.9178, 39.70628
447.3999, 40.20685
447.8820, 40.23781
448.3641, 39.55137
448.8463, 38.54340
449.3284, 37.56981
449.8105, 36.36069
450.2926, 35.70801
450.7747, 35.85122
451.2569, 36.68614
451.7390, 37.67006
452.2211, 39.02595
452.7032, 39.98861
453.1853, 39.92566
453.6674, 38.75876
454.1496, 37.91887
454.6317, 37.46542
455.1138, 37.32103
455.5959, 37.53087
456.0780, 38.05103
456.5602, 38.35828
457.0423, 38.14596
457.5244, 37.68545
458.0065, 37.57370
458.4886, 37.77864
458.9707, 37.92616
459.4529, 37.55191
459.9350, 37.00237
460.4171, 36.79475
460.8992, 37.01437
461.3813, 37.55289
461.8634, 38.85511
462.3456, 40.34836
462.8277, 41.03838
463.3098, 39.63935
463.7919, 38.12228
464.2740, 37.55688
464.7561, 37.91061
465.2383, 38.27558
465.7204, 38.14069
466.2025, 38.09425
466.6846, 38.53615
467.1667, 40.04289
467.6488, 41.16895
468.1310, 41.30024
468.6131, 41.15871
469.0952, 41.99607
469.5773, 44.78117
470.0594, 46.97643
470.5415, 47.80629
471.0237, 47.32319
471.5058, 47.19793
471.9879, 47.52732
472.4700, 48.00039
472.9521, 48.37577
473.4342, 48.64632
473.9164, 48.98095
474.3985, 49.37221
474.8806, 49.88980
475.3627, 50.73137
475.8448, 51.86448
476.3270, 52.96263
476.8091, 53.97370
477.2912, 54.81218
477.7733, 54.96764
478.2554, 54.51562
478.7375, 54.60777
479.2197, 56.89593
479.7018, 60.00152
480.1839, 61.95673
480.6660, 62.14317
481.1481, 61.78208
481.6302, 61.31310
482.1124, 60.88523
482.5945, 60.75078
483.0766, 61.64939
483.5587, 62.26807
484.0408, 61.67590
484.5229, 59.91938
485.0051, 58.90983
485.4872, 60.28175
485.9693, 61.58701
486.4514, 61.29655
486.9335, 57.91685
487.4156, 55.55613
487.8978, 54.83269
488.3799, 54.80570
488.8620, 53.82386
489.3441, 51.25192
489.8262, 49.33269
490.3083, 48.83489
490.7905, 49.52490
491.2726, 49.61282
491.7547, 48.97997
492.2368, 48.33280
492.7189, 48.48239
493.2010, 49.22495
493.6832, 48.84118
494.1653, 46.86840
494.6474, 44.94384
495.1295, 45.63354
495.6116, 48.15423
496.0938, 50.06120
496.5759, 49.85496
497.0580, 49.02615
497.5401, 49.12204
498.0222, 50.02221
498.5044, 51.10798
498.9865, 52.56133
499.4686, 53.73084
499.9507, 53.88778
500.4328, 52.55462
500.9149, 51.67593
501.3971, 52.20855
501.8792, 53.42623
502.3613, 54.48332
502.8434, 55.02576
503.3255, 55.65610
503.8076, 56.35407
504.2898, 57.18441
504.7719, 58.54940
505.2540, 61.07481
505.7361, 63.19897
506.2182, 64.07044
506.7003, 63.36147
507.1825, 63.57351
507.6646, 64.92048
508.1467, 66.72945
508.6288, 68.55912
509.1109, 70.40709
509.5930, 71.05836
510.0752, 69.67159
510.5573, 67.85390
511.0394, 69.55188
511.5215, 74.11462
512.0037, 77.42770
512.4858, 76.69633
512.9679, 73.57133
513.4500, 69.87695
513.9321, 65.70768
514.4142, 62.09180
514.8964, 60.18988
515.3785, 59.01167
515.8606, 57.49736
516.3427, 55.10552
516.8248, 52.83388
517.3069, 51.08741
517.7891, 49.72186
518.2712, 48.46492
518.7533, 47.29607
519.2354, 46.20586
519.7175, 45.31905
520.1996, 44.62456
520.6818, 43.47860
521.1639, 41.11251
521.6460, 39.23965
522.1281, 39.13515
522.6102, 41.54144
523.0923, 42.71122
523.5745, 42.20490
524.0566, 41.04814
524.5387, 40.74016
525.0208, 41.27711
525.5029, 41.87107
525.9850, 42.44029
526.4672, 42.79450
526.9493, 42.34144
527.4314, 41.16314
527.9135, 40.04251
528.3956, 39.35408
528.8777, 39.04330
529.3599, 39.16132
529.8420, 39.74295
530.3241, 40.26918
530.8062, 40.22581
531.2883, 40.01193
531.7704, 40.08015
532.2526, 40.78256
532.7347, 41.48024
533.2168, 42.17168
533.6989, 42.71685
534.1810, 42.80637
534.6631, 41.79337
535.1453, 40.93280
535.6274, 40.62868
536.1095, 40.89495
536.5916, 41.01650
537.0737, 40.90606
537.5558, 40.78785
538.0380, 40.89104
538.5201, 41.30347
539.0022, 41.21620
539.4843, 40.38952
539.9664, 39.50689
540.4485, 39.65550
540.9307, 40.74060
541.4128, 42.06094
541.8949, 43.66967
542.3770, 45.08431
542.8591, 45.11816
543.3412, 44.06341
543.8234, 43.46291
544.3055, 44.82053
544.7876, 46.75110
545.2697, 47.93193
545.7518, 48.20513
546.2339, 48.15749
546.7161, 47.48050
547.1982, 46.92645
547.6803, 47.16108
548.1624, 49.25288
548.6445, 50.96619
549.1266, 51.78237
549.6088, 52.05818
550.0909, 52.48035
550.5730, 52.93468
551.0551, 53.73695
551.5372, 55.05001
552.0193, 56.82038
552.5015, 58.45441
552.9836, 59.91988
553.4657, 61.36584
553.9478, 62.86805
554.4299, 64.42935
554.9120, 66.05732
555.3942, 67.71661
555.8763, 69.54926
556.3584, 72.02487
556.8405, 74.80145
557.3226, 76.88960
557.8047, 77.37434
558.2869, 78.00124
558.7690, 80.89936
559.2511, 85.25901
559.7332, 89.00693
560.2154, 90.41425
560.6975, 91.64883
561.1796, 93.70802
561.6617, 96.65798
562.1439, 100.3270
562.6260, 105.3654
563.1081, 110.6029
563.5902, 115.5036
564.0723, 120.2947
564.5544, 124.1911
565.0366, 126.7214
565.5187, 128.8651
566.0008, 132.1113
566.4829, 136.8107
566.9650, 140.7676
567.4471, 143.3285
567.9293, 145.0346
568.4114, 147.5852
568.8935, 150.8528
569.3756, 152.8786
569.8577, 152.0968
570.3398, 149.4745
570.8220, 146.7067
571.3041, 143.7861
571.7862, 140.3393
572.2683, 136.2610
572.7504, 131.4208
573.2325, 125.2995
573.7147, 116.9780
574.1968, 109.7032
574.6789, 105.4557
575.1610, 102.6946
575.6431, 99.37395
576.1252, 94.39480
576.6074, 89.83582
577.0895, 85.90062
577.5716, 82.57009
578.0537, 79.71140
578.5358, 77.34068
579.0179, 75.41770
579.5001, 74.09225
579.9822, 73.29613
580.4643, 71.97572
580.9464, 70.03371
581.4285, 68.23863
581.9106, 67.55204
582.3928, 67.56156
582.8749, 66.71143
583.3570, 64.59210
583.8391, 62.58464
584.3212, 62.50543
584.8033, 63.37928
585.2855, 63.51583
585.7676, 61.13691
586.2497, 59.12920
586.7318, 59.74313
587.2139, 61.93118
587.6960, 62.69582
