##NAMES=Chalcanthite
##RRUFFID=R050354
##IDEAL CHEMISTRY=Cu^2+^S^6+^O_4_&#183;5H_2_O
##LOCALITY=Utah, USA
##OWNER=RRUFF
##SOURCE=California Institute of Technology
##DESCRIPTION=Group of blue parallel prismatic crystals
##STATUS=The identification of this mineral has been confirmed by X-ray diffraction.
##URL=rruff.info/R050354
##MEASURED CHEMISTRY=Cu_1.00_S_1.00_O_4_Â·5H_2_O
112.1203, 87.07600
112.6024, 92.77887
113.0845, 98.24596
113.5667, 102.4697
114.0488, 106.8074
114.5309, 112.2282
115.0130, 119.5274
115.4951, 127.3363
115.9772, 135.2367
116.4594, 143.2981
116.9415, 151.8847
117.4236, 161.2300
117.9057, 171.1483
118.3878, 181.3961
118.8699, 191.8951
119.3521, 202.8090
119.8342, 214.6076
120.3163, 227.4117
120.7984, 240.0317
121.2805, 251.7007
121.7626, 262.6974
122.2448, 273.4986
122.7269, 284.6326
123.2090, 295.5315
123.6911, 305.5545
124.1732, 314.5286
124.6553, 323.0682
125.1375, 331.5574
125.6196, 340.0334
126.1017, 348.6142
126.5838, 358.2203
127.0659, 367.8504
127.5480, 375.4731
128.0302, 380.3057
128.5123, 384.2135
128.9944, 389.4583
129.4765, 396.0068
129.9586, 403.5471
130.4407, 412.3460
130.9229, 422.0948
131.4050, 431.5129
131.8871, 439.8718
132.3692, 447.9484
132.8513, 457.7262
133.3334, 468.6221
133.8156, 477.2798
134.2977, 482.7206
134.7798, 486.6550
135.2619, 489.1803
135.7440, 490.6339
136.2261, 490.7722
136.7083, 487.8926
137.1904, 481.4988
137.6725, 473.8377
138.1546, 467.2094
138.6367, 461.8720
139.1188, 455.9911
139.6010, 448.9128
140.0831, 440.6678
140.5652, 432.3550
141.0473, 423.3446
141.5294, 414.9413
142.0115, 409.2422
142.4937, 407.3094
142.9758, 405.3701
143.4579, 402.2670
143.9400, 397.7729
144.4221, 393.1606
144.9042, 387.9068
145.3864, 382.7861
145.8685, 379.3649
146.3506, 378.8764
146.8327, 378.3366
147.3148, 376.8273
147.7969, 374.3077
148.2791, 370.9432
148.7612, 366.4230
149.2433, 361.1259
149.7254, 355.8197
150.2075, 350.6231
150.6896, 345.3597
151.1718, 340.0578
151.6539, 335.4333
152.1360, 329.7495
152.6181, 322.6229
153.1002, 314.3717
153.5823, 305.9732
154.0645, 297.0589
154.5466, 288.2313
155.0287, 279.7930
155.5108, 272.1470
155.9929, 264.2639
156.4750, 255.6621
156.9572, 246.5959
157.4393, 238.3143
157.9214, 231.4272
158.4035, 225.1003
158.8856, 218.7923
159.3677, 212.2393
159.8499, 205.8097
160.3320, 199.4384
160.8141, 193.2165
161.2962, 187.6997
161.7783, 183.4637
162.2604, 179.8899
162.7426, 176.4674
163.2247, 172.9565
163.7068, 169.6393
164.1889, 166.6951
164.6710, 164.1272
165.1531, 161.6165
165.6353, 158.6076
166.1174, 155.7083
166.5995, 153.5732
167.0816, 152.7624
167.5637, 152.5396
168.0458, 152.5704
168.5280, 152.8421
169.0101, 153.1196
169.4922, 153.1634
169.9743, 153.1337
170.4564, 153.2548
170.9385, 153.9229
171.4207, 154.5997
171.9028, 154.5953
172.3849, 153.8435
172.8670, 153.3554
173.3491, 154.5537
173.8312, 156.5558
174.3134, 157.6732
174.7955, 156.1427
175.2776, 153.7465
175.7597, 152.5619
176.2418, 152.7361
176.7239, 153.6747
177.2061, 155.1971
177.6882, 157.1073
178.1703, 158.8414
178.6524, 159.9966
179.1345, 160.8552
179.6166, 162.0653
180.0988, 163.8117
180.5809, 165.1863
181.0630, 164.8827
181.5451, 163.2195
182.0272, 161.4870
182.5093, 160.5510
182.9915, 160.0124
183.4736, 158.8386
183.9557, 156.8427
184.4378, 154.5970
184.9199, 152.6714
185.4020, 151.1048
185.8842, 149.9342
186.3663, 149.5592
186.8484, 149.6774
187.3305, 149.2192
187.8126, 148.0853
188.2947, 146.4010
188.7769, 144.0080
189.2590, 140.9578
189.7411, 138.3373
190.2232, 136.7694
190.7053, 136.1779
191.1874, 136.1267
191.6696, 136.7339
192.1517, 137.5756
192.6338, 137.8471
193.1159, 137.5340
193.5980, 137.0697
194.0801, 136.7738
194.5623, 136.6179
195.0444, 136.1001
195.5265, 135.0700
196.0086, 133.8104
196.4907, 132.9793
196.9728, 132.6289
197.4550, 132.2598
197.9371, 131.4344
198.4192, 130.1385
198.9013, 129.2579
199.3834, 128.8941
199.8655, 128.9587
200.3477, 129.3491
200.8298, 130.1483
201.3119, 130.8926
201.7940, 131.4240
202.2761, 131.7795
202.7582, 131.3875
203.2404, 129.8451
203.7225, 127.7861
204.2046, 127.1400
204.6867, 128.2525
205.1688, 129.5946
205.6509, 130.1847
206.1331, 129.9095
206.6152, 129.6967
207.0973, 129.7269
207.5794, 129.8178
208.0615, 129.1946
208.5436, 127.4428
209.0258, 126.0656
209.5079, 126.3764
209.9900, 128.9964
210.4721, 130.2620
210.9542, 129.4137
211.4363, 127.1718
211.9185, 126.0780
212.4006, 126.5928
212.8827, 127.2552
213.3648, 127.0692
213.8469, 125.6972
214.3290, 124.7434
214.8112, 124.4741
215.2933, 124.6769
215.7754, 124.5830
216.2575, 124.1172
216.7396, 123.4928
217.2217, 122.7585
217.7038, 121.7444
218.1860, 121.1633
218.6681, 121.1782
219.1502, 121.6442
219.6323, 122.0629
220.1144, 122.4630
220.5965, 122.7631
221.0787, 122.9109
221.5608, 122.8868
222.0429, 122.7718
222.5250, 122.5810
223.0071, 122.3035
223.4892, 121.8066
223.9714, 120.6798
224.4535, 119.9728
224.9356, 120.4261
225.4177, 122.8606
225.8998, 124.4235
226.3819, 124.6564
226.8641, 123.9653
227.3462, 123.7220
227.8283, 124.0004
228.3104, 124.6081
228.7925, 125.4643
229.2746, 126.6666
229.7568, 127.9233
230.2389, 129.2210
230.7210, 130.5764
231.2031, 131.9911
231.6852, 133.4057
232.1673, 134.9618
232.6495, 136.7354
233.1316, 138.8307
233.6137, 140.9009
234.0958, 142.8521
234.5779, 144.7682
235.0600, 146.8667
235.5422, 149.2653
236.0243, 151.7120
236.5064, 154.0707
236.9885, 156.1563
237.4706, 158.6045
237.9527, 161.6791
238.4349, 165.0161
238.9170, 167.6197
239.3991, 169.0473
239.8812, 170.4016
240.3633, 172.1259
240.8454, 174.2825
241.3276, 176.7118
241.8097, 179.7635
242.2918, 182.9259
242.7739, 184.9525
243.2560, 185.1414
243.7381, 185.2799
244.2203, 186.0575
244.7024, 187.7097
245.1845, 189.3095
245.6666, 190.6394
246.1487, 192.0183
246.6308, 194.2236
247.1130, 198.0430
247.5951, 201.4037
248.0772, 203.4106
248.5593, 203.5896
249.0414, 204.1588
249.5235, 205.0418
250.0057, 206.3605
250.4878, 208.3887
250.9699, 211.4060
251.4520, 214.6521
251.9341, 217.9197
252.4162, 221.2779
252.8984, 224.3995
253.3805, 227.2723
253.8626, 229.9383
254.3447, 232.2732
254.8268, 233.8783
255.3089, 236.0366
255.7911, 239.1683
256.2732, 243.3900
256.7553, 247.6670
257.2374, 251.8343
257.7195, 256.2416
258.2017, 261.5843
258.6838, 268.8600
259.1659, 274.8081
259.6480, 277.9230
260.1301, 277.9659
260.6122, 281.1464
261.0944, 288.9475
261.5765, 298.0831
262.0586, 304.9482
262.5407, 308.6060
263.0228, 312.5433
263.5049, 317.4536
263.9871, 323.3511
264.4692, 329.4083
264.9513, 335.5845
265.4334, 342.0703
265.9155, 349.3281
266.3976, 357.5503
266.8798, 365.4208
267.3619, 372.4605
267.8440, 378.8758
268.3261, 385.7933
268.8082, 393.1861
269.2903, 401.0988
269.7725, 409.6178
270.2546, 418.7540
270.7367, 427.9607
271.2188, 437.1881
271.7009, 446.3249
272.1830, 455.1294
272.6652, 463.5257
273.1473, 471.6128
273.6294, 479.6047
274.1115, 487.5562
274.5936, 494.9512
275.0757, 501.6947
275.5579, 507.9499
276.0400, 514.2059
276.5221, 520.7025
277.0042, 526.2104
277.4863, 530.1857
277.9684, 532.6572
278.4506, 533.1244
278.9327, 531.4462
279.4148, 527.8900
279.8969, 522.7551
280.3790, 515.9191
280.8611, 508.4046
281.3433, 501.0028
281.8254, 493.6677
282.3075, 484.7576
282.7896, 474.1234
283.2717, 462.0410
283.7538, 448.7448
284.2360, 434.2147
284.7181, 419.0652
285.2002, 403.0910
285.6823, 386.4836
286.1644, 370.9327
286.6465, 356.6148
287.1287, 343.2310
287.6108, 330.7547
288.0929, 319.1385
288.5750, 307.5477
289.0571, 295.5180
289.5392, 283.2113
290.0214, 271.5262
290.5035, 260.5328
290.9856, 249.9649
291.4677, 239.4091
291.9498, 228.9436
292.4319, 219.4357
292.9141, 211.3889
293.3962, 204.2409
293.8783, 196.4621
294.3604, 188.0722
294.8425, 180.1554
295.3246, 173.7289
295.8068, 168.4844
296.2889, 163.5523
296.7710, 158.7722
297.2531, 154.0602
297.7352, 149.2390
298.2173, 144.3634
298.6995, 139.7051
299.1816, 135.2529
299.6637, 131.2031
300.1458, 128.2616
300.6279, 126.8837
301.1100, 125.8475
301.5922, 123.4168
302.0743, 119.9252
302.5564, 116.7389
303.0385, 115.0495
303.5206, 114.0196
304.0027, 112.2964
304.4849, 109.5682
304.9670, 106.7859
305.4491, 104.9289
305.9312, 103.7504
306.4133, 102.6588
306.8954, 101.5574
307.3776, 100.2932
307.8597, 98.57576
308.3418, 96.31950
308.8239, 94.25990
309.3060, 93.04330
309.7881, 92.35221
310.2703, 91.72244
310.7524, 90.89726
311.2345, 90.10255
311.7166, 89.60428
312.1987, 89.38875
312.6808, 89.02805
313.1630, 88.00986
313.6451, 86.81565
314.1272, 85.95772
314.6093, 86.00990
315.0914, 86.06161
315.5735, 85.48315
316.0557, 84.43001
316.5378, 83.73085
317.0199, 84.14951
317.5020, 84.81766
317.9841, 85.07445
318.4662, 84.38276
318.9484, 83.84158
319.4305, 84.09932
319.9126, 84.81091
320.3947, 85.06908
320.8768, 84.07034
321.3589, 82.96222
321.8411, 82.30564
322.3232, 82.27293
322.8053, 82.46259
323.2874, 83.00363
323.7695, 83.68433
324.2516, 84.16943
324.7338, 84.37154
325.2159, 84.40359
325.6980, 84.23297
326.1801, 83.77666
326.6622, 83.49135
327.1443, 83.51370
327.6265, 83.67332
328.1086, 83.80247
328.5907, 84.16490
329.0728, 84.19392
329.5549, 83.66724
330.0370, 82.57511
330.5192, 81.70713
331.0013, 81.25468
331.4834, 80.85822
331.9655, 80.23064
332.4476, 78.98808
332.9297, 78.20346
333.4119, 78.27678
333.8940, 78.91357
334.3761, 78.75423
334.8582, 77.40279
335.3403, 75.89256
335.8224, 74.74202
336.3046, 74.05052
336.7867, 73.39899
337.2688, 72.70851
337.7509, 72.10113
338.2330, 71.91082
338.7151, 72.33566
339.1973, 72.55640
339.6794, 72.16280
340.1615, 71.12132
340.6436, 70.29973
341.1257, 69.73502
341.6078, 69.32958
342.0899, 68.96681
342.5721, 68.65092
343.0542, 68.42359
343.5363, 68.34947
344.0184, 68.37405
344.5005, 68.21796
344.9826, 67.85909
345.4648, 67.49361
345.9469, 67.29602
346.4290, 67.25276
346.9111, 67.28455
347.3932, 67.39166
347.8753, 67.54035
348.3575, 67.72862
348.8396, 67.94007
349.3217, 67.99999
349.8038, 67.76622
350.2859, 67.29120
350.7680, 66.61005
351.2502, 65.63965
351.7323, 64.79984
352.2144, 64.59176
352.6965, 64.91525
353.1786, 65.47488
353.6607, 66.38899
354.1429, 67.33411
354.6250, 67.82212
355.1071, 67.82054
355.5892, 67.81239
356.0713, 68.30957
356.5534, 69.01243
357.0356, 69.47404
357.5177, 69.27348
357.9998, 68.99394
358.4819, 69.04588
358.9640, 69.39158
359.4461, 69.82543
359.9283, 70.56808
360.4104, 71.17641
360.8925, 71.19592
361.3746, 70.01747
361.8567, 69.11810
362.3388, 69.23259
362.8210, 70.07106
363.3031, 70.97544
363.7852, 71.84921
364.2673, 72.65340
364.7494, 73.38539
365.2315, 74.06808
365.7137, 74.59371
366.1958, 74.88610
366.6779, 75.02423
367.1600, 75.10349
367.6421, 75.11732
368.1242, 75.09119
368.6064, 75.02938
369.0885, 74.93124
369.5706, 74.79082
370.0527, 74.36687
370.5348, 74.08626
371.0169, 74.25178
371.4991, 75.22231
371.9812, 76.02840
372.4633, 76.58121
372.9454, 76.92878
373.4275, 77.22410
373.9096, 77.46251
374.3918, 77.66324
374.8739, 77.81450
375.3560, 77.89069
375.8381, 78.04433
376.3202, 78.29012
376.8023, 78.59099
377.2845, 78.92264
377.7666, 79.30749
378.2487, 79.56721
378.7308, 79.53214
379.2129, 79.29082
379.6950, 79.41435
380.1772, 79.89770
380.6593, 80.77377
381.1414, 82.40157
381.6235, 84.64011
382.1056, 86.29268
382.5877, 87.04066
383.0699, 87.15572
383.5520, 87.01030
384.0341, 86.62596
384.5162, 86.23470
384.9983, 85.61571
385.4804, 85.14197
385.9626, 85.82799
386.4447, 87.94903
386.9268, 90.28074
387.4089, 91.46447
387.8910, 91.90577
388.3731, 92.48914
388.8553, 94.12989
389.3374, 95.77000
389.8195, 96.02251
390.3016, 94.97839
390.7837, 94.32256
391.2658, 95.24879
391.7480, 97.05000
392.2301, 99.02142
392.7122, 101.1422
393.1943, 103.1603
393.6764, 105.0395
394.1585, 106.7298
394.6407, 108.0549
395.1228, 108.4317
395.6049, 108.8564
396.0870, 109.8676
396.5691, 111.6748
397.0512, 113.5749
397.5334, 115.4492
398.0155, 117.3485
398.4976, 119.3102
398.9797, 121.6063
399.4618, 123.6923
399.9439, 125.3237
400.4261, 126.5021
400.9082, 128.0358
401.3903, 130.1386
401.8724, 132.3897
402.3545, 134.4319
402.8366, 135.6577
403.3188, 138.0342
403.8009, 142.1789
404.2830, 147.3151
404.7651, 151.3404
405.2472, 153.7427
405.7293, 156.3940
406.2115, 160.2970
406.6936, 165.4757
407.1757, 169.7669
407.6578, 172.9750
408.1399, 175.8567
408.6220, 179.2711
409.1042, 183.2128
409.5863, 187.4830
410.0684, 192.2525
410.5505, 197.1349
411.0326, 201.2429
411.5147, 204.6234
411.9969, 208.1562
412.4790, 212.4816
412.9611, 217.4801
413.4432, 222.9550
413.9253, 229.1040
414.4074, 235.0731
414.8896, 239.7952
415.3717, 243.6420
415.8538, 247.4516
416.3359, 251.1567
416.8180, 255.2740
417.3001, 260.5306
417.7823, 266.9517
418.2644, 273.0483
418.7465, 278.5853
419.2286, 283.2367
419.7107, 286.6049
420.1928, 288.2631
420.6750, 289.1243
421.1571, 289.1432
421.6392, 288.5995
422.1213, 288.2204
422.6034, 288.4488
423.0855, 288.6675
423.5677, 288.6544
424.0498, 288.4010
424.5319, 287.8881
425.0140, 287.5351
425.4961, 286.7218
425.9782, 284.7623
426.4604, 280.4200
426.9425, 276.7539
427.4246, 274.3217
427.9067, 272.9616
428.3888, 271.7288
428.8709, 270.7353
429.3531, 269.6784
429.8352, 268.1562
430.3173, 265.8795
430.7994, 264.7927
431.2815, 265.1416
431.7636, 266.3685
432.2458, 267.7415
432.7279, 269.2784
433.2100, 270.5696
433.6921, 271.1896
434.1742, 271.4946
434.6563, 272.8299
435.1385, 275.2263
435.6206, 278.0953
436.1027, 280.9289
436.5848, 283.8443
437.0669, 287.2125
437.5490, 291.2162
438.0312, 295.4372
438.5133, 299.2964
438.9954, 303.0111
439.4775, 307.1790
439.9596, 311.9338
440.4417, 317.3959
440.9239, 323.8840
441.4060, 331.4190
441.8881, 339.1429
442.3702, 346.4271
442.8523, 353.6367
443.3344, 361.1828
443.8166, 369.3082
444.2987, 377.6169
444.7808, 386.0092
445.2629, 394.4912
445.7450, 403.1578
446.2271, 411.3393
446.7093, 420.0910
447.1914, 430.1475
447.6735, 442.4416
448.1556, 452.9523
448.6377, 459.5987
449.1198, 465.7555
449.6020, 475.1185
450.0841, 489.4770
450.5662, 502.9210
451.0483, 514.6337
451.5304, 524.7939
452.0125, 533.7635
452.4947, 541.3740
452.9768, 548.5461
453.4589, 555.9717
453.9410, 563.7278
454.4231, 570.5584
454.9052, 576.4026
455.3874, 581.7344
455.8695, 586.9535
456.3516, 592.1683
456.8337, 598.0944
457.3158, 605.7511
457.7979, 613.6773
458.2801, 618.9501
458.7622, 621.8514
459.2443, 624.5157
459.7264, 628.5974
460.2085, 633.2172
460.6906, 636.8798
461.1728, 639.0355
461.6549, 641.8334
462.1370, 647.7560
462.6191, 655.0641
463.1012, 661.0720
463.5833, 664.2348
464.0655, 666.4098
464.5476, 668.2321
465.0297, 669.7077
465.5118, 670.7977
465.9939, 671.7499
466.4760, 672.0809
466.9582, 671.6388
467.4403, 671.3319
467.9224, 668.4933
468.4045, 661.8915
468.8866, 653.3017
469.3687, 645.2739
469.8509, 639.3824
470.3330, 631.4468
470.8151, 620.4233
471.2972, 606.4760
471.7793, 591.1226
472.2614, 573.9538
472.7436, 556.0939
473.2257, 538.1802
473.7078, 520.1382
474.1899, 501.9734
474.6720, 483.4317
475.1541, 465.1377
475.6363, 448.2860
476.1184, 432.6628
476.6005, 416.8927
477.0826, 400.0187
477.5647, 382.9347
478.0468, 366.6106
478.5290, 351.0700
479.0111, 336.5304
479.4932, 323.1332
479.9753, 310.8280
480.4574, 299.7022
480.9395, 290.0011
481.4217, 280.6247
481.9038, 271.2047
482.3859, 261.7682
482.8680, 252.4718
483.3501, 242.4461
483.8322, 233.4606
484.3144, 226.6275
484.7965, 221.8469
485.2786, 216.6233
485.7607, 209.8176
486.2428, 203.1615
486.7249, 197.5399
487.2071, 193.5920
487.6892, 189.4407
488.1713, 184.9878
488.6534, 180.4102
489.1355, 175.8268
489.6176, 171.0709
490.0998, 166.7493
490.5819, 162.9785
491.0640, 159.6935
491.5461, 156.7830
492.0282, 154.3019
492.5103, 151.6936
492.9925, 148.3766
493.4746, 144.5188
493.9567, 141.2501
494.4388, 138.6245
494.9209, 136.4617
495.4030, 134.7162
495.8852, 133.2550
496.3673, 131.6981
496.8494, 129.9120
497.3315, 127.9752
497.8136, 125.7407
498.2957, 123.3335
498.7779, 121.3676
499.2600, 120.4852
499.7421, 119.9089
500.2242, 119.0893
500.7063, 117.8908
501.1884, 116.7200
501.6706, 115.8682
502.1527, 115.0387
502.6348, 113.9454
503.1169, 111.8583
503.5990, 110.3558
504.0811, 110.0277
504.5633, 110.4590
505.0454, 110.0398
505.5275, 108.3360
506.0096, 106.5419
506.4917, 105.1714
506.9738, 104.2641
507.4560, 103.0635
507.9381, 101.4217
508.4202, 99.88277
508.9023, 99.13999
509.3844, 99.14146
509.8665, 99.00258
510.3487, 98.57915
510.8308, 97.90756
511.3129, 96.90718
511.7950, 95.65889
512.2772, 94.53902
512.7593, 93.67696
513.2414, 93.09144
513.7235, 92.96783
514.2056, 93.27433
514.6877, 93.37931
515.1699, 92.68644
515.6520, 91.70609
516.1341, 90.93365
516.6162, 90.65309
517.0983, 90.23576
517.5804, 89.07111
518.0626, 87.71232
518.5447, 87.06718
519.0268, 88.24490
519.5089, 89.11674
519.9910, 89.14431
520.4731, 88.37849
520.9553, 87.56829
521.4374, 86.70094
521.9195, 85.82316
522.4016, 84.83966
522.8837, 83.59865
523.3658, 83.24059
523.8480, 84.06007
524.3301, 85.15932
524.8122, 85.21089
525.2943, 84.28707
525.7764, 83.53654
526.2585, 83.31615
526.7407, 83.39050
527.2228, 83.33777
527.7049, 83.18277
528.1870, 83.07079
528.6691, 83.26492
529.1512, 83.45808
529.6334, 83.23633
530.1155, 82.55749
530.5976, 81.82428
531.0797, 81.21323
531.5618, 80.68709
532.0439, 80.21139
532.5261, 79.69923
533.0082, 79.33850
533.4903, 79.34516
533.9724, 79.51686
534.4545, 79.41577
534.9366, 78.59331
535.4188, 77.97148
535.9009, 77.84838
536.3830, 78.20878
536.8651, 78.34832
537.3472, 78.20901
537.8293, 77.96761
538.3115, 77.70026
538.7936, 77.39726
539.2757, 77.25414
539.7578, 77.32092
540.2399, 77.43813
540.7220, 77.37957
541.2042, 77.17229
541.6863, 76.94939
542.1684, 76.66087
542.6505, 76.48274
543.1326, 76.81004
543.6147, 77.50823
544.0969, 78.07355
544.5790, 78.26284
545.0611, 78.14769
545.5432, 77.67879
546.0253, 76.83624
546.5074, 76.08043
546.9896, 75.31630
547.4717, 74.89095
547.9538, 75.10806
548.4359, 76.98477
548.9180, 78.17833
549.4001, 77.99619
549.8823, 77.19192
550.3644, 77.08471
550.8465, 78.17480
551.3286, 79.01772
551.8107, 79.21510
552.2928, 78.84912
552.7750, 78.53636
553.2571, 78.30708
553.7392, 77.97843
554.2213, 77.21999
554.7034, 76.18750
555.1855, 75.87502
555.6677, 76.40434
556.1498, 77.09117
556.6319, 77.24144
557.1140, 77.00845
557.5961, 76.66756
558.0782, 76.15951
558.5604, 75.80068
559.0425, 75.83560
559.5246, 76.21471
560.0067, 76.83470
560.4888, 78.09276
560.9709, 79.17879
561.4531, 79.65523
561.9352, 79.51283
562.4173, 79.30927
562.8994, 78.86137
563.3815, 78.58440
563.8636, 78.72615
564.3458, 79.51351
564.8279, 80.10431
565.3100, 80.45666
565.7921, 80.67460
566.2742, 80.88518
566.7563, 81.09506
567.2385, 81.20677
567.7206, 81.08888
568.2027, 80.99996
568.6848, 81.73509
569.1669, 83.16738
569.6490, 84.27039
570.1312, 84.04341
570.6133, 83.37325
571.0954, 83.66650
571.5775, 84.89657
572.0596, 86.11827
572.5417, 87.01386
573.0239, 87.47717
573.5060, 87.23298
573.9881, 85.76405
574.4702, 84.89330
574.9523, 85.49963
575.4344, 86.87544
575.9166, 88.12344
576.3987, 89.38191
576.8808, 90.23220
577.3629, 90.36820
577.8450, 90.09579
578.3271, 90.47406
578.8093, 91.68507
579.2914, 93.00188
579.7735, 94.16262
580.2556, 95.16048
580.7377, 95.96573
581.2198, 96.54017
581.7020, 97.29160
582.1841, 98.86539
582.6662, 100.8380
583.1483, 102.0665
583.6304, 102.2375
584.1125, 102.4595
584.5947, 103.9885
585.0768, 106.1231
585.5589, 107.8232
586.0410, 107.9864
586.5231, 108.4902
587.0052, 110.3687
587.4873, 113.2065
587.9694, 115.8462
588.4515, 118.3412
588.9337, 120.3369
589.4158, 121.4238
589.8979, 121.5915
590.3800, 122.8441
590.8621, 125.5965
591.3442, 128.7095
591.8264, 131.3831
592.3085, 133.5746
592.7906, 136.2721
593.2727, 139.6498
593.7548, 143.0290
594.2369, 145.2924
594.7191, 146.8456
595.2012, 149.2925
595.6833, 153.3604
596.1654, 157.8362
596.6475, 161.3671
597.1296, 164.2542
597.6118, 167.2787
598.0939, 170.5996
598.5760, 174.3221
599.0581, 178.7489
599.5402, 183.7222
600.0223, 188.4975
600.5045, 192.9750
600.9866, 197.1447
601.4687, 200.8673
601.9508, 203.8119
602.4329, 207.9110
602.9150, 213.8187
603.3972, 219.9367
603.8793, 224.5192
604.3614, 227.3420
604.8435, 231.4285
605.3256, 237.4087
605.8077, 244.0162
606.2899, 249.3295
606.7720, 253.4896
607.2541, 256.8663
607.7362, 258.9323
608.2183, 260.9815
608.7004, 265.3693
609.1826, 271.2371
