##NAMES=Chamosite
##RRUFFID=R060188
##IDEAL CHEMISTRY=Fe^2+^_5_Al(AlSi_3_)O_10_(OH)_8_
##LOCALITY=Slesse Creek, Chilliwack, British Columbia, Canada
##OWNER=RRUFF
##SOURCE=Lloyd Twaites
##DESCRIPTION=Brown hexagonal tablets with curved prism faces
##STATUS=The identification of this mineral has been confirmed by X-ray diffraction and chemical analysis
##URL=rruff.info/R060188
##MEASURED CHEMISTRY=(Fe^2+^_2.53_Mg_2.15_Al_0.30_Mn_0.02_)_Î£=5_Al_1.00_(Si_2.70_Al_1.30_)O_10_(OH)_8_
92.02539, 101.4921
92.50751, 102.5954
92.98962, 103.8524
93.47174, 103.9317
93.95386, 103.4788
94.43597, 102.2221
94.91809, 100.0811
95.40021, 97.40009
95.88232, 94.90860
96.36444, 92.57623
96.84656, 90.48690
97.32867, 88.79349
97.81078, 87.37621
98.29290, 86.04026
98.77502, 84.57738
99.25713, 82.83955
99.73925, 81.17692
100.2214, 79.61217
100.7035, 78.09702
101.1856, 76.50517
101.6677, 74.86512
102.1498, 73.39043
102.6320, 72.34412
103.1141, 71.84386
103.5962, 71.57014
104.0783, 71.71518
104.5604, 71.99690
105.0425, 72.12618
105.5247, 72.02422
106.0068, 71.71459
106.4889, 71.21297
106.9710, 70.54616
107.4531, 69.70570
107.9352, 68.58459
108.4173, 67.23555
108.8995, 65.92688
109.3816, 64.61960
109.8637, 63.51503
110.3458, 62.85084
110.8279, 62.71562
111.3100, 62.76791
111.7922, 62.51894
112.2743, 61.76982
112.7564, 61.38046
113.2385, 61.87835
113.7206, 62.68256
114.2027, 63.33521
114.6849, 63.63610
115.1670, 63.63042
115.6491, 63.45946
116.1312, 62.87482
116.6133, 62.40488
117.0954, 62.26553
117.5776, 62.27970
118.0597, 62.12447
118.5418, 61.52946
119.0239, 60.47863
119.5060, 60.11159
119.9881, 60.77779
120.4703, 61.63964
120.9524, 62.47099
121.4345, 63.21781
121.9166, 63.85978
122.3987, 64.40997
122.8808, 64.85322
123.3630, 64.89857
123.8451, 64.22538
124.3272, 63.31720
124.8093, 62.65289
125.2914, 62.32283
125.7735, 62.11978
126.2557, 61.90420
126.7378, 61.66862
127.2199, 61.24374
127.7020, 60.39528
128.1841, 59.27937
128.6662, 58.44918
129.1483, 58.22556
129.6305, 58.01392
130.1126, 57.31390
130.5947, 56.16161
131.0768, 54.94667
131.5589, 54.01143
132.0410, 53.39212
132.5232, 52.76051
133.0053, 51.99449
133.4874, 51.25785
133.9695, 50.62778
134.4516, 50.12202
134.9337, 49.72781
135.4159, 49.43658
135.8980, 49.32288
136.3801, 49.17367
136.8622, 48.92511
137.3443, 48.66884
137.8264, 48.55450
138.3086, 48.62846
138.7907, 48.72874
139.2728, 48.40526
139.7549, 47.05950
140.2370, 45.95899
140.7191, 45.26551
141.2013, 44.86039
141.6834, 44.57021
142.1655, 44.30863
142.6476, 44.09576
143.1297, 44.02546
143.6118, 44.34882
144.0939, 44.52995
144.5761, 44.25689
145.0582, 43.61245
145.5403, 42.96950
146.0224, 42.52542
146.5045, 42.26480
146.9866, 42.06980
147.4688, 41.96974
147.9509, 41.90808
148.4330, 41.85774
148.9151, 41.83081
149.3972, 41.73716
149.8793, 41.33192
150.3615, 40.86037
150.8436, 40.68268
151.3257, 41.15224
151.8078, 41.88522
152.2899, 41.92963
152.7720, 40.85280
153.2542, 39.82620
153.7363, 39.31968
154.2184, 39.16467
154.7005, 39.10908
155.1826, 39.00942
155.6647, 38.87354
156.1469, 38.78646
156.6290, 38.80756
157.1111, 38.82351
157.5932, 38.75772
158.0753, 38.65910
158.5574, 38.64842
159.0396, 38.86208
159.5217, 39.35821
160.0038, 39.52602
160.4859, 38.98213
160.9680, 38.49974
161.4501, 38.50971
161.9323, 38.94706
162.4144, 39.40057
162.8965, 39.43565
163.3786, 38.92072
163.8607, 38.50590
164.3428, 38.09760
164.8250, 37.83941
165.3071, 37.91161
165.7892, 38.32560
166.2713, 38.83525
166.7534, 39.16862
167.2355, 39.31195
167.7177, 39.33748
168.1998, 39.23120
168.6819, 39.01780
169.1640, 38.64158
169.6461, 38.02027
170.1282, 37.50352
170.6104, 37.63192
171.0925, 38.32040
171.5746, 39.03630
172.0567, 39.64146
172.5388, 40.12185
173.0209, 40.40678
173.5031, 40.37589
173.9852, 40.28917
174.4673, 40.37415
174.9494, 40.61864
175.4315, 40.91651
175.9136, 41.19794
176.3958, 41.46453
176.8779, 41.75050
177.3600, 42.08970
177.8421, 42.42547
178.3242, 42.70937
178.8063, 42.94687
179.2885, 43.19030
179.7706, 43.48296
180.2527, 43.81749
180.7348, 44.24236
181.2169, 44.91640
181.6990, 45.56601
182.1812, 45.95998
182.6633, 46.10316
183.1454, 46.24538
183.6275, 46.77550
184.1096, 47.97627
184.5917, 48.97265
185.0738, 49.57171
185.5560, 50.12740
186.0381, 50.92648
186.5202, 52.02473
187.0023, 53.22432
187.4844, 54.18251
187.9665, 54.75374
188.4487, 55.28493
188.9308, 55.53688
189.4129, 55.86078
189.8950, 56.69373
190.3771, 58.16695
190.8592, 59.89852
191.3414, 61.12692
191.8235, 61.52940
192.3056, 62.03088
192.7877, 62.77496
193.2698, 63.65372
193.7519, 64.49126
194.2341, 65.20277
194.7162, 65.94038
195.1983, 67.16158
195.6804, 69.11728
196.1625, 70.64598
196.6446, 71.09447
197.1268, 70.86137
197.6089, 70.89079
198.0910, 71.59681
198.5731, 72.53567
199.0552, 73.01903
199.5373, 73.03004
200.0195, 72.84275
200.5016, 72.62605
200.9837, 72.34711
201.4658, 71.80201
201.9479, 70.71138
202.4300, 69.54385
202.9122, 68.94389
203.3943, 68.99197
203.8764, 68.89738
204.3585, 67.94850
204.8406, 66.14960
205.3227, 64.31861
205.8048, 62.51098
206.2870, 60.85893
206.7691, 59.53037
207.2512, 58.54040
207.7333, 57.62211
208.2154, 56.45368
208.6975, 54.96313
209.1797, 53.65235
209.6618, 52.68732
210.1439, 51.87523
210.6260, 51.16996
211.1081, 50.54871
211.5902, 49.94967
212.0724, 49.28378
212.5545, 48.52075
213.0366, 47.79538
213.5187, 47.19963
214.0008, 46.58593
214.4829, 45.80657
214.9651, 44.85939
215.4472, 43.90358
215.9293, 43.19761
216.4114, 42.93032
216.8935, 42.52439
217.3756, 41.88972
217.8578, 41.20226
218.3399, 40.49794
218.8220, 39.82261
219.3041, 39.30346
219.7862, 39.18583
220.2683, 39.94805
220.7505, 40.15473
221.2326, 39.36415
221.7147, 38.35795
222.1968, 37.73690
222.6789, 37.64151
223.1610, 37.82030
223.6432, 37.91883
224.1253, 37.96332
224.6074, 37.82850
225.0895, 37.25341
225.5716, 36.64419
226.0537, 36.44635
226.5358, 36.75031
227.0180, 37.19091
227.5001, 37.25405
227.9822, 36.81354
228.4643, 36.35706
228.9464, 35.79916
229.4285, 35.29064
229.9107, 35.04189
230.3928, 35.10575
230.8749, 35.27594
231.3570, 35.28823
231.8391, 35.12788
232.3212, 34.98853
232.8034, 34.80095
233.2855, 34.68867
233.7676, 34.89539
234.2497, 35.51553
234.7318, 36.15363
235.2139, 36.32175
235.6961, 36.08039
236.1782, 35.77796
236.6603, 35.38505
237.1424, 35.01743
237.6245, 34.90467
238.1066, 35.14375
238.5888, 35.40282
239.0709, 35.32652
239.5530, 35.00676
240.0351, 34.70199
240.5172, 34.32594
240.9993, 34.05520
241.4815, 34.32008
241.9636, 35.10312
242.4457, 35.32026
242.9278, 35.43782
243.4099, 35.46116
243.8920, 35.10805
244.3742, 35.24104
244.8563, 35.17922
245.3384, 35.10941
245.8205, 35.31082
246.3026, 35.01245
246.7847, 35.20956
247.2668, 35.15261
247.7490, 35.01277
248.2311, 34.77940
248.7132, 34.47033
249.1953, 34.12067
249.6774, 33.72599
250.1595, 33.29725
250.6417, 32.83504
251.1238, 32.34932
251.6059, 31.82113
252.0880, 31.18207
252.5701, 30.57001
253.0522, 30.39293
253.5344, 30.97290
254.0165, 31.35425
254.4986, 31.16636
254.9807, 30.69376
255.4628, 30.20162
255.9449, 29.78628
256.4271, 29.48423
256.9092, 29.40935
257.3913, 29.72003
257.8734, 29.96229
258.3555, 30.16009
258.8376, 29.96349
259.3198, 29.95401
259.8019, 29.84499
260.2840, 29.64175
260.7661, 29.06204
261.2482, 28.96845
261.7303, 29.85386
262.2125, 30.50547
262.6946, 30.86541
263.1767, 30.69471
263.6588, 29.95370
264.1409, 29.02961
264.6230, 28.64341
265.1052, 29.20697
265.5873, 29.51526
266.0694, 29.40320
266.5515, 29.13407
267.0336, 28.79742
267.5157, 28.45785
267.9979, 28.26562
268.4800, 28.51346
268.9621, 29.64087
269.4442, 30.22727
269.9263, 29.87475
270.4084, 29.38536
270.8906, 29.31093
271.3727, 29.70248
271.8548, 30.21074
272.3369, 30.40646
272.8190, 30.17843
273.3011, 29.99146
273.7833, 29.83018
274.2654, 29.71314
274.7475, 29.68749
275.2296, 29.73145
275.7117, 29.75454
276.1938, 29.65554
276.6760, 29.39687
277.1581, 29.25208
277.6402, 29.27767
278.1223, 29.33566
278.6044, 29.41545
279.0865, 29.48147
279.5686, 29.43600
280.0508, 29.17026
280.5329, 28.67418
281.0150, 28.46754
281.4971, 28.85815
281.9792, 29.16437
282.4613, 28.94836
282.9435, 28.43155
283.4256, 28.01620
283.9077, 28.28405
284.3898, 28.45232
284.8719, 28.52637
285.3540, 28.22396
285.8362, 28.40767
286.3183, 28.39656
286.8004, 28.37747
287.2825, 28.62959
287.7646, 28.38193
288.2467, 28.62975
288.7289, 27.95841
289.2110, 28.29048
289.6931, 28.59558
290.1752, 28.74148
290.6573, 28.76752
291.1394, 28.69384
291.6216, 28.52090
292.1037, 28.32840
292.5858, 28.29349
293.0679, 28.55450
293.5500, 28.70571
294.0321, 28.74738
294.5143, 28.64304
294.9964, 28.24747
295.4785, 27.52355
295.9606, 26.80057
296.4427, 26.58199
296.9248, 27.12183
297.4070, 27.41003
297.8891, 27.21708
298.3712, 26.87570
298.8533, 26.66704
299.3354, 26.63609
299.8175, 26.68057
300.2997, 26.69716
300.7818, 26.67653
301.2639, 26.72156
301.7460, 26.95905
302.2281, 27.16189
302.7102, 27.11748
303.1924, 26.85184
303.6745, 26.62093
304.1566, 26.64284
304.6387, 26.89948
305.1208, 26.99339
305.6029, 26.70911
306.0851, 26.48568
306.5672, 26.64279
307.0493, 27.06672
307.5314, 27.36877
308.0135, 27.30693
308.4956, 26.97288
308.9778, 26.77338
309.4599, 26.76925
309.9420, 26.79481
310.4241, 26.85425
310.9062, 26.90272
311.3883, 26.84081
311.8705, 26.61906
312.3526, 26.29452
312.8347, 25.97154
313.3168, 25.56775
313.7989, 25.34226
314.2810, 25.46100
314.7632, 25.74759
315.2453, 25.98849
315.7274, 26.12735
316.2095, 26.18439
316.6916, 26.18043
317.1737, 26.11012
317.6559, 25.99277
318.1380, 25.68803
318.6201, 25.42083
319.1022, 25.47756
319.5843, 25.87432
320.0664, 26.27358
320.5485, 26.34565
321.0306, 26.05507
321.5128, 25.85988
321.9949, 25.69278
322.4770, 25.67101
322.9591, 26.05673
323.4412, 26.73077
323.9233, 27.12296
324.4055, 26.77053
324.8876, 25.81699
325.3697, 25.33701
325.8518, 25.78051
326.3339, 26.13068
326.8160, 25.84937
327.2982, 25.19734
327.7803, 24.75711
328.2624, 24.81304
328.7445, 25.20550
329.2266, 25.53280
329.7087, 25.87967
330.1909, 26.03037
330.6730, 25.78073
331.1551, 25.36863
331.6372, 25.11221
332.1193, 25.10518
332.6014, 25.21257
333.0836, 25.25990
333.5657, 25.26368
334.0478, 25.12254
334.5299, 24.54634
335.0120, 24.01125
335.4941, 23.99137
335.9763, 24.50382
336.4584, 25.14482
336.9405, 25.57433
337.4226, 25.78113
337.9047, 25.70680
338.3868, 24.97305
338.8690, 24.34332
339.3511, 24.30151
339.8332, 24.71633
340.3153, 25.15014
340.7974, 25.33835
341.2795, 25.30587
341.7617, 25.19294
342.2438, 24.76254
342.7259, 24.54029
343.2080, 24.89365
343.6901, 25.46901
344.1722, 25.68881
344.6544, 25.30746
345.1365, 24.61227
345.6186, 24.19405
346.1007, 24.17673
346.5828, 24.29121
347.0649, 24.64895
347.5471, 25.07267
348.0292, 25.45179
348.5113, 25.74513
348.9934, 25.90655
349.4755, 25.86140
349.9576, 25.54434
350.4398, 25.27918
350.9219, 24.92626
351.4040, 24.73728
351.8861, 24.95507
352.3682, 25.47733
352.8503, 25.99845
353.3325, 26.29329
353.8146, 26.36933
354.2967, 26.33889
354.7788, 26.19327
355.2609, 25.95264
355.7430, 25.47668
356.2252, 24.94534
356.7073, 24.61084
357.1894, 24.59550
357.6715, 24.80720
358.1536, 25.02769
358.6357, 25.38502
359.1179, 25.53842
359.5999, 25.39324
360.0821, 25.11131
360.5642, 24.77815
361.0463, 24.43206
361.5284, 24.12457
362.0105, 23.90184
362.4926, 23.73239
362.9748, 23.78319
363.4569, 24.43386
363.9390, 24.93783
364.4211, 24.79740
364.9032, 24.20841
365.3853, 23.75540
365.8675, 23.92129
366.3496, 24.61953
366.8317, 25.02075
367.3138, 24.99924
367.7959, 24.80506
368.2780, 24.36021
368.7602, 23.83074
369.2423, 23.38497
369.7244, 23.09317
370.2065, 22.97271
370.6886, 23.14590
371.1707, 23.88698
371.6529, 24.21036
372.1350, 23.55474
372.6171, 22.76932
373.0992, 22.43506
373.5813, 22.61505
374.0634, 22.93289
374.5456, 23.03411
375.0277, 22.91305
375.5098, 22.68981
375.9919, 22.16578
376.4740, 21.77159
376.9561, 21.79799
377.4383, 22.10038
377.9204, 22.33894
378.4025, 22.29061
378.8846, 22.06244
379.3667, 21.94852
379.8488, 21.96749
380.3310, 22.05569
380.8131, 22.40462
381.2952, 22.71343
381.7773, 22.58750
382.2594, 21.85441
382.7415, 21.01191
383.2237, 20.61769
383.7058, 20.66801
384.1879, 20.75694
384.6700, 20.75924
385.1521, 20.80946
385.6342, 21.12035
386.1164, 21.65897
386.5985, 22.00013
387.0806, 21.76481
387.5627, 21.17441
388.0448, 20.74878
388.5269, 20.54519
389.0091, 20.45556
389.4912, 20.43069
389.9733, 20.46150
390.4554, 20.54116
390.9375, 20.73174
391.4196, 20.91266
391.9018, 20.88778
392.3839, 20.69568
392.8660, 20.74129
393.3481, 21.37122
393.8302, 22.17594
394.3123, 22.32649
394.7945, 21.65645
395.2766, 20.66669
395.7587, 20.88230
396.2408, 20.99833
396.7229, 21.02013
397.2050, 20.66549
397.6872, 20.79694
398.1693, 20.73359
398.6514, 20.66225
399.1335, 20.86213
399.6156, 20.56223
400.0977, 21.31110
400.5798, 21.32293
401.0620, 20.96857
401.5441, 20.58307
402.0262, 20.35751
402.5083, 20.27774
402.9904, 20.28747
403.4725, 20.51149
403.9547, 20.65710
404.4368, 20.64620
404.9189, 20.53573
405.4010, 20.33334
405.8831, 20.05445
406.3652, 19.86582
406.8474, 20.06466
407.3295, 20.96172
407.8116, 21.30947
408.2937, 20.72391
408.7758, 19.99970
409.2579, 19.47296
409.7401, 19.19851
410.2222, 19.17939
410.7043, 19.45811
411.1864, 19.97509
411.6685, 20.21060
412.1506, 19.84829
412.6328, 19.58072
413.1149, 19.51166
413.5970, 19.58603
414.0791, 19.77057
414.5612, 20.04699
415.0433, 20.34223
415.5255, 20.55552
416.0076, 20.69779
416.4897, 20.72075
416.9718, 20.53627
417.4539, 20.30146
417.9360, 20.08802
418.4182, 19.88840
418.9003, 19.64628
419.3824, 19.24449
419.8645, 18.77418
420.3466, 18.68231
420.8287, 19.16104
421.3109, 19.62185
421.7930, 19.79528
422.2751, 19.83662
422.7572, 19.93735
423.2393, 20.17549
423.7214, 20.35891
424.2036, 20.24476
424.6857, 19.84388
425.1678, 19.39740
425.6499, 18.75848
426.1320, 18.36014
426.6141, 18.74144
427.0963, 19.79312
427.5784, 20.66264
428.0605, 20.95275
428.5426, 20.86193
429.0247, 20.64860
429.5068, 20.31953
429.9890, 19.94607
430.4711, 19.52190
430.9532, 19.10419
431.4353, 18.84695
431.9174, 18.80058
432.3995, 18.84028
432.8817, 18.90299
433.3638, 19.00668
433.8459, 19.21946
434.3280, 19.57569
434.8101, 19.95667
435.2922, 20.21044
435.7744, 20.33043
436.2565, 20.30140
436.7386, 20.06281
437.2207, 19.72248
437.7028, 19.20322
438.1849, 18.61364
438.6671, 18.33969
439.1492, 18.68970
439.6313, 19.51869
440.1134, 19.96557
440.5955, 19.63810
441.0776, 19.40771
441.5598, 19.52153
442.0418, 19.69891
442.5240, 19.58616
443.0061, 19.12127
443.4882, 18.59998
443.9703, 18.42870
444.4524, 18.70172
444.9345, 18.88077
445.4167, 18.82737
445.8988, 18.81583
446.3809, 18.99532
446.8630, 19.28385
447.3451, 19.53293
447.8272, 19.66944
448.3094, 19.68178
448.7915, 19.47231
449.2736, 18.87064
449.7557, 18.53734
450.2378, 18.84545
450.7199, 19.34066
451.2021, 19.80030
451.6842, 20.17264
452.1663, 20.32878
452.6484, 20.03263
453.1305, 19.40331
453.6126, 18.95306
454.0948, 18.69468
454.5769, 18.66656
455.0590, 19.11722
455.5411, 19.79088
456.0232, 20.23178
456.5053, 20.27464
456.9875, 20.14551
457.4696, 19.94084
457.9517, 19.69979
458.4338, 19.64420
458.9159, 19.92939
459.3980, 20.26888
459.8802, 20.13182
460.3623, 19.45607
460.8444, 19.03507
461.3265, 19.08424
461.8086, 19.39747
462.2907, 19.97776
462.7729, 20.72218
463.2550, 21.14644
463.7371, 20.85117
464.2192, 20.00488
464.7013, 19.57866
465.1834, 19.77046
465.6656, 20.09613
466.1477, 20.73075
466.6298, 21.34698
467.1119, 21.55112
467.5940, 21.27476
468.0761, 20.77977
468.5583, 20.33320
469.0404, 19.88610
469.5225, 19.79217
470.0046, 20.52150
470.4867, 21.12027
470.9688, 21.28835
471.4510, 21.13144
471.9331, 20.78592
472.4152, 20.28793
472.8973, 19.81842
473.3794, 19.79896
473.8615, 20.38121
474.3437, 20.76783
474.8258, 20.76545
475.3079, 20.54718
475.7900, 20.06806
476.2721, 19.41290
476.7542, 18.94259
477.2364, 19.05868
477.7185, 19.48081
478.2006, 19.52130
478.6827, 19.11105
479.1648, 18.71217
479.6469, 18.49871
480.1291, 18.48497
480.6112, 18.72191
481.0933, 19.34971
481.5754, 19.84054
482.0575, 19.82620
482.5396, 19.51647
483.0217, 19.26727
483.5038, 19.14529
483.9860, 19.15911
484.4681, 19.38065
484.9502, 19.81626
485.4323, 19.95646
485.9144, 19.55841
486.3965, 19.14283
486.8787, 18.88600
487.3608, 18.77365
487.8429, 18.81375
488.3250, 19.00848
488.8071, 19.20510
489.2892, 19.10704
489.7714, 18.49713
490.2535, 18.12625
490.7356, 17.98903
491.2177, 18.05186
491.6998, 18.47332
492.1819, 19.08272
492.6641, 19.49773
493.1462, 19.45458
493.6283, 19.10111
494.1104, 18.85552
494.5925, 18.72834
495.0746, 18.68247
495.5568, 18.76172
496.0389, 18.88461
496.5210, 19.03823
497.0031, 19.20481
497.4852, 19.28103
497.9673, 19.12421
498.4495, 18.82594
498.9316, 18.64840
499.4137, 18.61959
499.8958, 18.61456
500.3779, 18.49373
500.8600, 18.37810
501.3422, 18.53767
501.8243, 19.15071
502.3064, 19.67912
502.7885, 19.86109
503.2706, 19.77875
503.7527, 19.49112
504.2349, 19.00606
504.7170, 18.62977
505.1991, 18.72286
505.6812, 19.32414
506.1633, 19.57401
506.6454, 19.12002
507.1276, 18.74689
507.6097, 18.80967
508.0918, 19.12051
508.5739, 19.40484
509.0560, 19.55554
509.5381, 19.58543
510.0203, 19.49802
510.5024, 19.24693
510.9845, 19.03732
511.4666, 18.85276
511.9487, 18.72701
512.4308, 18.69725
512.9130, 18.73375
513.3951, 18.77618
513.8772, 18.78959
514.3593, 18.80800
514.8414, 18.91490
515.3235, 19.12999
515.8057, 19.28479
516.2878, 19.31993
516.7699, 19.30083
517.2520, 19.26053
517.7341, 19.20837
518.2162, 19.20288
518.6984, 19.34955
519.1805, 19.51005
519.6626, 19.46217
520.1447, 19.22124
520.6268, 19.03954
521.1089, 19.05385
521.5911, 19.17923
522.0732, 19.19645
522.5553, 19.00262
523.0374, 19.00863
523.5195, 19.50610
524.0016, 20.07545
524.4838, 20.25628
524.9659, 20.10115
525.4480, 20.07451
525.9301, 20.54048
526.4122, 21.36781
526.8943, 21.88023
527.3765, 21.76400
527.8586, 21.76618
528.3407, 22.02122
528.8228, 22.36390
529.3049, 22.64314
529.7870, 22.85415
530.2692, 23.10962
530.7513, 23.48879
531.2334, 23.99395
531.7155, 24.72513
532.1976, 25.91041
532.6797, 26.78161
533.1619, 26.56738
533.6440, 26.09060
534.1261, 26.21247
534.6082, 27.10507
535.0903, 28.22221
535.5724, 29.25181
536.0546, 30.24578
536.5367, 31.36527
537.0188, 32.64308
537.5009, 33.86929
537.9830, 34.91261
538.4651, 35.76538
538.9473, 36.41827
539.4294, 36.67998
539.9115, 37.00386
540.3936, 37.40948
540.8757, 37.99779
541.3578, 39.03872
541.8400, 40.51320
542.3221, 41.93566
542.8042, 42.77516
543.2863, 43.02031
543.7684, 43.39537
544.2505, 44.08052
544.7326, 44.67794
545.2147, 45.32441
545.6968, 45.73948
546.1790, 45.59758
546.6611, 44.82866
547.1432, 43.65985
547.6253, 42.22789
548.1074, 40.55767
548.5895, 39.01738
549.0717, 37.68580
549.5538, 36.35163
550.0359, 34.76110
550.5180, 33.12289
551.0001, 31.78043
551.4822, 30.90657
551.9644, 30.05724
552.4465, 28.90654
552.9286, 27.58774
553.4107, 26.32313
553.8928, 25.15231
554.3749, 24.17573
554.8571, 23.50705
555.3392, 23.13873
555.8213, 22.80820
556.3034, 22.71376
556.7855, 22.41264
557.2676, 21.45662
557.7498, 20.38978
558.2319, 19.99293
558.7140, 20.37536
559.1961, 20.86017
559.6782, 20.66806
560.1603, 19.79099
560.6425, 19.10011
561.1246, 18.67732
561.6067, 18.34035
562.0888, 17.97337
562.5709, 17.67669
563.0530, 17.56682
563.5352, 17.67398
564.0173, 17.92053
564.4994, 18.37515
564.9815, 18.92206
565.4636, 19.14998
565.9457, 18.98355
566.4279, 18.68642
566.9100, 18.37259
567.3921, 18.07515
567.8742, 17.90143
568.3563, 17.98583
568.8384, 17.97006
569.3206, 17.60998
569.8027, 17.14546
570.2848, 16.92028
570.7669, 16.95440
571.2490, 16.92850
571.7311, 16.52335
572.2133, 15.80476
572.6954, 15.52547
573.1775, 16.22577
573.6596, 16.62548
574.1417, 16.27736
574.6238, 15.76674
575.1060, 15.61356
575.5881, 15.86652
576.0702, 16.22135
576.5523, 16.49505
577.0344, 16.66308
577.5165, 16.57171
577.9987, 16.13775
578.4808, 15.81362
578.9629, 15.85379
579.4450, 16.07189
579.9271, 16.22788
580.4092, 16.32633
580.8914, 16.30288
581.3735, 15.91938
581.8556, 15.53522
582.3377, 15.65324
582.8198, 16.21251
583.3019, 16.70579
583.7841, 16.84289
584.2662, 16.71233
584.7483, 16.55517
585.2304, 16.33253
585.7125, 16.14694
586.1946, 15.87348
586.6768, 15.74263
