##NAMES=Chamosite
##RRUFFID=R060188
##IDEAL CHEMISTRY=Fe^2+^_5_Al(AlSi_3_)O_10_(OH)_8_
##LOCALITY=Slesse Creek, Chilliwack, British Columbia, Canada
##OWNER=RRUFF
##SOURCE=Lloyd Twaites
##DESCRIPTION=Brown hexagonal tablets with curved prism faces
##STATUS=The identification of this mineral has been confirmed by X-ray diffraction and chemical analysis
##URL=rruff.info/R060188
##MEASURED CHEMISTRY=(Fe^2+^_2.53_Mg_2.15_Al_0.30_Mn_0.02_)_Î£=5_Al_1.00_(Si_2.70_Al_1.30_)O_10_(OH)_8_
90.26367, 23.73576
90.74579, 24.33161
91.22791, 24.40345
91.71002, 23.94728
92.19214, 22.88472
92.67426, 20.59626
93.15637, 17.57338
93.63850, 15.18991
94.12061, 14.05439
94.60273, 13.79786
95.08485, 13.68673
95.56696, 13.75140
96.04908, 13.76332
96.53120, 13.29019
97.01331, 12.37412
97.49543, 11.70136
97.97755, 11.73123
98.45966, 12.41327
98.94178, 12.72969
99.42390, 12.52610
99.90602, 12.17103
100.3881, 12.52129
100.8703, 13.83522
101.3524, 14.94082
101.8345, 15.17854
102.3166, 14.34586
102.7987, 13.46187
103.2808, 12.45866
103.7630, 11.45579
104.2451, 11.11142
104.7272, 11.89810
105.2093, 12.71433
105.6914, 12.76659
106.1735, 11.33985
106.6557, 10.37910
107.1378, 10.23755
107.6199, 10.94077
108.1020, 11.58780
108.5841, 12.36270
109.0662, 12.98788
109.5484, 13.22458
110.0305, 12.30616
110.5126, 11.76250
110.9947, 12.04928
111.4768, 13.45160
111.9590, 14.38691
112.4411, 14.36909
112.9232, 13.89439
113.4053, 13.60189
113.8874, 13.47126
114.3695, 13.64540
114.8517, 14.31718
115.3338, 15.86008
115.8159, 16.99099
116.2980, 16.84281
116.7801, 16.00142
117.2622, 15.74310
117.7444, 16.92233
118.2265, 18.61671
118.7086, 20.23783
119.1907, 21.72690
119.6728, 23.04930
120.1549, 24.09350
120.6371, 24.92141
121.1192, 25.78789
121.6013, 26.54783
122.0834, 27.51161
122.5655, 29.05445
123.0477, 31.71665
123.5298, 34.62947
124.0119, 37.08907
124.4940, 39.10419
124.9761, 40.80577
125.4582, 42.08585
125.9404, 43.11656
126.4225, 44.22532
126.9046, 45.84962
127.3867, 47.53514
127.8688, 48.39470
128.3509, 48.35793
128.8331, 48.18093
129.3152, 48.78906
129.7973, 50.03606
130.2794, 51.17142
130.7615, 51.62174
131.2436, 51.65329
131.7258, 52.24349
132.2079, 53.52712
132.6900, 55.08117
133.1721, 56.17299
133.6542, 56.79012
134.1364, 57.56531
134.6185, 58.97926
135.1006, 61.00692
135.5827, 62.75272
136.0648, 64.07042
136.5469, 65.18136
137.0291, 66.74928
137.5112, 68.92320
137.9933, 70.89110
138.4754, 72.09748
138.9575, 72.42847
139.4396, 72.63526
139.9218, 72.78470
140.4039, 72.87199
140.8860, 72.84213
141.3681, 72.62742
141.8502, 72.41621
142.3323, 72.36243
142.8145, 72.50569
143.2966, 72.68731
143.7787, 72.79859
144.2608, 72.84949
144.7429, 73.38239
145.2251, 74.69554
145.7072, 76.23055
146.1893, 77.49816
146.6714, 78.63132
147.1535, 79.27360
147.6356, 78.97683
148.1178, 77.39544
148.5999, 77.23136
149.0820, 79.37344
149.5641, 82.56513
150.0462, 85.32454
150.5283, 87.72804
151.0105, 89.58956
151.4926, 89.87641
151.9747, 88.90199
152.4568, 88.42994
152.9389, 88.85126
153.4210, 89.70351
153.9032, 90.34931
154.3853, 90.93884
154.8674, 91.13732
155.3495, 90.70236
155.8316, 89.10847
156.3138, 88.08430
156.7959, 88.37011
157.2780, 89.35635
157.7601, 89.89643
158.2422, 89.09563
158.7243, 88.27209
159.2065, 88.11220
159.6886, 89.18238
160.1707, 90.08994
160.6528, 90.30404
161.1349, 90.03795
161.6170, 89.85413
162.0992, 89.94344
162.5813, 90.18336
163.0634, 90.50314
163.5455, 90.95862
164.0276, 91.39149
164.5097, 91.74480
164.9919, 92.02183
165.4740, 92.23273
165.9561, 92.35247
166.4382, 92.42339
166.9203, 92.45212
167.4025, 91.92515
167.8846, 91.88082
168.3667, 93.37416
168.8488, 96.16451
169.3309, 98.69976
169.8130, 99.89035
170.2952, 100.3373
170.7773, 100.7691
171.2594, 101.4706
171.7415, 102.2265
172.2236, 102.7909
172.7057, 103.1829
173.1879, 103.7043
173.6700, 104.5942
174.1521, 105.7613
174.6342, 107.0508
175.1163, 108.4364
175.5984, 109.9102
176.0806, 111.4431
176.5627, 113.0396
177.0448, 114.7064
177.5269, 116.3605
178.0090, 118.0723
178.4911, 120.0614
178.9733, 122.7307
179.4554, 125.6131
179.9375, 127.8718
180.4196, 129.4183
180.9017, 130.9390
181.3839, 133.0916
181.8660, 135.7874
182.3481, 138.8025
182.8302, 142.3448
183.3123, 146.0894
183.7944, 149.1603
184.2766, 151.4761
184.7587, 153.6043
185.2408, 156.3848
185.7229, 159.6854
186.2050, 162.8582
186.6871, 165.3269
187.1693, 167.3729
187.6514, 169.9040
188.1335, 173.0530
188.6156, 176.4776
189.0977, 179.8359
189.5798, 183.1085
190.0620, 186.2240
190.5441, 189.0195
191.0262, 191.5813
191.5083, 194.5546
191.9904, 198.1485
192.4725, 201.8717
192.9547, 204.9366
193.4368, 207.3631
193.9189, 209.4013
194.4010, 210.9627
194.8831, 212.1028
195.3652, 213.7993
195.8474, 216.3240
196.3295, 219.1026
196.8116, 220.9698
197.2937, 221.8657
197.7758, 222.4015
198.2579, 222.8941
198.7401, 223.3460
199.2222, 223.6959
199.7043, 224.1057
200.1864, 224.2251
200.6685, 223.2439
201.1507, 221.1205
201.6328, 218.0918
202.1149, 213.9697
202.5970, 208.5964
203.0791, 203.7722
203.5612, 199.8245
204.0434, 196.4279
204.5255, 192.8205
205.0076, 189.0307
205.4897, 184.9434
205.9718, 180.2649
206.4539, 174.7751
206.9361, 170.1028
207.4182, 166.6657
207.9003, 164.0237
208.3824, 160.5413
208.8645, 155.8848
209.3466, 151.2361
209.8288, 147.2693
210.3109, 144.0759
210.7930, 141.2011
211.2751, 138.7459
211.7572, 136.5544
212.2393, 133.8565
212.7215, 130.4113
213.2036, 127.0476
213.6857, 124.3534
214.1678, 122.5277
214.6499, 120.6519
215.1321, 118.5544
215.6142, 116.3338
216.0963, 114.5036
216.5784, 113.2130
217.0605, 112.0381
217.5426, 110.6843
218.0248, 109.0535
218.5069, 107.5959
218.9890, 106.4620
219.4711, 105.5380
219.9532, 104.1832
220.4353, 102.0453
220.9175, 100.0365
221.3996, 98.76843
221.8817, 98.57088
222.3638, 98.28425
222.8459, 97.80030
223.3280, 97.14287
223.8102, 96.48275
224.2923, 95.85108
224.7744, 95.15166
225.2565, 94.30566
225.7386, 93.21907
226.2208, 92.21361
226.7029, 91.32060
227.1850, 90.52953
227.6671, 89.83556
228.1492, 89.26075
228.6313, 88.75114
229.1135, 88.26028
229.5956, 87.70914
230.0777, 87.35424
230.5598, 87.28268
231.0419, 87.43164
231.5240, 87.49614
232.0062, 87.48930
232.4883, 87.38328
232.9704, 87.15588
233.4525, 86.77851
233.9346, 86.34171
234.4167, 85.81698
234.8989, 85.23490
235.3810, 84.75275
235.8631, 84.44322
236.3452, 84.12810
236.8273, 83.67033
237.3095, 82.89405
237.7916, 82.35122
238.2737, 82.07323
238.7558, 82.04826
239.2379, 82.26839
239.7200, 82.99006
240.2022, 83.60893
240.6843, 83.78804
241.1664, 83.34514
241.6485, 82.84307
242.1306, 82.20304
242.6127, 81.52201
243.0949, 81.22742
243.5770, 81.58115
244.0591, 81.96153
244.5412, 82.04061
245.0233, 81.67845
245.5054, 81.32739
245.9876, 80.95900
246.4697, 80.61971
246.9518, 80.45073
247.4339, 80.49712
247.9160, 80.64680
248.3981, 80.87825
248.8803, 81.31868
249.3624, 81.51405
249.8445, 81.28899
250.3266, 80.85551
250.8087, 80.82181
251.2909, 81.37939
251.7730, 82.02492
252.2551, 82.56113
252.7372, 83.05503
253.2193, 83.24245
253.7014, 82.94349
254.1836, 82.41537
254.6657, 82.26433
255.1478, 82.63573
255.6299, 83.13164
256.1120, 83.64570
256.5941, 84.27551
257.0763, 84.55154
257.5584, 84.23696
258.0405, 83.72189
258.5226, 83.84714
259.0047, 84.92417
259.4868, 86.00317
259.9690, 86.73190
260.4511, 87.06696
260.9332, 87.23321
261.4153, 87.16724
261.8974, 86.98994
262.3795, 86.90126
262.8617, 86.91487
263.3438, 86.98006
263.8259, 87.06794
264.3080, 87.16431
264.7901, 87.38396
265.2722, 87.73693
265.7544, 88.19909
266.2365, 88.79220
266.7186, 89.62819
267.2007, 90.23426
267.6829, 90.32757
268.1650, 89.85374
268.6471, 89.95275
269.1292, 90.84859
269.6113, 91.96745
270.0934, 92.57803
270.5756, 92.57402
271.0577, 92.48685
271.5398, 92.42678
272.0219, 92.39540
272.5040, 92.49106
272.9861, 92.76195
273.4683, 93.05276
273.9504, 93.16878
274.4325, 93.06364
274.9146, 93.04751
275.3967, 93.24399
275.8788, 93.60926
276.3610, 93.39156
276.8431, 93.88802
277.3252, 94.17828
277.8073, 94.27343
278.2894, 93.58908
278.7715, 93.91129
279.2537, 93.83013
279.7358, 93.73241
280.2179, 94.19630
280.7000, 93.62532
281.1821, 94.08030
281.6642, 94.12573
282.1464, 94.35860
282.6285, 94.18560
283.1106, 94.13796
283.5927, 94.49632
284.0748, 94.22922
284.5569, 94.64608
285.0391, 94.84444
285.5212, 94.83542
286.0033, 94.03462
286.4854, 94.22808
286.9675, 94.00587
287.4496, 93.75484
287.9318, 94.05309
288.4139, 93.30421
288.8960, 93.56901
289.3781, 93.41196
289.8602, 93.43008
290.3424, 93.02998
290.8245, 92.74301
291.3066, 92.84975
291.7887, 92.71939
292.2708, 92.09755
292.7530, 91.80153
293.2351, 91.39257
293.7172, 90.92260
294.1993, 90.60001
294.6814, 90.46232
295.1635, 90.32853
295.6457, 89.89791
296.1278, 89.24583
296.6099, 88.70058
297.0920, 88.50602
297.5741, 88.50829
298.0562, 88.38931
298.5384, 88.13455
299.0205, 87.90260
299.5026, 87.82893
299.9847, 87.90117
300.4668, 88.09157
300.9489, 88.56419
301.4311, 89.05750
301.9132, 89.14282
302.3953, 88.83428
302.8774, 88.44614
303.3595, 88.16988
303.8416, 87.99563
304.3238, 87.90677
304.8059, 87.96341
305.2880, 88.04282
305.7701, 88.04549
306.2522, 87.96909
306.7343, 87.80032
307.2165, 87.39222
307.6986, 86.93071
308.1807, 86.66190
308.6628, 86.72202
309.1449, 86.85798
309.6270, 86.90746
310.1092, 86.87737
310.5913, 86.78939
311.0734, 86.53959
311.5555, 86.29786
312.0376, 85.84713
312.5197, 86.29197
313.0019, 86.53178
313.4840, 86.57764
313.9661, 85.84516
314.4482, 86.12041
314.9304, 85.99342
315.4125, 85.85107
315.8946, 86.27147
316.3767, 85.65818
316.8588, 86.07200
317.3409, 86.07744
317.8231, 86.27148
318.3052, 86.06081
318.7873, 85.97665
319.2694, 86.29967
319.7515, 86.39905
320.2336, 86.14630
320.7158, 86.35922
321.1979, 85.74338
321.6800, 85.85697
322.1621, 86.28595
322.6442, 86.05942
323.1263, 86.28558
323.6085, 86.34093
324.0906, 85.61593
324.5727, 86.25122
325.0548, 86.29990
325.5369, 85.74622
326.0190, 86.33843
326.5012, 85.87028
326.9833, 85.78218
327.4654, 85.98040
327.9475, 85.88252
328.4296, 86.25446
328.9117, 86.17608
329.3939, 86.05852
329.8760, 86.11816
330.3581, 85.68011
330.8402, 86.16869
331.3223, 86.02625
331.8044, 86.19923
332.2866, 86.44458
332.7687, 86.14573
333.2508, 86.42542
333.7329, 85.81089
334.2150, 85.94671
334.6971, 86.00302
335.1793, 86.53937
335.6614, 85.93385
336.1435, 86.05351
336.6256, 86.48260
337.1077, 86.48151
337.5899, 86.02730
338.0720, 86.11236
338.5541, 86.28432
339.0362, 86.57478
339.5183, 86.89127
340.0005, 87.10577
340.4826, 87.18337
340.9647, 87.46867
341.4468, 88.14656
341.9289, 89.00453
342.4110, 89.22915
342.8932, 88.71431
343.3753, 88.24367
343.8574, 88.47027
344.3395, 89.34002
344.8216, 89.98772
345.3037, 90.29852
345.7859, 90.40687
346.2680, 90.49458
346.7501, 90.56564
347.2322, 90.68803
347.7143, 90.97776
348.1964, 91.35310
348.6786, 91.48335
349.1607, 91.31080
349.6428, 91.17887
350.1249, 91.55988
350.6070, 92.31670
351.0891, 93.02896
351.5713, 93.56355
352.0534, 93.92881
352.5355, 94.08584
353.0176, 94.04003
353.4997, 93.97372
353.9818, 94.01811
354.4640, 94.13764
354.9461, 94.27735
355.4282, 94.40914
355.9103, 94.57168
356.3924, 94.88264
356.8745, 95.28352
357.3567, 95.53568
357.8388, 95.45958
358.3209, 95.20657
358.8030, 94.86404
359.2851, 94.37557
359.7672, 94.00792
360.2494, 93.97282
360.7315, 94.15282
361.2136, 94.33052
361.6957, 94.66056
362.1779, 94.77720
362.6600, 94.37391
363.1421, 93.34242
363.6242, 92.48348
364.1063, 92.13038
364.5884, 92.02658
365.0706, 91.91261
365.5527, 91.94556
366.0348, 91.74434
366.5169, 91.10870
366.9990, 90.06811
367.4811, 89.14214
367.9633, 88.34260
368.4454, 87.69283
368.9275, 87.21609
369.4096, 87.10681
369.8917, 86.90304
370.3738, 86.58012
370.8560, 86.15697
371.3381, 85.68257
371.8202, 85.06310
372.3023, 84.51510
372.7844, 84.16066
373.2665, 84.09155
373.7487, 83.81456
374.2308, 83.15897
374.7129, 82.46825
375.1950, 82.30235
375.6771, 82.92620
376.1592, 83.20705
376.6414, 82.69353
377.1235, 81.50536
377.6056, 80.88280
378.0877, 80.93275
378.5698, 81.18059
379.0519, 81.27892
379.5341, 81.22813
380.0162, 80.92687
380.4983, 80.24567
380.9804, 79.43956
381.4625, 79.17458
381.9446, 79.43632
382.4268, 79.75729
382.9089, 79.79063
383.3910, 79.64890
383.8731, 79.80319
384.3553, 80.37005
384.8374, 80.83372
385.3195, 80.42307
385.8016, 79.38721
386.2837, 78.45168
386.7658, 77.97390
387.2480, 77.76526
387.7301, 77.54378
388.2122, 77.32028
388.6943, 76.31110
389.1764, 77.47047
389.6585, 78.10149
390.1407, 78.23251
390.6228, 76.36608
391.1049, 77.07896
391.5870, 76.75817
392.0691, 76.39500
392.5512, 77.47090
393.0334, 75.89500
393.5155, 76.94807
393.9976, 76.95172
394.4797, 77.43566
394.9618, 76.87955
395.4439, 76.64469
395.9261, 77.45020
396.4082, 77.67965
396.8903, 77.00381
397.3724, 77.51829
397.8545, 75.90606
398.3366, 76.16004
398.8188, 77.21921
399.3009, 76.59566
399.7830, 77.12916
400.2651, 75.98324
400.7472, 76.44636
401.2293, 76.80831
401.7115, 77.02943
402.1936, 77.12469
402.6757, 77.14175
403.1578, 77.09387
403.6399, 76.93901
404.1220, 76.57646
404.6042, 75.89485
405.0863, 75.71857
405.5684, 76.26272
406.0505, 76.96875
406.5326, 77.03421
407.0147, 76.36449
407.4969, 75.75789
407.9790, 75.37348
408.4611, 75.22486
408.9432, 75.50835
409.4254, 76.27427
409.9075, 76.93307
410.3896, 76.86817
410.8717, 76.25945
411.3538, 75.92327
411.8359, 76.02013
412.3181, 76.33199
412.8002, 76.61367
413.2823, 76.86045
413.7644, 77.07462
414.2465, 77.26164
414.7286, 77.41256
415.2108, 77.52382
415.6929, 77.59435
416.1750, 77.60856
416.6571, 77.57859
417.1392, 77.47741
417.6213, 77.25378
418.1035, 76.61681
418.5856, 76.14952
419.0677, 76.28455
419.5498, 76.90190
420.0319, 77.54733
420.5140, 78.26413
420.9962, 78.79733
421.4783, 78.91994
421.9604, 77.98640
422.4425, 78.72884
422.9246, 79.26507
423.4067, 79.60620
423.8889, 79.16787
424.3710, 79.73606
424.8531, 79.90085
425.3352, 80.04911
425.8173, 80.75895
426.2994, 80.43395
426.7816, 80.52872
427.2637, 80.94257
427.7458, 81.15025
428.2279, 81.16281
428.7100, 80.39587
429.1921, 80.63549
429.6743, 80.47173
430.1564, 80.29142
430.6385, 80.67271
431.1206, 80.01916
431.6028, 80.39153
432.0849, 80.35439
432.5670, 80.50468
433.0491, 80.24909
433.5312, 80.11887
434.0133, 79.46339
434.4955, 78.27021
434.9776, 77.29004
435.4597, 76.77034
435.9418, 76.51723
436.4239, 76.18888
436.9060, 75.81563
437.3882, 75.57223
437.8703, 75.69786
438.3524, 75.97618
438.8345, 76.08507
439.3166, 75.97350
439.7987, 75.80544
440.2809, 75.72469
440.7630, 75.66895
441.2451, 75.54269
441.7272, 75.16391
442.2093, 74.83311
442.6914, 74.80423
443.1736, 75.01779
443.6557, 74.60449
444.1378, 75.12577
444.6199, 75.44086
445.1020, 75.56083
445.5841, 74.90131
446.0663, 75.24835
446.5484, 75.19201
447.0305, 75.11912
447.5126, 75.60783
447.9947, 75.06168
448.4768, 75.54149
448.9590, 75.61176
449.4411, 75.86946
449.9232, 75.72129
450.4053, 75.17404
450.8874, 75.68374
451.3695, 75.98724
451.8517, 76.09564
452.3338, 75.42454
452.8159, 75.75999
453.2980, 75.69207
453.7801, 75.60760
454.2622, 76.08472
454.7444, 75.52701
455.2265, 76.35194
455.7086, 76.81425
456.1907, 76.96983
456.6729, 76.79890
457.1550, 76.60477
457.6371, 76.72045
458.1192, 77.02769
458.6013, 77.22225
459.0834, 77.16362
459.5656, 77.08757
460.0477, 77.25829
460.5298, 77.62442
461.0119, 78.02321
461.4940, 78.54231
461.9761, 78.54639
462.4583, 79.26823
462.9404, 79.78381
463.4225, 80.10427
463.9046, 79.33024
464.3867, 79.94556
464.8688, 80.35469
465.3510, 80.56874
465.8331, 80.00326
466.3152, 80.44433
466.7973, 80.48203
467.2794, 80.50318
467.7615, 81.08593
468.2437, 80.63386
468.7258, 81.20770
469.2079, 81.37199
469.6900, 81.72373
470.1721, 81.66959
470.6542, 81.74082
471.1364, 81.61571
471.6185, 81.45632
472.1006, 81.27048
472.5827, 81.06609
473.0648, 80.84887
473.5469, 80.65511
474.0291, 80.49216
474.5112, 80.26953
474.9933, 79.87523
475.4754, 79.36544
475.9575, 79.03340
476.4396, 78.91740
476.9218, 78.76131
477.4039, 78.18114
477.8860, 77.35429
478.3681, 76.70090
478.8503, 76.39045
479.3324, 76.26196
479.8145, 76.22294
480.2966, 76.24770
480.7787, 76.24514
481.2608, 76.15287
481.7430, 76.02559
482.2251, 75.86543
482.7072, 75.64468
483.1893, 75.55874
483.6714, 75.91452
484.1535, 76.33315
484.6357, 76.43423
485.1178, 76.00290
485.5999, 75.43275
486.0820, 74.48977
486.5641, 73.39765
487.0462, 73.03132
487.5284, 74.03535
488.0105, 74.90105
488.4926, 74.94997
488.9747, 73.99266
489.4568, 73.45158
489.9389, 73.41443
490.4211, 73.64424
490.9032, 74.01543
491.3853, 74.56275
491.8674, 74.63604
492.3495, 73.91003
492.8316, 72.86393
493.3138, 72.60132
493.7959, 73.06444
494.2780, 73.63806
494.7601, 74.02572
495.2422, 74.26028
495.7243, 74.33614
496.2065, 74.24608
496.6886, 74.20943
497.1707, 74.45097
497.6528, 74.83997
498.1349, 75.19536
498.6170, 75.43720
499.0992, 75.68034
499.5813, 76.02560
500.0634, 76.42322
500.5455, 76.75499
501.0276, 76.87712
501.5097, 77.01875
501.9919, 77.30363
502.4740, 77.76991
502.9561, 78.15170
503.4382, 78.38332
503.9203, 78.56126
504.4025, 78.76050
504.8846, 79.05136
505.3667, 79.18883
505.8488, 79.01797
506.3309, 78.77307
506.8130, 79.02745
507.2952, 79.89648
507.7773, 80.74949
508.2594, 81.38982
508.7415, 81.81667
509.2236, 82.00396
509.7057, 81.93727
510.1879, 81.81794
510.6700, 81.78490
511.1521, 81.83090
511.6342, 81.88873
512.1163, 81.89555
512.5984, 82.10201
513.0806, 83.00260
513.5627, 84.29173
514.0448, 85.33057
514.5269, 85.72994
515.0090, 85.87350
515.4911, 85.89342
515.9733, 85.83123
516.4554, 85.92745
516.9375, 86.42422
517.4196, 86.99693
517.9017, 87.45047
518.3839, 87.70959
518.8660, 87.97762
519.3481, 88.25638
519.8302, 88.56201
520.3123, 88.91230
520.7944, 89.35213
521.2766, 89.74517
521.7587, 89.98143
522.2408, 90.16746
522.7229, 90.77700
523.2050, 91.90409
523.6871, 93.11204
524.1693, 94.11411
524.6514, 94.93372
525.1335, 96.17736
525.6156, 97.91236
526.0977, 99.66716
526.5798, 100.7142
527.0620, 101.3935
527.5441, 102.7409
528.0262, 105.1459
528.5083, 107.9900
528.9904, 110.6183
529.4725, 113.1430
529.9547, 115.8252
530.4368, 118.7030
530.9189, 121.8252
531.4010, 125.3574
531.8831, 129.3241
532.3652, 132.9385
532.8474, 135.4294
533.3295, 137.9029
533.8116, 141.1272
534.2937, 145.7052
534.7758, 150.1044
535.2579, 154.0488
535.7401, 157.9123
536.2222, 162.1461
536.7043, 167.0993
537.1865, 171.7499
537.6686, 175.7534
538.1507, 179.3258
538.6328, 183.2370
539.1149, 187.5301
539.5970, 192.1514
540.0792, 197.1275
540.5613, 202.4339
541.0434, 207.6828
541.5255, 212.8687
542.0076, 217.8966
542.4897, 222.9911
542.9719, 227.8604
543.4540, 231.9885
543.9361, 235.1661
544.4182, 237.5825
544.9003, 239.5364
545.3824, 240.7936
545.8646, 240.8375
546.3467, 239.8604
546.8288, 237.2643
547.3109, 232.5527
547.7930, 225.7300
548.2751, 217.9444
548.7573, 208.8693
549.2394, 199.2503
549.7215, 189.4039
550.2036, 178.8518
550.6857, 169.1736
551.1678, 160.5000
551.6500, 152.5387
552.1321, 144.9588
552.6142, 137.6711
553.0963, 131.1039
553.5784, 125.3982
554.0605, 120.4401
554.5427, 115.9256
555.0248, 111.8615
555.5069, 108.3660
555.9890, 105.8870
556.4711, 103.9324
556.9532, 101.6091
557.4354, 98.88352
557.9175, 96.20287
558.3996, 93.90116
558.8817, 91.85184
559.3638, 89.90528
559.8459, 87.96440
560.3281, 86.28887
560.8102, 85.18497
561.2923, 84.38313
561.7744, 83.46780
562.2565, 82.28265
562.7386, 81.06161
563.2208, 79.70797
563.7029, 78.30269
564.1850, 77.36827
564.6671, 77.12075
565.1492, 76.97877
565.6313, 76.69689
566.1135, 76.27896
566.5956, 75.64825
567.0777, 74.74129
567.5598, 73.85932
568.0419, 73.45376
568.5240, 73.39784
569.0062, 72.94280
569.4883, 71.79722
569.9704, 70.56355
570.4525, 70.19522
570.9346, 70.36998
571.4167, 70.27522
571.8989, 69.09382
572.3810, 67.87619
572.8631, 67.44941
573.3452, 67.70863
573.8273, 67.85415
574.3094, 67.41221
574.7916, 66.91447
575.2737, 66.68995
575.7558, 66.93190
576.2379, 66.90562
576.7200, 66.31649
577.2021, 65.68471
577.6843, 65.51081
578.1664, 66.00841
578.6485, 66.33168
579.1306, 66.38870
579.6127, 66.23445
580.0948, 65.89527
580.5770, 65.37137
581.0591, 64.99631
581.5412, 64.93847
582.0233, 65.09946
582.5054, 65.37489
582.9875, 65.72711
583.4697, 65.89176
583.9518, 65.43020
584.4340, 64.82195
584.9161, 64.66764
