##NAMES=Chambersite
##RRUFFID=R060425
##IDEAL CHEMISTRY=Mn^2+^_3_B_7_O_13_Cl
##LOCALITY=Venice Dome, Plaquemines Parish, Louisiana, USA
##OWNER=RRUFF
##SOURCE=Michael Scott
##DESCRIPTION=Brown pseudotetrahedra
##STATUS=The identification of this mineral is confirmed by single-crystal X-ray diffraction and chemical analysis.
##URL=rruff.info/R060425
##MEASURED CHEMISTRY=(Mn_2.93_Fe^2+^_0.05_Mg_0.02_)_Î£=3_B_7.00_O_13_Cl_1.00_ ; B not measured but estimated by difference and stoichiometry.
185.1003, 242.4438
185.5824, 240.2000
186.0645, 237.6858
186.5466, 234.8895
187.0287, 231.7608
187.5108, 228.2009
187.9930, 224.3640
188.4751, 220.2256
188.9572, 215.7306
189.4393, 211.1722
189.9214, 208.3150
190.4035, 208.6093
190.8857, 208.9954
191.3678, 209.1387
191.8499, 208.9850
192.3320, 208.5713
192.8141, 207.9533
193.2962, 207.0649
193.7784, 205.2848
194.2605, 202.0087
194.7426, 198.7225
195.2247, 195.6922
195.7068, 193.0111
196.1889, 190.9048
196.6711, 189.6048
197.1532, 188.9863
197.6353, 188.2533
198.1174, 186.6850
198.5995, 185.6482
199.0816, 186.1617
199.5638, 188.0427
200.0459, 190.0812
200.5280, 191.7223
201.0101, 192.9445
201.4922, 193.8722
201.9743, 194.8257
202.4565, 195.1731
202.9386, 194.1914
203.4207, 191.8526
203.9028, 189.1891
204.3849, 186.5390
204.8670, 183.9781
205.3492, 181.6011
205.8313, 179.3040
206.3134, 177.3574
206.7955, 176.0936
207.2776, 175.5314
207.7597, 175.5792
208.2419, 176.5057
208.7240, 177.9114
209.2061, 179.5749
209.6882, 181.5787
210.1703, 183.4973
210.6524, 184.6515
211.1346, 185.0462
211.6167, 184.5683
212.0988, 182.5581
212.5809, 180.0326
213.0630, 177.8710
213.5451, 176.4116
214.0273, 175.5803
214.5094, 175.3179
214.9915, 176.0882
215.4736, 176.5949
215.9557, 176.1219
216.4378, 175.4996
216.9200, 175.6442
217.4021, 176.9811
217.8842, 179.0553
218.3663, 180.5755
218.8484, 181.1015
219.3305, 181.6613
219.8127, 182.5113
220.2948, 183.4061
220.7769, 183.9729
221.2590, 184.0407
221.7411, 183.9169
222.2232, 184.5212
222.7054, 186.8678
223.1875, 188.7656
223.6696, 189.8088
224.1517, 190.4413
224.6338, 191.1035
225.1159, 191.9916
225.5980, 193.1224
226.0802, 194.5587
226.5623, 197.6800
227.0444, 199.4259
227.5265, 198.7774
228.0086, 196.8496
228.4907, 194.8619
228.9729, 193.2891
229.4550, 192.2466
229.9371, 192.1622
230.4192, 193.9342
230.9013, 195.2033
231.3834, 195.0121
231.8656, 194.2319
232.3477, 194.2968
232.8298, 195.8533
233.3119, 198.0896
233.7940, 199.1599
234.2761, 198.6840
234.7583, 198.2885
235.2404, 198.0656
235.7225, 198.2293
236.2046, 199.1627
236.6867, 201.0267
237.1688, 203.6536
237.6510, 207.0802
238.1331, 211.4780
238.6152, 215.4368
239.0973, 219.0986
239.5794, 221.9583
240.0615, 222.9032
240.5437, 221.5674
241.0258, 218.2943
241.5079, 213.2029
241.9900, 206.3680
242.4721, 199.2041
242.9542, 191.9176
243.4364, 184.7505
243.9185, 178.3142
244.4006, 172.7442
244.8827, 167.9681
245.3648, 163.8965
245.8469, 160.4765
246.3290, 157.6389
246.8112, 155.5130
247.2933, 153.9674
247.7754, 152.5027
248.2575, 150.8805
248.7396, 149.6900
249.2217, 149.5062
249.7039, 150.1077
250.1860, 150.7853
250.6681, 151.1532
251.1502, 151.2916
251.6323, 151.5492
252.1144, 152.1295
252.5966, 152.4959
253.0787, 152.1105
253.5608, 151.2916
254.0429, 150.7809
254.5250, 151.3800
255.0071, 152.6367
255.4893, 152.6698
255.9714, 150.7123
256.4535, 148.7163
256.9356, 147.4002
257.4177, 146.6565
257.8998, 146.3626
258.3820, 146.6260
258.8641, 147.2155
259.3462, 147.2579
259.8283, 146.3180
260.3104, 145.5388
260.7925, 145.6415
261.2747, 146.0067
261.7568, 145.6579
262.2389, 143.9039
262.7210, 141.5134
263.2031, 140.8530
263.6852, 143.1589
264.1674, 145.1467
264.6495, 145.6363
265.1316, 145.6170
265.6137, 146.2955
266.0958, 148.2391
266.5779, 150.6952
267.0601, 151.7795
267.5422, 150.5452
268.0243, 149.5800
268.5064, 149.7522
268.9885, 150.0721
269.4706, 149.6113
269.9528, 148.0529
270.4349, 145.8467
270.9170, 143.7748
271.3991, 141.6800
271.8812, 140.1086
272.3633, 139.6783
272.8455, 139.3262
273.3276, 138.1013
273.8097, 135.8343
274.2918, 133.2278
274.7739, 131.2944
275.2560, 130.0562
275.7382, 129.5485
276.2202, 130.2328
276.7024, 131.1362
277.1845, 131.4797
277.6666, 131.2566
278.1487, 131.1832
278.6308, 132.2401
279.1129, 134.9924
279.5951, 136.8923
280.0772, 137.9489
280.5593, 138.3374
281.0414, 137.8507
281.5235, 136.6836
282.0056, 135.4209
282.4878, 134.6417
282.9699, 134.4351
283.4520, 134.0393
283.9341, 133.2370
284.4162, 132.4833
284.8983, 131.9579
285.3805, 131.6402
285.8626, 131.4081
286.3447, 131.1504
286.8268, 130.8737
287.3089, 130.9409
287.7910, 131.8135
288.2732, 132.5082
288.7553, 132.6061
289.2374, 132.3259
289.7195, 132.1139
290.2016, 132.2488
290.6837, 132.6487
291.1659, 132.8580
291.6480, 132.5104
292.1301, 132.3984
292.6122, 132.6519
293.0943, 133.2185
293.5764, 134.0288
294.0586, 135.0570
294.5407, 136.2847
295.0228, 137.6694
295.5049, 139.5741
295.9870, 141.1899
296.4691, 142.2148
296.9513, 143.0554
297.4334, 144.3277
297.9155, 146.1957
298.3976, 148.0420
298.8797, 148.8190
299.3618, 147.9852
299.8440, 146.9254
300.3261, 145.2989
300.8082, 143.6713
301.2903, 142.6642
301.7724, 142.3257
302.2545, 141.9721
302.7367, 140.7392
303.2188, 138.2752
303.7009, 136.2820
304.1830, 135.2069
304.6651, 134.1840
305.1472, 132.5614
305.6294, 130.3995
306.1115, 128.2592
306.5936, 126.6106
307.0757, 125.4719
307.5578, 124.5438
308.0399, 124.0017
308.5221, 123.4551
309.0042, 122.5624
309.4863, 121.5057
309.9684, 120.8142
310.4505, 120.8711
310.9326, 121.5474
311.4148, 121.9411
311.8969, 122.1910
312.3790, 122.0592
312.8611, 120.9974
313.3432, 119.6030
313.8253, 118.8401
314.3075, 119.1645
314.7896, 120.2746
315.2717, 121.4468
315.7538, 123.3875
316.2359, 124.3589
316.7180, 123.2310
317.2001, 121.5004
317.6823, 121.0006
318.1644, 122.2291
318.6465, 124.0028
319.1286, 124.4697
319.6107, 122.5504
320.0928, 121.9602
320.5750, 123.9854
321.0571, 126.4093
321.5392, 127.3295
322.0213, 126.6510
322.5034, 125.7870
322.9855, 126.1618
323.4677, 127.9887
323.9498, 129.6658
324.4319, 131.5076
324.9140, 132.9463
325.3961, 133.3362
325.8782, 133.0109
326.3604, 132.9531
326.8425, 133.8525
327.3246, 135.6456
327.8067, 137.6610
328.2888, 140.0224
328.7709, 142.4343
329.2531, 144.7483
329.7352, 147.0720
330.2173, 149.6540
330.6994, 152.6316
331.1815, 155.7767
331.6636, 158.4910
332.1458, 159.9978
332.6279, 162.0335
333.1100, 164.9632
333.5921, 168.2765
334.0742, 171.3042
334.5563, 173.8940
335.0385, 176.7443
335.5206, 180.8711
336.0027, 186.7947
336.4848, 192.8363
336.9669, 199.5760
337.4490, 206.0269
337.9312, 211.8276
338.4133, 216.8197
338.8954, 220.6868
339.3775, 223.1042
339.8596, 224.0167
340.3417, 224.1570
340.8239, 223.1902
341.3060, 221.9206
341.7881, 220.2079
342.2702, 218.4205
342.7523, 217.2099
343.2344, 216.9870
343.7166, 217.6369
344.1987, 218.6116
344.6808, 219.7704
345.1629, 221.4856
345.6450, 223.9347
346.1271, 226.8940
346.6093, 230.2087
347.0914, 233.7825
347.5735, 237.5039
348.0556, 241.0635
348.5377, 244.1710
349.0198, 247.7019
349.5020, 251.0391
349.9841, 255.1716
350.4662, 261.0495
350.9483, 268.5668
351.4304, 276.7625
351.9125, 284.8383
352.3947, 293.0949
352.8768, 299.0965
353.3589, 303.2970
353.8410, 304.8323
354.3231, 303.6675
354.8052, 299.5442
355.2874, 291.6876
355.7695, 279.2102
356.2516, 262.9617
356.7337, 247.3680
357.2158, 231.4348
357.6979, 217.7635
358.1800, 206.8467
358.6621, 198.2062
359.1443, 191.6972
359.6264, 187.2129
360.1085, 183.9713
360.5906, 180.4576
361.0727, 176.2200
361.5548, 172.9312
362.0370, 171.7382
362.5191, 170.7442
363.0012, 168.6755
363.4833, 165.4777
363.9654, 162.0974
364.4475, 159.3917
364.9297, 157.3751
365.4118, 155.8474
365.8939, 155.8432
366.3760, 155.1560
366.8581, 152.4339
367.3402, 148.4217
367.8224, 144.6505
368.3045, 142.0350
368.7866, 140.2817
369.2687, 138.5336
369.7508, 136.7240
370.2329, 135.0862
370.7151, 133.8521
371.1972, 132.7384
371.6793, 131.4182
372.1614, 129.7880
372.6435, 128.1004
373.1256, 126.6242
373.6078, 125.3583
374.0899, 124.3396
374.5720, 123.4875
375.0541, 123.0095
375.5362, 123.1771
376.0183, 123.9286
376.5005, 124.7113
376.9826, 125.0870
377.4647, 125.1925
377.9468, 125.5802
378.4289, 126.4123
378.9110, 127.2367
379.3932, 127.7185
379.8753, 127.9802
380.3574, 128.2227
380.8395, 128.3644
381.3216, 128.6471
381.8037, 129.5587
382.2859, 131.1208
382.7680, 132.3389
383.2501, 132.6228
383.7322, 132.3925
384.2143, 132.3953
384.6964, 132.7337
385.1786, 132.9915
385.6607, 132.7692
386.1428, 132.2807
386.6249, 132.1571
387.1070, 132.6381
387.5891, 133.2496
388.0713, 133.4554
388.5534, 133.2947
389.0355, 132.9733
389.5176, 132.3286
389.9997, 131.6685
390.4818, 131.2710
390.9640, 131.1532
391.4461, 131.2603
391.9282, 131.5536
392.4103, 132.0573
392.8924, 132.8112
393.3745, 133.7236
393.8567, 134.9574
394.3388, 136.7912
394.8209, 138.9670
395.3030, 141.0244
395.7851, 142.8326
396.2672, 144.3111
396.7494, 145.2699
397.2315, 145.3140
397.7136, 145.7802
398.1957, 147.4415
398.6778, 149.0699
399.1599, 149.6872
399.6420, 149.1982
400.1241, 148.0175
400.6063, 146.4962
401.0884, 144.6308
401.5705, 142.3024
402.0526, 138.6720
402.5347, 135.5673
403.0168, 133.7327
403.4990, 132.7553
403.9811, 131.9978
404.4632, 131.1614
404.9453, 130.2850
405.4274, 129.4969
405.9095, 129.1621
406.3917, 128.2707
406.8738, 126.2196
407.3559, 124.0836
407.8380, 122.8057
408.3201, 122.3706
408.8022, 121.8696
409.2844, 120.1414
409.7665, 117.0260
410.2486, 115.4260
410.7307, 116.9594
411.2128, 118.3245
411.6949, 118.3631
412.1771, 117.6282
412.6592, 117.1531
413.1413, 117.5202
413.6234, 118.1708
414.1055, 117.7365
414.5876, 115.6924
415.0698, 114.1609
415.5519, 114.1699
416.0340, 114.5202
416.5161, 114.3216
416.9982, 113.5002
417.4803, 112.7851
417.9625, 112.9701
418.4446, 113.8899
418.9267, 114.3662
419.4088, 114.1195
419.8909, 113.7802
420.3730, 113.6991
420.8552, 113.8259
421.3373, 114.0826
421.8194, 114.4581
422.3015, 114.9350
422.7836, 115.6125
423.2657, 116.4830
423.7479, 117.0547
424.2300, 117.0531
424.7121, 116.7014
425.1942, 116.3164
425.6763, 115.8464
426.1584, 115.5995
426.6406, 116.0809
427.1227, 116.7665
427.6048, 116.5921
428.0869, 115.3214
428.5690, 114.0024
429.0511, 113.7079
429.5333, 114.4314
430.0154, 114.5338
430.4975, 113.5047
430.9796, 112.3279
431.4617, 111.4804
431.9438, 110.9265
432.4260, 110.4400
432.9081, 109.8722
433.3902, 109.4940
433.8723, 110.0122
434.3544, 112.6127
434.8365, 114.1228
435.3187, 113.7556
435.8008, 112.7143
436.2829, 111.8480
436.7650, 111.3237
437.2471, 111.0254
437.7292, 110.8899
438.2114, 110.9283
438.6935, 110.6602
439.1756, 109.7101
439.6577, 108.8673
440.1398, 108.3916
440.6219, 108.1055
441.1040, 107.8197
441.5862, 107.4548
442.0683, 106.9246
442.5504, 105.9288
443.0325, 104.0644
443.5146, 102.9743
443.9967, 103.6748
444.4789, 104.4536
444.9610, 104.3082
445.4431, 103.3882
445.9252, 102.5353
446.4073, 102.4487
446.8894, 102.8956
447.3716, 102.9274
447.8537, 102.3422
448.3358, 101.8454
448.8179, 101.8873
449.3000, 102.1186
449.7821, 102.0981
450.2643, 101.6529
450.7464, 101.3471
451.2285, 101.9029
451.7106, 103.1021
452.1927, 103.7890
452.6748, 103.6045
453.1570, 103.1247
453.6391, 103.0269
454.1212, 103.1899
454.6033, 102.9510
455.0854, 101.5080
455.5675, 100.0800
456.0497, 99.96893
456.5318, 100.9963
457.0139, 101.9182
457.4960, 102.0491
457.9781, 101.7385
458.4602, 102.0022
458.9424, 103.3137
459.4245, 104.1230
459.9066, 103.6880
460.3887, 102.8840
460.8708, 102.6454
461.3529, 103.0824
461.8351, 103.7146
462.3172, 104.1698
462.7993, 104.4618
463.2814, 104.0064
463.7635, 101.5595
464.2456, 99.84187
464.7278, 99.99796
465.2099, 101.1331
465.6920, 101.9944
466.1741, 102.0989
466.6562, 101.8580
467.1383, 101.9826
467.6205, 102.6356
468.1026, 103.1500
468.5847, 103.6927
469.0668, 103.9170
469.5489, 103.3627
470.0310, 102.3242
470.5132, 101.5699
470.9953, 101.6053
471.4774, 102.2056
471.9595, 102.9050
472.4416, 103.8280
472.9237, 104.3876
473.4059, 104.2391
473.8880, 103.6903
474.3701, 102.8535
474.8522, 101.7241
475.3343, 100.8392
475.8164, 100.6173
476.2986, 100.8963
476.7807, 101.4189
477.2628, 102.2564
477.7449, 102.7863
478.2270, 102.4630
478.7091, 101.4041
479.1913, 100.2312
479.6734, 98.47547
480.1555, 97.16690
480.6376, 97.09882
481.1197, 97.83727
481.6018, 98.52260
482.0839, 98.88502
482.5660, 99.00658
483.0482, 98.95528
483.5303, 98.60674
484.0124, 98.57707
484.4945, 99.20276
484.9766, 99.81066
485.4587, 100.0160
485.9409, 99.90813
486.4230, 99.75609
486.9051, 99.70737
487.3872, 99.73666
487.8693, 99.77133
488.3514, 99.80424
488.8336, 99.85844
489.3157, 99.81100
489.7978, 99.87801
490.2799, 100.2845
490.7620, 100.9774
491.2441, 101.6787
491.7263, 102.2249
492.2084, 102.5905
492.6905, 102.5819
493.1726, 101.9997
493.6547, 101.5260
494.1368, 101.4410
494.6190, 101.6091
495.1011, 102.0206
495.5832, 102.7293
496.0653, 103.2369
496.5474, 102.9155
497.0295, 102.0817
497.5117, 101.7894
497.9938, 102.3107
498.4759, 102.8634
498.9580, 102.6429
499.4401, 101.8602
499.9222, 101.6561
500.4044, 102.5424
500.8865, 103.5616
501.3686, 103.9352
501.8507, 104.1222
502.3328, 105.3357
502.8149, 108.0280
503.2971, 110.9742
503.7792, 112.3780
504.2613, 111.6873
504.7434, 111.4034
505.2255, 112.0637
505.7076, 112.5577
506.1898, 112.2628
506.6719, 111.4045
507.1540, 110.4548
507.6361, 109.6489
508.1182, 109.0175
508.6003, 108.7507
509.0825, 109.2427
509.5646, 109.0353
510.0467, 107.0382
510.5288, 105.1204
511.0109, 104.3944
511.4930, 104.6955
511.9752, 105.1456
512.4573, 105.2560
512.9394, 105.1136
513.4215, 104.9116
513.9036, 104.6520
514.3857, 104.2762
514.8679, 103.4004
515.3500, 102.6847
515.8321, 102.9462
516.3142, 104.2623
516.7963, 105.9858
517.2784, 108.2969
517.7606, 110.6461
518.2427, 112.2507
518.7248, 113.0544
519.2069, 113.4045
519.6890, 113.3994
520.1711, 113.1749
520.6533, 113.4248
521.1354, 114.6944
521.6175, 115.6380
522.0996, 116.3242
522.5817, 116.4169
523.0638, 115.2551
523.5460, 112.9271
524.0281, 110.4283
524.5102, 108.7036
524.9923, 107.7407
525.4744, 106.9921
525.9565, 106.8295
526.4387, 106.3943
526.9208, 105.1425
527.4029, 103.7372
527.8850, 103.0158
528.3671, 103.1513
528.8492, 103.3303
529.3314, 102.2546
529.8135, 100.1799
530.2956, 99.86516
530.7777, 102.2505
531.2598, 104.7663
531.7419, 105.6953
532.2241, 105.7196
532.7062, 105.8561
533.1883, 106.2169
533.6704, 106.8567
534.1525, 108.0411
534.6346, 109.5116
535.1168, 110.5879
535.5989, 111.0820
536.0810, 111.5408
536.5631, 112.5291
537.0452, 114.0817
537.5273, 115.5218
538.0095, 117.0208
538.4916, 118.2338
538.9737, 118.9236
539.4558, 119.2890
539.9379, 119.6436
540.4200, 120.0839
540.9022, 120.4438
541.3843, 120.4130
541.8664, 119.8387
542.3485, 119.7514
542.8306, 120.9003
543.3127, 121.7271
543.7948, 121.5574
544.2769, 120.8065
544.7590, 120.0163
545.2411, 119.3325
545.7233, 119.0116
546.2054, 119.5699
546.6875, 120.9388
547.1696, 122.1299
547.6517, 123.1423
548.1339, 123.6677
548.6160, 123.2055
549.0981, 122.0237
549.5802, 120.7811
550.0623, 119.1630
550.5444, 117.9841
551.0266, 117.7965
551.5087, 118.4391
551.9908, 119.7366
552.4729, 121.6693
552.9550, 123.5907
553.4371, 124.6341
553.9193, 124.5846
554.4014, 124.9812
554.8835, 126.5398
555.3656, 127.6905
555.8477, 127.7559
556.3298, 127.0933
556.8120, 126.2456
557.2941, 125.4126
557.7762, 124.4672
558.2583, 123.2641
558.7404, 121.8319
559.2225, 119.9231
559.7047, 117.0702
560.1868, 114.3628
560.6689, 112.1592
561.1510, 110.4532
561.6331, 109.2975
562.1152, 108.8810
562.5974, 108.5425
563.0795, 107.7586
563.5616, 106.5561
564.0437, 104.8343
564.5258, 102.3886
565.0079, 100.2663
565.4901, 99.55978
565.9722, 100.2259
566.4543, 100.5571
566.9364, 100.2837
567.4185, 99.98831
567.9006, 100.0300
568.3828, 100.1329
568.8649, 99.81525
569.3470, 98.99220
569.8291, 98.06927
570.3112, 97.47946
570.7933, 97.21484
571.2755, 97.41188
571.7576, 98.55661
572.2397, 99.56464
572.7218, 99.90452
573.2039, 100.1133
573.6860, 100.8583
574.1682, 102.2981
574.6503, 103.9083
575.1324, 105.2770
575.6145, 106.4115
576.0966, 107.4150
576.5787, 108.3838
577.0609, 108.8153
577.5430, 107.8528
578.0251, 106.3090
578.5072, 106.1603
578.9893, 108.0459
579.4714, 109.9718
579.9536, 111.2882
580.4357, 112.1716
580.9178, 112.5841
581.3999, 112.6598
581.8820, 113.1561
582.3641, 114.7248
582.8463, 117.1430
583.3284, 119.1106
583.8105, 120.1201
584.2926, 121.4206
584.7747, 123.0187
585.2568, 124.9957
585.7390, 127.5591
586.2211, 130.6061
586.7032, 133.7146
587.1853, 136.5843
587.6674, 139.3021
588.1495, 142.0857
588.6317, 144.9655
589.1138, 147.8254
589.5959, 151.1884
590.0780, 153.9556
590.5601, 154.6978
591.0422, 153.4561
591.5244, 152.0583
592.0065, 151.0275
592.4886, 150.1009
592.9707, 148.9663
593.4528, 147.7267
593.9349, 146.7921
594.4171, 146.3683
594.8992, 146.1662
595.3813, 145.6467
595.8634, 144.5595
596.3455, 143.9046
596.8276, 144.8535
597.3098, 144.9533
597.7919, 142.8741
598.2740, 139.3128
598.7561, 135.4650
599.2382, 131.8037
599.7203, 128.1163
600.2025, 123.8980
600.6846, 119.1657
601.1667, 115.0582
601.6488, 111.5696
602.1309, 108.9864
602.6130, 108.1702
603.0952, 108.3303
603.5773, 107.8673
604.0594, 106.1558
604.5415, 104.5988
605.0236, 104.0556
605.5057, 104.0614
605.9879, 103.9324
606.4700, 103.5543
606.9521, 103.1027
607.4342, 102.6859
607.9163, 102.3379
608.3984, 102.3242
608.8806, 102.9205
609.3627, 103.4859
609.8448, 104.1202
610.3269, 104.5894
610.8090, 104.6323
611.2911, 104.3040
611.7733, 103.9075
612.2554, 103.5605
612.7375, 103.3700
613.2196, 103.7172
613.7017, 104.6792
614.1838, 105.3933
614.6660, 105.6470
615.1481, 105.4920
615.6302, 104.6686
616.1123, 103.2437
616.5944, 102.6174
617.0765, 103.6370
617.5587, 105.0089
618.0408, 105.9844
618.5229, 106.6283
619.0050, 107.1875
619.4871, 107.7454
619.9692, 108.1213
620.4514, 107.9609
620.9335, 107.0825
621.4156, 107.0622
621.8977, 108.8570
622.3798, 110.3984
622.8619, 110.9559
623.3441, 111.0827
623.8262, 111.2844
624.3083, 111.6987
624.7904, 112.5661
625.2725, 114.2976
625.7546, 116.6138
626.2367, 118.8131
626.7188, 120.8811
627.2009, 122.5781
627.6830, 123.5223
628.1652, 124.2297
628.6473, 126.0395
629.1294, 129.3161
629.6115, 132.2741
630.0936, 134.4046
630.5757, 136.3534
631.0579, 138.4138
631.5400, 140.7095
632.0221, 143.4262
632.5042, 146.6474
632.9863, 150.2780
633.4684, 154.2972
633.9506, 158.9548
634.4327, 162.7984
634.9148, 165.0930
635.3969, 167.3688
635.8790, 170.7322
636.3611, 174.4963
636.8433, 177.3503
637.3254, 178.6656
637.8075, 179.9766
638.2896, 182.4752
638.7717, 185.7012
639.2538, 188.6154
639.7360, 191.0998
640.2181, 194.3391
640.7002, 199.3945
641.1823, 205.6568
641.6644, 210.6906
642.1465, 213.1688
642.6287, 216.1862
643.1108, 220.6711
643.5929, 224.9326
644.0750, 227.8017
644.5571, 229.4556
645.0392, 230.6763
645.5214, 231.8289
646.0035, 232.9680
646.4856, 234.1094
646.9677, 235.2547
647.4498, 236.7047
647.9319, 238.4524
648.4141, 240.6309
648.8962, 243.5845
649.3783, 247.0991
649.8604, 250.2338
650.3425, 251.9991
650.8246, 254.6194
651.3068, 259.0912
651.7889, 264.8238
652.2710, 271.3828
652.7531, 278.5162
653.2352, 285.6696
653.7173, 292.4386
654.1995, 298.8202
654.6816, 305.0010
655.1637, 311.4958
655.6458, 316.5063
656.1279, 320.1874
656.6100, 321.8297
657.0922, 320.8671
657.5743, 317.4210
658.0564, 311.9759
658.5385, 304.5025
659.0206, 295.3936
659.5027, 284.5517
659.9849, 272.3991
660.4670, 259.6570
660.9491, 246.4836
661.4312, 233.9126
661.9133, 222.8194
662.3954, 213.1471
662.8776, 204.3458
663.3597, 196.7396
663.8418, 189.6164
664.3239, 182.5424
664.8060, 176.1694
665.2881, 171.2707
665.7703, 167.6385
666.2524, 164.2898
666.7345, 160.5934
667.2166, 156.7992
667.6987, 153.5343
668.1808, 150.7672
668.6630, 147.1522
669.1451, 142.0679
669.6272, 136.8157
670.1093, 132.5411
670.5914, 129.2605
671.0735, 126.7610
671.5557, 126.1252
672.0378, 124.9396
672.5199, 121.5891
673.0020, 117.8010
673.4841, 115.7103
673.9662, 115.3663
674.4484, 115.1023
674.9305, 113.5962
675.4126, 111.2495
675.8947, 109.3501
676.3768, 107.9267
676.8589, 106.8400
677.3411, 106.1846
677.8232, 105.7274
678.3053, 105.3803
678.7874, 105.0824
679.2695, 104.5858
