##NAMES=Chambersite
##RRUFFID=R060425
##IDEAL CHEMISTRY=Mn^2+^_3_B_7_O_13_Cl
##LOCALITY=Venice Dome, Plaquemines Parish, Louisiana, USA
##OWNER=RRUFF
##SOURCE=Michael Scott
##DESCRIPTION=Brown pseudotetrahedra
##STATUS=The identification of this mineral is confirmed by single-crystal X-ray diffraction and chemical analysis.
##URL=rruff.info/R060425
##MEASURED CHEMISTRY=(Mn_2.93_Fe^2+^_0.05_Mg_0.02_)_Î£=3_B_7.00_O_13_Cl_1.00_ ; B not measured but estimated by difference and stoichiometry.
178.2984, 237.7440
178.7805, 235.2241
179.2626, 232.6822
179.7447, 230.2759
180.2268, 226.9046
180.7090, 220.6031
181.1911, 212.2630
181.6732, 204.6974
182.1553, 199.0030
182.6374, 194.9888
183.1195, 192.7072
183.6017, 192.2782
184.0838, 192.6414
184.5659, 192.1190
185.0480, 191.0674
185.5301, 191.3239
186.0123, 195.0107
186.4944, 200.8116
186.9765, 204.5234
187.4586, 205.9717
187.9407, 205.6369
188.4228, 203.7110
188.9050, 200.3246
189.3871, 196.6816
189.8692, 193.7373
190.3513, 191.2107
190.8334, 187.3122
191.3155, 181.6689
191.7977, 175.4681
192.2798, 170.4325
192.7619, 166.5540
193.2440, 163.4762
193.7261, 161.0829
194.2082, 159.3615
194.6904, 158.2424
195.1725, 158.0054
195.6546, 157.8286
196.1367, 156.1519
196.6188, 152.9122
197.1009, 149.0647
197.5831, 144.7224
198.0652, 139.8505
198.5473, 136.0201
199.0294, 133.3377
199.5115, 131.6816
199.9937, 130.8808
200.4758, 130.9662
200.9579, 131.6926
201.4400, 133.1129
201.9221, 135.2866
202.4042, 137.2908
202.8864, 139.0555
203.3685, 140.6403
203.8506, 142.5736
204.3327, 145.2641
204.8148, 146.6096
205.2969, 144.9382
205.7791, 139.7320
206.2612, 135.3040
206.7433, 131.9694
207.2254, 129.4931
207.7075, 127.2165
208.1896, 124.9771
208.6718, 123.3887
209.1539, 122.9099
209.6360, 123.7613
210.1181, 124.5953
210.6002, 125.2787
211.0823, 125.9368
211.5645, 127.0174
212.0466, 128.7667
212.5287, 130.3746
213.0108, 131.5777
213.4929, 132.6136
213.9750, 132.2832
214.4572, 130.0723
214.9393, 126.6434
215.4214, 123.8118
215.9035, 121.5655
216.3856, 119.9181
216.8678, 118.9050
217.3499, 118.5101
217.8320, 118.7508
218.3141, 119.7302
218.7962, 121.3061
219.2783, 123.1052
219.7605, 125.2627
220.2426, 127.3612
220.7247, 129.1553
221.2068, 130.5658
221.6889, 131.8658
222.1710, 132.9842
222.6532, 134.0155
223.1353, 135.2095
223.6174, 136.5914
224.0995, 138.1197
224.5816, 139.6934
225.0637, 141.0531
225.5459, 143.2270
226.0280, 146.5967
226.5101, 150.7321
226.9922, 154.1917
227.4743, 156.7560
227.9564, 159.0421
228.4386, 161.5031
228.9207, 164.6458
229.4028, 166.5815
229.8849, 166.9109
230.3670, 166.1157
230.8492, 165.4463
231.3313, 164.5688
231.8134, 164.3251
232.2955, 165.1961
232.7776, 167.6884
233.2597, 170.1022
233.7419, 172.4317
234.2240, 174.6849
234.7061, 176.8919
235.1882, 179.4324
235.6703, 181.3579
236.1524, 182.1633
236.6346, 181.1665
237.1167, 180.5660
237.5988, 180.2207
238.0809, 180.3078
238.5630, 181.3178
239.0451, 183.6419
239.5273, 186.2927
240.0094, 188.9537
240.4915, 191.8304
240.9736, 194.2256
241.4557, 196.3481
241.9378, 197.9123
242.4200, 198.4960
242.9021, 198.8852
243.3842, 197.0585
243.8663, 192.0407
244.3484, 182.9634
244.8306, 173.1130
245.3127, 161.8603
245.7948, 150.2547
246.2769, 140.2533
246.7590, 132.1596
247.2411, 125.3238
247.7233, 119.5187
248.2054, 114.6575
248.6875, 111.2400
249.1696, 109.8955
249.6517, 109.6006
250.1338, 108.6332
250.6160, 106.3471
251.0981, 104.5555
251.5802, 103.9706
252.0623, 104.8833
252.5444, 105.4174
253.0265, 105.1980
253.5087, 104.9050
253.9908, 105.6505
254.4729, 108.1832
254.9550, 110.2417
255.4371, 111.0925
255.9192, 110.5700
256.4014, 110.1092
256.8835, 109.6087
257.3656, 109.2710
257.8477, 109.3810
258.3298, 110.1467
258.8120, 110.8986
259.2941, 111.4959
259.7762, 111.9379
260.2583, 112.2966
260.7404, 112.7270
261.2225, 112.8830
261.7047, 112.2804
262.1868, 110.5309
262.6689, 109.0475
263.1510, 108.2619
263.6331, 108.1485
264.1152, 107.3772
264.5974, 105.4962
265.0795, 103.6634
265.5616, 103.2107
266.0437, 104.6808
266.5258, 105.6568
267.0079, 105.4021
267.4901, 104.1582
267.9722, 104.2861
268.4543, 106.3827
268.9364, 108.6657
269.4185, 109.6479
269.9006, 109.0871
270.3828, 108.2636
270.8649, 107.2573
271.3470, 106.1394
271.8291, 105.3543
272.3112, 105.1228
272.7933, 104.6107
273.2755, 103.1143
273.7576, 100.4926
274.2397, 97.82720
274.7218, 95.15344
275.2039, 92.58467
275.6860, 90.51696
276.1682, 89.00230
276.6503, 87.72034
277.1324, 86.31137
277.6145, 84.71783
278.0966, 84.00278
278.5787, 84.43349
279.0609, 85.56651
279.5430, 86.57925
280.0251, 87.50925
280.5072, 88.06763
280.9893, 87.99406
281.4715, 87.29416
281.9536, 86.51293
282.4357, 85.56121
282.9178, 84.75005
283.3999, 84.88010
283.8820, 86.02269
284.3642, 86.79330
284.8463, 86.26713
285.3284, 84.58378
285.8105, 83.41605
286.2926, 82.78988
286.7747, 82.59492
287.2569, 82.81822
287.7390, 83.44267
288.2211, 84.04395
288.7032, 84.48906
289.1853, 84.77579
289.6674, 84.87713
290.1496, 84.77930
290.6317, 84.59885
291.1138, 84.32922
291.5959, 84.02428
292.0780, 84.07355
292.5602, 84.79049
293.0423, 85.87975
293.5244, 86.50429
294.0065, 86.64057
294.4886, 86.80862
294.9707, 87.48889
295.4529, 88.60251
295.9350, 89.83770
296.4171, 91.08977
296.8992, 92.45850
297.3813, 94.17817
297.8634, 96.21524
298.3456, 98.29374
298.8277, 100.2745
299.3098, 102.1208
299.7919, 103.7420
300.2740, 105.1123
300.7561, 106.2395
301.2383, 107.2424
301.7204, 108.0521
302.2025, 108.2739
302.6846, 107.3561
303.1667, 105.7878
303.6488, 104.3414
304.1310, 103.2508
304.6131, 101.9654
305.0952, 99.70039
305.5773, 96.77534
306.0594, 94.06474
306.5415, 92.06057
307.0237, 90.47152
307.5058, 88.92714
307.9879, 87.37473
308.4700, 86.07063
308.9521, 85.26231
309.4343, 84.82658
309.9164, 84.52242
310.3985, 84.52164
310.8806, 84.42143
311.3627, 83.85213
311.8448, 82.78883
312.3270, 81.64601
312.8091, 80.16463
313.2912, 78.90150
313.7733, 78.51444
314.2554, 80.11742
314.7375, 81.89418
315.2197, 83.06306
315.7018, 83.63241
316.1839, 83.65874
316.6660, 82.36072
317.1481, 80.94893
317.6302, 80.46886
318.1124, 82.19843
318.5945, 83.60264
319.0766, 83.28177
319.5587, 81.82371
320.0408, 81.26053
320.5229, 83.41772
321.0051, 85.81109
321.4872, 86.97574
321.9693, 85.88277
322.4514, 85.04687
322.9335, 85.13144
323.4156, 85.79822
323.8978, 86.39545
324.3799, 87.01381
324.8620, 87.36898
325.3441, 87.22671
325.8262, 86.25560
326.3083, 85.78994
326.7905, 85.99283
327.2726, 86.73642
327.7547, 87.85622
328.2368, 90.05673
328.7189, 91.89448
329.2010, 92.75954
329.6832, 92.45427
330.1653, 93.30727
330.6474, 96.25082
331.1295, 99.67956
331.6116, 102.3277
332.0938, 103.8519
332.5759, 105.1392
333.0580, 106.2370
333.5401, 107.1668
334.0222, 107.9755
334.5043, 108.4564
334.9865, 109.1084
335.4686, 110.2185
335.9507, 111.8109
336.4328, 113.7744
336.9149, 115.9723
337.3970, 118.6374
337.8792, 122.3455
338.3613, 127.3621
338.8434, 132.8068
339.3255, 138.3383
339.8076, 143.9545
340.2898, 150.0274
340.7719, 156.9725
341.2540, 163.7581
341.7361, 168.9412
342.2182, 172.3419
342.7003, 175.0123
343.1825, 176.9021
343.6646, 178.2498
344.1467, 180.4653
344.6288, 183.5724
345.1109, 187.5144
345.5930, 192.5052
346.0752, 198.4178
346.5573, 204.5804
347.0394, 210.8713
347.5215, 217.3183
348.0036, 224.0812
348.4857, 231.1372
348.9679, 238.6487
349.4500, 246.7790
349.9321, 255.5451
350.4142, 264.9540
350.8963, 275.0878
351.3784, 285.7452
351.8606, 297.1466
352.3427, 308.8631
352.8248, 319.5585
353.3069, 327.6762
353.7890, 334.4936
354.2711, 342.4994
354.7533, 352.1612
355.2354, 360.2368
355.7175, 365.7364
356.1996, 367.4705
356.6817, 363.3597
357.1638, 350.7156
357.6460, 333.2176
358.1281, 311.8193
358.6102, 287.0258
359.0923, 262.9750
359.5744, 240.9557
360.0565, 221.5327
360.5387, 205.2990
361.0208, 193.1146
361.5029, 183.2285
361.9850, 175.7206
362.4671, 170.0963
362.9492, 164.9559
363.4314, 159.5628
363.9135, 154.7035
364.3956, 150.8457
364.8777, 148.2398
365.3598, 146.1618
365.8419, 145.2799
366.3241, 144.6550
366.8062, 142.8786
367.2883, 138.6655
367.7704, 134.3331
368.2526, 130.4073
368.7347, 126.8946
369.2168, 123.8056
369.6989, 121.4148
370.1810, 119.2548
370.6631, 116.9054
371.1453, 114.0788
371.6274, 111.4869
372.1095, 109.2380
372.5916, 107.2843
373.0737, 105.3652
373.5558, 103.3560
374.0380, 101.5410
374.5201, 100.0141
375.0022, 98.71804
375.4843, 97.97509
375.9664, 97.91683
376.4485, 98.31125
376.9307, 98.76479
377.4128, 99.31660
377.8949, 99.74177
378.3770, 99.89784
378.8591, 99.80122
379.3412, 99.77406
379.8234, 99.80360
380.3055, 99.94764
380.7876, 100.3500
381.2697, 100.9942
381.7518, 101.5210
382.2339, 101.8302
382.7161, 101.9683
383.1982, 101.9543
383.6803, 101.7975
384.1624, 101.7660
384.6445, 102.0952
385.1266, 102.7013
385.6088, 103.4274
386.0909, 104.3054
386.5730, 105.1183
387.0551, 105.5741
387.5372, 105.7424
388.0193, 105.8281
388.5015, 105.7728
388.9836, 105.7743
389.4657, 106.2167
389.9478, 107.1413
390.4299, 107.7678
390.9120, 107.2666
391.3942, 106.2510
391.8763, 105.4820
392.3584, 105.2550
392.8405, 105.3060
393.3226, 105.4356
393.8047, 105.7029
394.2869, 106.3778
394.7690, 107.8879
395.2511, 109.6186
395.7332, 111.1696
396.2154, 112.3072
396.6975, 113.6174
397.1796, 115.1344
397.6617, 116.9314
398.1438, 119.1130
398.6259, 122.5478
399.1081, 125.5543
399.5902, 127.6632
400.0723, 128.8150
400.5544, 129.4987
401.0365, 129.9032
401.5186, 129.6918
402.0008, 128.5556
402.4829, 126.1350
402.9650, 123.4189
403.4471, 120.2778
403.9292, 116.9115
404.4113, 114.3035
404.8935, 112.7020
405.3756, 111.2486
405.8577, 109.5186
406.3398, 107.5072
406.8219, 105.2885
407.3040, 102.6826
407.7862, 100.2113
408.2683, 98.80871
408.7504, 98.51534
409.2325, 97.96326
409.7146, 96.49612
410.1967, 94.47271
410.6789, 92.99174
411.1610, 92.06339
411.6431, 91.41538
412.1252, 90.94416
412.6073, 90.58066
413.0894, 90.13533
413.5716, 89.58691
414.0537, 88.93230
414.5358, 88.11841
415.0179, 87.18865
415.5000, 86.25761
415.9821, 85.12183
416.4643, 84.16924
416.9464, 83.93761
417.4285, 84.50866
417.9106, 85.13628
418.3927, 85.37211
418.8748, 85.37838
419.3570, 85.34431
419.8391, 85.45897
420.3212, 85.42565
420.8033, 84.93472
421.2854, 84.12243
421.7675, 83.61495
422.2497, 83.71844
422.7318, 84.09190
423.2139, 84.53603
423.6960, 84.89510
424.1781, 85.61669
424.6602, 87.47820
425.1424, 89.53381
425.6245, 90.34310
426.1066, 88.60477
426.5887, 87.27160
427.0709, 87.19840
427.5530, 88.38338
428.0351, 88.72436
428.5172, 87.61760
428.9993, 86.49621
429.4814, 86.56052
429.9636, 88.29310
430.4457, 89.30628
430.9278, 89.24938
431.4099, 88.52361
431.8920, 87.95689
432.3741, 87.55570
432.8563, 87.21999
433.3384, 86.75990
433.8205, 86.27083
434.3026, 86.61095
434.7847, 87.88802
435.2668, 89.14365
435.7490, 89.21445
436.2311, 88.40812
436.7132, 87.81265
437.1953, 87.73672
437.6774, 87.96884
438.1595, 88.46978
438.6417, 89.11204
439.1238, 89.36658
439.6059, 88.57584
440.0880, 87.40929
440.5701, 86.60008
441.0522, 86.26865
441.5344, 85.98843
442.0165, 85.58149
442.4986, 85.04205
442.9807, 84.36375
443.4628, 83.27209
443.9449, 82.30767
444.4271, 81.84234
444.9092, 81.76017
445.3913, 81.39059
445.8734, 80.05370
446.3555, 78.79147
446.8376, 78.16366
447.3198, 78.61138
447.8019, 78.89780
448.2840, 78.86483
448.7661, 78.70858
449.2482, 78.72329
449.7303, 79.13580
450.2125, 79.32224
450.6946, 79.05174
451.1767, 78.37132
451.6588, 77.98825
452.1409, 77.93303
452.6230, 78.09663
453.1052, 78.45618
453.5873, 79.03438
454.0694, 79.64045
454.5515, 80.39944
455.0337, 80.89247
455.5158, 79.93578
455.9979, 77.66299
456.4800, 76.20167
456.9621, 77.08963
457.4442, 79.22273
457.9264, 79.83292
458.4085, 78.97239
458.8906, 78.04288
459.3727, 78.26050
459.8548, 79.14426
460.3369, 79.96001
460.8191, 80.60838
461.3012, 81.03854
461.7833, 81.07095
462.2654, 80.86182
462.7475, 80.73546
463.2296, 81.12563
463.7118, 81.39541
464.1939, 80.97948
464.6760, 79.82922
465.1581, 79.13050
465.6402, 79.76685
466.1223, 80.68130
466.6045, 81.12314
467.0866, 80.32044
467.5687, 79.86842
468.0508, 79.84225
468.5329, 80.22080
469.0150, 81.03837
469.4972, 82.85920
469.9793, 84.24516
470.4614, 84.65188
470.9435, 84.02821
471.4256, 83.41304
471.9077, 82.71977
472.3899, 82.21017
472.8720, 82.24015
473.3541, 82.87809
473.8362, 83.23774
474.3183, 83.16236
474.8004, 82.81079
475.2826, 82.30949
475.7647, 81.69399
476.2468, 81.47481
476.7289, 82.15947
477.2110, 83.37838
477.6931, 84.52248
478.1753, 85.58711
478.6574, 86.01372
479.1395, 84.75048
479.6216, 82.72008
480.1037, 81.29638
480.5858, 80.97680
481.0680, 81.06363
481.5501, 81.23926
482.0322, 81.46252
482.5143, 81.64548
482.9964, 81.84492
483.4786, 81.91953
483.9607, 81.67113
484.4428, 81.05079
484.9249, 80.77505
485.4070, 81.59312
485.8892, 82.42498
486.3713, 82.46683
486.8534, 80.55668
487.3355, 79.59801
487.8176, 80.24886
488.2997, 81.69304
488.7819, 82.10619
489.2640, 80.93565
489.7461, 79.97950
490.2282, 79.83059
490.7103, 80.45052
491.1924, 81.28352
491.6746, 82.40472
492.1567, 83.44785
492.6388, 84.11288
493.1209, 84.41670
493.6030, 84.38755
494.0851, 83.94514
494.5673, 83.41258
495.0494, 83.18765
495.5315, 83.25572
496.0136, 83.57124
496.4957, 84.46593
496.9778, 85.38734
497.4600, 85.61340
497.9421, 85.20924
498.4242, 84.85616
498.9063, 84.98402
499.3884, 85.32849
499.8705, 85.60519
500.3527, 85.56434
500.8348, 85.94067
501.3169, 87.72623
501.7990, 89.88181
502.2811, 90.94704
502.7632, 88.90098
503.2454, 87.62012
503.7275, 88.33761
504.2096, 90.83231
504.6917, 92.71849
505.1738, 93.69834
505.6559, 94.45068
506.1381, 95.34722
506.6202, 96.51012
507.1023, 97.29478
507.5844, 97.61107
508.0665, 97.71385
508.5486, 97.99726
509.0308, 98.47173
509.5129, 98.69370
509.9950, 98.60472
510.4771, 98.14101
510.9592, 96.82494
511.4413, 94.77727
511.9235, 93.11124
512.4056, 92.75520
512.8877, 93.14104
513.3698, 93.44176
513.8519, 93.58848
514.3340, 93.75286
514.8162, 94.35008
515.2983, 94.93147
515.7804, 94.90520
516.2625, 93.11053
516.7446, 91.93793
517.2267, 92.56717
517.7089, 94.53883
518.1910, 96.73008
518.6731, 99.51085
519.1552, 101.9122
519.6373, 103.4528
520.1194, 104.0663
520.6016, 104.7477
521.0837, 105.5711
521.5658, 106.3693
522.0479, 106.9565
522.5300, 107.1647
523.0121, 107.8879
523.4943, 109.5530
523.9764, 111.2630
524.4585, 111.3304
524.9406, 109.7327
525.4227, 107.5520
525.9048, 104.8991
526.3870, 102.0712
526.8691, 99.74619
527.3513, 97.90135
527.8334, 96.32680
528.3155, 94.85367
528.7976, 93.54008
529.2797, 92.51805
529.7618, 91.83874
530.2440, 91.18395
530.7261, 89.87362
531.2082, 88.60066
531.6903, 88.27429
532.1724, 90.47890
532.6545, 92.30173
533.1367, 92.38883
533.6188, 91.26669
534.1009, 90.83512
534.5830, 91.93811
535.0651, 93.23832
535.5472, 94.27962
536.0294, 95.01054
536.5115, 95.93539
536.9936, 97.13589
537.4757, 98.41711
537.9578, 99.60110
538.4399, 100.6718
538.9221, 101.7825
539.4042, 102.9068
539.8863, 104.1736
540.3684, 106.0878
540.8505, 108.5576
541.3326, 110.4724
541.8148, 111.1968
542.2969, 111.1969
542.7790, 111.0217
543.2611, 110.7459
543.7432, 110.9429
544.2253, 112.7846
544.7075, 114.8802
545.1896, 115.6292
545.6717, 114.5951
546.1538, 113.4723
546.6359, 112.7643
547.1180, 112.5352
547.6002, 112.8652
548.0823, 114.3189
548.5644, 115.7046
549.0465, 116.9445
549.5286, 117.9743
550.0107, 118.5940
550.4929, 118.5851
550.9750, 118.4863
551.4571, 118.4270
551.9392, 118.4068
552.4213, 118.5245
552.9034, 118.7875
553.3856, 119.1628
553.8677, 119.6491
554.3498, 120.2387
554.8319, 120.7610
555.3140, 121.1180
555.7961, 121.7096
556.2783, 123.3782
556.7604, 125.7310
557.2425, 127.6379
557.7246, 128.5912
558.2067, 129.0193
558.6888, 129.4411
559.1710, 129.7138
559.6531, 129.3298
560.1352, 127.9475
560.6173, 125.9109
561.0994, 123.2663
561.5815, 119.9262
562.0637, 116.7563
562.5458, 113.8773
563.0279, 111.2686
563.5100, 108.8719
563.9921, 106.6875
564.4742, 104.6891
564.9564, 102.8261
565.4385, 101.1878
565.9206, 100.0342
566.4027, 99.49824
566.8848, 98.80781
567.3669, 97.68848
567.8491, 96.29189
568.3312, 94.97495
568.8133, 93.75610
569.2954, 93.04716
569.7775, 93.76644
570.2596, 95.00060
570.7418, 94.74381
571.2239, 92.82576
571.7060, 91.16824
572.1881, 91.46525
572.6702, 92.70991
573.1523, 93.82359
573.6345, 94.56466
574.1166, 95.07803
574.5987, 95.31532
575.0808, 95.37293
575.5629, 95.41368
576.0450, 95.05423
576.5272, 95.15147
577.0093, 95.95193
577.4914, 97.36687
577.9735, 98.91257
578.4556, 100.7256
578.9377, 102.3603
579.4199, 103.4795
579.9020, 104.0532
580.3841, 105.2319
580.8662, 107.1186
581.3483, 109.0438
581.8304, 110.0375
582.3126, 110.4558
582.7947, 111.5508
583.2768, 113.6032
583.7589, 116.2382
584.2410, 119.2249
584.7231, 122.4869
585.2053, 125.8734
585.6874, 129.2460
586.1696, 132.7919
586.6517, 136.5342
587.1338, 140.5082
587.6159, 144.8716
588.0980, 150.2310
588.5801, 155.4754
589.0623, 160.0320
589.5444, 163.7511
590.0265, 167.7742
590.5086, 172.2891
590.9907, 176.8667
591.4728, 181.6462
591.9550, 187.0262
592.4371, 189.6766
592.9192, 189.0457
593.4013, 186.3353
593.8834, 182.9905
594.3655, 179.0279
594.8477, 174.4273
595.3298, 168.8251
595.8119, 163.1169
596.2940, 158.4121
596.7761, 154.6528
597.2582, 151.4961
597.7404, 148.9206
598.2225, 146.7664
598.7046, 145.3198
599.1867, 144.5636
599.6688, 142.8394
600.1509, 139.1815
600.6331, 134.7137
601.1152, 130.1077
601.5973, 125.2707
602.0794, 120.4944
602.5615, 115.6807
603.0436, 111.0614
603.5258, 106.7776
604.0079, 102.6495
604.4900, 100.0570
604.9721, 99.69056
605.4542, 100.3282
605.9363, 99.29781
606.4185, 96.82158
606.9006, 94.78165
607.3827, 94.27633
607.8648, 94.58526
608.3469, 94.86278
608.8290, 95.09103
609.3112, 95.15315
609.7933, 94.82836
610.2754, 94.41841
610.7575, 94.01596
611.2396, 93.57270
611.7217, 93.70109
612.2039, 95.37093
612.6860, 97.17234
613.1681, 98.01785
613.6502, 97.25810
614.1323, 96.61247
614.6144, 96.08488
615.0966, 95.69089
615.5787, 95.40054
616.0608, 95.18095
616.5429, 95.37377
617.0250, 96.28477
617.5071, 97.39690
617.9893, 97.26225
618.4714, 96.05299
618.9535, 95.11532
619.4356, 95.21147
619.9177, 95.93310
620.3998, 96.83971
620.8820, 97.91573
621.3641, 99.09521
621.8462, 100.7142
622.3283, 102.1842
622.8104, 102.9797
623.2925, 102.8512
623.7747, 102.8287
624.2568, 103.0647
624.7389, 103.5019
625.2210, 104.0781
625.7031, 104.7060
626.1852, 105.6758
626.6674, 107.0360
627.1495, 108.6894
627.6316, 110.5334
628.1137, 112.5772
628.5958, 114.5560
629.0779, 116.3057
629.5601, 118.0485
630.0422, 120.1208
630.5243, 122.5340
631.0064, 125.4262
631.4885, 129.1366
631.9706, 133.1804
632.4528, 137.2111
632.9349, 141.1711
633.4170, 144.9835
633.8991, 148.0998
634.3812, 151.4392
634.8633, 155.6712
635.3455, 161.1167
635.8276, 166.5545
636.3097, 172.2050
636.7918, 177.5965
637.2739, 182.2861
637.7560, 186.0546
638.2382, 189.8380
638.7203, 193.6956
639.2024, 197.5408
639.6845, 201.0672
640.1666, 204.3916
640.6487, 208.3700
641.1309, 213.5003
641.6130, 219.1526
642.0951, 224.1663
642.5772, 228.8913
643.0594, 234.1091
643.5415, 240.9687
644.0236, 247.8220
644.5057, 253.7237
644.9879, 258.7404
645.4700, 263.5493
645.9521, 268.7664
646.4342, 273.4460
646.9163, 277.1607
647.3984, 279.8143
647.8806, 282.3684
648.3627, 284.7856
648.8448, 287.2325
649.3269, 289.5311
649.8090, 291.6974
650.2911, 295.7403
650.7733, 302.1543
651.2554, 309.1627
651.7375, 314.4338
652.2196, 318.7241
652.7017, 323.9316
653.1838, 330.6547
653.6660, 338.3018
654.1481, 346.4793
654.6302, 355.2124
655.1123, 364.6824
655.5944, 375.9890
656.0765, 386.8260
656.5587, 396.9138
657.0408, 405.9842
657.5229, 413.3086
658.0050, 419.0233
658.4871, 422.5710
658.9692, 424.1687
659.4514, 423.6042
659.9335, 418.2077
660.4156, 407.7883
660.8977, 394.4351
661.3798, 378.9108
661.8619, 361.8168
662.3441, 344.0342
662.8262, 325.5966
663.3083, 307.5001
663.7904, 289.9879
664.2725, 273.5158
664.7546, 258.5508
665.2368, 245.0914
665.7189, 233.3283
666.2010, 223.8206
666.6831, 215.7043
667.1652, 208.0362
667.6473, 200.6263
668.1295, 193.7966
668.6116, 187.5439
669.0937, 181.8217
669.5758, 176.7837
670.0579, 172.4921
670.5400, 168.0269
671.0222, 163.0068
671.5043, 157.7620
671.9864, 152.7712
672.4685, 148.0462
