##NAMES=Chambersite
##RRUFFID=R050337
##IDEAL CHEMISTRY=Mn^2+^_3_B_7_O_13_Cl
##LOCALITY=Barber's Hill salt dome, Mont Belvieu, Chambers County, Texas, USA
##OWNER=RRUFF
##SOURCE=University of Arizona Mineral Museum
##DESCRIPTION=Deep purple pseudotetrahedron
##STATUS=The identification of this mineral has been confirmed by single-crystal X-ray diffraction.
##URL=rruff.info/R050337
83.36322, 0.0000000E+00
83.84534, 0.0000000E+00
84.32745, 0.0000000E+00
84.80957, 0.0000000E+00
85.29169, 0.0000000E+00
85.77380, 0.0000000E+00
86.25592, 0.0000000E+00
86.73804, 0.0000000E+00
87.22015, 0.0000000E+00
87.70227, 0.0000000E+00
88.18439, 0.0000000E+00
88.66650, 0.0000000E+00
89.14862, 0.0000000E+00
89.63074, 0.0000000E+00
90.11285, 0.0000000E+00
90.59497, 0.0000000E+00
91.07709, 0.0000000E+00
91.55920, 0.0000000E+00
92.04132, 0.0000000E+00
92.52344, 3328.804
93.00555, 3278.824
93.48767, 3285.490
93.96979, 3435.157
94.45190, 3590.672
94.93402, 3738.671
95.41614, 3827.984
95.89825, 3874.805
96.38037, 3909.606
96.86249, 3932.820
97.34460, 3947.149
97.82672, 3955.393
98.30884, 3961.835
98.79095, 3970.572
99.27307, 3973.786
99.75519, 3963.297
100.2373, 3946.231
100.7194, 3926.567
101.2015, 3909.574
101.6837, 3894.150
102.1658, 3879.958
102.6479, 3865.712
103.1300, 3850.762
103.6121, 3838.960
104.0942, 3834.612
104.5764, 3834.663
105.0585, 3835.634
105.5406, 3836.111
106.0227, 3836.303
106.5048, 3836.898
106.9869, 3836.517
107.4691, 3836.220
107.9512, 3835.781
108.4333, 3835.599
108.9154, 3836.767
109.3975, 3840.760
109.8796, 3848.167
110.3618, 3853.623
110.8439, 3856.050
111.3260, 3857.280
111.8081, 3857.867
112.2902, 3857.935
112.7723, 3857.355
113.2545, 3855.784
113.7366, 3851.510
114.2187, 3849.665
114.7008, 3851.544
115.1829, 3854.896
115.6650, 3857.502
116.1471, 3858.552
116.6293, 3859.121
117.1114, 3862.029
117.5935, 3868.851
118.0756, 3874.613
118.5577, 3877.609
119.0398, 3878.595
119.5220, 3879.478
120.0041, 3881.214
120.4862, 3883.143
120.9683, 3883.999
121.4504, 3883.629
121.9325, 3882.427
122.4147, 3880.161
122.8968, 3876.657
123.3789, 3873.900
123.8610, 3872.236
124.3431, 3872.094
124.8252, 3874.779
125.3074, 3881.938
125.7895, 3890.598
126.2716, 3893.938
126.7537, 3887.969
127.2358, 3883.632
127.7179, 3885.460
128.2001, 3890.466
128.6822, 3894.638
129.1643, 3895.263
129.6464, 3892.741
130.1285, 3892.119
130.6107, 3894.761
131.0928, 3898.218
131.5749, 3902.458
132.0570, 3907.138
132.5391, 3911.819
133.0212, 3916.156
133.5034, 3920.254
133.9855, 3923.260
134.4676, 3922.784
134.9497, 3923.355
135.4318, 3928.701
135.9139, 3938.684
136.3961, 3949.083
136.8782, 3954.716
137.3603, 3954.290
137.8424, 3955.825
138.3245, 3961.211
138.8066, 3968.214
139.2888, 3974.683
139.7709, 3980.406
140.2530, 3984.443
140.7351, 3984.650
141.2172, 3981.435
141.6993, 3978.320
142.1815, 3977.109
142.6636, 3977.281
143.1457, 3976.914
143.6278, 3975.467
144.1099, 3973.462
144.5920, 3971.343
145.0742, 3969.138
145.5563, 3966.890
146.0384, 3964.816
146.5205, 3963.030
147.0026, 3960.562
147.4847, 3955.273
147.9668, 3950.552
148.4490, 3948.874
148.9311, 3950.600
149.4132, 3953.503
149.8953, 3954.024
150.3774, 3950.354
150.8595, 3947.942
151.3417, 3947.600
151.8238, 3948.187
152.3059, 3949.017
152.7880, 3949.782
153.2701, 3950.333
153.7522, 3950.297
154.2344, 3949.306
154.7165, 3948.012
155.1986, 3946.030
155.6807, 3943.848
156.1628, 3942.096
156.6449, 3941.108
157.1271, 3940.712
157.6092, 3940.230
158.0913, 3937.871
158.5734, 3937.359
159.0555, 3941.828
159.5376, 3949.303
160.0198, 3954.466
160.5019, 3953.954
160.9840, 3948.970
161.4661, 3945.005
161.9482, 3942.503
162.4303, 3940.478
162.9125, 3938.818
163.3946, 3937.472
163.8767, 3934.957
164.3588, 3929.116
164.8409, 3921.905
165.3230, 3916.777
165.8052, 3915.796
166.2873, 3915.783
166.7694, 3912.210
167.2515, 3903.994
167.7336, 3895.863
168.2157, 3890.095
168.6979, 3885.730
169.1800, 3881.840
169.6621, 3878.302
170.1442, 3874.806
170.6263, 3870.211
171.1084, 3863.048
171.5906, 3857.256
172.0727, 3854.946
172.5548, 3854.394
173.0369, 3853.087
173.5190, 3849.286
174.0011, 3843.410
174.4833, 3839.032
174.9654, 3837.515
175.4475, 3836.263
175.9296, 3834.633
176.4117, 3832.865
176.8938, 3831.560
177.3760, 3831.278
177.8581, 3832.071
178.3402, 3831.772
178.8223, 3830.369
179.3044, 3828.076
179.7865, 3823.875
180.2687, 3818.599
180.7508, 3814.533
181.2329, 3813.886
181.7150, 3817.098
182.1971, 3818.511
182.6792, 3817.655
183.1614, 3815.735
183.6435, 3812.680
184.1256, 3808.789
184.6077, 3805.634
185.0898, 3804.839
185.5719, 3806.611
186.0541, 3807.831
186.5362, 3809.183
187.0183, 3809.493
187.5004, 3806.683
187.9825, 3800.316
188.4646, 3794.423
188.9468, 3793.748
189.4289, 3796.997
189.9110, 3798.995
190.3931, 3798.037
190.8752, 3795.324
191.3573, 3792.530
191.8395, 3789.654
192.3216, 3787.057
192.8037, 3785.073
193.2858, 3783.582
193.7679, 3782.357
194.2500, 3781.511
194.7322, 3780.902
195.2143, 3780.188
195.6964, 3780.016
196.1785, 3778.608
196.6606, 3774.529
197.1427, 3768.669
197.6249, 3762.975
198.1070, 3758.349
198.5891, 3754.828
199.0712, 3752.977
199.5533, 3754.382
200.0354, 3755.780
200.5176, 3755.727
200.9997, 3754.645
201.4818, 3753.576
201.9639, 3753.253
202.4460, 3753.669
202.9281, 3754.743
203.4103, 3758.562
203.8924, 3761.121
204.3745, 3760.785
204.8566, 3758.063
205.3387, 3754.413
205.8208, 3751.028
206.3030, 3747.911
206.7851, 3745.052
207.2672, 3741.795
207.7493, 3739.376
208.2314, 3738.873
208.7135, 3739.850
209.1957, 3740.847
209.6778, 3740.448
210.1599, 3738.325
210.6420, 3737.352
211.1241, 3738.795
211.6062, 3740.021
212.0884, 3739.680
212.5705, 3737.764
213.0526, 3734.923
213.5347, 3731.488
214.0168, 3727.325
214.4989, 3724.485
214.9811, 3723.878
215.4632, 3723.747
215.9453, 3723.155
216.4274, 3721.991
216.9095, 3720.250
217.3916, 3717.560
217.8738, 3714.007
218.3559, 3712.072
218.8380, 3713.694
219.3201, 3715.751
219.8022, 3715.350
220.2843, 3712.290
220.7665, 3708.629
221.2486, 3705.511
221.7307, 3703.110
222.2128, 3702.137
222.6949, 3704.789
223.1770, 3707.837
223.6592, 3707.098
224.1413, 3701.979
224.6234, 3696.387
225.1055, 3692.052
225.5876, 3689.305
226.0697, 3689.382
226.5519, 3694.987
227.0340, 3702.343
227.5161, 3705.729
227.9982, 3704.410
228.4803, 3701.546
228.9624, 3697.602
229.4446, 3693.560
229.9267, 3690.925
230.4088, 3690.989
230.8909, 3692.182
231.3730, 3691.595
231.8551, 3689.013
232.3373, 3685.121
232.8194, 3678.328
233.3015, 3671.077
233.7836, 3666.438
234.2657, 3666.089
234.7478, 3668.429
235.2300, 3669.894
235.7121, 3670.106
236.1942, 3670.202
236.6763, 3670.742
237.1584, 3671.295
237.6405, 3671.490
238.1227, 3671.211
238.6048, 3670.330
239.0869, 3668.416
239.5690, 3664.714
240.0511, 3661.253
240.5332, 3659.693
241.0154, 3657.998
241.4975, 3653.527
241.9796, 3645.099
242.4617, 3634.902
242.9438, 3628.770
243.4259, 3630.564
243.9081, 3630.422
244.3902, 3625.797
244.8723, 3619.644
245.3544, 3614.684
245.8365, 3611.963
246.3186, 3610.804
246.8008, 3609.629
247.2829, 3607.984
247.7650, 3607.040
248.2471, 3607.876
248.7292, 3608.844
249.2113, 3608.284
249.6935, 3605.657
250.1756, 3601.849
250.6577, 3598.583
251.1398, 3596.310
251.6219, 3593.953
252.1040, 3591.312
252.5862, 3588.692
253.0683, 3586.302
253.5504, 3584.231
254.0325, 3582.521
254.5146, 3581.309
254.9967, 3581.313
255.4789, 3580.467
255.9610, 3578.425
256.4431, 3575.793
256.9252, 3573.125
257.4073, 3570.548
257.8894, 3567.695
258.3716, 3563.771
258.8537, 3557.330
259.3358, 3554.356
259.8179, 3558.454
260.3000, 3563.872
260.7821, 3565.313
261.2643, 3561.949
261.7464, 3556.971
262.2285, 3553.722
262.7106, 3552.595
263.1927, 3551.698
263.6748, 3550.945
264.1570, 3550.421
264.6391, 3550.346
265.1212, 3550.696
265.6033, 3551.042
266.0854, 3551.229
266.5675, 3551.155
267.0497, 3549.542
267.5318, 3544.578
268.0139, 3539.297
268.4960, 3535.739
268.9781, 3534.081
269.4602, 3534.483
269.9424, 3538.545
270.4245, 3545.120
270.9066, 3546.930
271.3887, 3540.133
271.8708, 3531.316
272.3529, 3525.328
272.8351, 3522.066
273.3172, 3519.283
273.7993, 3515.388
274.2814, 3511.111
274.7635, 3508.535
275.2456, 3509.052
275.7278, 3509.807
276.2099, 3508.515
276.6920, 3505.440
277.1741, 3502.789
277.6562, 3501.928
278.1383, 3501.928
278.6205, 3500.702
279.1026, 3497.537
279.5847, 3494.640
280.0668, 3494.066
280.5489, 3495.329
281.0310, 3495.393
281.5132, 3492.328
281.9953, 3488.442
282.4774, 3487.148
282.9595, 3488.814
283.4416, 3490.745
283.9237, 3492.259
284.4059, 3492.959
284.8880, 3490.664
285.3701, 3483.058
285.8522, 3474.728
286.3343, 3470.116
286.8164, 3469.060
287.2986, 3470.090
287.7807, 3474.420
288.2628, 3480.490
288.7449, 3482.677
289.2270, 3478.595
289.7091, 3473.437
290.1913, 3471.852
290.6734, 3472.941
291.1555, 3473.474
291.6376, 3471.482
292.1197, 3467.923
292.6018, 3465.176
293.0840, 3463.813
293.5661, 3462.173
294.0482, 3458.531
294.5303, 3453.907
295.0124, 3450.120
295.4945, 3447.963
295.9767, 3447.047
296.4588, 3446.853
296.9409, 3447.570
297.4230, 3448.375
297.9051, 3449.305
298.3872, 3449.947
298.8694, 3449.559
299.3515, 3447.486
299.8336, 3445.084
300.3157, 3444.829
300.7978, 3447.396
301.2799, 3447.959
301.7621, 3442.530
302.2442, 3435.272
302.7263, 3429.731
303.2084, 3426.628
303.6905, 3424.643
304.1726, 3422.902
304.6548, 3421.462
305.1369, 3418.783
305.6190, 3412.620
306.1011, 3406.632
306.5832, 3403.905
307.0653, 3404.573
307.5475, 3406.102
308.0296, 3407.077
308.5117, 3407.434
308.9938, 3406.050
309.4759, 3401.175
309.9580, 3396.430
310.4402, 3394.452
310.9223, 3394.734
311.4044, 3395.233
311.8865, 3394.562
312.3686, 3393.021
312.8507, 3392.051
313.3329, 3392.242
313.8150, 3391.949
314.2971, 3389.696
314.7792, 3386.422
315.2613, 3383.842
315.7434, 3382.735
316.2256, 3382.770
316.7077, 3383.513
317.1898, 3385.452
317.6719, 3386.705
318.1540, 3385.751
318.6361, 3383.955
319.1183, 3382.994
319.6004, 3383.720
320.0825, 3384.412
320.5646, 3382.061
321.0467, 3375.960
321.5288, 3371.365
322.0110, 3371.254
322.4931, 3372.584
322.9752, 3373.344
323.4573, 3373.234
323.9394, 3372.304
324.4215, 3369.895
324.9037, 3366.077
325.3858, 3363.970
325.8679, 3365.643
326.3500, 3367.679
326.8321, 3367.563
327.3142, 3365.500
327.7964, 3363.127
328.2785, 3361.336
328.7606, 3360.106
329.2427, 3359.316
329.7248, 3359.024
330.2069, 3359.118
330.6891, 3360.268
331.1712, 3361.724
331.6533, 3361.722
332.1354, 3358.224
332.6175, 3353.402
333.0996, 3352.037
333.5818, 3355.106
334.0639, 3358.456
334.5460, 3359.473
335.0281, 3359.774
335.5102, 3361.225
335.9923, 3364.524
336.4745, 3368.598
336.9566, 3372.505
337.4387, 3376.260
337.9208, 3379.254
338.4029, 3380.782
338.8850, 3381.776
339.3672, 3383.176
339.8493, 3385.091
340.3314, 3386.975
340.8135, 3388.097
341.2956, 3388.692
341.7777, 3390.210
342.2599, 3393.180
342.7420, 3396.792
343.2241, 3400.426
343.7062, 3404.079
344.1883, 3407.666
344.6704, 3411.063
345.1526, 3414.379
345.6347, 3418.104
346.1168, 3422.617
346.5989, 3426.370
347.0810, 3426.344
347.5631, 3424.888
348.0453, 3426.497
348.5274, 3433.994
349.0095, 3443.527
349.4916, 3450.844
349.9737, 3455.884
350.4558, 3460.601
350.9380, 3465.605
351.4201, 3470.974
351.9022, 3476.961
352.3843, 3484.017
352.8664, 3490.425
353.3485, 3496.134
353.8307, 3500.513
354.3128, 3500.832
354.7949, 3495.759
355.2770, 3487.186
355.7591, 3477.363
356.2412, 3466.425
356.7234, 3453.913
357.2055, 3438.734
357.6876, 3422.161
358.1697, 3405.805
358.6518, 3389.716
359.1339, 3374.880
359.6161, 3362.429
360.0982, 3352.120
360.5803, 3342.974
361.0624, 3335.630
361.5445, 3328.897
362.0266, 3321.543
362.5088, 3313.738
362.9909, 3307.039
363.4730, 3302.491
363.9551, 3299.617
364.4372, 3296.724
364.9193, 3294.130
365.4015, 3291.033
365.8836, 3286.673
366.3657, 3281.627
366.8478, 3277.011
367.3299, 3273.205
367.8120, 3269.942
368.2942, 3266.833
368.7763, 3263.860
369.2584, 3261.073
369.7405, 3258.849
370.2226, 3256.611
370.7047, 3253.504
371.1869, 3249.501
371.6690, 3245.891
372.1511, 3244.053
372.6332, 3244.087
373.1153, 3242.590
373.5974, 3239.044
374.0796, 3234.673
374.5617, 3229.093
375.0438, 3223.109
375.5259, 3218.525
376.0080, 3216.411
376.4901, 3216.268
376.9723, 3216.423
377.4544, 3218.587
377.9365, 3218.835
378.4186, 3214.794
378.9007, 3209.501
379.3828, 3206.739
379.8650, 3207.414
380.3471, 3208.982
380.8292, 3207.741
381.3113, 3202.094
381.7934, 3198.364
382.2755, 3197.078
382.7577, 3196.964
383.2398, 3198.405
383.7219, 3200.591
384.2040, 3201.343
384.6861, 3198.711
385.1682, 3193.007
385.6504, 3189.110
386.1325, 3189.659
386.6146, 3189.198
387.0967, 3186.205
387.5788, 3181.899
388.0609, 3177.556
388.5431, 3173.746
389.0252, 3170.795
389.5073, 3169.414
389.9894, 3170.103
390.4715, 3171.387
390.9536, 3174.212
391.4358, 3176.688
391.9179, 3177.104
392.4000, 3175.633
392.8821, 3174.207
393.3642, 3175.180
393.8463, 3178.686
394.3285, 3179.521
394.8106, 3174.856
395.2927, 3170.666
395.7748, 3169.118
396.2569, 3169.375
396.7390, 3169.995
397.2212, 3170.360
397.7033, 3170.489
398.1854, 3170.343
398.6675, 3169.790
399.1496, 3169.414
399.6317, 3170.853
400.1139, 3171.646
400.5960, 3169.188
401.0781, 3163.131
401.5602, 3156.774
402.0423, 3153.627
402.5244, 3153.333
403.0066, 3151.698
403.4887, 3147.420
403.9708, 3142.931
404.4529, 3139.828
404.9350, 3137.855
405.4171, 3136.336
405.8993, 3135.289
406.3814, 3134.377
406.8635, 3133.096
407.3456, 3131.431
407.8277, 3129.380
408.3098, 3126.087
408.7920, 3122.838
409.2741, 3122.072
409.7562, 3125.075
410.2383, 3127.516
410.7204, 3126.172
411.2025, 3122.158
411.6847, 3118.734
412.1668, 3116.765
412.6489, 3115.405
413.1310, 3113.296
413.6131, 3110.427
414.0952, 3109.135
414.5774, 3112.092
415.0595, 3115.274
415.5416, 3114.140
416.0237, 3108.985
416.5058, 3104.292
416.9879, 3103.089
417.4701, 3104.746
417.9522, 3105.772
418.4343, 3105.408
418.9164, 3105.411
419.3985, 3106.781
419.8806, 3108.642
420.3628, 3109.581
420.8449, 3109.149
421.3270, 3108.194
421.8091, 3108.065
422.2912, 3109.530
422.7733, 3109.472
423.2555, 3107.006
423.7376, 3103.919
424.2197, 3101.029
424.7018, 3098.456
425.1839, 3096.057
425.6660, 3093.665
426.1482, 3091.427
426.6303, 3090.324
427.1124, 3091.694
427.5945, 3092.641
428.0766, 3093.057
428.5587, 3092.795
429.0409, 3091.519
429.5230, 3089.207
430.0051, 3086.526
430.4872, 3084.394
430.9693, 3082.921
431.4514, 3081.617
431.9336, 3081.124
432.4157, 3080.217
432.8978, 3078.187
433.3799, 3075.321
433.8620, 3072.302
434.3441, 3069.375
434.8263, 3066.751
435.3084, 3065.404
435.7905, 3066.149
436.2726, 3065.894
436.7547, 3061.585
437.2368, 3056.786
437.7190, 3055.084
438.2011, 3057.300
438.6832, 3060.181
439.1653, 3061.139
439.6474, 3060.401
440.1295, 3059.049
440.6117, 3056.848
441.0938, 3054.816
441.5759, 3054.303
442.0580, 3054.756
442.5401, 3054.420
443.0222, 3051.921
443.5044, 3049.031
443.9865, 3047.698
444.4686, 3047.770
444.9507, 3047.727
445.4328, 3046.818
445.9149, 3045.406
446.3971, 3044.469
446.8792, 3044.513
447.3613, 3043.604
447.8434, 3040.216
448.3255, 3036.058
448.8076, 3033.538
449.2898, 3032.968
449.7719, 3032.407
450.2540, 3029.835
450.7361, 3025.087
451.2182, 3021.992
451.7003, 3020.587
452.1825, 3020.512
452.6646, 3023.466
453.1467, 3027.275
453.6288, 3027.873
454.1109, 3023.466
454.5930, 3016.787
455.0751, 3013.427
455.5573, 3016.011
456.0394, 3016.801
456.5215, 3014.053
457.0036, 3011.276
457.4857, 3010.670
457.9678, 3012.002
458.4500, 3013.791
458.9321, 3015.127
459.4142, 3015.881
459.8963, 3015.074
460.3784, 3011.096
460.8605, 3008.464
461.3427, 3008.949
461.8248, 3010.840
462.3069, 3013.054
462.7890, 3015.317
463.2711, 3016.246
463.7532, 3013.540
464.2354, 3007.527
464.7175, 3003.052
465.1996, 3001.179
465.6817, 3000.135
466.1638, 2998.328
466.6459, 2996.281
467.1281, 2995.468
467.6102, 2997.434
468.0923, 2999.863
468.5744, 3000.027
469.0565, 2998.116
469.5386, 2996.219
470.0208, 2995.302
470.5029, 2994.591
470.9850, 2992.438
471.4671, 2988.445
471.9492, 2985.371
472.4313, 2984.782
472.9135, 2984.929
473.3956, 2983.924
473.8777, 2981.643
474.3598, 2979.021
474.8419, 2976.781
475.3240, 2974.863
475.8062, 2972.605
476.2883, 2969.864
476.7704, 2967.051
477.2525, 2963.706
477.7346, 2960.598
478.2167, 2958.850
478.6989, 2958.671
479.1810, 2959.115
479.6631, 2959.060
480.1452, 2958.555
480.6273, 2957.253
481.1094, 2953.133
481.5916, 2950.283
482.0737, 2951.397
482.5558, 2954.451
483.0379, 2955.852
483.5200, 2953.770
484.0021, 2949.710
484.4843, 2946.271
484.9664, 2943.344
485.4485, 2941.486
485.9306, 2941.856
486.4127, 2942.472
486.8948, 2942.149
487.3770, 2940.894
487.8591, 2939.148
488.3412, 2936.366
488.8233, 2933.519
489.3054, 2933.003
489.7875, 2935.129
490.2697, 2936.749
490.7518, 2936.119
491.2339, 2934.018
491.7160, 2932.196
492.1981, 2930.812
492.6802, 2929.282
493.1624, 2926.954
493.6445, 2924.491
494.1266, 2923.059
494.6087, 2922.821
495.0908, 2922.802
495.5729, 2922.138
496.0551, 2920.834
496.5372, 2919.618
497.0193, 2918.889
497.5014, 2917.783
497.9835, 2915.369
498.4656, 2912.643
498.9478, 2911.213
499.4299, 2911.539
499.9120, 2912.416
500.3941, 2912.095
500.8762, 2910.278
501.3583, 2908.400
501.8405, 2905.506
502.3226, 2903.520
502.8047, 2904.102
503.2868, 2905.954
503.7689, 2906.648
504.2510, 2904.892
504.7332, 2901.886
505.2153, 2899.445
505.6974, 2897.374
506.1795, 2897.206
506.6616, 2901.684
507.1437, 2905.843
507.6259, 2905.647
508.1080, 2901.678
508.5901, 2897.477
509.0722, 2894.524
509.5543, 2892.457
510.0364, 2891.085
510.5186, 2890.386
511.0007, 2888.974
511.4828, 2885.702
511.9649, 2881.782
512.4470, 2880.010
512.9291, 2881.073
513.4113, 2881.492
513.8934, 2879.084
514.3755, 2876.380
514.8576, 2876.595
515.3397, 2879.622
515.8218, 2882.540
516.3040, 2883.235
516.7861, 2881.903
517.2682, 2880.005
517.7503, 2876.147
518.2324, 2873.478
518.7145, 2872.470
519.1967, 2872.645
519.6788, 2874.275
520.1609, 2876.968
520.6430, 2878.896
521.1251, 2878.007
521.6072, 2874.382
522.0894, 2871.197
522.5715, 2869.219
523.0536, 2866.409
523.5357, 2860.829
524.0178, 2854.706
524.4999, 2850.665
524.9821, 2849.432
525.4642, 2849.582
525.9463, 2850.360
526.4284, 2851.532
526.9105, 2852.155
527.3926, 2852.238
527.8748, 2851.326
528.3569, 2848.054
528.8390, 2843.412
529.3211, 2840.815
529.8032, 2842.083
530.2853, 2843.798
530.7675, 2844.668
531.2496, 2844.583
531.7317, 2842.586
532.2138, 2838.347
532.6959, 2834.741
533.1780, 2835.879
533.6602, 2843.246
534.1423, 2845.916
534.6244, 2840.797
535.1065, 2835.144
535.5886, 2830.327
536.0707, 2827.147
536.5529, 2827.340
537.0350, 2831.465
537.5171, 2836.433
537.9992, 2836.776
538.4813, 2831.286
538.9634, 2827.453
539.4456, 2826.605
539.9277, 2826.427
540.4098, 2826.216
540.8919, 2825.851
541.3740, 2825.176
541.8561, 2824.114
542.3383, 2822.761
542.8204, 2821.285
543.3025, 2819.657
543.7846, 2817.624
544.2667, 2815.052
544.7488, 2812.176
545.2310, 2808.721
545.7131, 2804.835
546.1952, 2802.495
546.6773, 2803.854
547.1594, 2805.131
547.6415, 2803.433
548.1237, 2799.688
548.6058, 2796.234
549.0879, 2794.015
549.5700, 2792.660
550.0521, 2791.631
550.5342, 2791.126
551.0164, 2790.385
551.4985, 2789.111
551.9806, 2787.962
552.4627, 2787.519
552.9448, 2787.353
553.4269, 2786.461
553.9091, 2784.293
554.3912, 2781.895
554.8733, 2781.283
555.3554, 2782.745
555.8375, 2783.967
556.3196, 2785.004
556.8018, 2785.262
557.2839, 2784.554
557.7660, 2782.862
558.2481, 2780.016
558.7302, 2774.755
559.2123, 2769.766
559.6945, 2769.141
560.1766, 2771.598
560.6587, 2770.986
561.1408, 2764.930
561.6229, 2756.898
562.1050, 2750.850
562.5872, 2747.058
563.0693, 2744.409
563.5514, 2744.071
564.0335, 2743.711
564.5156, 2742.027
564.9977, 2739.502
565.4799, 2737.047
565.9620, 2735.036
566.4441, 2733.292
566.9262, 2731.591
567.4083, 2730.014
567.8904, 2728.105
568.3726, 2724.727
568.8547, 2722.210
569.3368, 2722.127
569.8189, 2723.238
570.3010, 2723.366
570.7831, 2721.549
571.2653, 2719.384
571.7474, 2719.379
572.2295, 2721.085
572.7116, 2720.385
573.1937, 2715.673
573.6758, 2710.885
574.1580, 2709.917
574.6401, 2711.729
575.1222, 2712.211
575.6043, 2710.082
576.0864, 2707.578
576.5685, 2705.631
577.0507, 2704.098
577.5328, 2702.937
578.0149, 2702.089
