##NAMES=Changoite
##RRUFFID=R110213
##IDEAL CHEMISTRY=Na_2_Zn^2+^(S^6+^O_4_)_2_&#183;4H_2_O
##LOCALITY=La Compania mine, Caracoles, Sierra Gorda, II Region, Atacama Desert, Chile
##OWNER=RRUFF
##SOURCE=Gunnar Farber
##DESCRIPTION=Pale yellow transparent anhedral crystals associated with krohnkite and caracolite
##STATUS=The identification of this mineral has been confirmed only by single crystal X-ray diffraction.
##URL=rruff.info/R110213
9.112140e+001, 0.000000e+000
9.160352e+001, 5.209332e+002
9.208563e+001, 5.100188e+002
9.256775e+001, 5.086458e+002
9.304987e+001, 5.216797e+002
9.353198e+001, 5.380139e+002
9.401410e+001, 5.479106e+002
9.449622e+001, 5.518005e+002
9.497833e+001, 5.527697e+002
9.546045e+001, 5.533759e+002
9.594257e+001, 5.536166e+002
9.642468e+001, 5.526349e+002
9.690680e+001, 5.502243e+002
9.738892e+001, 5.478024e+002
9.787103e+001, 5.459034e+002
9.835315e+001, 5.438610e+002
9.883527e+001, 5.410530e+002
9.931738e+001, 5.383654e+002
9.979950e+001, 5.359455e+002
1.002816e+002, 5.338674e+002
1.007637e+002, 5.320081e+002
1.012458e+002, 5.302971e+002
1.017280e+002, 5.286543e+002
1.022101e+002, 5.270076e+002
1.026922e+002, 5.254851e+002
1.031743e+002, 5.242830e+002
1.036564e+002, 5.233146e+002
1.041385e+002, 5.224934e+002
1.046207e+002, 5.215402e+002
1.051028e+002, 5.206119e+002
1.055849e+002, 5.203987e+002
1.060670e+002, 5.216290e+002
1.065491e+002, 5.229562e+002
1.070313e+002, 5.229411e+002
1.075134e+002, 5.213842e+002
1.079955e+002, 5.191957e+002
1.084776e+002, 5.171606e+002
1.089597e+002, 5.152271e+002
1.094418e+002, 5.135927e+002
1.099240e+002, 5.124598e+002
1.104061e+002, 5.115314e+002
1.108882e+002, 5.106092e+002
1.113703e+002, 5.096108e+002
1.118524e+002, 5.085953e+002
1.123345e+002, 5.077130e+002
1.128167e+002, 5.068754e+002
1.132988e+002, 5.063376e+002
1.137809e+002, 5.061355e+002
1.142630e+002, 5.062240e+002
1.147451e+002, 5.066093e+002
1.152272e+002, 5.073242e+002
1.157094e+002, 5.083353e+002
1.161915e+002, 5.088973e+002
1.166736e+002, 5.089298e+002
1.171557e+002, 5.086765e+002
1.176378e+002, 5.080529e+002
1.181199e+002, 5.071567e+002
1.186021e+002, 5.062663e+002
1.190842e+002, 5.056190e+002
1.195663e+002, 5.052368e+002
1.200484e+002, 5.048214e+002
1.205305e+002, 5.043269e+002
1.210126e+002, 5.038159e+002
1.214948e+002, 5.034969e+002
1.219769e+002, 5.034479e+002
1.224590e+002, 5.030984e+002
1.229411e+002, 5.015465e+002
1.234232e+002, 4.991123e+002
1.239053e+002, 4.967520e+002
1.243875e+002, 4.951502e+002
1.248696e+002, 4.938877e+002
1.253517e+002, 4.916666e+002
1.258338e+002, 4.875827e+002
1.263159e+002, 4.835681e+002
1.267980e+002, 4.810791e+002
1.272802e+002, 4.798915e+002
1.277623e+002, 4.789562e+002
1.282444e+002, 4.774734e+002
1.287265e+002, 4.754091e+002
1.292086e+002, 4.732370e+002
1.296907e+002, 4.706175e+002
1.301729e+002, 4.681696e+002
1.306550e+002, 4.663915e+002
1.311371e+002, 4.652527e+002
1.316192e+002, 4.641905e+002
1.321013e+002, 4.623590e+002
1.325834e+002, 4.590869e+002
1.330656e+002, 4.563308e+002
1.335477e+002, 4.543098e+002
1.340298e+002, 4.526078e+002
1.345119e+002, 4.509572e+002
1.349940e+002, 4.492614e+002
1.354761e+002, 4.475290e+002
1.359583e+002, 4.457928e+002
1.364404e+002, 4.438596e+002
1.369225e+002, 4.421875e+002
1.374046e+002, 4.408487e+002
1.378867e+002, 4.397725e+002
1.383688e+002, 4.389520e+002
1.388510e+002, 4.384339e+002
1.393331e+002, 4.380456e+002
1.398152e+002, 4.372140e+002
1.402973e+002, 4.357390e+002
1.407794e+002, 4.342203e+002
1.412615e+002, 4.328433e+002
1.417437e+002, 4.316120e+002
1.422258e+002, 4.305115e+002
1.427079e+002, 4.295040e+002
1.431900e+002, 4.286762e+002
1.436721e+002, 4.281469e+002
1.441542e+002, 4.280705e+002
1.446364e+002, 4.281095e+002
1.451185e+002, 4.280075e+002
1.456006e+002, 4.277868e+002
1.460827e+002, 4.272854e+002
1.465648e+002, 4.258924e+002
1.470469e+002, 4.243310e+002
1.475291e+002, 4.234409e+002
1.480112e+002, 4.237314e+002
1.484933e+002, 4.246400e+002
1.489754e+002, 4.248530e+002
1.494575e+002, 4.239154e+002
1.499396e+002, 4.230399e+002
1.504218e+002, 4.227368e+002
1.509039e+002, 4.226992e+002
1.513860e+002, 4.224962e+002
1.518681e+002, 4.218275e+002
1.523502e+002, 4.207735e+002
1.528323e+002, 4.200709e+002
1.533145e+002, 4.200017e+002
1.537966e+002, 4.200501e+002
1.542787e+002, 4.203387e+002
1.547608e+002, 4.206709e+002
1.552429e+002, 4.206903e+002
1.557250e+002, 4.200731e+002
1.562072e+002, 4.187555e+002
1.566893e+002, 4.177395e+002
1.571714e+002, 4.168488e+002
1.576535e+002, 4.163312e+002
1.581356e+002, 4.164519e+002
1.586177e+002, 4.171106e+002
1.590999e+002, 4.179240e+002
1.595820e+002, 4.185880e+002
1.600641e+002, 4.190953e+002
1.605462e+002, 4.192239e+002
1.610283e+002, 4.182720e+002
1.615104e+002, 4.174288e+002
1.619926e+002, 4.178509e+002
1.624747e+002, 4.196693e+002
1.629568e+002, 4.216883e+002
1.634389e+002, 4.226575e+002
1.639210e+002, 4.226231e+002
1.644031e+002, 4.222663e+002
1.648853e+002, 4.214887e+002
1.653674e+002, 4.205114e+002
1.658495e+002, 4.195681e+002
1.663316e+002, 4.185727e+002
1.668137e+002, 4.179565e+002
1.672958e+002, 4.184612e+002
1.677780e+002, 4.197924e+002
1.682601e+002, 4.208195e+002
1.687422e+002, 4.207299e+002
1.692243e+002, 4.198286e+002
1.697064e+002, 4.194178e+002
1.701885e+002, 4.201269e+002
1.706707e+002, 4.207016e+002
1.711528e+002, 4.199820e+002
1.716349e+002, 4.182919e+002
1.721170e+002, 4.169872e+002
1.725991e+002, 4.176405e+002
1.730812e+002, 4.204052e+002
1.735634e+002, 4.218239e+002
1.740455e+002, 4.201325e+002
1.745276e+002, 4.182496e+002
1.750097e+002, 4.174166e+002
1.754918e+002, 4.176098e+002
1.759739e+002, 4.180785e+002
1.764561e+002, 4.180050e+002
1.769382e+002, 4.172088e+002
1.774203e+002, 4.164601e+002
1.779024e+002, 4.155511e+002
1.783845e+002, 4.148362e+002
1.788666e+002, 4.146115e+002
1.793488e+002, 4.148582e+002
1.798309e+002, 4.152775e+002
1.803130e+002, 4.154818e+002
1.807951e+002, 4.154597e+002
1.812772e+002, 4.151890e+002
1.817593e+002, 4.143936e+002
1.822415e+002, 4.135618e+002
1.827236e+002, 4.130771e+002
1.832057e+002, 4.130224e+002
1.836878e+002, 4.131981e+002
1.841699e+002, 4.133289e+002
1.846520e+002, 4.135423e+002
1.851342e+002, 4.133974e+002
1.856163e+002, 4.124979e+002
1.860984e+002, 4.114034e+002
1.865805e+002, 4.107589e+002
1.870626e+002, 4.107715e+002
1.875447e+002, 4.110792e+002
1.880269e+002, 4.110857e+002
1.885090e+002, 4.107508e+002
1.889911e+002, 4.103672e+002
1.894732e+002, 4.098305e+002
1.899553e+002, 4.093096e+002
1.904374e+002, 4.091811e+002
1.909196e+002, 4.096694e+002
1.914017e+002, 4.103170e+002
1.918838e+002, 4.104743e+002
1.923659e+002, 4.101509e+002
1.928480e+002, 4.096302e+002
1.933301e+002, 4.089665e+002
1.938123e+002, 4.081881e+002
1.942944e+002, 4.073661e+002
1.947765e+002, 4.063881e+002
1.952586e+002, 4.055495e+002
1.957407e+002, 4.052306e+002
1.962228e+002, 4.054427e+002
1.967050e+002, 4.055592e+002
1.971871e+002, 4.050727e+002
1.976692e+002, 4.040092e+002
1.981513e+002, 4.029372e+002
1.986334e+002, 4.019592e+002
1.991155e+002, 4.010144e+002
1.995977e+002, 3.999949e+002
2.000798e+002, 3.989122e+002
2.005619e+002, 3.979804e+002
2.010440e+002, 3.974486e+002
2.015261e+002, 3.973724e+002
2.020082e+002, 3.973217e+002
2.024904e+002, 3.972027e+002
2.029725e+002, 3.971330e+002
2.034546e+002, 3.972250e+002
2.039367e+002, 3.974693e+002
2.044188e+002, 3.977178e+002
2.049009e+002, 3.977070e+002
2.053831e+002, 3.972115e+002
2.058652e+002, 3.971698e+002
2.063473e+002, 3.982864e+002
2.068294e+002, 3.993252e+002
2.073115e+002, 3.994848e+002
2.077936e+002, 3.986828e+002
2.082758e+002, 3.974451e+002
2.087579e+002, 3.964336e+002
2.092400e+002, 3.954614e+002
2.097221e+002, 3.952239e+002
2.102042e+002, 3.962152e+002
2.106863e+002, 3.974563e+002
2.111685e+002, 3.982929e+002
2.116506e+002, 3.985956e+002
2.121327e+002, 3.986688e+002
2.126148e+002, 3.989687e+002
2.130969e+002, 3.997386e+002
2.135790e+002, 4.001972e+002
2.140612e+002, 4.003890e+002
2.145433e+002, 4.002744e+002
2.150254e+002, 3.995603e+002
2.155075e+002, 3.982539e+002
2.159896e+002, 3.970302e+002
2.164717e+002, 3.969400e+002
2.169539e+002, 3.988095e+002
2.174360e+002, 3.998319e+002
2.179181e+002, 3.992023e+002
2.184002e+002, 3.980854e+002
2.188823e+002, 3.976688e+002
2.193644e+002, 3.982439e+002
2.198466e+002, 3.991958e+002
2.203287e+002, 3.996974e+002
2.208108e+002, 3.996652e+002
2.212929e+002, 3.996927e+002
2.217750e+002, 4.000032e+002
2.222571e+002, 4.003602e+002
2.227393e+002, 4.004393e+002
2.232214e+002, 4.001519e+002
2.237035e+002, 3.997199e+002
2.241856e+002, 3.993957e+002
2.246677e+002, 3.991707e+002
2.251498e+002, 3.989667e+002
2.256320e+002, 3.988182e+002
2.261141e+002, 3.986664e+002
2.265962e+002, 3.983762e+002
2.270783e+002, 3.978737e+002
2.275604e+002, 3.973882e+002
2.280425e+002, 3.972653e+002
2.285247e+002, 3.974049e+002
2.290068e+002, 3.973494e+002
2.294889e+002, 3.967434e+002
2.299710e+002, 3.958358e+002
2.304531e+002, 3.952249e+002
2.309352e+002, 3.951119e+002
2.314174e+002, 3.949967e+002
2.318995e+002, 3.944588e+002
2.323816e+002, 3.936143e+002
2.328637e+002, 3.927628e+002
2.333458e+002, 3.919334e+002
2.338279e+002, 3.911953e+002
2.343101e+002, 3.908063e+002
2.347922e+002, 3.909549e+002
2.352743e+002, 3.911622e+002
2.357564e+002, 3.910144e+002
2.362385e+002, 3.907122e+002
2.367206e+002, 3.906918e+002
2.372028e+002, 3.914319e+002
2.376849e+002, 3.926657e+002
2.381670e+002, 3.932379e+002
2.386491e+002, 3.928761e+002
2.391312e+002, 3.921911e+002
2.396133e+002, 3.911153e+002
2.400955e+002, 3.899752e+002
2.405776e+002, 3.893226e+002
2.410597e+002, 3.895834e+002
2.415418e+002, 3.905676e+002
2.420239e+002, 3.913548e+002
2.425060e+002, 3.918330e+002
2.429882e+002, 3.922523e+002
2.434703e+002, 3.926264e+002
2.439524e+002, 3.930085e+002
2.444345e+002, 3.934862e+002
2.449166e+002, 3.941280e+002
2.453987e+002, 3.948826e+002
2.458809e+002, 3.954842e+002
2.463630e+002, 3.957087e+002
2.468451e+002, 3.960700e+002
2.473272e+002, 3.968322e+002
2.478093e+002, 3.977408e+002
2.482914e+002, 3.984251e+002
2.487736e+002, 3.986662e+002
2.492557e+002, 3.986143e+002
2.497378e+002, 3.988760e+002
2.502199e+002, 3.996571e+002
2.507020e+002, 4.005371e+002
2.511841e+002, 4.017248e+002
2.516663e+002, 4.028907e+002
2.521484e+002, 4.035668e+002
2.526305e+002, 4.035220e+002
2.531126e+002, 4.030301e+002
2.535947e+002, 4.029575e+002
2.540768e+002, 4.038023e+002
2.545590e+002, 4.045006e+002
2.550411e+002, 4.047077e+002
2.555232e+002, 4.048452e+002
2.560053e+002, 4.054750e+002
2.564874e+002, 4.068290e+002
2.569695e+002, 4.085591e+002
2.574517e+002, 4.098217e+002
2.579338e+002, 4.103234e+002
2.584159e+002, 4.106469e+002
2.588980e+002, 4.104056e+002
2.593801e+002, 4.101552e+002
2.598622e+002, 4.106802e+002
2.603444e+002, 4.122268e+002
2.608265e+002, 4.140789e+002
2.613086e+002, 4.148678e+002
2.617907e+002, 4.135917e+002
2.622728e+002, 4.127679e+002
2.627549e+002, 4.124890e+002
2.632371e+002, 4.126401e+002
2.637192e+002, 4.133515e+002
2.642013e+002, 4.146213e+002
2.646834e+002, 4.158318e+002
2.651655e+002, 4.159977e+002
2.656476e+002, 4.144544e+002
2.661298e+002, 4.134376e+002
2.666119e+002, 4.133205e+002
2.670940e+002, 4.135634e+002
2.675761e+002, 4.137521e+002
2.680582e+002, 4.137931e+002
2.685403e+002, 4.136670e+002
2.690225e+002, 4.133372e+002
2.695046e+002, 4.127610e+002
2.699867e+002, 4.121214e+002
2.704688e+002, 4.110919e+002
2.709509e+002, 4.102110e+002
2.714330e+002, 4.101037e+002
2.719152e+002, 4.108038e+002
2.723973e+002, 4.116088e+002
2.728794e+002, 4.118773e+002
2.733615e+002, 4.115475e+002
2.738436e+002, 4.111060e+002
2.743257e+002, 4.101890e+002
2.748079e+002, 4.094197e+002
2.752900e+002, 4.095349e+002
2.757721e+002, 4.104945e+002
2.762542e+002, 4.112917e+002
2.767363e+002, 4.111269e+002
2.772184e+002, 4.100552e+002
2.777006e+002, 4.091247e+002
2.781827e+002, 4.080941e+002
2.786648e+002, 4.074033e+002
2.791469e+002, 4.076771e+002
2.796290e+002, 4.087725e+002
2.801111e+002, 4.095484e+002
2.805933e+002, 4.091953e+002
2.810754e+002, 4.080223e+002
2.815575e+002, 4.072637e+002
2.820396e+002, 4.072394e+002
2.825217e+002, 4.072394e+002
2.830038e+002, 4.067527e+002
2.834860e+002, 4.058742e+002
2.839681e+002, 4.051061e+002
2.844502e+002, 4.047203e+002
2.849323e+002, 4.045486e+002
2.854144e+002, 4.041556e+002
2.858965e+002, 4.033235e+002
2.863787e+002, 4.027918e+002
2.868608e+002, 4.032545e+002
2.873429e+002, 4.044206e+002
2.878250e+002, 4.051894e+002
2.883071e+002, 4.050442e+002
2.887892e+002, 4.045606e+002
2.892714e+002, 4.046711e+002
2.897535e+002, 4.054673e+002
2.902356e+002, 4.060488e+002
2.907177e+002, 4.058715e+002
2.911998e+002, 4.051567e+002
2.916819e+002, 4.044760e+002
2.921641e+002, 4.039405e+002
2.926462e+002, 4.034896e+002
2.931283e+002, 4.030513e+002
2.936104e+002, 4.026270e+002
2.940925e+002, 4.022543e+002
2.945746e+002, 4.019051e+002
2.950568e+002, 4.016264e+002
2.955389e+002, 4.015888e+002
2.960210e+002, 4.019199e+002
2.965031e+002, 4.021691e+002
2.969852e+002, 4.016473e+002
2.974673e+002, 4.006748e+002
2.979495e+002, 4.001874e+002
2.984316e+002, 4.009627e+002
2.989137e+002, 4.022142e+002
2.993958e+002, 4.027371e+002
2.998779e+002, 4.024058e+002
3.003600e+002, 4.018186e+002
3.008422e+002, 4.010760e+002
3.013243e+002, 4.003875e+002
3.018064e+002, 4.001982e+002
3.022885e+002, 4.009088e+002
3.027706e+002, 4.018619e+002
3.032527e+002, 4.022412e+002
3.037349e+002, 4.020034e+002
3.042170e+002, 4.018408e+002
3.046991e+002, 4.021794e+002
3.051812e+002, 4.027367e+002
3.056633e+002, 4.031253e+002
3.061454e+002, 4.032613e+002
3.066276e+002, 4.033179e+002
3.071097e+002, 4.034480e+002
3.075918e+002, 4.036459e+002
3.080739e+002, 4.038053e+002
3.085560e+002, 4.038667e+002
3.090381e+002, 4.038936e+002
3.095203e+002, 4.038949e+002
3.100024e+002, 4.038489e+002
3.104845e+002, 4.040035e+002
3.109666e+002, 4.047549e+002
3.114487e+002, 4.059299e+002
3.119308e+002, 4.066106e+002
3.124130e+002, 4.063655e+002
3.128951e+002, 4.059344e+002
3.133772e+002, 4.060905e+002
3.138593e+002, 4.067357e+002
3.143414e+002, 4.072261e+002
3.148235e+002, 4.067939e+002
3.153057e+002, 4.059855e+002
3.157878e+002, 4.065207e+002
3.162699e+002, 4.092195e+002
3.167520e+002, 4.116063e+002
3.172341e+002, 4.113033e+002
3.177162e+002, 4.093192e+002
3.181984e+002, 4.077718e+002
3.186805e+002, 4.075542e+002
3.191626e+002, 4.081490e+002
3.196447e+002, 4.087644e+002
3.201268e+002, 4.093668e+002
3.206089e+002, 4.101730e+002
3.210911e+002, 4.116816e+002
3.215732e+002, 4.133744e+002
3.220553e+002, 4.144912e+002
3.225374e+002, 4.147621e+002
3.230195e+002, 4.146228e+002
3.235016e+002, 4.144512e+002
3.239838e+002, 4.142461e+002
3.244659e+002, 4.140100e+002
3.249480e+002, 4.135465e+002
3.254301e+002, 4.132153e+002
3.259122e+002, 4.134376e+002
3.263943e+002, 4.142870e+002
3.268765e+002, 4.154279e+002
3.273586e+002, 4.168753e+002
3.278407e+002, 4.185118e+002
3.283228e+002, 4.196363e+002
3.288049e+002, 4.200087e+002
3.292870e+002, 4.198954e+002
3.297692e+002, 4.193881e+002
3.302513e+002, 4.185401e+002
3.307334e+002, 4.180561e+002
3.312155e+002, 4.187702e+002
3.316976e+002, 4.200488e+002
3.321797e+002, 4.201017e+002
3.326619e+002, 4.181924e+002
3.331440e+002, 4.166123e+002
3.336261e+002, 4.177949e+002
3.341082e+002, 4.207883e+002
3.345903e+002, 4.234901e+002
3.350724e+002, 4.249035e+002
3.355546e+002, 4.258597e+002
3.360367e+002, 4.275884e+002
3.365188e+002, 4.301860e+002
3.370009e+002, 4.324928e+002
3.374830e+002, 4.336817e+002
3.379651e+002, 4.341693e+002
3.384473e+002, 4.347359e+002
3.389294e+002, 4.354587e+002
3.394115e+002, 4.362838e+002
3.398936e+002, 4.371680e+002
3.403757e+002, 4.381168e+002
3.408578e+002, 4.391256e+002
3.413400e+002, 4.401441e+002
3.418221e+002, 4.412954e+002
3.423042e+002, 4.427494e+002
3.427863e+002, 4.445376e+002
3.432684e+002, 4.464366e+002
3.437505e+002, 4.484991e+002
3.442327e+002, 4.505872e+002
3.447148e+002, 4.522596e+002
3.451969e+002, 4.532677e+002
3.456790e+002, 4.542619e+002
3.461611e+002, 4.560915e+002
3.466432e+002, 4.586223e+002
3.471254e+002, 4.612333e+002
3.476075e+002, 4.638141e+002
3.480896e+002, 4.663616e+002
3.485717e+002, 4.688505e+002
3.490538e+002, 4.712914e+002
3.495359e+002, 4.735923e+002
3.500181e+002, 4.754713e+002
3.505002e+002, 4.771591e+002
3.509823e+002, 4.795879e+002
3.514644e+002, 4.837526e+002
3.519465e+002, 4.878498e+002
3.524286e+002, 4.904327e+002
3.529108e+002, 4.917853e+002
3.533929e+002, 4.933341e+002
3.538750e+002, 4.957853e+002
3.543571e+002, 4.988293e+002
3.548392e+002, 5.017178e+002
3.553214e+002, 5.045068e+002
3.558035e+002, 5.070561e+002
3.562856e+002, 5.092338e+002
3.567677e+002, 5.111432e+002
3.572498e+002, 5.129642e+002
3.577319e+002, 5.147512e+002
3.582141e+002, 5.164475e+002
3.586962e+002, 5.179122e+002
3.591783e+002, 5.190524e+002
3.596604e+002, 5.205623e+002
3.601425e+002, 5.231390e+002
3.606246e+002, 5.257496e+002
3.611068e+002, 5.273227e+002
3.615889e+002, 5.278109e+002
3.620710e+002, 5.279617e+002
3.625531e+002, 5.283599e+002
3.630352e+002, 5.290096e+002
3.635173e+002, 5.296275e+002
3.639995e+002, 5.305956e+002
3.644816e+002, 5.311695e+002
3.649637e+002, 5.309105e+002
3.654458e+002, 5.299655e+002
3.659279e+002, 5.285883e+002
3.664100e+002, 5.268019e+002
3.668922e+002, 5.249262e+002
3.673743e+002, 5.240876e+002
3.678564e+002, 5.252672e+002
3.683385e+002, 5.260137e+002
3.688206e+002, 5.259229e+002
3.693027e+002, 5.252766e+002
3.697849e+002, 5.244134e+002
3.702670e+002, 5.234267e+002
3.707491e+002, 5.221171e+002
3.712312e+002, 5.201246e+002
3.717133e+002, 5.170167e+002
3.721954e+002, 5.146132e+002
3.726776e+002, 5.134989e+002
3.731597e+002, 5.125502e+002
3.736418e+002, 5.108224e+002
3.741239e+002, 5.085162e+002
3.746060e+002, 5.066612e+002
3.750881e+002, 5.061273e+002
3.755703e+002, 5.068728e+002
3.760524e+002, 5.072633e+002
3.765345e+002, 5.071457e+002
3.770166e+002, 5.068682e+002
3.774987e+002, 5.062962e+002
3.779808e+002, 5.056670e+002
3.784630e+002, 5.053172e+002
3.789451e+002, 5.054032e+002
3.794272e+002, 5.057891e+002
3.799093e+002, 5.061856e+002
3.803914e+002, 5.068591e+002
3.808735e+002, 5.070600e+002
3.813557e+002, 5.060162e+002
3.818378e+002, 5.050604e+002
3.823199e+002, 5.053389e+002
3.828020e+002, 5.069062e+002
3.832841e+002, 5.088424e+002
3.837662e+002, 5.100798e+002
3.842484e+002, 5.104724e+002
3.847305e+002, 5.112100e+002
3.852126e+002, 5.125547e+002
3.856947e+002, 5.140098e+002
3.861768e+002, 5.153458e+002
3.866589e+002, 5.166795e+002
3.871411e+002, 5.183708e+002
3.876232e+002, 5.207796e+002
3.881053e+002, 5.234943e+002
3.885874e+002, 5.249006e+002
3.890695e+002, 5.241168e+002
3.895516e+002, 5.236666e+002
3.900338e+002, 5.239984e+002
3.905159e+002, 5.249413e+002
3.909980e+002, 5.265145e+002
3.914801e+002, 5.287137e+002
3.919622e+002, 5.310521e+002
3.924443e+002, 5.329001e+002
3.929265e+002, 5.341940e+002
3.934086e+002, 5.356088e+002
3.938907e+002, 5.373426e+002
3.943728e+002, 5.391100e+002
3.948549e+002, 5.406597e+002
3.953370e+002, 5.420697e+002
3.958192e+002, 5.436454e+002
3.963013e+002, 5.457993e+002
3.967834e+002, 5.482678e+002
3.972655e+002, 5.500437e+002
3.977476e+002, 5.507988e+002
3.982297e+002, 5.517072e+002
3.987119e+002, 5.536210e+002
3.991940e+002, 5.559858e+002
3.996761e+002, 5.581254e+002
4.001582e+002, 5.598810e+002
4.006403e+002, 5.613423e+002
4.011224e+002, 5.623799e+002
4.016046e+002, 5.630468e+002
4.020867e+002, 5.641848e+002
4.025688e+002, 5.663107e+002
4.030509e+002, 5.687228e+002
4.035330e+002, 5.704260e+002
4.040151e+002, 5.713923e+002
4.044973e+002, 5.727578e+002
4.049794e+002, 5.754146e+002
4.054615e+002, 5.786815e+002
4.059436e+002, 5.814261e+002
4.064257e+002, 5.834980e+002
4.069078e+002, 5.851030e+002
4.073900e+002, 5.862581e+002
4.078721e+002, 5.870248e+002
4.083542e+002, 5.878043e+002
4.088363e+002, 5.883320e+002
4.093184e+002, 5.891418e+002
4.098005e+002, 5.907244e+002
4.102827e+002, 5.929115e+002
4.107648e+002, 5.950984e+002
4.112469e+002, 5.970157e+002
4.117290e+002, 5.987868e+002
4.122111e+002, 6.006993e+002
4.126932e+002, 6.028568e+002
4.131754e+002, 6.048691e+002
4.136575e+002, 6.063768e+002
4.141396e+002, 6.078563e+002
4.146217e+002, 6.099888e+002
4.151038e+002, 6.128199e+002
4.155859e+002, 6.156210e+002
