##NAMES=Chapmanite
##RRUFFID=R060910
##IDEAL CHEMISTRY=Fe^3+^_2_Sb^3+^(SiO_4_)_2_(OH)
##LOCALITY=Cobalt, Ontario, Canada
##OWNER=RRUFF
##SOURCE=Royal Ontario Museum
##DESCRIPTION=Greenish yellow massive
##STATUS=The identification of this mineral has been confirmed by X-ray diffraction.
##URL=rruff.info/R060910
168.7749, 13852.18
169.2570, 14021.78
169.7391, 14268.61
170.2212, 14530.09
170.7033, 14750.08
171.1854, 14930.70
171.6676, 15101.82
172.1497, 15270.91
172.6318, 15431.09
173.1139, 15578.76
173.5960, 15716.14
174.0781, 15827.99
174.5603, 15903.17
175.0424, 15942.90
175.5245, 15927.61
176.0066, 15819.13
176.4887, 15665.83
176.9708, 15526.36
177.4530, 15405.22
177.9351, 15304.71
178.4172, 15235.17
178.8993, 15190.69
179.3814, 15151.70
179.8635, 15110.86
180.3457, 15073.32
180.8278, 15040.64
181.3099, 15008.57
181.7920, 14999.26
182.2741, 15042.16
182.7562, 15127.25
183.2384, 15232.24
183.7205, 15369.28
184.2026, 15516.52
184.6847, 15642.69
185.1668, 15743.61
185.6489, 15823.65
186.1311, 15889.36
186.6132, 15939.63
187.0953, 15956.04
187.5774, 15939.94
188.0595, 15884.44
188.5416, 15770.84
189.0238, 15587.58
189.5059, 15378.62
189.9880, 15171.27
190.4701, 14965.46
190.9522, 14763.79
191.4343, 14549.92
191.9165, 14344.86
192.3986, 14183.27
192.8807, 14069.47
193.3628, 13990.54
193.8449, 13952.14
194.3270, 13942.25
194.8092, 13934.45
195.2913, 13921.09
195.7734, 13904.58
196.2555, 13886.80
196.7376, 13865.89
197.2197, 13850.93
197.7019, 13852.96
198.1840, 13866.68
198.6661, 13881.47
199.1482, 13888.02
199.6303, 13895.85
200.1124, 13923.70
200.5946, 13977.24
201.0767, 14030.67
201.5588, 14059.41
202.0409, 14073.48
202.5230, 14092.78
203.0051, 14124.62
203.4873, 14163.96
203.9694, 14207.93
204.4515, 14259.53
204.9336, 14300.44
205.4157, 14294.18
205.8978, 14268.58
206.3800, 14281.26
206.8621, 14385.05
207.3442, 14515.52
207.8263, 14582.68
208.3084, 14578.45
208.7905, 14564.58
209.2727, 14583.16
209.7548, 14618.60
210.2369, 14641.25
210.7190, 14634.52
211.2011, 14619.55
211.6832, 14618.97
212.1654, 14633.33
212.6475, 14655.96
213.1296, 14677.80
213.6117, 14707.54
214.0938, 14762.28
214.5759, 14858.72
215.0581, 14967.80
215.5402, 15057.00
216.0223, 15125.49
216.5044, 15208.13
216.9865, 15336.68
217.4686, 15486.95
217.9508, 15615.58
218.4329, 15717.86
218.9150, 15798.12
219.3971, 15851.51
219.8792, 15879.84
220.3613, 15914.80
220.8435, 15997.22
221.3256, 16077.86
221.8077, 16070.37
222.2898, 15938.82
222.7719, 15775.63
223.2540, 15637.60
223.7362, 15522.35
224.2183, 15416.91
224.7004, 15317.16
225.1825, 15224.80
225.6646, 15142.89
226.1467, 15073.40
226.6289, 15007.81
227.1110, 14938.58
227.5931, 14868.28
228.0752, 14808.88
228.5573, 14769.18
229.0394, 14736.84
229.5216, 14688.42
230.0037, 14617.38
230.4858, 14555.70
230.9679, 14523.32
231.4500, 14511.08
231.9321, 14497.04
232.4143, 14474.99
232.8964, 14448.93
233.3785, 14423.33
233.8606, 14397.17
234.3427, 14376.13
234.8248, 14356.02
235.3070, 14343.39
235.7891, 14354.50
236.2712, 14397.17
236.7533, 14447.48
237.2354, 14471.72
237.7175, 14468.65
238.1997, 14466.01
238.6818, 14466.52
239.1639, 14471.45
239.6460, 14488.76
240.1281, 14521.05
240.6102, 14544.41
241.0924, 14524.05
241.5745, 14452.99
242.0566, 14416.80
242.5387, 14451.49
243.0208, 14505.52
243.5029, 14534.67
243.9851, 14534.90
244.4672, 14523.99
244.9493, 14514.96
245.4314, 14508.26
245.9135, 14509.42
246.3956, 14518.25
246.8778, 14534.94
247.3599, 14561.42
247.8420, 14596.74
248.3241, 14636.75
248.8062, 14680.38
249.2883, 14726.80
249.7705, 14762.32
250.2526, 14769.03
250.7347, 14783.84
251.2168, 14830.49
251.6989, 14898.69
252.1810, 14959.39
252.6632, 14992.90
253.1453, 15006.07
253.6274, 15042.31
254.1095, 15124.66
254.5916, 15199.94
255.0737, 15254.75
255.5559, 15294.30
256.0380, 15329.99
256.5201, 15367.89
257.0022, 15400.43
257.4843, 15405.28
257.9665, 15353.21
258.4486, 15307.18
258.9307, 15277.28
259.4128, 15252.06
259.8949, 15216.51
260.3770, 15165.92
260.8592, 15111.70
261.3413, 15075.68
261.8234, 15083.95
262.3055, 15066.89
262.7876, 15006.18
263.2697, 14935.05
263.7519, 14874.78
264.2340, 14831.14
264.7161, 14801.42
265.1982, 14781.68
265.6803, 14768.32
266.1624, 14777.94
266.6446, 14846.46
267.1267, 14904.57
267.6088, 14906.84
268.0909, 14860.69
268.5730, 14808.66
269.0551, 14789.72
269.5373, 14805.88
270.0194, 14826.67
270.5015, 14854.53
270.9836, 14885.33
271.4657, 14927.31
271.9478, 14971.52
272.4300, 14998.77
272.9121, 14992.11
273.3942, 14958.99
273.8763, 14942.09
274.3584, 14945.07
274.8405, 14961.24
275.3227, 15003.42
275.8048, 15051.42
276.2869, 15075.87
276.7690, 15057.98
277.2511, 15020.27
277.7332, 15012.43
278.2154, 15044.26
278.6975, 15079.28
279.1796, 15121.82
279.6617, 15154.93
280.1438, 15158.09
280.6259, 15123.08
281.1081, 15076.02
281.5902, 15045.32
282.0723, 15031.50
282.5544, 15025.96
283.0365, 15033.87
283.5186, 15043.98
284.0008, 15045.85
284.4829, 15038.67
284.9650, 15032.24
285.4471, 15041.29
285.9292, 15059.84
286.4113, 15054.10
286.8935, 15005.78
287.3756, 14953.37
287.8577, 14936.37
288.3398, 14949.37
288.8219, 14957.37
289.3040, 14946.91
289.7862, 14922.89
290.2683, 14884.39
290.7504, 14825.92
291.2325, 14785.47
291.7146, 14808.83
292.1967, 14879.96
292.6789, 14928.98
293.1610, 14933.16
293.6431, 14921.04
294.1252, 14910.83
294.6073, 14903.75
295.0894, 14906.10
295.5716, 14926.56
296.0537, 14957.64
296.5358, 14968.23
297.0179, 14933.88
297.5000, 14907.84
297.9821, 14909.91
298.4643, 14935.46
298.9464, 14980.33
299.4285, 15045.86
299.9106, 15117.80
300.3927, 15163.47
300.8748, 15160.87
301.3570, 15169.66
301.8391, 15208.27
302.3212, 15254.75
302.8033, 15283.83
303.2854, 15290.33
303.7675, 15291.13
304.2497, 15308.40
304.7318, 15347.83
305.2139, 15388.05
305.6960, 15434.72
306.1781, 15477.81
306.6602, 15508.34
307.1424, 15528.81
307.6245, 15549.38
308.1066, 15577.48
308.5887, 15613.09
309.0708, 15661.83
309.5529, 15746.24
310.0351, 15820.63
310.5172, 15882.79
310.9993, 15925.96
311.4814, 15936.63
311.9635, 15903.90
312.4456, 15844.65
312.9278, 15808.11
313.4099, 15800.67
313.8920, 15806.02
314.3741, 15840.38
314.8562, 15873.93
315.3383, 15880.69
315.8205, 15853.37
316.3026, 15801.76
316.7847, 15729.29
317.2668, 15631.68
317.7489, 15550.87
318.2310, 15503.35
318.7132, 15466.76
319.1953, 15423.73
319.6774, 15375.27
320.1595, 15335.73
320.6416, 15318.79
321.1237, 15318.97
321.6059, 15314.76
322.0880, 15297.89
322.5701, 15291.21
323.0522, 15322.26
323.5343, 15376.96
324.0164, 15421.40
324.4986, 15438.15
324.9807, 15444.58
325.4628, 15457.46
325.9449, 15476.81
326.4270, 15503.83
326.9091, 15542.54
327.3913, 15588.17
327.8734, 15626.32
328.3555, 15657.12
328.8376, 15680.77
329.3197, 15693.19
329.8018, 15698.90
330.2840, 15709.89
330.7661, 15732.00
331.2482, 15753.40
331.7303, 15749.92
332.2124, 15697.09
332.6945, 15680.98
333.1767, 15740.58
333.6588, 15818.27
334.1409, 15863.12
334.6230, 15870.09
335.1051, 15868.25
335.5872, 15887.48
336.0694, 15932.50
336.5515, 15956.85
337.0336, 15934.07
337.5157, 15920.98
337.9978, 15944.89
338.4799, 15993.35
338.9621, 16038.76
339.4442, 16064.10
339.9263, 16076.59
340.4084, 16102.37
340.8905, 16142.18
341.3727, 16196.05
341.8548, 16278.27
342.3369, 16364.47
342.8190, 16429.63
343.3011, 16467.27
343.7832, 16496.08
344.2654, 16540.52
344.7475, 16602.67
345.2296, 16664.38
345.7117, 16745.77
346.1938, 16803.15
346.6759, 16799.24
347.1581, 16743.50
347.6402, 16685.51
348.1223, 16661.06
348.6044, 16656.15
349.0865, 16628.96
349.5686, 16570.86
350.0508, 16516.10
350.5329, 16496.94
351.0150, 16495.08
351.4971, 16474.38
351.9792, 16419.07
352.4613, 16354.17
352.9435, 16298.99
353.4256, 16251.61
353.9077, 16201.04
354.3898, 16141.63
354.8719, 16079.36
355.3540, 16027.37
355.8362, 15987.51
356.3183, 15950.14
356.8004, 15914.88
357.2825, 15880.54
357.7646, 15844.58
358.2467, 15806.82
358.7289, 15772.95
359.2110, 15750.72
359.6931, 15744.44
360.1752, 15721.35
360.6573, 15673.28
361.1394, 15619.80
361.6216, 15557.58
362.1037, 15496.93
362.5858, 15461.07
363.0679, 15466.77
363.5500, 15498.01
364.0321, 15492.23
364.5143, 15408.98
364.9964, 15352.31
365.4785, 15353.30
365.9606, 15372.71
366.4427, 15376.67
366.9248, 15356.99
367.4070, 15328.50
367.8891, 15307.58
368.3712, 15294.42
368.8533, 15283.13
369.3354, 15270.71
369.8175, 15263.20
370.2997, 15263.92
370.7818, 15271.94
371.2639, 15284.23
371.7460, 15297.57
372.2281, 15314.79
372.7102, 15349.22
373.1924, 15405.42
373.6745, 15440.43
374.1566, 15416.07
374.6387, 15361.14
375.1208, 15337.13
375.6029, 15355.64
376.0851, 15388.43
376.5672, 15434.09
377.0493, 15482.09
377.5314, 15506.82
378.0135, 15499.22
378.4956, 15477.14
378.9778, 15463.99
379.4599, 15463.33
379.9420, 15460.42
380.4241, 15449.71
380.9062, 15441.04
381.3883, 15443.86
381.8705, 15455.75
382.3526, 15464.14
382.8347, 15457.56
383.3168, 15441.17
383.7989, 15454.61
384.2810, 15531.06
384.7632, 15599.44
385.2453, 15646.45
385.7274, 15683.25
386.2095, 15720.96
386.6916, 15763.33
387.1737, 15808.31
387.6559, 15852.96
388.1380, 15897.54
388.6201, 15941.89
389.1022, 15985.74
389.5843, 16029.53
390.0664, 16079.64
390.5486, 16131.52
391.0307, 16168.94
391.5128, 16175.35
391.9949, 16164.19
392.4770, 16163.41
392.9591, 16174.59
393.4413, 16184.90
393.9234, 16186.89
394.4055, 16183.97
394.8876, 16181.98
395.3697, 16176.34
395.8518, 16181.20
396.3340, 16219.60
396.8161, 16271.20
397.2982, 16287.97
397.7803, 16254.72
398.2624, 16213.47
398.7445, 16215.92
399.2267, 16274.98
399.7088, 16328.58
400.1909, 16370.85
400.6730, 16413.08
401.1551, 16463.88
401.6372, 16520.17
402.1194, 16572.02
402.6015, 16611.98
403.0836, 16646.15
403.5657, 16698.53
404.0478, 16792.86
404.5299, 16868.54
405.0121, 16917.98
405.4942, 16949.66
405.9763, 16962.25
406.4584, 16959.37
406.9405, 16962.86
407.4226, 17007.73
407.9048, 17091.32
408.3869, 17133.07
408.8690, 17105.33
409.3511, 17074.85
409.8332, 17081.42
410.3153, 17113.30
410.7975, 17148.61
411.2796, 17192.53
411.7617, 17223.40
412.2438, 17203.85
412.7259, 17141.87
413.2080, 17101.54
413.6902, 17110.63
414.1723, 17147.51
414.6544, 17175.54
415.1365, 17193.82
415.6186, 17209.24
416.1007, 17218.20
416.5829, 17227.75
417.0650, 17247.24
417.5471, 17275.86
418.0292, 17304.12
418.5113, 17326.10
418.9934, 17341.11
419.4756, 17337.03
419.9577, 17279.19
420.4398, 17242.80
420.9219, 17263.76
421.4040, 17302.47
421.8861, 17310.44
422.3683, 17272.96
422.8504, 17218.80
423.3325, 17185.85
423.8146, 17176.09
424.2967, 17174.45
424.7788, 17192.40
425.2610, 17204.31
425.7431, 17192.42
426.2252, 17163.12
426.7073, 17135.54
427.1894, 17122.05
427.6715, 17111.90
428.1537, 17080.72
428.6358, 17029.08
429.1179, 17009.85
429.6000, 17069.27
430.0821, 17150.70
430.5642, 17131.46
431.0464, 16967.90
431.5285, 16857.39
432.0106, 16895.44
432.4927, 16989.48
432.9748, 17043.16
433.4569, 17043.48
433.9391, 17021.98
434.4212, 17005.28
434.9033, 16992.87
435.3854, 16961.31
435.8675, 16892.57
436.3496, 16826.09
436.8318, 16772.50
437.3139, 16724.11
437.7960, 16667.18
438.2781, 16598.29
438.7602, 16532.21
439.2423, 16493.33
439.7245, 16485.30
440.2066, 16470.64
440.6887, 16450.03
441.1708, 16417.32
441.6529, 16363.86
442.1350, 16296.25
442.6172, 16233.13
443.0993, 16186.91
443.5814, 16143.50
444.0635, 16076.99
444.5456, 15991.00
445.0277, 15928.86
445.5099, 15915.11
445.9920, 15923.32
446.4741, 15905.73
446.9562, 15859.84
447.4383, 15805.06
447.9204, 15733.12
448.4026, 15661.24
448.8847, 15609.27
449.3668, 15574.68
449.8489, 15536.95
450.3310, 15478.49
450.8131, 15405.72
451.2953, 15360.31
451.7774, 15370.21
452.2595, 15370.44
452.7416, 15353.98
453.2237, 15324.52
453.7059, 15276.98
454.1880, 15213.78
454.6701, 15159.13
455.1522, 15145.64
455.6343, 15167.86
456.1165, 15170.13
456.5986, 15143.00
457.0807, 15110.56
457.5628, 15086.34
458.0449, 15066.83
458.5270, 15045.28
459.0092, 15013.52
459.4913, 14989.45
459.9734, 14987.83
460.4555, 15003.16
460.9376, 15025.29
461.4197, 15052.45
461.9019, 15075.36
462.3840, 15082.82
462.8661, 15073.68
463.3482, 15050.70
463.8303, 14997.50
464.3124, 14948.29
464.7946, 14916.18
465.2767, 14900.74
465.7588, 14901.12
466.2409, 14917.62
466.7230, 14942.15
467.2051, 14960.17
467.6873, 14974.48
468.1694, 14972.61
468.6515, 14930.90
469.1336, 14891.48
469.6157, 14883.73
470.0978, 14901.40
470.5800, 14912.96
471.0621, 14892.82
471.5442, 14861.85
472.0263, 14854.84
472.5084, 14871.15
472.9905, 14887.90
473.4727, 14901.06
473.9548, 14902.60
474.4369, 14867.74
474.9190, 14779.20
475.4011, 14714.71
475.8832, 14697.74
476.3654, 14703.57
476.8475, 14718.88
477.3296, 14737.70
477.8117, 14748.93
478.2938, 14743.91
478.7759, 14725.27
479.2581, 14706.66
479.7402, 14686.64
480.2223, 14669.32
480.7044, 14656.64
481.1865, 14645.94
481.6686, 14634.84
482.1508, 14623.21
482.6329, 14613.04
483.1150, 14605.26
483.5971, 14600.26
484.0792, 14599.13
484.5613, 14601.78
485.0435, 14609.09
485.5256, 14625.12
486.0077, 14645.04
486.4898, 14657.62
486.9719, 14663.45
487.4540, 14660.34
487.9362, 14636.37
488.4183, 14607.65
488.9004, 14600.96
489.3825, 14618.21
489.8646, 14632.38
490.3467, 14616.77
490.8289, 14571.91
491.3110, 14538.67
491.7931, 14524.85
492.2752, 14514.12
492.7573, 14500.15
493.2394, 14489.67
493.7216, 14496.23
494.2037, 14521.75
494.6858, 14541.04
495.1679, 14518.83
495.6500, 14463.15
496.1321, 14434.69
496.6143, 14447.18
497.0964, 14460.33
497.5785, 14443.42
498.0606, 14408.78
498.5427, 14386.03
499.0248, 14381.86
499.5070, 14383.70
499.9891, 14398.15
500.4712, 14410.76
500.9533, 14387.48
501.4354, 14323.46
501.9175, 14265.02
502.3997, 14265.47
502.8818, 14329.05
503.3639, 14357.26
503.8460, 14307.28
504.3281, 14269.94
504.8102, 14273.53
505.2924, 14295.97
505.7745, 14310.91
506.2566, 14310.69
506.7387, 14306.00
507.2208, 14311.69
507.7029, 14325.18
508.1851, 14321.32
508.6672, 14289.03
509.1493, 14263.26
509.6314, 14276.23
510.1135, 14312.94
510.5956, 14333.17
511.0778, 14327.42
511.5599, 14313.57
512.0420, 14290.26
512.5241, 14267.38
513.0062, 14266.26
513.4883, 14289.37
513.9705, 14309.70
514.4526, 14296.53
514.9347, 14248.48
515.4168, 14220.51
515.8989, 14235.72
516.3810, 14243.95
516.8632, 14224.09
517.3453, 14197.71
517.8274, 14190.04
518.3095, 14207.24
518.7916, 14233.04
519.2737, 14259.92
519.7559, 14283.57
520.2380, 14279.39
520.7201, 14237.76
521.2022, 14201.39
521.6843, 14201.79
522.1664, 14228.36
522.6486, 14242.28
523.1307, 14241.13
523.6128, 14231.27
524.0949, 14210.57
524.5770, 14184.40
525.0591, 14155.61
525.5413, 14126.53
526.0234, 14104.58
526.5055, 14096.69
526.9876, 14102.00
527.4697, 14111.00
527.9518, 14128.98
528.4340, 14141.93
528.9161, 14150.25
529.3982, 14151.01
529.8803, 14136.63
530.3624, 14107.41
530.8445, 14083.87
531.3267, 14088.75
531.8088, 14106.47
532.2909, 14099.65
532.7730, 14066.31
533.2551, 14041.80
533.7372, 14047.25
534.2194, 14072.29
534.7015, 14089.25
535.1836, 14099.27
535.6657, 14099.61
536.1478, 14071.94
536.6299, 14048.09
537.1121, 14057.22
537.5942, 14094.29
538.0763, 14134.84
538.5584, 14164.35
539.0405, 14182.85
539.5226, 14188.62
540.0048, 14177.87
540.4869, 14168.18
540.9690, 14162.95
541.4511, 14160.26
541.9332, 14156.67
542.4153, 14153.15
542.8975, 14156.88
543.3796, 14189.90
543.8617, 14216.22
544.3438, 14190.89
544.8259, 14128.32
545.3080, 14080.41
545.7902, 14067.99
546.2723, 14074.35
546.7544, 14073.29
547.2365, 14061.19
547.7186, 14054.24
548.2007, 14058.87
548.6829, 14061.30
549.1650, 14051.97
549.6471, 14037.98
550.1292, 14034.19
550.6113, 14047.87
551.0934, 14059.03
551.5756, 14031.25
552.0577, 13973.45
552.5398, 13956.80
553.0219, 14004.09
553.5040, 14050.28
553.9861, 14039.39
554.4683, 13983.10
554.9504, 13954.15
555.4325, 13970.73
555.9146, 13993.03
556.3967, 14021.68
556.8788, 14042.79
557.3610, 14033.92
557.8431, 13995.45
558.3252, 13952.89
558.8073, 13927.43
559.2894, 13918.71
559.7715, 13928.06
560.2537, 13973.10
560.7358, 13997.79
561.2179, 13969.26
561.7000, 13923.41
562.1821, 13886.71
562.6642, 13861.47
563.1464, 13842.12
563.6285, 13825.62
564.1106, 13813.77
564.5927, 13814.33
565.0748, 13823.64
565.5569, 13821.92
566.0391, 13798.63
566.5212, 13764.18
567.0033, 13740.37
567.4854, 13738.79
567.9675, 13718.96
568.4496, 13657.15
568.9318, 13603.44
569.4139, 13580.22
569.8960, 13581.85
570.3781, 13599.75
570.8602, 13634.36
571.3423, 13664.44
571.8245, 13660.60
572.3066, 13627.91
572.7887, 13591.83
573.2708, 13552.98
573.7529, 13525.18
574.2350, 13522.44
574.7172, 13541.88
575.1993, 13556.81
575.6814, 13570.46
576.1635, 13575.95
576.6456, 13566.64
577.1277, 13551.39
577.6099, 13535.57
578.0920, 13522.16
578.5741, 13517.03
579.0562, 13527.20
579.5383, 13548.12
580.0204, 13561.61
580.5026, 13566.71
580.9847, 13568.03
581.4668, 13568.62
581.9489, 13564.02
582.4310, 13545.66
582.9131, 13513.63
583.3953, 13492.27
583.8774, 13499.43
584.3595, 13509.82
584.8416, 13502.88
585.3237, 13483.50
585.8058, 13464.40
586.2880, 13450.55
586.7701, 13440.41
587.2522, 13431.31
587.7343, 13422.30
588.2164, 13421.15
588.6985, 13438.07
589.1807, 13449.55
589.6628, 13441.81
590.1449, 13426.41
590.6270, 13420.81
591.1091, 13430.85
591.5912, 13436.64
592.0734, 13416.54
592.5555, 13387.08
593.0376, 13378.75
593.5197, 13392.31
594.0018, 13405.47
594.4839, 13404.94
594.9661, 13393.66
595.4482, 13380.04
595.9303, 13358.82
596.4124, 13344.21
596.8945, 13336.38
597.3766, 13334.23
597.8588, 13344.67
598.3409, 13359.81
598.8230, 13361.16
599.3051, 13337.74
599.7872, 13304.41
600.2693, 13274.13
600.7515, 13248.33
601.2336, 13235.17
601.7157, 13238.18
602.1978, 13241.39
602.6799, 13226.81
603.1620, 13198.05
603.6442, 13198.00
604.1263, 13261.38
604.6084, 13305.40
605.0905, 13304.49
605.5726, 13287.60
606.0547, 13282.73
606.5369, 13289.40
607.0190, 13283.92
607.5011, 13240.12
607.9832, 13182.42
608.4653, 13169.58
608.9474, 13202.34
609.4296, 13233.61
609.9117, 13252.08
610.3938, 13260.02
610.8759, 13257.32
611.3580, 13242.98
611.8401, 13232.52
612.3223, 13229.84
612.8044, 13227.01
613.2865, 13217.93
613.7686, 13208.29
614.2507, 13206.59
614.7328, 13214.22
615.2150, 13224.66
615.6971, 13233.24
616.1792, 13239.31
616.6613, 13241.39
617.1434, 13242.03
617.6255, 13224.54
618.1077, 13169.34
618.5898, 13105.28
619.0719, 13078.33
619.5540, 13091.42
620.0361, 13100.10
620.5182, 13094.11
621.0004, 13084.51
621.4825, 13070.75
621.9646, 13060.00
622.4467, 13069.29
622.9288, 13103.17
623.4109, 13138.55
623.8931, 13143.37
624.3752, 13118.45
624.8573, 13100.67
625.3394, 13090.56
625.8215, 13086.72
626.3036, 13095.49
626.7858, 13106.47
627.2679, 13102.13
627.7500, 13078.89
628.2321, 13056.90
628.7142, 13041.96
629.1964, 13029.82
629.6785, 13012.22
630.1606, 12994.96
630.6427, 12997.28
631.1248, 13027.56
631.6069, 13060.63
632.0891, 13050.67
632.5712, 12993.89
633.0533, 12961.05
633.5354, 12963.49
634.0175, 12969.69
634.4996, 12957.06
634.9818, 12940.36
635.4639, 12947.67
635.9460, 12991.49
636.4281, 13021.31
636.9102, 13004.54
637.3923, 12979.03
637.8745, 12983.86
638.3566, 13010.58
638.8387, 13026.31
639.3208, 13014.56
639.8029, 12988.41
640.2850, 12969.67
640.7672, 12958.62
641.2493, 12951.11
641.7314, 12949.97
642.2135, 12946.51
642.6956, 12931.39
643.1777, 12912.06
643.6599, 12903.39
644.1420, 12912.56
644.6241, 12915.27
645.1062, 12895.21
645.5883, 12871.47
646.0704, 12864.20
646.5526, 12869.76
647.0347, 12870.08
647.5168, 12855.24
647.9989, 12838.55
648.4810, 12853.44
648.9631, 12905.89
649.4453, 12908.02
649.9274, 12822.36
650.4095, 12749.80
650.8916, 12766.11
651.3737, 12832.43
651.8558, 12866.19
652.3380, 12848.82
652.8201, 12835.73
653.3022, 12852.25
653.7843, 12872.48
654.2664, 12872.72
654.7485, 12856.16
655.2307, 12836.92
655.7128, 12821.77
656.1949, 12810.60
656.6770, 12800.83
657.1591, 12792.23
657.6412, 12803.43
658.1234, 12848.98
658.6055, 12879.44
659.0876, 12852.45
659.5697, 12794.11
660.0518, 12773.88
660.5339, 12814.19
661.0161, 12835.79
661.4982, 12809.56
661.9803, 12770.26
662.4624, 12739.35
662.9445, 12717.67
663.4266, 12701.92
663.9088, 12690.72
664.3909, 12681.26
664.8730, 12668.60
665.3551, 12653.53
665.8372, 12641.64
666.3193, 12631.55
666.8015, 12633.83
667.2836, 12659.13
667.7657, 12697.79
