##NAMES=Chayesite
##RRUFFID=R080059
##IDEAL CHEMISTRY=KMg_4_Fe^3+^[Si_12_O_30_]
##LOCALITY=Pauliberg by Landsee, Burgenland, Austria
##OWNER=RRUFF
##SOURCE=Michael Scott
##DESCRIPTION=Deep blue interior of hexagonal tablets that are reddish brown on the outside
##STATUS=The identification of this mineral is confirmed by single-crystal X-ray diffraction and chemical analysis.
##URL=rruff.info/R080059
##MEASURED CHEMISTRY=(K_0.70_Na_0.30_)_Σ=1_(Mg_2.10_Fe^2+^_1.86_Mn_0.04_)_Σ=4_(Fe^3+^_0.89_Al_0.11_)_Σ=1_Si_12.00_O_30_ ;  lighter core :  Fe^2+^ and Fe^3+^ split by charge balance
93.02344, 21.74529
93.50555, 19.29124
93.98767, 18.39704
94.46979, 19.76496
94.95190, 22.65175
95.43402, 25.45798
95.91614, 28.17861
96.39825, 30.69940
96.88037, 32.51773
97.36249, 33.69752
97.84460, 35.33026
98.32672, 38.20553
98.80884, 42.21570
99.29095, 45.99720
99.77307, 49.25916
100.2552, 52.41307
100.7373, 56.23872
101.2194, 60.67910
101.7015, 65.86185
102.1837, 72.13215
102.6658, 79.76273
103.1479, 86.92081
103.6300, 92.99874
104.1121, 98.36352
104.5942, 105.2788
105.0764, 114.6826
105.5585, 124.4680
106.0406, 133.1485
106.5227, 140.2348
107.0048, 146.9359
107.4869, 153.4125
107.9690, 159.6878
108.4512, 165.3991
108.9333, 170.3267
109.4154, 174.8479
109.8975, 179.3524
110.3796, 183.6218
110.8617, 188.1364
111.3439, 192.9035
111.8260, 197.7957
112.3081, 203.3912
112.7902, 209.4619
113.2723, 216.3296
113.7544, 224.3513
114.2366, 234.5727
114.7187, 245.1834
115.2008, 255.4879
115.6829, 265.5316
116.1650, 274.9820
116.6471, 283.6137
117.1293, 291.6782
117.6114, 299.8419
118.0935, 308.8439
118.5756, 317.6929
119.0577, 325.8288
119.5398, 332.9145
120.0220, 339.4637
120.5041, 345.8246
120.9862, 351.9425
121.4683, 357.5953
121.9504, 362.5471
122.4325, 366.9894
122.9147, 371.2094
123.3968, 375.5577
123.8789, 379.4489
124.3610, 382.2227
124.8431, 383.9430
125.3252, 385.1360
125.8074, 385.5925
126.2895, 385.8233
126.7716, 386.8045
127.2537, 389.1074
127.7358, 392.3274
128.2179, 395.6348
128.7001, 398.9613
129.1822, 403.0752
129.6643, 409.3073
130.1464, 417.2074
130.6285, 424.9048
131.1106, 431.7959
131.5928, 437.8559
132.0749, 442.6338
132.5570, 445.6898
133.0391, 448.6360
133.5212, 453.8213
134.0033, 460.4939
134.4855, 465.7075
134.9676, 469.5955
135.4497, 473.6998
135.9318, 476.6010
136.4139, 478.0014
136.8960, 478.6112
137.3782, 479.9519
137.8603, 482.1678
138.3424, 484.3678
138.8245, 486.1315
139.3066, 487.5186
139.7887, 488.2720
140.2709, 488.3069
140.7530, 487.7419
141.2351, 486.9224
141.7172, 485.8056
142.1993, 484.5152
142.6814, 482.9603
143.1636, 480.6428
143.6457, 479.3922
144.1278, 479.6272
144.6099, 481.1736
145.0920, 482.5337
145.5741, 483.5787
146.0563, 484.5558
146.5384, 485.6891
147.0205, 487.4413
147.5026, 488.5791
147.9847, 488.6403
148.4668, 487.5427
148.9490, 487.1967
149.4311, 488.0768
149.9132, 489.4160
150.3953, 490.5004
150.8774, 491.1209
151.3595, 491.7356
151.8417, 492.5172
152.3238, 493.5764
152.8059, 494.2198
153.2880, 494.1269
153.7701, 493.7345
154.2522, 493.5083
154.7344, 494.0063
155.2165, 494.1887
155.6986, 493.8176
156.1807, 492.8792
156.6628, 491.3652
157.1449, 488.3853
157.6271, 485.0435
158.1092, 482.8151
158.5913, 483.1343
159.0734, 483.7322
159.5555, 483.5941
160.0376, 482.2325
160.5198, 481.2431
161.0019, 481.3316
161.4840, 482.0817
161.9661, 482.7751
162.4482, 483.7518
162.9303, 484.2137
163.4125, 483.5138
163.8946, 480.9325
164.3767, 478.6198
164.8588, 477.6510
165.3409, 477.6796
165.8230, 477.8541
166.3052, 477.8432
166.7873, 477.7983
167.2694, 477.8466
167.7515, 478.0733
168.2336, 478.2804
168.7157, 478.5520
169.1978, 478.7521
169.6800, 478.4575
170.1621, 476.8699
170.6442, 474.8960
171.1263, 473.4980
171.6084, 473.2163
172.0905, 473.1337
172.5727, 472.6808
173.0548, 471.8384
173.5369, 470.5146
174.0190, 468.0257
174.5011, 465.1693
174.9832, 463.0930
175.4654, 462.4165
175.9475, 462.2980
176.4296, 461.7085
176.9117, 460.7333
177.3938, 460.1068
177.8759, 460.9940
178.3581, 462.5776
178.8402, 463.2584
179.3223, 462.1533
179.8044, 460.2317
180.2865, 458.9273
180.7686, 458.2189
181.2508, 457.3985
181.7329, 455.7436
182.2150, 453.4873
182.6971, 451.2023
183.1792, 448.5794
183.6613, 446.2938
184.1435, 446.1543
184.6256, 448.2173
185.1077, 450.5891
185.5898, 451.5090
186.0719, 451.1781
186.5540, 450.5364
187.0362, 449.8134
187.5183, 449.0173
188.0004, 448.1739
188.4825, 447.2709
188.9646, 446.3751
189.4467, 445.4837
189.9289, 444.6207
190.4110, 443.9752
190.8931, 443.5640
191.3752, 443.4181
191.8573, 443.8682
192.3394, 445.0692
192.8216, 446.1392
193.3037, 445.7863
193.7858, 444.0549
194.2679, 442.5397
194.7500, 441.9404
195.2321, 442.0872
195.7143, 441.7820
196.1964, 440.8839
196.6785, 439.9748
197.1606, 439.9887
197.6427, 441.0028
198.1248, 441.7174
198.6070, 441.5244
199.0891, 440.4990
199.5712, 439.7881
200.0533, 439.4101
200.5354, 439.2968
201.0175, 439.5465
201.4997, 440.2724
201.9818, 440.5619
202.4639, 439.8777
202.9460, 438.2180
203.4281, 437.1780
203.9102, 436.9086
204.3924, 436.9900
204.8745, 436.8206
205.3566, 436.3521
205.8387, 435.8796
206.3208, 435.5823
206.8029, 435.4869
207.2851, 434.9683
207.7672, 433.7967
208.2493, 432.5326
208.7314, 432.0547
209.2135, 432.4968
209.6956, 433.2829
210.1778, 434.4035
210.6599, 435.9879
211.1420, 436.7411
211.6241, 436.4837
212.1062, 435.5943
212.5883, 434.4927
213.0705, 432.9063
213.5526, 431.8563
214.0347, 431.9473
214.5168, 433.4529
214.9989, 434.0326
215.4810, 433.2065
215.9632, 431.9135
216.4453, 431.8229
216.9274, 433.5270
217.4095, 434.9982
217.8916, 435.3680
218.3737, 434.3280
218.8559, 434.1002
219.3380, 435.1433
219.8201, 436.5916
220.3022, 437.0165
220.7843, 436.0013
221.2664, 434.8442
221.7486, 433.8476
222.2307, 432.9454
222.7128, 432.7323
223.1949, 433.5383
223.6770, 434.7784
224.1591, 435.4547
224.6413, 435.1153
225.1234, 435.1334
225.6055, 436.2080
226.0876, 438.8153
226.5697, 439.9760
227.0518, 439.0069
227.5340, 437.1200
228.0161, 436.0604
228.4982, 435.7502
228.9803, 436.4268
229.4624, 438.5841
229.9445, 442.8837
230.4267, 445.2198
230.9088, 444.7099
231.3909, 442.9428
231.8730, 442.2006
232.3551, 443.0829
232.8372, 443.9241
233.3194, 444.2466
233.8015, 443.9557
234.2836, 443.6511
234.7657, 443.1707
235.2478, 442.8019
235.7299, 443.0162
236.2121, 444.3938
236.6942, 445.3322
237.1763, 445.2057
237.6584, 443.7448
238.1405, 443.1541
238.6226, 443.7484
239.1048, 444.9681
239.5869, 446.2298
240.0690, 447.8323
240.5511, 448.9351
241.0332, 449.2748
241.5153, 448.7718
241.9975, 448.1578
242.4796, 447.3932
242.9617, 446.5604
243.4438, 445.7626
243.9259, 445.0588
244.4080, 444.2889
244.8902, 443.4512
245.3723, 442.5571
245.8544, 441.3683
246.3365, 439.4686
246.8186, 437.6768
247.3007, 436.9773
247.7829, 438.4962
248.2650, 438.9120
248.7471, 437.2050
249.2292, 433.2978
249.7113, 430.3957
250.1934, 428.8492
250.6756, 427.8896
251.1577, 426.8159
251.6398, 425.5261
252.1219, 424.3459
252.6040, 423.4678
253.0861, 422.8622
253.5683, 421.5690
254.0504, 418.9809
254.5325, 416.4403
255.0146, 415.2077
255.4967, 416.1532
255.9788, 416.3252
256.4609, 415.0177
256.9431, 412.4702
257.4252, 410.6570
257.9073, 409.9462
258.3894, 409.4426
258.8715, 408.5243
259.3536, 407.0966
259.8358, 405.4502
260.3179, 403.4393
260.8000, 401.1982
261.2821, 399.5624
261.7642, 398.7503
262.2463, 398.1437
262.7285, 397.3406
263.2106, 396.2491
263.6927, 395.2423
264.1748, 394.2352
264.6569, 393.3639
265.1390, 393.3080
265.6212, 394.6967
266.1033, 395.6030
266.5854, 394.7545
267.0675, 391.6450
267.5496, 388.7763
268.0317, 386.2022
268.5139, 384.0034
268.9960, 382.6784
269.4781, 382.6752
269.9602, 382.3442
270.4423, 380.5388
270.9244, 376.7339
271.4066, 374.3361
271.8887, 373.9803
272.3708, 374.4816
272.8529, 373.2900
273.3350, 369.9297
273.8171, 366.5904
274.2993, 364.2952
274.7814, 363.2248
275.2635, 361.8193
275.7456, 360.1347
276.2277, 358.0287
276.7098, 355.2181
277.1920, 351.6093
277.6741, 347.7855
278.1562, 343.8769
278.6383, 339.8360
279.1204, 336.0915
279.6025, 332.6401
280.0847, 329.4383
280.5668, 326.4538
281.0489, 323.6955
281.5310, 321.0795
282.0131, 318.5716
282.4952, 316.1728
282.9774, 314.1274
283.4595, 312.5666
283.9416, 310.8043
284.4237, 308.0159
284.9058, 304.2074
285.3879, 300.1097
285.8701, 295.5245
286.3522, 290.8912
286.8343, 288.1141
287.3164, 287.3903
287.7985, 287.1257
288.2806, 285.9089
288.7628, 283.8271
289.2449, 281.7555
289.7270, 279.8159
290.2091, 278.0505
290.6912, 276.7378
291.1733, 275.9096
291.6555, 274.8713
292.1376, 272.5840
292.6197, 269.4750
293.1018, 267.7533
293.5839, 268.2527
294.0660, 269.4878
294.5482, 268.7043
295.0303, 266.0625
295.5124, 263.3453
295.9945, 261.6157
296.4766, 260.6560
296.9587, 259.9833
297.4409, 259.6387
297.9230, 259.2487
298.4051, 258.1123
298.8872, 256.4209
299.3693, 254.9727
299.8514, 254.2102
300.3336, 253.9877
300.8157, 254.2003
301.2978, 254.9080
301.7799, 255.5760
302.2620, 255.7506
302.7441, 255.4445
303.2263, 254.7006
303.7084, 252.8241
304.1905, 250.8334
304.6726, 250.3059
305.1547, 251.3050
305.6368, 252.2748
306.1190, 251.4075
306.6011, 249.6680
307.0832, 248.7933
307.5653, 250.4791
308.0474, 252.5072
308.5295, 252.5266
309.0117, 250.7562
309.4938, 249.0787
309.9759, 248.9126
310.4580, 249.4842
310.9401, 249.8800
311.4222, 249.7883
311.9044, 249.5366
312.3865, 249.2947
312.8686, 249.0662
313.3507, 248.8578
313.8328, 248.6306
314.3149, 248.4467
314.7971, 248.3733
315.2792, 248.4705
315.7613, 248.5632
316.2434, 248.6596
316.7255, 248.6862
317.2076, 248.4861
317.6898, 247.4483
318.1719, 246.5640
318.6540, 246.5159
319.1361, 247.6063
319.6182, 248.6900
320.1003, 249.7255
320.5825, 250.4425
321.0646, 250.4691
321.5467, 248.6763
322.0288, 247.1011
322.5109, 246.7262
322.9930, 247.7856
323.4752, 248.3781
323.9573, 247.7532
324.4394, 246.6673
324.9215, 245.8017
325.4036, 245.1807
325.8857, 244.8641
326.3679, 245.1116
326.8500, 245.8759
327.3321, 246.1526
327.8142, 245.6084
328.2963, 244.7354
328.7784, 243.8225
329.2606, 242.4085
329.7427, 241.5308
330.2248, 241.2887
330.7069, 241.6190
331.1890, 242.3232
331.6711, 244.3040
332.1533, 245.6987
332.6354, 245.6071
333.1175, 243.0230
333.5996, 241.1903
334.0817, 240.3750
334.5638, 240.1941
335.0460, 239.9468
335.5281, 239.6557
336.0102, 239.2437
336.4923, 238.6458
336.9744, 237.8204
337.4565, 237.0467
337.9387, 236.1877
338.4208, 235.5464
338.9029, 235.6374
339.3850, 236.7328
339.8671, 237.5019
340.3492, 237.5409
340.8313, 236.9616
341.3134, 236.7027
341.7956, 236.8727
342.2777, 237.0267
342.7598, 236.7101
343.2419, 235.9070
343.7240, 235.2691
344.2061, 234.9148
344.6883, 234.7803
345.1704, 234.8378
345.6525, 235.1139
346.1346, 235.1585
346.6167, 234.5053
347.0988, 233.2862
347.5810, 232.3773
348.0631, 231.8549
348.5452, 231.5728
349.0273, 231.2558
349.5094, 230.9443
349.9915, 230.9292
350.4737, 231.5058
350.9558, 232.4522
351.4379, 233.3671
351.9200, 234.2633
352.4021, 234.8526
352.8842, 234.5459
353.3664, 233.7249
353.8485, 233.2884
354.3306, 233.8740
354.8127, 234.7321
355.2948, 234.8836
355.7769, 234.4334
356.2591, 234.0638
356.7412, 234.3311
357.2233, 234.9020
357.7054, 235.4020
358.1875, 235.7413
358.6696, 235.9962
359.1518, 236.0052
359.6339, 235.9497
360.1160, 236.2773
360.5981, 237.5811
361.0802, 239.0772
361.5623, 240.2496
362.0445, 240.9986
362.5266, 241.5750
363.0087, 241.8992
363.4908, 242.1543
363.9729, 242.5723
364.4550, 243.2303
364.9372, 244.0483
365.4193, 245.0715
365.9014, 246.3020
366.3835, 247.4416
366.8656, 247.9335
367.3477, 248.5982
367.8299, 250.0388
368.3120, 253.7960
368.7941, 256.6217
369.2762, 257.7117
369.7583, 257.4626
370.2404, 257.6893
370.7226, 258.5941
371.2047, 259.7784
371.6868, 261.1478
372.1689, 262.9541
372.6510, 264.3619
373.1331, 265.1868
373.6153, 265.7299
374.0974, 266.5513
374.5795, 267.9767
375.0616, 268.9908
375.5437, 269.1159
376.0258, 268.3247
376.5080, 268.1647
376.9901, 268.8487
377.4722, 269.7652
377.9543, 270.4928
378.4364, 271.1054
378.9185, 270.8949
379.4007, 269.5275
379.8828, 267.3861
380.3649, 265.6078
380.8470, 264.2220
381.3291, 263.0518
381.8112, 262.0970
382.2934, 261.3087
382.7755, 260.4134
383.2576, 259.4061
383.7397, 258.2293
384.2218, 256.6215
384.7039, 254.6783
385.1861, 253.0085
385.6682, 251.9524
386.1503, 251.3324
386.6324, 250.9684
387.1145, 250.8723
387.5966, 250.4821
388.0788, 248.8858
388.5609, 246.7204
389.0430, 245.1432
389.5251, 244.7682
390.0072, 244.7511
390.4893, 244.2753
390.9715, 243.4803
391.4536, 242.8593
391.9357, 242.9485
392.4178, 243.1860
392.8999, 243.0922
393.3820, 242.5204
393.8642, 241.8529
394.3463, 241.0655
394.8284, 240.3417
395.3105, 239.9723
395.7926, 240.7865
396.2747, 241.2943
396.7569, 240.5156
397.2390, 238.3411
397.7211, 237.0940
398.2032, 238.0127
398.6853, 239.5856
399.1674, 240.6902
399.6496, 240.6691
400.1317, 240.8468
400.6138, 241.5459
401.0959, 242.5417
401.5780, 243.0462
402.0602, 242.7512
402.5423, 242.3153
403.0244, 241.9501
403.5065, 241.5882
403.9886, 241.5338
404.4707, 241.8856
404.9529, 242.4493
405.4350, 242.9546
405.9171, 243.3596
406.3992, 243.8889
406.8813, 244.8051
407.3634, 245.9390
407.8456, 245.9038
408.3277, 244.4106
408.8098, 242.9508
409.2919, 242.9754
409.7740, 244.3776
410.2561, 245.3715
410.7383, 245.7144
411.2204, 245.5732
411.7025, 245.0916
412.1846, 244.3118
412.6667, 243.5830
413.1488, 243.0202
413.6310, 242.6569
414.1131, 242.5788
414.5952, 242.7939
415.0773, 243.2458
415.5594, 244.0943
416.0415, 245.1163
416.5237, 245.9262
417.0058, 246.3131
417.4879, 246.5205
417.9700, 246.8898
418.4521, 247.2989
418.9342, 247.2693
419.4164, 246.1055
419.8985, 244.6754
420.3806, 243.5705
420.8627, 242.7935
421.3448, 242.5945
421.8269, 243.6911
422.3091, 245.2583
422.7912, 246.1479
423.2733, 245.5364
423.7554, 244.7483
424.2375, 244.0530
424.7196, 243.4693
425.2018, 243.1664
425.6839, 243.5345
426.1660, 243.9347
426.6481, 243.9971
427.1302, 243.5482
427.6123, 243.0232
428.0945, 242.1827
428.5766, 241.3492
429.0587, 241.4016
429.5408, 242.9398
430.0229, 244.0753
430.5050, 243.8920
430.9872, 242.3157
431.4693, 241.6270
431.9514, 242.0006
432.4335, 242.8157
432.9156, 243.5731
433.3977, 244.2768
433.8799, 244.5539
434.3620, 244.1806
434.8441, 243.4953
435.3262, 243.2266
435.8083, 243.3651
436.2904, 243.7514
436.7726, 244.5418
437.2547, 245.4811
437.7368, 245.8787
438.2189, 245.6303
438.7010, 245.2876
439.1831, 245.1873
439.6652, 245.3977
440.1473, 246.0637
440.6295, 247.7927
441.1116, 249.5346
441.5937, 250.2345
442.0758, 250.1009
442.5579, 250.1614
443.0400, 250.8648
443.5222, 252.0158
444.0043, 253.5516
444.4864, 255.6337
444.9685, 257.6014
445.4506, 259.0365
445.9327, 260.2790
446.4149, 261.8243
446.8970, 263.8755
447.3791, 266.1033
447.8612, 268.6151
448.3433, 271.4200
448.8254, 273.6758
449.3076, 274.5114
449.7897, 275.5883
450.2718, 278.0675
450.7539, 283.1438
451.2360, 286.8139
451.7181, 288.5156
452.2003, 289.0980
452.6824, 290.2143
453.1645, 291.9806
453.6466, 293.8335
454.1287, 295.4123
454.6108, 296.8452
455.0930, 299.2697
455.5751, 302.8555
456.0572, 306.4828
456.5393, 309.0057
457.0214, 310.6133
457.5035, 312.0972
457.9857, 313.4847
458.4678, 315.0945
458.9499, 317.5623
459.4320, 320.6942
459.9141, 323.8442
460.3962, 326.3230
460.8784, 328.7978
461.3605, 332.4813
461.8426, 337.4628
462.3247, 341.4717
462.8068, 342.7741
463.2889, 342.5171
463.7711, 341.8668
464.2532, 341.1496
464.7353, 340.0834
465.2174, 338.7954
465.6995, 337.0911
466.1816, 334.4642
466.6638, 330.0342
467.1459, 325.3937
467.6280, 321.1541
468.1101, 317.5431
468.5922, 313.4781
469.0743, 308.9068
469.5565, 303.8993
470.0386, 298.4946
470.5207, 292.4856
471.0028, 286.5375
471.4849, 280.2947
471.9670, 274.3392
472.4492, 270.6798
472.9313, 270.1393
473.4134, 269.1335
473.8955, 265.6855
474.3776, 259.9356
474.8597, 255.2306
475.3419, 251.5561
475.8240, 248.8355
476.3061, 247.5886
476.7882, 247.4137
477.2703, 246.3456
477.7524, 243.5683
478.2346, 240.3141
478.7167, 238.1497
479.1988, 236.9295
479.6809, 236.1115
480.1630, 235.8042
480.6451, 235.5108
481.1273, 234.6145
481.6094, 233.0491
482.0915, 231.5607
482.5736, 230.4076
483.0557, 229.6107
483.5378, 229.1821
484.0200, 229.3717
484.5021, 229.6257
484.9842, 230.0620
485.4663, 230.4663
485.9484, 230.2614
486.4305, 228.1375
486.9127, 226.5853
487.3948, 226.6131
487.8769, 228.5451
488.3590, 229.7759
488.8411, 230.1528
489.3232, 229.9982
489.8054, 229.4055
490.2875, 228.0502
490.7696, 227.5702
491.2517, 228.5271
491.7338, 230.0899
492.2159, 230.0040
492.6981, 228.1123
493.1802, 226.8272
493.6623, 227.7244
494.1444, 230.1556
494.6265, 231.5470
495.1086, 231.9084
495.5908, 231.6836
496.0729, 230.6805
496.5550, 229.4399
497.0371, 229.1973
497.5192, 230.5082
498.0013, 232.1087
498.4835, 232.9219
498.9656, 233.1904
499.4477, 233.3996
499.9298, 233.8041
500.4119, 234.1793
500.8940, 234.3554
501.3762, 234.3415
501.8583, 234.3968
502.3404, 234.6232
502.8225, 234.9339
503.3046, 235.2839
503.7867, 235.7806
504.2689, 236.1429
504.7510, 236.2458
505.2331, 236.2658
505.7152, 236.4468
506.1973, 236.7252
506.6794, 237.3311
507.1616, 238.5532
507.6437, 240.2093
508.1258, 240.7070
508.6079, 239.7303
509.0900, 238.8347
509.5721, 239.2843
510.0543, 240.9155
510.5364, 241.9658
511.0185, 242.2815
511.5006, 242.2230
511.9827, 242.0817
512.4648, 241.9085
512.9470, 241.8389
513.4291, 241.7708
513.9112, 241.9964
514.3933, 243.0144
514.8754, 244.6519
515.3575, 246.2754
515.8397, 247.7319
516.3218, 248.9103
516.8039, 249.6121
517.2860, 249.7324
517.7681, 249.9970
518.2502, 251.2977
518.7324, 252.5238
519.2145, 252.6818
519.6966, 249.7424
520.1787, 248.0428
520.6608, 248.5853
521.1429, 250.5295
521.6251, 251.8326
522.1072, 252.3477
522.5893, 252.5054
523.0714, 252.3707
523.5535, 251.9486
524.0356, 251.5414
524.5178, 251.0849
524.9999, 250.8609
525.4820, 251.2842
525.9641, 252.2655
526.4462, 252.9196
526.9283, 253.0811
527.4105, 253.0755
527.8926, 253.5438
528.3747, 254.2589
528.8568, 254.4499
529.3389, 253.0340
529.8210, 251.4937
530.3032, 251.6888
530.7853, 253.2838
531.2674, 254.6265
531.7495, 254.6623
532.2316, 254.1916
532.7137, 253.6443
533.1959, 252.9209
533.6780, 252.7419
534.1601, 254.2961
534.6422, 256.0143
535.1243, 256.2755
535.6064, 253.1317
536.0886, 250.9180
536.5707, 250.3024
537.0528, 250.8386
537.5349, 251.2568
538.0170, 251.6570
538.4991, 251.6996
538.9813, 251.1033
539.4634, 249.9182
539.9455, 249.3253
540.4276, 249.4588
540.9097, 249.4502
541.3918, 248.1766
541.8740, 246.0341
542.3561, 244.6743
542.8382, 244.4905
543.3203, 244.6925
543.8024, 244.4713
544.2845, 243.9261
544.7667, 243.2851
545.2488, 242.6761
545.7309, 241.9863
546.2130, 241.2188
546.6951, 240.3266
547.1772, 239.1288
547.6594, 237.4187
548.1415, 235.4873
548.6236, 233.3072
549.1057, 230.5876
549.5878, 228.7964
550.0699, 228.8122
550.5521, 229.2817
551.0342, 229.0794
551.5163, 227.9772
551.9984, 226.6830
552.4805, 225.1926
552.9626, 223.5927
553.4448, 222.0798
553.9269, 220.6389
554.4090, 219.3517
554.8911, 218.3394
555.3732, 217.4891
555.8553, 216.3199
556.3375, 214.8465
556.8196, 213.4254
557.3017, 212.4366
557.7838, 211.6655
558.2659, 210.8066
558.7480, 209.8363
559.2302, 208.6710
559.7123, 206.7787
560.1944, 204.8013
560.6765, 203.5651
561.1586, 204.3023
561.6407, 204.7563
562.1229, 203.9994
562.6050, 202.3910
563.0871, 200.9657
563.5692, 199.6888
564.0513, 198.8056
564.5334, 198.5261
565.0156, 198.8885
565.4977, 198.8879
565.9798, 198.4715
566.4619, 197.7956
566.9440, 196.8288
567.4261, 195.5314
567.9083, 194.7796
568.3904, 194.7964
568.8725, 194.8896
569.3546, 193.7525
569.8367, 191.7605
570.3188, 190.6735
570.8010, 191.6522
571.2831, 193.0131
571.7652, 192.2228
572.2473, 189.9081
572.7294, 188.2428
573.2115, 189.1329
573.6937, 190.4316
574.1758, 190.4742
574.6579, 189.1250
575.1400, 188.2955
575.6221, 189.3590
576.1042, 190.5978
576.5864, 190.8081
577.0685, 188.9991
577.5506, 187.8541
578.0327, 187.6884
578.5148, 187.9480
578.9969, 187.9145
579.4791, 187.5382
579.9612, 186.9917
580.4433, 186.1851
580.9254, 185.3371
581.4075, 185.0639
581.8896, 185.3623
582.3718, 185.8616
582.8539, 186.6124
583.3360, 187.3640
583.8181, 187.4367
584.3002, 186.8553
584.7823, 186.2800
