##NAMES=Chenevixite
##RRUFFID=R100177
##IDEAL CHEMISTRY=Cu^2+^Fe^3+^(As^5+^O_4_)(OH)_2_
##LOCALITY=Patagonia Mountains, Harshaw District, Santa Cruz County, Arizona
##OWNER=RRUFF
##SOURCE=Joe Ruiz
##DESCRIPTION=Transparent green thin tabular crystals
##STATUS=The identification of this mineral has been confirmed only by single crystal X-ray diffraction.
##URL=rruff.info/R100177
90.60547, 86.57498
91.08759, 88.69732
91.56970, 90.54086
92.05182, 90.08945
92.53394, 88.64949
93.01605, 87.28457
93.49817, 86.96691
93.98029, 87.51237
94.46240, 87.27351
94.94452, 85.63027
95.42664, 83.58928
95.90874, 81.53835
96.39086, 79.57718
96.87298, 78.01479
97.35509, 77.34875
97.83721, 77.99245
98.31933, 77.83865
98.80145, 76.25229
99.28356, 74.31552
99.76568, 72.67683
100.2478, 71.55788
100.7299, 70.84122
101.2120, 70.26814
101.6941, 69.31803
102.1763, 69.13811
102.6584, 70.32364
103.1405, 72.19678
103.6226, 73.84812
104.1047, 74.78703
104.5868, 75.06570
105.0690, 75.07350
105.5511, 75.26426
106.0332, 74.85444
106.5153, 73.27738
106.9974, 70.62403
107.4795, 67.59808
107.9617, 64.27380
108.4438, 60.99227
108.9259, 58.84692
109.4080, 58.82684
109.8901, 59.70879
110.3722, 59.66739
110.8544, 58.28455
111.3365, 56.92797
111.8186, 56.75098
112.3007, 57.27215
112.7828, 57.54393
113.2649, 56.74690
113.7471, 54.99458
114.2292, 53.86283
114.7113, 53.96880
115.1934, 54.16214
115.6755, 54.06025
116.1576, 53.64397
116.6397, 53.02627
117.1219, 52.32668
117.6040, 51.58147
118.0861, 50.60876
118.5682, 48.93911
119.0503, 47.41331
119.5324, 46.64719
120.0146, 46.72163
120.4967, 47.16648
120.9788, 47.19807
121.4609, 46.33691
121.9430, 45.75391
122.4251, 45.78035
122.9073, 45.97625
123.3894, 45.69239
123.8715, 44.59709
124.3536, 43.19883
124.8357, 42.94915
125.3178, 44.29271
125.8000, 45.50203
126.2821, 45.84877
126.7642, 45.50182
127.2463, 45.07234
127.7284, 44.79282
128.2105, 44.61847
128.6927, 44.45015
129.1748, 44.29693
129.6569, 44.12890
130.1390, 43.85201
130.6211, 43.41799
131.1032, 43.16848
131.5854, 43.41949
132.0675, 43.87508
132.5496, 44.32627
133.0317, 44.76804
133.5138, 45.06535
133.9959, 44.80310
134.4781, 43.37135
134.9602, 42.37056
135.4423, 42.55690
135.9244, 43.31242
136.4065, 43.79093
136.8886, 43.42105
137.3708, 42.28714
137.8529, 41.60275
138.3350, 42.04840
138.8171, 42.29089
139.2992, 41.84399
139.7813, 40.91575
140.2635, 40.01054
140.7456, 39.55682
141.2277, 39.60450
141.7098, 39.72775
142.1919, 40.03919
142.6740, 40.31812
143.1561, 40.36261
143.6383, 40.19356
144.1204, 40.09067
144.6025, 40.39338
145.0846, 41.19482
145.5667, 41.73496
146.0488, 41.93359
146.5310, 41.88029
147.0131, 41.61295
147.4952, 41.10693
147.9773, 40.54321
148.4594, 40.22322
148.9415, 40.09555
149.4237, 39.73093
149.9058, 38.71819
150.3879, 37.32794
150.8700, 36.37669
151.3521, 36.22733
151.8342, 36.22802
152.3164, 35.72712
152.7985, 34.79694
153.2806, 33.97417
153.7627, 33.75706
154.2448, 34.15916
154.7269, 34.42329
155.2091, 34.28289
155.6912, 34.10040
156.1733, 34.04583
156.6554, 34.13654
157.1375, 34.30313
157.6196, 34.45883
158.1018, 34.57760
158.5839, 34.76647
159.0660, 35.02053
159.5481, 35.34152
160.0302, 35.79770
160.5123, 36.38081
160.9945, 36.95338
161.4766, 37.26249
161.9587, 37.09753
162.4408, 36.96081
162.9229, 36.74695
163.4050, 36.61103
163.8871, 36.76609
164.3693, 37.28611
164.8514, 37.97340
165.3335, 38.34004
165.8156, 38.05831
166.2977, 37.91334
166.7798, 38.06310
167.2620, 38.38546
167.7441, 38.70969
168.2262, 38.97018
168.7083, 39.16987
169.1904, 39.28197
169.6725, 39.13884
170.1547, 39.20251
170.6368, 39.80251
171.1189, 40.79633
171.6010, 41.70013
172.0831, 42.30059
172.5652, 42.66053
173.0474, 42.95854
173.5295, 43.12932
174.0116, 43.35981
174.4937, 43.81693
174.9758, 44.50084
175.4579, 45.22063
175.9401, 45.95557
176.4222, 46.65368
176.9043, 47.26319
177.3864, 47.78649
177.8685, 48.19711
178.3506, 48.40468
178.8328, 48.31919
179.3149, 48.35943
179.7970, 48.74862
180.2791, 49.28539
180.7612, 49.82133
181.2433, 50.31263
181.7255, 50.75189
182.2076, 51.08343
182.6897, 51.10294
183.1718, 51.41546
183.6539, 52.52448
184.1360, 53.78859
184.6181, 54.48949
185.1003, 54.25818
185.5824, 53.37489
186.0645, 52.83730
186.5466, 52.96320
187.0287, 53.07796
187.5108, 53.01696
187.9930, 52.91282
188.4751, 52.91682
188.9572, 53.10832
189.4393, 53.49375
189.9214, 54.12652
190.4035, 55.56843
190.8857, 56.63329
191.3678, 56.82482
191.8499, 56.50446
192.3320, 56.32671
192.8141, 56.71009
193.2962, 57.54945
193.7784, 58.02183
194.2605, 57.89541
194.7426, 57.74701
195.2247, 57.70594
195.7068, 57.78931
196.1889, 58.05453
196.6711, 58.60249
197.1532, 59.33484
197.6353, 59.76712
198.1174, 59.70968
198.5995, 59.56264
199.0816, 59.55110
199.5638, 59.65358
200.0459, 59.70228
200.5280, 59.50164
201.0101, 59.21729
201.4922, 59.31549
201.9743, 60.27047
202.4565, 61.15162
202.9386, 60.98609
203.4207, 59.74233
203.9028, 58.60045
204.3849, 58.35491
204.8670, 58.55906
205.3492, 58.56202
205.8313, 58.12755
206.3134, 57.60930
206.7955, 57.58974
207.2776, 58.25245
207.7597, 58.55412
208.2419, 57.48879
208.7240, 56.01183
209.2061, 55.06188
209.6882, 55.01045
210.1703, 55.46039
210.6524, 55.73308
211.1346, 55.72903
211.6167, 55.80126
212.0988, 56.15517
212.5809, 56.58984
213.0630, 56.88885
213.5451, 56.94532
214.0273, 56.90123
214.5094, 57.13323
214.9915, 58.00083
215.4736, 58.46729
215.9557, 57.93457
216.4378, 57.14589
216.9200, 56.91142
217.4021, 57.60806
217.8842, 58.84632
218.3663, 59.51561
218.8484, 59.11613
219.3305, 58.82988
219.8127, 58.89338
220.2948, 59.09271
220.7769, 59.19209
221.2590, 59.08414
221.7411, 58.84226
222.2232, 58.68409
222.7054, 58.74027
223.1875, 58.72626
223.6696, 58.82686
224.1517, 58.78150
224.6338, 58.21397
225.1159, 56.95174
225.5980, 55.25142
226.0802, 53.85386
226.5623, 53.22742
227.0444, 52.35531
227.5265, 50.90211
228.0086, 49.23674
228.4907, 47.86425
228.9729, 47.00288
229.4550, 46.48029
229.9371, 45.86853
230.4192, 45.00076
230.9013, 44.30452
231.3834, 43.98811
231.8656, 43.85363
232.3477, 43.58052
232.8298, 43.02675
233.3119, 42.36174
233.7940, 41.97584
234.2761, 41.95254
234.7583, 41.92632
235.2404, 41.73018
235.7225, 41.48363
236.2046, 41.44075
236.6867, 41.73904
237.1688, 42.13288
237.6510, 42.15149
238.1331, 41.75531
238.6152, 41.37627
239.0973, 41.10797
239.5794, 40.96064
240.0615, 40.99152
240.5437, 41.27211
241.0258, 41.61978
241.5079, 41.75077
241.9900, 41.66468
242.4721, 41.66637
242.9542, 41.89003
243.4364, 42.29694
243.9185, 42.82794
244.4006, 43.55636
244.8827, 44.24580
245.3648, 44.69348
245.8469, 44.91819
246.3290, 44.94613
246.8112, 44.76982
247.2933, 44.40587
247.7754, 43.81228
248.2575, 42.72383
248.7396, 41.86755
249.2217, 42.03661
249.7039, 42.94084
250.1860, 43.59182
250.6681, 43.22139
251.1502, 42.13226
251.6323, 41.49651
252.1144, 41.65580
252.5966, 41.79802
253.0787, 41.39027
253.5608, 40.60722
254.0429, 39.82604
254.5250, 39.20934
255.0071, 38.76038
255.4893, 38.50400
255.9714, 38.51667
256.4535, 38.61757
256.9356, 38.74728
257.4177, 38.89045
257.8998, 39.03456
258.3820, 39.20776
258.8641, 39.36006
259.3462, 39.27084
259.8283, 38.67741
260.3104, 38.28509
260.7925, 38.59322
261.2747, 39.13102
261.7568, 39.22952
262.2389, 38.48412
262.7210, 37.23030
263.2031, 36.44748
263.6852, 36.37213
264.1674, 36.40050
264.6495, 36.39528
265.1316, 36.39616
265.6137, 36.45706
266.0958, 36.60398
266.5779, 36.79548
267.0601, 36.94344
267.5422, 37.08550
268.0243, 37.09987
268.5064, 36.93684
268.9885, 36.68083
269.4706, 36.32821
269.9528, 35.88979
270.4349, 35.53608
270.9170, 35.68324
271.3991, 36.90100
271.8812, 37.46619
272.3633, 36.84682
272.8455, 35.91264
273.3276, 35.21136
273.8097, 34.91801
274.2918, 35.01051
274.7739, 35.55165
275.2560, 37.02782
275.7382, 37.89040
276.2202, 37.86298
276.7024, 37.56980
277.1845, 37.27920
277.6666, 37.09426
278.1487, 37.09754
278.6308, 37.39739
279.1129, 38.04524
279.5951, 38.83170
280.0772, 40.11238
280.5593, 41.21047
281.0414, 41.62424
281.5235, 41.45141
282.0056, 41.23135
282.4878, 41.51943
282.9699, 42.44536
283.4520, 42.93547
283.9341, 42.48217
284.4162, 42.15088
284.8983, 42.42921
285.3805, 43.20930
285.8626, 44.11995
286.3447, 44.89130
286.8268, 45.52208
287.3089, 46.08777
287.7910, 46.57752
288.2732, 47.02001
288.7553, 47.34109
289.2374, 47.62273
289.7195, 48.04463
290.2016, 48.73771
290.6837, 49.61071
291.1659, 50.15880
291.6480, 50.15695
292.1301, 50.09197
292.6122, 50.15247
293.0943, 50.16750
293.5764, 49.83940
294.0586, 49.01981
294.5407, 47.90802
295.0228, 47.04016
295.5049, 46.60953
295.9870, 46.20286
296.4691, 45.76737
296.9513, 45.36607
297.4334, 45.10711
297.9155, 45.01986
298.3976, 44.97009
298.8797, 44.72094
299.3618, 44.04366
299.8440, 43.60473
300.3261, 43.70077
300.8082, 43.84807
301.2903, 43.50069
301.7724, 42.62152
302.2545, 41.81423
302.7367, 41.87182
303.2188, 43.21437
303.7009, 43.73420
304.1830, 42.66341
304.6651, 41.47615
305.1472, 41.19558
305.6294, 41.76659
306.1115, 42.40291
306.5936, 42.40540
307.0757, 41.72348
307.5578, 41.38668
308.0399, 41.72234
308.5221, 42.01368
309.0042, 41.87461
309.4863, 41.42537
309.9684, 41.02936
310.4505, 40.93084
310.9326, 41.07438
311.4148, 41.07446
311.8969, 40.77740
312.3790, 40.53783
312.8611, 40.57903
313.3432, 40.70843
313.8253, 40.51407
314.3075, 39.77494
314.7896, 38.83813
315.2717, 38.62497
315.7538, 40.18460
316.2359, 40.94700
316.7180, 40.08786
317.2001, 38.60628
317.6823, 37.55525
318.1644, 37.24062
318.6465, 37.36747
319.1286, 37.52861
319.6107, 37.82568
320.0928, 37.87083
320.5750, 37.54020
321.0571, 37.05198
321.5392, 36.43050
322.0213, 35.74875
322.5034, 35.28943
322.9855, 35.36895
323.4677, 36.08181
323.9498, 36.70699
324.4319, 37.26685
324.9140, 37.73612
325.3961, 38.14695
325.8782, 38.46522
326.3604, 38.58032
326.8425, 38.38414
327.3246, 37.91667
327.8067, 37.63123
328.2888, 37.53680
328.7709, 37.58304
329.2531, 37.73949
329.7352, 38.03341
330.2173, 38.62428
330.6994, 39.61668
331.1815, 40.71211
331.6636, 41.09864
332.1458, 39.65182
332.6279, 38.87648
333.1100, 39.38447
333.5921, 40.33340
334.0742, 40.92764
334.5563, 40.93464
335.0385, 40.59609
335.5206, 40.23384
336.0027, 39.75774
336.4848, 39.51585
336.9669, 39.56411
337.4490, 39.77047
337.9312, 40.12475
338.4133, 40.57986
338.8954, 40.98611
339.3775, 41.17324
339.8596, 41.09821
340.3417, 41.36050
340.8239, 42.42013
341.3060, 43.29440
341.7881, 43.49710
342.2702, 43.25288
342.7523, 43.03016
343.2344, 43.11097
343.7166, 43.46056
344.1987, 43.91200
344.6808, 44.60630
345.1629, 45.24788
345.6450, 45.76804
346.1271, 46.23561
346.6093, 46.74649
347.0914, 47.32890
347.5735, 47.91527
348.0556, 48.36520
348.5377, 48.62354
349.0198, 48.83579
349.5020, 49.06978
349.9841, 49.21857
350.4662, 49.25617
350.9483, 49.15155
351.4304, 48.82136
351.9125, 48.14256
352.3947, 47.05511
352.8768, 46.02736
353.3589, 44.69004
353.8410, 43.77643
354.3231, 43.76921
354.8052, 44.39182
355.2874, 45.09752
355.7695, 45.55317
356.2516, 45.74871
356.7337, 45.60177
357.2158, 44.61024
357.6979, 43.96699
358.1800, 44.23140
358.6621, 44.78366
359.1443, 44.88409
359.6264, 44.25148
360.1085, 43.30328
360.5906, 42.85997
361.0727, 43.28041
361.5548, 43.25688
362.0370, 42.30527
362.5191, 41.17013
363.0012, 40.29515
363.4833, 39.71562
363.9654, 39.21296
364.4475, 38.52245
364.9297, 37.61950
365.4118, 36.96075
365.8939, 36.94131
366.3760, 36.72785
366.8581, 35.64455
367.3402, 34.14038
367.8224, 33.17359
368.3045, 33.46516
368.7866, 34.55019
369.2687, 35.05640
369.7508, 34.81647
370.2329, 34.33885
370.7151, 33.58847
371.1972, 32.80427
371.6793, 32.21872
372.1614, 31.91025
372.6435, 31.75870
373.1256, 31.67090
373.6078, 31.65817
374.0899, 31.55474
374.5720, 31.34435
375.0541, 31.00099
375.5362, 30.35482
376.0183, 29.46677
376.5005, 28.84838
376.9826, 29.07635
377.4647, 29.87694
377.9468, 30.21890
378.4289, 29.93315
378.9110, 29.42081
379.3932, 28.83327
379.8753, 28.22648
380.3574, 27.70873
380.8395, 27.26208
381.3216, 26.96643
381.8037, 26.96358
382.2859, 27.25784
382.7680, 27.64234
383.2501, 28.19488
383.7322, 28.66108
384.2143, 28.59415
384.6964, 27.79440
385.1786, 27.14301
385.6607, 27.29873
386.1428, 27.99423
386.6249, 28.52320
387.1070, 28.70862
387.5891, 28.73083
388.0713, 28.72485
388.5534, 28.69573
389.0355, 28.81506
389.5176, 29.31663
389.9997, 29.85876
390.4818, 30.07916
390.9640, 29.97021
391.4461, 29.73639
391.9282, 29.41542
392.4103, 29.10387
392.8924, 29.23790
393.3745, 30.43203
393.8567, 31.36172
394.3388, 31.34392
394.8209, 30.71329
395.3030, 30.03630
395.7851, 29.48778
396.2672, 29.16879
396.7494, 29.29023
397.2315, 30.08236
397.7136, 30.78167
398.1957, 31.32935
398.6778, 31.79596
399.1599, 32.26930
399.6420, 32.74133
400.1241, 33.08969
400.6063, 33.17002
401.0884, 32.96709
401.5705, 33.04583
402.0526, 33.71863
402.5347, 34.28677
403.0168, 34.41440
403.4990, 34.32154
403.9811, 34.40261
404.4632, 34.84945
404.9453, 35.48570
405.4274, 35.88085
405.9095, 35.90042
406.3917, 35.88491
406.8738, 35.60114
407.3559, 35.46341
407.8380, 35.97266
408.3201, 37.05289
408.8022, 38.02088
409.2844, 38.10291
409.7665, 37.21559
410.2486, 36.77525
410.7307, 37.26366
411.2128, 37.69695
411.6949, 37.62157
412.1771, 37.33265
412.6592, 37.36930
413.1413, 38.04836
413.6234, 39.02045
414.1055, 39.47111
414.5876, 39.16822
415.0698, 39.05840
415.5519, 39.46864
416.0340, 40.08220
416.5161, 40.73922
416.9982, 41.41176
417.4803, 42.06306
417.9625, 42.65170
418.4446, 43.18732
418.9267, 43.74900
419.4088, 44.32716
419.8909, 44.95570
420.3730, 45.71394
420.8552, 46.52889
421.3373, 47.23029
421.8194, 47.66656
422.3015, 48.06216
422.7836, 48.67056
423.2657, 49.48992
423.7479, 50.44670
424.2300, 51.52753
424.7121, 52.72531
425.1942, 54.10899
425.6763, 55.77509
426.1584, 57.12854
426.6406, 57.73308
427.1227, 57.91252
427.6048, 58.15614
428.0869, 58.53950
428.5690, 59.09389
429.0511, 59.91099
429.5333, 60.98910
430.0154, 61.87569
430.4975, 62.73815
430.9796, 63.25054
431.4617, 62.88276
431.9438, 61.99981
432.4260, 61.65668
432.9081, 62.43886
433.3902, 63.69524
433.8723, 63.84949
434.3544, 61.84830
434.8365, 60.46599
435.3187, 60.20891
435.8008, 60.32540
436.2829, 60.37062
436.7650, 60.19793
437.2471, 59.64820
437.7292, 58.51192
438.2114, 56.76186
438.6935, 55.34087
439.1756, 54.61842
439.6577, 53.81551
440.1398, 52.68532
440.6219, 51.39599
441.1040, 50.22471
441.5862, 49.29169
442.0683, 48.41357
442.5504, 47.15760
443.0325, 45.19104
443.5146, 43.86570
443.9967, 43.98450
444.4789, 44.20057
444.9610, 43.72723
445.4431, 42.68419
445.9252, 41.73742
446.4073, 41.47751
446.8894, 41.68077
447.3716, 41.43461
447.8537, 40.54053
448.3358, 39.69234
448.8179, 39.21418
449.3000, 38.93097
449.7821, 38.66296
450.2643, 38.36216
450.7464, 38.12788
451.2285, 38.19657
451.7106, 38.45755
452.1927, 38.28424
452.6748, 37.39589
453.1570, 36.37459
453.6391, 35.83201
454.1212, 35.67441
454.6033, 35.53946
455.0854, 35.34479
455.5675, 35.13894
456.0497, 35.06560
456.5318, 35.06778
457.0139, 34.77658
457.4960, 33.93340
457.9781, 32.76136
458.4602, 31.83628
458.9424, 31.04976
459.4245, 30.66180
459.9066, 31.06800
460.3887, 31.70231
460.8708, 32.03530
461.3529, 31.97037
461.8351, 31.60549
462.3172, 30.97148
462.7993, 30.05268
463.2814, 29.48312
463.7635, 29.51058
464.2456, 29.57586
464.7278, 29.51621
465.2099, 29.41782
465.6920, 29.45789
466.1741, 29.69771
466.6562, 29.95073
467.1383, 29.86201
467.6205, 29.26578
468.1026, 28.84152
468.5847, 28.73671
469.0668, 28.69702
469.5489, 28.56899
470.0310, 28.40896
470.5132, 28.40451
470.9953, 28.73580
471.4774, 29.23713
471.9595, 29.46229
472.4416, 29.34334
472.9237, 29.20077
473.4059, 29.13363
473.8880, 29.10153
474.3701, 29.02443
474.8522, 28.88682
475.3343, 28.90244
475.8164, 29.31076
476.2986, 29.96564
476.7807, 30.52454
477.2628, 30.94822
477.7449, 31.27850
478.2270, 31.59882
478.7091, 31.84299
479.1913, 31.77904
479.6734, 31.02483
480.1555, 30.37219
480.6376, 30.34162
481.1197, 30.69662
481.6018, 30.93297
482.0839, 30.88281
482.5660, 30.72941
483.0482, 30.74496
483.5303, 31.02961
484.0124, 31.09866
484.4945, 30.58195
484.9766, 30.20918
485.4587, 30.57632
485.9409, 31.40705
486.4230, 31.98207
486.9051, 31.88734
487.3872, 31.34959
487.8693, 31.03087
488.3514, 31.08905
488.8336, 31.06879
489.3157, 30.81585
489.7978, 30.58137
490.2799, 30.58127
490.7620, 30.78470
491.2441, 30.97304
491.7263, 30.97040
492.2084, 30.80761
492.6905, 30.65483
493.1726, 30.58581
493.6547, 30.34966
494.1368, 29.49026
494.6190, 28.58529
495.1011, 28.31236
495.5832, 28.85203
496.0653, 29.51466
496.5474, 29.85741
497.0295, 29.91184
497.5117, 29.72409
497.9938, 29.25625
498.4759, 28.72604
498.9580, 28.25707
499.4401, 27.86724
499.9222, 27.62430
500.4044, 27.66488
500.8865, 27.71569
501.3686, 27.66737
501.8507, 27.52311
502.3328, 27.28118
502.8149, 26.93994
503.2971, 26.51793
503.7792, 25.99246
504.2613, 25.18924
504.7434, 24.96202
505.2255, 25.84463
505.7076, 26.71106
506.1898, 27.03210
506.6719, 26.92335
507.1540, 26.66857
507.6361, 26.40877
508.1182, 26.17203
508.6003, 26.00637
509.0825, 25.86062
509.5646, 25.92514
510.0467, 26.69091
510.5288, 27.26699
511.0109, 26.95351
511.4930, 25.95913
511.9752, 25.14710
512.4573, 25.24719
512.9394, 25.76648
513.4215, 25.45208
513.9036, 24.14722
514.3857, 22.96919
514.8679, 22.15187
515.3500, 21.84468
515.8321, 22.37575
516.3142, 23.87834
516.7963, 25.04032
517.2784, 25.19713
517.7606, 24.73222
518.2427, 23.99080
518.7248, 23.04567
519.2069, 22.37243
519.6890, 22.33775
520.1711, 22.81306
520.6533, 23.16479
521.1354, 23.63205
521.6175, 23.69027
522.0996, 22.86300
522.5817, 21.81015
523.0638, 21.20459
523.5460, 21.14450
524.0281, 21.32135
524.5102, 21.48320
524.9923, 21.62442
525.4744, 21.50768
525.9565, 20.87508
526.4387, 20.31512
526.9208, 19.88591
527.4029, 19.61323
527.8850, 19.56372
528.3671, 19.74309
528.8492, 19.99170
529.3314, 20.22842
529.8135, 20.42847
530.2956, 20.31037
530.7777, 19.74900
531.2598, 19.09608
531.7419, 18.35900
532.2241, 17.72120
532.7062, 17.57049
533.1883, 18.23656
533.6704, 18.87305
534.1525, 18.81281
534.6346, 18.30110
535.1168, 17.89166
535.5989, 17.70627
536.0810, 17.66646
536.5631, 17.71602
537.0452, 17.86040
537.5273, 17.98202
538.0095, 18.11431
538.4916, 18.18957
538.9737, 18.25731
539.4558, 18.22799
539.9379, 17.89099
540.4200, 17.20417
540.9022, 16.46683
541.3843, 16.09640
541.8664, 16.13596
542.3485, 16.30392
542.8306, 16.84334
543.3127, 17.24395
543.7948, 17.26261
544.2769, 17.06353
544.7590, 16.89320
545.2411, 16.84107
545.7233, 16.84175
546.2054, 16.78092
546.6875, 16.67180
547.1696, 16.75850
547.6517, 17.21106
548.1339, 17.61150
548.6160, 17.54852
549.0981, 17.14696
549.5802, 16.71636
550.0623, 16.18935
550.5444, 15.78195
551.0266, 15.72613
551.5087, 15.88649
551.9908, 15.91570
552.4729, 15.70192
552.9550, 15.48436
553.4371, 15.58324
553.9193, 16.08020
554.4014, 16.40104
554.8835, 16.32506
555.3656, 16.34301
555.8477, 16.77862
556.3298, 17.37469
556.8120, 17.73330
557.2941, 17.71381
557.7762, 17.49585
558.2583, 17.27771
558.7404, 17.03566
559.2225, 17.02421
559.7047, 17.53347
560.1868, 17.89680
560.6689, 17.60442
561.1510, 17.02279
561.6331, 16.82199
562.1152, 17.32693
562.5974, 17.90594
563.0795, 17.90007
563.5616, 17.47116
564.0437, 17.23851
564.5258, 17.36085
565.0079, 17.52121
565.4901, 17.44505
565.9722, 17.12879
566.4543, 16.75220
566.9364, 15.92775
567.4185, 15.48313
567.9006, 16.12610
568.3828, 17.19102
568.8649, 17.69889
569.3470, 17.41568
569.8291, 16.84626
570.3112, 16.56066
570.7933, 16.57368
571.2755, 16.58315
571.7576, 16.48989
572.2397, 16.52571
572.7218, 17.00708
573.2039, 17.51253
573.6860, 17.45125
574.1682, 16.69493
574.6503, 15.93219
575.1324, 15.89327
575.6145, 16.41689
576.0966, 16.81751
576.5787, 17.07125
577.0609, 17.11274
577.5430, 16.68569
578.0251, 16.08651
578.5072, 16.06699
578.9893, 17.01593
579.4714, 17.70014
579.9536, 17.31525
580.4357, 16.58266
580.9178, 16.51604
581.3999, 17.14944
581.8820, 17.66034
582.3641, 17.38167
582.8463, 16.48240
583.3284, 15.94559
583.8105, 15.95564
584.2926, 16.08436
584.7747, 16.50617
585.2568, 16.87251
585.7390, 16.82165
586.2211, 16.41960
586.7032, 16.08214
587.1853, 16.10748
587.6674, 16.40753
