##NAMES=Chenevixite
##RRUFFID=R100177
##IDEAL CHEMISTRY=Cu^2+^Fe^3+^(As^5+^O_4_)(OH)_2_
##LOCALITY=Patagonia Mountains, Harshaw District, Santa Cruz County, Arizona
##OWNER=RRUFF
##SOURCE=Joe Ruiz
##DESCRIPTION=Transparent green thin tabular crystals
##STATUS=The identification of this mineral has been confirmed only by single crystal X-ray diffraction.
##URL=rruff.info/R100177
91.03516, 15.16786
91.51727, 15.00041
91.99939, 15.13248
92.48151, 15.47664
92.96362, 15.78539
93.44574, 15.98105
93.92786, 16.04867
94.40997, 15.96996
94.89210, 15.75471
95.37421, 15.35672
95.85633, 14.47374
96.33845, 13.13891
96.82056, 12.14548
97.30268, 12.31685
97.78480, 13.50475
98.26691, 14.17718
98.74903, 14.06202
99.23115, 13.37563
99.71326, 12.64591
100.1954, 11.84096
100.6775, 11.14147
101.1596, 10.68406
101.6417, 10.48083
102.1239, 10.50310
102.6060, 10.84996
103.0881, 11.48824
103.5702, 11.74972
104.0523, 11.42302
104.5344, 10.97999
105.0166, 10.96806
105.4987, 11.74987
105.9808, 12.31454
106.4629, 12.38537
106.9450, 11.83975
107.4271, 11.34142
107.9093, 10.67985
108.3914, 10.13691
108.8735, 10.14120
109.3556, 11.60022
109.8377, 12.76208
110.3198, 13.06205
110.8020, 11.77590
111.2841, 11.02297
111.7662, 11.35264
112.2483, 12.26832
112.7304, 12.67223
113.2125, 11.74786
113.6947, 10.76632
114.1768, 10.35934
114.6589, 11.23860
115.1410, 11.85723
115.6231, 11.62979
116.1052, 10.78045
116.5874, 10.15460
117.0695, 10.31032
117.5516, 10.67534
118.0337, 10.81042
118.5158, 10.25961
118.9980, 9.750998
119.4801, 9.708184
119.9622, 10.08820
120.4443, 10.38238
120.9264, 10.10995
121.4085, 9.639080
121.8907, 9.422593
122.3728, 10.05426
122.8549, 10.75579
123.3370, 10.73013
123.8191, 9.924109
124.3012, 9.195692
124.7834, 9.376894
125.2655, 10.15594
125.7476, 10.86750
126.2297, 11.18727
126.7118, 11.24751
127.1939, 11.20646
127.6761, 11.06157
128.1582, 10.87599
128.6403, 10.65538
129.1224, 10.42798
129.6045, 10.33004
130.0867, 10.44806
130.5688, 10.76084
131.0509, 11.21644
131.5330, 11.85243
132.0151, 12.54751
132.4972, 13.20830
132.9794, 13.83529
133.4615, 14.14113
133.9436, 13.53650
134.4257, 12.13816
134.9078, 11.71244
135.3899, 12.77545
135.8721, 14.73811
136.3542, 15.85207
136.8363, 15.94026
137.3184, 15.96805
137.8005, 16.86361
138.2826, 18.80922
138.7648, 20.27468
139.2469, 20.77478
139.7290, 20.51651
140.2111, 21.00081
140.6932, 22.33046
141.1753, 24.21846
141.6575, 26.51074
142.1396, 29.51665
142.6217, 32.10509
143.1038, 33.75952
143.5859, 34.39719
144.0681, 36.25726
144.5502, 40.10707
145.0323, 44.50967
145.5144, 47.83590
145.9965, 49.42779
146.4786, 50.91698
146.9608, 52.65016
147.4429, 54.71596
147.9250, 56.78775
148.4071, 59.29979
148.8892, 61.66261
149.3713, 62.94316
149.8535, 62.11002
150.3356, 61.22437
150.8177, 60.77180
151.2998, 60.68962
151.7819, 61.18677
152.2640, 62.52135
152.7462, 64.41270
153.2283, 66.33647
153.7104, 68.26062
154.1925, 70.21547
154.6746, 72.20824
155.1567, 74.23720
155.6389, 76.26099
156.1210, 78.35091
156.6031, 80.44527
157.0852, 82.41563
157.5673, 84.00378
158.0495, 85.61694
158.5316, 87.49454
159.0137, 89.92480
159.4958, 92.24871
159.9779, 94.20051
160.4600, 95.89857
160.9422, 97.72959
161.4243, 99.85225
161.9064, 102.1348
162.3885, 104.4503
162.8706, 106.3472
163.3527, 108.8049
163.8349, 112.5873
164.3170, 117.4431
164.7991, 122.1707
165.2812, 126.1254
165.7633, 129.7322
166.2454, 133.3642
166.7276, 136.8736
167.2097, 140.6774
167.6918, 145.0827
168.1739, 150.0303
168.6560, 155.3532
169.1381, 161.0983
169.6203, 167.0537
170.1024, 171.8779
170.5845, 175.9223
171.0666, 180.1126
171.5487, 184.6611
172.0309, 189.5411
172.5130, 194.7503
172.9951, 200.2206
173.4772, 206.0128
173.9593, 212.2521
174.4414, 218.8604
174.9236, 225.9580
175.4057, 233.5290
175.8878, 241.6295
176.3699, 250.2390
176.8520, 259.7622
177.3341, 269.8641
177.8163, 279.8579
178.2984, 289.3935
178.7805, 298.5874
179.2626, 307.7563
179.7447, 316.7955
180.2268, 325.3123
180.7090, 332.6446
181.1911, 338.9953
181.6732, 344.8817
182.1553, 350.2821
182.6374, 355.4073
183.1195, 360.6499
183.6017, 366.1551
184.0838, 371.3942
184.5659, 375.5450
185.0480, 378.8314
185.5301, 382.6151
186.0123, 387.7928
186.4944, 393.9868
186.9765, 399.9168
187.4586, 405.6190
187.9407, 410.9694
188.4228, 415.5855
188.9050, 419.5251
189.3871, 423.6808
189.8692, 428.3738
190.3513, 433.5742
190.8334, 439.2289
191.3155, 445.2027
191.7977, 451.8738
192.2798, 459.9983
192.7619, 469.5714
193.2440, 479.6828
193.7261, 490.0879
194.2082, 500.7387
194.6904, 511.4576
195.1725, 522.0991
195.6546, 533.0886
196.1367, 545.4150
196.6188, 559.3375
197.1009, 572.0914
197.5831, 582.5129
198.0652, 590.7037
198.5473, 596.1985
199.0294, 599.0245
199.5115, 599.1161
199.9937, 595.8796
200.4758, 589.0987
200.9579, 580.7713
201.4400, 571.7820
201.9221, 562.0891
202.4042, 552.1256
202.8864, 541.6287
203.3685, 531.1461
203.8506, 521.9609
204.3327, 514.2625
204.8148, 507.3993
205.2969, 501.1905
205.7791, 495.7200
206.2612, 490.3799
206.7433, 485.3946
207.2254, 480.3292
207.7075, 473.6907
208.1896, 464.7369
208.6718, 456.3211
209.1539, 450.2337
209.6360, 447.1383
210.1181, 443.1548
210.6002, 437.6023
211.0823, 431.3079
211.5645, 426.5804
212.0466, 423.5977
212.5287, 421.7411
213.0108, 420.8300
213.4929, 421.0826
213.9750, 421.3373
214.4572, 421.2420
214.9393, 421.2248
215.4214, 422.5382
215.9035, 425.2560
216.3856, 429.1738
216.8678, 434.1528
217.3499, 440.3469
217.8320, 447.3141
218.3141, 455.2591
218.7962, 463.8335
219.2783, 471.8027
219.7605, 478.6693
220.2426, 485.6814
220.7247, 493.6494
221.2068, 503.3047
221.6889, 511.8631
222.1710, 519.5759
222.6532, 526.0109
223.1353, 529.6666
223.6174, 530.7281
224.0995, 528.7943
224.5816, 523.3804
225.0637, 513.2097
225.5459, 502.7637
226.0280, 492.7357
226.5101, 482.3772
226.9922, 469.4894
227.4743, 452.4576
227.9564, 435.2728
228.4386, 419.7867
228.9207, 407.4751
229.4028, 393.7908
229.8849, 377.4762
230.3670, 359.9990
230.8492, 344.9963
231.3313, 333.1267
231.8134, 322.9398
232.2955, 313.6711
232.7776, 305.3772
233.2597, 298.2770
233.7419, 292.7090
234.2240, 288.2229
234.7061, 283.7315
235.1882, 278.8047
235.6703, 274.5445
236.1524, 271.4197
236.6346, 269.7713
237.1167, 268.5191
237.5988, 267.5810
238.0809, 267.0551
238.5630, 267.2379
239.0451, 268.5255
239.5273, 269.9165
240.0094, 270.8781
240.4915, 270.8222
240.9736, 271.8854
241.4557, 274.2982
241.9378, 277.7179
242.4200, 281.4132
242.9021, 285.2564
243.3842, 289.6337
243.8663, 294.7549
244.3484, 300.8424
244.8306, 307.0861
245.3127, 313.7482
245.7948, 320.3746
246.2769, 325.9938
246.7590, 329.9179
247.2411, 333.9137
247.7233, 338.7529
248.2054, 344.9479
248.6875, 350.0914
249.1696, 353.9355
249.6517, 356.8590
250.1338, 359.5410
250.6160, 362.5387
251.0981, 364.3105
251.5802, 364.3491
252.0623, 362.5523
252.5444, 359.5148
253.0265, 354.8550
253.5087, 349.2924
253.9908, 343.9090
254.4729, 338.7321
254.9550, 333.5969
255.4371, 328.3083
255.9192, 322.7963
256.4014, 318.0849
256.8835, 314.2821
257.3656, 311.1735
257.8477, 308.4322
258.3298, 306.1291
258.8120, 303.9921
259.2941, 301.7445
259.7762, 299.3015
260.2583, 298.2111
260.7404, 298.9808
261.2225, 300.4509
261.7047, 301.5263
262.1868, 302.3454
262.6689, 302.3923
263.1510, 301.5635
263.6331, 299.8685
264.1152, 297.3407
264.5974, 293.9982
265.0795, 289.8088
265.5616, 284.7650
266.0437, 278.6083
266.5258, 272.1848
267.0079, 265.5259
267.4901, 258.6539
267.9722, 252.3194
268.4543, 246.5672
268.9364, 241.1418
269.4185, 235.6386
269.9006, 229.7838
270.3828, 225.1568
270.8649, 222.3447
271.3470, 220.8859
271.8291, 218.3117
272.3112, 214.0432
272.7933, 210.0846
273.2755, 208.1762
273.7576, 208.6571
274.2397, 208.6467
274.7218, 207.4991
275.2039, 205.8219
275.6860, 205.6558
276.1682, 207.3335
276.6503, 209.2646
277.1324, 210.2171
277.6145, 210.0385
278.0966, 210.9324
278.5787, 213.3050
279.0609, 216.5587
279.5430, 219.5184
280.0251, 222.1684
280.5072, 224.5719
280.9893, 226.4328
281.4715, 227.7455
281.9536, 230.2621
282.4357, 234.2797
282.9178, 239.0876
283.3999, 243.5167
283.8820, 247.5441
284.3642, 251.5520
284.8463, 255.4438
285.3284, 259.3205
285.8105, 264.2010
286.2926, 270.1928
286.7747, 276.9058
287.2569, 284.0699
287.7390, 291.6546
288.2211, 298.9659
288.7032, 305.5185
289.1853, 311.5274
289.6674, 318.1484
290.1496, 325.4851
290.6317, 332.9645
291.1138, 340.2332
291.5959, 347.2422
292.0780, 353.4190
292.5602, 358.8400
293.0423, 363.2780
293.5244, 366.0213
294.0065, 367.0303
294.4886, 366.9481
294.9707, 366.3897
295.4529, 365.2335
295.9350, 362.9880
296.4171, 359.1380
296.8992, 354.4711
297.3813, 350.3186
297.8634, 346.6739
298.3456, 343.2589
298.8277, 339.7833
299.3098, 336.4176
299.7919, 333.5378
300.2740, 331.2018
300.7561, 329.4610
301.2383, 328.4381
301.7204, 328.1081
302.2025, 328.4427
302.6846, 329.4758
303.1667, 331.1405
303.6488, 333.3056
304.1310, 335.8527
304.6131, 339.1490
305.0952, 343.8675
305.5773, 349.6526
306.0594, 355.5193
306.5415, 361.0664
307.0237, 366.4066
307.5058, 372.0621
307.9879, 378.2288
308.4700, 383.3961
308.9521, 386.1881
309.4343, 387.2268
309.9164, 387.6995
310.3985, 388.7473
310.8806, 388.9942
311.3627, 387.4636
311.8448, 384.0966
312.3270, 379.2119
312.8091, 372.4921
313.2912, 364.5230
313.7733, 355.9962
314.2554, 346.3393
314.7375, 336.8941
315.2197, 328.4307
315.7018, 320.8160
316.1839, 313.5300
316.6660, 306.0417
317.1481, 298.8928
317.6302, 292.5860
318.1124, 286.9112
318.5945, 282.4301
319.0766, 279.6516
319.5587, 278.2817
320.0408, 277.2419
320.5229, 275.8854
321.0051, 274.9808
321.4872, 274.9998
321.9693, 276.3548
322.4514, 277.9937
322.9335, 279.6823
323.4156, 281.5151
323.8978, 283.6740
324.3799, 286.3303
324.8620, 289.1961
325.3441, 292.2324
325.8262, 295.5010
326.3083, 298.6417
326.7905, 301.8355
327.2726, 304.8314
327.7547, 307.2803
328.2368, 308.5310
328.7189, 309.9276
329.2010, 311.8798
329.6832, 314.4677
330.1653, 316.5688
330.6474, 318.6167
331.1295, 319.8639
331.6116, 319.6436
332.0938, 316.9750
332.5759, 314.3721
333.0580, 312.0797
333.5401, 310.0797
334.0222, 308.5282
334.5043, 308.0988
334.9865, 307.1719
335.4686, 304.5689
335.9507, 299.3969
336.4328, 294.9398
336.9149, 291.4044
337.3970, 288.6186
337.8792, 286.2135
338.3613, 284.0888
338.8434, 282.5230
339.3255, 281.6315
339.8076, 281.4328
340.2898, 281.8393
340.7719, 282.9652
341.2540, 284.5110
341.7361, 285.7542
342.2182, 286.5034
342.7003, 288.5901
343.1825, 292.9738
343.6646, 299.3497
344.1467, 305.1382
344.6288, 310.1481
345.1109, 315.7793
345.5930, 324.1567
346.0752, 334.8859
346.5573, 344.9719
347.0394, 353.5190
347.5215, 361.1997
348.0036, 370.0752
348.4857, 380.0627
348.9679, 389.4417
349.4500, 397.9087
349.9321, 404.8944
350.4142, 408.6024
350.8963, 408.4723
351.3784, 405.8649
351.8606, 401.5638
352.3427, 396.0191
352.8248, 390.7878
353.3069, 386.4743
353.7890, 383.1688
354.2711, 380.7920
354.7533, 379.2895
355.2354, 379.1930
355.7175, 381.5587
356.1996, 385.5956
356.6817, 389.9242
357.1638, 393.6454
357.6460, 397.6658
358.1281, 402.8690
358.6102, 409.1669
359.0923, 415.7207
359.5744, 422.5466
360.0565, 429.1163
360.5387, 434.9308
361.0208, 439.9476
361.5029, 444.0843
361.9850, 447.4812
362.4671, 449.9933
362.9492, 451.0987
363.4314, 450.4808
363.9135, 448.5112
364.3956, 445.3344
364.8777, 440.7935
365.3598, 435.4335
365.8419, 429.5858
366.3241, 422.9561
366.8062, 415.1275
367.2883, 405.0638
367.7704, 394.7378
368.2526, 384.7275
368.7347, 375.1368
369.2168, 365.1352
369.6989, 353.9575
370.1810, 342.7835
370.6631, 332.4604
371.1453, 323.2601
371.6274, 314.4779
372.1095, 305.8536
372.5916, 297.4544
373.0737, 290.0450
373.5558, 283.8460
374.0380, 278.2118
374.5201, 272.7254
375.0022, 267.3957
375.4843, 262.3219
375.9664, 257.3853
376.4485, 252.8172
376.9307, 249.0465
377.4128, 246.2341
377.8949, 243.6643
378.3770, 241.0274
378.8591, 238.3561
379.3412, 236.1877
379.8234, 234.6194
380.3055, 233.2744
380.7876, 231.6747
381.2697, 229.8398
381.7518, 228.3700
382.2339, 227.5066
382.7161, 227.0460
383.1982, 226.4527
383.6803, 225.7431
384.1624, 225.2430
384.6445, 225.2848
385.1266, 225.7242
385.6088, 226.2298
386.0909, 226.7736
386.5730, 227.3032
387.0551, 227.7012
387.5372, 228.0189
388.0193, 228.4115
388.5015, 229.1540
388.9836, 229.9035
389.4657, 230.3511
389.9478, 230.4823
390.4299, 230.2193
390.9120, 229.2415
391.3942, 227.9196
391.8763, 226.7247
392.3584, 225.8793
392.8405, 225.1407
393.3226, 224.4461
393.8047, 223.7751
394.2869, 223.0315
394.7690, 221.7600
395.2511, 220.6902
395.7332, 220.3096
396.2154, 220.9493
396.6975, 221.7442
397.1796, 222.3683
397.6617, 223.0663
398.1438, 224.2452
398.6259, 226.3042
399.1081, 228.5180
399.5902, 230.6945
400.0723, 232.8122
400.5544, 235.0064
401.0365, 236.9465
401.5186, 239.2154
402.0008, 242.2614
402.4829, 246.2548
402.9650, 250.7505
403.4471, 255.8720
403.9292, 261.4766
404.4113, 266.8136
404.8935, 271.7948
405.3756, 276.7813
405.8577, 282.1597
406.3398, 288.0531
406.8219, 293.0216
407.3040, 296.9284
407.7862, 300.1677
408.2683, 303.4637
408.7504, 306.8420
409.2325, 309.5594
409.7146, 311.1147
410.1967, 311.8701
410.6789, 313.2603
411.1610, 315.3197
411.6431, 317.2303
412.1252, 318.0161
412.6073, 318.0643
413.0894, 318.3343
413.5716, 318.7770
414.0537, 320.0033
414.5358, 322.9014
415.0179, 327.2342
415.5000, 332.3406
415.9821, 337.3313
416.4643, 343.1278
416.9464, 350.9321
417.4285, 360.8764
417.9106, 371.5448
418.3927, 381.6470
418.8748, 392.0956
419.3570, 403.7868
419.8391, 417.9343
420.3212, 432.6154
420.8033, 446.8708
421.2854, 460.9512
421.7675, 476.2964
422.2497, 494.0558
422.7318, 512.6877
423.2139, 531.1697
423.6960, 548.8364
424.1781, 567.5074
424.6602, 587.0728
425.1424, 607.7980
425.6245, 629.8766
426.1066, 653.3141
426.5887, 677.7209
427.0709, 703.1176
427.5530, 729.5019
428.0351, 755.4749
428.5172, 781.2049
428.9993, 806.6848
429.4814, 832.2610
429.9636, 858.4547
430.4457, 882.7958
430.9278, 905.2830
431.4099, 925.6034
431.8920, 943.0680
432.3741, 957.8180
432.8563, 969.7747
433.3384, 979.2558
433.8205, 986.0789
434.3026, 988.9067
434.7847, 987.7766
435.2668, 982.6797
435.7490, 973.6788
436.2311, 960.6827
436.7132, 943.4219
437.1953, 920.8798
437.6774, 895.3254
438.1595, 868.8616
438.6417, 841.5762
439.1238, 813.8226
439.6059, 785.2288
440.0880, 756.5818
440.5701, 728.5521
441.0522, 701.0365
441.5344, 674.6364
442.0165, 649.7372
442.4986, 626.1237
442.9807, 603.6691
443.4628, 581.5746
443.9449, 561.3659
444.4271, 543.9598
444.9092, 529.0994
445.3913, 515.1934
445.8734, 502.2064
446.3555, 490.1256
446.8376, 479.0340
447.3198, 469.1450
447.8019, 459.8134
448.2840, 451.1353
448.7661, 443.0196
449.2482, 435.4167
449.7303, 428.7265
450.2125, 421.9854
450.6946, 414.8977
451.1767, 407.4731
451.6588, 400.3925
452.1409, 393.7986
452.6230, 387.0963
453.1052, 379.7545
453.5873, 371.6146
454.0694, 364.2336
454.5515, 357.9715
455.0337, 352.0379
455.5158, 345.0150
455.9979, 336.9452
456.4800, 329.4058
456.9621, 323.2804
457.4442, 318.0166
457.9264, 312.2535
458.4085, 306.0329
458.8906, 299.7225
459.3727, 293.3955
459.8548, 287.2829
460.3369, 282.0126
460.8191, 277.9853
461.3012, 274.0414
461.7833, 268.8632
462.2654, 263.0783
462.7475, 258.0101
463.2296, 254.4866
463.7118, 251.5637
464.1939, 248.7072
464.6760, 245.8524
465.1581, 243.4036
465.6402, 241.8142
466.1223, 240.4897
466.6045, 239.0338
467.0866, 236.8737
467.5687, 235.2224
468.0508, 234.3845
468.5329, 234.0610
469.0150, 233.5697
469.4972, 232.6898
469.9793, 231.9844
470.4614, 231.6441
470.9435, 231.6824
471.4256, 231.8406
471.9077, 232.1063
472.3899, 232.5242
472.8720, 233.1519
473.3541, 234.0115
473.8362, 234.9176
474.3183, 235.7867
474.8004, 236.7928
475.2826, 238.4246
475.7647, 240.6341
476.2468, 242.7480
476.7289, 244.1350
477.2110, 245.2443
477.6931, 247.1378
478.1753, 249.8261
478.6574, 252.6843
479.1395, 255.0344
479.6216, 257.2694
480.1037, 260.0602
480.5858, 263.9784
481.0680, 267.7611
481.5501, 270.3040
482.0322, 272.0951
482.5143, 274.1263
482.9964, 277.0347
483.4786, 280.0627
483.9607, 282.7855
484.4428, 285.1163
484.9249, 287.7588
485.4070, 291.1058
485.8892, 294.6246
486.3713, 297.9576
486.8534, 301.4308
487.3355, 304.1768
487.8176, 305.9778
488.2997, 307.0980
488.7819, 308.1534
489.2640, 309.2742
489.7461, 310.0180
490.2282, 310.1424
490.7103, 309.6880
491.1924, 309.4648
491.6746, 309.5664
492.1567, 309.4956
492.6388, 308.7634
493.1209, 307.4160
493.6030, 305.9552
494.0851, 304.3943
494.5673, 302.8302
495.0494, 301.2820
495.5315, 299.8216
496.0136, 298.7665
496.4957, 298.8988
496.9778, 299.1285
497.4600, 298.1096
497.9421, 295.9333
498.4242, 293.5453
498.9063, 291.4302
499.3884, 289.3878
499.8705, 287.2193
500.3527, 284.9107
500.8348, 282.4582
501.3169, 279.8788
501.7990, 277.1987
502.2811, 274.4312
502.7632, 271.8808
503.2454, 268.9607
503.7275, 265.2436
504.2096, 260.8597
504.6917, 257.0418
505.1738, 254.1161
505.6559, 251.3780
506.1381, 248.5391
506.6202, 245.6293
507.1023, 242.4611
507.5844, 238.9408
508.0665, 235.3452
508.5486, 232.0109
509.0308, 228.9215
509.5129, 226.3606
509.9950, 224.6382
510.4771, 223.2207
510.9592, 220.7155
511.4413, 217.2458
511.9235, 213.9326
512.4056, 211.5831
512.8877, 209.8022
513.3698, 208.0020
513.8519, 206.1385
514.3340, 204.2484
514.8162, 202.3652
515.2983, 200.4699
515.7804, 198.5224
516.2625, 196.2232
516.7446, 194.2369
517.2267, 193.1363
517.7089, 192.5705
518.1910, 191.6854
518.6731, 189.9188
519.1552, 188.1614
519.6373, 186.7687
520.1194, 185.7727
520.6016, 184.7093
521.0837, 183.5109
521.5658, 182.3313
522.0479, 181.4114
522.5300, 181.0627
523.0121, 179.7498
523.4943, 177.0417
523.9764, 173.7658
524.4585, 171.5105
524.9406, 170.3395
525.4227, 168.9652
525.9048, 166.8789
526.3870, 164.3070
526.8691, 161.6259
527.3513, 158.8452
527.8334, 156.2749
528.3155, 154.3744
528.7976, 152.7052
529.2797, 150.4803
529.7618, 147.4668
530.2440, 144.6765
530.7261, 143.1973
531.2082, 142.2623
531.6903, 140.9185
532.1724, 138.1456
532.6545, 135.6507
533.1367, 134.0909
533.6188, 133.2585
534.1009, 132.3417
534.5830, 131.1169
535.0651, 129.9021
535.5472, 128.7586
536.0294, 127.6393
536.5115, 126.9300
536.9936, 126.9467
537.4757, 126.9335
537.9578, 126.1637
538.4399, 124.4704
538.9221, 123.0439
539.4042, 122.0188
539.8863, 121.2579
540.3684, 120.5443
540.8505, 119.8771
541.3326, 119.2433
541.8148, 118.5987
542.2969, 118.0095
542.7790, 117.5718
543.2611, 117.2884
543.7432, 117.1594
544.2253, 117.3658
544.7075, 117.6308
545.1896, 117.5917
545.6717, 117.1175
546.1538, 116.8107
546.6359, 117.1589
547.1180, 117.7479
547.6002, 118.1336
548.0823, 118.0796
548.5644, 117.9683
549.0465, 117.8967
549.5286, 117.8170
550.0107, 117.5745
550.4929, 116.9803
550.9750, 116.4994
551.4571, 116.2403
551.9392, 116.2030
552.4213, 116.5799
552.9034, 117.5081
553.3856, 118.4255
553.8677, 118.7677
554.3498, 118.5990
554.8319, 118.7667
555.3140, 119.4313
555.7961, 120.1619
556.2783, 120.1807
556.7604, 119.7847
557.2425, 119.8428
557.7246, 121.0566
558.2067, 122.4684
558.6888, 123.1915
559.1710, 123.3339
559.6531, 123.2404
560.1352, 122.4724
560.6173, 121.9998
561.0994, 122.6599
561.5815, 124.7071
562.0637, 126.1861
562.5458, 126.3197
563.0279, 125.9995
563.5100, 125.8894
563.9921, 126.1971
564.4742, 126.3470
564.9564, 126.2766
565.4385, 126.0794
565.9206, 125.9269
566.4027, 125.8476
566.8848, 125.6679
567.3669, 125.3356
567.8491, 124.8688
568.3312, 124.2228
568.8133, 123.4141
569.2954, 122.8339
569.7775, 123.0971
570.2596, 123.6636
570.7418, 123.4033
571.2239, 122.2240
571.7060, 121.0484
572.1881, 120.6359
572.6702, 120.5836
573.1523, 120.4380
573.6345, 120.0201
574.1166, 119.6221
574.5987, 119.4217
575.0808, 119.3011
575.5629, 119.0595
576.0450, 118.4901
576.5272, 117.9979
577.0093, 117.6546
577.4914, 117.4530
577.9735, 117.3936
578.4556, 117.6485
578.9377, 117.6891
579.4199, 117.0681
579.9020, 115.7714
580.3841, 115.2070
580.8662, 115.4521
581.3483, 116.0196
581.8304, 116.5325
582.3126, 116.9780
582.7947, 117.3188
583.2768, 117.5589
583.7589, 117.6582
584.2410, 117.4331
584.7231, 117.0460
585.2053, 116.8189
585.6874, 117.0475
586.1696, 117.3203
586.6517, 117.4542
587.1338, 117.4515
587.6159, 117.3411
588.0980, 116.9686
