##NAMES=Chenevixite
##RRUFFID=R040166
##IDEAL CHEMISTRY=Cu^2+^Fe^3+^(As^5+^O_4_)(OH)_2_
##LOCALITY=Volcanic Sunnyside mine, Santa Cruz County, Arizona, USA
##OWNER=RRUFF
##SOURCE=Andy Anderson
##DESCRIPTION=Green earthy massive
##STATUS=The identification of this mineral has been confirmed by X-ray diffraction and chemical analysis
##URL=rruff.info/R040166
##MEASURED CHEMISTRY=Cu_2.00_(Fe^3+^_1.98_[box]_0.02_)_Σ=2_((As_0.94_S_0.06_)O_4_)_2_(OH)_4_·1.49H_2_O
178.8734, 2295.990
179.3555, 2323.206
179.8376, 2360.242
180.3197, 2379.953
180.8019, 2368.775
181.2840, 2364.193
181.7661, 2385.059
182.2482, 2416.236
182.7303, 2438.131
183.2124, 2439.727
183.6946, 2428.540
184.1767, 2426.861
184.6588, 2442.538
185.1409, 2454.071
185.6230, 2453.531
186.1051, 2447.190
186.5873, 2441.221
187.0694, 2437.851
187.5515, 2438.295
188.0336, 2446.706
188.5157, 2468.687
188.9978, 2489.164
189.4800, 2507.553
189.9621, 2521.893
190.4442, 2528.996
190.9263, 2526.839
191.4084, 2519.832
191.8905, 2518.925
192.3727, 2528.053
192.8548, 2536.585
193.3369, 2540.899
193.8190, 2544.671
194.3011, 2552.375
194.7832, 2565.865
195.2654, 2581.494
195.7475, 2590.560
196.2296, 2587.163
196.7117, 2588.459
197.1938, 2599.357
197.6759, 2613.589
198.1581, 2626.979
198.6402, 2637.981
199.1223, 2645.352
199.6044, 2645.941
200.0865, 2634.914
200.5686, 2626.604
201.0508, 2621.839
201.5329, 2619.928
202.0150, 2622.100
202.4971, 2628.179
202.9792, 2634.222
203.4613, 2633.200
203.9435, 2620.630
204.4256, 2611.002
204.9077, 2606.452
205.3898, 2603.537
205.8719, 2600.121
206.3540, 2595.708
206.8362, 2590.972
207.3183, 2585.989
207.8004, 2578.215
208.2825, 2577.265
208.7646, 2589.350
209.2467, 2602.624
209.7289, 2610.885
210.2110, 2613.096
210.6931, 2611.437
211.1752, 2607.610
211.6573, 2600.190
212.1395, 2596.035
212.6216, 2593.736
213.1037, 2595.559
213.5858, 2606.152
214.0679, 2623.279
214.5500, 2638.770
215.0322, 2643.370
215.5143, 2634.520
215.9964, 2631.781
216.4785, 2644.840
216.9606, 2654.951
217.4427, 2651.859
217.9249, 2638.928
218.4070, 2627.017
218.8891, 2625.510
219.3712, 2634.724
219.8533, 2642.865
220.3354, 2650.083
220.8176, 2655.980
221.2997, 2661.971
221.7818, 2666.501
222.2639, 2666.378
222.7460, 2658.862
223.2281, 2644.648
223.7103, 2631.794
224.1924, 2615.700
224.6745, 2606.623
225.1566, 2616.490
225.6387, 2632.783
226.1208, 2636.072
226.6030, 2614.025
227.0851, 2573.216
227.5672, 2541.512
228.0493, 2527.644
228.5314, 2511.399
229.0135, 2484.999
229.4957, 2456.162
229.9778, 2433.527
230.4599, 2420.984
230.9420, 2416.539
231.4241, 2415.978
231.9062, 2423.373
232.3884, 2427.589
232.8705, 2425.395
233.3526, 2420.907
233.8347, 2418.493
234.3168, 2419.449
234.7989, 2420.300
235.2811, 2413.435
235.7632, 2391.459
236.2453, 2379.695
236.7274, 2388.518
237.2095, 2401.090
237.6916, 2404.137
238.1738, 2396.104
238.6559, 2387.749
239.1380, 2393.093
239.6201, 2415.653
240.1022, 2439.214
240.5843, 2473.110
241.0665, 2499.801
241.5486, 2507.929
242.0307, 2498.893
242.5128, 2483.699
242.9949, 2470.112
243.4770, 2457.402
243.9592, 2455.385
244.4413, 2477.479
244.9234, 2498.080
245.4055, 2507.664
245.8876, 2507.853
246.3697, 2504.456
246.8519, 2500.892
247.3340, 2497.226
247.8161, 2493.857
248.2982, 2487.492
248.7803, 2486.352
249.2624, 2497.189
249.7446, 2513.938
250.2267, 2526.562
250.7088, 2528.946
251.1909, 2524.643
251.6730, 2524.396
252.1551, 2531.314
252.6373, 2535.904
253.1194, 2530.974
253.6015, 2524.056
254.0836, 2524.941
254.5657, 2538.703
255.0478, 2555.530
255.5300, 2558.201
256.0121, 2542.440
256.4942, 2528.708
256.9763, 2524.236
257.4584, 2523.259
257.9406, 2523.619
258.4227, 2525.075
258.9048, 2522.716
259.3869, 2506.582
259.8690, 2475.542
260.3511, 2457.378
260.8333, 2467.186
261.3154, 2483.213
261.7975, 2491.269
262.2796, 2490.671
262.7617, 2484.988
263.2438, 2474.412
263.7260, 2459.997
264.2081, 2448.033
264.6902, 2439.482
265.1723, 2433.143
265.6544, 2426.646
266.1365, 2420.949
266.6187, 2419.790
267.1008, 2431.459
267.5829, 2447.684
268.0650, 2447.529
268.5471, 2424.719
269.0292, 2404.493
269.5114, 2412.891
269.9935, 2435.192
270.4756, 2445.873
270.9577, 2431.283
271.4398, 2408.207
271.9219, 2394.849
272.4041, 2391.402
272.8862, 2391.134
273.3683, 2392.912
273.8504, 2394.788
274.3325, 2393.042
274.8146, 2385.711
275.2968, 2377.991
275.7789, 2371.942
276.2610, 2368.011
276.7431, 2368.790
277.2252, 2377.018
277.7073, 2387.953
278.1895, 2392.607
278.6716, 2389.090
279.1537, 2389.110
279.6358, 2398.490
280.1179, 2413.798
280.6000, 2431.781
281.0822, 2453.075
281.5643, 2468.743
282.0464, 2463.350
282.5285, 2434.284
283.0106, 2418.107
283.4927, 2427.170
283.9749, 2445.631
284.4570, 2460.134
284.9391, 2469.458
285.4212, 2478.173
285.9033, 2490.632
286.3854, 2506.507
286.8676, 2516.433
287.3497, 2514.799
287.8318, 2513.245
288.3139, 2517.163
288.7960, 2525.737
289.2781, 2536.488
289.7603, 2548.383
290.2424, 2560.860
290.7245, 2571.259
291.2066, 2582.477
291.6887, 2588.311
292.1708, 2583.297
292.6530, 2573.972
293.1351, 2568.434
293.6172, 2569.517
294.0993, 2574.555
294.5814, 2579.055
295.0635, 2584.095
295.5457, 2586.229
296.0278, 2581.895
296.5099, 2577.423
296.9920, 2578.902
297.4741, 2585.963
297.9562, 2592.187
298.4384, 2590.147
298.9205, 2577.846
299.4026, 2571.250
299.8847, 2576.935
300.3668, 2581.585
300.8489, 2578.330
301.3311, 2570.457
301.8131, 2565.605
302.2953, 2569.126
302.7774, 2579.359
303.2595, 2588.160
303.7416, 2597.626
304.2237, 2602.017
304.7058, 2596.414
305.1880, 2587.371
305.6701, 2581.803
306.1522, 2582.293
306.6343, 2586.483
307.1164, 2591.261
307.5985, 2597.344
308.0807, 2601.252
308.5628, 2605.247
309.0449, 2604.641
309.5270, 2591.933
310.0091, 2568.117
310.4912, 2547.801
310.9734, 2546.289
311.4555, 2561.691
311.9376, 2573.995
312.4197, 2584.217
312.9018, 2587.126
313.3839, 2576.882
313.8661, 2557.482
314.3482, 2539.303
314.8303, 2526.300
315.3124, 2517.667
315.7945, 2512.095
316.2766, 2509.583
316.7588, 2510.217
317.2409, 2515.653
317.7230, 2523.897
318.2051, 2531.951
318.6872, 2540.471
319.1693, 2546.913
319.6515, 2550.677
320.1336, 2551.122
320.6157, 2543.221
321.0978, 2520.667
321.5799, 2496.381
322.0620, 2493.371
322.5442, 2514.110
323.0263, 2533.642
323.5084, 2546.182
323.9905, 2553.143
324.4726, 2555.424
324.9547, 2553.211
325.4369, 2549.058
325.9190, 2545.344
326.4011, 2542.147
326.8832, 2537.660
327.3653, 2528.574
327.8474, 2521.232
328.3296, 2519.729
328.8117, 2523.064
329.2938, 2527.855
329.7759, 2532.168
330.2580, 2536.347
330.7401, 2541.830
331.2223, 2548.911
331.7044, 2556.993
332.1865, 2568.245
332.6686, 2579.481
333.1507, 2587.583
333.6328, 2591.512
334.1150, 2591.861
334.5971, 2589.138
335.0792, 2581.968
335.5613, 2575.407
336.0434, 2566.872
336.5255, 2561.098
337.0077, 2560.960
337.4898, 2565.949
337.9719, 2574.177
338.4540, 2585.398
338.9361, 2598.696
339.4182, 2604.631
339.9004, 2592.305
340.3825, 2589.146
340.8646, 2609.206
341.3467, 2639.708
341.8288, 2664.594
342.3109, 2677.674
342.7931, 2684.419
343.2752, 2692.578
343.7573, 2702.475
344.2394, 2711.066
344.7215, 2709.567
345.2036, 2713.591
345.6858, 2742.398
346.1679, 2795.751
346.6500, 2839.912
347.1321, 2844.973
347.6142, 2824.740
348.0963, 2819.807
348.5785, 2838.970
349.0606, 2858.228
349.5427, 2854.413
350.0248, 2834.978
350.5069, 2821.770
350.9890, 2823.383
351.4712, 2828.753
351.9533, 2829.285
352.4354, 2825.615
352.9175, 2821.640
353.3996, 2819.747
353.8817, 2818.042
354.3639, 2810.446
354.8460, 2792.428
355.3281, 2779.246
355.8102, 2778.175
356.2923, 2781.978
356.7744, 2784.376
357.2566, 2783.478
357.7387, 2775.491
358.2208, 2754.239
358.7029, 2714.830
359.1850, 2690.007
359.6671, 2693.392
360.1493, 2695.657
360.6314, 2679.407
361.1135, 2651.871
361.5956, 2631.351
362.0777, 2629.336
362.5598, 2639.520
363.0420, 2638.486
363.5241, 2618.401
364.0062, 2599.136
364.4883, 2584.017
364.9704, 2570.039
365.4525, 2551.451
365.9347, 2528.397
366.4168, 2511.160
366.8989, 2517.490
367.3810, 2549.906
367.8631, 2563.462
368.3452, 2543.134
368.8274, 2518.986
369.3095, 2502.356
369.7916, 2493.867
370.2737, 2495.387
370.7558, 2515.864
371.2379, 2540.215
371.7201, 2540.087
372.2022, 2513.125
372.6843, 2483.737
373.1664, 2455.264
373.6485, 2435.108
374.1306, 2435.967
374.6128, 2465.163
375.0949, 2490.379
375.5770, 2491.208
376.0591, 2476.745
376.5412, 2464.243
377.0233, 2457.096
377.5055, 2452.722
377.9876, 2448.389
378.4697, 2444.062
378.9518, 2442.742
379.4339, 2446.599
379.9160, 2451.565
380.3982, 2458.171
380.8803, 2464.126
381.3624, 2462.203
381.8445, 2447.445
382.3266, 2425.876
382.8087, 2415.777
383.2909, 2434.455
383.7730, 2442.105
384.2551, 2425.956
384.7372, 2406.356
385.2193, 2402.245
385.7014, 2415.077
386.1836, 2430.479
386.6657, 2432.665
387.1478, 2420.726
387.6299, 2413.115
388.1120, 2415.268
388.5941, 2415.457
389.0763, 2407.658
389.5584, 2395.990
390.0405, 2386.200
390.5226, 2379.770
391.0047, 2378.886
391.4868, 2389.549
391.9690, 2413.273
392.4511, 2434.135
392.9332, 2451.085
393.4153, 2460.063
393.8974, 2453.487
394.3795, 2431.693
394.8617, 2416.239
395.3438, 2424.464
395.8259, 2443.425
396.3080, 2450.193
396.7901, 2442.193
397.2722, 2433.273
397.7544, 2433.643
398.2365, 2441.239
398.7186, 2444.214
399.2007, 2431.892
399.6828, 2426.873
400.1649, 2448.088
400.6471, 2480.004
401.1292, 2495.087
401.6113, 2484.246
402.0934, 2461.328
402.5755, 2445.174
403.0576, 2433.206
403.5398, 2438.150
404.0219, 2475.856
404.5040, 2513.380
404.9861, 2536.023
405.4682, 2544.273
405.9503, 2541.612
406.4325, 2528.424
406.9146, 2510.163
407.3967, 2508.104
407.8788, 2533.477
408.3609, 2551.973
408.8430, 2551.095
409.3252, 2545.287
409.8073, 2546.190
410.2894, 2555.405
410.7715, 2565.675
411.2536, 2569.225
411.7357, 2567.981
412.2179, 2571.113
412.7000, 2578.202
413.1821, 2592.112
413.6642, 2625.822
414.1463, 2667.128
414.6284, 2688.461
415.1106, 2666.892
415.5927, 2646.003
416.0748, 2663.044
416.5569, 2707.443
417.0390, 2745.899
417.5211, 2766.254
418.0033, 2779.433
418.4854, 2801.615
418.9675, 2835.716
419.4496, 2869.434
419.9317, 2904.432
420.4138, 2937.014
420.8960, 2964.487
421.3781, 2987.374
421.8602, 3007.297
422.3423, 3024.961
422.8244, 3041.552
423.3065, 3062.059
423.7887, 3087.638
424.2708, 3115.809
424.7529, 3148.119
425.2350, 3181.459
425.7171, 3214.943
426.1992, 3247.671
426.6814, 3275.872
427.1635, 3294.427
427.6456, 3304.276
428.1277, 3315.390
428.6098, 3329.654
429.0919, 3341.469
429.5741, 3345.852
430.0562, 3346.641
430.5383, 3349.366
431.0204, 3355.535
431.5025, 3363.431
431.9846, 3377.562
432.4668, 3393.260
432.9489, 3390.574
433.4310, 3360.653
433.9131, 3324.149
434.3952, 3308.695
434.8773, 3317.864
435.3595, 3308.273
435.8416, 3259.326
436.3237, 3207.515
436.8058, 3178.803
437.2879, 3165.741
437.7701, 3144.376
438.2522, 3101.701
438.7343, 3048.445
439.2164, 3012.793
439.6985, 3008.842
440.1806, 2997.855
440.6628, 2970.656
441.1449, 2943.751
441.6270, 2932.125
442.1091, 2932.117
442.5912, 2925.558
443.0733, 2894.680
443.5555, 2848.265
444.0376, 2822.841
444.5197, 2826.864
445.0018, 2828.152
445.4839, 2810.574
445.9660, 2786.053
446.4482, 2764.815
446.9303, 2747.998
447.4124, 2735.957
447.8945, 2732.802
448.3766, 2733.835
448.8587, 2729.268
449.3409, 2717.645
449.8230, 2702.325
450.3051, 2684.982
450.7872, 2665.874
451.2693, 2648.016
451.7514, 2630.470
452.2336, 2615.146
452.7157, 2602.487
453.1978, 2592.542
453.6799, 2587.452
454.1620, 2587.215
454.6441, 2585.632
455.1263, 2573.594
455.6084, 2548.214
456.0905, 2528.856
456.5726, 2524.903
457.0547, 2517.630
457.5368, 2495.558
458.0190, 2467.804
458.5011, 2449.269
458.9832, 2446.647
459.4653, 2453.317
459.9474, 2461.977
460.4295, 2472.672
460.9117, 2480.408
461.3938, 2485.296
461.8759, 2485.285
462.3580, 2477.553
462.8401, 2463.215
463.3222, 2447.367
463.8044, 2425.925
464.2865, 2407.751
464.7686, 2402.289
465.2507, 2407.463
465.7328, 2416.134
466.2149, 2426.344
466.6971, 2434.307
467.1792, 2431.833
467.6613, 2409.723
468.1434, 2396.601
468.6255, 2399.931
469.1076, 2405.570
469.5898, 2405.598
470.0719, 2400.186
470.5540, 2391.441
471.0361, 2379.521
471.5182, 2368.258
472.0003, 2370.880
472.4825, 2394.740
472.9646, 2412.362
473.4467, 2414.753
473.9288, 2411.034
474.4109, 2402.629
474.8930, 2391.398
475.3752, 2387.405
475.8573, 2403.701
476.3394, 2428.006
476.8215, 2439.161
477.3036, 2436.573
477.7857, 2428.507
478.2679, 2416.309
478.7500, 2403.499
479.2321, 2399.477
479.7142, 2407.795
480.1963, 2414.476
480.6784, 2415.777
481.1606, 2415.048
481.6427, 2415.063
482.1248, 2416.115
482.6069, 2417.314
483.0890, 2417.941
483.5711, 2418.224
484.0533, 2419.695
484.5354, 2425.006
485.0175, 2407.769
485.4996, 2432.170
485.9817, 2446.583
486.4638, 2451.528
486.9460, 2419.617
487.4281, 2434.553
487.9102, 2430.259
488.3923, 2424.866
488.8744, 2445.466
489.3565, 2417.244
489.8387, 2436.777
490.3208, 2436.792
490.8029, 2445.267
491.2850, 2434.395
491.7671, 2429.074
492.2492, 2442.455
492.7314, 2444.975
493.2135, 2430.614
493.6956, 2437.698
494.1777, 2405.562
494.6598, 2407.231
495.1419, 2423.302
495.6241, 2408.272
496.1062, 2414.079
496.5883, 2411.501
497.0704, 2378.255
497.5525, 2377.937
498.0346, 2383.127
498.5168, 2388.543
498.9989, 2392.246
499.4810, 2391.393
499.9631, 2379.599
500.4452, 2361.506
500.9273, 2357.086
501.4095, 2370.150
501.8916, 2381.006
502.3737, 2382.835
502.8558, 2376.097
503.3379, 2360.448
503.8200, 2332.615
504.3022, 2310.005
504.7843, 2298.879
505.2664, 2296.605
505.7485, 2305.593
506.2306, 2323.099
506.7127, 2333.309
507.1949, 2324.240
507.6770, 2301.521
508.1591, 2290.182
508.6412, 2305.307
509.1233, 2309.615
509.6054, 2289.249
510.0876, 2267.030
510.5697, 2260.414
511.0518, 2269.028
511.5339, 2281.578
512.0161, 2292.553
512.4982, 2299.989
512.9803, 2295.973
513.4624, 2278.003
513.9445, 2264.260
514.4266, 2264.396
514.9088, 2268.965
515.3909, 2263.299
515.8730, 2245.977
516.3551, 2236.606
516.8372, 2250.384
517.3193, 2267.833
517.8015, 2269.959
518.2836, 2258.642
518.7657, 2246.916
519.2478, 2242.128
519.7299, 2239.159
520.2120, 2224.361
520.6942, 2181.267
521.1763, 2158.234
521.6584, 2169.514
522.1405, 2185.021
522.6226, 2189.623
523.1047, 2184.993
523.5869, 2178.833
524.0690, 2174.761
524.5511, 2172.118
525.0332, 2169.770
525.5153, 2167.722
525.9974, 2166.459
526.4796, 2164.996
526.9617, 2166.189
527.4438, 2177.737
527.9259, 2197.712
528.4080, 2205.588
528.8901, 2188.376
529.3723, 2168.291
529.8544, 2158.279
530.3365, 2154.905
530.8186, 2150.643
531.3007, 2142.934
531.7828, 2135.233
532.2650, 2132.888
532.7471, 2137.339
533.2292, 2137.976
533.7113, 2127.753
534.1934, 2121.910
534.6755, 2132.263
535.1577, 2146.896
535.6398, 2146.411
536.1219, 2123.485
536.6040, 2102.146
537.0861, 2110.944
537.5682, 2139.538
538.0504, 2154.086
538.5325, 2149.833
539.0146, 2136.837
539.4967, 2117.613
539.9788, 2095.766
540.4609, 2089.180
540.9431, 2112.771
541.4252, 2129.338
541.9073, 2127.971
542.3894, 2118.476
542.8715, 2106.981
543.3536, 2096.200
543.8358, 2090.682
544.3179, 2095.132
544.8000, 2106.678
545.2821, 2112.696
545.7642, 2112.001
546.2463, 2108.956
546.7285, 2100.791
547.2106, 2093.582
547.6927, 2093.526
548.1748, 2100.045
548.6569, 2104.681
549.1390, 2099.556
549.6211, 2093.664
550.1032, 2100.938
550.5853, 2117.435
551.0674, 2124.428
551.5496, 2113.608
552.0317, 2094.393
552.5138, 2081.812
552.9959, 2077.698
553.4780, 2074.110
553.9601, 2070.519
554.4423, 2067.915
554.9244, 2067.040
555.4065, 2067.303
555.8886, 2067.048
556.3707, 2065.572
556.8528, 2066.269
557.3350, 2075.599
557.8171, 2092.025
558.2992, 2103.135
558.7813, 2107.721
559.2634, 2106.953
559.7455, 2098.241
560.2277, 2085.083
560.7098, 2078.558
561.1919, 2080.650
561.6740, 2085.985
562.1561, 2099.709
562.6382, 2111.699
563.1204, 2107.308
563.6025, 2088.315
564.0846, 2071.354
564.5667, 2068.836
565.0488, 2077.085
565.5309, 2081.354
566.0131, 2079.534
566.4952, 2079.068
566.9773, 2083.136
567.4594, 2087.412
567.9415, 2089.621
568.4236, 2089.686
568.9058, 2087.986
569.3879, 2083.561
569.8700, 2078.437
570.3521, 2073.758
570.8342, 2069.982
571.3163, 2068.854
571.7985, 2070.982
572.2806, 2075.402
572.7627, 2081.973
573.2448, 2091.797
573.7269, 2093.301
574.2090, 2080.311
574.6912, 2066.821
575.1733, 2051.116
575.6554, 2039.442
576.1375, 2042.347
576.6196, 2060.542
577.1017, 2077.047
577.5839, 2073.674
578.0660, 2056.332
578.5481, 2043.651
579.0302, 2035.696
579.5123, 2035.050
579.9944, 2046.575
580.4766, 2062.925
580.9587, 2069.182
581.4408, 2063.492
581.9229, 2058.064
582.4050, 2052.120
582.8871, 2049.139
583.3693, 2054.844
583.8514, 2064.940
584.3335, 2070.726
584.8156, 2068.183
585.2977, 2059.263
585.7798, 2042.808
586.2620, 2016.820
586.7441, 2009.195
587.2262, 2031.838
587.7083, 2055.473
588.1904, 2064.826
588.6725, 2063.877
589.1547, 2057.337
589.6368, 2043.299
590.1189, 2030.397
590.6010, 2021.993
591.0831, 2017.468
591.5652, 2015.825
592.0474, 2017.144
592.5295, 2023.575
593.0116, 2037.446
593.4937, 2054.802
593.9758, 2063.896
594.4579, 2064.432
594.9401, 2057.292
595.4222, 2027.615
595.9043, 2003.975
596.3864, 2006.455
596.8685, 2026.412
597.3506, 2040.970
597.8328, 2040.616
598.3149, 2034.308
598.7970, 2027.376
599.2791, 2021.031
599.7612, 2019.632
600.2433, 2024.032
600.7255, 2027.491
601.2076, 2023.188
601.6897, 2012.911
602.1718, 2011.438
602.6539, 2033.275
603.1360, 2043.940
603.6182, 2030.611
604.1003, 2013.467
604.5824, 2007.980
605.0645, 2013.339
605.5466, 2019.451
606.0287, 2021.341
606.5109, 2019.754
606.9930, 2013.039
607.4751, 2002.491
607.9572, 1999.385
608.4393, 2007.651
608.9214, 2019.841
609.4036, 2030.192
609.8857, 2038.659
610.3678, 2038.370
610.8499, 2019.167
611.3320, 2004.940
611.8141, 2006.174
612.2963, 2011.878
612.7784, 2009.835
613.2605, 1999.673
613.7426, 1990.761
614.2247, 1990.776
614.7068, 1996.548
615.1890, 2001.151
615.6711, 2004.660
616.1532, 2004.889
616.6353, 1999.951
617.1174, 1993.727
617.5995, 1990.129
618.0817, 1989.220
618.5638, 1990.493
619.0459, 1998.211
619.5280, 2003.166
620.0101, 2000.063
620.4922, 1993.052
620.9744, 1987.577
621.4565, 1984.517
621.9386, 1980.376
622.4207, 1969.773
622.9028, 1956.513
623.3849, 1957.877
623.8671, 1976.818
624.3492, 1993.283
624.8313, 2001.416
625.3134, 2004.345
625.7955, 2005.022
626.2776, 2003.584
626.7598, 2000.586
627.2419, 1996.092
627.7240, 1990.071
628.2061, 1981.160
628.6882, 1971.287
629.1703, 1963.828
629.6525, 1959.238
630.1346, 1953.892
630.6167, 1941.719
631.0988, 1926.171
631.5809, 1929.691
632.0630, 1959.038
632.5452, 1980.918
633.0273, 1982.578
633.5094, 1975.077
633.9915, 1970.063
634.4736, 1967.400
634.9557, 1964.380
635.4379, 1957.887
635.9200, 1953.662
636.4021, 1955.945
636.8842, 1962.240
637.3663, 1970.215
637.8484, 1978.506
638.3306, 1983.227
638.8127, 1979.358
639.2948, 1968.733
639.7769, 1962.851
640.2590, 1962.701
640.7411, 1964.050
641.2233, 1968.952
641.7054, 1971.673
642.1875, 1963.626
642.6696, 1946.025
643.1517, 1934.666
643.6339, 1938.471
644.1160, 1943.251
644.5981, 1938.090
645.0802, 1930.098
645.5623, 1932.725
646.0444, 1947.350
646.5266, 1960.781
647.0087, 1959.629
647.4908, 1947.678
647.9729, 1943.968
648.4550, 1951.659
648.9371, 1954.694
649.4193, 1945.836
649.9014, 1934.339
650.3835, 1928.479
650.8656, 1927.779
651.3477, 1929.265
651.8298, 1934.810
652.3120, 1939.743
652.7941, 1943.833
653.2762, 1945.071
653.7583, 1937.750
654.2404, 1923.084
654.7225, 1912.202
655.2047, 1915.166
655.6868, 1927.313
656.1689, 1932.799
656.6510, 1930.391
657.1331, 1928.869
657.6152, 1929.961
658.0974, 1932.555
658.5795, 1936.517
659.0616, 1941.369
659.5437, 1944.802
660.0258, 1945.058
660.5079, 1945.816
660.9901, 1949.177
661.4722, 1953.115
661.9543, 1955.651
662.4364, 1956.581
662.9185, 1956.841
663.4006, 1957.315
663.8828, 1956.713
664.3649, 1951.584
664.8470, 1941.775
665.3291, 1931.390
665.8112, 1918.163
666.2933, 1911.566
666.7755, 1922.708
667.2576, 1946.537
667.7397, 1960.724
668.2218, 1963.056
668.7039, 1959.491
669.1860, 1945.114
669.6682, 1930.229
670.1503, 1922.117
670.6324, 1920.674
671.1145, 1924.235
671.5966, 1932.692
672.0787, 1940.468
672.5609, 1935.951
673.0430, 1922.023
673.5251, 1922.148
674.0072, 1941.401
