##NAMES=Chenevixite
##RRUFFID=R040166
##IDEAL CHEMISTRY=Cu^2+^Fe^3+^(As^5+^O_4_)(OH)_2_
##LOCALITY=Volcanic Sunnyside mine, Santa Cruz County, Arizona, USA
##OWNER=RRUFF
##SOURCE=Andy Anderson
##DESCRIPTION=Green earthy massive
##STATUS=The identification of this mineral has been confirmed by X-ray diffraction and chemical analysis
##URL=rruff.info/R040166
##MEASURED CHEMISTRY=Cu_2.00_(Fe^3+^_1.98_[box]_0.02_)_Σ=2_((As_0.94_S_0.06_)O_4_)_2_(OH)_4_·1.49H_2_O
168.4644, 10404.10
168.9465, 10469.76
169.4286, 10538.04
169.9107, 10634.13
170.3929, 10748.44
170.8750, 10863.31
171.3571, 10967.08
171.8392, 11066.66
172.3213, 11167.65
172.8034, 11268.13
173.2856, 11375.21
173.7677, 11505.09
174.2498, 11650.41
174.7319, 11783.52
175.2140, 11869.79
175.6961, 11937.57
176.1783, 12033.97
176.6604, 12177.53
177.1425, 12332.00
177.6246, 12455.12
178.1067, 12548.31
178.5888, 12628.80
179.0710, 12711.73
179.5531, 12789.85
180.0352, 12843.75
180.5173, 12861.79
180.9994, 12860.05
181.4815, 12856.45
181.9637, 12851.41
182.4458, 12859.14
182.9279, 12899.96
183.4100, 12966.01
183.8921, 13028.98
184.3742, 13084.40
184.8564, 13130.11
185.3385, 13155.22
185.8206, 13158.62
186.3027, 13157.38
186.7848, 13165.49
187.2669, 13183.05
187.7491, 13210.50
188.2312, 13247.36
188.7133, 13293.98
189.1954, 13359.32
189.6775, 13447.57
190.1596, 13533.76
190.6418, 13581.41
191.1239, 13591.33
191.6060, 13606.19
192.0881, 13643.99
192.5702, 13702.73
193.0524, 13768.27
193.5345, 13843.86
194.0166, 13917.46
194.4987, 13963.07
194.9808, 13978.43
195.4629, 14000.08
195.9451, 14054.66
196.4272, 14141.71
196.9093, 14198.90
197.3914, 14221.30
197.8735, 14218.50
198.3556, 14202.27
198.8378, 14169.81
199.3199, 14142.04
199.8020, 14136.20
200.2841, 14154.90
200.7662, 14155.91
201.2483, 14132.48
201.7305, 14093.99
202.2126, 14063.30
202.6947, 14041.96
203.1768, 14022.56
203.6589, 13994.89
204.1410, 13954.41
204.6232, 13943.25
205.1053, 13976.77
205.5874, 14036.93
206.0695, 14060.62
206.5516, 14037.98
207.0337, 14004.76
207.5159, 13983.77
207.9980, 13976.78
208.4801, 13975.47
208.9622, 13979.70
209.4443, 13988.83
209.9264, 14001.29
210.4086, 14020.38
210.8907, 14036.22
211.3728, 14038.99
211.8549, 14023.56
212.3370, 14012.50
212.8191, 14008.48
213.3013, 14011.41
213.7834, 14019.73
214.2655, 14031.60
214.7476, 14051.91
215.2297, 14084.34
215.7118, 14129.35
216.1940, 14187.26
216.6761, 14263.78
217.1582, 14357.69
217.6403, 14435.10
218.1224, 14496.11
218.6045, 14539.41
219.0867, 14556.04
219.5688, 14522.72
220.0509, 14520.05
220.5330, 14581.41
221.0151, 14710.23
221.4972, 14774.16
221.9794, 14752.39
222.4615, 14689.73
222.9436, 14633.66
223.4257, 14592.95
223.9078, 14539.03
224.3899, 14459.80
224.8721, 14350.45
225.3542, 14268.53
225.8363, 14232.96
226.3184, 14206.22
226.8005, 14140.98
227.2827, 14020.45
227.7648, 13893.63
228.2469, 13769.82
228.7290, 13648.57
229.2111, 13535.93
229.6932, 13426.86
230.1754, 13331.80
230.6575, 13267.39
231.1396, 13255.90
231.6217, 13236.02
232.1038, 13185.22
232.5859, 13092.74
233.0681, 13028.57
233.5502, 13003.77
234.0323, 12999.44
234.5144, 12987.34
234.9965, 12958.75
235.4786, 12937.31
235.9608, 12930.54
236.4429, 12940.60
236.9250, 12955.24
237.4071, 12972.95
237.8892, 12996.12
238.3713, 13029.38
238.8535, 13077.75
239.3356, 13127.87
239.8177, 13176.09
240.2998, 13222.82
240.7819, 13266.30
241.2640, 13306.43
241.7462, 13344.06
242.2283, 13380.06
242.7104, 13410.30
243.1925, 13445.58
243.6746, 13488.22
244.1567, 13536.36
244.6389, 13601.83
245.1210, 13698.90
245.6031, 13804.66
246.0852, 13875.18
246.5673, 13890.69
247.0494, 13904.69
247.5316, 13937.90
248.0137, 13999.75
248.4958, 14048.66
248.9779, 14080.05
249.4600, 14100.81
249.9421, 14122.88
250.4243, 14147.60
250.9064, 14171.45
251.3885, 14192.72
251.8706, 14210.14
252.3527, 14229.57
252.8348, 14251.48
253.3170, 14275.04
253.7991, 14301.73
254.2812, 14342.11
254.7633, 14364.72
255.2454, 14352.15
255.7275, 14290.31
256.2097, 14246.08
256.6918, 14223.03
257.1739, 14215.62
257.6560, 14214.62
258.1381, 14222.08
258.6202, 14231.81
259.1024, 14243.40
259.5845, 14259.63
260.0666, 14264.95
260.5487, 14255.42
261.0308, 14237.95
261.5129, 14226.44
261.9951, 14226.51
262.4772, 14219.25
262.9593, 14194.74
263.4414, 14147.51
263.9235, 14109.20
264.4056, 14083.60
264.8878, 14062.93
265.3699, 14034.53
265.8520, 13999.59
266.3341, 13952.64
266.8162, 13885.21
267.2983, 13791.68
267.7805, 13717.13
268.2626, 13663.28
268.7447, 13627.33
269.2268, 13606.67
269.7089, 13604.00
270.1910, 13607.22
270.6732, 13618.24
271.1553, 13640.52
271.6374, 13629.27
272.1195, 13571.52
272.6016, 13499.15
273.0837, 13467.78
273.5659, 13483.81
274.0480, 13507.02
274.5301, 13524.70
275.0122, 13536.78
275.4943, 13539.31
275.9764, 13527.42
276.4586, 13515.14
276.9407, 13526.71
277.4228, 13564.70
277.9049, 13602.48
278.3870, 13624.72
278.8691, 13632.88
279.3513, 13664.43
279.8334, 13725.13
280.3155, 13794.44
280.7976, 13842.94
281.2798, 13869.27
281.7619, 13897.01
282.2440, 13934.39
282.7261, 13980.69
283.2082, 14032.67
283.6903, 14092.20
284.1725, 14150.43
284.6546, 14187.68
285.1367, 14205.13
285.6188, 14243.20
286.1009, 14326.01
286.5830, 14441.92
287.0652, 14543.91
287.5473, 14631.21
288.0294, 14703.57
288.5115, 14749.32
288.9936, 14773.08
289.4757, 14811.89
289.9579, 14890.38
290.4400, 14989.94
290.9221, 15062.22
291.4042, 15106.51
291.8863, 15132.06
292.3684, 15137.40
292.8506, 15128.34
293.3327, 15130.67
293.8148, 15158.56
294.2969, 15199.33
294.7790, 15231.17
295.2611, 15254.16
295.7433, 15267.99
296.2254, 15266.95
296.7075, 15256.10
297.1896, 15250.36
297.6717, 15258.54
298.1538, 15270.00
298.6360, 15264.60
299.1181, 15243.91
299.6002, 15227.23
300.0823, 15225.81
300.5644, 15239.16
301.0465, 15269.97
301.5287, 15336.43
302.0108, 15398.59
302.4929, 15400.68
302.9750, 15351.48
303.4571, 15301.18
303.9392, 15281.87
304.4214, 15282.17
304.9035, 15286.69
305.3856, 15291.77
305.8677, 15300.14
306.3498, 15318.04
306.8319, 15342.28
307.3141, 15362.05
307.7962, 15369.83
308.2783, 15370.29
308.7604, 15370.13
309.2425, 15376.62
309.7246, 15369.48
310.2068, 15320.09
310.6889, 15244.89
311.1710, 15185.91
311.6531, 15178.94
312.1352, 15186.44
312.6173, 15179.52
313.0995, 15147.95
313.5816, 15118.55
314.0637, 15106.19
314.5458, 15104.47
315.0279, 15101.19
315.5100, 15092.73
315.9922, 15080.69
316.4743, 15062.05
316.9564, 15031.55
317.4385, 15014.91
317.9206, 15025.62
318.4027, 15054.13
318.8849, 15087.12
319.3670, 15134.76
319.8491, 15174.19
320.3312, 15192.42
320.8133, 15183.88
321.2954, 15183.04
321.7776, 15204.61
322.2597, 15234.05
322.7418, 15255.88
323.2239, 15253.54
323.7060, 15257.69
324.1881, 15279.55
324.6703, 15321.45
325.1524, 15354.97
325.6345, 15382.41
326.1166, 15398.08
326.5987, 15397.40
327.0808, 15358.58
327.5630, 15329.10
328.0451, 15317.11
328.5272, 15321.78
329.0093, 15325.64
329.4914, 15332.36
329.9735, 15334.93
330.4557, 15327.46
330.9378, 15297.90
331.4199, 15279.94
331.9020, 15282.22
332.3841, 15299.04
332.8662, 15300.21
333.3484, 15272.48
333.8305, 15249.18
334.3126, 15251.21
334.7947, 15289.56
335.2768, 15318.24
335.7589, 15329.84
336.2411, 15333.30
336.7232, 15353.63
337.2053, 15396.42
337.6874, 15439.31
338.1695, 15466.84
338.6516, 15474.37
339.1338, 15505.95
339.6159, 15564.59
340.0980, 15643.50
340.5801, 15736.53
341.0622, 15847.44
341.5443, 15947.52
342.0265, 16017.89
342.5086, 16063.11
342.9907, 16134.52
343.4728, 16234.59
343.9549, 16348.84
344.4370, 16465.20
344.9192, 16581.80
345.4013, 16685.12
345.8834, 16758.90
346.3655, 16817.77
346.8476, 16900.89
347.3297, 17008.62
347.8119, 17119.57
348.2940, 17216.04
348.7761, 17299.40
349.2582, 17372.68
349.7403, 17442.88
350.2225, 17499.19
350.7046, 17515.04
351.1867, 17495.80
351.6688, 17481.99
352.1509, 17524.77
352.6331, 17586.00
353.1152, 17602.57
353.5973, 17539.94
354.0794, 17468.23
354.5615, 17457.74
355.0436, 17491.34
355.5258, 17516.90
356.0079, 17499.41
356.4900, 17464.89
356.9721, 17430.74
357.4542, 17393.37
357.9363, 17377.56
358.4185, 17432.17
358.9006, 17514.10
359.3827, 17548.81
359.8648, 17459.61
360.3469, 17353.46
360.8290, 17292.09
361.3112, 17288.74
361.7933, 17270.04
362.2754, 17198.90
362.7575, 17105.40
363.2396, 17021.87
363.7217, 16968.09
364.2039, 16913.63
364.6860, 16852.47
365.1681, 16784.09
365.6502, 16708.24
366.1323, 16627.21
366.6144, 16536.84
367.0966, 16433.56
367.5787, 16287.21
368.0608, 16166.31
368.5429, 16080.67
369.0250, 16025.38
369.5071, 15977.51
369.9893, 15940.28
370.4714, 15906.87
370.9535, 15874.20
371.4356, 15842.79
371.9177, 15813.04
372.3998, 15791.91
372.8820, 15768.70
373.3641, 15711.68
373.8462, 15598.58
374.3283, 15510.22
374.8104, 15491.01
375.2925, 15549.47
375.7747, 15573.42
376.2568, 15557.55
376.7389, 15518.21
377.2210, 15465.91
377.7031, 15397.76
378.1852, 15360.39
378.6674, 15380.47
379.1495, 15441.96
379.6316, 15479.30
380.1137, 15491.59
380.5958, 15484.99
381.0779, 15450.44
381.5601, 15396.27
382.0422, 15369.15
382.5243, 15390.08
383.0064, 15428.45
383.4885, 15428.23
383.9706, 15394.47
384.4528, 15364.52
384.9349, 15371.61
385.4170, 15397.01
385.8991, 15407.96
386.3812, 15395.93
386.8633, 15381.36
387.3455, 15392.44
387.8276, 15416.06
388.3097, 15422.28
388.7918, 15376.48
389.2739, 15319.54
389.7560, 15280.08
390.2382, 15259.97
390.7203, 15261.50
391.2024, 15302.81
391.6845, 15360.61
392.1666, 15408.62
392.6487, 15427.15
393.1309, 15444.28
393.6130, 15475.64
394.0951, 15519.30
394.5772, 15549.79
395.0593, 15547.81
395.5414, 15538.76
396.0236, 15538.44
396.5057, 15543.53
396.9878, 15564.09
397.4699, 15606.18
397.9520, 15665.20
398.4341, 15726.47
398.9163, 15799.58
399.3984, 15864.83
399.8805, 15912.64
400.3626, 15933.18
400.8447, 15965.40
401.3268, 16011.25
401.8090, 16067.34
402.2911, 16132.76
402.7732, 16214.00
403.2553, 16285.01
403.7374, 16332.45
404.2195, 16358.77
404.7017, 16414.36
405.1838, 16509.53
405.6659, 16606.81
406.1480, 16672.40
406.6301, 16706.36
407.1122, 16727.40
407.5944, 16734.93
408.0765, 16735.57
408.5586, 16736.10
409.0407, 16736.89
409.5228, 16763.51
410.0049, 16854.10
410.4871, 16983.62
410.9692, 17075.10
411.4513, 17112.04
411.9334, 17147.28
412.4155, 17248.14
412.8976, 17399.14
413.3798, 17550.77
413.8619, 17681.12
414.3440, 17802.91
414.8261, 17925.87
415.3082, 18051.04
415.7903, 18190.48
416.2725, 18345.04
416.7546, 18521.79
417.2367, 18732.80
417.7188, 18986.63
418.2009, 19264.82
418.6830, 19571.98
419.1652, 19900.24
419.6473, 20208.75
420.1294, 20502.24
420.6115, 20761.73
421.0937, 20969.56
421.5758, 21067.34
422.0579, 21226.06
422.5400, 21510.23
423.0221, 21859.82
423.5042, 22182.64
423.9864, 22451.00
424.4685, 22716.54
424.9506, 22998.28
425.4327, 23295.44
425.9148, 23571.54
426.3969, 23822.25
426.8791, 24056.77
427.3612, 24281.18
427.8433, 24498.12
428.3254, 24696.52
428.8075, 24879.20
429.2896, 25039.61
429.7718, 25150.66
430.2539, 25209.89
430.7360, 25236.05
431.2181, 25237.93
431.7002, 25215.45
432.1823, 25171.77
432.6645, 25111.09
433.1466, 25015.06
433.6287, 24840.53
434.1108, 24601.97
434.5929, 24370.03
435.0750, 24195.18
435.5572, 24037.86
436.0393, 23824.88
436.5214, 23558.00
437.0035, 23273.58
437.4856, 22993.94
437.9677, 22718.83
438.4499, 22450.27
438.9320, 22191.90
439.4141, 21934.90
439.8962, 21658.00
440.3783, 21377.37
440.8604, 21126.55
441.3426, 20943.80
441.8247, 20780.94
442.3068, 20608.09
442.7889, 20415.50
443.2710, 20244.25
443.7531, 20118.67
444.2353, 20015.17
444.7174, 19905.45
445.1995, 19767.81
445.6816, 19644.96
446.1637, 19549.13
446.6458, 19478.36
447.1280, 19403.99
447.6101, 19328.85
448.0922, 19246.57
448.5743, 19153.23
449.0564, 19042.10
449.5385, 18935.20
450.0207, 18833.91
450.5028, 18736.69
450.9849, 18638.82
451.4670, 18538.72
451.9491, 18451.18
452.4312, 18391.13
452.9134, 18352.27
453.3955, 18279.86
453.8776, 18171.34
454.3597, 18049.93
454.8418, 17936.35
455.3239, 17828.92
455.8061, 17724.51
456.2882, 17618.35
456.7703, 17519.04
457.2524, 17442.33
457.7345, 17384.38
458.2166, 17327.87
458.6988, 17257.24
459.1809, 17185.89
459.6630, 17133.79
460.1451, 17105.70
460.6272, 17072.44
461.1093, 16998.78
461.5915, 16914.47
462.0736, 16858.08
462.5557, 16872.32
463.0378, 16887.14
463.5199, 16869.98
464.0020, 16826.24
464.4842, 16798.47
464.9663, 16821.28
465.4484, 16843.45
465.9305, 16835.63
466.4126, 16761.21
466.8947, 16719.85
467.3769, 16728.98
467.8590, 16763.50
468.3411, 16782.29
468.8232, 16776.83
469.3053, 16772.48
469.7874, 16777.31
470.2696, 16790.52
470.7517, 16797.37
471.2338, 16798.06
471.7159, 16791.88
472.1980, 16768.53
472.6801, 16729.01
473.1623, 16722.37
473.6444, 16763.28
474.1265, 16824.41
474.6086, 16860.02
475.0907, 16873.06
475.5728, 16882.58
476.0550, 16893.57
476.5371, 16909.29
477.0192, 16938.76
477.5013, 16982.60
477.9834, 17023.67
478.4655, 17047.92
478.9477, 17061.79
479.4298, 17072.60
479.9119, 17073.51
480.3940, 17083.48
480.8761, 17117.52
481.3582, 17169.09
481.8404, 17219.04
482.3225, 17270.43
482.8046, 17311.10
483.2867, 17330.03
483.7688, 17313.62
484.2509, 17319.63
484.7331, 17375.68
485.2152, 17444.53
485.6973, 17492.51
486.1794, 17509.23
486.6615, 17522.68
487.1436, 17536.13
487.6258, 17549.34
488.1079, 17559.57
488.5900, 17563.49
489.0721, 17573.54
489.5542, 17603.88
490.0363, 17655.05
490.5185, 17678.54
491.0006, 17668.63
491.4827, 17645.33
491.9648, 17633.47
492.4470, 17631.05
492.9291, 17627.69
493.4112, 17621.80
493.8933, 17611.48
494.3754, 17592.31
494.8575, 17565.12
495.3397, 17536.20
495.8218, 17503.89
496.3039, 17474.40
496.7860, 17456.89
497.2681, 17455.80
497.7502, 17453.06
498.2324, 17447.30
498.7145, 17431.79
499.1966, 17397.20
499.6787, 17314.90
500.1608, 17239.38
500.6429, 17188.35
501.1251, 17161.01
501.6072, 17138.72
502.0893, 17137.30
502.5714, 17125.16
503.0535, 17083.75
503.5356, 16989.75
504.0178, 16924.54
504.4999, 16901.63
504.9820, 16895.78
505.4641, 16864.15
505.9462, 16799.50
506.4283, 16748.82
506.9105, 16734.43
507.3926, 16742.61
507.8747, 16710.83
508.3568, 16636.53
508.8389, 16567.50
509.3210, 16549.78
509.8032, 16563.93
510.2853, 16552.20
510.7674, 16502.38
511.2495, 16448.10
511.7316, 16428.55
512.2137, 16429.73
512.6959, 16423.45
513.1780, 16388.06
513.6601, 16349.35
514.1422, 16323.83
514.6243, 16310.33
515.1064, 16299.46
515.5886, 16286.93
516.0707, 16276.30
516.5528, 16269.41
517.0349, 16264.59
517.5170, 16267.37
517.9991, 16298.73
518.4813, 16329.98
518.9634, 16321.45
519.4455, 16241.94
519.9276, 16176.07
520.4097, 16141.07
520.8918, 16134.30
521.3740, 16139.07
521.8561, 16161.06
522.3382, 16175.81
522.8203, 16164.22
523.3024, 16127.91
523.7845, 16090.76
524.2667, 16051.82
524.7488, 16020.15
525.2309, 16016.34
525.7130, 16030.43
526.1951, 16026.26
526.6772, 15971.21
527.1594, 15910.86
527.6415, 15914.71
528.1236, 15966.67
528.6057, 15995.92
529.0878, 15923.42
529.5699, 15837.90
530.0521, 15817.57
530.5342, 15891.96
531.0163, 15941.04
531.4984, 15895.51
531.9805, 15818.81
532.4626, 15778.28
532.9448, 15825.81
533.4269, 15858.29
533.9090, 15857.77
534.3911, 15833.16
534.8732, 15819.76
535.3553, 15823.74
535.8375, 15827.18
536.3196, 15822.13
536.8017, 15808.14
537.2838, 15791.27
537.7659, 15768.42
538.2480, 15752.41
538.7302, 15764.99
539.2123, 15800.87
539.6944, 15821.40
540.1765, 15814.28
540.6586, 15795.50
541.1407, 15782.50
541.6229, 15775.86
542.1050, 15777.30
542.5871, 15801.71
543.0692, 15825.46
543.5513, 15819.65
544.0334, 15783.27
544.5156, 15757.92
544.9977, 15765.18
545.4798, 15790.29
545.9619, 15822.70
546.4440, 15873.52
546.9261, 15912.07
547.4083, 15931.73
547.8904, 15936.83
548.3725, 15933.96
548.8546, 15914.00
549.3367, 15901.13
549.8188, 15902.79
550.3010, 15917.68
550.7831, 15932.20
551.2652, 15947.50
551.7473, 15958.51
552.2294, 15961.44
552.7115, 15956.62
553.1937, 15943.15
553.6758, 15917.46
554.1579, 15897.70
554.6400, 15909.86
555.1221, 15946.68
555.6042, 15988.04
556.0864, 16040.19
556.5685, 16080.76
557.0506, 16078.39
557.5327, 16043.21
558.0148, 16012.84
558.4969, 16006.97
558.9791, 16010.49
559.4612, 16015.82
559.9433, 16022.92
560.4254, 16027.59
560.9075, 16027.41
561.3896, 16025.38
561.8718, 16024.32
562.3539, 16026.71
562.8360, 16025.95
563.3181, 16021.88
563.8002, 16014.26
564.2823, 15999.33
564.7645, 15973.66
565.2466, 15957.21
565.7287, 15963.15
566.2108, 15985.25
566.6929, 15989.10
567.1750, 15973.79
567.6572, 15960.30
568.1393, 15964.09
568.6214, 15982.83
569.1035, 16017.55
569.5856, 16075.10
570.0677, 16122.22
570.5499, 16128.82
571.0320, 16107.75
571.5141, 16079.57
571.9962, 16035.53
572.4783, 16001.97
572.9604, 15995.04
573.4426, 16010.06
573.9247, 16022.25
574.4068, 16036.88
574.8889, 16038.92
575.3710, 16016.38
575.8531, 15959.50
576.3353, 15932.61
576.8174, 15947.21
577.2995, 15975.14
577.7816, 15992.99
578.2637, 16000.87
578.7458, 15993.92
579.2280, 15967.41
579.7101, 15933.13
580.1922, 15908.98
580.6743, 15894.85
581.1564, 15890.07
581.6385, 15896.96
582.1207, 15911.59
582.6028, 15937.04
583.0849, 15970.02
583.5670, 15986.63
584.0491, 15952.02
584.5313, 15908.59
585.0134, 15889.81
585.4955, 15905.84
585.9776, 15929.73
586.4597, 15972.88
586.9418, 16012.67
587.4240, 16021.80
587.9061, 15972.23
588.3882, 15935.80
588.8703, 15925.30
589.3524, 15931.46
589.8345, 15926.90
590.3167, 15909.58
590.7988, 15888.99
591.2809, 15866.44
591.7630, 15843.75
592.2451, 15830.51
592.7272, 15826.62
593.2094, 15833.98
593.6915, 15864.94
594.1736, 15906.08
594.6557, 15931.69
595.1378, 15936.09
595.6199, 15929.46
596.1021, 15905.99
596.5842, 15879.70
597.0663, 15870.59
597.5485, 15914.69
598.0306, 15946.11
598.5127, 15929.69
598.9948, 15879.32
599.4769, 15856.25
599.9590, 15882.67
600.4412, 15913.91
600.9233, 15936.91
601.4054, 15951.58
601.8875, 15962.41
602.3696, 15971.48
602.8517, 15971.24
603.3339, 15947.93
603.8160, 15904.13
604.2981, 15877.59
604.7802, 15874.07
605.2623, 15883.82
605.7444, 15905.92
606.2266, 15932.17
606.7087, 15938.96
607.1908, 15898.80
607.6729, 15855.78
608.1550, 15845.07
608.6371, 15860.44
609.1193, 15881.18
609.6014, 15915.56
610.0835, 15939.09
610.5656, 15932.31
611.0477, 15887.74
611.5298, 15864.49
612.0120, 15875.74
612.4941, 15897.52
612.9762, 15916.12
613.4583, 15933.70
613.9404, 15938.06
614.4225, 15923.38
614.9047, 15904.70
615.3868, 15907.55
615.8689, 15929.88
616.3510, 15942.79
616.8331, 15932.09
617.3152, 15915.22
617.7974, 15926.35
618.2795, 15956.90
618.7616, 15974.12
619.2437, 15950.86
619.7258, 15914.22
620.2079, 15872.18
620.6901, 15826.35
621.1722, 15815.44
621.6543, 15892.77
622.1364, 15981.61
622.6185, 16030.75
623.1006, 16021.90
623.5828, 16007.80
624.0649, 15982.58
624.5470, 15957.51
625.0291, 15948.19
625.5112, 15958.28
625.9933, 15964.68
626.4755, 15963.50
626.9576, 15956.02
627.4397, 15942.20
627.9218, 15923.04
628.4039, 15905.95
628.8860, 15891.73
629.3682, 15883.18
629.8503, 15885.45
630.3324, 15897.75
630.8145, 15914.29
631.2966, 15940.33
631.7787, 15963.20
632.2609, 15970.34
632.7430, 15953.38
633.2251, 15947.71
633.7072, 15974.17
634.1893, 16006.08
634.6714, 16019.96
635.1536, 16000.86
635.6357, 15998.96
636.1178, 16026.97
636.5999, 16064.17
637.0820, 16064.53
637.5641, 16025.83
638.0463, 16007.15
638.5284, 16041.55
639.0105, 16095.43
639.4926, 16095.51
639.9747, 16049.99
640.4568, 16006.72
640.9390, 15988.99
641.4211, 15990.24
641.9032, 16012.95
642.3853, 16057.04
642.8674, 16087.66
643.3495, 16086.22
643.8317, 16069.46
644.3138, 16046.36
644.7959, 15998.55
645.2780, 15984.99
645.7601, 16029.57
646.2422, 16087.45
646.7244, 16102.87
647.2065, 16066.71
647.6886, 16033.32
648.1707, 16009.65
648.6528, 15997.29
649.1349, 16003.21
649.6171, 16025.41
650.0992, 16049.71
650.5813, 16075.52
651.0634, 16096.07
651.5455, 16099.26
652.0276, 16087.98
652.5098, 16077.60
652.9919, 16070.10
653.4740, 16070.87
653.9561, 16087.50
654.4382, 16125.03
654.9203, 16151.52
655.4025, 16162.99
655.8846, 16162.39
656.3667, 16147.75
656.8488, 16107.60
657.3309, 16090.25
657.8130, 16103.55
658.2952, 16128.46
658.7773, 16138.31
659.2594, 16134.37
659.7415, 16131.17
660.2236, 16134.39
660.7057, 16136.96
661.1879, 16124.73
661.6700, 16103.12
662.1521, 16087.51
662.6342, 16083.67
663.1163, 16089.65
663.5984, 16108.22
