##NAMES=Chernovite-(Y)
##RRUFFID=R070368
##IDEAL CHEMISTRY=YAs^5+^O_4_
##LOCALITY=Squaw Creek mine, Taylor Creek Tin District (Black Range Tin District), Sierra County, New Mexico, USA
##OWNER=RRUFF
##SOURCE=Michael Scott
##DESCRIPTION=Pale yellow pseudo-octahedral crystals associated with quartz and cassiterite
##STATUS=The identification of this mineral has been confirmed only by single crystal X-ray diffraction.
##URL=rruff.info/R070368
126.0381, 4686.860
126.5202, 5000.778
127.0023, 5343.428
127.4844, 5702.497
127.9666, 6059.167
128.4487, 6413.500
128.9308, 6772.094
129.4129, 7131.370
129.8950, 7496.740
130.3772, 7877.842
130.8593, 8289.497
131.3414, 8720.925
131.8235, 9129.756
132.3056, 9506.821
132.7877, 9884.143
133.2699, 10302.57
133.7520, 10765.50
134.2341, 11235.48
134.7162, 11698.20
135.1983, 12155.67
135.6804, 12613.21
136.1626, 13066.85
136.6447, 13518.67
137.1268, 13974.88
137.6089, 14436.58
138.0910, 14886.73
138.5731, 15302.43
139.0553, 15680.88
139.5374, 16061.94
140.0195, 16448.79
140.5016, 16839.10
140.9837, 17209.41
141.4658, 17564.10
141.9480, 17897.58
142.4301, 18203.83
142.9122, 18482.43
143.3943, 18732.57
143.8764, 18947.83
144.3585, 19127.29
144.8407, 19317.51
145.3228, 19516.66
145.8049, 19726.81
146.2870, 19950.34
146.7691, 20209.66
147.2512, 20448.99
147.7334, 20644.71
148.2155, 20780.56
148.6976, 20954.73
149.1797, 21188.99
149.6618, 21456.04
150.1439, 21717.39
150.6261, 21957.31
151.1082, 22202.68
151.5903, 22459.05
152.0724, 22729.89
152.5545, 23002.95
153.0366, 23280.84
153.5188, 23558.95
154.0009, 23827.02
154.4830, 24079.99
154.9651, 24328.04
155.4472, 24579.93
155.9293, 24854.95
156.4115, 25105.68
156.8936, 25320.27
157.3757, 25503.22
157.8578, 25673.87
158.3399, 25830.67
158.8221, 25980.72
159.3042, 26130.29
159.7863, 26298.07
160.2684, 26448.60
160.7505, 26560.05
161.2326, 26638.32
161.7148, 26720.70
162.1969, 26832.18
162.6790, 26952.40
163.1611, 27060.36
163.6432, 27133.29
164.1253, 27205.94
164.6075, 27289.95
165.0896, 27385.51
165.5717, 27506.48
166.0538, 27687.12
166.5359, 27893.62
167.0180, 28078.00
167.5002, 28207.47
167.9823, 28317.12
168.4644, 28431.53
168.9465, 28552.67
169.4286, 28677.30
169.9107, 28804.20
170.3929, 28932.33
170.8750, 29062.86
171.3571, 29195.38
171.8392, 29329.49
172.3213, 29468.93
172.8034, 29617.87
173.2856, 29755.11
173.7677, 29846.12
174.2498, 29904.31
174.7319, 29974.03
175.2140, 30093.15
175.6961, 30238.22
176.1783, 30376.62
176.6604, 30506.83
177.1425, 30617.89
177.6246, 30687.10
178.1067, 30718.55
178.5888, 30743.45
179.0710, 30777.78
179.5531, 30821.57
180.0352, 30875.89
180.5173, 30944.50
180.9994, 31019.64
181.4815, 31087.30
181.9637, 31148.21
182.4458, 31206.92
182.9279, 31257.39
183.4100, 31306.57
183.8921, 31383.47
184.3742, 31512.96
184.8564, 31668.40
185.3385, 31777.61
185.8206, 31838.34
186.3027, 31891.54
186.7848, 31979.37
187.2669, 32098.47
187.7491, 32226.51
188.2312, 32366.90
188.7133, 32510.14
189.1954, 32619.98
189.6775, 32691.97
190.1596, 32747.07
190.6418, 32804.88
191.1239, 32865.43
191.6060, 32938.65
192.0881, 33036.21
192.5702, 33154.25
193.0524, 33257.74
193.5345, 33343.91
194.0166, 33422.12
194.4987, 33494.91
194.9808, 33560.08
195.4629, 33653.70
195.9451, 33814.80
196.4272, 34043.11
196.9093, 34205.13
197.3914, 34281.36
197.8735, 34315.38
198.3556, 34390.77
198.8378, 34513.02
199.3199, 34639.62
199.8020, 34738.26
200.2841, 34803.87
200.7662, 34910.72
201.2483, 35078.66
201.7305, 35275.87
202.2126, 35418.70
202.6947, 35495.13
203.1768, 35562.14
203.6589, 35653.55
204.1410, 35771.19
204.6232, 35895.43
205.1053, 36027.57
205.5874, 36163.86
206.0695, 36288.55
206.5516, 36395.19
207.0337, 36507.14
207.5159, 36649.10
207.9980, 36829.97
208.4801, 36982.50
208.9622, 37084.35
209.4443, 37151.73
209.9264, 37272.03
210.4086, 37468.33
210.8907, 37671.85
211.3728, 37819.50
211.8549, 37888.64
212.3370, 37985.01
212.8191, 38133.07
213.3013, 38324.46
213.7834, 38499.98
214.2655, 38655.80
214.7476, 38802.47
215.2297, 38943.57
215.7118, 39072.70
216.1940, 39218.86
216.6761, 39391.29
217.1582, 39589.19
217.6403, 39779.70
218.1224, 39959.16
218.6045, 40133.15
219.0867, 40305.05
219.5688, 40468.37
220.0509, 40642.96
220.5330, 40834.25
221.0151, 41045.39
221.4972, 41237.30
221.9794, 41399.59
222.4615, 41556.07
222.9436, 41734.37
223.4257, 41940.72
223.9078, 42159.01
224.3899, 42382.62
224.8721, 42614.09
225.3542, 42856.94
225.8363, 43117.98
226.3184, 43385.87
226.8005, 43652.98
227.2827, 43920.03
227.7648, 44180.79
228.2469, 44426.54
228.7290, 44649.69
229.2111, 44910.08
229.6932, 45215.79
230.1754, 45549.00
230.6575, 45894.05
231.1396, 46259.00
231.6217, 46617.36
232.1038, 46960.54
232.5859, 47285.49
233.0681, 47612.31
233.5502, 47944.58
234.0323, 48274.81
234.5144, 48607.04
234.9965, 48988.79
235.4786, 49287.48
235.9608, 49459.00
236.4429, 49486.50
236.9250, 49451.00
237.4071, 49309.22
237.8892, 49131.49
238.3713, 49029.10
238.8535, 49023.29
239.3356, 49057.39
239.8177, 49113.94
240.2998, 49190.34
240.7819, 49304.02
241.2640, 49480.22
241.7462, 49680.80
242.2283, 49836.63
242.7104, 49912.05
243.1925, 50001.54
243.6746, 50140.50
244.1567, 50347.77
244.6389, 50544.97
245.1210, 50739.86
245.6031, 50919.83
246.0852, 51056.54
246.5673, 51125.71
247.0494, 51192.91
247.5316, 51280.88
248.0137, 51394.66
248.4958, 51513.45
248.9779, 51639.14
249.4600, 51768.22
249.9421, 51889.30
250.4243, 51993.92
250.9064, 52107.46
251.3885, 52246.90
251.8706, 52434.30
252.3527, 52570.94
252.8348, 52631.11
253.3170, 52656.34
253.7991, 52729.90
254.2812, 52879.93
254.7633, 53022.31
255.2454, 53111.73
255.7275, 53110.59
256.2097, 53202.31
256.6918, 53432.95
257.1739, 53723.75
257.6560, 53921.79
258.1381, 53977.22
258.6202, 54043.47
259.1024, 54187.07
259.5845, 54431.01
260.0666, 54648.46
260.5487, 54826.11
261.0308, 54986.97
261.5129, 55181.57
261.9951, 55414.79
262.4772, 55666.40
262.9593, 55931.56
263.4414, 56219.88
263.9235, 56483.43
264.4056, 56713.53
264.8878, 56930.07
265.3699, 57179.15
265.8520, 57479.28
266.3341, 57764.70
266.8162, 57996.88
267.2983, 58154.20
267.7805, 58391.70
268.2626, 58733.29
268.7447, 59126.66
269.2268, 59480.93
269.7089, 59785.55
270.1910, 60087.55
270.6732, 60412.71
271.1553, 60763.98
271.6374, 61093.46
272.1195, 61397.12
272.6016, 61685.55
273.0837, 61962.01
273.5659, 62224.74
274.0480, 62490.29
274.5301, 62769.27
275.0122, 63061.02
275.4943, 63354.39
275.9764, 63655.14
276.4586, 63946.69
276.9407, 64197.36
277.4228, 64398.73
277.9049, 64605.86
278.3870, 64848.41
278.8691, 65123.31
279.3513, 65354.02
279.8334, 65531.64
280.3155, 65687.97
280.7976, 65867.34
281.2798, 66069.34
281.7619, 66269.46
282.2440, 66477.77
282.7261, 66684.14
283.2082, 66797.66
283.6903, 66803.80
284.1725, 66770.47
284.6546, 66771.23
285.1367, 66805.72
285.6188, 66866.43
286.1009, 66969.88
286.5830, 67099.27
287.0652, 67186.28
287.5473, 67230.22
288.0294, 67231.60
288.5115, 67172.38
288.9936, 67059.49
289.4757, 66953.34
289.9579, 66874.42
290.4400, 66816.13
290.9221, 66771.58
291.4042, 66743.97
291.8863, 66690.07
292.3684, 66524.54
292.8506, 66281.41
293.3327, 66109.80
293.8148, 66098.38
294.2969, 66162.11
294.7790, 66121.85
295.2611, 65977.10
295.7433, 65824.91
296.2254, 65748.09
296.7075, 65729.34
297.1896, 65723.83
297.6717, 65727.80
298.1538, 65729.84
298.6360, 65701.05
299.1181, 65644.83
299.6002, 65604.63
300.0823, 65623.30
300.5644, 65680.25
301.0465, 65737.54
301.5287, 65787.68
302.0108, 65830.95
302.4929, 65862.26
302.9750, 65884.07
303.4571, 65908.85
303.9392, 65935.30
304.4214, 65972.81
304.9035, 66044.49
305.3856, 66190.77
305.8677, 66313.44
306.3498, 66289.04
306.8319, 66156.20
307.3141, 66050.49
307.7962, 66085.45
308.2783, 66171.80
308.7604, 66227.44
309.2425, 66240.53
309.7246, 66207.88
310.2068, 66092.88
310.6889, 65925.88
311.1710, 65784.48
311.6531, 65760.00
312.1352, 65742.41
312.6173, 65644.98
313.0995, 65435.20
313.5816, 65203.83
314.0637, 64978.36
314.5458, 64760.62
315.0279, 64552.16
315.5100, 64352.74
315.9922, 64163.38
316.4743, 63994.59
316.9564, 63860.57
317.4385, 63692.95
317.9206, 63437.01
318.4027, 63141.21
318.8849, 62873.29
319.3670, 62671.26
319.8491, 62482.72
320.3312, 62285.95
320.8133, 62074.47
321.2954, 61880.59
321.7776, 61735.45
322.2597, 61600.00
322.7418, 61432.58
323.2239, 61188.52
323.7060, 60950.61
324.1881, 60731.13
324.6703, 60529.44
325.1524, 60361.38
325.6345, 60252.23
326.1166, 60166.41
326.5987, 60074.46
327.0808, 59973.14
327.5630, 59868.98
328.0451, 59750.69
328.5272, 59620.65
329.0093, 59534.88
329.4914, 59556.93
329.9735, 59567.75
330.4557, 59482.47
330.9378, 59210.47
331.4199, 59000.51
331.9020, 58884.22
332.3841, 58846.01
332.8662, 58810.43
333.3484, 58773.74
333.8305, 58745.84
334.3126, 58738.15
334.7947, 58768.03
335.2768, 58761.59
335.7589, 58700.32
336.2411, 58608.96
336.7232, 58547.18
337.2053, 58518.97
337.6874, 58510.05
338.1695, 58526.29
338.6516, 58575.41
339.1338, 58574.17
339.6159, 58506.46
340.0980, 58411.41
340.5801, 58359.17
341.0622, 58353.67
341.5443, 58349.16
342.0265, 58320.39
342.5086, 58272.11
342.9907, 58251.44
343.4728, 58263.68
343.9549, 58283.52
344.4370, 58274.80
344.9192, 58241.18
345.4013, 58217.63
345.8834, 58223.07
346.3655, 58245.83
346.8476, 58253.30
347.3297, 58244.97
347.8119, 58235.67
348.2940, 58241.04
348.7761, 58256.88
349.2582, 58269.18
349.7403, 58266.41
350.2225, 58266.26
350.7046, 58296.29
351.1867, 58354.38
351.6688, 58422.01
352.1509, 58492.45
352.6331, 58562.36
353.1152, 58624.32
353.5973, 58669.32
354.0794, 58719.95
354.5615, 58793.79
355.0436, 58889.32
355.5258, 59001.88
356.0079, 59151.24
356.4900, 59304.14
356.9721, 59426.77
357.4542, 59504.09
357.9363, 59584.66
358.4185, 59688.54
358.9006, 59814.86
359.3827, 59962.11
359.8648, 60143.88
360.3469, 60335.21
360.8290, 60516.06
361.3112, 60680.10
361.7933, 60873.94
362.2754, 61140.23
362.7575, 61434.93
363.2396, 61711.37
363.7217, 61925.52
364.2039, 62150.15
364.6860, 62400.02
365.1681, 62676.89
365.6502, 62978.49
366.1323, 63322.55
366.6144, 63682.40
367.0966, 64041.09
367.5787, 64388.51
368.0608, 64741.59
368.5429, 65095.92
369.0250, 65456.54
369.5071, 65839.21
369.9893, 66240.90
370.4714, 66665.85
370.9535, 67121.38
371.4356, 67623.73
371.9177, 68106.25
372.3998, 68551.90
372.8820, 68987.54
373.3641, 69467.98
373.8462, 70000.84
374.3283, 70555.50
374.8104, 71116.13
375.2925, 71687.83
375.7747, 72257.89
376.2568, 72823.18
376.7389, 73402.57
377.2210, 74026.34
377.7031, 74698.66
378.1852, 75351.38
378.6674, 75955.84
379.1495, 76525.39
379.6316, 77149.11
380.1137, 77825.33
380.5958, 78523.51
381.0779, 79223.70
381.5601, 79926.44
382.0422, 80570.51
382.5243, 81121.45
383.0064, 81654.72
383.4885, 82315.32
383.9706, 83093.75
384.4528, 83873.39
384.9349, 84566.29
385.4170, 85216.84
385.8991, 85923.21
386.3812, 86723.35
386.8633, 87526.24
387.3455, 88230.45
387.8276, 88870.64
388.3097, 89538.83
388.7918, 90268.79
389.2739, 91046.06
389.7560, 91871.05
390.2382, 92747.51
390.7203, 93625.98
391.2024, 94479.16
391.6845, 95316.34
392.1666, 96159.40
392.6487, 96991.07
393.1309, 97847.12
393.6130, 98736.71
394.0951, 99661.66
394.5772, 100599.5
395.0593, 101527.0
395.5414, 102478.1
396.0236, 103465.8
396.5057, 104560.6
396.9878, 105615.1
397.4699, 106581.0
397.9520, 107488.2
398.4341, 108420.1
398.9163, 109391.5
399.3984, 110372.1
399.8805, 111363.5
400.3626, 112400.8
400.8447, 113340.5
401.3268, 114154.9
401.8090, 114891.1
402.2911, 115635.8
402.7732, 116406.2
403.2553, 117121.8
403.7374, 117759.3
404.2195, 118320.5
404.7017, 118849.1
405.1838, 119370.7
405.6659, 119794.4
406.1480, 120012.5
406.6301, 120023.7
407.1122, 120006.0
407.5944, 119992.6
408.0765, 119966.9
408.5586, 119904.8
409.0407, 119805.6
409.5228, 119631.3
410.0049, 119289.8
410.4871, 118854.2
410.9692, 118539.9
411.4513, 118386.5
411.9334, 118280.2
412.4155, 118059.5
412.8976, 117771.5
413.3798, 117559.0
413.8619, 117467.4
414.3440, 117490.1
414.8261, 117636.3
415.3082, 117906.4
415.7903, 118237.3
416.2725, 118576.1
416.7546, 118958.7
417.2367, 119437.4
417.7188, 120105.6
418.2009, 120775.9
418.6830, 121358.6
419.1652, 121871.4
419.6473, 122356.3
420.1294, 122807.8
420.6115, 123254.5
421.0937, 123735.3
421.5758, 124318.5
422.0579, 124777.2
422.5400, 125059.0
423.0221, 125205.1
423.5042, 125286.6
423.9864, 125252.8
424.4685, 125214.8
424.9506, 125208.8
425.4327, 125242.3
425.9148, 125213.0
426.3969, 125112.5
426.8791, 124959.1
427.3612, 124762.6
427.8433, 124509.1
428.3254, 124261.5
428.8075, 124044.2
429.2896, 123832.9
429.7718, 123530.1
430.2539, 123113.5
430.7360, 122719.4
431.2181, 122449.1
431.7002, 122293.0
432.1823, 122105.8
432.6645, 121871.8
433.1466, 121634.0
433.6287, 121461.0
434.1108, 121342.3
434.5929, 121223.0
435.0750, 121052.5
435.5572, 120881.2
436.0393, 120809.0
436.5214, 120832.7
437.0035, 120881.3
437.4856, 120915.2
437.9677, 120934.8
438.4499, 120940.8
438.9320, 120935.0
439.4141, 120912.8
439.8962, 120805.3
440.3783, 120673.0
440.8604, 120668.7
441.3426, 120984.8
441.8247, 121353.8
442.3068, 121614.2
442.7889, 121720.8
443.2710, 121851.8
443.7531, 122048.4
444.2353, 122295.5
444.7174, 122579.7
445.1995, 122938.9
445.6816, 123287.3
446.1637, 123585.7
446.6458, 123842.1
447.1280, 124181.5
447.6101, 124650.2
448.0922, 125152.7
448.5743, 125634.6
449.0564, 126096.7
449.5385, 126549.1
450.0207, 126992.4
450.5028, 127424.4
450.9849, 127828.7
451.4670, 128190.9
451.9491, 128583.0
452.4312, 129079.1
452.9134, 129645.3
453.3955, 130008.0
453.8776, 130145.8
454.3597, 130225.1
454.8418, 130426.7
455.3239, 130713.3
455.8061, 130918.4
456.2882, 130992.1
456.7703, 130991.2
457.2524, 130962.5
457.7345, 130919.5
458.2166, 130918.2
458.6988, 131036.1
459.1809, 131191.1
459.6630, 131287.2
460.1451, 131308.8
460.6272, 131323.0
461.1093, 131410.7
461.5915, 131504.2
462.0736, 131517.2
462.5557, 131390.8
463.0378, 131209.1
463.5199, 131040.9
464.0020, 130867.5
464.4842, 130537.6
464.9663, 129952.5
465.4484, 129254.2
465.9305, 128510.7
466.4126, 127693.2
466.8947, 126874.3
467.3769, 126091.9
467.8590, 125295.5
468.3411, 124383.6
468.8232, 123316.7
469.3053, 122216.7
469.7874, 121093.5
470.2696, 119950.5
470.7517, 118856.5
471.2338, 117824.5
471.7159, 116810.4
472.1980, 115785.0
472.6801, 114744.9
473.1623, 113724.2
473.6444, 112709.6
474.1265, 111735.8
474.6086, 110909.6
475.0907, 110204.1
475.5728, 109446.0
476.0550, 108471.2
476.5371, 107406.9
477.0192, 106481.1
477.5013, 105698.2
477.9834, 104953.4
478.4655, 104156.1
478.9477, 103348.2
479.4298, 102595.1
479.9119, 101920.5
480.3940, 101286.5
480.8761, 100666.4
481.3582, 100073.0
481.8404, 99552.73
482.3225, 99203.58
482.8046, 98862.91
483.2867, 98440.12
483.7688, 97887.85
484.2509, 97392.10
484.7331, 97017.72
485.2152, 96683.20
485.6973, 96303.93
486.1794, 95853.05
486.6615, 95399.68
487.1436, 94938.09
487.6258, 94478.43
488.1079, 94077.17
488.5900, 93758.55
489.0721, 93437.66
489.5542, 93051.97
490.0363, 92598.78
490.5185, 92224.80
491.0006, 91958.86
491.4827, 91698.85
491.9648, 91272.26
492.4470, 90717.18
492.9291, 90256.18
493.4112, 90030.88
493.8933, 89893.50
494.3754, 89610.02
494.8575, 89200.09
495.3397, 88804.43
495.8218, 88539.20
496.3039, 88319.20
496.7860, 88040.79
497.2681, 87658.96
497.7502, 87319.02
498.2324, 87126.63
498.7145, 87012.44
499.1966, 86878.55
499.6787, 86655.96
500.1608, 86451.83
500.6429, 86310.27
501.1251, 86227.25
501.6072, 86128.84
502.0893, 86004.52
502.5714, 85867.11
503.0535, 85717.29
503.5356, 85531.99
504.0178, 85393.97
504.4999, 85325.52
504.9820, 85285.27
505.4641, 85195.38
505.9462, 85036.35
506.4283, 84933.77
506.9105, 84945.20
507.3926, 85036.47
507.8747, 85052.76
508.3568, 84988.37
508.8389, 84956.58
509.3210, 85070.52
509.8032, 85281.96
510.2853, 85455.70
510.7674, 85568.80
511.2495, 85669.95
511.7316, 85788.63
512.2137, 85933.89
512.6959, 86121.58
513.1780, 86385.73
513.6601, 86673.24
514.1422, 86936.78
514.6243, 87185.21
515.1064, 87480.73
515.5886, 87872.07
516.0707, 88302.56
516.5528, 88736.53
517.0349, 89179.48
517.5170, 89612.70
517.9991, 90013.23
518.4813, 90408.40
518.9634, 90823.09
519.4455, 91203.59
519.9276, 91702.52
520.4097, 92403.46
520.8918, 93254.40
521.3740, 93979.86
521.8561, 94547.35
522.3382, 95096.99
522.8203, 95725.99
523.3024, 96424.19
523.7845, 97098.17
524.2667, 97737.08
524.7488, 98389.91
525.2309, 99164.77
525.7130, 100030.1
526.1951, 100856.7
526.6772, 101577.8
527.1594, 102272.4
527.6415, 103052.0
528.1236, 103887.2
528.6057, 104667.5
529.0878, 105284.2
529.5699, 105843.9
530.0521, 106414.7
530.5342, 107014.3
531.0163, 107609.6
531.4984, 108226.5
531.9805, 108824.2
532.4626, 109362.3
532.9448, 109834.0
533.4269, 110244.6
533.9090, 110573.0
534.3911, 110838.4
534.8732, 111108.9
535.3553, 111419.5
535.8375, 111675.8
536.3196, 111840.8
536.8017, 111916.9
537.2838, 111887.6
537.7659, 111737.2
538.2480, 111531.8
538.7302, 111335.4
539.2123, 111144.4
539.6944, 110953.6
540.1765, 110776.4
540.6586, 110571.7
541.1407, 110242.6
541.6229, 109822.7
542.1050, 109428.3
542.5871, 109181.6
543.0692, 108948.6
543.5513, 108577.1
544.0334, 108064.1
544.5156, 107610.8
544.9977, 107392.0
545.4798, 107225.2
545.9619, 106962.8
546.4440, 106444.2
546.9261, 106027.0
547.4083, 105834.6
547.8904, 105758.7
548.3725, 105607.8
548.8546, 105342.0
549.3367, 105064.6
549.8188, 104797.4
550.3010, 104539.7
550.7831, 104291.4
551.2652, 104060.7
551.7473, 103811.0
552.2294, 103499.2
552.7115, 103134.1
553.1937, 102824.9
553.6758, 102588.1
554.1579, 102374.4
554.6400, 102133.1
555.1221, 101865.1
555.6042, 101577.6
556.0864, 101253.5
556.5685, 100926.0
557.0506, 100644.1
557.5327, 100392.0
558.0148, 100114.9
558.4969, 99766.89
558.9791, 99398.63
559.4612, 99029.52
559.9433, 98651.36
560.4254, 98333.84
560.9075, 98121.94
561.3896, 97959.98
561.8718, 97796.49
562.3539, 97641.91
562.8360, 97466.50
563.3181, 97262.24
563.8002, 97040.54
564.2823, 96817.52
564.7645, 96587.87
565.2466, 96390.04
565.7287, 96250.83
566.2108, 96157.88
566.6929, 96057.89
567.1750, 95951.87
567.6572, 95833.48
568.1393, 95668.32
568.6214, 95493.60
569.1035, 95407.19
569.5856, 95446.55
570.0677, 95479.48
570.5499, 95362.73
571.0320, 95173.77
571.5141, 95034.55
571.9962, 95051.05
572.4783, 95064.60
572.9604, 95008.48
573.4426, 94893.38
573.9247, 94777.09
574.4068, 94660.85
574.8889, 94553.25
575.3710, 94455.93
575.8531, 94367.60
576.3353, 94302.69
576.8174, 94265.50
577.2995, 94246.23
577.7816, 94238.45
578.2637, 94243.34
578.7458, 94247.21
579.2280, 94246.65
579.7101, 94246.84
580.1922, 94258.92
580.6743, 94281.03
581.1564, 94302.73
581.6385, 94313.73
582.1207, 94324.57
582.6028, 94351.13
583.0849, 94391.59
583.5670, 94433.06
584.0491, 94423.05
584.5313, 94439.66
585.0134, 94568.97
585.4955, 94883.05
585.9776, 95113.30
586.4597, 95095.69
586.9418, 94998.24
587.4240, 95013.10
587.9061, 95220.83
588.3882, 95424.82
588.8703, 95612.98
589.3524, 95781.65
589.8345, 95910.30
590.3167, 95984.15
590.7988, 96074.67
591.2809, 96196.39
591.7630, 96356.98
592.2451, 96621.40
592.7272, 96994.16
593.2094, 97360.09
593.6915, 97580.91
594.1736, 97735.30
594.6557, 97988.04
595.1378, 98380.22
595.6199, 98787.74
596.1021, 99091.63
596.5842, 99357.56
597.0663, 99680.60
597.5485, 100088.5
598.0306, 100558.2
598.5127, 101113.9
598.9948, 101733.5
599.4769, 102327.6
599.9590, 102865.9
600.4412, 103416.2
600.9233, 103990.2
601.4054, 104589.4
601.8875, 105237.8
602.3696, 105947.3
602.8517, 106666.3
603.3339, 107329.6
603.8160, 107946.4
604.2981, 108562.1
604.7802, 109172.2
605.2623, 109797.7
605.7444, 110446.7
606.2266, 111130.1
606.7087, 111846.7
607.1908, 112649.0
607.6729, 113446.5
608.1550, 114184.4
608.6371, 114863.2
609.1193, 115509.6
609.6014, 116090.1
610.0835, 116674.2
610.5656, 117284.5
611.0477, 117925.4
611.5298, 118576.8
612.0120, 119256.2
612.4941, 119921.4
612.9762, 120536.2
613.4583, 121086.4
613.9404, 121630.9
614.4225, 122173.5
614.9047, 122702.7
615.3868, 123193.2
615.8689, 123653.9
616.3510, 124149.3
616.8331, 124704.0
617.3152, 125294.0
617.7974, 125939.0
618.2795, 126603.2
618.7616, 127181.9
619.2437, 127540.9
619.7258, 127846.4
620.2079, 128236.8
620.6901, 128716.9
621.1722, 129169.5
621.6543, 129505.9
