##NAMES=Chevkinite-(Ce)
##RRUFFID=R060282
##IDEAL CHEMISTRY=Ce^3+^_4_(Ti^4+^,Fe^2+^,Fe^3+^)_5_O_8_(Si_2_O_7_)_2_
##LOCALITY=Arondu, Basha Valley, Baltistan, Pakistan
##OWNER=RRUFF
##SOURCE=Herb Obodda
##DESCRIPTION=Black fragment
##STATUS=The identification of this mineral has been confirmed by X-ray diffraction and chemical analysis
##URL=rruff.info/R060282
##MEASURED CHEMISTRY=(Ce_2.04_La_0.79_Nd_0.75_Ca_0.42_)_Σ=4_(Ti_2.79_Fe^2+^_1.83_Fe^3+^_0.14_Mg_0.11_Th_0.05_Nb^5+^_0.05_Al_0.03_)_Σ=5_O_8_(Si_2.00_O_7_)_2_ ; lighter phase
90.49219, 20.81512
90.97430, 21.74969
91.45642, 22.08273
91.93854, 20.99984
92.42065, 19.55500
92.90277, 19.71263
93.38489, 21.96083
93.86700, 24.16047
94.34912, 22.78943
94.83124, 18.51116
95.31335, 15.18612
95.79547, 16.21684
96.27759, 20.45967
96.75970, 23.10175
97.24182, 23.09634
97.72394, 21.64573
98.20605, 21.44729
98.68817, 22.64654
99.17029, 23.91842
99.65240, 23.98078
100.1345, 22.71257
100.6166, 22.07631
101.0988, 22.60601
101.5809, 24.15192
102.0630, 25.74156
102.5451, 27.91259
103.0272, 29.20059
103.5093, 27.03696
103.9915, 18.94411
104.4736, 14.00114
104.9557, 16.03833
105.4378, 27.21223
105.9199, 33.07303
106.4020, 31.57161
106.8842, 25.80208
107.3663, 20.94087
107.8484, 16.68857
108.3305, 13.75014
108.8126, 12.53106
109.2947, 14.44226
109.7769, 15.72594
110.2590, 15.82411
110.7411, 15.19920
111.2232, 15.28499
111.7053, 17.38982
112.1874, 19.30835
112.6696, 20.03307
113.1517, 17.73443
113.6338, 16.10515
114.1159, 16.52182
114.5980, 18.54075
115.0801, 18.95788
115.5623, 14.90255
116.0444, 9.973195
116.5265, 6.963584
117.0086, 9.068432
117.4907, 11.01923
117.9728, 10.20586
118.4550, 6.459611
118.9371, 3.570454
119.4192, 4.075707
119.9013, 6.219691
120.3834, 7.758165
120.8655, 7.525355
121.3477, 6.518997
121.8298, 4.954365
122.3119, 2.541893
122.7940, 1.305230
123.2761, 3.911631
123.7582, 8.879974
124.2404, 12.91176
124.7225, 13.86335
125.2046, 13.03326
125.6867, 11.90459
126.1688, 10.59290
126.6509, 9.264456
127.1331, 7.648304
127.6152, 5.957893
128.0973, 5.253632
128.5794, 6.919459
129.0615, 10.12985
129.5436, 12.95942
130.0258, 15.04692
130.5079, 16.50294
130.9900, 17.38879
131.4721, 17.69733
131.9542, 17.91530
132.4363, 18.92226
132.9185, 20.46651
133.4006, 20.72199
133.8827, 18.64940
134.3648, 15.01494
134.8469, 12.37182
135.3290, 10.78195
135.8112, 9.909935
136.2933, 8.864578
136.7754, 7.480524
137.2575, 8.356679
137.7396, 13.14007
138.2217, 21.62082
138.7039, 29.65519
139.1860, 38.15516
139.6681, 44.76896
140.1502, 44.56111
140.6323, 34.95979
141.1144, 27.12120
141.5966, 26.03541
142.0787, 33.58051
142.5608, 39.43926
143.0429, 42.79365
143.5250, 44.91350
144.0071, 49.19242
144.4893, 58.08552
144.9714, 65.08379
145.4535, 66.61777
145.9356, 58.32944
146.4177, 53.32729
146.8998, 52.41331
147.3820, 54.97026
147.8641, 58.66603
148.3462, 65.71859
148.8283, 71.78013
149.3104, 74.45848
149.7925, 69.55003
150.2747, 66.71507
150.7568, 67.33856
151.2389, 71.10741
151.7210, 74.31720
152.2031, 75.82737
152.6852, 77.43628
153.1674, 80.28148
153.6495, 86.71146
154.1316, 91.94819
154.6137, 94.92426
155.0958, 95.58757
155.5779, 96.34246
156.0601, 97.73643
156.5422, 99.22133
157.0243, 100.3115
157.5064, 100.3346
157.9885, 100.5001
158.4706, 101.0548
158.9528, 101.9969
159.4349, 103.5050
159.9170, 106.0599
160.3991, 109.0767
160.8812, 111.8794
161.3633, 114.6943
161.8455, 116.9173
162.3276, 118.1861
162.8097, 118.3271
163.2918, 118.1423
163.7739, 116.8999
164.2560, 115.5337
164.7382, 114.9904
165.2203, 118.3865
165.7024, 122.3359
166.1845, 124.5049
166.6666, 124.2469
167.1487, 123.4901
167.6309, 123.1592
168.1130, 123.1017
168.5951, 123.0031
169.0772, 122.0834
169.5593, 121.3826
170.0414, 122.1221
170.5236, 125.3468
171.0057, 128.0637
171.4878, 126.9231
171.9699, 123.2349
172.4520, 121.0024
172.9341, 124.1304
173.4163, 129.3183
173.8984, 132.6498
174.3805, 132.8681
174.8626, 131.7407
175.3447, 130.4066
175.8268, 128.9894
176.3090, 128.0873
176.7911, 128.3636
177.2732, 129.3713
177.7553, 130.4402
178.2374, 131.5685
178.7195, 132.4996
179.2017, 133.0916
179.6838, 133.3168
180.1659, 132.7984
180.6480, 130.3338
181.1301, 126.8873
181.6122, 124.7286
182.0944, 125.0107
182.5765, 126.5472
183.0586, 127.1749
183.5407, 126.8972
184.0228, 126.9333
184.5049, 129.4568
184.9871, 133.5060
185.4692, 135.3728
185.9513, 132.5704
186.4334, 127.3546
186.9155, 125.0533
187.3976, 125.8119
187.8798, 127.8599
188.3619, 129.9893
188.8440, 132.0943
189.3261, 133.3163
189.8082, 133.1126
190.2903, 131.8227
190.7725, 130.6224
191.2546, 129.5033
191.7367, 128.4342
192.2188, 126.9874
192.7009, 125.2186
193.1830, 124.5394
193.6652, 126.0109
194.1473, 129.2089
194.6294, 131.4288
195.1115, 132.6196
195.5936, 133.0271
196.0757, 132.6253
196.5579, 131.3722
197.0400, 130.5413
197.5221, 131.0413
198.0042, 132.7226
198.4863, 132.8796
198.9684, 130.9305
199.4506, 128.7480
199.9327, 130.0659
200.4148, 135.4759
200.8969, 139.0594
201.3790, 137.0899
201.8611, 129.2629
202.3433, 125.6039
202.8254, 127.2990
203.3075, 131.2538
203.7896, 131.9090
204.2717, 128.6006
204.7538, 125.4195
205.2360, 124.2486
205.7181, 125.3315
206.2002, 126.0187
206.6823, 125.9728
207.1644, 125.9303
207.6465, 127.6055
208.1287, 131.5797
208.6108, 135.1733
209.0929, 137.2964
209.5750, 137.8868
210.0571, 137.1537
210.5392, 134.4711
211.0214, 131.0451
211.5035, 129.4556
211.9856, 130.1278
212.4677, 131.4812
212.9498, 133.0707
213.4319, 135.1720
213.9140, 136.1726
214.3962, 135.5724
214.8783, 134.1791
215.3604, 133.9744
215.8425, 135.4416
216.3246, 136.9943
216.8067, 137.8481
217.2889, 137.6854
217.7710, 137.9359
218.2531, 138.8857
218.7352, 140.1186
219.2173, 140.6779
219.6994, 140.4998
220.1816, 139.7621
220.6637, 138.3762
221.1458, 135.8772
221.6279, 134.0560
222.1100, 132.9691
222.5921, 132.5511
223.0743, 132.6828
223.5564, 133.6063
224.0385, 134.6602
224.5206, 135.5742
225.0027, 136.4571
225.4848, 136.9272
225.9670, 136.8000
226.4491, 136.3155
226.9312, 136.1294
227.4133, 136.4627
227.8954, 136.7374
228.3775, 136.5645
228.8597, 135.3921
229.3418, 135.2182
229.8239, 136.7312
230.3060, 139.0756
230.7881, 139.7186
231.2702, 137.6773
231.7524, 135.4193
232.2345, 134.0212
232.7166, 133.5611
233.1987, 133.7333
233.6808, 134.6560
234.1629, 136.1689
234.6451, 138.0702
235.1272, 141.2792
235.6093, 143.4917
236.0914, 143.4534
236.5735, 139.6972
237.0556, 137.0429
237.5378, 135.6089
238.0199, 135.2426
238.5020, 135.7081
238.9841, 137.7711
239.4662, 139.5467
239.9483, 140.0654
240.4305, 138.2995
240.9126, 137.7747
241.3947, 139.2587
241.8768, 141.7410
242.3589, 142.6460
242.8410, 141.1217
243.3232, 139.3224
243.8053, 138.0083
244.2874, 136.8302
244.7695, 137.1315
245.2516, 139.8927
245.7337, 143.7501
246.2159, 145.5596
246.6980, 144.3263
247.1801, 142.6008
247.6622, 141.0833
248.1443, 139.1224
248.6264, 139.4759
249.1086, 143.7430
249.5907, 149.5494
250.0728, 151.7155
250.5549, 148.1403
251.0370, 144.4637
251.5191, 142.9050
252.0013, 144.2238
252.4834, 145.1579
252.9655, 145.5609
253.4476, 145.6562
253.9297, 145.8582
254.4118, 146.2486
254.8940, 146.5850
255.3761, 146.7775
255.8582, 146.8000
256.3403, 146.7449
256.8224, 146.4568
257.3046, 146.2103
257.7867, 146.5576
258.2688, 147.8851
258.7509, 149.0070
259.2330, 149.5256
259.7151, 149.3857
260.1973, 148.9248
260.6794, 147.8374
261.1615, 146.7394
261.6436, 146.7645
262.1257, 148.6308
262.6078, 149.8302
263.0900, 149.1676
263.5721, 146.2650
264.0542, 145.3062
264.5363, 146.9421
265.0184, 149.7250
265.5005, 151.9394
265.9827, 153.5039
266.4648, 154.6618
266.9469, 155.3607
267.4290, 155.5836
267.9111, 155.9848
268.3932, 156.6057
268.8754, 157.3352
269.3575, 158.1642
269.8396, 159.2728
270.3217, 159.8252
270.8038, 159.4737
271.2859, 158.2722
271.7681, 157.4150
272.2502, 157.1166
272.7323, 156.7217
273.2144, 155.2670
273.6965, 152.3702
274.1786, 150.4583
274.6608, 150.1604
275.1429, 151.3129
275.6250, 152.8909
276.1071, 155.0933
276.5892, 157.1495
277.0714, 158.1559
277.5535, 157.9845
278.0356, 158.0117
278.5177, 158.5039
278.9998, 159.3847
279.4819, 160.5075
279.9641, 162.0288
280.4462, 163.1921
280.9283, 163.4887
281.4104, 162.9195
281.8925, 161.2307
282.3746, 157.7229
282.8568, 153.5704
283.3389, 152.5490
283.8210, 154.9987
284.3031, 157.9352
284.7852, 159.2859
285.2673, 159.1174
285.7495, 158.7752
286.2316, 158.2855
286.7137, 157.8875
287.1958, 158.3213
287.6779, 159.6197
288.1600, 160.6667
288.6422, 160.2915
289.1243, 158.8063
289.6064, 158.6804
290.0885, 160.4319
290.5706, 162.7913
291.0527, 163.6331
291.5349, 163.0456
292.0170, 162.3000
292.4991, 162.2918
292.9812, 162.7243
293.4633, 162.4158
293.9454, 161.1960
294.4276, 159.7022
294.9097, 158.5186
295.3918, 157.6961
295.8739, 157.5522
296.3560, 158.9534
296.8381, 161.0738
297.3203, 161.7007
297.8024, 160.6564
298.2845, 159.3475
298.7666, 159.8565
299.2487, 161.4333
299.7308, 161.7708
300.2130, 158.1187
300.6951, 153.3210
301.1772, 152.6983
301.6593, 156.2328
302.1414, 160.0243
302.6235, 160.6815
303.1057, 159.1154
303.5878, 157.0562
304.0699, 154.1412
304.5520, 151.7527
305.0341, 152.0786
305.5162, 154.8213
305.9984, 157.4934
306.4805, 157.8302
306.9626, 157.0975
307.4447, 157.1390
307.9268, 159.0830
308.4089, 161.1104
308.8911, 161.7366
309.3732, 161.1019
309.8553, 159.7871
310.3374, 157.2758
310.8195, 154.6427
311.3016, 153.1475
311.7838, 153.6004
312.2659, 154.0520
312.7480, 152.9730
313.2301, 150.8980
313.7122, 149.1328
314.1943, 148.1151
314.6765, 147.7239
315.1586, 147.9615
315.6407, 148.9568
316.1228, 150.1161
316.6049, 151.5933
317.0870, 152.9906
317.5692, 153.6370
318.0513, 152.3931
318.5334, 151.0830
319.0155, 150.5456
319.4976, 150.8842
319.9797, 151.7107
320.4619, 154.0060
320.9440, 156.3386
321.4261, 157.0864
321.9082, 153.6788
322.3903, 150.7500
322.8724, 149.8920
323.3546, 151.1903
323.8367, 152.6800
324.3188, 154.7075
324.8009, 156.4110
325.2830, 157.1156
325.7651, 155.0042
326.2473, 153.8369
326.7294, 154.7922
327.2115, 157.5287
327.6936, 159.3083
328.1757, 159.5147
328.6578, 159.0511
329.1400, 158.3274
329.6221, 156.0408
330.1042, 155.2940
330.5863, 157.1676
331.0684, 160.6290
331.5505, 162.5744
332.0327, 161.9079
332.5148, 161.0341
332.9969, 160.9891
333.4790, 162.4140
333.9611, 162.8345
334.4432, 161.6867
334.9254, 159.8546
335.4075, 158.8675
335.8896, 158.9934
336.3717, 159.4207
336.8538, 160.0144
337.3359, 160.8328
337.8180, 161.1209
338.3001, 160.5114
338.7823, 159.9345
339.2644, 160.7148
339.7465, 163.3200
340.2286, 165.2493
340.7107, 165.8204
341.1928, 165.1883
341.6750, 164.2241
342.1571, 162.7395
342.6392, 161.5615
343.1213, 161.4354
343.6034, 162.3710
344.0855, 163.6796
344.5677, 165.4340
345.0498, 167.2916
345.5319, 168.4792
346.0140, 169.0001
346.4961, 168.7845
346.9782, 167.2660
347.4604, 164.8042
347.9425, 163.3124
348.4246, 163.1029
348.9067, 163.4485
349.3888, 163.1040
349.8709, 162.2694
350.3531, 162.0477
350.8352, 163.1223
351.3173, 165.1526
351.7994, 168.1854
352.2815, 172.3903
352.7636, 175.3535
353.2458, 173.0126
353.7279, 167.6956
354.2100, 164.4724
354.6921, 167.1441
355.1742, 171.5486
355.6563, 173.3316
356.1385, 172.6573
356.6206, 171.4025
357.1027, 170.1316
357.5848, 169.2636
358.0669, 169.2761
358.5490, 170.3685
359.0312, 172.2538
359.5133, 175.9872
359.9954, 180.6226
360.4775, 183.2943
360.9596, 180.8471
361.4417, 177.1244
361.9239, 174.4996
362.4060, 173.1648
362.8881, 173.4680
363.3702, 177.8444
363.8523, 183.5084
364.3344, 186.1901
364.8166, 181.0417
365.2987, 175.9478
365.7808, 174.2381
366.2629, 176.4548
366.7450, 178.5412
367.2271, 180.0227
367.7093, 181.0289
368.1914, 181.6738
368.6735, 181.9002
369.1556, 181.8407
369.6377, 181.1429
370.1198, 179.9563
370.6020, 179.7363
371.0841, 181.8055
371.5662, 183.6141
372.0483, 183.5912
372.5304, 179.6279
373.0125, 177.8812
373.4947, 179.3326
373.9768, 182.7734
374.4589, 185.4873
374.9410, 187.4381
375.4231, 188.7248
375.9052, 189.1516
376.3874, 188.5097
376.8695, 188.8624
377.3516, 190.6977
377.8337, 192.7139
378.3158, 193.0297
378.7979, 191.3503
379.2801, 190.2410
379.7622, 190.6478
380.2443, 192.1415
380.7264, 192.6299
381.2085, 191.9620
381.6906, 191.3321
382.1728, 191.6497
382.6549, 192.8681
383.1370, 194.9707
383.6191, 198.5566
384.1012, 201.9760
384.5833, 201.6535
385.0655, 198.1056
385.5476, 195.2560
386.0297, 195.9084
386.5118, 198.6369
386.9939, 201.0707
387.4760, 203.0562
387.9582, 204.4072
388.4403, 204.1833
388.9224, 203.2252
389.4045, 203.2686
389.8866, 205.9810
390.3687, 209.3415
390.8509, 211.7749
391.3330, 213.2845
391.8151, 214.2010
392.2972, 214.0775
392.7793, 213.7308
393.2614, 214.0832
393.7436, 216.7050
394.2257, 218.1479
394.7078, 214.9206
395.1899, 209.1952
395.6720, 206.6752
396.1541, 212.7798
396.6363, 219.6228
397.1184, 223.2175
397.6005, 221.9363
398.0826, 221.2520
398.5647, 222.4751
399.0468, 224.5628
399.5290, 226.2509
400.0111, 228.1419
400.4932, 228.8430
400.9753, 226.9714
401.4574, 222.5481
401.9395, 221.7994
402.4217, 227.7113
402.9038, 234.1367
403.3859, 236.6921
403.8680, 233.1134
404.3501, 231.1132
404.8322, 231.7261
405.3144, 233.9950
405.7965, 235.3390
406.2786, 235.5121
406.7607, 235.6053
407.2428, 236.1451
407.7249, 237.1527
408.2071, 237.8649
408.6892, 238.1380
409.1713, 238.5424
409.6534, 240.1162
410.1355, 242.7707
410.6176, 244.7849
411.0998, 245.3534
411.5819, 245.1674
412.0640, 246.1437
412.5461, 248.2194
413.0282, 249.9861
413.5103, 249.6715
413.9925, 248.3366
414.4746, 248.3326
414.9567, 250.3431
415.4388, 252.8707
415.9209, 254.2306
416.4030, 254.8800
416.8852, 255.9960
417.3673, 259.2519
417.8494, 262.4904
418.3315, 263.7894
418.8136, 263.0111
419.2957, 261.6771
419.7779, 259.7702
420.2600, 258.0946
420.7421, 257.4860
421.2242, 258.7109
421.7063, 260.4764
422.1884, 262.5256
422.6706, 264.8159
423.1527, 267.2639
423.6348, 271.5223
424.1169, 274.5694
424.5990, 274.5251
425.0811, 268.6095
425.5633, 265.7168
426.0454, 268.4385
426.5275, 273.3489
427.0096, 276.1119
427.4917, 275.1904
427.9738, 274.3888
428.4560, 274.3104
428.9381, 274.9609
429.4202, 276.6384
429.9023, 279.8475
430.3844, 283.1066
430.8665, 285.3621
431.3487, 286.5543
431.8308, 287.0349
432.3129, 286.7076
432.7950, 285.8436
433.2771, 284.9765
433.7592, 284.1161
434.2414, 283.1294
434.7235, 281.5959
435.2056, 279.8368
435.6877, 279.4023
436.1698, 280.3802
436.6519, 281.5709
437.1341, 281.4191
437.6162, 280.5189
438.0983, 280.5793
438.5804, 282.7683
439.0625, 285.0978
439.5446, 285.4190
440.0268, 283.9584
440.5089, 281.5355
440.9910, 277.7144
441.4731, 273.6882
441.9552, 270.0502
442.4373, 266.6303
442.9195, 265.2390
443.4016, 269.5221
443.8837, 275.4768
444.3658, 278.2355
444.8479, 274.1753
445.3300, 268.9052
445.8122, 263.1186
446.2943, 257.1735
446.7764, 253.2978
447.2585, 253.7789
447.7406, 254.9033
448.2227, 254.8502
448.7049, 253.2288
449.1870, 251.0905
449.6691, 247.8383
450.1512, 244.3754
450.6333, 242.1796
451.1154, 241.4550
451.5976, 241.6124
452.0797, 243.0952
452.5618, 245.6820
453.0439, 245.5822
453.5260, 242.1380
454.0081, 238.0769
454.4903, 235.6857
454.9724, 234.9546
455.4545, 233.6490
455.9366, 231.2736
456.4187, 228.7223
456.9008, 227.9498
457.3830, 228.6870
457.8651, 228.9339
458.3472, 227.8916
458.8293, 225.6888
459.3114, 221.5741
459.7935, 215.6297
460.2757, 211.0897
460.7578, 212.0050
461.2399, 215.5539
461.7220, 217.8054
462.2041, 217.4193
462.6862, 216.0818
463.1684, 214.5247
463.6505, 212.8339
464.1326, 211.2453
464.6147, 209.7628
465.0968, 208.4684
465.5789, 207.8935
466.0611, 208.3657
466.5432, 207.1425
467.0253, 200.1392
467.5074, 193.1161
467.9895, 190.9509
468.4716, 200.3903
468.9538, 206.3229
469.4359, 206.2177
469.9180, 201.9838
470.4001, 199.7233
470.8822, 200.4053
471.3643, 201.3878
471.8465, 201.6991
472.3286, 201.3155
472.8107, 200.4066
473.2928, 198.7686
473.7749, 197.1405
474.2570, 196.7545
474.7392, 197.5960
475.2213, 197.2554
475.7034, 194.7196
476.1855, 191.3023
476.6676, 189.8373
477.1497, 190.1624
477.6319, 190.7819
478.1140, 191.0366
478.5961, 190.9248
479.0782, 190.1965
479.5603, 188.7676
480.0424, 187.6783
480.5246, 188.6523
481.0067, 190.2576
481.4888, 190.3919
481.9709, 186.5036
482.4530, 183.1487
482.9352, 183.3193
483.4173, 186.0377
483.8994, 188.2141
484.3815, 188.0478
484.8636, 187.7276
485.3457, 188.5279
485.8279, 191.1053
486.3100, 192.6553
486.7921, 192.4473
487.2742, 191.3764
487.7563, 190.0943
488.2384, 187.7346
488.7206, 186.7224
489.2027, 187.7972
489.6848, 190.3335
490.1669, 192.2065
490.6490, 193.4259
491.1311, 193.9046
491.6133, 193.2274
492.0954, 191.4238
492.5775, 190.7081
493.0596, 191.2778
493.5417, 192.1249
494.0238, 192.2115
494.5060, 191.6334
494.9881, 190.7269
495.4702, 189.3398
495.9523, 188.0500
496.4344, 187.6148
496.9165, 187.9850
497.3987, 188.9723
497.8808, 191.5863
498.3629, 194.1071
498.8450, 194.2600
499.3271, 191.7445
499.8092, 190.1964
500.2914, 192.7802
500.7735, 196.6518
501.2556, 199.1707
501.7377, 198.6541
502.2198, 197.9239
502.7019, 197.4093
503.1841, 197.1107
503.6662, 197.0244
504.1483, 197.4285
504.6304, 197.7424
505.1125, 197.6736
505.5946, 197.1444
506.0768, 197.3236
506.5589, 198.6869
507.0410, 200.0551
507.5231, 200.0555
508.0052, 198.2175
508.4873, 198.4220
508.9695, 201.7817
509.4516, 206.2786
509.9337, 207.6859
510.4158, 206.1827
510.8979, 205.1622
511.3800, 206.6303
511.8622, 209.4284
512.3443, 211.1165
512.8264, 211.6960
513.3085, 211.4808
513.7906, 209.4587
514.2728, 207.2474
514.7549, 207.3234
515.2370, 210.9466
515.7191, 214.4604
516.2012, 215.3957
516.6833, 214.7737
517.1655, 214.1837
517.6476, 213.9121
518.1297, 213.9820
518.6118, 214.5852
519.0939, 215.6587
519.5760, 216.5114
520.0582, 217.5657
520.5403, 217.9248
521.0224, 216.9712
521.5045, 213.7901
521.9866, 211.9551
522.4688, 211.6857
522.9509, 212.5190
523.4330, 213.9466
523.9151, 215.9867
524.3972, 218.6462
524.8793, 222.2911
525.3615, 226.2148
525.8436, 228.5283
526.3257, 229.2504
526.8078, 229.3445
527.2899, 228.9994
527.7720, 228.5028
528.2542, 228.7540
528.7363, 229.8256
529.2184, 230.5678
529.7005, 229.3472
530.1826, 227.4075
530.6647, 226.5744
531.1469, 228.2724
531.6290, 229.6517
532.1111, 228.0588
532.5932, 225.0738
533.0753, 223.9212
533.5574, 228.0708
534.0396, 231.7549
534.5217, 232.2798
535.0038, 229.2907
535.4859, 228.4680
535.9680, 231.9837
536.4501, 235.6823
536.9323, 237.0209
537.4144, 234.8142
537.8965, 233.6592
538.3786, 233.9775
538.8607, 234.9043
539.3428, 235.1820
539.8250, 234.7846
540.3071, 234.1045
540.7892, 233.1150
541.2713, 232.0357
541.7534, 231.3040
542.2355, 230.9415
542.7177, 231.1692
543.1998, 233.0043
543.6819, 235.2021
544.1640, 235.5199
544.6461, 233.7139
545.1282, 231.8859
545.6104, 232.0323
546.0925, 232.7660
546.5746, 232.4626
547.0567, 229.5080
547.5388, 227.0905
548.0209, 226.4289
548.5031, 227.0684
548.9852, 227.9863
549.4673, 230.2064
549.9494, 231.4281
550.4315, 230.7102
550.9136, 228.0641
551.3958, 226.0493
551.8779, 224.2935
552.3600, 223.7994
552.8421, 226.0520
553.3242, 231.6531
553.8063, 233.9267
554.2885, 232.0082
554.7706, 228.3685
555.2527, 226.0910
555.7348, 225.0113
556.2169, 224.0661
556.6990, 222.7839
557.1812, 221.6957
557.6633, 222.0794
558.1454, 223.4714
558.6275, 224.1266
559.1096, 222.1438
559.5917, 219.6307
560.0739, 218.3443
560.5560, 218.4130
561.0381, 218.7639
561.5202, 219.2938
562.0023, 219.7321
562.4844, 219.8709
562.9666, 219.5152
563.4487, 219.1020
563.9308, 218.7020
564.4129, 218.2421
564.8950, 217.5376
565.3771, 216.2724
565.8593, 215.5453
566.3414, 215.9198
566.8235, 216.9803
567.3056, 216.5000
567.7877, 214.2047
568.2698, 212.3802
568.7520, 212.9574
569.2341, 215.1851
569.7162, 216.3061
570.1983, 216.2233
570.6804, 215.1557
571.1625, 211.6804
571.6447, 207.7695
572.1268, 207.0385
572.6089, 211.9531
573.0910, 216.7041
573.5731, 216.9290
574.0552, 214.5553
574.5374, 212.9563
575.0195, 214.1405
575.5016, 215.3549
575.9837, 215.7305
576.4658, 215.2890
576.9479, 214.5994
577.4301, 212.5330
577.9122, 211.6027
578.3943, 213.4824
578.8764, 219.1525
579.3585, 221.8525
579.8406, 220.9126
580.3228, 218.4932
580.8049, 216.4310
581.2870, 214.7520
581.7691, 213.8544
582.2512, 213.8055
582.7333, 214.5892
583.2155, 217.0820
583.6975, 220.5234
