##NAMES=Chevkinite-(Ce)
##RRUFFID=R060419
##IDEAL CHEMISTRY=Ce^3+^_4_(Ti^4+^,Fe^2+^,Fe^3+^)_5_O_8_(Si_2_O_7_)_2_
##LOCALITY=Arondu, Basha Valley, Baltistan, Pakistan
##OWNER=RRUFF
##SOURCE=Herb Obodda
##DESCRIPTION=Black resinous fragment
##STATUS=The identification of this mineral has been confirmed by X-ray diffraction and chemical analysis
##URL=rruff.info/R060419
##MEASURED CHEMISTRY=(Ce_1.89_La_0.88_Nd_0.63_Ca_0.47_Th_0.13_)_Σ=4_(Ti_2.80_Fe^2+^_1.46_Fe^3+^_0.74_)_Σ=5_O_8_(Si_2.00_O_7_)_2_
168.6560, 23.35753
169.1381, 24.19545
169.6203, 25.49636
170.1024, 26.40112
170.5845, 26.78149
171.0666, 26.85012
171.5487, 26.54956
172.0309, 25.91526
172.5130, 25.40127
172.9951, 25.26624
173.4772, 25.45805
173.9593, 25.90260
174.4414, 27.10943
174.9236, 28.26826
175.4057, 28.26818
175.8878, 27.10220
176.3699, 25.86867
176.8520, 25.44705
177.3341, 25.62836
177.8163, 25.96786
178.2984, 26.41026
178.7805, 26.84804
179.2626, 27.15794
179.7447, 27.34276
180.2268, 27.31584
180.7090, 26.85078
181.1911, 26.07034
181.6732, 25.35535
182.1553, 24.81251
182.6374, 24.46277
183.1195, 24.42935
183.6017, 24.75095
184.0838, 25.16748
184.5659, 25.37693
185.0480, 25.41360
185.5301, 25.46038
186.0123, 25.65726
186.4944, 25.93743
186.9765, 26.01818
187.4586, 25.82903
187.9407, 24.97697
188.4228, 25.69208
188.9050, 26.03360
189.3871, 26.02166
189.8692, 24.59751
190.3513, 24.99694
190.8334, 24.66557
191.3155, 24.30422
191.7977, 24.96028
192.2798, 23.74154
192.7619, 24.38149
193.2440, 24.27949
193.7261, 24.51706
194.2082, 23.79400
194.6904, 23.66490
195.1725, 23.61412
195.6546, 23.64282
196.1367, 23.75873
196.6188, 23.96312
197.1009, 24.23230
197.5831, 24.70529
198.0652, 25.38436
198.5473, 25.46085
199.0294, 24.71003
199.5115, 23.59436
199.9937, 23.10012
200.4758, 23.30932
200.9579, 23.63301
201.4400, 23.72529
201.9221, 23.55961
202.4042, 23.56734
202.8864, 23.85649
203.3685, 24.24741
203.8506, 24.22712
204.3327, 23.66789
204.8148, 23.21484
205.2969, 23.32792
205.7791, 24.12629
206.2612, 24.61122
206.7433, 24.68015
207.2254, 24.44044
207.7075, 24.09268
208.1896, 23.54226
208.6718, 23.15575
209.1539, 23.23746
209.6360, 23.94524
210.1181, 24.26761
210.6002, 23.97616
211.0823, 23.36373
211.5645, 23.33214
212.0466, 24.12744
212.5287, 24.92278
213.0108, 25.28857
213.4929, 25.17943
213.9750, 24.78377
214.4572, 23.89215
214.9393, 22.80909
215.4214, 22.49218
215.9035, 23.24066
216.3856, 24.14648
216.8678, 24.75145
217.3499, 25.06639
217.8320, 25.04567
218.3141, 24.53959
218.7962, 23.73897
219.2783, 23.23015
219.7605, 23.03191
220.2426, 23.09661
220.7247, 23.47291
221.2068, 24.36064
221.6889, 24.98102
222.1710, 25.25164
222.6532, 25.24413
223.1353, 25.17533
223.6174, 25.07290
224.0995, 24.86288
224.5816, 24.43323
225.0637, 23.49614
225.5459, 23.03034
226.0280, 22.94166
226.5101, 23.36655
226.9922, 24.71426
227.4743, 24.93865
227.9564, 25.06620
228.4386, 25.10211
228.9207, 24.77188
229.4028, 24.91444
229.8849, 24.86753
230.3670, 24.81285
230.8492, 25.02194
231.3313, 24.74497
231.8134, 24.94988
232.2955, 24.96244
232.7776, 25.06303
233.2597, 24.99571
233.7419, 24.83199
234.2240, 24.52406
234.7061, 24.29568
235.1882, 24.23830
235.6703, 24.12333
236.1524, 23.79508
236.6346, 22.96032
237.1167, 22.61454
237.5988, 22.94771
238.0809, 23.69551
238.5630, 24.26956
239.0451, 24.67509
239.5273, 24.89067
240.0094, 24.87992
240.4915, 24.53568
240.9736, 24.23349
241.4557, 23.94110
241.9378, 23.70157
242.4200, 23.62858
242.9021, 23.86335
243.3842, 24.04083
243.8663, 23.97284
244.3484, 23.46761
244.8306, 23.32215
245.3127, 23.76351
245.7948, 24.44541
246.2769, 24.68213
246.7590, 24.14509
247.2411, 23.72061
247.7233, 23.77695
248.2054, 24.52249
248.6875, 24.95091
249.1696, 24.89051
249.6517, 24.62546
250.1338, 24.64968
250.6160, 25.19784
251.0981, 25.61184
251.5802, 25.64205
252.0623, 25.19207
252.5444, 24.85690
253.0265, 24.65228
253.5087, 24.55203
253.9908, 24.54217
254.4729, 24.69326
254.9550, 24.78609
255.4371, 24.69914
255.9192, 24.37512
256.4014, 24.37377
256.8835, 24.87527
257.3656, 25.52104
257.8477, 25.87752
258.3298, 25.83842
258.8120, 25.74359
259.2941, 25.64382
259.7762, 25.53138
260.2583, 25.57573
260.7404, 25.89738
261.2225, 26.22616
261.7047, 26.22936
262.1868, 25.72552
262.6689, 25.37227
263.1510, 25.33650
263.6331, 25.60918
264.1152, 25.86734
264.5974, 26.09352
265.0795, 26.32965
265.5616, 26.65330
266.0437, 27.16351
266.5258, 27.44038
267.0079, 27.34373
267.4901, 26.92357
267.9722, 26.59957
268.4543, 26.32508
268.9364, 26.23438
269.4185, 26.54641
269.9006, 27.43018
270.3828, 27.96085
270.8649, 27.90558
271.3470, 27.40146
271.8291, 27.08093
272.3112, 26.95228
272.7933, 26.97587
273.2755, 27.21284
273.7576, 27.73519
274.2397, 27.94620
274.7218, 27.66941
275.2039, 27.09532
275.6860, 26.83680
276.1682, 26.96539
276.6503, 27.13122
277.1324, 27.03972
277.6145, 26.65104
278.0966, 26.60605
278.5787, 27.08414
279.0609, 27.77885
279.5430, 27.94364
280.0251, 27.48906
280.5072, 27.05644
280.9893, 27.02624
281.4715, 27.39636
281.9536, 27.73456
282.4357, 28.02312
282.9178, 28.27385
283.3999, 28.57239
283.8820, 28.93341
284.3642, 29.07080
284.8463, 28.63236
285.3284, 27.70446
285.8105, 27.39370
286.2926, 27.80773
286.7747, 28.50006
287.2569, 28.87677
287.7390, 28.94745
288.2211, 28.98014
288.7032, 29.10399
289.1853, 29.28105
289.6674, 29.32338
290.1496, 29.21602
290.6317, 29.07681
291.1138, 29.03378
291.5959, 29.07798
292.0780, 29.15506
292.5602, 29.32632
293.0423, 29.49071
293.5244, 29.24895
294.0065, 28.57920
294.4886, 28.04979
294.9707, 28.40048
295.4529, 29.37334
295.9350, 30.01152
296.4171, 29.95881
296.8992, 29.54564
297.3813, 29.29010
297.8634, 29.18958
298.3456, 29.21262
298.8277, 29.55295
299.3098, 29.99074
299.7919, 29.95585
300.2740, 29.12365
300.7561, 28.14432
301.2383, 27.98968
301.7204, 28.50130
302.2025, 28.97141
302.6846, 28.83609
303.1667, 28.41214
303.6488, 28.19715
304.1310, 28.31806
304.6131, 28.49837
305.0952, 28.46139
305.5773, 28.26298
306.0594, 28.05500
306.5415, 27.80630
307.0237, 27.64219
307.5058, 27.74835
307.9879, 28.17854
308.4700, 28.62174
308.9521, 28.91387
309.4343, 29.04997
309.9164, 29.03198
310.3985, 28.71744
310.8806, 28.34579
311.3627, 28.10864
311.8448, 28.01376
312.3270, 27.93499
312.8091, 27.78784
313.2912, 27.61676
313.7733, 27.47427
314.2554, 27.46505
314.7375, 27.41496
315.2197, 27.09593
315.7018, 26.56525
316.1839, 26.32574
316.6660, 27.10965
317.1481, 28.01914
317.6302, 28.28884
318.1124, 27.11884
318.5945, 26.05987
319.0766, 25.63864
319.5587, 25.74580
320.0408, 25.98875
320.5229, 26.45530
321.0051, 26.87606
321.4872, 27.09604
321.9693, 27.02216
322.4514, 26.87260
322.9335, 26.54034
323.4156, 26.17257
323.8978, 26.05313
324.3799, 26.49358
324.8620, 26.96159
325.3441, 27.29801
325.8262, 27.51075
326.3083, 27.52038
326.7905, 27.13257
327.2726, 26.59800
327.7547, 26.23022
328.2368, 25.98976
328.7189, 25.96686
329.2010, 26.29582
329.6832, 27.03091
330.1653, 26.91972
330.6474, 27.65564
331.1295, 28.08985
331.6116, 28.23855
332.0938, 27.24663
332.5759, 27.72758
333.0580, 27.61827
333.5401, 27.48476
334.0222, 28.17301
334.5043, 27.34698
334.9865, 28.02222
335.4686, 28.09818
335.9507, 28.44840
336.4328, 28.20471
336.9149, 28.14447
337.3970, 28.67832
337.8792, 28.88323
338.3613, 28.57117
338.8434, 28.93884
339.3255, 28.09206
339.8076, 28.31096
340.2898, 28.98968
340.7719, 28.70749
341.2540, 29.08600
341.7361, 29.21289
342.2182, 28.19619
342.7003, 29.16829
343.1825, 29.28032
343.6646, 28.50920
344.1467, 29.41316
344.6288, 28.76380
345.1109, 28.66887
345.5930, 28.99120
346.0752, 28.87857
346.5573, 29.45171
347.0394, 29.36419
347.5215, 29.21764
348.0036, 29.32868
348.4857, 29.20216
348.9679, 29.44509
349.4500, 29.25536
349.9321, 29.52544
350.4142, 29.89974
350.8963, 29.47601
351.3784, 29.89714
351.8606, 29.46006
352.3427, 29.09160
352.8248, 28.72861
353.3069, 28.48125
353.7890, 28.36582
354.2711, 28.46461
354.7533, 28.81083
355.2354, 29.12115
355.7175, 29.05387
356.1996, 28.79247
356.6817, 28.65689
357.1638, 28.89528
357.6460, 29.22755
358.1281, 29.48982
358.6102, 29.67399
359.0923, 29.73514
359.5744, 29.51188
360.0565, 29.21149
360.5387, 29.04080
361.0208, 29.16598
361.5029, 29.29469
361.9850, 29.25010
362.4671, 29.09704
362.9492, 29.03589
363.4314, 29.24738
363.9135, 29.48878
364.3956, 29.62502
364.8777, 29.60685
365.3598, 29.55738
365.8419, 29.50096
366.3241, 29.42979
366.8062, 29.33222
367.2883, 29.07332
367.7704, 28.91622
368.2526, 28.98486
368.7347, 29.34402
369.2168, 29.56175
369.6989, 29.57585
370.1810, 29.48237
370.6631, 29.34628
371.1453, 29.00156
371.6274, 28.86703
372.1095, 29.06446
372.5916, 29.53881
373.0737, 29.91479
373.5558, 30.16207
374.0380, 30.36083
374.5201, 30.58529
375.0022, 30.90784
375.4843, 30.98009
375.9664, 30.68204
376.4485, 30.22358
376.9307, 30.02818
377.4128, 30.14480
377.8949, 30.32416
378.3770, 30.47682
378.8591, 30.60365
379.3412, 30.71337
379.8234, 30.78210
380.3055, 30.91431
380.7876, 31.35776
381.2697, 32.08279
381.7518, 32.46079
382.2339, 32.18784
382.7161, 31.57262
383.1982, 31.31340
383.6803, 31.40550
384.1624, 31.65398
384.6445, 32.05585
385.1266, 32.50049
385.6088, 32.66067
386.0909, 32.41478
386.5730, 32.10567
387.0551, 32.16455
387.5372, 32.49287
388.0193, 32.81070
388.5015, 33.08420
388.9836, 33.21019
389.4657, 32.98880
389.9478, 32.39827
390.4299, 31.84369
390.9120, 31.36383
391.3942, 31.15233
391.8763, 31.46576
392.3584, 33.12829
392.8405, 34.63103
393.3226, 35.09963
393.8047, 34.70594
394.2869, 34.23545
394.7690, 33.63905
395.2511, 33.30262
395.7332, 33.54544
396.2154, 34.82320
396.6975, 35.82542
397.1796, 36.21819
397.6617, 36.17939
398.1438, 36.01764
398.6259, 35.40956
399.1081, 35.03698
399.5902, 35.22625
400.0723, 36.11348
400.5544, 36.60678
401.0365, 36.43440
401.5186, 36.06868
402.0008, 35.90538
402.4829, 36.09945
402.9650, 36.18078
403.4471, 35.97152
403.9292, 35.61147
404.4113, 35.78528
404.8935, 36.79354
405.3756, 37.64769
405.8577, 37.70705
406.3398, 36.81479
406.8219, 36.30969
407.3040, 36.25042
407.7862, 36.49409
408.2683, 36.89140
408.7504, 37.44733
409.2325, 38.01014
409.7146, 38.57098
410.1967, 39.08805
410.6789, 39.50712
411.1610, 39.83514
411.6431, 39.90960
412.1252, 39.35472
412.6073, 38.41758
413.0894, 37.82257
413.5716, 37.77219
414.0537, 37.99733
414.5358, 38.27062
415.0179, 38.56829
415.5000, 38.82285
415.9821, 38.90915
416.4643, 38.97695
416.9464, 39.19136
417.4285, 39.56930
417.9106, 40.00030
418.3927, 40.60485
418.8748, 41.15838
419.3570, 41.38447
419.8391, 40.82273
420.3212, 40.27492
420.8033, 40.13315
421.2854, 40.31450
421.7675, 40.41962
422.2497, 40.04673
422.7318, 39.77493
423.2139, 39.96057
423.6960, 40.92024
424.1781, 41.72773
424.6602, 42.32244
425.1424, 42.69644
425.6245, 42.80950
426.1066, 42.16035
426.5887, 41.90789
427.0709, 42.60463
427.5530, 44.24912
428.0351, 44.70777
428.5172, 43.21941
428.9993, 41.59204
429.4814, 41.22646
429.9636, 42.51934
430.4457, 43.55111
430.9278, 44.15388
431.4099, 44.42369
431.8920, 44.54364
432.3741, 44.50874
432.8563, 44.36648
433.3384, 44.06929
433.8205, 43.65686
434.3026, 43.39817
434.7847, 43.29232
435.2668, 43.32971
435.7490, 43.66293
436.2311, 44.16607
436.7132, 44.35129
437.1953, 43.97519
437.6774, 43.38682
438.1595, 42.95530
438.6417, 42.69048
439.1238, 42.63333
439.6059, 43.05484
440.0880, 43.57096
440.5701, 43.72778
441.0522, 43.43113
441.5344, 43.09882
442.0165, 43.03860
442.4986, 43.08054
442.9807, 43.01668
443.4628, 42.60234
443.9449, 42.24164
444.4271, 42.11909
444.9092, 42.20045
445.3913, 42.28071
445.8734, 42.53361
446.3555, 42.59997
446.8376, 42.23548
447.3198, 40.96940
447.8019, 40.18093
448.2840, 40.15316
448.7661, 40.51146
449.2482, 40.76924
449.7303, 41.02231
450.2125, 40.99229
450.6946, 40.49611
451.1767, 39.58399
451.6588, 39.08049
452.1409, 39.14255
452.6230, 39.24013
453.1052, 38.88295
453.5873, 38.00132
454.0694, 37.65712
454.5515, 38.10638
455.0337, 38.76229
455.5158, 38.48215
455.9979, 37.33612
456.4800, 36.40657
456.9621, 36.33137
457.4442, 36.73432
457.9264, 36.71658
458.4085, 36.29114
458.8906, 35.77030
459.3727, 35.28731
459.8548, 34.90806
460.3369, 34.78757
460.8191, 35.05806
461.3012, 35.35289
461.7833, 35.33130
462.2654, 35.11786
462.7475, 34.97163
463.2296, 35.17797
463.7118, 35.33889
464.1939, 35.20603
464.6760, 34.76038
465.1581, 34.27403
465.6402, 33.61547
466.1223, 33.07967
466.6045, 32.88512
467.0866, 33.60171
467.5687, 33.98875
468.0508, 33.79849
468.5329, 33.25372
469.0150, 32.84688
469.4972, 32.69404
469.9793, 32.50237
470.4614, 32.09784
470.9435, 31.44790
471.4256, 31.29646
471.9077, 31.80014
472.3899, 32.49038
472.8720, 33.06513
473.3541, 33.55985
473.8362, 33.46806
474.3183, 32.51284
474.8004, 31.26833
475.2826, 30.94824
475.7647, 31.49525
476.2468, 32.09888
476.7289, 32.36928
477.2110, 32.40038
477.6931, 32.36532
478.1753, 32.26646
478.6574, 32.16242
479.1395, 32.12074
479.6216, 32.09929
480.1037, 32.02120
480.5858, 31.80552
481.0680, 31.64440
481.5501, 31.80512
482.0322, 32.11341
482.5143, 32.20302
482.9964, 31.61285
483.4786, 31.04646
483.9607, 30.89916
484.4428, 31.23083
484.9249, 31.46210
485.4070, 31.47417
485.8892, 31.35196
486.3713, 31.14296
486.8534, 30.62658
487.3355, 30.36231
487.8176, 30.46155
488.2997, 30.78757
488.7819, 31.04984
489.2640, 31.20612
489.7461, 31.40177
490.2282, 31.72626
490.7103, 32.16392
491.1924, 32.37678
491.6746, 32.32993
492.1567, 32.20731
492.6388, 32.10453
493.1209, 32.03804
493.6030, 32.20891
494.0851, 32.71766
494.5673, 33.26849
495.0494, 33.38751
495.5315, 33.16862
496.0136, 32.94704
496.4957, 32.91115
496.9778, 32.93520
497.4600, 32.82270
497.9421, 32.59842
498.4242, 32.50025
498.9063, 32.76958
499.3884, 33.17033
499.8705, 33.52415
500.3527, 33.83581
500.8348, 33.99198
501.3169, 33.84969
501.7990, 33.55251
502.2811, 33.30068
502.7632, 33.04882
503.2454, 32.93595
503.7275, 33.06920
504.2096, 33.41627
504.6917, 33.61590
505.1738, 33.51173
505.6559, 33.46960
506.1381, 33.73215
506.6202, 34.43662
507.1023, 34.85084
507.5844, 34.86770
508.0665, 34.78734
508.5486, 35.09524
509.0308, 35.80628
509.5129, 36.27770
509.9950, 36.26193
510.4771, 35.98975
510.9592, 35.98976
511.4413, 36.23090
511.9235, 36.41972
512.4056, 36.14164
512.8877, 35.77932
513.3698, 36.03711
513.8519, 37.01086
514.3340, 37.90705
514.8162, 38.05594
515.2983, 37.82715
515.7804, 37.67254
516.2625, 37.94122
516.7446, 38.03372
517.2267, 37.38891
517.7089, 36.37948
518.1910, 35.92985
518.6731, 37.00303
519.1552, 37.94960
519.6373, 38.07007
520.1194, 37.26102
520.6016, 36.75137
521.0837, 36.63236
521.5658, 36.71507
522.0479, 36.87060
522.5300, 37.08488
523.0121, 37.44463
523.4943, 38.03082
523.9764, 38.66319
524.4585, 39.02275
524.9406, 39.10095
525.4227, 39.03228
525.9048, 38.74617
526.3870, 38.40398
526.8691, 38.47848
527.3513, 38.94483
527.8334, 39.41505
528.3155, 39.59098
528.7976, 39.60736
529.2797, 39.68847
529.7618, 39.88852
530.2440, 39.99123
530.7261, 39.57383
531.2082, 39.05196
531.6903, 38.96446
532.1724, 40.15384
532.6545, 41.09515
533.1367, 41.15413
533.6188, 40.54774
534.1009, 40.06301
534.5830, 39.82529
535.0651, 39.72339
535.5472, 39.77313
536.0294, 40.01952
536.5115, 40.07099
536.9936, 39.79107
537.4757, 39.50723
537.9578, 39.51081
538.4399, 39.84695
538.9221, 40.22321
539.4042, 40.68317
539.8863, 41.05092
540.3684, 40.85760
540.8505, 40.16478
541.3326, 39.72552
541.8148, 40.06929
542.2969, 40.72077
542.7790, 40.72889
543.2611, 40.17669
543.7432, 39.72864
544.2253, 39.98048
544.7075, 40.48741
545.1896, 40.84548
545.6717, 41.02386
546.1538, 40.91224
546.6359, 40.16327
547.1180, 39.21864
547.6002, 38.55746
548.0823, 38.40995
548.5644, 38.41634
549.0465, 38.64632
549.5286, 38.99018
550.0107, 39.13576
550.4929, 39.04796
550.9750, 38.80321
551.4571, 38.33070
551.9392, 37.62630
552.4213, 37.35134
552.9034, 37.60795
553.3856, 37.96649
553.8677, 38.05490
554.3498, 37.90139
554.8319, 37.87732
555.3140, 38.05364
555.7961, 38.23816
556.2783, 38.14661
556.7604, 37.85644
557.2425, 37.58793
557.7246, 37.45958
558.2067, 37.34883
558.6888, 37.09968
559.1710, 36.75991
559.6531, 36.49426
560.1352, 36.50386
560.6173, 36.51873
561.0994, 36.35100
561.5815, 35.95705
562.0637, 35.63104
562.5458, 35.45781
563.0279, 35.35630
563.5100, 35.26297
563.9921, 35.15938
564.4742, 35.11552
564.9564, 35.24806
565.4385, 35.35120
565.9206, 34.95518
566.4027, 33.89954
566.8848, 33.18950
567.3669, 33.23730
567.8491, 33.77304
568.3312, 33.89470
568.8133, 33.61840
569.2954, 33.37534
569.7775, 33.55373
570.2596, 33.92387
570.7418, 34.02200
571.2239, 33.81377
571.7060, 33.61250
572.1881, 33.79486
572.6702, 34.05326
573.1523, 34.01088
573.6345, 33.32575
574.1166, 32.78283
574.5987, 32.76860
575.0808, 33.06937
575.5629, 33.33199
576.0450, 33.47593
576.5272, 33.60085
577.0093, 33.76908
577.4914, 33.94981
577.9735, 33.91299
578.4556, 33.55779
578.9377, 33.19478
579.4199, 32.99411
579.9020, 32.96292
580.3841, 32.78930
580.8662, 32.42882
581.3483, 32.16549
581.8304, 32.43340
582.3126, 33.05861
582.7947, 33.38114
583.2768, 33.18422
583.7589, 32.94600
584.2410, 33.32439
584.7231, 34.02333
585.2053, 34.45690
585.6874, 34.16510
586.1696, 33.73802
586.6517, 33.38758
587.1338, 33.14008
587.6159, 33.09466
588.0980, 33.45354
588.5801, 33.86202
589.0623, 34.21429
589.5444, 34.53673
590.0265, 34.58806
590.5086, 34.13350
590.9907, 33.70829
591.4728, 33.80748
591.9550, 34.55147
592.4371, 35.01313
592.9192, 35.06182
593.4013, 34.95525
593.8834, 35.06690
594.3655, 35.36631
594.8477, 35.67468
595.3298, 35.99689
595.8119, 36.21737
596.2940, 36.01136
596.7761, 35.53207
597.2582, 35.28721
597.7404, 35.81042
598.2225, 36.45930
598.7046, 36.73258
599.1867, 36.60561
599.6688, 36.59935
600.1509, 36.90095
600.6331, 37.34919
601.1152, 37.90187
601.5973, 38.84056
602.0794, 39.17064
602.5615, 38.49709
603.0436, 37.59051
603.5258, 37.41590
604.0079, 38.16136
604.4900, 38.58319
604.9721, 38.36434
605.4542, 37.89420
605.9363, 38.02441
606.4185, 38.68719
606.9006, 39.29120
607.3827, 39.56636
607.8648, 39.61974
608.3469, 39.50838
608.8290, 39.26880
609.3112, 39.11213
609.7933, 39.20827
610.2754, 39.40177
610.7575, 39.55225
611.2396, 39.61980
611.7217, 39.82446
612.2039, 40.44418
612.6860, 41.08381
613.1681, 41.42487
613.6502, 41.03789
614.1323, 41.11683
614.6144, 41.95937
615.0966, 43.01707
615.5787, 43.44240
616.0608, 43.11373
616.5429, 42.90192
617.0250, 42.98866
617.5071, 43.33434
617.9893, 43.98779
618.4714, 44.89669
618.9535, 45.62508
619.4356, 45.89960
619.9177, 45.90549
620.3998, 45.78368
620.8820, 45.56496
621.3641, 45.47808
621.8462, 45.58728
622.3283, 45.92151
622.8104, 46.61364
623.2925, 47.86946
623.7747, 48.71508
624.2568, 48.55164
624.7389, 48.17144
625.2210, 48.23605
625.7031, 49.07125
626.1852, 49.60220
626.6674, 49.62250
627.1495, 49.48014
627.6316, 49.82904
628.1137, 50.69604
628.5958, 51.39553
629.0779, 51.72345
629.5601, 51.77924
630.0422, 51.61012
630.5243, 51.29114
631.0064, 51.16812
631.4885, 51.51582
631.9706, 52.09369
632.4528, 52.78743
632.9349, 53.55825
633.4170, 54.13685
633.8991, 54.30372
634.3812, 54.31744
634.8633, 54.31116
635.3455, 54.26363
635.8276, 54.32514
636.3097, 54.69743
636.7918, 54.99617
637.2739, 54.79206
637.7560, 53.83658
638.2382, 53.42656
638.7203, 53.77776
639.2024, 54.49178
639.6845, 54.99061
640.1666, 55.30259
640.6487, 55.66786
641.1309, 56.25326
641.6130, 56.79869
642.0951, 56.79674
642.5772, 56.43380
643.0594, 56.23634
643.5415, 56.69641
644.0236, 57.19288
644.5057, 57.32763
644.9879, 57.12733
645.4700, 56.95307
645.9521, 56.79662
646.4342, 56.77477
646.9163, 56.95495
647.3984, 57.37380
647.8806, 57.79202
648.3627, 58.28407
648.8448, 58.64771
649.3269, 58.63677
649.8090, 58.25251
650.2911, 58.11967
650.7733, 58.33719
651.2554, 58.57223
651.7375, 58.40252
652.2196, 57.94152
652.7017, 57.42151
653.1838, 56.75465
653.6660, 56.34784
654.1481, 56.77158
654.6302, 57.63074
655.1123, 58.23403
655.5944, 58.19067
656.0765, 58.02008
656.5587, 57.75130
657.0408, 57.45393
657.5229, 57.46009
658.0050, 58.06897
658.4871, 58.45404
658.9692, 58.19737
659.4514, 57.39251
659.9335, 57.15408
660.4156, 57.54047
660.8977, 58.01246
661.3798, 58.19228
661.8619, 58.15795
662.3441, 58.11012
662.8262, 58.06047
