##NAMES=Chevkinite-(Ce)
##RRUFFID=R060419
##IDEAL CHEMISTRY=Ce^3+^_4_(Ti^4+^,Fe^2+^,Fe^3+^)_5_O_8_(Si_2_O_7_)_2_
##LOCALITY=Arondu, Basha Valley, Baltistan, Pakistan
##OWNER=RRUFF
##SOURCE=Herb Obodda
##DESCRIPTION=Black resinous fragment
##STATUS=The identification of this mineral has been confirmed by X-ray diffraction and chemical analysis
##URL=rruff.info/R060419
##MEASURED CHEMISTRY=(Ce_1.89_La_0.88_Nd_0.63_Ca_0.47_Th_0.13_)_Σ=4_(Ti_2.80_Fe^2+^_1.46_Fe^3+^_0.74_)_Σ=5_O_8_(Si_2.00_O_7_)_2_
178.3506, 36.73379
178.8328, 37.04088
179.3149, 37.18558
179.7970, 37.11795
180.2791, 36.89022
180.7612, 36.48376
181.2433, 35.86036
181.7255, 35.16810
182.2076, 34.72150
182.6897, 34.59089
183.1718, 34.60861
183.6539, 34.80552
184.1360, 35.07412
184.6181, 35.33626
185.1003, 35.56214
185.5824, 35.71040
186.0645, 35.62127
186.5466, 34.93635
187.0287, 34.44691
187.5108, 34.40963
187.9930, 34.58381
188.4751, 34.65092
188.9572, 34.42646
189.4393, 33.97795
189.9214, 33.68453
190.4035, 33.59035
190.8857, 33.60199
191.3678, 33.80532
191.8499, 34.09734
192.3320, 34.31820
192.8141, 34.37533
193.2962, 34.27664
193.7784, 34.06591
194.2605, 33.75624
194.7426, 33.35557
195.2247, 32.63008
195.7068, 31.77002
196.1889, 31.33049
196.6711, 31.72997
197.1532, 32.81337
197.6353, 33.65614
198.1174, 34.33739
198.5995, 34.74546
199.0816, 34.69856
199.5638, 34.25526
200.0459, 33.80696
200.5280, 33.58455
201.0101, 33.52515
201.4922, 33.41313
201.9743, 33.17889
202.4565, 32.95255
202.9386, 32.86694
203.4207, 32.92602
203.9028, 32.97296
204.3849, 32.83415
204.8670, 32.66667
205.3492, 32.72459
205.8313, 33.17442
206.3134, 33.70875
206.7955, 33.95098
207.2776, 33.86733
207.7597, 33.64587
208.2419, 33.13981
208.7240, 32.62484
209.2061, 32.44369
209.6882, 32.80468
210.1703, 33.34116
210.6524, 33.32231
211.1346, 32.41491
211.6167, 31.82306
212.0988, 32.26742
212.5809, 33.03139
213.0630, 33.41556
213.5451, 33.11596
214.0273, 32.39851
214.5094, 31.81631
214.9915, 31.26707
215.4736, 31.08700
215.9557, 31.60135
216.4378, 32.33022
216.9200, 32.81591
217.4021, 32.85275
217.8842, 32.54396
218.3663, 32.14748
218.8484, 31.42227
219.3305, 30.98144
219.8127, 30.94708
220.2948, 31.18140
220.7769, 31.61777
221.2590, 32.22650
221.7411, 32.87673
222.2232, 33.17682
222.7054, 32.71991
223.1875, 32.37215
223.6696, 32.23886
224.1517, 32.22023
224.6338, 32.20493
225.1159, 32.14325
225.5980, 32.05125
226.0802, 31.97510
226.5623, 31.74360
227.0444, 31.74042
227.5265, 32.22458
228.0086, 32.88838
228.4907, 33.32987
228.9729, 33.37716
229.4550, 33.14950
229.9371, 32.94322
230.4192, 32.81764
230.9013, 32.62176
231.3834, 32.16326
231.8656, 31.65812
232.3477, 31.50829
232.8298, 31.91750
233.3119, 32.54550
233.7940, 32.58651
234.2761, 31.81453
234.7583, 31.16081
235.2404, 30.87867
235.7225, 30.86198
236.2046, 30.92013
236.6867, 30.98478
237.1688, 31.12159
237.6510, 31.52710
238.1331, 32.26677
238.6152, 32.84253
239.0973, 33.00959
239.5794, 32.89961
240.0615, 32.79309
240.5437, 32.77332
241.0258, 32.75603
241.5079, 32.55700
241.9900, 32.16604
242.4721, 31.96136
242.9542, 32.26680
243.4364, 32.88179
243.9185, 33.26387
244.4006, 33.22325
244.8827, 33.08467
245.3648, 33.28887
245.8469, 33.77404
246.3290, 34.00297
246.8112, 33.43974
247.2933, 32.39319
247.7754, 31.83337
248.2575, 32.05002
248.7396, 32.50473
249.2217, 32.85762
249.7039, 33.10434
250.1860, 33.20518
250.6681, 33.09779
251.1502, 32.82027
251.6323, 32.47456
252.1144, 31.93338
252.5966, 31.55696
253.0787, 31.69161
253.5608, 32.13369
254.0429, 32.41998
254.5250, 32.19104
255.0071, 31.59693
255.4893, 31.23509
255.9714, 31.25064
256.4535, 31.27700
256.9356, 31.07991
257.4177, 30.78912
257.8998, 30.62667
258.3820, 30.75754
258.8641, 31.08461
259.3462, 31.25460
259.8283, 31.15911
260.3104, 31.07920
260.7925, 31.12310
261.2747, 31.23080
261.7568, 31.32553
262.2389, 31.37060
262.7210, 31.37745
263.2031, 31.37052
263.6852, 31.30157
264.1674, 31.30847
264.6495, 31.53155
265.1316, 31.79120
265.6137, 31.85688
266.0958, 31.61804
266.5779, 31.24125
267.0601, 31.14742
267.5422, 31.57338
268.0243, 31.86029
268.5064, 31.88218
268.9885, 31.76415
269.4706, 31.57064
269.9528, 31.33142
270.4349, 31.12207
270.9170, 31.12843
271.3991, 31.61213
271.8812, 31.78045
272.3633, 31.30069
272.8455, 30.71765
273.3276, 30.46875
273.8097, 30.64826
274.2918, 31.02218
274.7739, 31.23799
275.2560, 31.20932
275.7382, 31.19833
276.2202, 31.23375
276.7024, 31.26213
277.1845, 31.23804
277.6666, 31.16205
278.1487, 31.08106
278.6308, 31.06430
279.1129, 31.16678
279.5951, 31.13543
280.0772, 30.80824
280.5593, 30.50963
281.0414, 30.41255
281.5235, 30.51454
282.0056, 30.72233
282.4878, 30.96994
282.9699, 31.29103
283.4520, 31.40015
283.9341, 31.24085
284.4162, 30.96263
284.8983, 30.43505
285.3805, 29.81398
285.8626, 29.48333
286.3447, 29.78716
286.8268, 30.70838
287.3089, 31.25353
287.7910, 31.13355
288.2732, 30.98217
288.7553, 30.98094
289.2374, 31.07784
289.7195, 31.15494
290.2016, 31.14335
290.6837, 31.05026
291.1659, 30.90886
291.6480, 30.66761
292.1301, 30.43929
292.6122, 30.25793
293.0943, 30.09624
293.5764, 29.87967
294.0586, 29.56729
294.5407, 29.25466
295.0228, 29.20124
295.5049, 29.78809
295.9870, 30.17538
296.4691, 30.19886
296.9513, 30.06688
297.4334, 29.96753
297.9155, 29.96697
298.3976, 30.08193
298.8797, 30.37648
299.3618, 31.26565
299.8440, 31.48118
300.3261, 30.25161
300.8082, 28.84385
301.2903, 28.40507
301.7724, 29.09525
302.2545, 30.11034
302.7367, 30.51383
303.2188, 30.11573
303.7009, 29.75093
304.1830, 29.37869
304.6651, 29.06592
305.1472, 28.86494
305.6294, 28.76948
306.1115, 28.72706
306.5936, 28.68837
307.0757, 28.65009
307.5578, 28.72086
308.0399, 28.95399
308.5221, 29.22125
309.0042, 29.49532
309.4863, 29.76075
309.9684, 30.01658
310.4505, 30.28705
310.9326, 30.52849
311.4148, 30.40361
311.8969, 29.58640
312.3790, 28.84002
312.8611, 28.21850
313.3432, 27.80936
313.8253, 27.81769
314.3075, 28.36569
314.7896, 29.19983
315.2717, 29.66635
315.7538, 29.41556
316.2359, 29.30205
316.7180, 29.65086
317.2001, 30.05590
317.6823, 29.98301
318.1644, 29.29127
318.6465, 28.39858
319.1286, 27.93473
319.6107, 28.14519
320.0928, 28.24017
320.5750, 28.19367
321.0571, 28.05429
321.5392, 27.73527
322.0213, 27.28864
322.5034, 27.03070
322.9855, 27.33213
323.4677, 28.32217
323.9498, 28.92388
324.4319, 28.85036
324.9140, 28.72004
325.3961, 28.95772
325.8782, 29.43161
326.3604, 29.66221
326.8425, 29.27347
327.3246, 28.33993
327.8067, 27.70332
328.2888, 27.39267
328.7709, 27.29476
329.2531, 27.50605
329.7352, 27.89234
330.2173, 28.27767
330.6994, 28.58571
331.1815, 28.78760
331.6636, 28.80211
332.1458, 28.42686
332.6279, 28.10522
333.1100, 27.94409
333.5921, 27.79769
334.0742, 27.43235
334.5563, 26.81174
335.0385, 26.22252
335.5206, 26.09517
336.0027, 26.61858
336.4848, 27.16795
336.9669, 27.94223
337.4490, 28.59200
337.9312, 28.86463
338.4133, 28.77045
338.8954, 28.48522
339.3775, 28.15108
339.8596, 27.75510
340.3417, 27.46708
340.8239, 27.24349
341.3060, 27.15357
341.7881, 27.30026
342.2702, 27.59744
342.7523, 27.90047
343.2344, 28.12940
343.7166, 28.26686
344.1987, 28.22394
344.6808, 27.63866
345.1629, 27.28648
345.6450, 27.49731
346.1271, 27.87247
346.6093, 27.89011
347.0914, 27.37571
347.5735, 26.67703
348.0556, 26.49562
348.5377, 27.33689
349.0198, 27.78126
349.5020, 27.57986
349.9841, 27.22523
350.4662, 27.01227
350.9483, 26.99313
351.4304, 27.08771
351.9125, 27.24109
352.3947, 27.49127
352.8768, 27.54178
353.3589, 27.10945
353.8410, 26.76015
354.3231, 26.75361
354.8052, 26.98577
355.2874, 27.20275
355.7695, 27.22147
356.2516, 27.09475
356.7337, 27.13335
357.2158, 27.50616
357.6979, 27.82068
358.1800, 28.09049
358.6621, 28.23556
359.1443, 28.10914
359.6264, 27.65683
360.1085, 27.09361
360.5906, 26.83884
361.0727, 27.07088
361.5548, 27.14455
362.0370, 26.77112
362.5191, 26.39877
363.0012, 26.31012
363.4833, 26.52384
363.9654, 26.87393
364.4475, 27.25239
364.9297, 27.67167
365.4118, 27.91124
365.8939, 27.95341
366.3760, 27.80892
366.8581, 27.23559
367.3402, 26.49635
367.8224, 26.14585
368.3045, 26.64787
368.7866, 27.64754
369.2687, 28.05144
369.7508, 27.59045
370.2329, 27.11490
370.7151, 26.90578
371.1972, 26.82748
371.6793, 26.73063
372.1614, 26.56269
372.6435, 26.45771
373.1256, 26.61955
373.6078, 27.06797
374.0899, 27.49864
374.5720, 27.92673
375.0541, 28.23727
375.5362, 28.34353
376.0183, 28.25260
376.5005, 28.05142
376.9826, 27.71976
377.4647, 27.31206
377.9468, 27.00880
378.4289, 26.78880
378.9110, 26.74986
379.3932, 27.11288
379.8753, 27.68592
380.3574, 28.10496
380.8395, 28.24470
381.3216, 28.19209
381.8037, 27.99995
382.2859, 27.66455
382.7680, 27.34819
383.2501, 27.06304
383.7322, 26.88860
384.2143, 26.93989
384.6964, 27.27269
385.1786, 27.64096
385.6607, 27.99597
386.1428, 28.27980
386.6249, 28.28669
387.1070, 27.89898
387.5891, 27.42418
388.0713, 27.29439
388.5534, 27.47182
389.0355, 27.44870
389.5176, 26.94887
389.9997, 26.31005
390.4818, 25.75891
390.9640, 25.33138
391.4461, 25.27271
391.9282, 25.89924
392.4103, 27.02351
392.8924, 27.62152
393.3745, 27.31654
393.8567, 26.94834
394.3388, 26.73123
394.8209, 26.69381
395.3030, 26.98996
395.7851, 27.72260
396.2672, 28.54332
396.7494, 28.81723
397.2315, 28.26736
397.7136, 27.80390
398.1957, 27.39487
398.6778, 27.12929
399.1599, 27.16474
399.6420, 27.46640
400.1241, 27.77487
400.6063, 27.86000
401.0884, 27.71599
401.5705, 27.54800
402.0526, 27.38447
402.5347, 27.17058
403.0168, 26.71890
403.4990, 26.24000
403.9811, 26.12617
404.4632, 26.57147
404.9453, 27.32016
405.4274, 27.75075
405.9095, 27.68769
406.3917, 27.57550
406.8738, 27.32611
407.3559, 27.11242
407.8380, 27.09213
408.3201, 27.25961
408.8022, 27.46228
409.2844, 27.55230
409.7665, 27.52344
410.2486, 27.46675
410.7307, 27.31091
411.2128, 27.20658
411.6949, 27.32237
412.1771, 27.49314
412.6592, 27.38729
413.1413, 26.77648
413.6234, 26.02285
414.1055, 26.01412
414.5876, 27.08921
415.0698, 27.87508
415.5519, 27.81925
416.0340, 27.51066
416.5161, 27.29484
416.9982, 27.22263
417.4803, 27.21846
417.9625, 27.28314
418.4446, 27.38728
418.9267, 27.27663
419.4088, 26.74783
419.8909, 26.34680
420.3730, 26.62948
420.8552, 27.27496
421.3373, 27.61701
421.8194, 27.31472
422.3015, 26.73716
422.7836, 26.24584
423.2657, 25.84317
423.7479, 25.64364
424.2300, 25.80369
424.7121, 26.09780
425.1942, 26.11953
425.6763, 25.78513
426.1584, 25.60975
426.6406, 26.13601
427.1227, 26.87374
427.6048, 26.80515
428.0869, 25.69989
428.5690, 24.62179
429.0511, 24.62488
429.5333, 25.72536
430.0154, 26.45314
430.4975, 26.60549
430.9796, 26.57109
431.4617, 26.48259
431.9438, 26.37738
432.4260, 26.35045
432.9081, 26.46329
433.3902, 26.61353
433.8723, 26.54876
434.3544, 26.03551
434.8365, 25.69272
435.3187, 25.67181
435.8008, 25.74107
436.2829, 25.70185
436.7650, 25.54004
437.2471, 25.36846
437.7292, 25.28541
438.2114, 25.29062
438.6935, 25.38690
439.1756, 25.83936
439.6577, 26.08661
440.1398, 25.88156
440.6219, 25.43247
441.1040, 24.97961
441.5862, 24.62688
442.0683, 24.40796
442.5504, 24.44544
443.0325, 24.89795
443.5146, 25.11829
443.9967, 24.70085
444.4789, 24.33208
444.9610, 24.49749
445.4431, 25.07681
445.9252, 25.52863
446.4073, 25.34078
446.8894, 24.73392
447.3716, 24.61295
447.8537, 25.18457
448.3358, 25.72639
448.8179, 25.95674
449.3000, 25.97551
449.7821, 25.81596
450.2643, 25.43610
450.7464, 25.11080
451.2285, 25.20013
451.7106, 25.59229
452.1927, 25.65217
452.6748, 25.08751
453.1570, 24.50973
453.6391, 24.77467
454.1212, 25.66382
454.6033, 26.11211
455.0854, 25.40852
455.5675, 24.50422
456.0497, 24.33417
456.5318, 24.80382
457.0139, 25.21174
457.4960, 25.19498
457.9781, 24.89686
458.4602, 24.69477
458.9424, 24.60065
459.4245, 24.55506
459.9066, 24.54452
460.3887, 24.58020
460.8708, 24.71465
461.3529, 24.93556
461.8351, 25.11972
462.3172, 25.14644
462.7993, 25.01040
463.2814, 24.87452
463.7635, 24.72813
464.2456, 24.59397
464.7278, 24.44952
465.2099, 24.32901
465.6920, 24.28183
466.1741, 24.32599
466.6562, 24.43212
467.1383, 24.58276
467.6205, 24.85654
468.1026, 24.92983
468.5847, 24.53369
469.0668, 24.16646
469.5489, 24.06159
470.0310, 24.17765
470.5132, 24.36245
470.9953, 24.54256
471.4774, 24.71015
471.9595, 24.89749
472.4416, 25.18460
472.9237, 25.18724
473.4059, 24.36003
473.8880, 23.43300
474.3701, 23.12784
474.8522, 23.54138
475.3343, 24.06497
475.8164, 24.37357
476.2986, 24.49413
476.7807, 24.43798
477.2628, 24.16253
477.7449, 23.94814
478.2270, 24.03678
478.7091, 24.37151
479.1913, 24.67944
479.6734, 25.04071
480.1555, 25.26826
480.6376, 25.23938
481.1197, 25.00869
481.6018, 24.61461
482.0839, 24.05031
482.5660, 23.56464
483.0482, 23.54038
483.5303, 24.17065
484.0124, 24.57461
484.4945, 24.75467
484.9766, 24.72253
485.4587, 24.28791
485.9409, 23.64770
486.4230, 23.24236
486.9051, 23.32510
487.3872, 23.75578
487.8693, 24.14395
488.3514, 24.54512
488.8336, 24.79420
489.3157, 24.73137
489.7978, 24.65385
490.2799, 24.82942
490.7620, 25.21289
491.2441, 25.50368
491.7263, 25.41020
492.2084, 25.02702
492.6905, 24.79216
493.1726, 24.68707
493.6547, 24.77746
494.1368, 25.37525
494.6190, 26.04395
495.1011, 26.27641
495.5832, 25.93782
496.0653, 25.54053
496.5474, 25.47651
497.0295, 25.66122
497.5117, 25.88427
497.9938, 26.15339
498.4759, 26.28977
498.9580, 26.01805
499.4401, 25.45300
499.9222, 25.21210
500.4044, 25.66640
500.8865, 26.10709
501.3686, 26.12402
501.8507, 25.86959
502.3328, 25.65520
502.8149, 25.58695
503.2971, 25.58234
503.7792, 25.51444
504.2613, 25.32522
504.7434, 25.29548
505.2255, 25.58472
505.7076, 25.85827
506.1898, 25.92547
506.6719, 25.85778
507.1540, 25.80665
507.6361, 25.84882
508.1182, 25.98062
508.6003, 26.23569
509.0825, 26.75709
509.5646, 27.01666
510.0467, 26.86654
510.5288, 26.52466
511.0109, 25.88214
511.4930, 25.10451
511.9752, 24.69951
512.4573, 25.16443
512.9394, 26.09928
513.4215, 26.54948
513.9036, 26.44117
514.3857, 26.33285
514.8679, 26.52332
515.3500, 26.74981
515.8321, 26.60887
516.3142, 26.03503
516.7963, 25.62925
517.2784, 25.86569
517.7606, 26.32077
518.2427, 26.32335
518.7248, 25.83962
519.2069, 25.41812
519.6890, 25.44748
520.1711, 25.82578
520.6533, 26.04406
521.1354, 25.91522
521.6175, 25.90256
522.0996, 26.20832
522.5817, 26.59254
523.0638, 26.81053
523.5460, 26.82659
524.0281, 26.76057
524.5102, 26.72774
524.9923, 26.72567
525.4744, 26.64920
525.9565, 26.39902
526.4387, 26.20539
526.9208, 26.08578
527.4029, 26.05642
527.8850, 26.20366
528.3671, 26.53161
528.8492, 26.78889
529.3314, 26.52654
529.8135, 25.84413
530.2956, 25.87145
530.7777, 27.13674
531.2598, 28.14272
531.7419, 27.57209
532.2241, 26.20771
532.7062, 25.27729
533.1883, 25.09941
533.6704, 25.19191
534.1525, 25.31730
534.6346, 25.45729
535.1168, 25.56729
535.5989, 25.63578
536.0810, 25.68656
536.5631, 25.73567
537.0452, 25.78299
537.5273, 25.86956
538.0095, 26.24612
538.4916, 26.38064
538.9737, 25.73422
539.4558, 24.83579
539.9379, 24.59992
540.4200, 25.28041
540.9022, 26.15292
541.3843, 26.12395
541.8664, 24.94046
542.3485, 24.29165
542.8306, 24.69466
543.3127, 25.09837
543.7948, 25.14057
544.2769, 24.98321
544.7590, 24.91520
545.2411, 25.05870
545.7233, 25.19925
546.2054, 24.99351
546.6875, 24.47464
547.1696, 24.15710
547.6517, 24.16091
548.1339, 24.29773
548.6160, 24.57043
549.0981, 24.87090
549.5802, 24.83716
550.0623, 24.00016
550.5444, 23.23893
551.0266, 23.29624
551.5087, 23.84081
551.9908, 24.05441
552.4729, 23.67806
552.9550, 23.17220
553.4371, 23.12502
553.9193, 23.63986
554.4014, 23.99618
554.8835, 24.15815
555.3656, 24.22717
555.8477, 24.23257
556.3298, 24.17197
556.8120, 24.00902
557.2941, 23.73571
557.7762, 23.44841
558.2583, 23.29042
558.7404, 23.27839
559.2225, 23.26150
559.7047, 23.22125
560.1868, 23.19660
560.6689, 23.31339
561.1510, 23.43132
561.6331, 23.26651
562.1152, 22.63285
562.5974, 21.98545
563.0795, 21.76973
563.5616, 21.89417
564.0437, 22.01841
564.5258, 22.06345
565.0079, 22.17299
565.4901, 22.58310
565.9722, 23.24671
566.4543, 23.43928
566.9364, 22.65726
567.4185, 21.98409
567.9006, 21.95528
568.3828, 22.23927
568.8649, 22.34574
569.3470, 22.15426
569.8291, 21.89837
570.3112, 21.86771
570.7933, 22.08436
571.2755, 22.11731
571.7576, 21.69201
572.2397, 21.43031
572.7218, 21.66306
573.2039, 22.03980
573.6860, 22.10354
574.1682, 21.75074
574.6503, 21.40467
575.1324, 21.59506
575.6145, 22.15804
576.0966, 22.32095
576.5787, 21.95678
577.0609, 21.50010
577.5430, 21.13303
578.0251, 20.88800
578.5072, 20.82414
578.9893, 20.99718
579.4714, 21.22845
579.9536, 21.57019
580.4357, 21.87024
580.9178, 21.84585
581.3999, 21.52037
581.8820, 21.30705
582.3641, 21.56320
582.8463, 22.16288
583.3284, 22.37205
583.8105, 21.96570
584.2926, 21.47047
584.7747, 20.53434
585.2568, 19.82097
585.7390, 20.06140
586.2211, 21.10013
586.7032, 22.03296
587.1853, 22.20618
587.6674, 21.82035
588.1495, 21.30120
588.6317, 20.57316
589.1138, 20.20364
589.5959, 20.57453
590.0780, 21.20172
590.5601, 21.52012
591.0422, 21.53624
591.5244, 21.49218
592.0065, 21.26527
592.4886, 21.16211
592.9707, 21.69207
593.4528, 22.62358
593.9349, 23.09536
594.4171, 22.69135
594.8992, 21.91847
595.3813, 21.68497
595.8634, 22.26675
596.3455, 22.57427
596.8276, 22.39257
597.3098, 22.20265
597.7919, 22.21355
598.2740, 22.35285
598.7561, 22.50965
599.2382, 22.64495
599.7203, 22.67222
600.2025, 22.32401
600.6846, 21.62128
601.1667, 21.47293
601.6488, 22.23948
602.1309, 23.02465
602.6130, 23.13455
603.0952, 22.83443
603.5773, 22.62877
604.0594, 22.59503
604.5415, 22.63669
605.0236, 22.71091
605.5057, 22.82662
605.9879, 23.09049
606.4700, 23.48230
606.9521, 23.64744
607.4342, 23.22647
607.9163, 22.34126
608.3984, 21.91970
608.8806, 22.34188
609.3627, 22.72926
609.8448, 23.01546
610.3269, 23.23516
610.8090, 23.40970
611.2911, 23.54502
611.7733, 23.64655
612.2554, 23.72573
612.7375, 23.76666
613.2196, 23.71300
613.7017, 23.55317
614.1838, 23.42131
614.6660, 23.37619
615.1481, 23.35227
615.6302, 23.25545
616.1123, 23.09228
616.5944, 22.98001
617.0765, 23.00874
617.5587, 23.03330
618.0408, 22.84331
618.5229, 22.58855
619.0050, 22.63443
619.4871, 23.10384
619.9692, 23.75293
620.4514, 24.29720
620.9335, 24.77538
621.4156, 24.85535
621.8977, 23.87842
622.3798, 23.28787
622.8619, 23.82448
623.3441, 24.75195
623.8262, 25.18904
624.3083, 24.93300
624.7904, 24.52172
625.2725, 24.37729
625.7546, 24.43042
626.2367, 24.54043
626.7188, 24.71634
627.2009, 24.74975
627.6830, 24.47225
628.1652, 24.03189
628.6473, 23.74219
629.1294, 23.56346
629.6115, 23.61134
630.0936, 24.07990
630.5757, 24.62890
631.0579, 25.08084
631.5400, 25.40054
632.0221, 25.55912
632.5042, 25.53862
632.9863, 25.40255
633.4684, 25.26309
633.9506, 25.12220
634.4327, 24.96159
634.9148, 24.74221
635.3969, 24.55379
635.8790, 24.34321
636.3611, 24.21338
636.8433, 24.40620
637.3254, 25.10873
637.8075, 25.72576
638.2896, 25.69116
638.7717, 25.30590
639.2538, 25.15621
639.7360, 25.32020
640.2181, 25.58632
640.7002, 25.85319
641.1823, 26.06409
641.6644, 25.98380
642.1465, 25.06011
642.6287, 24.61724
643.1108, 25.00127
643.5929, 25.58352
644.0750, 26.07957
644.5571, 26.40428
645.0392, 26.45966
645.5214, 26.14551
646.0035, 25.68839
646.4856, 25.46174
646.9677, 25.46497
647.4498, 25.56779
647.9319, 25.80741
648.4141, 26.01982
648.8962, 26.06041
649.3783, 25.95878
649.8604, 25.82184
650.3425, 25.59000
650.8246, 25.41573
651.3068, 25.41407
651.7889, 25.47451
652.2710, 25.43697
652.7531, 25.29904
653.2352, 25.19499
653.7173, 25.22779
654.1995, 25.38105
654.6816, 25.62105
655.1637, 26.07607
655.6458, 26.30787
656.1279, 26.05834
656.6100, 25.71898
657.0922, 25.45291
657.5743, 25.28028
658.0564, 25.22781
658.5385, 25.36073
659.0206, 25.53922
659.5027, 25.60432
659.9849, 25.60790
660.4670, 25.77498
660.9491, 26.16706
661.4312, 26.38712
661.9133, 26.00030
662.3954, 25.07324
662.8776, 24.56707
663.3597, 24.76770
663.8418, 25.02519
664.3239, 25.25704
664.8060, 25.54007
665.2881, 26.08027
665.7703, 26.76528
666.2524, 27.15002
666.7345, 26.86866
667.2166, 26.25669
667.6987, 25.92117
668.1808, 25.85555
668.6630, 25.81108
669.1451, 25.71915
669.6272, 25.66540
670.1093, 25.80805
670.5914, 26.10723
671.0735, 26.11835
671.5557, 25.46329
672.0378, 24.97397
672.5199, 25.05606
