##NAMES=Chiavennite
##RRUFFID=R070349
##IDEAL CHEMISTRY=CaMn^2+^(BeOH)_2_Si_5_O_13_&#183;2H_2_O
##LOCALITY=Tvedalen, Larvik, Vestfold, Norway
##OWNER=RRUFF
##SOURCE=Michael Scott
##DESCRIPTION=Aggregate of pale yellow to orange thin spearhead-shaped blades associated with orthoclase and intimately with analcime
##STATUS=The identification of this mineral is confirmed by single-crystal X-ray diffraction and chemical analysis.
##URL=rruff.info/R070349
##MEASURED CHEMISTRY=(Ca_0.91_Na_0.09_)_Σ=1_(Mn^2+^_0.80_Fe^2+^_0.20_)_Σ=1_((Be_0.94_Al_0.06_)_Σ=1_OH)_2_(Si_4.61_Al_0.39_)_Σ=5_(O_12.76_(OH)_0.24_)_Σ=13_·2H_2_O ; light phase: Be by charge balance; dark: (Na_0.99_Mn_0.01_)_Σ=1_(Si_1.99_Al_2.01_)_Σ=3_O_6_·H_2_O is an
164.8920, 1275.395
165.3741, 1276.985
165.8563, 1281.135
166.3384, 1293.914
166.8205, 1310.259
167.3026, 1320.995
167.7847, 1317.438
168.2668, 1307.532
168.7490, 1310.516
169.2311, 1332.966
169.7132, 1353.434
170.1953, 1358.945
170.6774, 1355.509
171.1595, 1351.991
171.6417, 1352.306
172.1238, 1355.179
172.6059, 1357.437
173.0880, 1358.755
173.5701, 1360.099
174.0522, 1362.525
174.5344, 1365.160
175.0165, 1366.689
175.4986, 1366.471
175.9807, 1364.755
176.4628, 1360.909
176.9449, 1349.889
177.4271, 1346.745
177.9092, 1363.982
178.3913, 1389.721
178.8734, 1407.001
179.3555, 1405.284
179.8376, 1392.060
180.3197, 1390.743
180.8019, 1410.645
181.2840, 1426.027
181.7661, 1427.060
182.2482, 1420.222
182.7303, 1412.355
183.2124, 1405.586
183.6946, 1401.777
184.1767, 1407.952
184.6588, 1433.590
185.1409, 1452.380
185.6230, 1454.651
186.1051, 1448.383
186.5873, 1442.258
187.0694, 1440.100
187.5515, 1440.946
188.0336, 1441.813
188.5157, 1439.955
188.9978, 1443.428
189.4800, 1460.901
189.9621, 1480.804
190.4442, 1489.335
190.9263, 1479.446
191.4084, 1460.409
191.8905, 1455.578
192.3727, 1475.008
192.8548, 1491.253
193.3369, 1497.513
193.8190, 1499.932
194.3011, 1504.934
194.7832, 1515.120
195.2654, 1527.223
195.7475, 1533.629
196.2296, 1529.904
196.7117, 1528.800
197.1938, 1533.848
197.6759, 1540.751
198.1581, 1545.649
198.6402, 1547.275
199.1223, 1547.349
199.6044, 1549.648
200.0865, 1557.876
200.5686, 1560.541
201.0508, 1550.494
201.5329, 1539.305
202.0150, 1537.891
202.4971, 1548.627
202.9792, 1562.843
203.4613, 1564.943
203.9435, 1544.575
204.4256, 1535.736
204.9077, 1548.237
205.3898, 1565.134
205.8719, 1576.664
206.3540, 1580.203
206.8362, 1577.329
207.3183, 1567.971
207.8004, 1545.243
208.2825, 1534.377
208.7646, 1547.364
209.2467, 1561.588
209.7289, 1560.812
210.2110, 1545.086
210.6931, 1528.685
211.1752, 1530.247
211.6573, 1557.566
212.1395, 1574.032
212.6216, 1573.914
213.1037, 1568.697
213.5858, 1560.386
214.0679, 1551.166
214.5500, 1545.271
215.0322, 1548.168
215.5143, 1562.067
215.9964, 1569.914
216.4785, 1567.961
216.9606, 1563.575
217.4427, 1556.517
217.9249, 1548.911
218.4070, 1545.415
218.8891, 1551.206
219.3712, 1566.734
219.8533, 1575.100
220.3354, 1567.295
220.8176, 1560.747
221.2997, 1560.381
221.7818, 1564.918
222.2639, 1570.945
222.7460, 1576.006
223.2281, 1580.400
223.7103, 1586.999
224.1924, 1603.807
224.6745, 1613.742
225.1566, 1606.542
225.6387, 1591.594
226.1208, 1583.484
226.6030, 1591.331
227.0851, 1610.693
227.5672, 1622.694
228.0493, 1620.434
228.5314, 1619.763
229.0135, 1625.925
229.4957, 1634.095
229.9778, 1637.810
230.4599, 1633.979
230.9420, 1626.580
231.4241, 1625.876
231.9062, 1637.172
232.3884, 1646.259
232.8705, 1649.940
233.3526, 1651.699
233.8347, 1654.644
234.3168, 1659.772
234.7989, 1665.881
235.2811, 1671.271
235.7632, 1676.997
236.2453, 1679.283
236.7274, 1673.255
237.2095, 1667.280
237.6916, 1667.211
238.1738, 1674.020
238.6559, 1684.274
239.1380, 1695.418
239.6201, 1709.798
240.1022, 1716.104
240.5843, 1706.445
241.0665, 1694.772
241.5486, 1687.034
242.0307, 1683.699
242.5128, 1682.406
242.9949, 1681.077
243.4770, 1679.662
243.9592, 1678.717
244.4413, 1675.604
244.9234, 1675.745
245.4055, 1683.353
245.8876, 1696.173
246.3697, 1708.615
246.8519, 1717.736
247.3340, 1723.292
247.8161, 1722.314
248.2982, 1709.928
248.7803, 1697.118
249.2624, 1684.176
249.7446, 1673.890
250.2267, 1671.913
250.7088, 1684.151
251.1909, 1703.469
251.6730, 1707.900
252.1551, 1689.233
252.6373, 1672.124
253.1194, 1661.942
253.6015, 1658.188
254.0836, 1661.630
254.5657, 1673.383
255.0478, 1689.179
255.5300, 1703.902
256.0121, 1719.021
256.4942, 1727.167
256.9763, 1721.643
257.4584, 1710.772
257.9406, 1697.656
258.4227, 1682.669
258.9048, 1672.479
259.3869, 1678.237
259.8690, 1701.004
260.3511, 1714.726
260.8333, 1707.378
261.3154, 1695.506
261.7975, 1691.024
262.2796, 1694.151
262.7617, 1698.579
263.2438, 1702.934
263.7260, 1705.923
264.2081, 1698.289
264.6902, 1671.721
265.1723, 1645.776
265.6544, 1634.772
266.1365, 1635.814
266.6187, 1640.181
267.1008, 1646.772
267.5829, 1653.366
268.0650, 1654.450
268.5471, 1648.500
269.0292, 1641.629
269.5114, 1637.255
269.9935, 1634.909
270.4756, 1634.267
270.9577, 1636.430
271.4398, 1639.299
271.9219, 1640.498
272.4041, 1639.992
272.8862, 1639.099
273.3683, 1638.739
273.8504, 1638.198
274.3325, 1635.787
274.8146, 1629.318
275.2968, 1624.821
275.7789, 1629.140
276.2610, 1639.677
276.7431, 1645.225
277.2252, 1640.392
277.7073, 1630.686
278.1895, 1625.002
278.6716, 1623.475
279.1537, 1623.867
279.6358, 1626.490
280.1179, 1630.285
280.6000, 1634.014
281.0822, 1637.694
281.5643, 1639.471
282.0464, 1635.127
282.5285, 1623.671
283.0106, 1619.098
283.4927, 1627.256
283.9749, 1640.266
284.4570, 1653.693
284.9391, 1666.374
285.4212, 1673.271
285.9033, 1668.278
286.3854, 1651.776
286.8676, 1644.132
287.3497, 1653.738
287.8318, 1663.194
288.3139, 1662.398
288.7960, 1654.420
289.2781, 1648.199
289.7603, 1648.759
290.2424, 1654.675
290.7245, 1660.070
291.2066, 1664.861
291.6887, 1669.289
292.1708, 1676.089
292.6530, 1681.582
293.1351, 1678.502
293.6172, 1664.583
294.0993, 1648.699
294.5814, 1647.177
295.0635, 1671.700
295.5457, 1689.011
296.0278, 1696.222
296.5099, 1698.834
296.9920, 1700.153
297.4741, 1700.812
297.9562, 1699.862
298.4384, 1695.791
298.9205, 1687.645
299.4026, 1683.082
299.8847, 1682.739
300.3668, 1685.200
300.8489, 1692.511
301.3311, 1702.272
301.8131, 1709.782
302.2953, 1711.733
302.7774, 1709.192
303.2595, 1707.466
303.7416, 1705.788
304.2237, 1706.302
304.7058, 1711.248
305.1880, 1717.566
305.6701, 1722.250
306.1522, 1724.210
306.6343, 1723.814
307.1164, 1720.666
307.5985, 1713.192
308.0807, 1708.898
308.5628, 1712.649
309.0449, 1717.585
309.5270, 1718.501
310.0091, 1715.418
310.4912, 1714.109
310.9734, 1722.159
311.4555, 1738.270
311.9376, 1747.160
312.4197, 1742.990
312.9018, 1738.283
313.3839, 1741.517
313.8661, 1750.402
314.3482, 1759.091
314.8303, 1766.563
315.3124, 1771.534
315.7945, 1770.349
316.2766, 1761.835
316.7588, 1753.989
317.2409, 1750.460
317.7230, 1750.740
318.2051, 1754.376
318.6872, 1763.082
319.1693, 1772.017
319.6515, 1778.170
320.1336, 1781.615
320.6157, 1781.998
321.0978, 1777.520
321.5799, 1772.555
322.0620, 1776.002
322.5442, 1789.815
323.0263, 1798.510
323.5084, 1793.564
323.9905, 1782.852
324.4726, 1776.400
324.9547, 1775.870
325.4369, 1777.679
325.9190, 1778.084
326.4011, 1776.847
326.8832, 1779.858
327.3653, 1789.856
327.8474, 1801.410
328.3296, 1814.550
328.8117, 1827.116
329.2938, 1832.934
329.7759, 1827.672
330.2580, 1814.204
330.7401, 1805.726
331.2223, 1808.469
331.7044, 1808.453
332.1865, 1798.946
332.6686, 1788.386
333.1507, 1788.371
333.6328, 1801.625
334.1150, 1817.761
334.5971, 1819.826
335.0792, 1798.180
335.5613, 1788.827
336.0434, 1802.414
336.5255, 1817.354
337.0077, 1821.183
337.4898, 1815.916
337.9719, 1812.079
338.4540, 1819.559
338.9361, 1836.162
339.4182, 1841.026
339.9004, 1822.635
340.3825, 1809.447
340.8646, 1812.794
341.3467, 1824.374
341.8288, 1834.826
342.3109, 1841.297
342.7931, 1842.532
343.2752, 1832.987
343.7573, 1809.841
344.2394, 1796.216
344.7215, 1803.226
345.2036, 1817.757
345.6858, 1830.721
346.1679, 1841.519
346.6500, 1850.120
347.1321, 1856.074
347.6142, 1859.824
348.0963, 1862.164
348.5785, 1862.578
349.0606, 1863.485
349.5427, 1869.172
350.0248, 1877.188
350.5069, 1879.701
350.9890, 1866.733
351.4712, 1854.590
351.9533, 1861.117
352.4354, 1882.317
352.9175, 1896.347
353.3996, 1891.250
353.8817, 1874.586
354.3639, 1866.180
354.8460, 1868.568
355.3281, 1871.725
355.8102, 1874.594
356.2923, 1876.564
356.7744, 1875.903
357.2566, 1872.504
357.7387, 1869.824
358.2208, 1872.440
358.7029, 1882.427
359.1850, 1885.728
359.6671, 1873.952
360.1493, 1864.799
360.6314, 1869.681
361.1135, 1883.286
361.5956, 1892.849
362.0777, 1890.460
362.5598, 1879.942
363.0420, 1875.638
363.5241, 1883.889
364.0062, 1888.190
364.4883, 1881.457
364.9704, 1873.595
365.4525, 1874.613
365.9347, 1885.896
366.4168, 1898.521
366.8989, 1902.923
367.3810, 1898.862
367.8631, 1890.466
368.3452, 1872.461
368.8274, 1856.634
369.3095, 1847.817
369.7916, 1845.464
370.2737, 1848.724
370.7558, 1862.014
371.2379, 1876.734
371.7201, 1873.946
372.2022, 1850.992
372.6843, 1836.810
373.1664, 1850.584
373.6485, 1876.068
374.1306, 1887.996
374.6128, 1882.807
375.0949, 1874.242
375.5770, 1868.708
376.0591, 1864.942
376.5412, 1859.753
377.0233, 1852.144
377.5055, 1846.002
377.9876, 1846.610
378.4697, 1854.926
378.9518, 1857.415
379.4339, 1845.799
379.9160, 1835.615
380.3982, 1839.511
380.8803, 1852.901
381.3624, 1860.926
381.8445, 1854.688
382.3266, 1840.624
382.8087, 1838.414
383.2909, 1864.807
383.7730, 1881.335
384.2551, 1880.644
384.7372, 1874.161
385.2193, 1870.096
385.7014, 1870.319
386.1836, 1873.490
386.6657, 1880.047
387.1478, 1890.679
387.6299, 1890.444
388.1120, 1865.415
388.5941, 1845.484
389.0763, 1841.958
389.5584, 1849.321
390.0405, 1859.959
390.5226, 1872.267
391.0047, 1881.791
391.4868, 1877.684
391.9690, 1857.524
392.4511, 1847.615
392.9332, 1862.280
393.4153, 1883.475
393.8974, 1892.652
394.3795, 1889.761
394.8617, 1888.861
395.3438, 1905.182
395.8259, 1925.055
396.3080, 1919.276
396.7901, 1883.620
397.2722, 1854.125
397.7544, 1859.220
398.2365, 1892.229
398.7186, 1913.068
399.2007, 1912.369
399.6828, 1910.135
400.1649, 1915.855
400.6471, 1924.692
401.1292, 1927.303
401.6113, 1920.581
402.0934, 1911.562
402.5755, 1911.519
403.0576, 1926.931
403.5398, 1931.071
404.0219, 1913.677
404.5040, 1896.197
404.9861, 1891.871
405.4682, 1896.829
405.9503, 1898.704
406.4325, 1888.822
406.9146, 1871.995
407.3967, 1865.781
407.8788, 1874.469
408.3609, 1885.277
408.8430, 1896.727
409.3252, 1908.524
409.8073, 1922.966
410.2894, 1939.610
410.7715, 1950.322
411.2536, 1943.237
411.7357, 1922.687
412.2179, 1911.858
412.7000, 1914.789
413.1821, 1921.391
413.6642, 1926.991
414.1463, 1931.170
414.6284, 1932.321
415.1106, 1927.526
415.5927, 1922.849
416.0748, 1921.703
416.5569, 1924.156
417.0390, 1932.185
417.5211, 1947.912
418.0033, 1963.913
418.4854, 1967.836
418.9675, 1953.938
419.4496, 1947.563
419.9317, 1955.086
420.4138, 1965.875
420.8960, 1973.617
421.3781, 1978.252
421.8602, 1982.554
422.3423, 1988.732
422.8244, 1995.106
423.3065, 1993.791
423.7887, 1974.043
424.2708, 1963.621
424.7529, 1971.961
425.2350, 1985.425
425.7171, 1994.832
426.1992, 1997.986
426.6814, 1995.317
427.1635, 1982.889
427.6456, 1962.252
428.1277, 1953.902
428.6098, 1961.864
429.0919, 1974.579
429.5741, 1992.242
430.0562, 2009.173
430.5383, 2014.879
431.0204, 2002.100
431.5025, 1988.050
431.9846, 1990.721
432.4668, 2004.606
432.9489, 2007.757
433.4310, 1991.864
433.9131, 1973.160
434.3952, 1971.959
434.8773, 1990.381
435.3595, 2005.151
435.8416, 2016.137
436.3237, 2022.149
436.8058, 2017.562
437.2879, 2007.345
437.7701, 2004.224
438.2522, 2015.118
438.7343, 2034.416
439.2164, 2048.314
439.6985, 2058.208
440.1806, 2059.394
440.6628, 2045.260
441.1449, 2028.981
441.6270, 2014.020
442.1091, 2003.921
442.5912, 2006.806
443.0733, 2033.589
443.5555, 2076.291
444.0376, 2103.084
444.5197, 2109.385
445.0018, 2112.618
445.4839, 2118.781
445.9660, 2125.420
446.4482, 2129.064
446.9303, 2128.562
447.4124, 2130.809
447.8945, 2143.976
448.3766, 2162.128
448.8587, 2172.462
449.3409, 2173.065
449.8230, 2169.044
450.3051, 2161.374
450.7872, 2151.806
451.2693, 2154.896
451.7514, 2183.274
452.2336, 2208.581
452.7157, 2217.806
453.1978, 2219.682
453.6799, 2227.349
454.1620, 2244.294
454.6441, 2263.031
455.1263, 2273.764
455.6084, 2275.152
456.0905, 2276.085
456.5726, 2275.645
457.0547, 2275.688
457.5368, 2273.855
458.0190, 2273.603
458.5011, 2282.500
458.9832, 2305.634
459.4653, 2329.808
459.9474, 2333.542
460.4295, 2316.466
460.9117, 2303.574
461.3938, 2301.523
461.8759, 2302.371
462.3580, 2299.659
462.8401, 2293.779
463.3222, 2286.265
463.8044, 2277.787
464.2865, 2267.609
464.7686, 2253.520
465.2507, 2236.798
465.7328, 2223.146
466.2149, 2215.739
466.6971, 2210.135
467.1792, 2197.106
467.6613, 2167.358
468.1434, 2150.397
468.6255, 2157.505
469.1076, 2167.327
469.5898, 2166.426
470.0719, 2156.429
470.5540, 2145.807
471.0361, 2139.935
471.5182, 2136.875
472.0003, 2130.792
472.4825, 2120.990
472.9646, 2110.148
473.4467, 2097.326
473.9288, 2084.753
474.4109, 2071.534
474.8930, 2058.737
475.3752, 2053.173
475.8573, 2066.167
476.3394, 2085.937
476.8215, 2091.545
477.3036, 2082.405
477.7857, 2069.183
478.2679, 2055.000
478.7500, 2041.895
479.2321, 2035.945
479.7142, 2041.721
480.1963, 2042.314
480.6784, 2030.784
481.1606, 2015.208
481.6427, 2001.886
482.1248, 1991.750
482.6069, 1984.418
483.0890, 1980.203
483.5711, 1977.810
484.0533, 1969.085
484.5354, 1944.454
485.0175, 1929.579
485.4996, 1935.776
485.9817, 1946.488
486.4638, 1948.788
486.9460, 1941.345
487.4281, 1930.793
487.9102, 1920.161
488.3923, 1910.492
488.8744, 1906.499
489.3565, 1909.638
489.8387, 1909.822
490.3208, 1898.745
490.8029, 1883.235
491.2850, 1878.143
491.7671, 1887.740
492.2492, 1895.174
492.7314, 1897.321
493.2135, 1892.899
493.6956, 1874.607
494.1777, 1845.079
494.6598, 1822.855
495.1419, 1823.255
495.6241, 1842.324
496.1062, 1854.519
496.5883, 1857.392
497.0704, 1856.122
497.5525, 1849.497
498.0346, 1840.369
498.5168, 1828.357
498.9989, 1815.044
499.4810, 1807.163
499.9631, 1814.213
500.4452, 1830.992
500.9273, 1836.384
501.4095, 1827.623
501.8916, 1819.122
502.3737, 1817.268
502.8558, 1819.269
503.3379, 1820.865
503.8200, 1822.212
504.3022, 1822.150
504.7843, 1819.311
505.2664, 1815.363
505.7485, 1810.649
506.2306, 1806.048
506.7127, 1806.092
507.1949, 1814.455
507.6770, 1828.962
508.1591, 1840.097
508.6412, 1847.816
509.1233, 1851.889
509.6054, 1850.855
510.0876, 1847.512
510.5697, 1841.989
511.0518, 1835.652
511.5339, 1832.654
512.0161, 1837.896
512.4982, 1847.392
512.9803, 1849.186
513.4624, 1841.764
513.9445, 1836.136
514.4266, 1839.461
514.9088, 1843.402
515.3909, 1834.857
515.8730, 1812.353
516.3551, 1796.507
516.8372, 1798.422
517.3193, 1806.065
517.8015, 1810.374
518.2836, 1810.425
518.7657, 1805.277
519.2478, 1793.798
519.7299, 1779.739
520.2120, 1772.423
520.6942, 1777.339
521.1763, 1778.515
521.6584, 1771.254
522.1405, 1765.070
522.6226, 1765.890
523.1047, 1772.041
523.5869, 1778.565
524.0690, 1783.177
524.5511, 1786.207
525.0332, 1787.289
525.5153, 1786.446
525.9974, 1788.720
526.4796, 1798.541
526.9617, 1806.541
527.4438, 1798.419
527.9259, 1776.618
528.4080, 1763.666
528.8901, 1769.411
529.3723, 1778.202
529.8544, 1781.456
530.3365, 1780.939
530.8186, 1781.484
531.3007, 1784.615
531.7828, 1785.797
532.2650, 1777.238
532.7471, 1755.727
533.2292, 1744.366
533.7113, 1749.989
534.1934, 1758.427
534.6755, 1767.811
535.1577, 1776.461
535.6398, 1782.022
536.1219, 1783.615
536.6040, 1784.252
537.0861, 1786.454
537.5682, 1789.939
538.0504, 1795.605
538.5325, 1804.575
539.0146, 1806.982
539.4967, 1791.497
539.9788, 1763.895
540.4609, 1753.156
540.9431, 1772.814
541.4252, 1788.646
541.9073, 1790.457
542.3894, 1787.509
542.8715, 1788.148
543.3536, 1793.367
543.8358, 1800.250
544.3179, 1806.931
544.8000, 1812.963
545.2821, 1815.797
545.7642, 1813.598
546.2463, 1813.232
546.7285, 1817.351
547.2106, 1823.331
547.6927, 1830.641
548.1748, 1838.746
548.6569, 1843.507
549.1390, 1840.460
549.6211, 1834.993
550.1032, 1832.476
550.5853, 1832.723
551.0674, 1834.952
551.5496, 1839.256
552.0317, 1843.311
552.5138, 1842.957
552.9959, 1835.774
553.4780, 1832.423
553.9601, 1834.498
554.4423, 1838.091
554.9244, 1843.135
555.4065, 1848.197
555.8886, 1851.333
556.3707, 1851.834
556.8528, 1850.562
557.3350, 1847.885
557.8171, 1844.068
558.2992, 1841.107
558.7813, 1838.928
559.2634, 1838.542
559.7455, 1842.100
560.2277, 1847.789
560.7098, 1849.813
561.1919, 1846.234
561.6740, 1842.331
562.1561, 1840.621
562.6382, 1838.872
563.1204, 1834.043
563.6025, 1826.395
564.0846, 1818.833
564.5667, 1813.301
565.0488, 1809.686
565.5309, 1808.020
566.0131, 1810.383
566.4952, 1809.419
566.9773, 1797.280
567.4594, 1786.797
567.9415, 1788.568
568.4236, 1800.142
568.9058, 1808.918
569.3879, 1810.043
569.8700, 1805.682
570.3521, 1793.297
570.8342, 1776.721
571.3163, 1770.943
571.7985, 1781.357
572.2806, 1795.448
572.7627, 1797.590
573.2448, 1785.979
573.7269, 1779.568
574.2090, 1783.599
574.6912, 1786.220
575.1733, 1785.118
575.6554, 1780.743
576.1375, 1772.009
576.6196, 1759.360
577.1017, 1748.564
577.5839, 1747.149
578.0660, 1751.735
578.5481, 1749.050
579.0302, 1737.570
579.5123, 1731.172
579.9944, 1738.288
580.4766, 1752.330
580.9587, 1761.015
581.4408, 1764.244
581.9229, 1764.357
582.4050, 1759.780
582.8871, 1753.850
583.3693, 1748.381
583.8514, 1743.393
584.3335, 1737.809
584.8156, 1731.149
585.2977, 1725.635
585.7798, 1726.449
586.2620, 1734.635
586.7441, 1736.461
587.2262, 1728.655
587.7083, 1718.730
588.1904, 1709.656
588.6725, 1701.617
589.1547, 1694.748
589.6368, 1688.228
590.1189, 1685.036
590.6010, 1690.647
591.0831, 1698.200
591.5652, 1697.291
592.0474, 1688.479
592.5295, 1681.074
593.0116, 1681.460
593.4937, 1687.031
593.9758, 1689.689
594.4579, 1688.077
594.9401, 1686.751
595.4222, 1687.316
595.9043, 1687.089
596.3864, 1683.780
596.8685, 1678.618
597.3506, 1674.840
597.8328, 1674.116
598.3149, 1674.241
598.7970, 1671.913
599.2791, 1668.986
599.7612, 1672.299
600.2433, 1683.214
600.7255, 1691.268
601.2076, 1686.783
601.6897, 1671.590
602.1718, 1660.570
602.6539, 1651.799
603.1360, 1650.385
603.6182, 1666.899
604.1003, 1682.766
604.5824, 1681.789
605.0645, 1666.302
605.5466, 1651.074
606.0287, 1643.998
606.5109, 1642.469
606.9930, 1643.317
607.4751, 1646.394
607.9572, 1650.914
608.4393, 1657.172
608.9214, 1662.947
609.4036, 1665.663
609.8857, 1665.308
610.3678, 1666.531
610.8499, 1673.009
611.3320, 1676.274
611.8141, 1673.851
612.2963, 1667.607
612.7784, 1655.987
613.2605, 1641.250
613.7426, 1633.084
614.2247, 1641.619
614.7068, 1659.574
615.1890, 1670.230
615.6711, 1673.570
616.1532, 1668.252
616.6353, 1649.172
617.1174, 1629.780
617.5995, 1626.888
618.0817, 1640.910
618.5638, 1651.069
619.0459, 1657.541
619.5280, 1658.920
620.0101, 1650.993
620.4922, 1639.460
620.9744, 1630.488
621.4565, 1625.680
621.9386, 1624.544
622.4207, 1628.209
622.9028, 1634.524
623.3849, 1633.317
623.8671, 1622.476
624.3492, 1616.676
624.8313, 1621.967
625.3134, 1632.313
625.7955, 1642.944
626.2776, 1653.811
626.7598, 1657.517
627.2419, 1644.666
627.7240, 1633.458
628.2061, 1636.202
628.6882, 1645.162
629.1703, 1649.320
629.6525, 1645.931
630.1346, 1638.014
630.6167, 1626.842
631.0988, 1613.939
631.5809, 1608.285
632.0630, 1611.323
632.5452, 1616.516
633.0273, 1627.039
633.5094, 1633.837
633.9915, 1622.139
634.4736, 1593.323
634.9557, 1576.059
635.4379, 1581.802
635.9200, 1594.525
636.4021, 1609.989
636.8842, 1624.799
637.3663, 1635.923
637.8484, 1641.867
638.3306, 1638.602
638.8127, 1618.795
639.2948, 1586.855
639.7769, 1570.745
640.2590, 1573.106
640.7411, 1582.545
641.2233, 1603.524
641.7054, 1622.837
642.1875, 1623.528
642.6696, 1607.477
643.1517, 1598.259
643.6339, 1608.056
644.1160, 1618.042
644.5981, 1618.180
645.0802, 1611.708
645.5623, 1601.907
646.0444, 1590.526
646.5266, 1581.378
647.0087, 1577.784
647.4908, 1579.530
647.9729, 1587.623
648.4550, 1605.179
648.9371, 1616.142
649.4193, 1613.970
649.9014, 1606.375
650.3835, 1597.704
650.8656, 1588.946
651.3477, 1587.884
651.8298, 1604.430
652.3120, 1619.144
652.7941, 1621.098
653.2762, 1616.714
