##NAMES=Childrenite
##RRUFFID=R060146
##IDEAL CHEMISTRY=Fe^2+^AlPO_4_(OH)_2_&#183;H_2_O
##LOCALITY=George and Charlotte mine, Tavistock, Devon, England
##OWNER=RRUFF
##SOURCE=Marcus Origlieri
##DESCRIPTION=Brown transparent pyramidal single crystals
##STATUS=The identification of this mineral is confirmed by single-crystal X-ray diffraction and chemical analysis.
##URL=rruff.info/R060146
##MEASURED CHEMISTRY=(Fe^2+^_0.83_Mn_0.15_Ca_0.02_)_Σ=1_Al_1.00_(P_1.00_O_4_)(OH)_2_·H_2_O
90.26367, 6.284522
90.74579, 6.394202
91.22791, 6.376309
91.71002, 6.239510
92.19214, 6.056021
92.67426, 5.800910
93.15637, 5.533409
93.63850, 5.425196
94.12061, 5.647705
94.60273, 6.036283
95.08485, 6.199583
95.56696, 6.120690
96.04908, 5.921160
96.53120, 5.699409
97.01331, 5.462235
97.49543, 5.269172
97.97755, 5.138267
98.45966, 5.071115
98.94178, 5.093054
99.42390, 5.230988
99.90602, 5.419178
100.3881, 5.556087
100.8703, 5.655560
101.3524, 5.653001
101.8345, 5.434484
102.3166, 4.881427
102.7987, 4.658702
103.2808, 4.940413
103.7630, 5.582735
104.2451, 5.928519
104.7272, 5.852036
105.2093, 5.649282
105.6914, 5.511363
106.1735, 5.481514
106.6557, 5.444256
107.1378, 5.380206
107.6199, 5.287408
108.1020, 5.215211
108.5841, 5.137748
109.0662, 5.094253
109.5484, 5.118818
110.0305, 5.213260
110.5126, 5.373907
110.9947, 5.613722
111.4768, 5.951524
111.9590, 6.290478
112.4411, 6.656457
112.9232, 7.013221
113.4053, 7.303392
113.8874, 7.398509
114.3695, 7.524587
114.8517, 7.768178
115.3338, 8.162182
115.8159, 8.614794
116.2980, 9.113412
116.7801, 9.656938
117.2622, 10.23729
117.7444, 10.78027
118.2265, 11.40605
118.7086, 12.20351
119.1907, 13.27909
119.6728, 14.41091
120.1549, 15.42181
120.6371, 16.36437
121.1192, 17.45661
121.6013, 18.87985
122.0834, 20.49103
122.5655, 22.14014
123.0477, 23.94501
123.5298, 25.62700
124.0119, 26.79015
124.4940, 27.47317
124.9761, 28.22680
125.4582, 29.65597
125.9404, 31.46129
126.4225, 33.04350
126.9046, 34.06906
127.3867, 34.75986
127.8688, 35.43864
128.3509, 36.10411
128.8331, 36.77010
129.3152, 37.40968
129.7973, 38.04722
130.2794, 38.78581
130.7615, 39.66233
131.2436, 40.67629
131.7258, 41.80468
132.2079, 43.03538
132.6900, 44.41371
133.1721, 46.06705
133.6542, 47.99158
134.1364, 49.96324
134.6185, 51.86958
135.1006, 53.72304
135.5827, 55.61602
136.0648, 57.56250
136.5469, 59.56251
137.0291, 61.71587
137.5112, 64.09889
137.9933, 66.25809
138.4754, 67.87736
138.9575, 68.87029
139.4396, 69.76634
139.9218, 70.59528
140.4039, 71.36752
140.8860, 72.07272
141.3681, 72.59316
141.8502, 73.25021
142.3323, 74.36879
142.8145, 76.28122
143.2966, 77.81788
143.7787, 78.63099
144.2608, 78.74577
144.7429, 79.29565
145.2251, 80.48746
145.7072, 81.93694
146.1893, 83.28329
146.6714, 84.41006
147.1535, 85.60706
147.6356, 86.96213
148.1178, 88.51321
148.5999, 89.92322
149.0820, 90.93896
149.5641, 91.91525
150.0462, 93.26456
150.5283, 95.59692
151.0105, 97.67701
151.4926, 98.21768
151.9747, 97.63251
152.4568, 97.52195
152.9389, 98.32632
153.4210, 99.51891
153.9032, 100.3763
154.3853, 100.6514
154.8674, 100.7406
155.3495, 100.7470
155.8316, 100.6314
156.3138, 100.5488
156.7959, 100.4051
157.2780, 100.3125
157.7601, 100.4851
158.2422, 101.3615
158.7243, 102.2198
159.2065, 102.6942
159.6886, 102.5084
160.1707, 102.3298
160.6528, 102.3736
161.1349, 102.5700
161.6170, 102.7373
162.0992, 102.7647
162.5813, 102.7682
163.0634, 102.8152
163.5455, 102.8631
164.0276, 103.0313
164.5097, 103.4654
164.9919, 104.0949
165.4740, 104.6464
165.9561, 104.8549
166.4382, 104.9849
166.9203, 105.2811
167.4025, 105.9106
167.8846, 106.6229
168.3667, 107.2797
168.8488, 107.8894
169.3309, 108.5031
169.8130, 109.1325
170.2952, 109.7911
170.7773, 110.4818
171.2594, 111.0678
171.7415, 111.7930
172.2236, 113.0239
172.7057, 114.7209
173.1879, 116.3056
173.6700, 117.3744
174.1521, 118.0382
174.6342, 118.4933
175.1163, 118.7934
175.5984, 118.9386
176.0806, 118.8277
176.5627, 118.4562
177.0448, 118.1589
177.5269, 118.3650
178.0090, 118.8826
178.4911, 119.2609
178.9733, 119.2190
179.4554, 118.9474
179.9375, 118.6987
180.4196, 118.4706
180.9017, 118.3498
181.3839, 118.5027
181.8660, 118.8626
182.3481, 119.1967
182.8302, 119.3386
183.3123, 119.3852
183.7944, 119.5183
184.2766, 119.7285
184.7587, 120.1107
185.2408, 120.9368
185.7229, 122.1199
186.2050, 123.1737
186.6871, 123.7555
187.1693, 123.9975
187.6514, 124.3300
188.1335, 124.7691
188.6156, 125.3125
189.0977, 125.9709
189.5798, 126.7394
190.0620, 127.5995
190.5441, 128.6046
191.0262, 129.7243
191.5083, 130.7098
191.9904, 131.5002
192.4725, 132.2959
192.9547, 133.5823
193.4368, 135.3922
193.9189, 137.0080
194.4010, 137.8744
194.8831, 138.0551
195.3652, 138.5905
195.8474, 139.6462
196.3295, 140.9311
196.8116, 141.8196
197.2937, 142.2655
197.7758, 142.7284
198.2579, 143.4267
198.7401, 144.3594
199.2222, 145.5861
199.7043, 147.2233
200.1864, 149.0049
200.6685, 150.3048
201.1507, 151.0530
201.6328, 151.6077
202.1149, 152.0990
202.5970, 152.4982
203.0791, 153.1606
203.5612, 154.2176
204.0434, 155.4701
204.5255, 156.3272
205.0076, 156.7022
205.4897, 156.9869
205.9718, 157.4722
206.4539, 158.2339
206.9361, 158.7437
207.4182, 158.9229
207.9003, 158.8372
208.3824, 158.6872
208.8645, 158.4687
209.3466, 158.1981
209.8288, 157.8943
210.3109, 157.5739
210.7930, 157.1529
211.2751, 156.6307
211.7572, 156.0032
212.2393, 155.2025
212.7215, 154.1679
213.2036, 153.1100
213.6857, 152.1636
214.1678, 151.3483
214.6499, 150.5540
215.1321, 149.7208
215.6142, 148.8957
216.0963, 148.3584
216.5784, 148.2827
217.0605, 148.1677
217.5426, 147.6608
218.0248, 146.6267
218.5069, 145.6091
218.9890, 144.6175
219.4711, 143.6790
219.9532, 142.9051
220.4353, 142.3145
220.9175, 141.8481
221.3996, 141.4720
221.8817, 141.2105
222.3638, 140.9882
222.8459, 140.8118
223.3280, 140.6708
223.8102, 140.5226
224.2923, 140.3548
224.7744, 140.1927
225.2565, 140.0113
225.7386, 139.6653
226.2208, 139.6515
226.7029, 140.0616
227.1850, 140.8452
227.6671, 141.7577
228.1492, 142.9182
228.6313, 144.0378
229.1135, 144.9273
229.5956, 145.5021
230.0777, 146.0459
230.5598, 146.5303
231.0419, 146.9966
231.5240, 147.6644
232.0062, 148.6103
232.4883, 149.6566
232.9704, 150.7223
233.4525, 151.8842
233.9346, 152.8890
234.4167, 153.6538
234.8989, 154.2356
235.3810, 154.8842
235.8631, 155.5638
236.3452, 156.3662
236.8273, 157.4090
237.3095, 158.9820
237.7916, 160.1268
238.2737, 160.5525
238.7558, 160.4970
239.2379, 161.0235
239.7200, 162.5398
240.2022, 164.0844
240.6843, 165.0797
241.1664, 165.0272
241.6485, 165.5526
242.1306, 167.0145
242.6127, 169.1111
243.0949, 170.6173
243.5770, 171.2466
244.0591, 171.6948
244.5412, 172.2896
245.0233, 173.0386
245.5054, 173.9498
245.9876, 175.1470
246.4697, 176.4897
246.9518, 177.5755
247.4339, 178.3964
247.9160, 178.9766
248.3981, 179.2848
248.8803, 179.1689
249.3624, 179.1741
249.8445, 179.4888
250.3266, 179.8806
250.8087, 179.6976
251.2909, 178.7813
251.7730, 177.5396
252.2551, 176.1575
252.7372, 174.6408
253.2193, 172.9368
253.7014, 171.0578
254.1836, 168.9998
254.6657, 166.7734
255.1478, 164.3792
255.6299, 161.8073
256.1120, 158.9684
256.5941, 155.7291
257.0763, 152.7304
257.5584, 150.0436
258.0405, 147.5218
258.5226, 144.8860
259.0047, 141.9901
259.4868, 139.2387
259.9690, 136.8395
260.4511, 134.8844
260.9332, 132.8757
261.4153, 130.7976
261.8974, 128.6551
262.3795, 126.4398
262.8617, 124.0028
263.3438, 121.8055
263.8259, 120.0127
264.3080, 118.6826
264.7901, 117.3787
265.2722, 116.0121
265.7544, 114.7748
266.2365, 114.1141
266.7186, 114.3547
267.2007, 114.1705
267.6829, 113.0154
268.1650, 110.7981
268.6471, 108.9543
269.1292, 107.4923
269.6113, 106.3358
270.0934, 105.3955
270.5756, 104.6689
271.0577, 104.1439
271.5398, 103.8709
272.0219, 103.8386
272.5040, 103.7073
272.9861, 103.4438
273.4683, 103.1566
273.9504, 102.9602
274.4325, 102.8679
274.9146, 102.7960
275.3967, 102.7239
275.8788, 102.6538
276.3610, 102.5540
276.8431, 102.3552
277.3252, 102.3383
277.8073, 102.9242
278.2894, 104.1943
278.7715, 105.1027
279.2537, 105.3141
279.7358, 105.0414
280.2179, 105.2474
280.7000, 106.0297
281.1821, 106.8601
281.6642, 107.2614
282.1464, 107.2311
282.6285, 107.3108
283.1106, 107.5757
283.5927, 108.0147
284.0748, 108.6595
284.5569, 109.5368
285.0391, 110.3922
285.5212, 110.9272
286.0033, 111.1926
286.4854, 111.8688
286.9675, 113.1624
287.4496, 114.7151
287.9318, 115.7725
288.4139, 116.3345
288.8960, 116.8344
289.3781, 117.5855
289.8602, 118.5254
290.3424, 119.3182
290.8245, 119.9094
291.3066, 120.4203
291.7887, 120.9936
292.2708, 121.6354
292.7530, 122.3809
293.2351, 123.4296
293.7172, 124.6106
294.1993, 125.2288
294.6814, 125.1480
295.1635, 125.0233
295.6457, 125.7586
296.1278, 127.1949
296.6099, 128.6592
297.0920, 129.9350
297.5741, 130.9881
298.0562, 131.6609
298.5384, 131.9265
299.0205, 132.0559
299.5026, 132.2756
299.9847, 132.5646
300.4668, 132.8773
300.9489, 133.2371
301.4311, 133.5856
301.9132, 133.8243
302.3953, 133.9586
302.8774, 134.0456
303.3595, 134.1373
303.8416, 134.2153
304.3238, 134.2492
304.8059, 134.2360
305.2880, 134.1685
305.7701, 134.0638
306.2522, 133.9101
306.7343, 133.6428
307.2165, 133.1197
307.6986, 132.4873
308.1807, 131.9522
308.6628, 131.6649
309.1449, 131.3072
309.6270, 130.4967
310.1092, 129.3696
310.5913, 128.3909
311.0734, 127.9878
311.5555, 127.7477
312.0376, 127.3325
312.5197, 126.6780
313.0019, 125.8488
313.4840, 124.7268
313.9661, 123.4495
314.4482, 122.2880
314.9304, 121.5360
315.4125, 120.8095
315.8946, 119.8618
316.3767, 118.6210
316.8588, 117.3679
317.3409, 116.0496
317.8231, 114.8220
318.3052, 113.8937
318.7873, 113.7923
319.2694, 113.5854
319.7515, 112.6419
320.2336, 110.8431
320.7158, 109.1962
321.1979, 109.1312
321.6800, 108.8179
322.1621, 108.2695
322.6442, 106.7820
323.1263, 106.5071
323.6085, 105.7462
324.0906, 104.9654
324.5727, 104.8612
325.0548, 103.5103
325.5369, 103.4524
326.0190, 103.1245
326.5012, 103.1918
326.9833, 103.1887
327.4654, 103.1335
327.9475, 102.9970
328.4296, 102.6577
328.9117, 101.8017
329.3939, 101.0208
329.8760, 100.5711
330.3581, 100.7488
330.8402, 100.6966
331.3223, 100.1913
331.8044, 99.51443
332.2866, 99.26680
332.7687, 99.76847
333.2508, 100.2292
333.7329, 100.3910
334.2150, 100.1912
334.6971, 99.97354
335.1793, 99.69668
335.6614, 99.43953
336.1435, 99.31272
336.6256, 99.34716
337.1077, 99.44223
337.5899, 99.62289
338.0720, 99.87995
338.5541, 99.90945
339.0362, 99.64676
339.5183, 99.31032
340.0005, 99.06382
340.4826, 98.89322
340.9647, 98.94146
341.4468, 99.34230
341.9289, 99.92030
342.4110, 100.0316
342.8932, 99.60693
343.3753, 99.15614
343.8574, 98.55495
344.3395, 99.17474
344.8216, 99.54612
345.3037, 99.68244
345.7859, 98.87971
346.2680, 99.28958
346.7501, 99.21349
347.2322, 99.11747
347.7143, 99.69801
348.1964, 99.03185
348.6786, 99.60166
349.1607, 99.67809
349.6428, 99.98032
350.1249, 99.79360
350.6070, 99.75790
351.0891, 99.02766
351.5713, 99.58299
352.0534, 99.88992
352.5355, 99.96181
353.0176, 99.09463
353.4997, 99.44006
353.9818, 99.29951
354.4640, 99.13905
354.9461, 99.65515
355.4282, 98.92455
355.9103, 99.42992
356.3924, 99.44190
356.8745, 99.67970
357.3567, 99.42853
357.8388, 99.32839
358.3209, 99.71736
358.8030, 99.83551
359.2851, 99.52806
359.7672, 99.78020
360.2494, 99.03252
360.7315, 99.16220
361.2136, 99.67043
361.6957, 99.38756
362.1779, 98.93543
362.6600, 98.95872
363.1421, 99.39913
363.6242, 99.80293
364.1063, 99.94032
364.5884, 100.0123
365.0706, 100.2230
365.5527, 100.8652
366.0348, 101.3845
366.5169, 101.6081
366.9990, 101.5506
367.4811, 101.5074
367.9633, 101.4237
368.4454, 101.4174
368.9275, 101.5641
369.4096, 102.2118
369.8917, 102.5250
370.3738, 102.2554
370.8560, 101.6496
371.3381, 101.4047
371.8202, 101.7007
372.3023, 102.1118
372.7844, 102.4835
373.2665, 102.8001
373.7487, 103.1552
374.2308, 103.6297
374.7129, 104.0624
375.1950, 104.2093
375.6771, 103.9797
376.1592, 103.7424
376.6414, 103.5269
377.1235, 103.3623
377.6056, 103.6013
378.0877, 104.3571
378.5698, 105.1545
379.0519, 105.5689
379.5341, 105.5955
380.0162, 105.5624
380.4983, 105.4752
380.9804, 105.4165
381.4625, 105.5679
381.9446, 105.9291
382.4268, 106.4420
382.9089, 107.2379
383.3910, 108.1715
383.8731, 108.7211
384.3553, 108.7783
384.8374, 108.7638
385.3195, 109.2806
385.8016, 110.1467
386.2837, 110.8342
386.7658, 110.9192
387.2480, 110.7821
387.7301, 110.8909
388.2122, 111.2421
388.6943, 111.7075
389.1764, 112.2461
389.6585, 112.8232
390.1407, 113.3991
390.6228, 114.0492
391.1049, 114.5704
391.5870, 114.6622
392.0691, 114.4811
392.5512, 114.4987
393.0334, 115.3055
393.5155, 116.1205
393.9976, 115.7269
394.4797, 116.4475
394.9618, 116.9193
395.4439, 117.1538
395.9261, 116.5510
396.4082, 116.9441
396.8903, 116.8859
397.3724, 116.7736
397.8545, 116.6978
398.3366, 117.1227
398.8188, 117.3360
399.3009, 117.3491
399.7830, 116.5623
400.2651, 116.8084
400.7472, 116.6405
401.2293, 116.4557
401.7115, 116.8472
402.1936, 116.1767
402.6757, 116.5590
403.1578, 115.7976
403.6399, 114.9763
404.1220, 114.3914
404.6042, 114.1015
405.0863, 113.6591
405.5684, 112.9978
406.0505, 112.2981
406.5326, 111.7954
407.0147, 111.5012
407.4969, 111.3283
407.9790, 111.3361
408.4611, 111.4285
408.9432, 111.1778
409.4254, 110.5633
409.9075, 109.8383
410.3896, 109.1609
410.8717, 108.5293
411.3538, 107.9268
411.8359, 107.3496
412.3181, 106.8205
412.8002, 106.4009
413.2823, 106.0736
413.7644, 105.7387
414.2465, 105.2719
414.7286, 104.8005
415.2108, 104.5553
415.6929, 104.5569
416.1750, 104.4742
416.6571, 103.9362
417.1392, 103.1963
417.6213, 102.5808
418.1035, 102.2834
418.5856, 102.0559
419.0677, 101.7894
419.5498, 101.4837
420.0319, 101.1474
420.5140, 100.6801
420.9962, 100.2531
421.4783, 99.97258
421.9604, 99.22473
422.4425, 99.71372
422.9246, 99.95432
423.4067, 99.95985
423.8889, 99.02630
424.3710, 99.30537
424.8531, 99.09849
425.3352, 98.87167
425.8173, 99.32142
426.2994, 98.52446
426.7816, 98.96346
427.2637, 98.90908
427.7458, 99.67440
428.2279, 100.0761
428.7100, 100.2428
429.1921, 99.47035
429.6743, 99.91056
430.1564, 99.86480
430.6385, 99.79911
431.1206, 100.4100
431.6028, 99.77418
432.0849, 100.3743
432.5670, 100.4811
433.0491, 100.8137
433.5312, 100.6573
434.0133, 100.6519
434.4955, 101.0991
434.9776, 101.6515
435.4597, 102.0023
435.9418, 102.3180
436.4239, 102.9784
436.9060, 103.9169
437.3882, 104.7407
437.8703, 105.0945
438.3524, 105.2157
438.8345, 105.4188
439.3166, 105.7314
439.7987, 106.1594
440.2809, 106.8281
440.7630, 107.5944
441.2451, 108.2284
441.7272, 108.4573
442.2093, 108.6922
442.6914, 109.1520
443.1736, 109.8174
443.6557, 110.5421
444.1378, 111.2613
444.6199, 112.0356
445.1020, 112.8931
445.5841, 113.8109
446.0663, 114.8607
446.5484, 116.1870
447.0305, 117.6256
447.5126, 118.9055
447.9947, 119.8200
448.4768, 120.8035
448.9590, 121.9634
449.4411, 123.2978
449.9232, 124.6672
450.4053, 126.1629
450.8874, 127.5782
451.3695, 128.6711
451.8517, 129.3078
452.3338, 130.2478
452.8159, 131.5999
453.2980, 133.2236
453.7801, 134.8957
454.2622, 136.6048
454.7444, 138.3143
455.2265, 139.9440
455.7086, 141.5501
456.1907, 143.3174
456.6729, 145.2769
457.1550, 147.2879
457.6371, 149.3382
458.1192, 151.3694
458.6013, 153.3030
459.0834, 155.1153
459.5656, 156.7932
460.0477, 158.2991
460.5298, 159.6511
461.0119, 160.8268
461.4940, 161.8262
461.9761, 162.6714
462.4583, 163.3786
462.9404, 163.9559
463.4225, 164.3989
463.9046, 164.9421
464.3867, 165.2453
464.8688, 164.9754
465.3510, 163.7125
465.8331, 162.2658
466.3152, 160.8090
466.7973, 159.3020
467.2794, 157.6000
467.7615, 155.4389
468.2437, 153.3098
468.7258, 151.3843
469.2079, 149.7478
469.6900, 148.0143
470.1721, 146.0995
470.6542, 144.1934
471.1364, 142.5248
471.6185, 141.1665
472.1006, 139.7469
472.5827, 138.1726
473.0648, 136.5128
473.5469, 135.0167
474.0291, 133.7038
474.5112, 132.3324
474.9933, 130.6516
475.4754, 128.7729
475.9575, 127.2239
476.4396, 126.0529
476.9218, 124.9752
477.4039, 123.7748
477.8860, 122.4439
478.3681, 120.9586
478.8503, 119.2069
479.3324, 117.4248
479.8145, 115.7969
480.2966, 114.3108
480.7787, 112.9920
481.2608, 111.9671
481.7430, 110.9976
482.2251, 109.9128
482.7072, 108.6764
483.1893, 107.4228
483.6714, 106.0390
484.1535, 104.7304
484.6357, 103.7024
485.1178, 103.2113
485.5999, 102.7366
486.0820, 102.2890
486.5641, 101.8210
487.0462, 101.1070
487.5284, 99.89889
488.0105, 98.78080
488.4926, 98.01493
488.9747, 97.69046
489.4568, 97.17019
489.9389, 96.39143
490.4211, 95.53738
490.9032, 94.81396
491.3853, 94.22126
491.8674, 93.68079
492.3495, 93.17001
492.8316, 92.71518
493.3138, 92.37778
493.7959, 92.15244
494.2780, 92.00648
494.7601, 92.02480
495.2422, 92.08318
495.7243, 91.90269
496.2065, 91.45931
496.6886, 91.01041
497.1707, 90.74291
497.6528, 90.59557
498.1349, 90.48555
498.6170, 90.39896
499.0992, 90.32764
499.5813, 90.28963
500.0634, 90.26371
500.5455, 90.19791
501.0276, 90.09731
501.5097, 89.93457
501.9919, 89.65353
502.4740, 89.21809
502.9561, 88.91605
503.4382, 88.82311
503.9203, 88.82893
504.4025, 88.86888
504.8846, 88.98576
505.3667, 89.05579
505.8488, 89.10003
506.3309, 89.07612
506.8130, 88.83433
507.2952, 88.29917
507.7773, 87.89170
508.2594, 87.81188
508.7415, 88.00060
509.2236, 88.13277
509.7057, 88.20850
510.1879, 88.23018
510.6700, 88.17496
511.1521, 88.06643
511.6342, 87.98954
512.1163, 87.97877
512.5984, 87.92764
513.0806, 87.65578
513.5627, 87.26235
514.0448, 86.95471
514.5269, 86.90618
515.0090, 86.90536
515.4911, 86.75486
515.9733, 86.49208
516.4554, 86.38065
516.9375, 86.74887
517.4196, 87.13055
517.9017, 87.21315
518.3839, 86.76846
518.8660, 86.49613
519.3481, 86.65983
519.8302, 86.94456
520.3123, 87.00349
520.7944, 86.66225
521.2766, 86.41772
521.7587, 86.36604
522.2408, 86.46507
522.7229, 86.57031
523.2050, 86.70634
523.6871, 86.76407
524.1693, 86.61415
524.6514, 86.28908
525.1335, 86.19722
525.6156, 86.36304
526.0977, 86.60581
526.5798, 86.70513
527.0620, 86.73119
527.5441, 86.91589
528.0262, 87.38444
528.5083, 87.88049
528.9904, 88.10875
529.4725, 88.14314
529.9547, 88.16181
530.4368, 88.24125
530.9189, 88.33889
531.4010, 88.39194
531.8831, 88.40299
532.3652, 88.52693
532.8474, 88.83874
533.3295, 89.26232
533.8116, 89.76923
534.2937, 90.51217
534.7758, 91.05944
535.2579, 91.27279
535.7401, 91.35080
536.2222, 91.55187
536.7043, 91.85376
537.1865, 92.34907
537.6686, 93.09284
538.1507, 94.04558
538.6328, 95.04308
539.1149, 96.12765
539.5970, 97.05859
540.0792, 97.47243
540.5613, 97.55708
541.0434, 98.23785
541.5255, 99.58703
542.0076, 101.1379
542.4897, 102.5674
542.9719, 103.8568
543.4540, 104.9653
543.9361, 105.7769
544.4182, 106.5604
544.9003, 107.5248
545.3824, 108.6080
545.8646, 109.6734
546.3467, 110.6032
546.8288, 111.5569
547.3109, 112.6355
547.7930, 113.8360
548.2751, 114.9609
548.7573, 115.8355
549.2394, 116.7402
549.7215, 117.8439
550.2036, 119.3165
550.6857, 120.5864
551.1678, 121.5325
551.6500, 122.4071
552.1321, 123.6629
552.6142, 125.4344
553.0963, 126.7295
553.5784, 127.1873
554.0605, 127.1377
554.5427, 127.5100
555.0248, 128.2735
555.5069, 128.8645
555.9890, 129.0645
556.4711, 128.8293
556.9532, 127.9323
557.4354, 126.3685
557.9175, 124.6992
558.3996, 123.5523
558.8817, 122.4494
559.3638, 120.8454
559.8459, 118.4842
560.3281, 115.9000
560.8102, 112.9492
561.2923, 110.0088
561.7744, 107.6942
562.2565, 106.5943
562.7386, 105.6141
563.2208, 104.4935
563.7029, 103.2814
564.1850, 102.2339
564.6671, 101.3218
565.1492, 100.6459
565.6313, 100.2974
566.1135, 100.3013
566.5956, 100.3377
567.0777, 100.4091
567.5598, 100.5034
568.0419, 100.5326
568.5240, 100.5470
569.0062, 100.8116
569.4883, 101.3813
569.9704, 102.2062
570.4525, 103.3861
570.9346, 104.7866
571.4167, 106.0051
571.8989, 106.6114
572.3810, 107.2035
572.8631, 108.1980
573.3452, 109.5611
573.8273, 111.0771
574.3094, 112.8840
574.7916, 114.6383
575.2737, 116.0793
575.7558, 116.9495
576.2379, 118.2651
576.7200, 120.3439
577.2021, 122.6096
577.6843, 124.5168
578.1664, 125.7926
578.6485, 127.5322
579.1306, 130.0372
579.6127, 132.8753
580.0948, 135.1799
580.5770, 136.9404
581.0591, 138.8146
581.5412, 141.0943
582.0233, 143.6188
582.5054, 146.0914
582.9875, 148.4801
583.4697, 150.7997
583.9518, 152.7723
584.4340, 154.7987
584.9161, 157.3708
