##NAMES=Childrenite
##RRUFFID=R070538
##IDEAL CHEMISTRY=Fe^2+^AlPO_4_(OH)_2_&#183;H_2_O
##LOCALITY=Llallagua, Bustillos Province, Potosi, Bolivia
##OWNER=RRUFF
##SOURCE=James Shigley
##DESCRIPTION=Brown pyramidal, prismatic crystals
##STATUS=The identification of this mineral has been confirmed by single-crystal X-ray diffraction.
##URL=rruff.info/R070538
141.1665, 2635.391
141.6486, 2758.299
142.1308, 2892.582
142.6129, 3030.256
143.0950, 3168.671
143.5771, 3306.261
144.0592, 3438.065
144.5413, 3562.470
145.0235, 3683.445
145.5056, 3801.957
145.9877, 3917.011
146.4698, 4030.214
146.9519, 4144.467
147.4340, 4253.561
147.9162, 4326.369
148.3983, 4335.358
148.8804, 4346.590
149.3625, 4386.664
149.8446, 4442.361
150.3267, 4487.236
150.8089, 4509.129
151.2910, 4506.719
151.7731, 4475.715
152.2552, 4402.123
152.7373, 4320.956
153.2194, 4230.425
153.7016, 4139.465
154.1837, 4076.623
154.6658, 4063.660
155.1479, 4089.507
155.6300, 4099.911
156.1121, 4071.140
156.5943, 4050.803
157.0764, 4071.057
157.5585, 4124.291
158.0406, 4174.206
158.5227, 4197.429
159.0048, 4202.465
159.4870, 4221.288
159.9691, 4247.702
160.4512, 4268.205
160.9333, 4271.447
161.4154, 4259.659
161.8975, 4249.903
162.3797, 4251.287
162.8618, 4262.365
163.3439, 4276.233
163.8260, 4299.244
164.3081, 4319.504
164.7902, 4328.413
165.2724, 4326.618
165.7545, 4318.660
166.2366, 4304.499
166.7187, 4287.012
167.2008, 4271.896
167.6829, 4258.282
168.1651, 4248.769
168.6472, 4246.307
169.1293, 4250.991
169.6114, 4259.392
170.0935, 4274.115
170.5756, 4290.042
171.0578, 4298.045
171.5399, 4292.098
172.0220, 4282.977
172.5041, 4280.507
172.9862, 4284.473
173.4683, 4294.975
173.9505, 4316.675
174.4326, 4343.324
174.9147, 4367.648
175.3968, 4390.752
175.8789, 4407.444
176.3610, 4408.864
176.8432, 4392.875
177.3253, 4375.982
177.8074, 4362.278
178.2895, 4353.300
178.7716, 4353.868
179.2537, 4372.443
179.7359, 4390.080
180.2180, 4376.567
180.7001, 4324.715
181.1822, 4282.149
181.6643, 4276.604
182.1465, 4289.918
182.6286, 4307.369
183.1107, 4328.012
183.5928, 4346.883
184.0749, 4356.581
184.5570, 4355.677
185.0392, 4353.027
185.5213, 4347.697
186.0034, 4344.314
186.4855, 4348.249
186.9676, 4362.057
187.4497, 4380.783
187.9319, 4397.799
188.4140, 4412.525
188.8961, 4428.353
189.3782, 4451.383
189.8603, 4473.797
190.3424, 4487.542
190.8246, 4488.904
191.3067, 4486.269
191.7888, 4488.802
192.2709, 4495.800
192.7530, 4511.232
193.2351, 4548.966
193.7173, 4589.461
194.1994, 4616.681
194.6815, 4625.512
195.1636, 4626.194
195.6457, 4630.688
196.1278, 4639.374
196.6100, 4650.113
197.0921, 4666.409
197.5742, 4682.411
198.0563, 4693.024
198.5384, 4696.746
199.0205, 4698.628
199.5027, 4703.987
199.9848, 4712.852
200.4669, 4725.158
200.9490, 4746.364
201.4311, 4767.820
201.9132, 4784.735
202.3954, 4796.113
202.8775, 4801.776
203.3596, 4797.373
203.8417, 4780.230
204.3238, 4773.210
204.8059, 4792.119
205.2881, 4815.564
205.7702, 4831.755
206.2523, 4838.813
206.7344, 4839.441
207.2165, 4832.800
207.6986, 4817.436
208.1808, 4810.603
208.6629, 4828.892
209.1450, 4845.494
209.6271, 4842.085
210.1092, 4818.144
210.5913, 4789.223
211.0735, 4768.076
211.5556, 4754.799
212.0377, 4745.345
212.5198, 4746.153
213.0019, 4744.220
213.4840, 4730.992
213.9662, 4707.278
214.4483, 4680.658
214.9304, 4654.354
215.4125, 4628.728
215.8946, 4612.419
216.3767, 4611.485
216.8589, 4614.931
217.3410, 4620.082
217.8231, 4625.102
218.3052, 4624.381
218.7873, 4612.929
219.2694, 4591.611
219.7516, 4566.452
220.2337, 4531.424
220.7158, 4501.244
221.1979, 4485.260
221.6800, 4479.892
222.1621, 4474.983
222.6443, 4460.751
223.1264, 4441.384
223.6085, 4436.498
224.0906, 4455.802
224.5727, 4473.823
225.0548, 4479.761
225.5370, 4475.538
226.0191, 4463.729
226.5012, 4438.445
226.9833, 4408.669
227.4654, 4398.410
227.9475, 4411.584
228.4297, 4436.308
228.9118, 4474.987
229.3939, 4518.968
229.8760, 4555.022
230.3581, 4575.106
230.8402, 4587.302
231.3224, 4605.767
231.8045, 4631.662
232.2866, 4659.521
232.7687, 4689.385
233.2508, 4718.799
233.7329, 4743.571
234.2151, 4759.134
234.6972, 4775.568
235.1793, 4807.487
235.6614, 4856.690
236.1435, 4907.531
236.6256, 4960.632
237.1078, 5008.445
237.5899, 5038.123
238.0720, 5041.053
238.5541, 5047.449
239.0362, 5093.196
239.5183, 5178.042
240.0005, 5255.240
240.4826, 5309.569
240.9647, 5350.390
241.4468, 5387.815
241.9289, 5422.378
242.4111, 5453.896
242.8932, 5481.000
243.3753, 5504.472
243.8574, 5527.547
244.3395, 5547.866
244.8216, 5572.332
245.3038, 5611.749
245.7859, 5666.253
246.2680, 5713.405
246.7501, 5733.545
247.2322, 5736.980
247.7143, 5754.673
248.1965, 5796.755
248.6786, 5843.159
249.1607, 5876.136
249.6428, 5897.259
250.1249, 5908.343
250.6070, 5907.465
251.0892, 5897.793
251.5713, 5884.778
252.0534, 5869.230
252.5355, 5848.816
253.0176, 5824.806
253.4997, 5795.144
253.9819, 5748.330
254.4640, 5663.852
254.9461, 5572.131
255.4282, 5510.458
255.9103, 5480.239
256.3924, 5444.384
256.8745, 5374.517
257.3567, 5277.118
257.8388, 5189.167
258.3209, 5118.207
258.8030, 5051.797
259.2851, 4974.870
259.7672, 4892.653
260.2494, 4833.990
260.7315, 4824.545
261.2136, 4843.012
261.6957, 4818.984
262.1778, 4731.138
262.6599, 4635.749
263.1421, 4548.068
263.6242, 4468.950
264.1063, 4403.834
264.5884, 4356.828
265.0705, 4318.815
265.5526, 4268.010
266.0348, 4196.906
266.5169, 4131.435
266.9990, 4077.235
267.4811, 4030.719
267.9632, 3986.149
268.4453, 3942.098
268.9275, 3903.089
269.4096, 3876.383
269.8917, 3868.478
270.3738, 3857.442
270.8559, 3842.979
271.3380, 3825.463
271.8202, 3802.983
272.3023, 3776.453
272.7844, 3750.818
273.2665, 3730.962
273.7487, 3716.888
274.2308, 3709.824
274.7129, 3714.772
275.1950, 3720.794
275.6771, 3722.881
276.1592, 3721.412
276.6414, 3718.043
277.1235, 3712.999
277.6056, 3707.039
278.0877, 3712.619
278.5698, 3745.973
279.0519, 3772.723
279.5341, 3778.570
280.0162, 3774.531
280.4983, 3777.211
280.9804, 3795.284
281.4625, 3825.090
281.9446, 3856.686
282.4268, 3901.423
282.9089, 3930.122
283.3910, 3926.617
283.8731, 3914.478
284.3552, 3915.359
284.8373, 3935.831
285.3195, 3967.154
285.8016, 3995.631
286.2837, 4017.928
286.7658, 4046.725
287.2479, 4089.472
287.7300, 4132.991
288.2122, 4168.575
288.6943, 4196.533
289.1764, 4224.393
289.6585, 4260.022
290.1406, 4303.909
290.6227, 4347.625
291.1049, 4395.508
291.5870, 4438.432
292.0691, 4468.985
292.5512, 4491.486
293.0333, 4516.457
293.5154, 4550.972
293.9976, 4592.642
294.4797, 4632.628
294.9618, 4670.545
295.4439, 4707.490
295.9260, 4746.448
296.4081, 4784.245
296.8903, 4815.614
297.3724, 4836.075
297.8545, 4853.967
298.3366, 4880.620
298.8187, 4916.488
299.3008, 4954.620
299.7830, 4996.849
300.2651, 5036.774
300.7472, 5065.523
301.2293, 5080.122
301.7114, 5095.050
302.1935, 5126.582
302.6757, 5168.591
303.1578, 5193.243
303.6399, 5187.742
304.1220, 5174.232
304.6041, 5181.852
305.0862, 5209.794
305.5684, 5230.616
306.0505, 5230.701
306.5326, 5220.746
307.0147, 5219.245
307.4968, 5229.316
307.9789, 5229.967
308.4611, 5197.455
308.9432, 5133.313
309.4253, 5088.467
309.9074, 5081.251
310.3895, 5078.854
310.8716, 5060.227
311.3538, 5027.689
311.8359, 4992.837
312.3180, 4962.113
312.8001, 4934.587
313.2822, 4906.723
313.7643, 4886.418
314.2465, 4856.418
314.7286, 4807.147
315.2107, 4747.854
315.6928, 4688.663
316.1749, 4633.219
316.6570, 4585.245
317.1392, 4552.569
317.6213, 4551.161
318.1034, 4534.446
318.5855, 4491.926
319.0676, 4442.985
319.5497, 4401.501
320.0319, 4368.260
320.5140, 4335.427
320.9961, 4293.322
321.4782, 4240.171
321.9603, 4199.166
322.4424, 4183.568
322.9246, 4167.329
323.4067, 4142.661
323.8888, 4111.682
324.3709, 4078.570
324.8530, 4044.911
325.3351, 4012.401
325.8173, 3986.108
326.2994, 3964.230
326.7815, 3952.748
327.2636, 3966.358
327.7457, 3982.730
328.2278, 3978.695
328.7100, 3947.343
329.1921, 3906.971
329.6742, 3877.635
330.1563, 3859.448
330.6384, 3849.673
331.1205, 3855.410
331.6027, 3862.289
332.0848, 3860.045
332.5669, 3849.034
333.0490, 3834.656
333.5311, 3817.539
334.0132, 3799.565
334.4954, 3785.234
334.9775, 3775.184
335.4596, 3767.823
335.9417, 3764.845
336.4238, 3763.765
336.9059, 3757.927
337.3881, 3739.542
337.8702, 3721.302
338.3523, 3713.991
338.8344, 3716.365
339.3165, 3723.182
339.7986, 3735.397
340.2808, 3746.941
340.7629, 3739.770
341.2450, 3701.821
341.7271, 3673.311
342.2092, 3671.548
342.6913, 3683.067
343.1735, 3689.064
343.6556, 3684.903
344.1377, 3680.180
344.6198, 3688.588
345.1019, 3718.024
345.5840, 3729.208
346.0662, 3708.484
346.5483, 3683.553
347.0304, 3668.081
347.5125, 3662.041
347.9946, 3660.324
348.4767, 3659.774
348.9589, 3660.150
349.4410, 3659.326
349.9231, 3652.228
350.4052, 3622.308
350.8873, 3654.902
351.3694, 3671.981
351.8516, 3674.378
352.3337, 3618.121
352.8158, 3637.604
353.2979, 3626.734
353.7800, 3614.619
354.2621, 3644.762
354.7443, 3597.036
355.2264, 3626.509
355.7085, 3625.166
356.1906, 3637.926
356.6727, 3620.146
357.1548, 3611.799
357.6370, 3634.001
358.1191, 3639.289
358.6012, 3617.993
359.0833, 3631.650
359.5654, 3582.858
360.0475, 3588.866
360.5297, 3618.517
361.0118, 3598.757
361.4939, 3612.972
361.9760, 3614.248
362.4581, 3556.718
362.9402, 3601.457
363.4224, 3601.967
363.9045, 3557.066
364.3866, 3598.301
364.8687, 3559.660
365.3508, 3549.530
365.8329, 3572.502
366.3151, 3577.180
366.7972, 3572.758
367.2793, 3559.425
367.7614, 3547.690
368.2435, 3548.784
368.7256, 3564.120
369.2078, 3567.053
369.6899, 3543.155
370.1720, 3523.921
370.6541, 3525.635
371.1362, 3540.493
371.6183, 3553.609
372.1005, 3557.597
372.5826, 3554.894
373.0647, 3551.606
373.5468, 3547.312
374.0289, 3543.228
374.5110, 3538.800
374.9932, 3535.061
375.4753, 3534.310
375.9574, 3535.910
376.4395, 3535.363
376.9216, 3526.676
377.4037, 3509.878
377.8859, 3497.851
378.3680, 3492.626
378.8501, 3489.554
379.3322, 3487.714
379.8143, 3486.145
380.2964, 3483.488
380.7786, 3479.960
381.2607, 3473.938
381.7428, 3459.858
382.2249, 3437.382
382.7070, 3423.650
383.1891, 3429.130
383.6713, 3442.362
384.1534, 3448.043
384.6355, 3445.764
385.1176, 3439.127
385.5997, 3424.330
386.0818, 3407.971
386.5640, 3400.502
387.0461, 3403.457
387.5282, 3411.323
388.0103, 3420.322
388.4924, 3430.376
388.9745, 3438.147
389.4567, 3445.063
389.9388, 3448.393
390.4209, 3446.008
390.9030, 3439.342
391.3851, 3428.911
391.8672, 3414.708
392.3494, 3402.099
392.8315, 3403.547
393.3136, 3431.521
393.7957, 3451.713
394.2778, 3463.053
394.7599, 3468.617
395.2421, 3465.494
395.7242, 3457.059
396.2063, 3454.541
396.6884, 3470.238
397.1706, 3500.962
397.6527, 3519.354
398.1348, 3518.464
398.6169, 3516.747
399.0990, 3519.913
399.5811, 3526.534
400.0633, 3535.070
400.5454, 3545.092
401.0275, 3556.851
401.5096, 3571.595
401.9917, 3588.909
402.4738, 3604.729
402.9560, 3618.803
403.4381, 3630.147
403.9202, 3637.914
404.4023, 3642.321
404.8844, 3643.082
405.3665, 3636.041
405.8487, 3627.989
406.3308, 3625.915
406.8129, 3629.545
407.2950, 3635.232
407.7771, 3641.992
408.2592, 3648.143
408.7414, 3646.000
409.2235, 3624.789
409.7056, 3609.939
410.1877, 3606.956
410.6698, 3610.750
411.1519, 3619.402
411.6341, 3630.941
412.1162, 3638.630
412.5983, 3634.016
413.0804, 3615.709
413.5625, 3596.769
414.0446, 3575.035
414.5268, 3555.010
415.0089, 3534.392
415.4910, 3517.097
415.9731, 3511.644
416.4552, 3524.983
416.9373, 3542.219
417.4195, 3533.422
417.9016, 3494.323
418.3837, 3466.893
418.8658, 3469.801
419.3479, 3480.906
419.8300, 3480.566
420.3122, 3468.723
420.7943, 3452.622
421.2764, 3431.989
421.7585, 3410.698
422.2406, 3391.870
422.7227, 3375.879
423.2049, 3371.444
423.6870, 3389.909
424.1691, 3423.387
424.6512, 3434.113
425.1333, 3402.373
425.6154, 3375.211
426.0976, 3369.262
426.5797, 3372.561
427.0618, 3369.138
427.5439, 3355.253
428.0260, 3339.453
428.5081, 3332.450
428.9903, 3336.001
429.4724, 3338.097
429.9545, 3331.516
430.4366, 3330.943
430.9187, 3343.722
431.4008, 3365.388
431.8830, 3389.344
432.3651, 3413.292
432.8472, 3434.244
433.3293, 3445.589
433.8114, 3445.806
434.2935, 3445.813
434.7757, 3445.906
435.2578, 3448.545
435.7399, 3458.236
436.2220, 3473.890
436.7041, 3484.615
437.1862, 3476.062
437.6684, 3463.935
438.1505, 3473.579
438.6326, 3505.388
439.1147, 3539.614
439.5968, 3564.939
440.0789, 3584.682
440.5611, 3611.239
441.0432, 3654.085
441.5253, 3687.306
442.0074, 3695.829
442.4895, 3697.155
442.9716, 3709.844
443.4538, 3737.178
443.9359, 3772.294
444.4180, 3808.925
444.9001, 3847.258
445.3822, 3885.232
445.8643, 3916.524
446.3465, 3954.656
446.8286, 4007.790
447.3107, 4067.339
447.7928, 4121.628
448.2749, 4166.474
448.7570, 4209.714
449.2392, 4262.480
449.7213, 4324.577
450.2034, 4385.637
450.6855, 4442.573
451.1676, 4501.038
451.6497, 4566.574
452.1319, 4637.431
452.6140, 4707.726
453.0961, 4771.049
453.5782, 4836.609
454.0603, 4911.533
454.5424, 4995.573
455.0246, 5088.185
455.5067, 5190.402
455.9888, 5298.887
456.4709, 5408.023
456.9530, 5517.761
457.4352, 5628.619
457.9173, 5741.594
458.3994, 5855.879
458.8815, 5972.150
459.3636, 6089.369
459.8457, 6203.752
460.3279, 6314.478
460.8100, 6420.077
461.2921, 6518.334
461.7742, 6610.514
462.2563, 6691.200
462.7384, 6763.361
463.2206, 6821.787
463.7027, 6862.481
464.1848, 6885.239
464.6669, 6891.553
465.1490, 6884.833
465.6311, 6862.334
466.1133, 6811.035
466.5954, 6726.488
467.0775, 6643.269
467.5596, 6589.715
468.0417, 6548.165
468.5238, 6468.277
469.0060, 6322.661
469.4881, 6189.953
469.9702, 6105.944
470.4523, 6046.021
470.9344, 5985.860
471.4165, 5919.124
471.8987, 5839.905
472.3808, 5741.240
472.8629, 5623.414
473.3450, 5509.141
473.8271, 5389.938
474.3092, 5285.786
474.7914, 5207.676
475.2735, 5142.775
475.7556, 5078.701
476.2377, 5011.584
476.7198, 4938.673
477.2019, 4853.558
477.6841, 4757.289
478.1662, 4667.496
478.6483, 4586.615
479.1304, 4509.208
479.6125, 4429.072
480.0946, 4349.628
480.5768, 4280.036
481.0589, 4227.582
481.5410, 4176.617
482.0231, 4117.057
482.5052, 4051.350
482.9873, 3984.493
483.4695, 3917.522
483.9516, 3852.861
484.4337, 3793.204
484.9158, 3738.939
485.3979, 3689.023
485.8800, 3646.886
486.3622, 3604.449
486.8443, 3555.934
487.3264, 3506.155
487.8085, 3463.537
488.2906, 3431.455
488.7727, 3403.627
489.2549, 3370.740
489.7370, 3332.480
490.2191, 3292.423
490.7012, 3247.686
491.1833, 3205.563
491.6654, 3171.522
492.1476, 3143.241
492.6297, 3114.001
493.1118, 3080.240
493.5939, 3046.637
494.0760, 3012.882
494.5581, 2981.942
495.0403, 2966.287
495.5224, 2971.944
496.0045, 2983.139
496.4866, 2979.101
496.9687, 2955.703
497.4508, 2934.678
497.9330, 2918.890
498.4151, 2902.250
498.8972, 2880.034
499.3793, 2855.324
499.8614, 2833.851
500.3435, 2818.118
500.8257, 2806.091
501.3078, 2794.404
501.7899, 2782.733
502.2720, 2772.783
502.7541, 2763.242
503.2362, 2757.451
503.7184, 2761.823
504.2005, 2771.214
504.6826, 2771.415
505.1647, 2749.035
505.6468, 2726.290
506.1289, 2730.285
506.6111, 2752.601
507.0932, 2762.831
507.5753, 2751.268
508.0574, 2726.781
508.5395, 2697.506
509.0216, 2659.994
509.5038, 2638.804
509.9859, 2651.476
510.4680, 2661.021
510.9501, 2643.761
511.4322, 2614.793
511.9143, 2601.035
512.3965, 2613.299
512.8786, 2636.327
513.3607, 2643.801
513.8428, 2596.254
514.3250, 2633.921
514.8071, 2653.484
515.2892, 2655.914
515.7713, 2589.894
516.2534, 2612.262
516.7355, 2599.208
517.2177, 2584.701
517.6998, 2619.509
518.1819, 2563.445
518.6640, 2597.471
519.1461, 2595.535
519.6282, 2610.058
520.1104, 2588.939
520.5925, 2578.830
521.0746, 2604.373
521.5567, 2584.772
522.0388, 2581.464
522.5209, 2574.071
523.0031, 2560.218
523.4852, 2545.335
523.9673, 2536.046
524.4494, 2534.197
524.9315, 2536.362
525.4136, 2541.170
525.8958, 2548.203
526.3779, 2544.801
526.8600, 2522.407
527.3421, 2507.332
527.8242, 2521.983
528.3063, 2551.454
528.7885, 2573.003
529.2706, 2583.209
529.7527, 2587.430
530.2348, 2584.806
530.7169, 2579.393
531.1990, 2578.174
531.6812, 2581.759
532.1633, 2583.975
532.6454, 2578.557
533.1275, 2567.426
533.6096, 2567.997
534.0917, 2592.558
534.5739, 2612.459
535.0560, 2618.197
535.5381, 2622.592
536.0202, 2639.861
536.5023, 2669.153
536.9844, 2693.867
537.4666, 2695.332
537.9487, 2684.293
538.4308, 2690.383
538.9129, 2714.910
539.3950, 2746.621
539.8771, 2785.938
540.3593, 2825.596
540.8414, 2852.196
541.3235, 2863.397
541.8056, 2875.796
542.2877, 2882.006
542.7698, 2899.262
543.2520, 2947.578
543.7341, 3019.486
544.2162, 3092.345
544.6983, 3154.276
545.1804, 3207.637
545.6625, 3255.104
546.1447, 3288.978
546.6268, 3340.853
547.1089, 3434.993
547.5910, 3526.567
548.0731, 3587.794
548.5552, 3628.664
549.0374, 3676.500
549.5195, 3742.467
550.0016, 3817.408
550.4837, 3896.709
550.9658, 3978.025
551.4479, 4050.236
551.9301, 4109.675
552.4122, 4169.290
552.8943, 4245.493
553.3764, 4340.560
553.8585, 4417.314
554.3406, 4471.771
554.8228, 4515.574
555.3049, 4554.457
555.7870, 4583.319
556.2691, 4597.747
556.7512, 4596.015
557.2333, 4575.486
557.7155, 4530.328
558.1976, 4463.165
558.6797, 4390.699
559.1618, 4315.154
559.6439, 4226.858
560.1260, 4117.914
560.6082, 3995.430
561.0903, 3871.383
561.5724, 3745.539
562.0545, 3622.105
562.5366, 3496.997
563.0187, 3379.667
563.5009, 3275.855
563.9830, 3187.203
564.4651, 3116.826
564.9472, 3067.426
565.4293, 3030.704
565.9114, 2984.417
566.3936, 2921.151
566.8757, 2867.747
567.3578, 2827.031
567.8399, 2796.346
568.3220, 2777.835
568.8041, 2768.428
569.2863, 2760.895
569.7684, 2751.287
570.2505, 2744.581
570.7326, 2747.817
571.2147, 2757.965
571.6968, 2765.209
572.1790, 2766.950
572.6611, 2769.345
573.1432, 2778.775
573.6253, 2795.214
574.1074, 2809.276
574.5895, 2820.638
575.0717, 2830.206
575.5538, 2835.861
576.0359, 2841.190
576.5180, 2848.688
577.0001, 2859.248
577.4822, 2874.122
577.9644, 2897.001
578.4465, 2924.348
578.9286, 2945.065
579.4107, 2958.684
579.8928, 2971.682
580.3749, 2988.883
580.8571, 3004.299
581.3392, 3005.122
581.8213, 2988.653
582.3034, 2980.378
582.7855, 2981.974
583.2676, 2994.259
583.7498, 3025.247
584.2319, 3066.014
584.7140, 3099.281
585.1961, 3117.884
585.6782, 3130.206
586.1603, 3146.741
586.6425, 3167.261
587.1246, 3196.732
587.6067, 3241.358
588.0888, 3284.794
588.5709, 3318.554
589.0530, 3345.791
589.5352, 3369.435
590.0173, 3387.866
590.4994, 3409.094
590.9815, 3434.347
591.4636, 3465.952
591.9457, 3513.471
592.4279, 3572.874
592.9100, 3622.033
593.3921, 3646.169
593.8742, 3651.916
594.3563, 3658.426
594.8384, 3664.232
595.3206, 3674.156
595.8027, 3696.005
596.2848, 3715.200
596.7669, 3721.972
597.2490, 3720.249
597.7311, 3721.512
598.2133, 3732.905
598.6954, 3743.327
599.1775, 3742.274
599.6596, 3732.377
600.1417, 3724.503
600.6238, 3720.945
601.1060, 3702.497
601.5881, 3650.365
602.0702, 3567.384
602.5523, 3487.878
603.0344, 3413.856
603.5165, 3340.827
603.9987, 3269.999
604.4808, 3198.395
604.9629, 3119.262
605.4450, 3036.039
605.9271, 2965.232
606.4092, 2923.696
606.8914, 2894.144
607.3735, 2845.649
607.8556, 2781.675
608.3377, 2729.812
608.8198, 2699.529
609.3019, 2678.764
609.7841, 2653.999
610.2662, 2624.447
610.7483, 2600.899
611.2304, 2585.822
611.7125, 2573.115
612.1946, 2562.052
612.6768, 2551.954
613.1589, 2541.924
613.6410, 2531.977
614.1231, 2523.122
614.6052, 2516.016
615.0873, 2510.679
615.5695, 2508.299
616.0516, 2509.118
616.5337, 2507.983
617.0158, 2503.198
617.4979, 2495.207
617.9800, 2482.112
618.4622, 2461.029
618.9443, 2453.901
619.4264, 2480.414
619.9085, 2500.554
620.3906, 2489.001
620.8727, 2462.391
621.3549, 2445.381
621.8370, 2444.802
622.3191, 2450.213
622.8012, 2452.253
623.2833, 2451.067
623.7654, 2447.716
624.2476, 2442.463
624.7297, 2433.701
625.2118, 2420.177
625.6939, 2403.307
626.1760, 2384.202
626.6581, 2361.734
627.1403, 2344.006
627.6224, 2334.018
628.1045, 2327.368
628.5866, 2323.340
629.0687, 2320.355
629.5508, 2316.330
630.0330, 2310.487
630.5151, 2303.084
630.9972, 2294.884
631.4793, 2285.719
631.9614, 2272.165
632.4435, 2252.251
632.9257, 2234.822
633.4078, 2226.512
633.8899, 2221.303
634.3720, 2206.782
634.8541, 2179.080
635.3362, 2160.750
635.8184, 2164.196
636.3005, 2170.809
636.7826, 2168.206
637.2647, 2159.133
637.7468, 2150.554
638.2289, 2145.229
638.7111, 2141.368
