##NAMES=Childrenite
##RRUFFID=R060146
##IDEAL CHEMISTRY=Fe^2+^AlPO_4_(OH)_2_&#183;H_2_O
##LOCALITY=George and Charlotte mine, Tavistock, Devon, England
##OWNER=RRUFF
##SOURCE=Marcus Origlieri
##DESCRIPTION=Brown transparent pyramidal single crystals
##STATUS=The identification of this mineral is confirmed by single-crystal X-ray diffraction and chemical analysis.
##URL=rruff.info/R060146
##MEASURED CHEMISTRY=(Fe^2+^_0.83_Mn_0.15_Ca_0.02_)_Σ=1_Al_1.00_(P_1.00_O_4_)(OH)_2_·H_2_O
92.02539, 276.1138
92.50751, 277.9900
92.98962, 280.8774
93.47174, 281.3129
93.95386, 280.8951
94.43597, 278.8803
94.91809, 275.1914
95.40021, 270.4903
95.88232, 265.9001
96.36444, 261.7232
96.84656, 257.2601
97.32867, 252.3055
97.81078, 247.1504
98.29290, 242.2265
98.77502, 237.7025
99.25713, 233.2029
99.73925, 229.0869
100.2214, 225.5314
100.7035, 222.1445
101.1856, 218.6831
101.6677, 215.1279
102.1498, 211.6746
102.6320, 208.5526
103.1141, 205.7526
103.5962, 203.3546
104.0783, 201.4417
104.5604, 199.8451
105.0425, 198.3772
105.5247, 196.9498
106.0068, 195.6851
106.4889, 194.8011
106.9710, 194.2881
107.4531, 193.8802
107.9352, 193.4066
108.4173, 192.9031
108.8995, 192.5999
109.3816, 192.6983
109.8637, 192.9456
110.3458, 193.0011
110.8279, 192.7555
111.3100, 192.5897
111.7922, 192.9704
112.2743, 193.9840
112.7564, 195.2856
113.2385, 197.0051
113.7206, 198.8332
114.2027, 200.5240
114.6849, 201.9631
115.1670, 203.1814
115.6491, 204.2402
116.1312, 204.7439
116.6133, 205.5774
117.0954, 207.0786
117.5776, 208.9742
118.0597, 210.8026
118.5418, 212.2073
119.0239, 213.1753
119.5060, 214.8706
119.9881, 218.0754
120.4703, 221.1249
120.9524, 223.6362
121.4345, 225.4619
121.9166, 226.3670
122.3987, 226.0786
122.8808, 224.3555
123.3630, 222.0573
123.8451, 218.7557
124.3272, 215.0903
124.8093, 211.7202
125.2914, 208.7606
125.7735, 205.9381
126.2557, 202.8521
126.7378, 199.5773
127.2199, 196.5972
127.7020, 194.4573
128.1841, 192.8233
128.6662, 190.6311
129.1483, 187.4523
129.6305, 183.9384
130.1126, 180.4729
130.5947, 177.0819
131.0768, 173.9586
131.5589, 171.3044
132.0410, 169.1588
132.5232, 167.1715
133.0053, 165.1776
133.4874, 163.4117
133.9695, 162.0019
134.4516, 160.9767
134.9337, 160.3139
135.4159, 160.0074
135.8980, 160.2501
136.3801, 160.5174
136.8622, 160.9886
137.3443, 161.3648
137.8264, 161.3403
138.3086, 160.8084
138.7907, 159.9501
139.2728, 159.2742
139.7549, 158.9420
140.2370, 158.6138
140.7191, 158.1584
141.2013, 157.7074
141.6834, 157.5064
142.1655, 157.7268
142.6476, 158.2270
143.1297, 158.3678
143.6118, 157.8262
144.0939, 157.3440
144.5761, 157.1951
145.0582, 157.3546
145.5403, 157.7333
146.0224, 158.4169
146.5045, 159.2419
146.9866, 159.7516
147.4688, 159.7841
147.9509, 159.6123
148.4330, 159.4926
148.9151, 159.4415
149.3972, 159.3350
149.8793, 158.8197
150.3615, 158.2527
150.8436, 158.1509
151.3257, 158.9130
151.8078, 160.1486
152.2899, 160.9865
152.7720, 161.3948
153.2542, 161.4069
153.7363, 160.8207
154.2184, 159.9585
154.7005, 159.3119
155.1826, 159.2269
155.6647, 159.6463
156.1469, 159.9915
156.6290, 160.2164
157.1111, 160.3990
157.5932, 160.6555
158.0753, 160.8936
158.5574, 160.8933
159.0396, 160.4039
159.5217, 159.3164
160.0038, 158.7668
160.4859, 159.0527
160.9680, 159.5215
161.4501, 159.9515
161.9323, 160.3157
162.4144, 160.6938
162.8965, 161.1896
163.3786, 161.8886
163.8607, 162.2738
164.3428, 162.0616
164.8250, 161.7595
165.3071, 161.7273
165.7892, 162.0214
166.2713, 162.4782
166.7534, 162.9261
167.2355, 163.3625
167.7177, 163.8093
168.1998, 164.2529
168.6819, 164.7163
169.1640, 165.2399
169.6461, 165.8423
170.1282, 166.4637
170.6104, 166.9638
171.0925, 167.3552
171.5746, 167.9124
172.0567, 168.9227
172.5388, 170.2002
173.0209, 171.1617
173.5031, 171.5344
173.9852, 171.7906
174.4673, 172.5088
174.9494, 173.6204
175.4315, 174.4678
175.9136, 174.4189
176.3958, 173.5086
176.8779, 172.7722
177.3600, 172.3710
177.8421, 172.1897
178.3242, 172.2125
178.8063, 172.4182
179.2885, 172.7068
179.7706, 173.0052
180.2527, 173.3367
180.7348, 173.5734
181.2169, 173.5843
181.6990, 173.5916
182.1812, 173.7234
182.6633, 173.9942
183.1454, 174.3206
183.6275, 174.5567
184.1096, 174.5338
184.5917, 174.8024
185.0738, 175.7164
185.5560, 176.6364
186.0381, 177.0028
186.5202, 176.7174
187.0023, 176.2136
187.4844, 176.2338
187.9665, 177.1897
188.4487, 178.0701
188.9308, 178.7548
189.4129, 179.4196
189.8950, 180.3496
190.3771, 181.6250
190.8592, 182.8904
191.3414, 183.3794
191.8235, 182.4160
192.3056, 181.9568
192.7877, 182.4042
193.2698, 183.4144
193.7519, 184.5524
194.2341, 185.6723
194.7162, 186.8479
195.1983, 188.3349
195.6804, 190.3031
196.1625, 191.9751
196.6446, 193.0371
197.1268, 193.6353
197.6089, 194.0745
198.0910, 194.4004
198.5731, 194.6890
199.0552, 195.0189
199.5373, 195.3551
200.0195, 195.8691
200.5016, 196.7439
200.9837, 197.9164
201.4658, 199.0678
201.9479, 200.1851
202.4300, 201.1534
202.9122, 201.8395
203.3943, 202.2236
203.8764, 202.5302
204.3585, 202.9500
204.8406, 203.4832
205.3227, 203.9434
205.8048, 204.2620
206.2870, 204.5007
206.7691, 204.7110
207.2512, 204.8976
207.7333, 205.0163
208.2154, 205.0238
208.6975, 204.9187
209.1797, 204.7084
209.6618, 204.3598
210.1439, 203.9229
210.6260, 203.4182
211.1081, 202.8490
211.5902, 202.2053
212.0724, 201.5198
212.5545, 200.9030
213.0366, 199.8951
213.5187, 197.9926
214.0008, 196.0622
214.4829, 194.5052
214.9651, 193.4567
215.4472, 192.9228
215.9293, 193.0599
216.4114, 194.6001
216.8935, 195.2519
217.3756, 194.6477
217.8578, 193.5874
218.3399, 192.5173
218.8220, 191.5809
219.3041, 190.7401
219.7862, 189.9488
220.2683, 189.2346
220.7505, 188.5250
221.2326, 187.7750
221.7147, 187.0539
222.1968, 186.4111
222.6789, 185.8592
223.1610, 185.3811
223.6432, 184.9498
224.1253, 184.5508
224.6074, 184.2535
225.0895, 184.0213
225.5716, 183.9065
226.0537, 184.0395
226.5358, 184.4373
227.0180, 184.8488
227.5001, 184.8587
227.9822, 184.2007
228.4643, 184.0305
228.9464, 184.6904
229.4285, 185.7457
229.9107, 186.7805
230.3928, 187.7048
230.8749, 188.5578
231.3570, 189.3760
231.8391, 190.1617
232.3212, 190.9026
232.8034, 191.5400
233.2855, 192.1515
233.7676, 192.8348
234.2497, 193.6104
234.7318, 194.4397
235.2139, 195.2642
235.6961, 196.0880
236.1782, 197.0381
236.6603, 198.2626
237.1424, 199.5969
237.6245, 200.7781
238.1066, 201.7475
238.5888, 202.6734
239.0709, 203.7869
239.5530, 205.0110
240.0351, 206.0926
240.5172, 206.6142
240.9993, 207.0027
241.4815, 208.2029
241.9636, 210.5717
242.4457, 212.9791
242.9278, 214.4250
243.4099, 215.2924
243.8920, 216.3582
244.3742, 217.9740
244.8563, 220.0005
245.3384, 222.1994
245.8205, 224.7229
246.3026, 227.0580
246.7847, 228.7938
247.2668, 230.1813
247.7490, 231.6216
248.2311, 233.3874
248.7132, 235.2744
249.1953, 236.8716
249.6774, 238.2967
250.1595, 239.1227
250.6417, 238.9824
251.1238, 238.2805
251.6059, 237.4992
252.0880, 236.8452
252.5701, 236.2589
253.0522, 235.6524
253.5344, 235.2805
254.0165, 234.3436
254.4986, 232.6684
254.9807, 230.3909
255.4628, 227.5474
255.9449, 224.1101
256.4271, 220.3173
256.9092, 216.6618
257.3913, 213.1025
257.8734, 209.8161
258.3555, 206.8376
258.8376, 204.0904
259.3198, 201.5572
259.8019, 199.2451
260.2840, 196.9903
260.7661, 194.3694
261.2482, 190.8599
261.7303, 188.0225
262.2125, 186.3321
262.6946, 185.0635
263.1767, 183.6470
263.6588, 181.8887
264.1409, 179.9600
264.6230, 178.1525
265.1052, 176.5557
265.5873, 174.9028
266.0694, 173.1584
266.5515, 171.3826
267.0336, 169.6311
267.5157, 167.9176
267.9979, 166.2063
268.4800, 164.3931
268.9621, 162.1773
269.4442, 160.5834
269.9263, 159.8416
270.4084, 159.4199
270.8906, 159.1100
271.3727, 158.8159
271.8548, 158.4155
272.3369, 157.7204
272.8190, 156.5532
273.3011, 155.7146
273.7833, 155.3162
274.2654, 155.0831
274.7475, 154.9102
275.2296, 154.7657
275.7117, 154.6298
276.1938, 154.4699
276.6760, 154.2554
277.1581, 154.2237
277.6402, 154.4952
278.1223, 154.7930
278.6044, 154.8871
279.0865, 154.8662
279.5686, 155.0833
280.0508, 155.8980
280.5329, 157.3359
281.0150, 158.0153
281.4971, 157.2076
281.9792, 156.5418
282.4613, 156.7279
282.9435, 157.5489
283.4256, 158.4140
283.9077, 158.9436
284.3898, 159.1817
284.8719, 159.4941
285.3540, 160.0974
285.8362, 160.5242
286.3183, 160.3766
286.8004, 159.9931
287.2825, 160.0275
287.7646, 160.8523
288.2467, 162.2180
288.7289, 163.2651
289.2110, 163.8874
289.6931, 164.3540
290.1752, 164.4674
290.6573, 164.5061
291.1394, 164.9627
291.6216, 166.0536
292.1037, 167.3714
292.5858, 168.0473
293.0679, 167.5981
293.5500, 167.4379
294.0321, 167.8365
294.5143, 168.5344
294.9964, 169.3372
295.4785, 170.1925
295.9606, 170.9179
296.4427, 171.1858
296.9248, 170.6897
297.4070, 170.7086
297.8891, 171.7491
298.3712, 173.0460
298.8533, 173.9233
299.3354, 174.2799
299.8175, 174.4248
300.2997, 174.6306
300.7818, 174.9007
301.2639, 175.3120
301.7460, 176.3162
302.2281, 177.1059
302.7102, 176.8103
303.1924, 175.5752
303.6745, 174.6440
304.1566, 175.1146
304.6387, 176.8829
305.1208, 177.7185
305.6029, 176.9909
306.0851, 176.0478
306.5672, 175.5206
307.0493, 175.3359
307.5314, 175.1868
308.0135, 174.9121
308.4956, 174.5308
308.9778, 174.1330
309.4599, 173.7473
309.9420, 173.3151
310.4241, 172.9129
310.9062, 172.4451
311.3883, 171.6689
311.8705, 170.4419
312.3526, 169.0015
312.8347, 167.9058
313.3168, 167.2574
313.7989, 166.6295
314.2810, 165.9536
314.7632, 165.2487
315.2453, 164.5249
315.7274, 163.7858
316.2095, 163.0582
316.6916, 162.4021
317.1737, 161.8665
317.6559, 161.1607
318.1380, 160.2999
318.6201, 159.2364
319.1022, 157.7147
319.5843, 155.7503
320.0664, 154.0359
320.5485, 153.3259
321.0306, 153.7286
321.5128, 153.6145
321.9949, 152.6346
322.4770, 151.4505
322.9591, 150.4180
323.4412, 149.5534
323.9233, 148.7594
324.4055, 147.9657
324.8876, 147.1945
325.3697, 146.6233
325.8518, 146.2147
326.3339, 146.0029
326.8160, 146.1758
327.2982, 146.5520
327.7803, 146.7371
328.2624, 146.5382
328.7445, 146.0647
329.2266, 145.5988
329.7087, 145.2057
330.1909, 144.7075
330.6730, 143.8277
331.1551, 142.9112
331.6372, 142.5148
332.1193, 142.8080
332.6014, 143.2953
333.0836, 143.2465
333.5657, 142.4186
334.0478, 141.7398
334.5299, 141.2063
335.0120, 140.8556
335.4941, 140.7807
335.9763, 140.9666
336.4584, 141.2397
336.9405, 141.4647
337.4226, 141.6438
337.9047, 141.6294
338.3868, 141.1349
338.8690, 140.7363
339.3511, 140.8337
339.8332, 141.2995
340.3153, 141.6970
340.7974, 141.7318
341.2795, 141.4817
341.7617, 141.4487
342.2438, 141.9588
342.7259, 142.2711
343.2080, 142.0826
343.6901, 141.6269
344.1722, 141.2557
344.6544, 141.1162
345.1365, 141.1067
345.6186, 141.0145
346.1007, 140.6863
346.5828, 140.5180
347.0649, 140.6821
347.5471, 140.9090
348.0292, 140.9187
348.5113, 140.6786
348.9934, 140.4027
349.4755, 140.3380
349.9576, 140.5000
350.4398, 140.8531
350.9219, 141.6596
351.4040, 142.3899
351.8861, 142.6836
352.3682, 142.6309
352.8503, 142.5790
353.3325, 142.7972
353.8146, 143.2619
354.2967, 143.6106
354.7788, 143.8813
355.2609, 143.9928
355.7430, 143.9872
356.2252, 143.7947
356.7073, 143.2237
357.1894, 142.1751
357.6715, 140.9229
358.1536, 140.1578
358.6357, 140.2659
359.1179, 140.3086
359.5999, 140.2254
360.0821, 140.0858
360.5642, 139.9207
361.0463, 139.7495
361.5284, 139.6192
362.0105, 139.6270
362.4926, 139.8849
362.9748, 139.8366
363.4569, 139.1807
363.9390, 138.5232
364.4211, 138.0317
364.9032, 137.7535
365.3853, 137.7425
365.8675, 138.0692
366.3496, 138.6967
366.8317, 139.2800
367.3138, 139.9299
367.7959, 140.3721
368.2780, 140.3835
368.7602, 140.2206
369.2423, 140.2252
369.7244, 140.5511
370.2065, 141.0057
370.6886, 141.1819
371.1707, 140.9283
371.6529, 140.7754
372.1350, 140.8728
372.6171, 141.0333
373.0992, 141.1345
373.5813, 141.1612
374.0634, 141.1833
374.5456, 141.2306
375.0277, 141.2949
375.5098, 141.5666
375.9919, 142.3094
376.4740, 142.9754
376.9561, 143.3047
377.4383, 143.3685
377.9204, 143.3171
378.4025, 143.1231
378.8846, 142.9378
379.3667, 143.2783
379.8488, 144.4174
380.3310, 145.3725
380.8131, 145.6165
381.2952, 145.5379
381.7773, 145.4743
382.2594, 145.4919
382.7415, 145.6255
383.2237, 145.9561
383.7058, 146.4829
384.1879, 146.9824
384.6700, 147.3669
385.1521, 147.7446
385.6342, 148.2477
386.1164, 148.8611
386.5985, 149.4129
387.0806, 149.7857
387.5627, 150.0259
388.0448, 150.2780
388.5269, 150.5981
389.0091, 150.7735
389.4912, 150.4213
389.9733, 149.8069
390.4554, 149.5387
390.9375, 149.8781
391.4196, 150.4808
391.9018, 151.1208
392.3839, 151.7866
392.8660, 152.3380
393.3481, 152.6738
393.8302, 152.8947
394.3123, 153.2337
394.7945, 153.7765
395.2766, 154.1614
395.7587, 154.0972
396.2408, 153.8191
396.7229, 153.7839
397.2050, 154.1183
397.6872, 154.4495
398.1693, 154.3176
398.6514, 153.6683
399.1335, 153.1999
399.6156, 153.0810
400.0977, 153.0352
400.5798, 152.8604
401.0620, 152.5736
401.5441, 152.3226
402.0262, 152.2273
402.5083, 152.2186
402.9904, 151.9382
403.4725, 151.2512
403.9547, 150.5057
404.4368, 149.8289
404.9189, 149.1051
405.4010, 148.0982
405.8831, 146.7578
406.3652, 145.4025
406.8474, 144.5266
407.3295, 144.3725
407.8116, 144.0252
408.2937, 143.3755
408.7758, 142.6573
409.2579, 141.9714
409.7401, 141.3310
410.2222, 140.7295
410.7043, 140.1679
411.1864, 139.6312
411.6685, 138.9623
412.1506, 137.8596
412.6328, 137.0072
413.1149, 136.7520
413.5970, 136.6836
414.0791, 136.2952
414.5612, 135.4260
415.0433, 134.4119
415.5255, 133.8178
416.0076, 133.8094
416.4897, 133.6378
416.9718, 133.0791
417.4539, 132.5003
417.9360, 132.0406
418.4182, 131.7083
418.9003, 131.4797
419.3824, 131.3604
419.8645, 131.3261
420.3466, 131.2926
420.8287, 131.3376
421.3109, 131.2124
421.7930, 130.6902
422.2751, 130.0099
422.7572, 129.4207
423.2393, 128.9854
423.7214, 128.6763
424.2036, 128.5083
424.6857, 128.4757
425.1678, 128.4082
425.6499, 128.2469
426.1320, 128.0680
426.6141, 127.8945
427.0963, 127.7405
427.5784, 127.7301
428.0605, 128.0465
428.5426, 128.4867
429.0247, 128.6499
429.5068, 128.4907
429.9890, 128.3844
430.4711, 128.6097
430.9532, 128.7516
431.4353, 128.8145
431.9174, 128.5618
432.3995, 128.7166
432.8817, 128.7080
433.3638, 128.6928
433.8459, 128.9050
434.3280, 128.6982
434.8101, 128.9067
435.2922, 128.9431
435.7744, 129.3777
436.2565, 129.9263
436.7386, 130.6741
437.2207, 131.4577
437.7028, 132.2220
438.1849, 132.9272
438.6671, 133.4618
439.1492, 133.7269
439.6313, 133.7847
440.1134, 133.9938
440.5955, 134.4097
441.0776, 134.9160
441.5598, 135.5970
442.0418, 136.3140
442.5240, 136.8375
443.0061, 137.1445
443.4882, 137.5419
443.9703, 138.5042
444.4524, 140.2558
444.9345, 141.5308
445.4167, 141.5428
445.8988, 141.8510
446.3809, 143.1919
446.8630, 145.2215
447.3451, 147.2527
447.8272, 148.8864
448.3094, 150.2650
448.7915, 151.7636
449.2736, 153.4635
449.7557, 155.0436
450.2378, 156.3799
450.7199, 157.6040
451.2021, 158.7548
451.6842, 159.8515
452.1663, 161.0142
452.6484, 162.2650
453.1305, 163.6447
453.6126, 165.3863
454.0948, 167.6762
454.5769, 169.8943
455.0590, 171.3043
455.5411, 172.3901
456.0232, 174.0419
456.5053, 176.5750
456.9875, 179.5506
457.4696, 182.7307
457.9517, 186.0726
458.4338, 189.4324
458.9159, 192.7525
459.3980, 196.0999
459.8802, 199.6306
460.3623, 203.3651
460.8444, 207.0012
461.3265, 210.6600
461.8086, 214.0626
462.2907, 217.0042
462.7729, 219.4564
463.2550, 221.4680
463.7371, 223.1594
464.2192, 224.3926
464.7013, 224.3705
465.1834, 222.5362
465.6656, 220.2581
466.1477, 217.8844
466.6298, 215.0624
467.1119, 211.0670
467.5940, 205.8756
468.0761, 200.6639
468.5583, 196.9373
469.0404, 194.9788
469.5225, 192.4886
470.0046, 188.8514
470.4867, 185.3104
470.9688, 182.2178
471.4510, 179.4858
471.9331, 176.9470
472.4152, 174.5168
472.8973, 172.2566
473.3794, 170.3515
473.8615, 168.9162
474.3437, 167.3536
474.8258, 165.4215
475.3079, 163.4422
475.7900, 161.6039
476.2721, 159.9133
476.7542, 158.2654
477.2364, 156.6517
477.7185, 155.0375
478.2006, 153.2784
478.6827, 151.3423
479.1648, 149.4990
479.6469, 147.9025
480.1291, 146.4882
480.6112, 145.1625
481.0933, 143.9920
481.5754, 142.7220
482.0575, 140.9924
482.5396, 139.1299
483.0217, 137.8064
483.5038, 137.1718
483.9860, 136.7382
484.4681, 136.0746
484.9502, 135.1671
485.4323, 134.1566
485.9144, 132.7947
486.3965, 131.5996
486.8787, 131.0143
487.3608, 130.7035
487.8429, 129.9255
488.3250, 128.3819
488.8071, 126.6845
489.2892, 126.0067
489.7714, 127.0660
490.2535, 127.3639
490.7356, 126.6096
491.2177, 125.5013
491.6998, 124.1175
492.1819, 122.6770
492.6641, 121.5708
493.1462, 121.0688
493.6283, 121.0268
494.1104, 121.0807
494.5925, 121.3423
495.0746, 121.3950
495.5568, 121.0572
496.0389, 120.5313
496.5210, 119.8320
497.0031, 119.0078
497.4852, 118.3547
497.9673, 118.2094
498.4495, 118.3888
498.9316, 118.4025
499.4137, 118.2266
499.8958, 117.9089
500.3779, 117.3477
500.8600, 116.7008
501.3422, 116.3043
501.8243, 116.2762
502.3064, 116.2749
502.7885, 116.1317
503.2706, 115.8994
503.7527, 115.6410
504.2349, 115.3695
504.7170, 115.1689
505.1991, 115.1456
505.6812, 115.3134
506.1633, 115.3704
506.6454, 115.2965
507.1276, 115.1492
507.6097, 114.9232
508.0918, 114.6452
508.5739, 114.2957
509.0560, 113.8780
509.5381, 113.5563
510.0203, 113.6452
510.5024, 114.3435
510.9845, 114.7712
511.4666, 114.7726
511.9487, 114.6550
512.4308, 114.5278
512.9130, 114.3691
513.3951, 114.0948
513.8772, 113.6345
514.3593, 113.1198
514.8414, 112.7918
515.3235, 112.6649
515.8057, 112.6105
516.2878, 112.6551
516.7699, 112.7088
517.2520, 112.7540
517.7341, 112.7677
518.2162, 112.6023
518.6984, 111.9635
519.1805, 111.2429
519.6626, 111.0346
520.1447, 111.3052
520.6268, 111.4610
521.1089, 111.1557
521.5911, 110.6421
522.0732, 110.5660
522.5553, 111.1521
523.0374, 111.4428
523.5195, 111.0091
524.0016, 110.4037
524.4838, 110.1059
524.9659, 110.1290
525.4480, 110.2433
525.9301, 110.2949
526.4122, 110.2869
526.8943, 110.2279
527.3765, 110.0073
527.8586, 109.8999
528.3407, 109.9897
528.8228, 110.1518
529.3049, 110.2779
529.7870, 110.3619
530.2692, 110.4841
530.7513, 110.7701
531.2334, 111.1621
531.7155, 111.2743
532.1976, 110.9581
532.6797, 110.7090
533.1619, 110.8548
533.6440, 111.1161
534.1261, 111.1843
534.6082, 110.9885
535.0903, 110.8145
535.5724, 110.9014
536.0546, 111.1319
536.5367, 111.1840
537.0188, 110.9940
537.5009, 110.9735
537.9830, 111.4640
538.4651, 112.3877
538.9473, 113.2429
539.4294, 114.0516
539.9115, 114.7743
540.3936, 115.4411
540.8757, 115.9995
541.3578, 116.2818
541.8400, 116.3046
542.3221, 116.4178
542.8042, 117.0117
543.2863, 118.0971
543.7684, 118.9914
544.2505, 119.3820
544.7326, 119.9531
545.2147, 121.0969
545.6968, 122.3520
546.1790, 123.1065
546.6611, 123.2399
547.1432, 123.3337
547.6253, 123.9859
548.1074, 125.1702
548.5895, 126.5876
549.0717, 128.3222
549.5538, 130.0766
550.0359, 131.6781
550.5180, 133.1821
551.0001, 134.6439
551.4822, 135.9754
551.9644, 137.4886
552.4465, 139.4979
552.9286, 141.8107
553.4107, 144.1476
553.8928, 146.4627
554.3749, 148.4304
554.8571, 149.6674
555.3392, 150.2027
555.8213, 151.0454
556.3034, 152.9848
556.7855, 154.2301
557.2676, 154.1661
557.7498, 153.2393
558.2319, 151.9894
558.7140, 150.5373
559.1961, 148.6399
559.6782, 145.9019
560.1603, 142.3258
560.6425, 139.0825
561.1246, 136.2970
561.6067, 133.7235
562.0888, 131.4081
562.5709, 129.1711
563.0530, 126.6403
563.5352, 123.7111
564.0173, 121.1502
564.4994, 119.8691
564.9815, 119.4936
565.4636, 118.7271
565.9457, 117.3507
566.4279, 116.0842
566.9100, 115.4789
567.3921, 115.3591
567.8742, 115.0208
568.3563, 114.2036
568.8384, 113.6011
569.3206, 113.4750
569.8027, 113.6781
570.2848, 114.1299
570.7669, 114.7649
571.2490, 115.3488
571.7311, 115.6305
572.2133, 115.6706
572.6954, 116.1304
573.1775, 117.4448
573.6596, 118.5947
574.1417, 119.1604
574.6238, 119.7122
575.1060, 120.9074
575.5881, 122.7254
576.0702, 124.4057
576.5523, 125.1272
577.0344, 125.2231
577.5165, 126.0151
577.9987, 127.6706
578.4808, 129.2750
578.9629, 130.3004
579.4450, 131.1527
579.9271, 132.5111
580.4092, 134.5099
580.8914, 136.1221
581.3735, 136.4769
581.8556, 136.5509
582.3377, 137.5178
582.8198, 139.3276
583.3019, 141.1902
583.7841, 142.6385
584.2662, 143.8691
584.7483, 145.4244
585.2304, 147.3832
585.7125, 149.5799
586.1946, 152.5025
586.6768, 155.2279
