##NAMES=Chiolite
##RRUFFID=R050412
##IDEAL CHEMISTRY=Na_5_Al_3_F_14_
##LOCALITY=Ivigtut cryolite deposit, Arsuk Fjord, Greenland
##OWNER=RRUFF
##SOURCE=G.R. Rossman
##DESCRIPTION=Colorless fragment
##STATUS=The identification of this mineral has been confirmed by X-ray diffraction and chemical analysis
##URL=rruff.info/R050412
##MEASURED CHEMISTRY=(Na_4.96_K_0.04_)_Î£=5_Al_3.00_F_14.00_ ; trace amounts of Si and Ca
92.52344, 40.12244
93.00555, 40.00219
93.48767, 40.04489
93.96979, 40.99072
94.45190, 41.98582
94.93402, 42.81809
95.41614, 43.05157
95.89825, 43.00451
96.38037, 43.07489
96.86249, 43.19881
97.34460, 43.20652
97.82672, 42.88895
98.30884, 42.80187
98.79095, 43.19145
99.27307, 43.82042
99.75519, 44.27352
100.2373, 44.40433
100.7194, 44.35080
101.2015, 44.59548
101.6837, 45.25547
102.1658, 46.06189
102.6479, 46.78648
103.1300, 47.40625
103.6121, 48.13257
104.0942, 49.14445
104.5764, 50.36200
105.0585, 51.70574
105.5406, 53.27382
106.0227, 54.96484
106.5048, 56.46114
106.9869, 57.75410
107.4691, 58.80059
107.9512, 59.61498
108.4333, 60.21505
108.9154, 60.63566
109.3975, 60.87758
109.8796, 60.91544
110.3618, 60.92677
110.8439, 61.04956
111.3260, 61.03600
111.8081, 60.74415
112.2902, 60.17273
112.7723, 59.42936
113.2544, 58.66092
113.7366, 57.87189
114.2187, 57.03926
114.7008, 56.17289
115.1829, 55.26094
115.6650, 54.31541
116.1471, 53.33840
116.6293, 52.29189
117.1114, 51.04731
117.5935, 49.44389
118.0756, 47.97197
118.5577, 46.84881
119.0398, 45.95081
119.5220, 44.94674
120.0041, 43.63253
120.4862, 42.17780
120.9683, 40.95176
121.4504, 39.97899
121.9325, 39.18039
122.4147, 38.56440
122.8968, 38.14830
123.3789, 37.70185
123.8610, 37.14821
124.3431, 36.48601
124.8252, 35.66762
125.3074, 34.62054
125.7895, 33.47942
126.2716, 32.51519
126.7537, 31.75593
127.2358, 31.16441
127.7179, 30.78577
128.2001, 30.51867
128.6822, 30.22315
129.1643, 29.80759
129.6464, 29.28378
130.1285, 28.82509
130.6107, 28.53765
131.0928, 28.21484
131.5749, 27.79381
132.0570, 27.29631
132.5391, 26.76913
133.0212, 26.24598
133.5034, 25.70954
133.9855, 25.31464
134.4676, 25.14806
134.9497, 25.02154
135.4318, 24.82614
135.9139, 24.55410
136.3960, 24.27234
136.8782, 24.06351
137.3603, 23.94760
137.8424, 23.79929
138.3245, 23.57169
138.8066, 23.32382
139.2887, 23.14823
139.7709, 23.08495
140.2530, 23.01881
140.7351, 22.78032
141.2172, 22.39009
141.6993, 21.99257
142.1814, 21.66639
142.6636, 21.38885
143.1457, 21.04441
143.6278, 20.46633
144.1099, 19.99738
144.5920, 19.98586
145.0741, 20.42380
145.5563, 20.86974
146.0384, 20.87772
146.5205, 20.38252
147.0026, 20.01025
147.4847, 19.95990
147.9668, 20.00870
148.4490, 20.07506
148.9311, 20.13299
149.4132, 20.15870
149.8953, 20.10366
150.3774, 19.90176
150.8595, 19.75355
151.3417, 19.68613
151.8238, 19.66100
152.3059, 19.63866
152.7880, 19.60601
153.2701, 19.59050
153.7522, 19.66355
154.2344, 20.03094
154.7165, 20.24927
155.1986, 20.17122
155.6807, 19.97104
156.1628, 19.89618
156.6449, 20.08430
157.1271, 20.43450
157.6092, 20.52109
158.0913, 20.18658
158.5734, 19.82518
159.0555, 19.51193
159.5376, 19.25074
160.0198, 19.05940
160.5019, 18.96946
160.9840, 18.94712
161.4661, 18.86188
161.9482, 18.65982
162.4303, 18.45397
162.9125, 18.34969
163.3946, 18.34117
163.8767, 18.28505
164.3588, 18.08498
164.8409, 17.78072
165.3230, 17.42534
165.8052, 16.94702
166.2873, 16.49548
166.7694, 16.28873
167.2515, 16.37154
167.7336, 16.55012
168.2157, 16.79612
168.6979, 17.05960
169.1800, 17.29532
169.6621, 17.51556
170.1442, 17.67251
170.6263, 17.59084
171.1084, 17.01464
171.5906, 16.61502
172.0727, 16.63715
172.5548, 16.93290
173.0369, 17.32278
173.5190, 17.73528
174.0011, 18.14205
174.4833, 18.30065
174.9654, 17.90334
175.4475, 17.54309
175.9296, 17.29090
176.4117, 17.16895
176.8938, 17.20588
177.3760, 17.44573
177.8581, 17.89773
178.3402, 18.18691
178.8223, 18.19156
179.3044, 18.17328
179.7865, 18.23657
180.2687, 18.36098
180.7508, 18.45450
181.2329, 18.42719
181.7150, 18.26203
182.1971, 18.20900
182.6792, 18.26454
183.1614, 18.41348
183.6435, 18.68853
184.1256, 19.07462
184.6077, 19.47907
185.0898, 19.84093
185.5719, 20.14861
186.0541, 20.33621
186.5362, 20.21840
187.0183, 20.08494
187.5004, 20.25690
187.9825, 20.78262
188.4646, 21.34068
188.9468, 21.54715
189.4289, 21.50898
189.9110, 21.68971
190.3931, 22.41367
190.8752, 23.35100
191.3573, 23.95825
191.8395, 24.10156
192.3216, 24.18304
192.8037, 24.48738
193.2858, 24.96080
193.7679, 25.51167
194.2500, 26.19194
194.7322, 26.92727
195.2143, 27.46606
195.6964, 27.68664
196.1785, 27.88158
196.6606, 28.19389
197.1427, 28.60434
197.6249, 29.06817
198.1070, 29.54759
198.5891, 30.04930
199.0712, 30.65692
199.5533, 31.57148
200.0354, 32.36370
200.5176, 32.85130
200.9997, 33.08876
201.4818, 33.21087
201.9639, 33.32234
202.4460, 33.42612
202.9281, 33.41927
203.4103, 33.17371
203.8924, 32.92703
204.3745, 32.85261
204.8566, 32.85291
205.3387, 32.66658
205.8208, 32.01628
206.3030, 30.81064
206.7851, 29.98441
207.2672, 29.90176
207.7493, 29.81303
208.2314, 29.39952
208.7135, 28.70170
209.1957, 27.95617
209.6778, 27.38099
210.1599, 27.01031
210.6420, 26.55405
211.1241, 25.86875
211.6062, 25.23944
212.0884, 24.82862
212.5705, 24.62715
213.0526, 24.51849
213.5347, 24.41665
214.0168, 24.32500
214.4989, 24.14899
214.9811, 23.75544
215.4632, 23.38660
215.9453, 23.21240
216.4274, 23.23689
216.9095, 23.34552
217.3916, 23.46150
217.8737, 23.58205
218.3559, 23.65878
218.8380, 23.62610
219.3201, 23.59192
219.8022, 23.73511
220.2843, 24.06836
220.7664, 24.24518
221.2486, 23.86522
221.7307, 23.06149
222.2128, 22.43527
222.6949, 22.20934
223.1770, 22.12707
223.6591, 21.89804
224.1413, 21.49731
224.6234, 21.06697
225.1055, 20.69618
225.5876, 20.36997
226.0697, 20.06926
226.5518, 19.80626
227.0340, 19.55861
227.5161, 19.26236
227.9982, 18.87367
228.4803, 18.59199
228.9624, 18.65252
229.4445, 18.86366
229.9267, 18.97948
230.4088, 18.89612
230.8909, 18.68049
231.3730, 18.40799
231.8551, 17.97838
232.3372, 17.75988
232.8194, 18.06430
233.3015, 18.59363
233.7836, 19.01261
234.2657, 19.17812
234.7478, 19.16397
235.2299, 19.11594
235.7121, 18.98451
236.1942, 18.92410
236.6763, 18.99353
237.1584, 19.13835
237.6405, 19.31632
238.1227, 19.51709
238.6048, 19.71529
239.0869, 19.83606
239.5690, 19.80761
240.0511, 19.82907
240.5332, 19.96170
241.0154, 20.14362
241.4975, 20.32006
241.9796, 20.46802
242.4617, 20.58804
242.9438, 20.67548
243.4259, 20.69376
243.9081, 20.73775
244.3902, 20.87655
244.8723, 21.01571
245.3544, 21.05009
245.8365, 20.94112
246.3186, 20.75457
246.8008, 20.64536
247.2829, 20.74134
247.7650, 20.72528
248.2471, 20.50031
248.7292, 20.20801
249.2113, 19.99914
249.6935, 19.92017
250.1756, 19.87672
250.6577, 19.67854
251.1398, 19.14235
251.6219, 18.71331
252.1040, 18.44838
252.5862, 18.25738
253.0683, 18.07082
253.5504, 17.86701
254.0325, 17.65246
254.5146, 17.43825
254.9967, 17.23209
255.4789, 17.01190
255.9610, 16.77068
256.4431, 16.52119
256.9252, 16.24655
257.4073, 15.94914
257.8894, 15.69916
258.3716, 15.60300
258.8537, 15.75861
259.3358, 15.81412
259.8179, 15.71801
260.3000, 15.55342
260.7821, 15.38142
261.2643, 15.21451
261.7464, 15.04853
262.2285, 14.87204
262.7106, 14.67560
263.1927, 14.53021
263.6748, 14.48104
264.1570, 14.45560
264.6391, 14.38672
265.1212, 14.26915
265.6033, 14.15173
266.0854, 14.07436
266.5675, 14.04259
267.0497, 14.05321
267.5318, 14.15774
268.0139, 14.26888
268.4960, 14.33223
268.9781, 14.34199
269.4602, 14.28411
269.9424, 14.12223
270.4245, 13.87269
270.9066, 13.67420
271.3887, 13.50276
271.8708, 13.40360
272.3529, 13.46317
272.8351, 13.66559
273.3172, 13.82612
273.7993, 13.82496
274.2814, 13.69334
274.7635, 13.56606
275.2456, 13.42122
275.7278, 13.30886
276.2099, 13.27026
276.6920, 13.30047
277.1741, 13.36975
277.6562, 13.51212
278.1383, 13.64904
278.6205, 13.61861
279.1026, 13.32569
279.5847, 13.07017
280.0668, 13.08198
280.5489, 13.32259
281.0310, 13.57122
281.5132, 13.77667
281.9953, 13.92441
282.4774, 13.98299
282.9595, 13.93042
283.4416, 13.91734
283.9237, 14.12975
284.4059, 14.48509
284.8880, 14.60197
285.3701, 14.25813
285.8522, 13.82391
286.3343, 13.71114
286.8164, 13.90287
287.2986, 14.10589
287.7807, 14.13015
288.2628, 14.03890
288.7449, 14.06048
289.2270, 14.29821
289.7091, 14.51938
290.1913, 14.49521
290.6734, 14.28667
291.1555, 14.10760
291.6376, 14.06346
292.1197, 14.11873
292.6018, 14.20396
293.0840, 14.33933
293.5661, 14.44814
294.0482, 14.43475
294.5303, 14.36302
295.0124, 14.35437
295.4945, 14.48909
295.9767, 14.69657
296.4588, 14.86065
296.9409, 14.98425
297.4230, 15.05358
297.9051, 14.94861
298.3872, 14.81945
298.8694, 14.87430
299.3515, 15.23842
299.8336, 15.69382
300.3157, 15.92891
300.7978, 15.90221
301.2799, 15.91439
301.7621, 16.15268
302.2442, 16.44561
302.7263, 16.62174
303.2084, 16.63182
303.6905, 16.63776
304.1726, 16.82394
304.6548, 17.19805
305.1369, 17.56153
305.6190, 17.86974
306.1011, 18.14901
306.5832, 18.42251
307.0653, 18.69107
307.5475, 18.93488
308.0296, 19.10407
308.5117, 19.21027
308.9938, 19.40204
309.4759, 19.71685
309.9580, 20.10851
310.4402, 20.56801
310.9223, 21.07535
311.4044, 21.56112
311.8865, 21.96097
312.3686, 22.29579
312.8507, 22.66654
313.3329, 23.08954
313.8150, 23.52365
314.2971, 23.98813
314.7792, 24.44682
315.2613, 24.83077
315.7434, 25.09102
316.2256, 25.27067
316.7077, 25.48469
317.1898, 25.78679
317.6719, 25.97398
318.1540, 25.91963
318.6361, 25.72214
319.1183, 25.48538
319.6004, 25.25494
320.0825, 24.94967
320.5646, 24.41631
321.0467, 23.61283
321.5288, 22.85000
322.0110, 22.26361
322.4931, 21.73541
322.9752, 21.17504
323.4573, 20.56997
323.9394, 19.97428
324.4215, 19.42820
324.9037, 18.93476
325.3858, 18.49847
325.8679, 18.13555
326.3500, 17.82358
326.8321, 17.54876
327.3142, 17.30751
327.7964, 17.08715
328.2785, 16.85475
328.7606, 16.62906
329.2427, 16.51685
329.7248, 16.59731
330.2069, 16.66512
330.6891, 16.57695
331.1712, 16.38718
331.6533, 16.20313
332.1354, 16.03321
332.6175, 15.91927
333.0996, 15.97613
333.5818, 16.25865
334.0639, 16.53597
334.5460, 16.66140
335.0281, 16.72662
335.5102, 16.83780
335.9923, 17.04114
336.4745, 17.25525
336.9566, 17.37684
337.4387, 17.39966
337.9208, 17.41986
338.4029, 17.37400
338.8850, 17.41795
339.3671, 17.75291
339.8492, 18.41674
340.3314, 19.07500
340.8135, 19.47607
341.2956, 19.65176
341.7777, 19.75496
342.2598, 19.72183
342.7419, 19.75845
343.2241, 20.06766
343.7062, 20.60557
344.1883, 21.15698
344.6704, 21.59378
345.1525, 21.97736
345.6346, 22.44750
346.1168, 23.02685
346.5989, 23.63973
347.0810, 24.20280
347.5631, 24.76058
348.0452, 25.41059
348.5273, 26.20758
349.0095, 27.07976
349.4916, 27.96318
349.9737, 28.85492
350.4558, 29.73188
350.9379, 30.52936
351.4200, 31.33674
351.9022, 32.32570
352.3843, 33.59855
352.8664, 34.77819
353.3485, 35.56000
353.8306, 36.02289
354.3127, 36.50327
354.7949, 37.16182
355.2770, 37.75205
355.7591, 38.01499
356.2412, 37.97783
356.7233, 37.59935
357.2054, 36.72352
357.6876, 35.54183
358.1697, 34.35295
358.6518, 33.20079
359.1339, 31.98995
359.6160, 30.59093
360.0981, 29.04295
360.5803, 27.61069
361.0624, 26.39278
361.5445, 25.25585
362.0266, 24.09642
362.5087, 22.91866
362.9908, 21.78325
363.4730, 20.70344
363.9551, 19.70929
364.4372, 18.85040
364.9193, 18.14058
365.4014, 17.52988
365.8835, 17.05615
366.3657, 16.66502
366.8478, 16.22692
367.3299, 15.68797
367.8120, 15.14340
368.2941, 14.75740
368.7762, 14.56718
369.2584, 14.35713
369.7405, 14.05173
370.2226, 13.74186
370.7047, 13.52567
371.1868, 13.41122
371.6689, 13.33188
372.1511, 13.22991
372.6332, 13.10382
373.1153, 12.98663
373.5974, 12.86854
374.0795, 12.76676
374.5616, 12.68968
375.0438, 12.63535
375.5259, 12.59844
376.0080, 12.57741
376.4901, 12.56928
376.9722, 12.56408
377.4543, 12.56000
377.9365, 12.56097
378.4186, 12.56314
378.9007, 12.57241
379.3828, 12.58275
379.8649, 12.59595
380.3470, 12.64619
380.8292, 12.79101
381.3113, 13.09192
381.7934, 13.30220
382.2755, 13.37683
382.7576, 13.41340
383.2397, 13.47264
383.7219, 13.54675
384.2040, 13.58043
384.6861, 13.51939
385.1682, 13.37506
385.6503, 13.33356
386.1324, 13.57429
386.6146, 13.72072
387.0967, 13.68314
387.5788, 13.52197
388.0609, 13.28505
388.5430, 12.99480
389.0251, 12.71631
389.5073, 12.60906
389.9894, 12.85314
390.4715, 12.88221
390.9536, 12.50953
391.4357, 12.06628
391.9178, 11.74959
392.4000, 11.58119
392.8821, 11.47267
393.3642, 11.33926
393.8463, 11.17883
394.3284, 11.05865
394.8105, 10.98886
395.2927, 10.95134
395.7748, 10.98553
396.2569, 11.03815
396.7390, 11.01395
397.2211, 10.84901
397.7032, 10.61565
398.1854, 10.47052
398.6675, 10.42024
399.1496, 10.43849
399.6317, 10.69657
400.1138, 10.91109
400.5959, 10.78673
401.0781, 10.28278
401.5602, 9.771061
402.0423, 9.613494
402.5244, 9.780950
403.0065, 9.970310
403.4886, 10.22983
403.9708, 10.37752
404.4529, 10.20181
404.9350, 9.815796
405.4171, 9.539613
405.8992, 9.583981
406.3813, 9.780060
406.8635, 9.860277
407.3456, 9.813125
407.8277, 9.754514
408.3098, 9.726579
408.7919, 9.730083
409.2740, 9.764661
409.7562, 9.837949
410.2383, 9.922332
410.7204, 10.08052
411.2025, 10.24256
411.6846, 10.13838
412.1667, 9.609346
412.6489, 9.057946
413.1310, 9.062651
413.6131, 9.602641
414.0952, 10.02378
414.5773, 10.19485
415.0594, 10.21303
415.5416, 10.10980
416.0237, 9.909136
416.5058, 9.734983
416.9879, 9.667123
417.4700, 9.693890
417.9521, 9.748565
418.4343, 9.872992
418.9164, 9.970578
419.3985, 9.995753
419.8806, 9.983900
420.3627, 9.957767
420.8448, 9.926160
421.3270, 9.966414
421.8091, 10.22606
422.2912, 10.89111
422.7733, 11.21192
423.2554, 10.99704
423.7375, 10.63519
424.2197, 10.25215
424.7018, 9.915160
425.1839, 9.725570
425.6660, 9.764073
426.1481, 10.00439
426.6302, 10.27718
427.1124, 10.70577
427.5945, 11.00522
428.0766, 11.09730
428.5587, 11.06865
429.0408, 10.98238
429.5229, 10.86560
430.0051, 10.75656
430.4872, 10.70894
430.9693, 10.73011
431.4514, 10.78213
431.9335, 10.87284
432.4156, 10.99004
432.8978, 11.14196
433.3799, 11.31801
433.8620, 11.50187
434.3441, 11.69812
434.8262, 11.88208
435.3083, 11.95731
435.7905, 11.86210
436.2726, 11.82901
436.7547, 11.97759
437.2368, 12.20776
437.7189, 12.44130
438.2010, 12.66368
438.6832, 12.89258
439.1653, 13.15817
439.6474, 13.44842
440.1295, 13.70628
440.6116, 13.93315
441.0938, 14.10381
441.5759, 14.10812
442.0580, 14.02104
442.5401, 14.09684
443.0222, 14.63240
443.5043, 15.20552
443.9865, 15.37169
444.4686, 15.16047
444.9507, 14.84196
445.4328, 14.49150
445.9149, 14.16160
446.3970, 13.98002
446.8792, 13.97125
447.3613, 14.00284
447.8434, 14.10781
448.3255, 14.20209
448.8076, 14.15602
449.2897, 13.95500
449.7719, 13.73311
450.2540, 13.63040
450.7361, 13.65695
451.2182, 13.54845
451.7003, 13.12854
452.1824, 12.78703
452.6646, 12.73325
453.1467, 12.83812
453.6288, 12.86566
454.1109, 12.71210
454.5930, 12.48643
455.0751, 12.42237
455.5573, 12.70640
456.0394, 12.78086
456.5215, 12.52126
457.0036, 12.19463
457.4857, 11.90994
457.9678, 11.69789
458.4500, 11.58189
458.9321, 11.60598
459.4142, 11.73234
459.8963, 11.72242
460.3784, 11.45767
460.8605, 11.26913
461.3427, 11.28377
461.8248, 11.38379
462.3069, 11.44570
462.7890, 11.43894
463.2711, 11.45102
463.7532, 11.63449
464.2354, 11.96717
464.7175, 12.10032
465.1996, 11.91192
465.6817, 11.64691
466.1638, 11.40776
466.6459, 11.22579
467.1281, 11.20023
467.6102, 11.45559
468.0923, 11.79878
468.5744, 12.04848
469.0565, 12.20653
469.5386, 12.26196
470.0208, 12.18176
470.5029, 12.03256
470.9850, 11.91653
471.4671, 11.82012
471.9492, 11.79970
472.4313, 11.95867
472.9135, 12.14861
473.3956, 12.15720
473.8777, 11.99186
474.3598, 11.91027
474.8419, 12.14756
475.3240, 12.64871
475.8062, 12.85765
476.2883, 12.57002
476.7704, 12.28602
477.2525, 12.06250
477.7346, 11.91486
478.2167, 11.87163
478.6989, 11.93453
479.1810, 12.05851
479.6631, 12.19546
480.1452, 12.35437
480.6273, 12.47490
481.1094, 12.46807
481.5916, 12.51397
482.0737, 12.70528
482.5558, 12.98459
483.0379, 13.26526
483.5200, 13.51517
484.0021, 13.70353
484.4843, 13.73762
484.9664, 13.56471
485.4485, 13.48191
485.9306, 13.59641
486.4127, 13.78018
486.8948, 13.97791
487.3770, 14.17732
487.8591, 14.33944
488.3412, 14.42462
488.8233, 14.46272
489.3054, 14.50587
489.7875, 14.55364
490.2697, 14.60977
490.7518, 14.65556
491.2339, 14.72563
491.7160, 14.88663
492.1981, 15.16888
492.6802, 15.45027
493.1624, 15.68180
493.6445, 15.87817
494.1266, 16.04833
494.6087, 16.19607
495.0908, 16.35725
495.5729, 16.56732
496.0551, 16.82557
496.5372, 17.08100
497.0193, 17.34475
497.5014, 17.59286
497.9835, 17.78410
498.4656, 17.96797
498.9478, 18.20931
499.4299, 18.53024
499.9120, 18.91827
500.3941, 19.36444
500.8762, 19.90195
501.3583, 20.37681
501.8405, 20.77657
502.3226, 21.12460
502.8047, 21.34449
503.2868, 21.53105
503.7689, 21.83608
504.2510, 22.33517
504.7331, 22.99094
505.2152, 23.79312
505.6974, 24.79288
506.1795, 25.62568
506.6616, 26.05738
507.1437, 26.44635
507.6258, 27.04035
508.1079, 27.82991
508.5901, 28.69938
509.0722, 29.64734
509.5543, 30.61635
510.0364, 31.46241
510.5185, 32.18849
511.0006, 33.12267
511.4828, 34.49341
511.9649, 36.09566
512.4470, 37.45387
512.9291, 38.45833
513.4113, 39.63467
513.8934, 41.09002
514.3755, 42.78975
514.8576, 44.75886
515.3397, 46.96716
515.8218, 49.22599
516.3040, 51.41626
516.7861, 53.54217
517.2682, 55.60056
517.7503, 57.36181
518.2324, 59.34287
518.7145, 61.57085
519.1967, 64.06912
519.6788, 66.88902
520.1609, 70.02310
520.6430, 73.39178
521.1251, 76.93593
521.6072, 80.67174
522.0894, 84.42358
522.5715, 88.07519
523.0536, 91.95835
523.5357, 96.19961
524.0178, 100.6957
524.4999, 105.2986
524.9821, 109.9653
525.4642, 114.8859
525.9463, 120.3980
526.4284, 126.3468
526.9105, 132.2463
527.3926, 138.0395
527.8748, 143.6476
528.3569, 149.1435
528.8390, 154.4104
529.3211, 159.1234
529.8032, 163.3689
530.2853, 166.8941
530.7675, 169.5878
531.2496, 171.4428
531.7317, 172.5331
532.2138, 172.8889
532.6959, 172.1799
533.1780, 169.9702
533.6602, 166.1247
534.1423, 161.4783
534.6244, 155.9712
535.1065, 149.8407
535.5886, 142.8638
536.0707, 135.4315
536.5529, 128.0937
537.0350, 121.1155
537.5171, 114.2758
537.9992, 107.2550
538.4813, 99.93209
538.9634, 93.10778
539.4456, 87.04636
539.9277, 81.30006
540.4098, 75.63583
540.8919, 70.17264
541.3740, 65.15966
541.8561, 60.72316
542.3383, 56.72053
542.8204, 53.01836
543.3025, 49.62117
543.7846, 46.61293
544.2667, 44.10211
544.7488, 41.81668
545.2310, 39.40968
545.7131, 36.91198
546.1952, 34.68405
546.6773, 32.87267
547.1594, 31.27590
547.6415, 29.79700
548.1237, 28.42683
548.6058, 27.12115
549.0879, 25.86707
549.5700, 24.70997
550.0521, 23.74800
550.5342, 23.09943
551.0164, 22.29431
551.4985, 21.11251
551.9806, 20.02889
552.4627, 19.26435
552.9448, 18.74349
553.4269, 18.30961
553.9091, 17.89358
554.3912, 17.47802
554.8733, 17.01358
555.3554, 16.47868
555.8375, 16.04054
556.3196, 15.83613
556.8018, 15.59721
557.2839, 15.11426
557.7660, 14.46163
558.2481, 13.84783
558.7302, 13.30699
559.2123, 12.88563
559.6945, 12.70837
560.1766, 12.71614
560.6587, 12.63182
561.1408, 12.35246
561.6229, 12.01805
562.1050, 11.80849
562.5872, 11.75151
563.0693, 11.63010
563.5514, 11.36504
564.0335, 11.11304
564.5156, 10.95885
564.9977, 10.87450
565.4799, 10.79855
565.9620, 10.70733
566.4441, 10.62995
566.9262, 10.63543
567.4083, 10.78171
567.8904, 10.77427
568.3726, 10.45175
568.8547, 10.13619
569.3368, 9.933344
569.8189, 9.811357
570.3010, 9.712182
570.7831, 9.613647
571.2653, 9.530203
571.7474, 9.488046
572.2295, 9.481168
572.7116, 9.449378
573.1937, 9.362414
573.6758, 9.303044
574.1580, 9.391545
574.6401, 9.573844
575.1222, 9.635072
575.6043, 9.441317
576.0864, 9.252023
576.5685, 9.195207
577.0507, 9.227735
577.5328, 9.295095
578.0149, 9.379615
578.4970, 9.455325
578.9791, 9.502549
579.4612, 9.524192
579.9434, 9.444250
580.4255, 9.075833
580.9076, 8.826544
581.3897, 8.857957
581.8718, 8.999264
582.3539, 9.058666
582.8361, 8.995884
583.3182, 8.914022
583.8003, 8.941166
584.2824, 9.052725
584.7645, 9.034155
585.2466, 8.806321
585.7288, 8.674541
586.2108, 8.856945
586.6929, 9.196756
587.1750, 9.496288
587.6572, 9.765416
588.1393, 9.890566
588.6214, 9.661921
