##NAMES=Chiolite
##RRUFFID=R050412
##IDEAL CHEMISTRY=Na_5_Al_3_F_14_
##LOCALITY=Ivigtut cryolite deposit, Arsuk Fjord, Greenland
##OWNER=RRUFF
##SOURCE=G.R. Rossman
##DESCRIPTION=Colorless fragment
##STATUS=The identification of this mineral has been confirmed by X-ray diffraction and chemical analysis
##URL=rruff.info/R050412
##MEASURED CHEMISTRY=(Na_4.96_K_0.04_)_Î£=5_Al_3.00_F_14.00_ ; trace amounts of Si and Ca
91.87140, 0.0000000E+00
92.35352, 8.808709
92.83563, 8.568041
93.31775, 8.465741
93.79987, 8.606260
94.28198, 8.898963
94.76410, 9.057714
95.24622, 8.953530
95.72833, 8.760686
96.21045, 8.906932
96.69257, 9.412501
97.17468, 9.942354
97.65680, 10.12680
98.13892, 9.975764
98.62103, 9.953142
99.10315, 10.21057
99.58527, 10.70503
100.0674, 11.11214
100.5495, 11.37853
101.0316, 11.66747
101.5137, 12.17790
101.9958, 12.94728
102.4780, 13.81913
102.9601, 14.75839
103.4422, 15.77667
103.9243, 16.76739
104.4064, 17.67510
104.8885, 18.59546
105.3707, 19.73117
105.8528, 21.13812
106.3349, 22.66950
106.8170, 24.27317
107.2991, 26.00942
107.7813, 27.70614
108.2634, 29.39013
108.7455, 31.04656
109.2276, 32.56544
109.7097, 33.74647
110.1918, 34.94941
110.6740, 36.32540
111.1561, 38.28139
111.6382, 39.95781
112.1203, 41.14122
112.6024, 41.92558
113.0845, 42.81373
113.5667, 44.04231
114.0488, 45.31044
114.5309, 46.42891
115.0130, 47.09245
115.4951, 47.83912
115.9772, 48.89320
116.4594, 50.25670
116.9415, 51.56179
117.4236, 52.55613
117.9057, 53.46068
118.3878, 54.50730
118.8699, 56.24208
119.3521, 57.81148
119.8342, 58.57839
120.3163, 58.42595
120.7984, 58.33765
121.2805, 58.79871
121.7626, 59.73667
122.2448, 61.02763
122.7269, 63.49163
123.2090, 65.85632
123.6911, 66.74710
124.1732, 65.83886
124.6553, 64.21204
125.1375, 62.51357
125.6196, 60.82934
126.1017, 59.43114
126.5838, 58.52655
127.0659, 58.01046
127.5480, 57.71596
128.0302, 57.65977
128.5123, 57.72332
128.9944, 57.74475
129.4765, 57.73174
129.9586, 57.75574
130.4407, 58.01908
130.9229, 58.40756
131.4050, 58.39812
131.8871, 57.72770
132.3692, 56.75088
132.8513, 56.28363
133.3334, 56.26229
133.8156, 56.22301
134.2977, 55.96019
134.7798, 55.67482
135.2619, 55.60814
135.7440, 55.87775
136.2261, 56.39950
136.7083, 56.74490
137.1904, 56.83484
137.6725, 57.00320
138.1546, 57.77678
138.6367, 59.35832
139.1188, 60.44314
139.6010, 60.65707
140.0831, 60.00494
140.5652, 59.22504
141.0473, 58.35201
141.5294, 57.30012
142.0115, 55.84658
142.4937, 53.59924
142.9758, 51.82817
143.4579, 50.96818
143.9400, 51.21806
144.4221, 51.40648
144.9042, 51.53667
145.3864, 51.60341
145.8685, 51.59306
146.3506, 51.47865
146.8327, 51.32334
147.3148, 51.14146
147.7969, 50.91939
148.2791, 50.69947
148.7612, 50.39861
149.2433, 50.10658
149.7254, 50.03102
150.2075, 50.27827
150.6896, 50.64819
151.1718, 51.08549
151.6539, 51.87826
152.1360, 52.32616
152.6181, 52.13544
153.1002, 51.54980
153.5823, 51.29816
154.0645, 51.88333
154.5466, 52.48075
155.0287, 52.70905
155.5108, 52.36012
155.9929, 51.84853
156.4750, 51.15021
156.9572, 50.31092
157.4393, 49.53338
157.9214, 48.68865
158.4035, 48.01164
158.8856, 47.64489
159.3677, 48.11342
159.8499, 48.39960
160.3320, 48.08382
160.8141, 47.26997
161.2962, 46.57209
161.7783, 46.19602
162.2604, 46.03808
162.7426, 46.01261
163.2247, 46.50672
163.7068, 46.76839
164.1889, 46.25503
164.6710, 45.03300
165.1531, 44.00416
165.6353, 43.74469
166.1174, 43.86353
166.5995, 43.93980
167.0816, 43.67054
167.5637, 43.42217
168.0458, 43.43754
168.5280, 43.71938
169.0101, 44.11159
169.4922, 44.63011
169.9743, 45.17237
170.4564, 45.59145
170.9385, 45.76920
171.4207, 45.83354
171.9028, 45.81329
172.3849, 45.69855
172.8670, 45.75257
173.3491, 46.46143
173.8312, 47.47802
174.3134, 48.13927
174.7955, 47.77002
175.2776, 47.04328
175.7597, 46.72371
176.2418, 46.85912
176.7239, 47.29681
177.2061, 48.08930
177.6882, 49.10669
178.1703, 49.98021
178.6524, 50.35325
179.1345, 50.52302
179.6166, 51.03194
180.0988, 51.96302
180.5809, 52.97689
181.0630, 53.68285
181.5451, 54.14183
182.0272, 54.56765
182.5093, 54.92197
182.9915, 55.33573
183.4736, 56.11404
183.9557, 57.29252
184.4378, 58.79922
184.9199, 60.91289
185.4020, 63.46568
185.8842, 65.54014
186.3663, 66.31499
186.8484, 66.13093
187.3305, 66.15530
187.8126, 66.46517
188.2947, 67.03143
188.7769, 67.84940
189.2590, 68.91333
189.7411, 70.10210
190.2232, 71.41047
190.7053, 72.81323
191.1874, 74.17293
191.6696, 75.48348
192.1517, 76.76798
192.6338, 78.06689
193.1159, 79.37949
193.5980, 80.72987
194.0801, 82.15358
194.5623, 83.63770
195.0444, 85.11536
195.5265, 86.60228
196.0086, 88.03117
196.4907, 89.21904
196.9728, 90.14066
197.4550, 91.02962
197.9371, 91.99629
198.4192, 93.03967
198.9013, 94.25709
199.3834, 95.78346
199.8655, 97.35421
200.3477, 98.32559
200.8298, 98.63436
201.3119, 98.60632
201.7940, 98.41452
202.2761, 98.05949
202.7582, 97.55130
203.2404, 96.90356
203.7225, 96.09643
204.2046, 95.05082
204.6867, 93.73534
205.1688, 92.28699
205.6509, 90.73629
206.1331, 89.02450
206.6152, 87.57057
207.0973, 86.50097
207.5794, 85.66466
208.0615, 84.51579
208.5436, 82.87551
209.0258, 81.38798
209.5079, 80.58149
209.9900, 80.67220
210.4721, 80.40482
210.9542, 79.54389
211.4363, 78.30264
211.9185, 77.39964
212.4006, 76.89213
212.8827, 76.59427
213.3648, 76.40369
213.8469, 76.30716
214.3290, 76.35741
214.8112, 76.58913
215.2933, 76.96230
215.7754, 77.36112
216.2575, 77.82266
216.7396, 78.23998
217.2217, 78.59111
217.7039, 78.97163
218.1860, 78.96915
218.6681, 78.43236
219.1502, 77.51313
219.6323, 76.82163
220.1144, 76.59998
220.5966, 76.20341
221.0787, 75.23550
221.5608, 73.51402
222.0429, 71.71272
222.5250, 69.79942
223.0071, 67.84373
223.4893, 66.18064
223.9714, 64.86107
224.4535, 63.73068
224.9356, 62.71307
225.4177, 61.87554
225.8998, 60.99352
226.3820, 59.99841
226.8641, 58.95415
227.3462, 58.10172
227.8283, 57.41538
228.3104, 56.95800
228.7925, 56.82220
229.2747, 57.26226
229.7568, 57.43160
230.2389, 57.20800
230.7210, 56.71014
231.2031, 56.29329
231.6852, 55.86441
232.1674, 55.65250
232.6495, 55.82676
233.1316, 56.67717
233.6137, 57.24471
234.0958, 57.34402
234.5779, 57.17540
235.0601, 57.31840
235.5422, 57.95908
236.0243, 58.64537
236.5064, 59.18121
236.9885, 59.51856
237.4706, 59.80763
237.9528, 60.02211
238.4349, 60.19236
238.9170, 60.39267
239.3991, 60.64119
239.8812, 60.89251
240.3633, 61.12974
240.8455, 61.35463
241.3276, 61.55438
241.8097, 61.68739
242.2918, 61.80809
242.7739, 62.05908
243.2560, 62.59014
243.7382, 63.02153
244.2203, 63.22625
244.7024, 63.21791
245.1845, 62.91916
245.6666, 62.15622
246.1487, 61.18733
246.6309, 60.52668
247.1130, 60.42249
247.5951, 60.21572
248.0772, 59.62828
248.5593, 58.49073
249.0414, 57.60299
249.5236, 57.12965
250.0057, 56.80293
250.4878, 56.15388
250.9699, 55.02315
251.4520, 53.84406
251.9341, 52.72078
252.4163, 51.60597
252.8984, 50.78342
253.3805, 50.44749
253.8626, 50.24928
254.3447, 49.64148
254.8268, 48.34314
255.3090, 47.19478
255.7911, 46.49775
256.2732, 46.31852
256.7553, 45.97611
257.2374, 45.35691
257.7195, 44.68506
258.2017, 44.26970
258.6838, 44.26896
259.1659, 44.14960
259.6480, 43.71917
260.1301, 42.96238
260.6122, 42.42054
261.0944, 42.16393
261.5765, 42.03417
262.0586, 41.86333
262.5407, 41.62969
263.0228, 41.42377
263.5049, 41.30581
263.9871, 41.26494
264.4692, 41.00986
264.9513, 40.41192
265.4334, 39.80239
265.9155, 39.50200
266.3976, 39.60550
266.8798, 39.71217
267.3619, 39.73473
267.8440, 39.69416
268.3261, 39.78566
268.8082, 40.07626
269.2903, 40.35744
269.7725, 40.46568
270.2546, 40.38750
270.7367, 40.17574
271.2188, 39.76190
271.7009, 39.23412
272.1830, 38.99812
272.6652, 39.14358
273.1473, 39.33979
273.6294, 39.32915
274.1115, 39.05745
274.5936, 38.92060
275.0757, 38.98628
275.5579, 39.18950
276.0400, 39.36000
276.5221, 39.50425
277.0042, 39.58830
277.4863, 39.55584
277.9684, 39.39195
278.4506, 39.30898
278.9327, 39.31275
279.4148, 39.41493
279.8969, 39.69123
280.3790, 40.17336
280.8611, 40.60846
281.3433, 40.84964
281.8254, 40.89907
282.3075, 40.94410
282.7896, 40.99849
283.2717, 41.03437
283.7538, 40.96931
284.2360, 40.79681
284.7181, 40.69611
285.2002, 40.76465
285.6823, 40.98669
286.1644, 41.22916
286.6465, 41.49372
287.1287, 41.76346
287.6108, 42.01516
288.0929, 42.24929
288.5750, 42.47996
289.0571, 42.72532
289.5392, 42.97239
290.0214, 43.15153
290.5035, 43.25508
290.9856, 43.34883
291.4677, 43.47191
291.9498, 43.63366
292.4319, 43.89722
292.9141, 44.36060
293.3962, 44.89756
293.8783, 45.13835
294.3604, 45.07697
294.8425, 45.06792
295.3246, 45.43031
295.8068, 46.09991
296.2889, 46.87188
296.7710, 47.77082
297.2531, 48.67355
297.7352, 49.31715
298.2173, 49.72628
298.6995, 50.13727
299.1816, 50.72424
299.6637, 51.43329
300.1458, 52.11780
300.6279, 52.71708
301.1100, 53.37214
301.5922, 54.43344
302.0743, 55.76331
302.5564, 56.80357
303.0385, 56.83995
303.5206, 56.51221
304.0027, 56.78953
304.4849, 57.87154
304.9670, 59.23273
305.4491, 60.54424
305.9312, 61.75367
306.4133, 62.73577
306.8954, 63.24218
307.3776, 63.59383
307.8597, 64.08102
308.3418, 64.72958
308.8239, 65.50454
309.3060, 66.36858
309.7881, 67.35308
310.2703, 68.47740
310.7524, 70.01436
311.2345, 71.51542
311.7166, 72.58304
312.1987, 73.22581
312.6808, 73.83737
313.1630, 74.77839
313.6451, 75.75883
314.1272, 76.47327
314.6093, 76.64310
315.0914, 76.68227
315.5735, 76.84561
316.0557, 77.07704
316.5378, 77.08131
317.0199, 76.64803
317.5020, 75.99100
317.9841, 75.27071
318.4662, 74.67509
318.9484, 73.81054
319.4305, 72.40888
319.9126, 70.62712
320.3947, 68.87719
320.8768, 67.30904
321.3589, 65.78007
321.8411, 64.18600
322.3232, 62.43034
322.8053, 60.85772
323.2874, 59.56452
323.7695, 58.48902
324.2516, 57.53358
324.7338, 56.72672
325.2159, 55.99711
325.6980, 55.30745
326.1801, 54.63002
326.6622, 54.10195
327.1443, 53.80693
327.6265, 53.62888
328.1086, 53.44884
328.5907, 52.97306
329.0728, 52.82758
329.5549, 53.26383
330.0370, 54.29236
330.5192, 55.01966
331.0013, 55.26917
331.4834, 55.37383
331.9655, 55.54660
332.4476, 55.70046
332.9297, 56.07444
333.4119, 56.69887
333.8940, 57.55707
334.3761, 58.60747
334.8582, 59.95040
335.3403, 61.28777
335.8224, 62.43913
336.3046, 63.30299
336.7867, 64.29888
337.2688, 65.48882
337.7509, 66.77902
338.2330, 68.02287
338.7151, 69.22133
339.1973, 70.34152
339.6794, 71.36005
340.1615, 72.26234
340.6436, 73.18260
341.1257, 74.08042
341.6078, 75.06543
342.0900, 76.33579
342.5721, 77.89355
343.0542, 79.42419
343.5363, 80.79140
344.0184, 82.04630
344.5005, 83.49428
344.9827, 85.15402
345.4648, 86.78791
345.9469, 88.03865
346.4290, 88.99458
346.9111, 90.19836
347.3932, 91.75098
347.8754, 93.61832
348.3575, 95.85991
348.8396, 98.42554
349.3217, 100.8808
349.8038, 102.8576
350.2859, 104.4852
350.7681, 106.1258
351.2502, 107.8720
351.7323, 109.4334
352.2144, 110.3935
352.6965, 110.8823
353.1786, 111.2634
353.6608, 112.0688
354.1429, 112.7107
354.6250, 112.4460
355.1071, 111.2372
355.5892, 109.4134
356.0714, 107.1253
356.5535, 104.4111
357.0356, 101.3219
357.5177, 97.66872
357.9998, 93.80632
358.4819, 90.03666
358.9641, 86.33069
359.4462, 82.61746
359.9283, 78.63886
360.4104, 74.75334
360.8925, 71.24708
361.3746, 68.15637
361.8568, 65.49765
362.3389, 63.52924
362.8210, 62.01237
363.3031, 60.35894
363.7852, 58.01738
364.2673, 55.79453
364.7495, 54.12543
365.2316, 53.21009
365.7137, 52.27202
366.1958, 51.01031
366.6779, 49.71029
367.1600, 48.69609
367.6422, 48.17440
368.1243, 47.76558
368.6064, 47.44046
369.0885, 47.20333
369.5706, 46.88957
370.0527, 46.30257
370.5349, 45.78931
371.0170, 45.58242
371.4991, 45.88187
371.9812, 46.15545
372.4633, 46.38145
372.9454, 46.55814
373.4276, 46.65608
373.9097, 46.59355
374.3918, 46.59826
374.8739, 46.82043
375.3560, 47.36045
375.8381, 47.64732
376.3203, 47.57807
376.8024, 47.38524
377.2845, 47.41829
377.7666, 47.69809
378.2487, 48.09143
378.7308, 48.56966
379.2130, 49.12726
379.6951, 49.69899
380.1772, 50.29737
380.6593, 50.86852
381.1414, 51.37679
381.6235, 51.81880
382.1057, 52.21933
382.5878, 52.61163
383.0699, 52.91991
383.5520, 52.98175
384.0341, 52.80971
384.5162, 52.52622
384.9984, 52.12597
385.4805, 51.67943
385.9626, 51.41708
386.4447, 51.42324
386.9268, 51.28040
387.4089, 50.40495
387.8911, 49.04673
388.3732, 47.78764
388.8553, 46.93923
389.3374, 46.27229
389.8195, 45.59372
390.3016, 44.91079
390.7838, 44.25514
391.2659, 43.70217
391.7480, 43.17249
392.2301, 42.57772
392.7122, 41.82959
393.1943, 41.10271
393.6765, 40.46739
394.1586, 39.91905
394.6407, 39.45533
395.1228, 39.06057
395.6049, 38.75727
396.0870, 38.58686
396.5692, 38.62345
397.0513, 38.56910
397.5334, 38.29406
398.0155, 37.92006
398.4976, 37.60328
398.9797, 37.33367
399.4619, 37.14682
399.9440, 37.10703
400.4261, 37.21260
400.9082, 37.17023
401.3903, 36.88712
401.8724, 36.54310
402.3546, 36.23133
402.8367, 35.88176
403.3188, 35.74727
403.8009, 35.97579
404.2830, 36.36938
404.7651, 36.37551
405.2473, 35.84805
405.7294, 35.35021
406.2115, 35.11095
406.6936, 35.13730
407.1757, 35.24364
407.6578, 35.44078
408.1400, 35.69062
408.6221, 36.01645
409.1042, 36.41304
409.5863, 36.61691
410.0684, 36.50103
410.5505, 36.19288
411.0327, 35.99241
411.5148, 35.89534
411.9969, 35.79528
412.4790, 35.51731
412.9611, 35.18394
413.4432, 35.14320
413.9254, 35.50211
414.4075, 35.91552
414.8896, 35.98876
415.3717, 35.82845
415.8538, 35.68310
416.3359, 35.66072
416.8181, 35.71376
417.3002, 35.79564
417.7823, 35.90748
418.2644, 36.08171
418.7465, 36.37910
419.2286, 36.73149
419.7108, 37.08228
420.1929, 37.56665
420.6750, 37.84875
421.1571, 37.55267
421.6392, 36.93686
422.1213, 36.68067
422.6035, 37.35750
423.0856, 38.09235
423.5677, 38.51874
424.0498, 38.51902
424.5319, 38.52300
425.0140, 38.51949
425.4962, 38.55671
425.9783, 38.68041
426.4604, 38.87540
426.9425, 39.18560
427.4246, 39.66834
427.9067, 40.29290
428.3889, 40.80033
428.8710, 41.12631
429.3531, 41.44748
429.8352, 41.87001
430.3173, 42.40462
430.7994, 42.98185
431.2816, 43.65050
431.7637, 44.27740
432.2458, 44.55835
432.7279, 44.46584
433.2100, 44.48134
433.6921, 44.79133
434.1743, 45.33832
434.6564, 45.93421
435.1385, 46.58855
435.6206, 47.22636
436.1027, 47.74817
436.5848, 48.20376
437.0670, 48.73639
437.5491, 49.39257
438.0312, 50.08891
438.5133, 50.78411
438.9954, 51.45684
439.4775, 52.04666
439.9597, 52.49174
440.4418, 52.86115
440.9239, 53.22703
441.4060, 53.59414
441.8881, 53.89350
442.3702, 54.11531
442.8524, 54.23366
443.3345, 54.21981
443.8166, 53.87327
444.2987, 53.61916
444.7808, 53.77238
445.2629, 54.14098
445.7451, 54.16314
446.2272, 53.31718
446.7093, 52.45894
447.1914, 51.91534
447.6735, 51.77643
448.1556, 51.70444
448.6378, 51.81161
449.1199, 51.91082
449.6020, 51.80067
450.0841, 51.38733
450.5662, 50.97559
451.0483, 50.65583
451.5305, 50.36896
452.0126, 49.82981
452.4947, 48.96128
452.9768, 48.06469
453.4589, 47.24039
453.9410, 46.47952
454.4232, 46.03223
454.9053, 45.94578
455.3874, 46.00887
455.8695, 45.99051
456.3516, 45.89067
456.8337, 45.70758
457.3159, 45.39384
457.7980, 45.03345
458.2801, 44.77299
458.7622, 44.60603
459.2443, 44.47917
459.7264, 44.41506
460.2086, 44.34900
460.6907, 44.13817
461.1728, 43.70201
461.6549, 43.41048
462.1370, 43.75905
462.6191, 44.37702
463.1013, 44.71277
463.5834, 44.20494
464.0655, 43.70388
464.5476, 43.65326
465.0297, 44.00236
465.5118, 44.26162
465.9940, 44.24465
466.4761, 44.13877
466.9582, 44.02318
467.4403, 43.73619
467.9224, 43.75147
468.4045, 44.35492
468.8867, 45.14295
469.3688, 45.52197
469.8509, 45.22305
470.3330, 44.99364
470.8151, 45.02412
471.2972, 45.28581
471.7794, 45.45544
472.2615, 45.48593
472.7436, 45.55877
473.2257, 45.87461
473.7078, 46.44207
474.1899, 46.73347
474.6721, 46.64607
475.1542, 46.45380
475.6363, 46.58476
476.1184, 46.99416
476.6005, 47.39514
477.0826, 47.64478
477.5648, 47.83314
478.0469, 48.12103
478.5290, 48.50005
479.0111, 48.89400
479.4932, 49.23344
479.9753, 49.56450
480.4575, 49.93891
480.9396, 50.36509
481.4217, 50.84235
481.9038, 51.41002
482.3859, 52.01206
482.8680, 52.55896
483.3502, 52.87483
483.8323, 53.27211
484.3144, 54.02326
484.7965, 55.07452
485.2786, 55.73882
485.7607, 55.48231
486.2429, 55.14434
486.7250, 55.13505
487.2071, 55.54270
487.6892, 56.10161
488.1713, 56.91292
488.6534, 57.80457
489.1356, 58.51638
489.6177, 58.96721
490.0998, 59.49848
490.5819, 60.23606
491.0640, 61.12799
491.5461, 61.84214
492.0283, 62.34922
492.5104, 62.93015
492.9925, 63.82541
493.4746, 64.98368
493.9567, 66.05104
494.4388, 67.00193
494.9210, 67.94099
495.4031, 69.00456
495.8852, 70.15606
496.3673, 71.32690
496.8494, 72.35486
497.3315, 73.50629
497.8137, 75.18090
498.2958, 77.25724
498.7779, 79.16869
499.2600, 80.44225
499.7421, 81.59112
500.2242, 82.91572
500.7064, 84.43105
501.1885, 86.29838
501.6706, 88.82308
502.1527, 91.59998
502.6348, 94.17923
503.1169, 96.04698
503.5991, 98.26698
504.0812, 101.0201
504.5633, 104.1903
505.0454, 107.4236
505.5275, 110.5967
506.0096, 113.9504
506.4918, 117.5478
506.9739, 121.4188
507.4560, 125.5273
507.9381, 129.8338
508.4202, 134.4817
508.9023, 139.6792
509.3845, 145.4061
509.8666, 151.2552
510.3487, 157.0210
510.8308, 163.1158
511.3129, 170.4070
511.7950, 178.7164
512.2772, 187.2079
512.7593, 195.3002
513.2414, 203.3936
513.7235, 212.0562
514.2056, 221.2975
514.6877, 230.9873
515.1699, 240.8711
515.6520, 251.2526
516.1341, 262.4900
516.6162, 275.1216
517.0983, 287.7481
517.5804, 299.7613
518.0626, 311.5871
518.5447, 323.9262
519.0268, 337.2234
519.5089, 350.7295
519.9910, 364.0133
520.4731, 377.1720
520.9553, 391.1718
521.4374, 406.2608
521.9195, 421.5854
522.4016, 436.5831
522.8837, 450.9029
523.3658, 466.1627
523.8480, 482.6313
524.3301, 499.5771
524.8122, 516.0446
525.2943, 531.9671
525.7764, 547.2843
526.2585, 562.0887
526.7407, 576.1440
527.2228, 589.6589
527.7049, 602.5167
528.1870, 613.6345
528.6691, 623.2542
529.1512, 630.4666
529.6334, 634.3024
530.1155, 634.7186
530.5976, 631.9438
531.0797, 626.1179
531.5618, 617.1329
532.0439, 604.9120
532.5261, 588.1610
533.0082, 569.8157
533.4903, 550.6137
533.9724, 530.2145
534.4545, 507.3638
534.9366, 480.1400
535.4188, 452.7060
535.9009, 425.8898
536.3830, 399.7073
536.8651, 374.5868
537.3472, 350.5444
537.8293, 327.6338
538.3115, 306.1689
538.7936, 286.2592
539.2757, 267.2508
539.7578, 249.1236
540.2399, 232.2704
540.7220, 217.0852
541.2042, 203.6301
541.6863, 191.1448
542.1684, 179.2116
542.6505, 168.1772
543.1326, 158.7148
543.6147, 150.6280
544.0969, 142.9319
544.5790, 134.9862
545.0611, 127.4307
545.5432, 120.9416
546.0253, 115.6322
546.5074, 110.5785
546.9896, 105.3754
547.4717, 100.3325
547.9538, 95.69595
548.4359, 91.40443
548.9180, 87.67113
549.4001, 84.77895
549.8823, 82.33940
550.3644, 79.67085
550.8465, 76.42113
551.3286, 73.57978
551.8107, 71.55231
552.2928, 70.17400
552.7750, 68.16364
553.2571, 65.33476
553.7392, 62.73882
554.2213, 61.24764
554.7034, 60.66384
555.1855, 59.75716
555.6677, 58.44761
556.1498, 56.97218
556.6319, 55.47226
557.1140, 54.01377
557.5961, 52.75806
558.0782, 51.80821
558.5604, 50.97412
559.0425, 50.13664
559.5246, 49.30388
560.0067, 48.49878
560.4888, 47.82469
560.9709, 47.10266
561.4531, 46.16164
561.9352, 44.99733
562.4173, 44.11453
562.8994, 43.86813
563.3815, 43.68888
563.8636, 43.27753
564.3458, 42.51571
564.8279, 41.83974
565.3100, 41.22722
565.7921, 40.71983
566.2742, 40.41788
566.7563, 40.34560
567.2385, 40.23077
567.7206, 40.02537
568.2027, 39.73363
568.6848, 39.33307
569.1669, 38.83655
569.6490, 38.38129
570.1312, 38.08772
570.6133, 37.85202
571.0954, 37.47722
571.5775, 36.97067
572.0596, 36.57613
572.5417, 36.55756
573.0239, 36.65100
573.5060, 36.61647
573.9881, 36.35330
574.4702, 36.12220
574.9523, 35.96257
575.4344, 35.88961
575.9166, 35.92542
576.3987, 36.20051
576.8808, 36.41366
577.3629, 36.56185
577.8450, 36.62315
578.3271, 36.46886
578.8093, 35.96641
579.2914, 35.64000
579.7735, 35.71022
580.2556, 36.14821
580.7377, 36.93221
581.2198, 38.11618
581.7020, 38.99921
582.1841, 38.65678
582.6662, 37.60431
583.1483, 37.04511
583.6304, 37.15606
584.1125, 37.71712
584.5947, 39.14699
585.0768, 40.74461
585.5589, 41.46153
586.0410, 39.79082
586.5231, 38.46527
587.0052, 39.23008
587.4874, 41.25414
587.9695, 42.29242
