##NAMES=Chkalovite
##RRUFFID=R060682
##IDEAL CHEMISTRY=Na_2_BeSi_2_O_6_
##LOCALITY=Khibiny Massif, Kola Peninsula, Murmanskaja Oblast', Northern Region, Russia
##OWNER=RRUFF
##SOURCE=Michael Scott
##DESCRIPTION=Colorless coarse granular mass
##STATUS=The identification of this mineral has been confirmed by X-ray diffraction and chemical analysis
##URL=rruff.info/R060682
##MEASURED CHEMISTRY=Na_2.00_Be_1.00_Si_2.00_O_6_; Be estimated by difference and stoichiometry
108.024, 437.206
108.506, 439.596
108.988, 439.828
109.470, 445.326
109.952, 458.541
110.434, 483.278
110.916, 510.508
111.399, 539.349
111.881, 570.081
112.363, 604.697
112.845, 641.090
113.327, 682.593
113.809, 731.079
114.291, 785.429
114.773, 849.124
115.256, 923.749
115.738, 1009.344
116.220, 1101.217
116.702, 1209.189
117.184, 1319.132
117.666, 1414.045
118.148, 1503.264
118.630, 1565.593
119.113, 1580.446
119.595, 1535.570
120.077, 1478.608
120.559, 1422.699
121.041, 1373.823
121.523, 1346.852
122.005, 1367.553
122.487, 1407.831
122.969, 1437.086
123.451, 1445.216
123.934, 1444.773
124.416, 1445.016
124.898, 1446.110
125.380, 1449.344
125.862, 1457.302
126.344, 1468.151
126.826, 1478.139
127.308, 1488.006
127.791, 1495.515
128.273, 1494.145
128.755, 1482.823
129.237, 1471.649
129.719, 1474.819
130.201, 1489.945
130.683, 1502.637
131.165, 1502.569
131.648, 1493.309
132.130, 1487.923
132.612, 1485.461
133.094, 1490.472
133.576, 1514.033
134.058, 1556.784
134.540, 1605.352
135.022, 1651.930
135.504, 1696.843
135.986, 1738.960
136.469, 1772.570
136.951, 1805.213
137.433, 1869.786
137.915, 1971.428
138.397, 2091.934
138.879, 2223.787
139.361, 2379.879
139.844, 2498.514
140.326, 2563.502
140.808, 2574.474
141.290, 2555.127
141.772, 2493.381
142.254, 2413.503
142.736, 2350.394
143.218, 2305.696
143.700, 2273.492
144.182, 2250.197
144.665, 2232.378
145.147, 2234.420
145.629, 2264.609
146.111, 2313.651
146.593, 2355.488
147.075, 2388.742
147.557, 2416.436
148.040, 2439.311
148.522, 2445.039
149.004, 2462.689
149.486, 2496.266
149.968, 2544.525
150.450, 2595.797
150.932, 2655.764
151.414, 2716.170
151.896, 2770.989
152.378, 2799.769
152.861, 2845.647
153.343, 2912.032
153.825, 2999.097
154.307, 3113.279
154.789, 3261.452
155.271, 3434.359
155.753, 3625.399
156.235, 3829.119
156.718, 4051.303
157.200, 4306.153
157.682, 4620.233
158.164, 4889.330
158.646, 5076.758
159.128, 5203.979
159.610, 5308.526
160.092, 5387.417
160.574, 5454.435
161.057, 5513.918
161.539, 5558.458
162.021, 5610.386
162.503, 5668.842
162.985, 5738.981
163.467, 5837.311
163.949, 6009.356
164.431, 6193.399
164.913, 6343.657
165.396, 6479.013
165.878, 6545.850
166.360, 6528.795
166.842, 6425.448
167.324, 6213.757
167.806, 5807.159
168.288, 5304.883
168.770, 4827.657
169.253, 4395.793
169.735, 4016.614
170.217, 3698.759
170.699, 3442.740
171.181, 3234.225
171.663, 3070.678
172.145, 2948.429
172.627, 2853.952
173.109, 2792.193
173.592, 2750.680
174.074, 2715.016
174.556, 2683.260
175.038, 2662.766
175.520, 2659.780
176.002, 2673.820
176.484, 2702.664
176.966, 2763.524
177.449, 2834.918
177.931, 2880.565
178.413, 2892.592
178.895, 2884.225
179.377, 2867.672
179.859, 2843.406
180.341, 2815.405
180.823, 2782.759
181.305, 2748.135
181.788, 2717.329
182.270, 2686.111
182.752, 2664.488
183.234, 2672.438
183.716, 2709.772
184.198, 2761.598
184.680, 2815.135
185.162, 2871.881
185.645, 2942.871
186.127, 3032.835
186.609, 3138.350
187.091, 3251.346
187.573, 3372.052
188.055, 3493.706
188.537, 3622.873
189.019, 3754.528
189.501, 3843.402
189.984, 3866.970
190.466, 3833.003
190.948, 3771.258
191.430, 3677.504
191.912, 3568.631
192.394, 3459.639
192.876, 3351.979
193.358, 3258.955
193.840, 3196.562
194.323, 3161.635
194.805, 3109.835
195.287, 3035.475
195.769, 2953.163
196.251, 2886.940
196.733, 2837.244
197.215, 2799.576
197.697, 2771.864
198.180, 2754.117
198.662, 2746.370
199.144, 2748.513
199.626, 2760.719
200.108, 2785.280
200.590, 2823.807
201.072, 2868.195
201.554, 2908.085
202.036, 2940.336
202.519, 2999.772
203.001, 3094.686
203.483, 3218.726
203.965, 3347.908
204.447, 3481.943
204.929, 3622.150
205.411, 3774.246
205.893, 3945.053
206.376, 4095.659
206.858, 4226.845
207.340, 4334.273
207.822, 4382.488
208.304, 4365.700
208.786, 4300.750
209.268, 4196.235
209.750, 4042.961
210.232, 3888.457
210.715, 3742.798
211.197, 3606.002
211.679, 3469.573
212.161, 3328.096
212.643, 3194.097
213.125, 3082.966
213.607, 2998.387
214.089, 2923.859
214.572, 2854.077
215.054, 2788.816
215.536, 2736.711
216.018, 2699.397
216.500, 2673.451
216.982, 2653.270
217.464, 2637.997
217.946, 2630.754
218.428, 2635.772
218.911, 2658.140
219.393, 2667.862
219.875, 2661.383
220.357, 2644.704
220.839, 2627.775
221.321, 2607.868
221.803, 2593.137
222.285, 2587.176
222.768, 2592.459
223.250, 2599.159
223.732, 2605.506
224.214, 2614.124
224.696, 2631.559
225.178, 2659.349
225.660, 2693.473
226.142, 2733.066
226.624, 2782.275
227.107, 2827.492
227.589, 2864.760
228.071, 2898.487
228.553, 2941.601
229.035, 2996.177
229.517, 3057.958
229.999, 3125.542
230.481, 3201.473
230.964, 3279.464
231.446, 3361.263
231.928, 3445.412
232.410, 3521.601
232.892, 3585.730
233.374, 3647.451
233.856, 3712.695
234.338, 3790.154
234.820, 3853.337
235.303, 3897.799
235.785, 3925.512
236.267, 3951.896
236.749, 3980.384
237.231, 4003.556
237.713, 4014.242
238.195, 4000.383
238.677, 3998.171
239.160, 4013.094
239.642, 4044.163
240.124, 4079.688
240.606, 4119.638
241.088, 4164.174
241.570, 4213.165
242.052, 4265.315
242.534, 4324.946
243.016, 4396.438
243.499, 4479.164
243.981, 4550.146
244.463, 4598.450
244.945, 4646.039
245.427, 4713.659
245.909, 4812.229
246.391, 4907.378
246.873, 4988.626
247.355, 5055.784
247.838, 5141.811
248.320, 5251.213
248.802, 5375.101
249.284, 5503.801
249.766, 5626.443
250.248, 5773.763
250.730, 5961.787
251.212, 6194.558
251.695, 6396.202
252.177, 6553.817
252.659, 6696.260
253.141, 6860.191
253.623, 7073.800
254.105, 7249.789
254.587, 7372.897
255.069, 7443.111
255.551, 7465.994
256.034, 7439.206
256.516, 7368.442
256.998, 7253.599
257.480, 7075.341
257.962, 6895.651
258.444, 6724.987
258.926, 6564.294
259.408, 6415.756
259.891, 6280.474
260.373, 6157.588
260.855, 6041.116
261.337, 5916.335
261.819, 5835.515
262.301, 5818.204
262.783, 5868.462
263.265, 5931.433
263.747, 6012.409
264.229, 6100.245
264.712, 6182.479
265.194, 6257.016
265.676, 6330.605
266.158, 6410.035
266.640, 6499.435
267.122, 6553.705
267.604, 6575.462
268.086, 6559.083
268.569, 6492.490
269.051, 6365.891
269.533, 6217.882
270.015, 6058.359
270.497, 5884.694
270.979, 5712.009
271.461, 5539.669
271.943, 5369.876
272.426, 5205.283
272.908, 5043.360
273.390, 4899.526
273.872, 4782.261
274.354, 4692.737
274.836, 4608.901
275.318, 4530.505
275.800, 4458.350
276.282, 4396.873
276.765, 4347.844
277.247, 4298.469
277.729, 4243.853
278.211, 4184.147
278.693, 4126.010
279.175, 4069.611
279.657, 4014.177
280.139, 3955.116
280.621, 3890.900
281.104, 3839.256
281.586, 3809.712
282.068, 3800.509
282.550, 3789.370
283.032, 3774.768
283.514, 3762.914
283.996, 3761.224
284.478, 3769.751
284.961, 3786.063
285.443, 3808.703
285.925, 3838.379
286.407, 3878.565
286.889, 3929.828
287.371, 3989.892
287.853, 4058.719
288.335, 4135.817
288.818, 4213.430
289.300, 4287.139
289.782, 4358.948
290.264, 4433.588
290.746, 4511.504
291.228, 4591.294
291.710, 4676.881
292.192, 4765.113
292.674, 4841.240
293.156, 4896.637
293.639, 4936.657
294.121, 4978.342
294.603, 5022.783
295.085, 5054.759
295.567, 5063.600
296.049, 5048.206
296.531, 5004.057
297.013, 4922.001
297.496, 4812.877
297.978, 4693.523
298.460, 4564.448
298.942, 4430.811
299.424, 4286.996
299.906, 4142.311
300.388, 4016.601
300.870, 3928.631
301.353, 3857.813
301.835, 3773.167
302.317, 3676.492
302.799, 3584.188
303.281, 3509.789
303.763, 3449.892
304.245, 3400.426
304.727, 3363.651
305.209, 3332.855
305.691, 3299.076
306.174, 3263.070
306.656, 3233.239
307.138, 3216.706
307.620, 3209.446
308.102, 3206.225
308.584, 3209.935
309.066, 3212.735
309.548, 3204.755
310.031, 3188.287
310.513, 3177.490
310.995, 3181.140
311.477, 3194.535
311.959, 3212.372
312.441, 3228.924
312.923, 3254.590
313.405, 3302.287
313.888, 3367.164
314.370, 3425.847
314.852, 3458.433
315.334, 3486.259
315.816, 3527.156
316.298, 3593.912
316.780, 3662.119
317.262, 3720.250
317.744, 3772.081
318.227, 3826.837
318.709, 3875.296
319.191, 3936.648
319.673, 4024.147
320.155, 4154.196
320.637, 4287.670
321.119, 4409.856
321.601, 4527.725
322.083, 4659.294
322.566, 4803.965
323.048, 4965.305
323.530, 5146.298
324.012, 5356.500
324.494, 5568.399
324.976, 5765.859
325.458, 5963.435
325.940, 6191.080
326.422, 6465.424
326.905, 6755.499
327.387, 7049.584
327.869, 7330.402
328.351, 7646.824
328.833, 8014.689
329.315, 8413.702
329.797, 8813.357
330.280, 9187.354
330.762, 9587.920
331.244, 10037.400
331.726, 10550.030
332.208, 11052.400
332.690, 11551.830
333.172, 12035.640
333.654, 12499.230
334.136, 12965.810
334.618, 13372.950
335.101, 13708.240
335.583, 13970.840
336.065, 14187.240
336.547, 14332.900
337.029, 14468.490
337.511, 14660.070
337.993, 14925.460
338.475, 15191.420
338.958, 15437.710
339.440, 15669.800
339.922, 15931.540
340.404, 16244.820
340.886, 16532.920
341.368, 16732.699
341.850, 16840.080
342.332, 16891.529
342.815, 16891.930
343.297, 16841.750
343.779, 16724.369
344.261, 16531.561
344.743, 16337.010
345.225, 16199.500
345.707, 16114.150
346.189, 16024.730
346.671, 15918.810
347.154, 15813.280
347.636, 15746.580
348.118, 15716.440
348.600, 15683.360
349.082, 15637.680
349.564, 15568.470
350.046, 15451.810
350.528, 15289.790
351.010, 15062.150
351.493, 14730.100
351.975, 14307.960
352.457, 13839.680
352.939, 13332.900
353.421, 12805.030
353.903, 12274.730
354.385, 11741.180
354.867, 11222.990
355.349, 10723.620
355.832, 10252.050
356.314, 9825.722
356.796, 9456.485
357.278, 9134.904
357.760, 8850.476
358.242, 8606.963
358.724, 8398.710
359.207, 8225.152
359.689, 8084.683
360.171, 7975.362
360.653, 7898.725
361.135, 7850.909
361.617, 7837.532
362.099, 7856.977
362.581, 7883.254
363.063, 7900.958
363.546, 7924.773
364.028, 7966.244
364.510, 8030.786
364.992, 8109.992
365.474, 8223.404
365.956, 8358.907
366.438, 8452.286
366.920, 8500.147
367.402, 8500.849
367.885, 8452.820
368.367, 8328.404
368.849, 8192.271
369.331, 8060.364
369.813, 7918.341
370.295, 7727.775
370.777, 7455.291
371.259, 7175.078
371.741, 6911.354
372.224, 6667.809
372.706, 6427.563
373.188, 6184.842
373.670, 5951.383
374.152, 5745.011
374.634, 5567.853
375.116, 5421.943
375.598, 5308.865
376.081, 5229.644
376.563, 5179.367
377.045, 5161.775
377.527, 5165.741
378.009, 5178.869
378.491, 5200.377
378.973, 5236.641
379.455, 5286.227
379.938, 5352.542
380.420, 5450.617
380.902, 5583.406
381.384, 5730.485
381.866, 5872.048
382.348, 6012.217
382.830, 6179.743
383.312, 6386.229
383.794, 6613.494
384.276, 6828.847
384.759, 7034.814
385.241, 7235.989
385.723, 7448.475
386.205, 7655.846
386.687, 7836.235
387.169, 7993.527
387.651, 8096.085
388.134, 8082.515
388.616, 7985.669
389.098, 7884.264
389.580, 7879.362
390.062, 7850.635
390.544, 7669.284
391.026, 7314.189
391.508, 6946.589
391.990, 6639.242
392.473, 6381.541
392.955, 6156.627
393.437, 5967.047
393.919, 5804.244
394.401, 5670.758
394.883, 5564.881
395.365, 5472.561
395.847, 5401.057
396.329, 5334.789
396.812, 5263.674
397.294, 5167.190
397.776, 5086.702
398.258, 5028.662
398.740, 4991.126
399.222, 4968.260
399.704, 4950.958
400.186, 4955.862
400.668, 4992.781
401.151, 5082.794
401.633, 5156.911
402.115, 5194.841
402.597, 5226.998
403.079, 5309.764
403.561, 5463.398
404.043, 5625.471
404.525, 5766.633
405.008, 5884.222
405.490, 6058.153
405.972, 6297.909
406.454, 6576.423
406.936, 6862.573
407.418, 7154.481
407.900, 7490.409
408.382, 7881.102
408.865, 8323.917
409.347, 8816.738
409.829, 9356.292
410.311, 9932.519
410.793, 10541.960
411.275, 11181.680
411.757, 11829.020
412.239, 12506.040
412.721, 13145.150
413.203, 13681.900
413.686, 14107.970
414.168, 14367.380
414.650, 14441.980
415.132, 14328.400
415.614, 13989.810
416.096, 13410.290
416.578, 12722.960
417.060, 11982.290
417.543, 11208.120
418.025, 10458.330
418.507, 9711.628
418.989, 9015.817
419.471, 8388.033
419.953, 7833.488
420.435, 7332.896
420.917, 6891.649
421.400, 6499.177
421.882, 6152.757
422.364, 5872.800
422.846, 5614.716
423.328, 5365.570
423.810, 5130.794
424.292, 4925.481
424.774, 4759.414
425.256, 4613.359
425.738, 4481.285
426.221, 4365.454
426.703, 4257.346
427.185, 4155.723
427.667, 4062.303
428.149, 3981.733
428.631, 3916.308
429.113, 3858.375
429.595, 3804.533
430.078, 3755.164
430.560, 3720.206
431.042, 3703.463
431.524, 3689.622
432.006, 3661.593
432.488, 3618.970
432.970, 3588.689
433.452, 3577.628
433.935, 3578.605
434.417, 3578.697
434.899, 3577.799
435.381, 3573.240
435.863, 3553.524
436.345, 3529.719
436.827, 3531.877
437.309, 3565.829
437.791, 3608.751
438.274, 3634.158
438.756, 3650.430
439.238, 3675.410
439.720, 3721.131
440.202, 3775.926
440.684, 3821.758
441.166, 3860.515
441.648, 3926.113
442.130, 4068.427
442.613, 4229.607
443.095, 4358.594
443.577, 4412.042
444.059, 4471.959
444.541, 4561.450
445.023, 4676.153
445.505, 4804.740
445.987, 4946.217
446.470, 5097.128
446.952, 5254.749
447.434, 5416.408
447.916, 5593.295
448.398, 5771.923
448.880, 5974.513
449.362, 6227.550
449.844, 6528.979
450.327, 6880.791
450.809, 7286.585
451.291, 7742.892
451.773, 8248.515
452.255, 8799.928
452.737, 9413.505
453.219, 10116.270
453.701, 10917.390
454.183, 11756.030
454.665, 12658.410
455.148, 13561.200
455.630, 14436.710
456.112, 15273.510
456.594, 15872.800
457.076, 16161.550
457.558, 16141.030
458.040, 15775.850
458.522, 15059.790
459.005, 14157.710
459.487, 13127.680
459.969, 12040.020
460.451, 10994.760
460.933, 10005.110
461.415, 9100.601
461.897, 8330.958
462.379, 7685.716
462.862, 7123.865
463.344, 6649.260
463.826, 6242.624
464.308, 5900.638
464.790, 5634.781
465.272, 5402.133
465.754, 5203.718
466.236, 5033.091
466.718, 4883.136
467.201, 4757.124
467.683, 4645.848
468.165, 4550.560
468.647, 4471.922
469.129, 4393.064
469.611, 4316.412
470.093, 4237.190
470.575, 4151.922
471.057, 4061.386
471.540, 3959.762
472.022, 3840.757
472.504, 3715.461
472.986, 3613.390
473.468, 3535.944
473.950, 3468.012
474.432, 3403.087
474.914, 3341.413
475.397, 3285.089
475.879, 3234.622
476.361, 3186.058
476.843, 3130.184
477.325, 3072.484
477.807, 3029.844
478.289, 3013.973
478.771, 3006.433
479.254, 2988.535
479.736, 2961.848
480.218, 2932.580
480.700, 2897.526
481.182, 2865.166
481.664, 2842.946
482.146, 2831.692
482.628, 2829.210
483.110, 2847.387
483.592, 2869.712
484.075, 2875.303
484.557, 2840.733
485.039, 2807.849
485.521, 2787.184
486.003, 2778.497
486.485, 2771.144
486.967, 2768.746
487.449, 2763.979
487.931, 2752.236
488.414, 2730.109
488.896, 2708.014
489.378, 2684.049
489.860, 2683.654
490.342, 2677.536
490.824, 2666.005
491.306, 2632.842
491.789, 2627.611
492.271, 2611.188
492.753, 2594.305
493.235, 2593.005
493.717, 2562.991
494.199, 2559.913
494.681, 2546.430
495.163, 2535.687
495.645, 2526.716
496.128, 2518.863
496.610, 2510.144
497.092, 2501.816
497.574, 2497.666
498.056, 2506.683
498.538, 2515.304
499.020, 2514.693
499.502, 2504.292
499.984, 2485.152
500.467, 2442.683
500.949, 2399.195
501.431, 2374.346
501.913, 2385.015
502.395, 2398.247
502.877, 2412.432
503.359, 2426.319
503.841, 2435.694
504.323, 2437.127
504.806, 2438.482
505.288, 2443.396
505.770, 2453.000
506.252, 2455.996
506.734, 2450.750
507.216, 2441.781
507.698, 2432.188
508.181, 2421.607
508.663, 2415.800
509.145, 2414.683
509.627, 2420.425
510.109, 2445.106
510.591, 2486.443
511.073, 2517.990
511.555, 2512.365
512.037, 2489.910
512.519, 2476.499
513.002, 2471.839
513.484, 2471.895
513.966, 2505.510
514.448, 2530.980
514.930, 2548.740
515.412, 2535.695
515.894, 2562.427
516.376, 2573.220
516.859, 2583.358
517.341, 2615.687
517.823, 2607.128
518.305, 2636.928
518.787, 2658.914
519.269, 2700.131
519.751, 2747.145
520.233, 2799.928
520.716, 2858.907
521.198, 2924.951
521.680, 3002.506
522.162, 3077.991
522.644, 3152.578
523.126, 3221.868
523.608, 3272.309
524.090, 3304.757
524.572, 3313.159
525.055, 3288.111
525.537, 3234.750
526.019, 3175.408
526.501, 3110.694
526.983, 3044.199
527.465, 2977.659
527.947, 2912.635
528.429, 2850.237
528.911, 2787.442
529.394, 2733.034
529.876, 2697.300
530.358, 2676.515
530.840, 2657.846
531.322, 2638.451
531.804, 2617.344
532.286, 2592.988
532.768, 2564.836
533.250, 2538.430
533.733, 2509.535
534.215, 2486.013
534.697, 2476.010
535.179, 2497.274
535.661, 2504.546
536.143, 2486.862
536.625, 2454.099
537.107, 2439.828
537.589, 2450.613
538.072, 2459.840
538.554, 2452.541
539.036, 2430.131
539.518, 2423.816
540.000, 2435.594
540.482, 2451.522
540.964, 2459.356
541.446, 2459.730
541.929, 2453.092
542.411, 2436.022
542.893, 2419.125
543.375, 2414.550
543.857, 2419.900
544.339, 2428.937
544.821, 2440.940
545.303, 2453.505
545.786, 2466.922
546.268, 2481.279
546.750, 2488.994
547.232, 2477.995
547.714, 2465.277
548.196, 2462.863
548.678, 2477.633
549.160, 2496.019
549.643, 2523.206
550.125, 2551.813
550.607, 2566.666
551.089, 2559.071
551.571, 2557.382
552.053, 2570.481
552.535, 2596.675
553.017, 2625.572
553.499, 2658.662
553.982, 2686.514
554.464, 2698.895
554.946, 2699.462
555.428, 2705.541
555.910, 2720.667
556.392, 2734.506
556.874, 2732.532
557.356, 2720.890
557.838, 2712.633
558.321, 2714.668
558.803, 2720.726
559.285, 2726.219
559.767, 2731.878
560.249, 2740.872
560.731, 2756.081
561.213, 2773.709
561.695, 2793.094
562.177, 2816.868
562.660, 2833.188
563.142, 2822.177
563.624, 2815.888
564.106, 2848.719
564.588, 2940.100
565.070, 3021.737
565.552, 3084.475
566.034, 3131.812
566.516, 3177.644
566.999, 3223.787
567.481, 3253.224
567.963, 3251.359
568.445, 3225.974
568.927, 3207.601
569.409, 3196.772
569.891, 3177.556
570.373, 3129.872
570.856, 3066.561
571.338, 3008.138
571.820, 2958.224
572.302, 2914.538
572.784, 2876.417
573.266, 2842.580
573.748, 2809.926
574.230, 2767.534
574.713, 2736.375
575.195, 2731.333
575.677, 2751.302
576.159, 2755.886
576.641, 2728.225
577.123, 2702.957
577.605, 2699.247
578.087, 2725.809
578.570, 2740.449
579.052, 2740.552
579.534, 2733.809
580.016, 2727.005
580.498, 2720.387
580.980, 2723.249
581.462, 2741.162
581.944, 2765.407
582.426, 2778.043
582.909, 2782.119
583.391, 2791.692
583.873, 2814.316
584.355, 2846.540
584.837, 2887.688
585.319, 2937.645
585.801, 2986.428
586.283, 3025.299
586.765, 3063.611
587.248, 3110.310
587.730, 3181.713
588.212, 3237.392
588.694, 3252.092
589.176, 3255.258
589.658, 3291.560
590.140, 3374.661
590.622, 3463.985
591.104, 3549.701
591.587, 3634.477
592.069, 3731.525
592.551, 3842.460
593.033, 3958.256
593.515, 4065.891
593.997, 4172.175
594.479, 4306.183
594.961, 4472.251
595.443, 4642.399
595.926, 4791.833
596.408, 4929.806
596.890, 5072.177
597.372, 5242.135
597.854, 5388.435
598.336, 5494.749
598.818, 5555.818
599.300, 5558.339
599.783, 5478.988
600.265, 5361.446
600.747, 5211.585
601.229, 5030.075
601.711, 4842.219
602.193, 4640.823
602.675, 4445.956
603.157, 4263.527
603.640, 4093.031
604.122, 3963.164
604.604, 3881.407
605.086, 3820.885
605.568, 3743.293
606.050, 3654.491
606.532, 3584.011
607.014, 3543.378
607.497, 3521.111
607.979, 3506.926
608.461, 3500.261
608.943, 3499.156
609.425, 3510.502
609.907, 3520.677
610.389, 3516.910
610.871, 3499.134
611.353, 3489.982
611.836, 3495.496
612.318, 3511.769
612.800, 3536.702
613.282, 3569.201
613.764, 3612.037
614.246, 3667.332
614.728, 3730.699
615.210, 3800.266
615.692, 3878.764
616.175, 3941.592
616.657, 3974.749
617.139, 4001.684
617.621, 4072.939
618.103, 4185.975
618.585, 4321.546
619.067, 4484.738
619.549, 4656.614
620.031, 4801.719
620.514, 4922.927
620.996, 5070.403
621.478, 5276.002
621.960, 5516.529
622.442, 5778.330
622.924, 6064.093
623.406, 6350.634
623.888, 6655.603
624.370, 6947.916
624.853, 7194.921
625.335, 7389.375
625.817, 7555.572
626.299, 7708.198
626.781, 7826.555
627.263, 7844.355
627.745, 7754.088
628.227, 7658.878
628.710, 7593.112
