##NAMES=Chkalovite
##RRUFFID=R060682
##IDEAL CHEMISTRY=Na_2_BeSi_2_O_6_
##LOCALITY=Khibiny Massif, Kola Peninsula, Murmanskaja Oblast', Northern Region, Russia
##OWNER=RRUFF
##SOURCE=Michael Scott
##DESCRIPTION=Colorless coarse granular mass
##STATUS=The identification of this mineral has been confirmed by X-ray diffraction and chemical analysis
##URL=rruff.info/R060682
##MEASURED CHEMISTRY=Na_2.00_Be_1.00_Si_2.00_O_6_; Be estimated by difference and stoichiometry
125.3850, 267.9780
125.8670, 275.6960
126.3490, 283.4120
126.8310, 291.1280
127.3130, 298.8440
127.7960, 306.5610
128.2780, 314.2770
128.7600, 321.9950
129.2420, 329.7110
129.7240, 335.2250
130.2060, 345.8620
130.6880, 362.6420
131.1700, 382.7430
131.6520, 407.1070
132.1350, 434.4260
132.6170, 462.0280
133.0990, 488.3090
133.5810, 513.4390
134.0630, 538.3070
134.5450, 557.0830
135.0270, 581.1670
135.5090, 621.9720
135.9920, 674.1430
136.4740, 719.5540
136.9560, 745.1810
137.4380, 751.2010
137.9200, 754.9320
138.4020, 759.0350
138.8840, 758.9530
139.3660, 750.5860
139.8480, 734.4870
140.3310, 715.8840
140.8130, 699.0450
141.2950, 683.1100
141.7770, 662.6720
142.2590, 629.9600
142.7410, 597.7620
143.2230, 576.2430
143.7050, 565.9550
144.1880, 563.6850
144.6700, 568.7080
145.1520, 580.5110
145.6340, 596.0840
146.1160, 613.2840
146.5980, 634.9630
147.0800, 666.5500
147.5620, 709.8890
148.0440, 753.8970
148.5270, 786.0420
149.0090, 811.5360
149.4910, 844.2110
149.9730, 897.0880
150.4550, 956.6700
150.9370, 1000.004
151.4190, 1022.697
151.9010, 1040.475
152.3830, 1062.422
152.8660, 1088.250
153.3480, 1118.751
153.8300, 1153.089
154.3120, 1192.295
154.7940, 1239.383
155.2760, 1295.412
155.7580, 1357.418
156.2400, 1426.307
156.7230, 1499.159
157.2050, 1569.618
157.6870, 1632.281
158.1690, 1689.585
158.6510, 1749.885
159.1330, 1813.519
159.6150, 1879.956
160.0970, 1943.672
160.5790, 2009.022
161.0620, 2086.587
161.5440, 2181.838
162.0260, 2294.085
162.5080, 2422.006
162.9900, 2566.408
163.4720, 2728.028
163.9540, 2921.021
164.4360, 3130.432
164.9190, 3323.069
165.4010, 3494.668
165.8830, 3638.933
166.3650, 3695.616
166.8470, 3644.424
167.3290, 3515.819
167.8110, 3307.498
168.2930, 3038.880
168.7750, 2750.604
169.2580, 2459.781
169.7400, 2168.790
170.2220, 1917.766
170.7040, 1717.926
171.1860, 1552.242
171.6680, 1417.489
172.1500, 1309.637
172.6320, 1219.922
173.1150, 1142.514
173.5970, 1077.320
174.0790, 1026.231
174.5610, 997.2560
175.0430, 975.4080
175.5250, 956.2400
176.0070, 939.8600
176.4890, 928.1740
176.9710, 924.2260
177.4540, 928.0280
177.9360, 926.5870
178.4180, 916.2250
178.9000, 903.5340
179.3820, 890.5310
179.8640, 876.8090
180.3460, 860.5930
180.8280, 838.7130
181.3110, 811.1100
181.7930, 793.1490
182.2750, 793.0030
182.7570, 796.0880
183.2390, 798.1720
183.7210, 800.2560
184.2030, 804.9600
184.6850, 813.1800
185.1670, 824.8580
185.6500, 848.6400
186.1320, 898.9120
186.6140, 948.6620
187.0960, 992.2520
187.5780, 1029.839
188.0600, 1064.221
188.5420, 1099.786
189.0240, 1136.029
189.5070, 1151.554
189.9890, 1126.749
190.4710, 1098.562
190.9530, 1074.379
191.4350, 1053.710
191.9170, 1033.086
192.3990, 1009.360
192.8810, 982.9430
193.3630, 962.5020
193.8460, 956.8390
194.3280, 948.5700
194.8100, 928.7610
195.2920, 903.6450
195.7740, 885.4770
196.2560, 883.6130
196.7380, 896.3120
197.2200, 901.7650
197.7020, 880.5260
198.1850, 872.0060
198.6670, 888.1930
199.1490, 922.2380
199.6310, 960.8060
200.1130, 994.8420
200.5950, 1027.031
201.0770, 1076.844
201.5590, 1161.566
202.0420, 1248.295
202.5240, 1329.040
203.0060, 1409.034
203.4880, 1495.243
203.9700, 1591.317
204.4520, 1697.471
204.9340, 1814.572
205.4160, 1967.552
205.8980, 2102.779
206.3800, 2219.925
206.8630, 2313.612
207.3450, 2379.156
207.8270, 2414.785
208.3090, 2417.471
208.7910, 2375.223
209.2730, 2256.266
209.7550, 2125.886
210.2380, 1984.594
210.7200, 1839.131
211.2020, 1694.348
211.6840, 1553.013
212.1660, 1417.844
212.6480, 1295.562
213.1300, 1186.329
213.6120, 1094.046
214.0940, 1023.026
214.5770, 966.5380
215.0590, 918.3510
215.5410, 876.3640
216.0230, 840.4510
216.5050, 810.2350
216.9870, 787.5520
217.4690, 768.7420
217.9510, 755.2360
218.4340, 744.0420
218.9160, 732.6460
219.3980, 720.2840
219.8800, 707.8520
220.3620, 696.8700
220.8440, 687.4950
221.3260, 679.4120
221.8080, 671.9530
222.2900, 665.9410
222.7730, 661.5490
223.2550, 658.9710
223.7370, 659.0260
224.2190, 663.6030
224.7010, 676.1430
225.1830, 684.8320
225.6650, 683.8950
226.1470, 684.1560
226.6290, 692.5090
227.1120, 709.3630
227.5940, 730.1240
228.0760, 749.7140
228.5580, 767.1870
229.0400, 786.9860
229.5220, 809.1880
230.0040, 833.4120
230.4860, 861.1920
230.9690, 891.3530
231.4510, 920.0040
231.9330, 942.4530
232.4150, 957.2790
232.8970, 979.0300
233.3790, 1015.606
233.8610, 1051.883
234.3430, 1084.984
234.8250, 1113.937
235.3070, 1137.607
235.7900, 1154.247
236.2720, 1164.288
236.7540, 1177.193
237.2360, 1197.149
237.7180, 1215.706
238.2000, 1229.091
238.6820, 1239.686
239.1650, 1251.574
239.6470, 1266.888
240.1290, 1285.704
240.6110, 1308.438
241.0930, 1339.080
241.5750, 1368.244
242.0570, 1391.208
242.5390, 1412.228
243.0210, 1436.521
243.5030, 1466.721
243.9860, 1501.306
244.4680, 1536.594
244.9500, 1572.569
245.4320, 1609.332
245.9140, 1649.698
246.3960, 1689.341
246.8780, 1722.249
247.3610, 1745.730
247.8430, 1768.504
248.3250, 1805.857
248.8070, 1862.228
249.2890, 1919.232
249.7710, 1968.899
250.2530, 2020.604
250.7350, 2082.016
251.2170, 2154.464
251.6990, 2233.416
252.1820, 2317.738
252.6640, 2408.744
253.1460, 2490.471
253.6280, 2557.935
254.1100, 2615.758
254.5920, 2671.026
255.0740, 2722.294
255.5560, 2756.462
256.0390, 2757.082
256.5210, 2726.077
257.0030, 2693.669
257.4850, 2662.675
257.9670, 2630.092
258.4490, 2588.781
258.9310, 2542.588
259.4130, 2506.680
259.8960, 2488.904
260.3780, 2488.136
260.8600, 2500.807
261.3420, 2527.641
261.8240, 2567.377
262.3060, 2622.146
262.7880, 2688.290
263.2700, 2759.445
263.7520, 2835.320
264.2340, 2914.472
264.7170, 2997.132
265.1990, 3085.514
265.6810, 3168.560
266.1630, 3249.653
266.6450, 3318.592
267.1270, 3356.348
267.6090, 3357.235
268.0910, 3328.491
268.5740, 3274.559
269.0560, 3195.850
269.5380, 3095.980
270.0200, 2972.186
270.5020, 2829.819
270.9840, 2682.342
271.4660, 2526.679
271.9480, 2372.893
272.4310, 2221.671
272.9130, 2075.807
273.3950, 1947.155
273.8770, 1840.951
274.3590, 1750.209
274.8410, 1663.103
275.3230, 1577.976
275.8050, 1501.001
276.2870, 1437.322
276.7700, 1381.925
277.2520, 1327.066
277.7340, 1270.464
278.2160, 1217.347
278.6980, 1175.211
279.1800, 1145.531
279.6620, 1113.984
280.1440, 1074.053
280.6260, 1035.033
281.1090, 1005.043
281.5910, 984.6160
282.0730, 969.6990
282.5550, 957.5390
283.0370, 948.2360
283.5190, 940.5390
284.0010, 934.6640
284.4830, 929.9950
284.9660, 924.3440
285.4480, 919.4120
285.9300, 919.9580
286.4120, 929.3470
286.8940, 946.0790
287.3760, 961.6200
287.8580, 973.0820
288.3400, 986.8710
288.8230, 1003.160
289.3050, 1022.678
289.7870, 1047.358
290.2690, 1077.994
290.7510, 1111.576
291.2330, 1142.187
291.7150, 1171.355
292.1970, 1194.341
292.6790, 1211.128
293.1610, 1222.294
293.6440, 1226.214
294.1260, 1223.592
294.6080, 1219.719
295.0900, 1223.395
295.5720, 1241.507
296.0540, 1240.612
296.5360, 1205.792
297.0180, 1166.584
297.5010, 1136.304
297.9830, 1113.567
298.4650, 1089.854
298.9470, 1058.037
299.4290, 1018.627
299.9110, 981.2500
300.3930, 944.6640
300.8750, 912.2340
301.3580, 887.2270
301.8400, 866.2160
302.3220, 843.4300
302.8040, 815.1320
303.2860, 785.4260
303.7680, 763.9720
304.2500, 752.9590
304.7320, 744.1150
305.2140, 735.2860
305.6970, 727.2760
306.1790, 721.0830
306.6610, 716.9640
307.1430, 713.8590
307.6250, 709.7450
308.1070, 704.6680
308.5890, 703.7190
309.0710, 710.9470
309.5530, 719.6450
310.0360, 721.8050
310.5180, 717.9500
311.0000, 718.6070
311.4820, 733.8690
311.9640, 757.5330
312.4460, 773.3390
312.9280, 777.4220
313.4100, 780.3250
313.8920, 790.5430
314.3750, 806.7000
314.8570, 825.3260
315.3390, 845.9640
315.8210, 868.5730
316.3030, 892.7000
316.7850, 918.3910
317.2670, 947.3190
317.7500, 981.0290
318.2320, 1018.804
318.7140, 1057.575
319.1960, 1097.566
319.6780, 1137.837
320.1600, 1177.007
320.6420, 1216.352
321.1240, 1256.744
321.6060, 1297.338
322.0890, 1344.768
322.5710, 1411.808
323.0530, 1510.465
323.5350, 1605.582
324.0170, 1686.624
324.4990, 1768.796
324.9810, 1864.064
325.4630, 1974.008
325.9450, 2096.353
326.4280, 2228.409
326.9100, 2371.445
327.3920, 2515.275
327.8740, 2650.253
328.3560, 2795.716
328.8380, 2957.062
329.3200, 3133.991
329.8020, 3324.666
330.2840, 3528.493
330.7670, 3743.990
331.2490, 3965.891
331.7310, 4205.383
332.2130, 4434.131
332.6950, 4649.870
333.1770, 4853.043
333.6590, 5050.549
334.1410, 5242.534
334.6240, 5417.779
335.1060, 5558.172
335.5880, 5660.872
336.0700, 5743.879
336.5520, 5793.345
337.0340, 5835.882
337.5160, 5887.571
337.9980, 5947.239
338.4800, 6002.459
338.9630, 6041.223
339.4450, 6068.250
339.9270, 6105.027
340.4090, 6160.053
340.8910, 6205.937
341.3730, 6228.209
341.8550, 6229.440
342.3370, 6210.588
342.8190, 6174.689
343.3020, 6115.678
343.7840, 6019.913
344.2660, 5889.248
344.7480, 5754.537
345.2300, 5622.756
345.7120, 5499.256
346.1940, 5393.485
346.6770, 5310.036
347.1590, 5228.612
347.6410, 5140.768
348.1230, 5050.361
348.6050, 4964.978
349.0870, 4886.729
349.5690, 4807.389
350.0510, 4720.104
350.5330, 4625.989
351.0160, 4510.459
351.4980, 4361.824
351.9800, 4202.905
352.4620, 4049.053
352.9440, 3897.895
353.4260, 3735.310
353.9080, 3550.202
354.3900, 3349.263
354.8720, 3173.135
355.3550, 3046.656
355.8370, 2919.680
356.3190, 2778.481
356.8010, 2638.812
357.2830, 2518.355
357.7650, 2422.569
358.2470, 2343.838
358.7290, 2269.755
359.2110, 2198.696
359.6940, 2138.860
360.1760, 2095.789
360.6580, 2059.811
361.1400, 2027.213
361.6220, 1997.834
362.1040, 1972.737
362.5860, 1954.568
363.0690, 1941.273
363.5510, 1923.589
364.0330, 1898.240
364.5150, 1876.439
364.9970, 1868.154
365.4790, 1865.243
365.9610, 1857.676
366.4430, 1843.287
366.9250, 1823.084
367.4080, 1798.844
367.8900, 1770.153
368.3720, 1732.639
368.8540, 1682.105
369.3360, 1626.688
369.8180, 1578.265
370.3000, 1537.718
370.7820, 1494.668
371.2640, 1444.104
371.7470, 1390.681
372.2290, 1338.312
372.7110, 1287.756
373.1930, 1241.027
373.6750, 1199.539
374.1570, 1163.460
374.6390, 1131.276
375.1210, 1097.665
375.6030, 1073.049
376.0860, 1064.036
376.5680, 1065.664
377.0500, 1069.970
377.5320, 1073.508
378.0140, 1077.826
378.4960, 1085.877
378.9780, 1096.704
379.4600, 1113.713
379.9430, 1140.621
380.4250, 1169.717
380.9070, 1194.243
381.3890, 1215.395
381.8710, 1240.261
382.3530, 1276.298
382.8350, 1322.435
383.3170, 1364.719
383.7990, 1399.214
384.2820, 1436.274
384.7640, 1486.822
385.2460, 1539.807
385.7280, 1579.537
386.2100, 1599.196
386.6920, 1608.971
387.1740, 1622.606
387.6560, 1639.448
388.1380, 1644.557
388.6210, 1635.707
389.1030, 1610.460
389.5850, 1562.837
390.0670, 1492.688
390.5490, 1423.089
391.0310, 1358.735
391.5130, 1300.395
391.9960, 1249.627
392.4780, 1206.592
392.9600, 1168.549
393.4420, 1134.267
393.9240, 1103.708
394.4060, 1074.703
394.8880, 1044.168
395.3700, 1018.668
395.8520, 1001.017
396.3350, 989.3410
396.8170, 981.2350
397.2990, 975.8200
397.7810, 972.9650
398.2630, 972.3830
398.7450, 973.7470
399.2270, 978.4690
399.7090, 985.1490
400.1910, 996.0070
400.6740, 1011.255
401.1560, 1031.578
401.6380, 1059.065
402.1200, 1096.709
402.6020, 1141.305
403.0840, 1178.457
403.5660, 1198.533
404.0480, 1234.261
404.5300, 1304.025
405.0130, 1390.283
405.4950, 1477.777
405.9770, 1562.976
406.4590, 1654.357
406.9410, 1757.308
407.4230, 1871.800
407.9050, 1996.761
408.3870, 2130.893
408.8700, 2277.990
409.3520, 2446.223
409.8340, 2632.720
410.3160, 2820.853
410.7980, 3011.616
411.2800, 3199.066
411.7620, 3390.779
412.2440, 3577.305
412.7270, 3733.331
413.2090, 3848.379
413.6910, 3920.324
414.1730, 3943.847
414.6550, 3912.730
415.1370, 3834.343
415.6190, 3693.053
416.1010, 3515.426
416.5830, 3310.648
417.0650, 3086.307
417.5480, 2855.425
418.0300, 2627.356
418.5120, 2401.396
418.9940, 2194.895
419.4760, 2009.366
419.9580, 1843.544
420.4400, 1697.536
420.9220, 1568.171
421.4050, 1453.451
421.8870, 1352.943
422.3690, 1264.773
422.8510, 1188.931
423.3330, 1125.239
423.8150, 1065.650
424.2970, 1009.414
424.7790, 956.4790
425.2620, 903.3570
425.7440, 851.5310
426.2260, 811.7330
426.7080, 798.0580
427.1900, 789.2370
427.6720, 763.1710
428.1540, 722.9360
428.6360, 686.4240
429.1180, 662.3850
429.6010, 647.4630
430.0830, 633.1030
430.5650, 617.0360
431.0470, 605.3380
431.5290, 602.2290
432.0110, 600.9970
432.4930, 595.9220
432.9750, 586.6340
433.4570, 575.9470
433.9400, 565.5270
434.4220, 555.6850
434.9040, 552.5370
435.3860, 564.5000
435.8680, 571.2840
436.3500, 559.7800
436.8320, 544.6290
437.3140, 545.0360
437.7970, 567.3640
438.2790, 592.8910
438.7610, 597.2420
439.2430, 583.1080
439.7250, 581.1470
440.2070, 598.9660
440.6890, 623.6920
441.1710, 646.9000
441.6540, 668.5000
442.1360, 687.0030
442.6180, 696.5290
443.1000, 707.5330
443.5820, 728.1360
444.0640, 757.0800
444.5460, 791.6340
445.0280, 831.7160
445.5100, 872.5080
445.9920, 904.5610
446.4750, 922.3710
446.9570, 941.6070
447.4390, 961.9130
447.9210, 983.9220
448.4030, 1004.711
448.8850, 1027.042
449.3670, 1057.895
449.8490, 1102.373
450.3320, 1159.579
450.8140, 1228.001
451.2960, 1312.710
451.7780, 1397.810
452.2600, 1476.330
452.7420, 1556.764
453.2240, 1649.199
453.7060, 1754.528
454.1890, 1858.567
454.6710, 1956.343
455.1530, 2044.842
455.6350, 2119.683
456.1170, 2183.849
456.5990, 2217.499
457.0810, 2203.915
457.5630, 2146.572
458.0450, 2071.195
458.5270, 1975.187
459.0100, 1865.385
459.4920, 1735.228
459.9740, 1595.909
460.4560, 1462.413
460.9380, 1339.593
461.4200, 1227.177
461.9020, 1125.537
462.3840, 1034.038
462.8670, 956.4730
463.3490, 897.2240
463.8310, 846.6980
464.3130, 805.8700
464.7950, 771.1480
465.2770, 736.3160
465.7590, 698.5420
466.2410, 664.1900
466.7240, 645.5100
467.2060, 644.0010
467.6880, 638.7500
468.1700, 624.6410
468.6520, 608.5350
469.1340, 594.9630
469.6160, 583.7410
470.0980, 573.9750
470.5800, 570.2190
471.0630, 564.1170
471.5450, 543.5710
472.0270, 512.1390
472.5090, 486.2320
472.9910, 473.2540
473.4730, 467.5360
473.9550, 459.2350
474.4370, 447.4760
474.9190, 434.6170
475.4020, 416.6070
475.8840, 400.9540
476.3660, 394.1550
476.8480, 394.1650
477.3300, 394.6030
477.8120, 391.5710
478.2940, 385.8000
478.7760, 379.0780
479.2590, 370.1980
479.7410, 363.6090
480.2230, 362.8240
480.7050, 362.7130
481.1870, 359.7620
481.6690, 353.9750
482.1510, 347.9320
482.6330, 341.9150
483.1160, 337.0840
483.5980, 336.3240
484.0800, 339.7560
484.5620, 342.4600
485.0440, 341.2090
485.5260, 338.1200
486.0080, 339.2470
486.4900, 348.0240
486.9720, 352.8530
487.4540, 350.1880
487.9370, 343.6430
488.4190, 334.8270
488.9010, 324.9370
489.3830, 316.6860
489.8650, 312.2870
490.3470, 311.2700
490.8290, 310.9260
491.3110, 312.9650
491.7940, 312.6270
492.2760, 307.6870
492.7580, 301.1930
493.2400, 295.1710
493.7220, 290.0320
494.2040, 286.2410
494.6860, 284.3950
495.1680, 284.1380
495.6510, 285.0530
496.1330, 287.3670
496.6150, 288.7730
497.0970, 287.7600
497.5790, 284.9530
498.0610, 282.2930
498.5430, 280.2210
499.0250, 277.4450
499.5070, 273.0120
499.9900, 268.0550
500.4720, 262.4900
500.9540, 257.0790
501.4360, 255.3070
501.9180, 260.7820
502.4000, 272.3930
502.8820, 279.8530
503.3640, 280.3620
503.8460, 280.9090
504.3290, 285.4840
504.8110, 288.9420
505.2930, 284.7530
505.7750, 272.6590
506.2570, 261.8770
506.7390, 260.9570
507.2210, 266.7850
507.7030, 270.2100
508.1850, 270.4050
508.6680, 271.8850
509.1500, 278.1290
509.6320, 286.9740
510.1140, 292.4210
510.5960, 293.1970
511.0780, 293.4900
511.5600, 292.2200
512.0420, 292.2890
512.5250, 297.8500
513.0070, 308.4580
513.4890, 319.3440
513.9710, 326.5420
514.4530, 330.9200
514.9350, 337.9430
515.4170, 347.7430
515.8990, 360.0580
516.3810, 374.6540
516.8640, 391.5430
517.3460, 410.7700
517.8280, 432.3140
518.3100, 456.7920
518.7920, 485.5240
519.2740, 517.1630
519.7560, 548.2940
520.2390, 578.8210
520.7210, 611.6410
521.2030, 649.5340
521.6850, 689.2970
522.1670, 723.9570
522.6490, 755.4040
523.1310, 778.3730
523.6130, 793.3320
524.0950, 798.5600
524.5780, 793.3520
525.0600, 777.2110
525.5420, 747.8770
526.0240, 702.8750
526.5060, 647.0700
526.9880, 594.9590
527.4700, 545.7220
527.9520, 501.6760
528.4340, 460.6300
528.9170, 427.2610
529.3990, 407.0820
529.8810, 398.4270
530.3630, 391.7240
530.8450, 385.0230
531.3270, 376.2360
531.8090, 359.7660
532.2910, 337.5670
532.7730, 321.9220
533.2560, 318.6080
533.7380, 321.1110
534.2200, 318.8560
534.7020, 309.1720
535.1840, 302.9090
535.6660, 306.1000
536.1480, 306.6540
536.6300, 294.1770
537.1120, 275.3460
537.5950, 263.5620
538.0770, 265.1100
538.5590, 273.1930
539.0410, 277.6950
539.5230, 278.5280
540.0050, 276.8000
540.4870, 269.6120
540.9690, 264.4750
541.4520, 269.4530
541.9340, 280.6220
542.4160, 287.6760
542.8980, 286.9040
543.3800, 283.8910
543.8620, 280.9310
544.3440, 278.3480
544.8260, 276.2260
545.3080, 274.6970
545.7910, 275.6260
546.2730, 281.9080
546.7550, 293.7660
547.2370, 298.8800
547.7190, 288.6950
548.2010, 282.3430
548.6830, 287.2910
549.1660, 295.6080
549.6480, 297.3950
550.1300, 291.2480
550.6120, 287.5660
551.0940, 298.9190
551.5760, 318.9130
552.0580, 328.7840
552.5400, 326.9400
553.0220, 324.1830
553.5050, 325.8430
553.9870, 330.5500
554.4690, 334.8710
554.9510, 338.2800
555.4330, 342.6320
555.9150, 351.4640
556.3970, 358.7870
556.8790, 358.2540
557.3620, 351.7360
557.8440, 346.0430
558.3260, 345.3090
558.8080, 347.8620
559.2900, 349.1360
559.7720, 348.0560
560.2540, 350.9500
560.7360, 363.4060
561.2180, 375.0870
561.7010, 375.9380
562.1830, 369.2490
562.6650, 368.0630
563.1470, 381.2020
563.6290, 396.3430
564.1110, 402.6240
564.5930, 403.7990
565.0750, 409.5270
565.5570, 422.5130
566.0400, 436.0650
566.5220, 441.7200
567.0040, 438.5290
567.4860, 440.4210
567.9680, 458.6470
568.4500, 468.5900
568.9320, 460.9860
569.4140, 444.7280
569.8960, 428.2650
570.3790, 413.7080
570.8610, 401.5820
571.3430, 392.8410
571.8250, 386.8640
572.3070, 382.5260
572.7890, 379.8620
573.2710, 376.8870
573.7530, 372.6710
574.2350, 367.3560
574.7180, 360.7850
575.2000, 350.7370
575.6820, 344.6870
576.1640, 346.6770
576.6460, 349.7130
577.1280, 348.4150
577.6100, 344.2120
578.0930, 341.4290
578.5750, 342.2740
579.0570, 345.8140
579.5390, 350.2870
580.0210, 355.5960
580.5030, 363.6760
580.9850, 377.1790
581.4670, 389.5720
581.9490, 392.6460
582.4320, 390.3730
582.9140, 393.9150
583.3960, 407.6040
583.8780, 423.6400
584.3600, 440.4350
584.8420, 456.4430
585.3240, 467.6180
585.8060, 474.3110
586.2890, 483.0920
586.7710, 500.1000
587.2530, 524.1920
587.7350, 546.6130
588.2170, 564.3180
588.6990, 586.7080
589.1810, 613.9630
589.6630, 648.3360
590.1450, 695.9520
590.6280, 755.0450
591.1100, 809.7060
591.5920, 847.9550
592.0740, 882.3810
592.5560, 924.0760
593.0380, 973.2810
593.5200, 1029.816
594.0020, 1093.735
594.4840, 1164.571
594.9670, 1242.500
595.4490, 1330.639
595.9310, 1407.291
596.4130, 1471.121
596.8950, 1523.939
597.3770, 1569.828
597.8590, 1602.939
598.3410, 1617.021
598.8230, 1610.670
599.3060, 1585.143
599.7880, 1537.752
600.2700, 1472.913
600.7520, 1396.665
601.2340, 1309.650
601.7160, 1223.818
602.1980, 1144.404
602.6800, 1070.221
603.1620, 997.9250
603.6450, 923.4830
604.1270, 860.7040
604.6090, 813.8660
605.0910, 774.2070
605.5730, 736.4160
606.0550, 702.5970
606.5370, 678.1840
607.0190, 665.9490
607.5020, 658.5410
607.9840, 646.2090
608.4660, 630.2160
608.9480, 619.0280
609.4300, 613.9450
609.9120, 611.6830
610.3940, 611.0960
610.8760, 611.4560
611.3590, 609.9000
611.8410, 604.2810
612.3230, 600.5590
612.8050, 598.5900
613.2870, 599.6640
613.7690, 602.1300
614.2510, 608.4050
614.7330, 625.8910
615.2160, 660.1660
615.6980, 702.7200
616.1800, 738.0950
616.6620, 765.9990
617.1440, 791.7290
617.6260, 813.1000
618.1080, 838.5210
618.5900, 875.7410
619.0720, 923.1930
619.5550, 972.7680
620.0370, 1025.959
