##NAMES=Chloritoid
##RRUFFID=R050334
##IDEAL CHEMISTRY=Fe^2+^Al_2_OSiO_4_(OH)_2_
##LOCALITY=Selçuk, Mugla Province, Turkey
##OWNER=RRUFF
##SOURCE=George Rossman
##DESCRIPTION=Dark greenish-black foliated cleavage fragments
##STATUS=The identification of this mineral is confirmed by single-crystal X-ray diffraction and chemical analysis.
##URL=rruff.info/R050334
##MEASURED CHEMISTRY=(Fe^2+^_1.84_Mg_0.12_Mn_0.04_)_Σ=2_(Al_3.95_Fe^3+^_0.05_)_Σ=4_Si_2.00_O_10_(OH)_4_ ; H not measured but estimated by difference and stoichiometry
91.87140, 0.0000000E+00
92.35352, 9.251678
92.83563, 7.915026
93.31775, 7.345686
93.79987, 8.143352
94.28198, 9.787648
94.76410, 10.70144
95.24622, 10.32902
95.72833, 9.317052
96.21045, 9.141908
96.69257, 9.853178
97.17468, 10.59088
97.65680, 10.15443
98.13892, 8.582871
98.62103, 8.181928
99.10315, 10.10656
99.58527, 13.85710
100.0674, 15.74391
100.5495, 15.32167
101.0316, 13.97586
101.5137, 13.36334
101.9958, 13.64569
102.4780, 14.06813
102.9601, 14.31970
103.4422, 14.29118
103.9243, 14.86821
104.4064, 16.34859
104.8885, 18.24742
105.3707, 19.69650
105.8528, 20.37841
106.3349, 21.03975
106.8170, 22.01670
107.2991, 23.86398
107.7813, 24.95398
108.2634, 24.75258
108.7455, 23.71852
109.2276, 23.39581
109.7097, 24.50595
110.1918, 25.80552
110.6740, 26.78138
111.1561, 26.57917
111.6382, 26.99804
112.1203, 28.48028
112.6024, 30.85698
113.0845, 33.01960
113.5667, 34.77110
114.0488, 36.25694
114.5309, 37.59361
115.0130, 38.92361
115.4951, 39.97717
115.9772, 40.43900
116.4594, 40.33965
116.9415, 40.62255
117.4236, 42.21299
117.9057, 44.18064
118.3878, 45.52441
118.8699, 45.08171
119.3521, 44.52539
119.8342, 44.82168
120.3163, 46.07346
120.7984, 47.70544
121.2805, 49.77855
121.7626, 51.96921
122.2448, 53.72435
122.7269, 54.94104
123.2090, 55.52131
123.6911, 55.21212
124.1732, 53.84042
124.6553, 52.19263
125.1375, 50.54063
125.6196, 49.09140
126.1017, 48.49988
126.5838, 49.77689
127.0659, 52.08151
127.5480, 53.86136
128.0302, 54.77627
128.5123, 55.37424
128.9944, 56.48362
129.4765, 58.04461
129.9586, 59.49830
130.4407, 60.39095
130.9229, 60.82331
131.4050, 61.20998
131.8871, 61.63432
132.3692, 62.04469
132.8513, 62.23823
133.3334, 62.09309
133.8156, 61.74197
134.2977, 61.30520
134.7798, 61.00707
135.2619, 61.67278
135.7440, 63.86833
136.2261, 67.12217
136.7083, 69.34586
137.1904, 70.41058
137.6725, 70.95011
138.1546, 71.76220
138.6367, 73.03983
139.1188, 73.56902
139.6010, 72.91666
140.0831, 71.09037
140.5652, 69.22036
141.0473, 67.11605
141.5294, 65.18518
142.0115, 64.01340
142.4937, 63.76776
142.9758, 63.83020
143.4579, 64.05471
143.9400, 64.46355
144.4221, 64.88348
144.9042, 65.18006
145.3864, 65.55724
145.8685, 66.43755
146.3506, 68.55294
146.8327, 70.18676
147.3148, 70.65743
147.7969, 69.08916
148.2791, 68.33461
148.7612, 68.70033
149.2433, 69.83469
149.7254, 70.95900
150.2075, 72.34303
150.6896, 73.48045
151.1718, 74.16698
151.6539, 74.07771
152.1360, 74.02665
152.6181, 73.78249
153.1002, 73.54646
153.5823, 73.92445
154.0645, 76.36203
154.5466, 78.40983
155.0287, 78.90671
155.5108, 75.91683
155.9929, 73.57039
156.4750, 72.67798
156.9572, 72.97781
157.4393, 73.45383
157.9214, 74.04375
158.4035, 74.65097
158.8856, 75.21692
159.3677, 75.85757
159.8499, 76.33061
160.3320, 76.55214
160.8141, 76.54066
161.2962, 76.38766
161.7783, 75.97698
162.2604, 75.50937
162.7426, 75.15031
163.2247, 74.96998
163.7068, 74.88896
164.1889, 74.79319
164.6710, 74.70290
165.1531, 74.89826
165.6353, 75.82560
166.1174, 77.00584
166.5995, 77.92310
167.0816, 78.23371
167.5637, 78.34094
168.0458, 78.37248
168.5280, 78.33472
169.0101, 78.55022
169.4922, 79.68655
169.9743, 81.11427
170.4564, 81.94524
170.9385, 81.46760
171.4207, 80.45000
171.9028, 79.37177
172.3849, 78.23644
172.8670, 77.47469
173.3491, 77.83114
173.8312, 78.78227
174.3134, 79.32681
174.7955, 78.62410
175.2776, 77.43768
175.7597, 76.61510
176.2418, 76.19669
176.7239, 76.10045
177.2061, 76.52739
177.6882, 77.25480
178.1703, 77.67058
178.6524, 77.13457
179.1345, 76.18682
179.6166, 75.85542
180.0988, 76.29704
180.5809, 76.80540
181.0630, 76.34196
181.5451, 75.16219
182.0272, 74.31067
182.5093, 74.59978
182.9915, 75.59643
183.4736, 76.21494
183.9557, 76.32894
184.4378, 76.27376
184.9199, 76.53240
185.4020, 77.05592
185.8842, 77.53381
186.3663, 77.76868
186.8484, 77.81267
187.3305, 77.82792
187.8126, 77.81131
188.2947, 77.81046
188.7769, 77.88480
189.2590, 78.03506
189.7411, 78.27531
190.2232, 78.71184
190.7053, 79.29037
191.1874, 79.61977
191.6696, 79.58974
192.1517, 79.45802
192.6338, 79.68649
193.1159, 80.28012
193.5980, 81.08443
194.0801, 82.24797
194.5623, 83.70529
195.0444, 84.44496
195.5265, 84.15641
196.0086, 83.40997
196.4907, 83.60481
196.9728, 84.88172
197.4550, 85.91592
197.9371, 85.61165
198.4192, 83.93761
198.9013, 83.00455
199.3834, 83.20533
199.8655, 84.02866
200.3477, 84.14426
200.8298, 83.39050
201.3119, 82.65842
201.7940, 82.55327
202.2761, 83.14131
202.7582, 83.58707
203.2404, 83.75124
203.7225, 83.77886
204.2046, 84.17310
204.6867, 85.09179
205.1688, 85.84121
205.6509, 85.93675
206.1331, 85.29397
206.6152, 84.53279
207.0973, 83.59538
207.5794, 82.62862
208.0615, 82.14053
208.5436, 82.26271
209.0258, 82.51551
209.5079, 82.64191
209.9900, 82.65374
210.4721, 82.44957
210.9542, 81.89368
211.4363, 81.15838
211.9185, 80.86567
212.4006, 81.15505
212.8827, 81.58512
213.3648, 81.94547
213.8469, 82.31796
214.3290, 82.31189
214.8112, 81.76134
215.2933, 80.84127
215.7754, 80.13826
216.2575, 79.64988
216.7396, 79.38081
217.2217, 79.40292
217.7039, 79.88081
218.1860, 80.15036
218.6681, 80.17303
219.1502, 79.95582
219.6323, 79.47363
220.1144, 78.59182
220.5966, 77.68479
221.0787, 76.91929
221.5608, 76.18530
222.0429, 75.96450
222.5250, 76.65323
223.0071, 77.84138
223.4893, 77.90594
223.9714, 76.28764
224.4535, 74.43396
224.9356, 73.09555
225.4177, 72.42898
225.8998, 71.96653
226.3820, 71.90910
226.8641, 72.01321
227.3462, 71.31910
227.8283, 69.17995
228.3104, 67.22913
228.7925, 66.46874
229.2747, 67.79285
229.7568, 68.19224
230.2389, 67.06747
230.7210, 65.02930
231.2031, 64.10793
231.6852, 64.83707
232.1674, 65.88885
232.6495, 66.66737
233.1316, 67.21842
233.6137, 67.34355
234.0958, 66.71651
234.5779, 65.72497
235.0601, 65.56072
235.5422, 66.88645
236.0243, 68.07806
236.5064, 68.32126
236.9885, 66.91512
237.4706, 66.13071
237.9528, 66.18484
238.4349, 66.81414
238.9170, 67.37685
239.3991, 67.82899
239.8812, 68.28026
240.3633, 68.78874
240.8455, 69.41642
241.3276, 69.96423
241.8097, 70.52373
242.2918, 70.96211
242.7739, 70.88581
243.2560, 69.73775
243.7382, 68.93767
244.2203, 69.08901
244.7024, 70.56213
245.1845, 71.95509
245.6666, 73.28494
246.1487, 74.52396
246.6309, 75.63712
247.1130, 76.57764
247.5951, 77.47456
248.0772, 78.39634
248.5593, 79.43002
249.0414, 80.19398
249.5236, 80.68530
250.0057, 80.90666
250.4878, 80.83630
250.9699, 80.32228
251.4520, 79.78120
251.9341, 79.32438
252.4163, 78.93504
252.8984, 78.72285
253.3805, 78.82247
253.8626, 78.99455
254.3447, 78.83501
254.8268, 78.07565
255.3090, 77.52802
255.7911, 77.45957
256.2732, 77.92193
256.7553, 78.47328
257.2374, 79.35835
257.7195, 80.09094
258.2017, 79.97619
258.6838, 78.56792
259.1659, 77.32729
259.6480, 76.61811
260.1301, 76.46255
260.6122, 76.40402
261.0944, 76.49959
261.5765, 76.62189
262.0586, 76.59348
262.5407, 76.28674
263.0228, 76.16900
263.5049, 76.27555
263.9871, 76.61917
264.4692, 77.58103
264.9513, 79.49109
265.4334, 81.50517
265.9155, 82.84888
266.3976, 83.33408
266.8798, 83.68485
267.3619, 83.93351
267.8440, 84.12550
268.3261, 84.66361
268.8082, 85.67992
269.2903, 86.76083
269.7725, 87.49704
270.2546, 87.74496
270.7367, 88.28838
271.2188, 89.33491
271.7009, 90.73328
272.1830, 91.78529
272.6652, 92.30331
273.1473, 92.96781
273.6294, 94.40096
274.1115, 96.78779
274.5936, 98.73392
275.0757, 99.92261
275.5579, 100.7250
276.0400, 102.1192
276.5221, 104.1174
277.0042, 106.6537
277.4863, 109.9581
277.9684, 114.1293
278.4506, 117.6318
278.9327, 120.2161
279.4148, 122.2656
279.8969, 124.7429
280.3790, 127.7816
280.8611, 130.3169
281.3433, 131.8538
281.8254, 132.3958
282.3075, 132.0968
282.7896, 130.9355
283.2717, 129.0112
283.7538, 126.3605
284.2360, 122.9686
284.7181, 119.2567
285.2002, 115.1688
285.6823, 110.7978
286.1644, 107.0478
286.6465, 104.0357
287.1287, 101.3443
287.6108, 98.39732
288.0929, 95.22169
288.5750, 92.32455
289.0571, 89.86639
289.5392, 87.82690
290.0214, 86.15412
290.5035, 84.84464
290.9856, 83.95753
291.4677, 83.70932
291.9498, 84.01796
292.4319, 84.39223
292.9141, 84.77197
293.3962, 85.07595
293.8783, 85.09913
294.3604, 84.83950
294.8425, 84.41087
295.3246, 83.67850
295.8068, 82.81071
296.2889, 82.41113
296.7710, 82.74414
297.2531, 83.46342
297.7352, 84.03350
298.2173, 84.46526
298.6995, 84.87337
299.1816, 85.31780
299.6637, 85.79690
300.1458, 86.32988
300.6279, 86.98539
301.1100, 87.55994
301.5922, 87.87676
302.0743, 87.91442
302.5564, 87.59187
303.0385, 86.72054
303.5206, 85.50357
304.0027, 84.15922
304.4849, 82.68460
304.9670, 81.25823
305.4491, 80.20181
305.9312, 79.35300
306.4133, 78.32217
306.8954, 76.74050
307.3776, 74.97578
307.8597, 73.36216
308.3418, 71.89946
308.8239, 70.69758
309.3060, 69.98080
309.7881, 69.54684
310.2703, 69.09848
310.7524, 68.55164
311.2345, 67.91339
311.7166, 67.18252
312.1987, 66.36064
312.6808, 65.48708
313.1630, 64.34475
313.6451, 63.24266
314.1272, 62.50623
314.6093, 62.55769
315.0914, 62.70827
315.5735, 62.53990
316.0557, 62.13855
316.5378, 61.96292
317.0199, 62.60339
317.5020, 63.31379
317.9841, 63.51801
318.4662, 62.67039
318.9484, 61.92119
319.4305, 61.66694
319.9126, 61.79859
320.3947, 62.02959
320.8768, 62.26002
321.3589, 62.58189
321.8411, 63.07910
322.3232, 63.87984
322.8053, 64.55181
323.2874, 64.85256
323.7695, 65.00310
324.2516, 65.35345
324.7338, 66.22530
325.2159, 67.05730
325.6980, 67.56364
326.1801, 67.55863
326.6622, 68.02650
327.1443, 69.42730
327.6265, 71.16290
328.1086, 72.63717
328.5907, 73.55527
329.0728, 74.51460
329.5549, 75.65369
330.0370, 76.98060
330.5192, 78.15403
331.0013, 79.36238
331.4834, 80.26921
331.9655, 80.61764
332.4476, 80.01749
332.9297, 79.53355
333.4119, 79.34850
333.8940, 79.35879
334.3761, 79.12540
334.8582, 78.67399
335.3403, 77.94978
335.8224, 76.85345
336.3046, 75.16750
336.7867, 73.74895
337.2688, 72.63996
337.7509, 71.77619
338.2330, 70.98550
338.7151, 70.22967
339.1973, 69.68714
339.6794, 69.45657
340.1615, 69.55179
340.6436, 69.62637
341.1257, 69.55584
341.6078, 69.73302
342.0900, 70.91040
342.5721, 73.16846
343.0542, 75.06740
343.5363, 76.09103
344.0184, 76.41270
344.5005, 76.82259
344.9827, 77.34913
345.4648, 77.73558
345.9469, 77.76127
346.4290, 77.43523
346.9111, 76.85738
347.3932, 76.07460
347.8754, 75.00856
348.3575, 73.26943
348.8396, 70.93803
349.3217, 68.86326
349.8038, 67.69773
350.2859, 67.22781
350.7681, 66.98602
351.2502, 66.95212
351.7323, 67.00482
352.2144, 67.02760
352.6965, 67.02664
353.1786, 67.02024
353.6608, 67.05476
354.1429, 67.07325
354.6250, 66.88573
355.1071, 66.47202
355.5892, 66.31454
356.0714, 67.23436
356.5535, 68.55690
357.0356, 69.27416
357.5177, 68.28999
357.9998, 67.18681
358.4819, 67.20544
358.9641, 68.18138
359.4462, 69.20869
359.9283, 69.75089
360.4104, 70.17361
360.8925, 70.80608
361.3746, 71.89491
361.8568, 72.89973
362.3389, 73.60313
362.8210, 74.05639
363.3031, 74.39436
363.7852, 74.69305
364.2673, 74.85694
364.7495, 74.77231
365.2316, 74.30563
365.7137, 74.04162
366.1958, 74.35696
366.6779, 74.84520
367.1600, 75.03104
367.6422, 74.92307
368.1243, 74.44582
368.6064, 73.32833
369.0885, 71.51440
369.5706, 70.32627
370.0527, 70.32988
370.5349, 70.51458
371.0170, 70.18932
371.4991, 68.82005
371.9812, 67.86193
372.4633, 67.52951
372.9454, 67.67085
373.4276, 67.77103
373.9097, 67.84407
374.3918, 67.85465
374.8739, 67.80941
375.3560, 67.74374
375.8381, 67.40512
376.3203, 66.62460
376.8024, 65.79449
377.2845, 65.55726
377.7666, 65.99586
378.2487, 66.58871
378.7308, 67.18044
379.2130, 67.78288
379.6951, 68.48122
380.1772, 69.32353
380.6593, 70.04192
381.1414, 70.26501
381.6235, 70.05943
382.1057, 70.06109
382.5878, 70.39473
383.0699, 71.00948
383.5520, 71.95504
384.0341, 73.19693
384.5162, 74.29460
384.9984, 74.93270
385.4805, 75.23921
385.9626, 75.42397
386.4447, 75.46214
386.9268, 75.62476
387.4089, 76.34856
387.8911, 77.41538
388.3732, 78.31820
388.8553, 78.62723
389.3374, 78.79859
389.8195, 79.34066
390.3016, 80.22375
390.7838, 80.99992
391.2659, 81.11802
391.7480, 81.09112
392.2301, 81.46932
392.7122, 82.62824
393.1943, 83.90706
393.6765, 85.03091
394.1586, 86.03492
394.6407, 86.99567
395.1228, 88.09862
395.6049, 89.05043
396.0870, 89.70464
396.5692, 89.99580
397.0513, 90.13078
397.5334, 90.17919
398.0155, 90.08241
398.4976, 89.76797
398.9797, 89.07376
399.4619, 88.32360
399.9440, 87.57913
400.4261, 86.83971
400.9082, 86.03616
401.3903, 85.21172
401.8724, 84.27954
402.3546, 83.11208
402.8367, 81.35139
403.3188, 80.19830
403.8009, 79.95760
404.2830, 80.25982
404.7651, 80.13486
405.2473, 79.43556
405.7294, 78.73193
406.2115, 78.22522
406.6936, 77.91991
407.1757, 77.81483
407.6578, 77.93157
408.1400, 78.19247
408.6221, 78.56093
409.1042, 79.03354
409.5863, 79.41914
410.0684, 79.58188
410.5505, 79.69215
411.0327, 80.23835
411.5148, 81.21048
411.9969, 82.20723
412.4790, 83.08756
412.9611, 83.78114
413.4432, 84.04272
413.9254, 83.77062
414.4075, 83.35200
414.8896, 83.23267
415.3717, 83.29194
415.8538, 83.24577
416.3359, 83.06264
416.8181, 82.64624
417.3002, 81.73902
417.7823, 80.35229
418.2644, 79.18015
418.7465, 78.75484
419.2286, 78.64938
419.7108, 78.45164
420.1929, 77.93670
420.6750, 77.46566
421.1571, 77.14243
421.6392, 76.96146
422.1213, 76.91917
422.6035, 77.16141
423.0856, 77.41521
423.5677, 77.65189
424.0498, 77.99590
424.5319, 77.85271
425.0140, 76.50947
425.4962, 74.97449
425.9783, 74.28688
426.4604, 75.20837
426.9425, 75.86227
427.4246, 75.90449
427.9067, 75.42986
428.3889, 75.10105
428.8710, 74.98653
429.3531, 74.89783
429.8352, 74.74490
430.3173, 74.53806
430.7994, 74.21613
431.2816, 73.76676
431.7637, 73.21835
432.2458, 72.56381
432.7279, 71.78751
433.2100, 71.15517
433.6921, 70.78152
434.1743, 70.61856
434.6564, 70.56214
435.1385, 70.61791
435.6206, 70.59082
436.1027, 70.18945
436.5848, 69.57075
437.0670, 69.16648
437.5491, 69.07705
438.0312, 69.17772
438.5133, 69.46619
438.9954, 69.84872
439.4775, 70.06321
439.9597, 69.73228
440.4418, 69.32883
440.9239, 69.33169
441.4060, 69.76916
441.8881, 70.21779
442.3702, 70.39716
442.8524, 70.48421
443.3345, 70.65182
443.8166, 71.03052
444.2987, 71.39558
444.7808, 71.61555
445.2629, 71.76003
445.7451, 72.03663
446.2272, 72.94112
446.7093, 73.58045
447.1914, 73.44613
447.6735, 72.06941
448.1556, 71.44674
448.6378, 72.09866
449.1199, 73.15836
449.6020, 73.72231
450.0841, 73.41982
450.5662, 73.40969
451.0483, 74.06668
451.5305, 75.14139
452.0126, 75.40503
452.4947, 74.61430
452.9768, 73.77046
453.4589, 73.38567
453.9410, 73.46574
454.4232, 73.89992
454.9053, 74.80447
455.3874, 75.68300
455.8695, 75.85235
456.3516, 75.38499
456.8337, 74.80186
457.3159, 74.16674
457.7980, 73.59518
458.2801, 73.18154
458.7622, 72.95956
459.2443, 73.17126
459.7264, 74.42994
460.2086, 76.05146
460.6907, 77.09771
461.1728, 77.37012
461.6549, 77.37338
462.1370, 77.41213
462.6191, 77.41991
463.1013, 77.29662
463.5834, 76.82348
464.0655, 76.38049
464.5476, 76.06550
465.0297, 75.89870
465.5118, 76.00884
465.9940, 76.90321
466.4761, 77.73804
466.9582, 77.99789
467.4403, 77.03276
467.9224, 76.60064
468.4045, 77.08614
468.8867, 77.96981
469.3688, 78.49923
469.8509, 78.39572
470.3330, 78.44563
470.8151, 78.94982
471.2972, 79.82553
471.7794, 80.09624
472.2615, 79.54041
472.7436, 78.99294
473.2257, 79.20564
473.7078, 80.19984
474.1899, 80.58366
474.6721, 80.14291
475.1542, 79.38062
475.6363, 78.95069
476.1184, 78.83730
476.6005, 78.95151
477.0826, 79.39138
477.5648, 79.95689
478.0469, 80.32256
478.5290, 80.50179
479.0111, 80.61613
479.4932, 80.74252
479.9753, 80.85609
480.4575, 80.85381
480.9396, 80.59820
481.4217, 80.63084
481.9038, 81.40698
482.3859, 82.65189
482.8680, 83.95783
483.3502, 85.70658
483.8323, 86.99110
484.3144, 87.25828
484.7965, 86.57583
485.2786, 86.07401
485.7607, 85.83342
486.2429, 85.88679
486.7250, 86.26033
487.2071, 87.05722
487.6892, 87.95554
488.1713, 89.05000
488.6534, 90.17943
489.1356, 91.04202
489.6177, 91.41256
490.0998, 92.23434
490.5819, 93.89535
491.0640, 96.19535
491.5461, 98.10327
492.0283, 99.62093
492.5104, 100.8375
492.9925, 101.5661
493.4746, 101.9727
493.9567, 102.9313
494.4388, 104.5910
494.9210, 106.4042
495.4031, 107.9652
495.8852, 109.2057
496.3673, 109.9769
496.8494, 109.9095
497.3315, 109.6304
497.8137, 109.8313
498.2958, 110.3742
498.7779, 110.6884
499.2600, 110.4718
499.7421, 109.9237
500.2242, 109.1502
500.7064, 108.1264
501.1885, 107.0255
501.6706, 105.8157
502.1527, 104.6003
502.6348, 103.5045
503.1169, 102.8406
503.5991, 101.9371
504.0812, 100.4849
504.5633, 98.72652
505.0454, 97.56821
505.5275, 97.31808
506.0096, 97.17423
506.4918, 96.83121
506.9739, 96.26963
507.4560, 95.73052
507.9381, 95.26260
508.4202, 94.68484
508.9023, 93.77379
509.3845, 92.54487
509.8666, 91.25018
510.3487, 89.90616
510.8308, 88.57349
511.3129, 87.23832
511.7950, 85.96125
512.2772, 85.02437
512.7593, 84.79170
513.2414, 84.86838
513.7235, 84.84663
514.2056, 84.70942
514.6877, 84.39159
515.1699, 83.58315
515.6520, 82.71339
516.1341, 82.21965
516.6162, 82.44536
517.0983, 82.56110
517.5804, 82.21758
518.0626, 81.60455
518.5447, 81.03361
519.0268, 80.30946
519.5089, 79.90012
519.9910, 80.02687
520.4731, 80.64652
520.9553, 81.09079
521.4374, 81.28751
521.9195, 81.41106
522.4016, 81.49805
522.8837, 81.47853
523.3658, 81.77846
523.8480, 82.39755
524.3301, 83.35099
524.8122, 84.94714
525.2943, 87.10818
525.7764, 88.58302
526.2585, 88.82298
526.7407, 88.42933
527.2228, 88.45158
527.7049, 88.83810
528.1870, 89.28017
528.6691, 89.79077
529.1512, 90.15544
529.6334, 90.08580
530.1155, 89.55286
530.5976, 88.84441
531.0797, 88.17104
531.5618, 87.37904
532.0439, 86.30289
532.5261, 84.51359
533.0082, 82.97560
533.4903, 82.07327
533.9724, 81.56222
534.4545, 80.89924
534.9366, 80.11409
535.4188, 79.07824
535.9009, 77.57065
536.3830, 75.61732
536.8651, 74.39050
537.3472, 74.09842
537.8293, 74.12535
538.3115, 74.14151
538.7936, 74.15715
539.2757, 74.00790
539.7578, 73.64441
540.2399, 73.23792
540.7220, 72.96648
541.2042, 72.83932
541.6863, 72.88502
542.1684, 73.11582
542.6505, 73.52063
543.1326, 74.07297
543.6147, 74.77821
544.0969, 75.68108
544.5790, 77.16032
545.0611, 78.59151
545.5432, 79.30480
546.0253, 79.20381
546.5074, 79.28922
546.9896, 79.79074
547.4717, 80.76147
547.9538, 82.26215
548.4359, 84.99329
548.9180, 87.31447
549.4001, 89.06413
549.8823, 90.36131
550.3644, 91.37086
550.8465, 91.99326
551.3286, 92.56631
551.8107, 93.35825
552.2928, 94.22081
552.7750, 93.99144
553.2571, 92.56776
553.7392, 90.57459
554.2213, 88.34053
554.7034, 85.87866
555.1855, 83.05315
555.6677, 79.80925
556.1498, 76.55187
556.6319, 73.54337
557.1140, 70.87889
557.5961, 68.82539
558.0782, 67.64134
558.5604, 66.77655
559.0425, 65.98252
559.5246, 65.17677
560.0067, 64.17680
560.4888, 62.50360
560.9709, 60.99606
561.4531, 60.06867
561.9352, 59.73039
562.4173, 59.59617
562.8994, 59.84025
563.3815, 60.09431
563.8636, 60.16164
564.3458, 59.93436
564.8279, 59.80016
565.3100, 59.73364
565.7921, 59.79074
566.2742, 60.07727
566.7563, 60.61780
567.2385, 61.16400
567.7206, 61.66689
568.2027, 62.13780
568.6848, 62.54437
569.1669, 62.90652
569.6490, 63.33373
570.1312, 63.95683
570.6133, 64.65397
571.0954, 65.10699
571.5775, 65.35262
572.0596, 65.92662
572.5417, 67.37817
573.0239, 69.19733
573.5060, 70.84779
573.9881, 72.00620
574.4702, 73.67068
574.9523, 75.66756
575.4344, 78.53415
575.9166, 82.92078
576.3987, 89.89208
576.8808, 97.07163
577.3629, 104.0765
577.8450, 111.1681
578.3271, 119.4228
578.8093, 129.1524
579.2914, 139.0759
579.7735, 148.9249
580.2556, 158.4550
580.7377, 166.5152
581.2198, 172.9574
581.7020, 179.0845
582.1841, 185.8939
582.6662, 193.1819
583.1483, 200.3869
583.6304, 207.1460
584.1125, 214.8262
584.5947, 224.3838
585.0768, 235.6813
