##NAMES=Chloritoid
##RRUFFID=R050334
##IDEAL CHEMISTRY=Fe^2+^Al_2_OSiO_4_(OH)_2_
##LOCALITY=Selçuk, Mugla Province, Turkey
##OWNER=RRUFF
##SOURCE=George Rossman
##DESCRIPTION=Dark greenish-black foliated cleavage fragments
##STATUS=The identification of this mineral is confirmed by single-crystal X-ray diffraction and chemical analysis.
##URL=rruff.info/R050334
##MEASURED CHEMISTRY=(Fe^2+^_1.84_Mg_0.12_Mn_0.04_)_Σ=2_(Al_3.95_Fe^3+^_0.05_)_Σ=4_Si_2.00_O_10_(OH)_4_ ; H not measured but estimated by difference and stoichiometry
92.52344, 174.5202
93.00555, 174.2343
93.48767, 174.4757
93.96979, 178.7093
94.45190, 182.4011
94.93402, 184.5823
95.41614, 183.6178
95.89825, 180.9998
96.38037, 178.5183
96.86249, 176.0562
97.34460, 173.3331
97.82672, 170.4678
98.30884, 167.6184
98.79095, 164.8018
99.27307, 161.8166
99.75519, 158.6062
100.2373, 155.6477
100.7194, 153.0259
101.2015, 150.5107
101.6837, 147.9366
102.1658, 145.4874
102.6479, 143.1226
103.1300, 140.7646
103.6121, 138.9884
104.0942, 138.6099
104.5764, 139.0565
105.0585, 139.5894
105.5406, 140.2862
106.0227, 140.9022
106.5048, 140.6533
106.9869, 139.2573
107.4691, 137.1998
107.9512, 134.3902
108.4333, 131.1315
108.9154, 128.1480
109.3975, 126.0324
109.8796, 124.8483
110.3618, 124.0831
110.8439, 124.0007
111.3260, 124.0944
111.8081, 124.1702
112.2902, 124.1956
112.7723, 124.2506
113.2544, 124.4639
113.7366, 125.0372
114.2187, 125.3828
114.7008, 125.6808
115.1829, 125.6943
115.6650, 125.0849
116.1471, 123.7235
116.6293, 121.9699
117.1114, 120.7087
117.5935, 120.3723
118.0756, 119.6658
118.5577, 118.0171
119.0398, 115.7474
119.5220, 113.5363
120.0041, 111.5411
120.4862, 109.9939
120.9683, 109.1956
121.4504, 109.3119
121.9325, 109.8584
122.4147, 110.7127
122.8968, 111.9364
123.3789, 112.7106
123.8610, 112.3080
124.3431, 111.3182
124.8252, 110.1494
125.3074, 108.7742
125.7895, 107.4727
126.2716, 106.9314
126.7537, 107.7018
127.2358, 108.2728
127.7179, 108.0571
128.2001, 107.4147
128.6822, 106.8514
129.1643, 106.7383
129.6464, 107.0030
130.1285, 106.7171
130.6107, 105.0301
131.0928, 103.5689
131.5749, 102.9024
132.0570, 102.8116
132.5391, 102.7097
133.0212, 102.0528
133.5034, 100.6987
133.9855, 99.77220
134.4676, 99.35997
134.9497, 99.20193
135.4318, 99.23193
135.9139, 99.41306
136.3960, 99.63692
136.8782, 99.76508
137.3603, 99.76077
137.8424, 99.89249
138.3245, 100.4965
138.8066, 101.1210
139.2887, 101.1889
139.7709, 100.5249
140.2530, 99.49536
140.7351, 98.31883
141.2172, 97.00176
141.6993, 96.16109
142.1814, 96.36803
142.6636, 97.34573
143.1457, 98.07797
143.6278, 98.30529
144.1099, 98.24289
144.5920, 97.98683
145.0741, 97.55624
145.5563, 97.28442
146.0384, 97.61376
146.5205, 98.65161
147.0026, 99.36695
147.4847, 99.13184
147.9668, 98.80844
148.4490, 98.89698
148.9311, 99.49116
149.4132, 100.2980
149.8953, 100.9105
150.3774, 101.3721
150.8595, 101.5034
151.3417, 101.2473
151.8238, 100.7567
152.3059, 100.1054
152.7880, 99.33363
153.2701, 98.48784
153.7522, 97.69666
154.2344, 96.99995
154.7165, 96.32560
155.1986, 95.59917
155.6807, 94.91014
156.1628, 94.34972
156.6449, 93.95882
157.1271, 93.75198
157.6092, 93.82431
158.0913, 94.33469
158.5734, 94.88360
159.0555, 95.49657
159.5376, 96.08463
160.0198, 96.38197
160.5019, 96.15920
160.9840, 95.56821
161.4661, 95.22185
161.9482, 95.22070
162.4303, 95.34075
162.9125, 95.51168
163.3946, 95.72706
163.8767, 95.79838
164.3588, 95.37073
164.8409, 94.80434
165.3230, 94.75820
165.8052, 95.74166
166.2873, 96.92461
166.7694, 97.01721
167.2515, 95.62336
167.7336, 94.50290
168.2157, 94.74313
168.6979, 95.67104
169.1800, 96.56170
169.6621, 97.11534
170.1442, 97.43127
170.6263, 97.82646
171.1084, 98.52969
171.5906, 98.91375
172.0727, 98.51902
172.5548, 97.78212
173.0369, 97.35616
173.5190, 97.72200
174.0011, 98.73624
174.4833, 99.18690
174.9654, 98.59882
175.4475, 97.85068
175.9296, 96.81977
176.4117, 95.76894
176.8938, 95.14073
177.3760, 95.32276
177.8581, 96.34547
178.3402, 96.98758
178.8223, 96.86106
179.3044, 96.77848
179.7865, 97.19160
180.2687, 97.94107
180.7508, 98.47823
181.2329, 98.27637
181.7150, 97.23702
182.1971, 96.71540
182.6792, 96.94065
183.1614, 97.40439
183.6435, 97.88724
184.1256, 98.35363
184.6077, 98.80317
185.0898, 99.27415
185.5719, 99.75368
186.0541, 99.97155
186.5362, 99.67006
187.0183, 99.24732
187.5004, 99.08619
187.9825, 99.23476
188.4646, 99.46281
188.9468, 99.50127
189.4289, 99.42297
189.9110, 99.55917
190.3931, 100.1344
190.8752, 100.9230
191.3573, 101.6021
191.8395, 102.1545
192.3216, 102.5774
192.8037, 102.7998
193.2858, 102.8920
193.7679, 103.0101
194.2500, 103.2855
194.7322, 103.6470
195.2143, 103.8207
195.6964, 103.5812
196.1785, 103.5139
196.6606, 104.1096
197.1427, 105.1015
197.6249, 105.8897
198.1070, 105.9558
198.5891, 105.3946
199.0712, 105.1969
199.5533, 105.8107
200.0354, 106.3031
200.5176, 106.2170
200.9997, 105.7238
201.4818, 105.2319
201.9639, 105.0734
202.4460, 105.2568
202.9281, 105.3922
203.4103, 105.1552
203.8924, 105.1736
204.3745, 105.9916
204.8566, 107.2900
205.3387, 108.2427
205.8208, 108.0368
206.3030, 106.4758
206.7851, 105.6014
207.2672, 105.9384
207.7493, 106.3867
208.2314, 106.5453
208.7135, 106.4245
209.1957, 106.2277
209.6778, 106.1279
210.1599, 106.1293
210.6420, 106.2208
211.1241, 106.2563
211.6062, 106.4804
212.0884, 107.1239
212.5705, 108.1242
213.0526, 109.2150
213.5347, 110.2584
214.0168, 111.2702
214.4989, 111.4234
214.9811, 109.9512
215.4632, 108.2948
215.9453, 107.3965
216.4274, 107.2996
216.9095, 107.4989
217.3916, 107.6471
217.8737, 107.7227
218.3559, 107.5833
218.8380, 106.8644
219.3201, 106.1625
219.8022, 106.1766
220.2843, 106.9576
220.7664, 107.5958
221.2486, 107.1775
221.7307, 105.9541
222.2128, 105.0501
222.6949, 104.8296
223.1770, 104.8929
223.6591, 104.8160
224.1413, 104.5757
224.6234, 104.2691
225.1055, 103.8823
225.5876, 103.4826
226.0697, 103.2220
226.5518, 103.4210
227.0340, 103.6361
227.5161, 102.9772
227.9982, 101.0796
228.4803, 99.58523
228.9624, 100.1486
229.4445, 101.5451
229.9267, 102.0895
230.4088, 100.7032
230.8909, 98.51451
231.3730, 97.82175
231.8551, 99.21612
232.3372, 100.6329
232.8194, 101.4034
233.3015, 101.6624
233.7836, 101.4269
234.2657, 100.5404
234.7478, 99.42398
235.2299, 99.11730
235.7121, 100.1100
236.1942, 100.9411
236.6763, 101.0269
237.1584, 100.8163
237.6405, 100.8066
238.1227, 101.2360
238.6048, 101.8921
239.0869, 102.1736
239.5690, 101.6284
240.0511, 101.5281
240.5332, 102.4173
241.0154, 103.6587
241.4975, 104.7020
241.9796, 105.3185
242.4617, 105.4901
242.9438, 105.0543
243.4259, 103.0346
243.9081, 102.0010
244.3902, 102.7237
244.8723, 104.2113
245.3544, 105.5961
245.8365, 106.5374
246.3186, 107.1662
246.8008, 107.7801
247.2829, 108.2908
247.7650, 108.9229
248.2471, 110.0422
248.7292, 111.1011
249.2113, 111.5152
249.6935, 111.1049
250.1756, 110.2417
250.6577, 109.6511
251.1398, 109.6321
251.6219, 109.4696
252.1040, 109.0605
252.5862, 108.5709
253.0683, 108.1513
253.5504, 107.8457
254.0325, 107.5856
254.5146, 107.2521
254.9967, 106.7240
255.4789, 106.3674
255.9610, 106.2373
256.4431, 106.2454
256.9252, 106.4320
257.4073, 106.7785
257.8894, 106.9891
258.3716, 106.5838
258.8537, 105.0387
259.3358, 104.3603
259.8179, 105.2743
260.3000, 106.6173
260.7821, 107.4116
261.2643, 107.4854
261.7464, 107.2197
262.2285, 106.9932
262.7106, 106.8070
263.1927, 106.6888
263.6748, 106.2580
264.1570, 106.1378
264.6391, 107.1397
265.1212, 109.2768
265.6033, 111.4440
266.0854, 112.5699
266.5675, 112.5721
267.0497, 112.6716
267.5318, 112.8718
268.0139, 113.1909
268.4960, 113.6509
268.9781, 114.2507
269.4602, 114.9641
269.9424, 115.7821
270.4245, 116.7116
270.9066, 117.7120
271.3887, 118.8683
271.8708, 120.0350
272.3529, 121.0459
272.8351, 121.9212
273.3172, 122.9033
273.7993, 124.2374
274.2814, 125.7686
274.7635, 127.0246
275.2456, 127.9956
275.7278, 128.6848
276.2099, 128.7363
276.6920, 128.2873
277.1741, 128.5127
277.6562, 130.1756
278.1383, 132.7806
278.6205, 135.2160
279.1026, 137.6972
279.5847, 139.5974
280.0668, 140.0365
280.5489, 139.3094
281.0310, 139.2677
281.5132, 141.0419
281.9953, 143.3036
282.4774, 144.2278
282.9595, 143.7081
283.4416, 142.5602
283.9237, 141.0197
284.4059, 139.1876
284.8880, 137.4641
285.3701, 135.9435
285.8522, 134.5860
286.3343, 133.3521
286.8164, 132.2361
287.2986, 131.1534
287.7807, 130.0428
288.2628, 128.9262
288.7449, 127.8703
289.2270, 126.8457
289.7091, 125.9577
290.1913, 125.2867
290.6734, 124.8047
291.1555, 124.4191
291.6376, 124.1456
292.1197, 123.9362
292.6018, 123.6336
293.0840, 123.1450
293.5661, 122.7782
294.0482, 123.0520
294.5303, 123.5706
295.0124, 123.5501
295.4945, 122.3779
295.9767, 120.6537
296.4588, 119.4127
296.9409, 118.6981
297.4230, 118.3243
297.9051, 118.4849
298.3872, 118.8404
298.8694, 119.0055
299.3515, 118.8736
299.8336, 118.5055
300.3157, 117.9943
300.7978, 117.3515
301.2799, 116.4650
301.7621, 114.9241
302.2442, 113.3030
302.7263, 112.1685
303.2084, 111.6768
303.6905, 111.3369
304.1726, 110.6993
304.6548, 109.7612
305.1369, 108.5875
305.6190, 106.9719
306.1011, 105.2874
306.5832, 103.8542
307.0653, 102.6858
307.5475, 101.5338
308.0296, 100.0981
308.5117, 98.42628
308.9938, 97.07656
309.4759, 96.24674
309.9580, 95.63717
310.4402, 95.08555
310.9223, 94.57405
311.4044, 94.05083
311.8865, 93.50719
312.3686, 92.93337
312.8507, 92.20847
313.3329, 91.06614
313.8150, 90.25684
314.2971, 90.51863
314.7792, 91.32065
315.2613, 91.63327
315.7434, 90.66405
316.2256, 89.13055
316.7077, 88.78445
317.1898, 90.20007
317.6719, 91.18736
318.1540, 90.33118
318.6361, 88.71830
319.1183, 87.45450
319.6004, 86.86430
320.0825, 86.71416
320.5646, 86.71086
321.0467, 86.84789
321.5288, 87.17715
322.0110, 87.89481
322.4931, 88.71082
322.9752, 89.43961
323.4573, 90.05207
323.9394, 90.51379
324.4215, 90.69200
324.9037, 90.59452
325.3858, 90.68652
325.8679, 91.14543
326.3500, 91.73194
326.8321, 92.39119
327.3142, 93.07149
327.7964, 93.50754
328.2785, 93.24320
328.7606, 92.50184
329.2427, 92.43192
329.7248, 93.40504
330.2069, 94.52812
330.6891, 95.49707
331.1712, 96.20737
331.6533, 96.37996
332.1354, 95.58333
332.6175, 94.32520
333.0996, 93.71019
333.5818, 93.94527
334.0639, 94.14566
334.5460, 93.71184
335.0281, 93.04726
335.5102, 92.64754
335.9923, 92.75394
336.4745, 92.88779
336.9566, 92.37763
337.4387, 91.17751
337.9208, 90.14570
338.4029, 89.58444
338.8850, 89.31741
339.3671, 89.22068
339.8492, 89.29745
340.3314, 89.36350
340.8135, 89.10976
341.2956, 88.64505
341.7777, 88.74258
342.2598, 89.87664
342.7419, 91.12278
343.2241, 91.66492
343.7062, 91.61205
344.1883, 91.46282
344.6704, 91.40569
345.1525, 91.42448
345.6346, 91.49268
346.1168, 91.61793
346.5989, 91.76233
347.0810, 91.88827
347.5631, 92.01447
348.0452, 92.20512
348.5273, 92.74438
349.0095, 93.11467
349.4916, 92.47855
349.9737, 90.80984
350.4558, 89.45734
350.9379, 89.15508
351.4200, 89.50893
351.9022, 89.83974
352.3843, 90.11923
352.8664, 90.37211
353.3485, 90.63165
353.8306, 90.88184
354.3127, 91.03423
354.7949, 91.00603
355.2770, 90.97126
355.7591, 91.28094
356.2412, 91.93831
356.7233, 92.24625
357.2054, 91.48713
357.6876, 90.37130
358.1697, 90.14234
358.6518, 91.04968
359.1339, 92.18682
359.6160, 92.77685
360.0981, 92.91158
360.5803, 93.08362
361.0624, 93.42930
361.5445, 93.77300
362.0266, 93.99782
362.5087, 94.09984
362.9908, 94.04953
363.4730, 93.76823
363.9551, 93.35819
364.4372, 93.12080
364.9193, 93.04927
365.4014, 93.13692
365.8835, 93.58781
366.3657, 94.17629
366.8478, 94.43604
367.3299, 94.19767
367.8120, 93.63707
368.2941, 92.94317
368.7762, 92.02635
369.2584, 91.37348
369.7405, 91.39538
370.2226, 91.51366
370.7047, 91.03556
371.1868, 89.91393
371.6689, 88.82348
372.1511, 88.39396
372.6332, 88.66553
373.1153, 88.74699
373.5974, 88.51627
374.0795, 88.23813
374.5616, 88.07518
375.0438, 87.97068
375.5259, 87.71085
376.0080, 87.13984
376.4901, 86.42761
376.9722, 86.19492
377.4543, 86.99698
377.9365, 87.55367
378.4186, 87.47270
378.9007, 87.20089
379.3828, 87.28735
379.8649, 87.86581
380.3470, 88.58504
380.8292, 88.96531
381.3113, 88.94344
381.7934, 88.71883
382.2755, 87.77319
382.7576, 87.09487
383.2397, 87.45757
383.7219, 88.65661
384.2040, 89.89500
384.6861, 90.54196
385.1682, 90.63731
385.6503, 90.78168
386.1324, 91.01286
386.6146, 91.25526
387.0967, 91.45497
387.5788, 91.67162
388.0609, 92.03916
388.5430, 92.61067
389.0251, 93.20411
389.5073, 93.39101
389.9894, 92.76431
390.4715, 92.59960
390.9536, 93.29751
391.4357, 94.14954
391.9178, 94.63063
392.4000, 94.75064
392.8821, 94.95882
393.3642, 95.78249
393.8463, 97.25242
394.3284, 98.32128
394.8105, 98.70087
395.2927, 98.99255
395.7748, 99.41111
396.2569, 99.88316
396.7390, 100.2951
397.2211, 100.6114
397.7032, 100.7892
398.1854, 100.6399
398.6675, 99.95678
399.1496, 99.57719
399.6317, 100.0595
400.1138, 100.7382
400.5959, 101.0935
401.0781, 101.0405
401.5602, 100.9181
402.0423, 100.9770
402.5244, 101.2180
403.0065, 101.6801
403.4886, 102.4610
403.9708, 103.3360
404.4529, 104.2860
404.9350, 105.2152
405.4171, 105.8396
405.8992, 105.8825
406.3813, 105.6252
406.8635, 105.5065
407.3456, 105.5420
407.8277, 105.5639
408.3098, 105.4091
408.7919, 105.2347
409.2740, 105.2958
409.7562, 105.6457
410.2383, 106.1289
410.7204, 106.6769
411.2025, 107.2883
411.6846, 108.0608
412.1667, 109.1451
412.6489, 110.0423
413.1310, 109.9420
413.6131, 108.8809
414.0952, 108.0525
414.5773, 107.6324
415.0594, 107.5504
415.5416, 108.1236
416.0237, 109.1976
416.5058, 109.5228
416.9879, 107.9809
417.4700, 105.1040
417.9521, 103.8176
418.4343, 105.2595
418.9164, 106.6311
419.3985, 107.2396
419.8806, 107.2976
420.3627, 107.0386
420.8448, 106.5424
421.3270, 105.9390
421.8091, 105.4096
422.2912, 104.9516
422.7733, 104.6038
423.2554, 104.5502
423.7375, 104.4402
424.2197, 103.8851
424.7018, 103.0542
425.1839, 102.5480
425.6660, 102.8593
426.1481, 103.8092
426.6302, 104.1591
427.1124, 103.0645
427.5945, 102.3921
428.0766, 102.6107
428.5587, 103.2272
429.0408, 103.8033
429.5229, 104.1868
430.0051, 104.3973
430.4872, 104.4717
430.9693, 104.4311
431.4514, 104.1704
431.9335, 103.4027
432.4156, 102.6579
432.8978, 102.0174
433.3799, 101.5675
433.8620, 101.5185
434.3441, 102.2249
434.8262, 103.2445
435.3083, 103.1355
435.7905, 101.4088
436.2726, 99.91000
436.7547, 99.20312
437.2368, 99.07347
437.7189, 99.55186
438.2010, 100.6866
438.6832, 101.8116
439.1653, 102.2512
439.6474, 102.1452
440.1295, 102.3193
440.6116, 103.0804
441.0938, 103.7828
441.5759, 103.6958
442.0580, 103.0698
442.5401, 102.6622
443.0222, 102.6265
443.5043, 102.9422
443.9865, 103.8475
444.4686, 105.2408
444.9507, 106.2342
445.4328, 106.3280
445.9149, 105.8467
446.3970, 105.4756
446.8792, 105.1199
447.3613, 105.0875
447.8434, 105.7797
448.3255, 106.6947
448.8076, 107.0709
449.2897, 106.8219
449.7719, 106.7136
450.2540, 107.5820
450.7361, 109.5089
451.2182, 110.5824
451.7003, 110.4621
452.1824, 110.0085
452.6646, 109.1698
453.1467, 108.2869
453.6288, 107.9468
454.1109, 108.4074
454.5930, 109.3085
455.0751, 109.9685
455.5573, 110.4700
456.0394, 110.5237
456.5215, 109.7694
457.0036, 108.9501
457.4857, 108.2505
457.9678, 107.8515
458.4500, 108.1508
458.9321, 109.6651
459.4142, 112.0591
459.8963, 113.2946
460.3784, 112.6748
460.8605, 112.1067
461.3427, 112.1208
461.8248, 112.4088
462.3069, 112.7131
462.7890, 112.9689
463.2711, 113.1628
463.7532, 113.1816
464.2354, 113.0559
464.7175, 113.3010
465.1996, 114.3339
465.6817, 115.1621
466.1638, 114.6941
466.6459, 113.4739
467.1281, 112.9191
467.6102, 114.0476
468.0923, 115.5440
468.5744, 115.6982
469.0565, 114.6834
469.5386, 114.3519
470.0208, 115.7251
470.5029, 117.7767
470.9850, 118.5965
471.4671, 118.0150
471.9492, 117.5430
472.4313, 117.5212
472.9135, 117.8178
473.3956, 118.3355
473.8777, 119.0462
474.3598, 119.8795
474.8419, 120.7705
475.3240, 121.7350
475.8062, 122.9124
476.2883, 124.5372
476.7704, 126.0642
477.2525, 127.3312
477.7346, 128.4642
478.2167, 129.5401
478.6989, 130.6111
479.1810, 131.8000
479.6631, 133.2782
480.1452, 135.0488
480.6273, 137.0559
481.1094, 139.8457
481.5916, 142.2978
482.0737, 143.7708
482.5558, 144.6971
483.0379, 145.8922
483.5200, 147.7933
484.0021, 149.9493
484.4843, 151.3951
484.9664, 151.9051
485.4485, 152.7603
485.9306, 154.0911
486.4127, 155.9807
486.8948, 158.8254
487.3770, 162.4253
487.8591, 165.6956
488.3412, 167.7401
488.8233, 169.1207
489.3054, 170.9297
489.7875, 173.2010
490.2697, 175.5575
490.7518, 177.9160
491.2339, 180.1569
491.7160, 182.0102
492.1981, 183.1809
492.6802, 184.7975
493.1624, 187.9629
493.6445, 191.6224
494.1266, 194.1819
494.6087, 195.3861
495.0908, 195.8686
495.5729, 196.0990
496.0551, 196.0794
496.5372, 196.1306
497.0193, 196.0994
497.5014, 196.3005
497.9835, 197.4307
498.4656, 198.6435
498.9478, 198.5913
499.4299, 196.8845
499.9120, 194.5020
500.3941, 192.8513
500.8762, 192.0790
501.3583, 191.4167
501.8405, 191.1806
502.3226, 190.7331
502.8047, 189.7932
503.2868, 188.4805
503.7689, 187.0139
504.2510, 185.4653
504.7331, 183.9253
505.2152, 182.6260
505.6974, 181.6419
506.1795, 180.4299
506.6616, 178.9754
507.1437, 177.1432
507.6258, 174.6806
508.1079, 171.6948
508.5901, 168.8516
509.0722, 166.6435
509.5543, 164.6780
510.0364, 162.1831
510.5185, 159.1753
511.0006, 156.6795
511.4828, 155.3977
511.9649, 154.7324
512.4470, 153.4668
512.9291, 151.5973
513.4113, 149.3137
513.8934, 146.1746
514.3755, 142.9498
514.8576, 140.7063
515.3397, 139.3704
515.8218, 137.7514
516.3040, 134.8336
516.7861, 130.9043
517.2682, 128.0893
517.7503, 127.1638
518.2324, 126.4341
518.7145, 125.9146
519.1967, 125.4185
519.6788, 124.7765
520.1609, 123.9629
520.6430, 123.0497
521.1251, 122.0168
521.6072, 120.8775
522.0894, 120.3515
522.5715, 121.0585
523.0536, 121.3833
523.5357, 120.5354
524.0178, 119.1676
524.4999, 118.0109
524.9821, 117.2541
525.4642, 116.6478
525.9463, 115.9981
526.4284, 115.3115
526.9105, 114.5451
527.3926, 113.6197
527.8748, 112.8610
528.3569, 112.7670
528.8390, 113.0677
529.3211, 112.8144
529.8032, 111.5626
530.2853, 110.1407
530.7675, 108.8927
531.2496, 107.8140
531.7317, 106.9828
532.2138, 106.4228
532.6959, 105.8293
533.1780, 104.8165
533.6602, 103.3094
534.1423, 101.8235
534.6244, 100.2008
535.1065, 98.75388
535.5886, 97.62459
536.0707, 96.74360
536.5529, 96.07011
537.0350, 95.58231
537.5171, 95.08875
537.9992, 94.13954
538.4813, 92.49737
538.9634, 91.65144
539.4456, 92.34949
539.9277, 93.12349
540.4098, 93.33041
540.8919, 93.11637
541.3740, 92.77365
541.8561, 92.32316
542.3383, 91.98775
542.8204, 92.25195
543.3025, 93.01427
543.7846, 93.26524
544.2667, 92.67049
544.7488, 91.66216
545.2310, 90.39844
545.7131, 88.95340
546.1952, 88.31627
546.6773, 89.13261
547.1594, 90.34082
547.6415, 91.56763
548.1237, 92.62527
548.6058, 93.03677
549.0879, 92.58457
549.5700, 91.79800
550.0521, 91.58049
550.5342, 92.25243
551.0164, 92.51443
551.4985, 92.23490
551.9806, 91.74908
552.4627, 91.16574
552.9448, 90.48884
553.4269, 89.68824
553.9091, 88.74731
554.3912, 87.69911
554.8733, 86.58195
555.3554, 85.37653
555.8375, 84.18810
556.3196, 82.89839
556.8018, 81.79295
557.2839, 81.18824
557.7660, 80.89613
558.2481, 80.38589
558.7302, 79.34489
559.2123, 78.15958
559.6945, 77.08833
560.1766, 76.18046
560.6587, 75.75325
561.1408, 75.99871
561.6229, 76.43152
562.1050, 76.41460
562.5872, 75.84773
563.0693, 75.54919
563.5514, 75.86266
564.0335, 76.11023
564.5156, 75.73972
564.9977, 75.10081
565.4799, 74.88883
565.9620, 75.37471
566.4441, 76.17406
566.9262, 76.65469
567.4083, 76.68503
567.8904, 76.93176
568.3726, 77.68245
568.8547, 78.35630
569.3368, 78.45576
569.8189, 78.42313
570.3010, 79.08324
570.7831, 80.85055
571.2653, 82.83668
571.7474, 83.86932
572.2295, 84.09132
572.7116, 84.56510
573.1937, 85.20943
573.6758, 86.74720
574.1580, 90.13638
574.6401, 95.00684
575.1222, 99.92437
575.6043, 104.2812
576.0864, 109.1955
576.5685, 114.7929
577.0507, 121.3967
577.5328, 129.9744
578.0149, 140.6561
578.4970, 151.8826
578.9791, 162.1390
579.4612, 171.4463
579.9434, 179.2568
580.4255, 185.1357
580.9076, 189.9506
581.3897, 193.2697
581.8718, 195.9504
582.3539, 198.4491
582.8361, 201.0613
583.3182, 204.7385
583.8003, 210.9377
584.2824, 219.2962
584.7645, 226.8150
585.2466, 232.9739
585.7288, 239.8613
