##NAMES=Chlorapatite
##RRUFFID=R060192
##IDEAL CHEMISTRY=Ca_5_(PO_4_)_3_Cl
##LOCALITY=Parelhas, Rio Grande de Norte, Brazil
##OWNER=RRUFF
##SOURCE=Luiz Menezes
##DESCRIPTION=Colorless to gray fine-grained parallel aggregates
##STATUS=The identification of this mineral has been confirmed by X-ray diffraction and chemical analysis
##URL=rruff.info/R060192
##MEASURED CHEMISTRY=(Ca_4.97_Mn_0.03_)_Σ=5_(P_1.00_O_4_)_3_(Cl_0.69_(OH)_0.29_F_0.02_)_Σ=1_ ; trace amounts of Sr ; (OH) estimated by difference and stoichiometry
91.40820, 237.2337
91.89032, 236.7746
92.37244, 236.8998
92.85455, 237.5520
93.33667, 238.3883
93.81879, 238.8572
94.30090, 239.2649
94.78302, 240.7303
95.26514, 244.0355
95.74725, 248.0707
96.22937, 250.0125
96.71149, 249.6796
97.19360, 249.1120
97.67572, 250.2561
98.15784, 253.0700
98.63995, 256.1826
99.12207, 258.7639
99.60419, 261.0959
100.0863, 266.0566
100.5684, 274.0126
101.0505, 283.9083
101.5327, 294.5771
102.0148, 305.8400
102.4969, 318.1867
102.9790, 331.2274
103.4611, 344.0270
103.9432, 362.1104
104.4253, 385.8526
104.9075, 414.6248
105.3896, 446.3158
105.8717, 479.9843
106.3538, 518.2908
106.8359, 563.1688
107.3180, 616.5834
107.8002, 672.3934
108.2823, 729.7775
108.7644, 789.2736
109.2465, 855.3446
109.7286, 926.1232
110.2107, 1003.964
110.6929, 1091.223
111.1750, 1184.757
111.6571, 1290.151
112.1392, 1406.712
112.6213, 1534.879
113.1034, 1680.148
113.5856, 1854.197
114.0677, 2042.066
114.5498, 2231.464
115.0319, 2427.649
115.5140, 2619.621
115.9961, 2803.515
116.4783, 2979.227
116.9604, 3146.163
117.4425, 3309.387
117.9246, 3464.114
118.4067, 3603.886
118.8888, 3713.592
119.3710, 3818.807
119.8531, 3931.950
120.3352, 4053.167
120.8173, 4184.467
121.2994, 4326.561
121.7815, 4478.625
122.2637, 4639.926
122.7458, 4802.444
123.2279, 4976.053
123.7100, 5171.707
124.1921, 5392.775
124.6742, 5626.608
125.1564, 5866.438
125.6385, 6110.677
126.1206, 6355.337
126.6027, 6596.631
127.0848, 6835.122
127.5669, 7070.223
128.0491, 7302.276
128.5312, 7530.021
129.0133, 7754.806
129.4954, 7974.118
129.9775, 8183.556
130.4596, 8380.630
130.9418, 8563.915
131.4239, 8735.437
131.9060, 8895.758
132.3881, 9044.710
132.8702, 9177.488
133.3523, 9294.246
133.8345, 9401.814
134.3166, 9499.937
134.7987, 9589.719
135.2808, 9691.013
135.7629, 9811.859
136.2450, 9949.188
136.7272, 10083.27
137.2093, 10213.10
137.6914, 10345.09
138.1735, 10484.74
138.6556, 10630.52
139.1377, 10788.69
139.6199, 10967.38
140.1020, 11164.92
140.5841, 11348.57
141.0662, 11511.14
141.5483, 11666.61
142.0304, 11831.73
142.5126, 12006.12
142.9947, 12183.09
143.4768, 12323.61
143.9589, 12402.12
144.4410, 12471.42
144.9231, 12534.70
145.4053, 12588.31
145.8874, 12626.59
146.3695, 12641.55
146.8516, 12653.38
147.3337, 12668.99
147.8158, 12694.55
148.2980, 12709.43
148.7801, 12709.99
149.2622, 12701.12
149.7443, 12692.31
150.2264, 12677.11
150.7085, 12667.54
151.1907, 12668.39
151.6728, 12689.04
152.1549, 12703.77
152.6370, 12708.16
153.1191, 12705.93
153.6012, 12706.38
154.0834, 12705.33
154.5655, 12710.06
155.0476, 12724.18
155.5297, 12758.96
156.0118, 12787.36
156.4939, 12800.86
156.9761, 12804.00
157.4582, 12811.72
157.9403, 12832.29
158.4224, 12855.12
158.9045, 12874.11
159.3866, 12885.00
159.8688, 12895.45
160.3509, 12905.27
160.8330, 12915.53
161.3151, 12931.02
161.7972, 12959.48
162.2793, 12990.86
162.7615, 13017.49
163.2436, 13034.43
163.7257, 13049.05
164.2078, 13066.12
164.6899, 13084.69
165.1720, 13098.02
165.6541, 13098.04
166.1363, 13092.90
166.6184, 13090.63
167.1005, 13091.47
167.5826, 13097.59
168.0647, 13115.05
168.5468, 13142.60
169.0290, 13164.18
169.5111, 13162.30
169.9932, 13150.32
170.4753, 13145.91
170.9574, 13159.55
171.4395, 13181.22
171.9217, 13206.50
172.4038, 13235.30
172.8859, 13258.62
173.3680, 13263.89
173.8501, 13259.48
174.3322, 13260.15
174.8144, 13273.85
175.2965, 13295.18
175.7786, 13318.35
176.2607, 13343.50
176.7428, 13368.51
177.2249, 13390.66
177.7071, 13410.88
178.1892, 13432.18
178.6713, 13458.81
179.1534, 13486.34
179.6355, 13506.01
180.1176, 13516.83
180.5998, 13526.63
181.0819, 13543.08
181.5640, 13565.19
182.0461, 13590.39
182.5282, 13621.55
183.0103, 13654.30
183.4925, 13677.35
183.9746, 13689.13
184.4567, 13696.38
184.9388, 13704.82
185.4209, 13715.06
185.9030, 13729.85
186.3852, 13757.13
186.8673, 13791.15
187.3494, 13810.37
187.8315, 13811.59
188.3136, 13806.48
188.7957, 13808.55
189.2779, 13817.84
189.7600, 13834.29
190.2421, 13863.89
190.7242, 13902.89
191.2063, 13928.15
191.6884, 13935.44
192.1706, 13936.28
192.6527, 13950.24
193.1348, 13977.32
193.6169, 14003.47
194.0990, 14019.33
194.5811, 14025.67
195.0633, 14038.87
195.5454, 14061.12
196.0275, 14087.05
196.5096, 14104.32
196.9917, 14111.92
197.4738, 14122.83
197.9560, 14149.51
198.4381, 14192.11
198.9202, 14215.58
199.4023, 14213.87
199.8844, 14199.32
200.3665, 14194.30
200.8487, 14199.14
201.3308, 14212.44
201.8129, 14238.17
202.2950, 14278.26
202.7771, 14305.07
203.2592, 14313.01
203.7414, 14312.54
204.2235, 14328.58
204.7056, 14365.31
205.1877, 14401.10
205.6698, 14421.42
206.1519, 14421.76
206.6341, 14436.45
207.1162, 14470.91
207.5983, 14515.82
208.0804, 14551.20
208.5625, 14576.10
209.0446, 14593.11
209.5268, 14599.19
210.0089, 14588.78
210.4910, 14596.08
210.9731, 14629.13
211.4552, 14675.77
211.9373, 14704.87
212.4195, 14710.03
212.9016, 14714.31
213.3837, 14728.45
213.8658, 14754.28
214.3479, 14784.72
214.8300, 14822.01
215.3121, 14862.67
215.7943, 14899.30
216.2764, 14933.41
216.7585, 14959.19
217.2406, 14971.03
217.7227, 14960.58
218.2048, 14962.31
218.6870, 14979.80
219.1691, 15007.48
219.6512, 15033.72
220.1333, 15059.68
220.6154, 15081.87
221.0975, 15098.16
221.5797, 15104.85
222.0618, 15116.32
222.5439, 15134.29
223.0260, 15156.55
223.5081, 15179.23
223.9902, 15204.92
224.4724, 15227.15
224.9545, 15241.69
225.4366, 15244.22
225.9187, 15253.40
226.4008, 15271.34
226.8829, 15295.32
227.3651, 15319.38
227.8472, 15342.87
228.3293, 15367.90
228.8114, 15395.68
229.2935, 15427.36
229.7757, 15457.38
230.2578, 15485.15
230.7399, 15510.84
231.2220, 15534.99
231.7041, 15555.54
232.1862, 15576.88
232.6684, 15599.99
233.1505, 15623.86
233.6326, 15653.28
234.1147, 15694.78
234.5968, 15738.25
235.0789, 15762.13
235.5611, 15749.82
236.0432, 15745.10
236.5253, 15765.58
237.0074, 15821.11
237.4895, 15864.88
237.9716, 15892.44
238.4538, 15911.13
238.9359, 15932.80
239.4180, 15961.05
239.9001, 15986.80
240.3822, 16004.96
240.8643, 16010.94
241.3465, 16031.61
241.8286, 16077.85
242.3107, 16131.06
242.7928, 16163.52
243.2749, 16163.17
243.7570, 16162.48
244.2392, 16169.41
244.7213, 16184.44
245.2034, 16205.02
245.6855, 16235.34
246.1676, 16268.00
246.6497, 16293.59
247.1319, 16309.49
247.6140, 16323.34
248.0961, 16334.89
248.5782, 16342.98
249.0603, 16363.47
249.5424, 16405.26
250.0246, 16451.49
250.5067, 16482.46
250.9888, 16487.14
251.4709, 16498.61
251.9530, 16525.96
252.4351, 16570.36
252.9173, 16609.10
253.3994, 16639.46
253.8815, 16667.27
254.3636, 16699.08
254.8457, 16738.38
255.3278, 16771.85
255.8100, 16794.83
256.2921, 16807.62
256.7742, 16824.44
257.2563, 16845.34
257.7384, 16870.05
258.2205, 16898.39
258.7026, 16931.57
259.1848, 16966.91
259.6669, 17006.79
260.1490, 17049.99
260.6311, 17080.28
261.1132, 17091.94
261.5953, 17100.64
262.0775, 17118.64
262.5596, 17150.53
263.0417, 17178.65
263.5238, 17199.43
264.0059, 17214.76
264.4880, 17235.61
264.9702, 17263.96
265.4523, 17293.01
265.9344, 17317.25
266.4165, 17334.05
266.8986, 17356.46
267.3807, 17388.93
267.8629, 17426.59
268.3450, 17453.44
268.8271, 17467.46
269.3092, 17476.84
269.7913, 17485.56
270.2734, 17493.24
270.7556, 17503.28
271.2377, 17515.57
271.7198, 17531.49
272.2019, 17554.47
272.6840, 17585.81
273.1661, 17621.20
273.6483, 17661.31
274.1304, 17707.77
274.6125, 17743.12
275.0946, 17762.34
275.5767, 17775.87
276.0588, 17803.43
276.5410, 17847.00
277.0231, 17891.44
277.5052, 17927.37
277.9873, 17954.28
278.4694, 17990.93
278.9515, 18039.97
279.4337, 18091.81
279.9158, 18133.07
280.3979, 18162.87
280.8800, 18188.75
281.3621, 18213.38
281.8442, 18236.51
282.3264, 18252.92
282.8085, 18261.66
283.2906, 18268.38
283.7727, 18277.36
284.2548, 18288.80
284.7369, 18309.69
285.2191, 18347.80
285.7012, 18396.49
286.1833, 18425.05
286.6654, 18430.55
287.1475, 18436.07
287.6296, 18467.37
288.1118, 18521.75
288.5939, 18570.90
289.0760, 18607.78
289.5581, 18635.38
290.0402, 18663.45
290.5223, 18692.17
291.0045, 18714.42
291.4866, 18719.55
291.9687, 18711.79
292.4508, 18711.74
292.9329, 18723.89
293.4150, 18744.34
293.8972, 18770.21
294.3793, 18800.98
294.8614, 18828.76
295.3435, 18845.92
295.8256, 18856.01
296.3077, 18868.24
296.7899, 18883.67
297.2720, 18901.81
297.7541, 18920.23
298.2362, 18939.83
298.7183, 18965.14
299.2004, 19004.31
299.6826, 19049.41
300.1647, 19085.86
300.6468, 19111.44
301.1289, 19132.68
301.6110, 19155.23
302.0931, 19178.42
302.5753, 19201.57
303.0574, 19224.68
303.5395, 19247.07
304.0216, 19266.82
304.5037, 19284.02
304.9858, 19301.68
305.4680, 19321.37
305.9501, 19343.64
306.4322, 19369.35
306.9143, 19402.35
307.3964, 19436.96
307.8785, 19470.00
308.3607, 19501.25
308.8428, 19528.40
309.3249, 19546.06
309.8070, 19560.23
310.2891, 19578.02
310.7712, 19603.79
311.2534, 19630.61
311.7355, 19651.79
312.2176, 19669.21
312.6997, 19689.81
313.1818, 19710.70
313.6639, 19739.25
314.1461, 19786.08
314.6282, 19866.83
315.1103, 19935.34
315.5924, 19958.05
316.0745, 19951.79
316.5566, 19951.99
317.0388, 19980.76
317.5209, 20014.44
318.0030, 20039.09
318.4851, 20050.62
318.9672, 20063.76
319.4493, 20087.37
319.9315, 20114.66
320.4136, 20136.89
320.8957, 20141.40
321.3778, 20149.59
321.8599, 20172.99
322.3420, 20213.99
322.8242, 20247.05
323.3063, 20256.63
323.7884, 20260.79
324.2705, 20275.29
324.7526, 20314.57
325.2347, 20351.86
325.7169, 20378.82
326.1990, 20396.72
326.6811, 20419.81
327.1632, 20449.50
327.6453, 20484.30
328.1274, 20523.46
328.6096, 20583.61
329.0917, 20627.52
329.5738, 20646.30
330.0559, 20647.21
330.5380, 20653.74
331.0201, 20668.29
331.5023, 20685.93
331.9844, 20704.23
332.4665, 20719.96
332.9486, 20744.52
333.4307, 20783.54
333.9128, 20828.24
334.3950, 20861.44
334.8771, 20873.88
335.3592, 20892.92
335.8413, 20930.68
336.3234, 20990.85
336.8055, 21032.50
337.2877, 21049.24
337.7698, 21055.57
338.2519, 21066.07
338.7340, 21080.15
339.2161, 21100.92
339.6982, 21131.84
340.1803, 21170.44
340.6624, 21198.63
341.1446, 21214.75
341.6267, 21227.16
342.1088, 21239.69
342.5909, 21251.89
343.0730, 21275.48
343.5551, 21314.15
344.0373, 21362.18
344.5194, 21410.06
345.0015, 21458.75
345.4836, 21494.59
345.9657, 21496.70
346.4478, 21474.40
346.9300, 21485.49
347.4121, 21540.77
347.8942, 21603.28
348.3763, 21616.04
348.8584, 21587.60
349.3405, 21567.90
349.8227, 21585.42
350.3048, 21626.27
350.7869, 21663.31
351.2690, 21696.65
351.7511, 21726.77
352.2332, 21746.83
352.7154, 21763.98
353.1975, 21794.46
353.6796, 21851.68
354.1617, 21915.53
354.6438, 21962.29
355.1259, 21994.18
355.6081, 22024.39
356.0902, 22061.57
356.5723, 22101.21
357.0544, 22138.01
357.5365, 22168.83
358.0186, 22199.27
358.5008, 22233.89
358.9829, 22270.63
359.4650, 22305.27
359.9471, 22340.04
360.4292, 22369.17
360.9113, 22387.39
361.3935, 22392.92
361.8756, 22397.81
362.3577, 22405.47
362.8398, 22416.22
363.3219, 22430.43
363.8040, 22451.18
364.2862, 22473.26
364.7683, 22495.50
365.2504, 22518.13
365.7325, 22541.25
366.2146, 22565.57
366.6967, 22590.41
367.1789, 22615.35
367.6610, 22640.63
368.1431, 22665.82
368.6252, 22692.40
369.1073, 22719.25
369.5894, 22742.25
370.0716, 22754.33
370.5537, 22769.92
371.0358, 22795.52
371.5179, 22836.56
372.0000, 22870.04
372.4821, 22888.54
372.9643, 22903.94
373.4464, 22934.04
373.9285, 22988.64
374.4106, 23035.44
374.8927, 23063.18
375.3748, 23072.82
375.8570, 23096.10
376.3391, 23137.19
376.8212, 23182.81
377.3033, 23223.49
377.7854, 23258.90
378.2675, 23288.44
378.7497, 23309.51
379.2318, 23327.42
379.7139, 23361.45
380.1960, 23413.59
380.6781, 23457.16
381.1602, 23468.37
381.6424, 23454.00
382.1245, 23457.37
382.6066, 23482.67
383.0887, 23517.82
383.5708, 23549.77
384.0529, 23578.96
384.5351, 23608.52
385.0172, 23640.42
385.4993, 23672.71
385.9814, 23702.88
386.4635, 23730.68
386.9456, 23757.60
387.4278, 23780.91
387.9099, 23804.35
388.3920, 23835.68
388.8741, 23881.26
389.3562, 23926.68
389.8383, 23959.61
390.3205, 23982.49
390.8026, 24001.47
391.2847, 24012.30
391.7668, 24025.13
392.2489, 24050.64
392.7310, 24092.86
393.2132, 24131.88
393.6953, 24154.39
394.1774, 24169.06
394.6595, 24186.52
395.1416, 24214.54
395.6237, 24241.58
396.1059, 24261.00
396.5880, 24273.67
397.0701, 24293.08
397.5522, 24332.09
398.0343, 24371.99
398.5164, 24401.63
398.9986, 24408.37
399.4807, 24420.40
399.9628, 24439.62
400.4449, 24464.78
400.9270, 24492.89
401.4091, 24520.76
401.8913, 24555.72
402.3734, 24603.68
402.8555, 24669.72
403.3376, 24718.43
403.8197, 24741.19
404.3018, 24756.43
404.7840, 24785.67
405.2661, 24834.81
405.7482, 24876.54
406.2303, 24904.21
406.7124, 24920.61
407.1945, 24938.09
407.6767, 24956.07
408.1588, 24976.44
408.6409, 24997.31
409.1230, 25019.31
409.6051, 25058.34
410.0872, 25119.80
410.5694, 25187.14
411.0515, 25237.19
411.5336, 25271.25
412.0157, 25295.03
412.4978, 25306.13
412.9799, 25310.53
413.4621, 25318.97
413.9442, 25331.79
414.4263, 25349.23
414.9084, 25372.30
415.3905, 25400.39
415.8727, 25433.48
416.3548, 25474.88
416.8369, 25516.47
417.3190, 25552.29
417.8011, 25582.96
418.2832, 25610.66
418.7654, 25637.35
419.2475, 25660.09
419.7296, 25670.21
420.2117, 25661.93
420.6938, 25672.20
421.1759, 25737.11
421.6581, 25818.80
422.1402, 25878.02
422.6223, 25879.79
423.1044, 25884.20
423.5865, 25906.42
424.0686, 25944.52
424.5508, 25983.24
425.0329, 26029.40
425.5150, 26069.09
425.9971, 26094.00
426.4792, 26087.45
426.9613, 26102.46
427.4435, 26153.07
427.9256, 26217.87
428.4077, 26260.92
428.8898, 26271.21
429.3719, 26285.97
429.8540, 26317.29
430.3362, 26363.52
430.8183, 26403.91
431.3004, 26439.10
431.7825, 26465.91
432.2646, 26477.31
432.7467, 26473.15
433.2289, 26476.16
433.7110, 26489.49
434.1931, 26510.60
434.6752, 26537.17
435.1573, 26568.54
435.6394, 26599.15
436.1216, 26621.26
436.6037, 26641.32
437.0858, 26676.38
437.5679, 26727.17
438.0500, 26778.47
438.5321, 26819.02
439.0142, 26850.66
439.4963, 26875.96
439.9785, 26892.82
440.4606, 26908.10
440.9427, 26923.01
441.4248, 26940.39
441.9069, 26968.06
442.3890, 27030.26
442.8712, 27090.06
443.3533, 27118.66
443.8354, 27105.62
444.3175, 27099.42
444.7996, 27118.87
445.2817, 27151.96
445.7639, 27186.26
446.2460, 27214.46
446.7281, 27248.85
447.2102, 27294.51
447.6923, 27349.32
448.1744, 27398.41
448.6566, 27438.51
449.1387, 27475.39
449.6208, 27511.82
450.1029, 27549.93
450.5850, 27580.14
451.0671, 27598.13
451.5493, 27612.22
452.0314, 27635.51
452.5135, 27670.75
452.9956, 27703.14
453.4777, 27728.20
453.9598, 27747.51
454.4420, 27768.14
454.9241, 27790.27
455.4062, 27811.83
455.8883, 27827.74
456.3704, 27840.83
456.8525, 27867.04
457.3347, 27911.23
457.8168, 27955.23
458.2989, 27968.09
458.7810, 27960.54
459.2631, 27963.61
459.7452, 28005.00
460.2274, 28055.82
460.7095, 28078.65
461.1916, 28077.82
461.6737, 28083.46
462.1558, 28118.77
462.6379, 28166.51
463.1201, 28211.85
463.6022, 28253.54
464.0843, 28289.18
464.5664, 28310.84
465.0485, 28326.89
465.5306, 28350.78
466.0128, 28403.32
466.4949, 28446.24
466.9770, 28457.85
467.4591, 28436.28
467.9412, 28442.32
468.4233, 28506.70
468.9055, 28573.70
469.3876, 28609.73
469.8697, 28591.88
470.3518, 28595.04
470.8339, 28628.31
471.3160, 28678.92
471.7982, 28723.86
472.2803, 28762.43
472.7624, 28798.77
473.2445, 28832.01
473.7266, 28863.58
474.2087, 28903.12
474.6909, 28951.02
475.1730, 28999.78
475.6551, 29043.06
476.1372, 29081.02
476.6193, 29112.75
477.1014, 29134.12
477.5836, 29159.42
478.0657, 29215.78
478.5478, 29291.92
479.0299, 29354.81
479.5120, 29380.58
479.9941, 29392.46
480.4763, 29411.57
480.9584, 29437.59
481.4405, 29461.58
481.9226, 29469.18
482.4047, 29478.62
482.8868, 29506.95
483.3690, 29568.89
483.8511, 29625.88
484.3332, 29667.57
484.8153, 29697.40
485.2974, 29721.81
485.7795, 29739.39
486.2617, 29753.60
486.7438, 29760.48
487.2259, 29760.53
487.7080, 29777.53
488.1901, 29819.71
488.6722, 29868.55
489.1544, 29913.63
489.6365, 29953.01
490.1186, 29996.32
490.6007, 30047.64
491.0828, 30097.58
491.5649, 30129.63
492.0471, 30142.63
492.5292, 30155.72
493.0113, 30171.71
493.4934, 30193.15
493.9755, 30232.67
494.4576, 30288.78
494.9398, 30342.68
495.4219, 30380.60
495.9040, 30406.12
496.3861, 30422.81
496.8682, 30429.98
497.3503, 30435.76
497.8325, 30440.93
498.3146, 30450.64
498.7967, 30473.02
499.2788, 30528.81
499.7609, 30582.29
500.2430, 30614.11
500.7252, 30628.44
501.2073, 30643.32
501.6894, 30663.07
502.1715, 30686.20
502.6536, 30714.75
503.1357, 30755.66
503.6179, 30782.15
504.1000, 30775.20
504.5821, 30765.79
505.0642, 30786.05
505.5463, 30849.87
506.0284, 30911.96
506.5106, 30967.00
506.9927, 31014.35
507.4748, 31049.13
507.9569, 31067.33
508.4390, 31089.86
508.9211, 31129.09
509.4033, 31182.70
509.8854, 31235.46
510.3675, 31288.02
510.8496, 31333.22
511.3317, 31357.67
511.8138, 31369.14
512.2960, 31389.81
512.7781, 31430.18
513.2602, 31470.98
513.7423, 31479.86
514.2244, 31472.90
514.7065, 31489.07
515.1887, 31581.82
515.6708, 31677.10
516.1529, 31718.46
516.6350, 31706.06
517.1171, 31699.79
517.5992, 31720.52
518.0814, 31754.49
518.5635, 31793.54
519.0456, 31843.09
519.5277, 31887.37
520.0098, 31923.03
520.4919, 31953.93
520.9741, 31985.66
521.4562, 32019.12
521.9383, 32050.00
522.4204, 32073.77
522.9025, 32093.25
523.3846, 32129.63
523.8668, 32185.70
524.3489, 32244.68
524.8310, 32298.68
525.3131, 32347.48
525.7952, 32387.64
526.2773, 32418.54
526.7595, 32444.60
527.2416, 32469.79
527.7237, 32493.91
528.2058, 32517.13
528.6879, 32541.38
529.1700, 32562.32
529.6522, 32572.60
530.1343, 32575.89
530.6164, 32582.56
531.0985, 32595.96
531.5806, 32616.21
532.0627, 32642.25
532.5449, 32673.75
533.0270, 32716.47
533.5091, 32783.33
533.9912, 32854.52
534.4733, 32915.05
534.9554, 32963.32
535.4376, 33000.92
535.9197, 33017.66
536.4018, 33027.77
536.8839, 33058.51
537.3660, 33121.49
537.8481, 33172.16
538.3303, 33192.50
538.8124, 33190.86
539.2945, 33219.87
539.7766, 33283.96
540.2587, 33341.60
540.7408, 33353.66
541.2230, 33334.88
541.7051, 33340.63
542.1872, 33376.63
542.6693, 33423.79
543.1514, 33469.96
543.6335, 33513.34
544.1157, 33551.54
544.5978, 33583.86
545.0799, 33611.14
545.5620, 33623.57
546.0441, 33630.70
546.5262, 33656.04
547.0084, 33731.10
547.4905, 33805.24
547.9726, 33855.57
548.4547, 33878.39
548.9368, 33903.50
549.4189, 33928.96
549.9011, 33960.41
550.3832, 34002.27
550.8653, 34062.05
551.3474, 34113.19
551.8295, 34152.44
552.3116, 34184.93
552.7938, 34217.29
553.2759, 34249.35
553.7580, 34282.54
554.2401, 34320.06
554.7222, 34356.64
555.2043, 34375.56
555.6865, 34378.38
556.1686, 34382.30
556.6507, 34392.61
557.1328, 34413.27
557.6149, 34458.03
558.0970, 34528.17
558.5792, 34591.19
559.0613, 34622.88
559.5434, 34636.55
560.0255, 34642.87
560.5076, 34631.34
560.9897, 34637.07
561.4719, 34687.86
561.9540, 34760.12
562.4361, 34813.76
562.9182, 34820.63
563.4003, 34834.46
563.8824, 34865.82
564.3646, 34912.16
564.8467, 34960.58
565.3288, 35014.08
565.8109, 35062.07
566.2930, 35097.87
566.7751, 35120.49
567.2573, 35140.16
567.7394, 35154.14
568.2215, 35176.98
568.7036, 35235.63
569.1857, 35318.06
569.6678, 35380.41
570.1500, 35409.64
570.6321, 35424.55
571.1142, 35439.74
571.5963, 35456.98
572.0784, 35479.93
572.5605, 35518.43
573.0427, 35556.83
573.5248, 35587.29
574.0069, 35610.13
574.4890, 35628.96
574.9711, 35637.37
575.4532, 35648.42
575.9354, 35669.17
576.4175, 35702.49
576.8996, 35737.87
577.3817, 35781.68
577.8638, 35820.89
578.3459, 35839.45
578.8281, 35826.97
579.3102, 35836.20
579.7923, 35878.32
580.2744, 35935.56
580.7565, 35971.77
581.2386, 35988.03
581.7208, 36006.87
582.2029, 36035.91
582.6850, 36073.55
583.1671, 36124.90
583.6492, 36186.50
584.1313, 36237.48
584.6135, 36251.30
585.0956, 36257.54
