##NAMES=Chloritoid
##RRUFFID=R060292
##IDEAL CHEMISTRY=Fe^2+^Al_2_OSiO_4_(OH)_2_
##LOCALITY=Pech, Kunar Province, Afghanistan
##OWNER=RRUFF
##SOURCE=Herb Obodda
##DESCRIPTION=Black tabular crystal
##STATUS=The identification of this mineral has been confirmed by X-ray diffraction and chemical analysis
##URL=rruff.info/R060292
##MEASURED CHEMISTRY=(Fe^2+^_1.55_Mg_0.43_Mn_0.02_)_Σ=2_(Al_3.93_Fe^3+^_0.07_)_Σ=4_Si_2.00_O_10_(OH)_4_
91.53320, 634.4118
92.01532, 631.7568
92.49744, 629.4405
92.97955, 638.4436
93.46167, 647.6437
93.94379, 646.0203
94.42590, 635.5432
94.90802, 621.8211
95.39014, 609.1233
95.87225, 597.5081
96.35437, 586.6423
96.83649, 577.4137
97.31860, 568.9141
97.80072, 559.9998
98.28284, 549.2117
98.76495, 536.6655
99.24707, 525.7783
99.72919, 517.6554
100.2113, 510.1062
100.6934, 502.2947
101.1755, 494.4335
101.6577, 487.2134
102.1398, 481.1637
102.6219, 476.4012
103.1040, 472.1422
103.5861, 468.7334
104.0682, 465.3028
104.5504, 461.6069
105.0325, 457.5141
105.5146, 452.6185
105.9967, 446.0675
106.4788, 436.4867
106.9609, 428.7635
107.4431, 424.3861
107.9252, 421.6281
108.4073, 418.1771
108.8894, 413.1885
109.3715, 407.3897
109.8536, 401.8780
110.3358, 396.3563
110.8179, 391.7516
111.3000, 389.4206
111.7821, 389.0405
112.2642, 387.3484
112.7463, 381.6817
113.2285, 374.9344
113.7106, 370.1176
114.1927, 368.0763
114.6748, 367.1175
115.1569, 364.9146
115.6390, 360.9451
116.1212, 356.9710
116.6033, 354.1182
117.0854, 351.2958
117.5675, 347.1511
118.0496, 340.7859
118.5317, 332.9005
119.0139, 326.9543
119.4960, 325.2250
119.9781, 323.2000
120.4602, 319.8463
120.9423, 315.6024
121.4244, 311.3885
121.9066, 307.9420
122.3887, 305.3470
122.8708, 302.2072
123.3529, 298.4359
123.8350, 294.3379
124.3171, 289.8644
124.7993, 285.0987
125.2814, 280.4415
125.7635, 276.3319
126.2456, 272.9380
126.7277, 269.1805
127.2098, 264.0763
127.6920, 259.0358
128.1741, 256.0527
128.6562, 255.9101
129.1383, 255.9995
129.6204, 252.1159
130.1025, 244.7152
130.5847, 238.5551
131.0668, 236.7157
131.5489, 237.8905
132.0310, 237.3231
132.5131, 232.6507
132.9952, 227.4275
133.4774, 225.0006
133.9595, 225.4035
134.4416, 226.1783
134.9237, 225.1951
135.4058, 222.2675
135.8879, 218.8384
136.3701, 213.7565
136.8522, 209.1659
137.3343, 206.9563
137.8164, 207.4800
138.2985, 208.7587
138.7806, 207.1268
139.2628, 200.0007
139.7449, 194.6418
140.2270, 192.3568
140.7091, 191.5286
141.1912, 190.8934
141.6733, 189.8819
142.1555, 188.5131
142.6376, 186.8620
143.1197, 183.8430
143.6018, 181.7551
144.0839, 181.3205
144.5660, 181.9291
145.0482, 182.7596
145.5303, 183.4396
146.0124, 183.8427
146.4945, 183.0147
146.9766, 180.1804
147.4587, 177.1869
147.9409, 174.6902
148.4230, 172.6722
148.9051, 170.9704
149.3872, 169.6170
149.8693, 168.5008
150.3514, 166.9857
150.8336, 164.3725
151.3157, 161.7808
151.7978, 160.5209
152.2799, 160.8201
152.7620, 160.9361
153.2441, 159.2702
153.7263, 156.5143
154.2084, 153.6513
154.6905, 150.3720
155.1726, 147.3066
155.6547, 146.0955
156.1368, 147.7462
156.6190, 149.4995
157.1011, 149.7977
157.5832, 149.1017
158.0653, 148.3034
158.5474, 148.1552
159.0295, 148.5503
159.5117, 148.0025
159.9938, 144.9386
160.4759, 142.4686
160.9580, 142.2522
161.4401, 143.6744
161.9222, 145.0169
162.4044, 144.5881
162.8865, 141.9442
163.3686, 140.1142
163.8507, 139.9285
164.3328, 139.7701
164.8149, 138.7244
165.2971, 136.8754
165.7792, 135.0661
166.2613, 134.2932
166.7434, 134.9716
167.2255, 135.6177
167.7076, 137.0531
168.1898, 137.9385
168.6719, 136.6501
169.1540, 133.0724
169.6361, 129.3316
170.1182, 128.6671
170.6003, 133.1577
171.0825, 135.4329
171.5646, 133.4284
172.0467, 129.7209
172.5288, 127.1725
173.0109, 126.6126
173.4930, 127.1899
173.9752, 127.6279
174.4573, 127.8303
174.9394, 128.3939
175.4215, 130.1134
175.9036, 132.3195
176.3857, 133.4778
176.8679, 133.0338
177.3500, 131.5092
177.8321, 129.3122
178.3142, 126.2669
178.7963, 124.0598
179.2784, 124.2823
179.7606, 126.6021
180.2427, 128.3346
180.7248, 128.8280
181.2069, 128.3231
181.6890, 126.6559
182.1711, 123.7442
182.6533, 121.2167
183.1354, 121.0870
183.6175, 123.7578
184.0996, 125.6336
184.5817, 125.5415
185.0638, 124.5758
185.5460, 122.9270
186.0281, 120.6902
186.5102, 118.5863
186.9923, 117.6699
187.4744, 118.2771
187.9565, 119.2531
188.4387, 120.8998
188.9208, 122.5414
189.4029, 123.5937
189.8850, 123.9059
190.3671, 123.8753
190.8492, 124.3286
191.3314, 125.9950
191.8135, 126.9079
192.2956, 126.9088
192.7777, 126.2337
193.2598, 124.8431
193.7419, 122.7589
194.2241, 120.4306
194.7062, 118.9441
195.1883, 119.2596
195.6704, 119.3809
196.1525, 119.0399
196.6346, 118.5570
197.1168, 118.2573
197.5989, 118.2741
198.0810, 118.6245
198.5631, 119.4120
199.0452, 121.6165
199.5273, 122.9597
200.0095, 122.4752
200.4916, 120.9740
200.9737, 119.7609
201.4558, 119.4138
201.9379, 119.7017
202.4200, 120.0098
202.9022, 120.5289
203.3843, 120.7684
203.8664, 120.1402
204.3485, 119.0373
204.8306, 118.6181
205.3127, 119.5622
205.7949, 121.3083
206.2770, 122.6015
206.7591, 123.4509
207.2412, 123.9244
207.7233, 123.9544
208.2054, 123.5897
208.6876, 123.1434
209.1697, 122.8126
209.6518, 122.3827
210.1339, 121.4146
210.6160, 119.5849
211.0981, 118.1154
211.5803, 118.4109
212.0624, 120.4770
212.5445, 121.9907
213.0266, 121.7147
213.5087, 120.7259
213.9908, 119.9906
214.4730, 119.6661
214.9551, 119.5005
215.4372, 119.1860
215.9193, 118.6658
216.4014, 118.3468
216.8836, 118.7718
217.3657, 119.2010
217.8478, 119.0010
218.3299, 118.0086
218.8120, 116.8448
219.2941, 116.3219
219.7763, 116.5099
220.2584, 117.1423
220.7405, 118.7636
221.2226, 120.4227
221.7047, 121.6703
222.1868, 122.3471
222.6690, 122.1922
223.1511, 120.3420
223.6332, 115.0162
224.1153, 112.1763
224.5974, 114.0829
225.0795, 117.1783
225.5617, 118.9449
226.0438, 118.6728
226.5259, 117.3388
227.0080, 116.6767
227.4901, 117.4389
227.9722, 117.4804
228.4544, 115.9711
228.9365, 114.2805
229.4186, 113.5961
229.9007, 114.2041
230.3828, 115.4065
230.8649, 115.9647
231.3471, 115.1525
231.8292, 114.8583
232.3113, 115.1202
232.7934, 115.8183
233.2755, 117.1010
233.7576, 118.9317
234.2398, 120.7933
234.7219, 121.8047
235.2040, 121.5079
235.6861, 121.0465
236.1682, 120.3164
236.6503, 119.4819
237.1325, 118.6393
237.6146, 117.8270
238.0967, 117.1195
238.5788, 116.6344
239.0609, 116.4372
239.5430, 116.3632
240.0252, 116.3265
240.5073, 116.4534
240.9894, 117.0402
241.4715, 118.1551
241.9536, 119.2290
242.4357, 119.3577
242.9179, 118.1847
243.4000, 117.6844
243.8821, 118.5097
244.3642, 119.8817
244.8463, 121.2921
245.3284, 122.6964
245.8106, 123.2799
246.2927, 121.5302
246.7748, 117.3194
247.2569, 114.1708
247.7390, 112.6810
248.2211, 112.4770
248.7033, 113.7012
249.1854, 116.6153
249.6675, 119.1025
250.1496, 118.6517
250.6317, 115.6665
251.1138, 112.5202
251.5960, 108.2024
252.0781, 104.5944
252.5602, 105.1585
253.0423, 110.9599
253.5244, 116.5550
254.0065, 115.9534
254.4887, 111.1833
254.9708, 107.6542
255.4529, 107.3550
255.9350, 108.7881
256.4171, 109.9856
256.8992, 110.8484
257.3813, 111.6668
257.8635, 113.0926
258.3456, 114.5892
258.8277, 115.0862
259.3098, 113.5369
259.7919, 111.2596
260.2740, 110.1267
260.7562, 110.2772
261.2383, 110.9714
261.7204, 112.2906
262.2025, 113.7878
262.6846, 114.8138
263.1667, 114.7964
263.6489, 114.7004
264.1310, 116.3967
264.6131, 120.5592
265.0952, 123.5716
265.5773, 122.4239
266.0594, 119.8325
266.5416, 118.2507
267.0237, 118.4054
267.5058, 119.5718
267.9879, 120.9854
268.4700, 122.7639
268.9521, 124.2288
269.4343, 125.0478
269.9164, 125.5038
270.3985, 125.5424
270.8806, 125.0809
271.3627, 124.8895
271.8448, 126.2291
272.3270, 129.5181
272.8091, 132.1780
273.2912, 133.3197
273.7733, 133.7838
274.2554, 133.8231
274.7375, 133.5206
275.2197, 133.2929
275.7018, 133.6424
276.1839, 134.6430
276.6660, 135.7250
277.1481, 136.8341
277.6302, 137.9960
278.1124, 139.1879
278.5945, 140.4271
279.0766, 141.7751
279.5587, 143.3130
280.0408, 145.0617
280.5229, 146.8589
281.0051, 149.5235
281.4872, 151.4715
281.9693, 151.8524
282.4514, 150.8456
282.9335, 149.2037
283.4156, 147.4013
283.8978, 145.4279
284.3799, 143.7896
284.8620, 143.0399
285.3441, 142.0694
285.8262, 140.3591
286.3083, 138.1265
286.7905, 135.8216
287.2726, 133.6448
287.7547, 131.6593
288.2368, 130.6562
288.7189, 132.6725
289.2010, 133.1639
289.6832, 129.4733
290.1653, 123.8115
290.6474, 119.5290
291.1295, 118.6719
291.6116, 120.4442
292.0938, 121.6720
292.5759, 122.0581
293.0580, 122.2624
293.5401, 122.6477
294.0222, 122.8624
294.5043, 122.3818
294.9865, 120.9486
295.4686, 119.0243
295.9507, 117.7320
296.4328, 117.3520
296.9149, 117.1628
297.3970, 117.3394
297.8792, 117.4909
298.3613, 117.2236
298.8434, 116.4343
299.3255, 115.4070
299.8076, 114.6424
300.2897, 114.3709
300.7719, 113.8281
301.2540, 113.1002
301.7361, 112.0535
302.2182, 110.1216
302.7003, 107.4688
303.1824, 105.2544
303.6646, 105.1911
304.1467, 108.2804
304.6288, 109.8633
305.1109, 109.6026
305.5930, 108.2544
306.0751, 105.2832
306.5573, 101.2925
307.0394, 97.93539
307.5215, 96.88027
308.0036, 98.32066
308.4857, 99.16312
308.9678, 99.52935
309.4500, 99.13363
309.9321, 97.45457
310.4142, 94.93171
310.8963, 92.39358
311.3784, 90.37814
311.8605, 88.83057
312.3427, 87.33183
312.8248, 85.19013
313.3069, 83.97323
313.7890, 84.43652
314.2711, 85.82216
314.7532, 87.28925
315.2354, 88.44261
315.7175, 89.19673
316.1996, 89.21394
316.6817, 87.70341
317.1638, 86.70629
317.6459, 86.58747
318.1281, 86.93892
318.6102, 87.47910
319.0923, 88.09653
319.5744, 88.71909
320.0565, 89.28313
320.5386, 89.99368
321.0208, 90.12695
321.5029, 88.94115
321.9850, 87.79457
322.4671, 87.71011
322.9492, 88.69209
323.4313, 89.85849
323.9135, 90.19280
324.3956, 89.47073
324.8777, 89.04692
325.3598, 88.91308
325.8419, 89.08385
326.3240, 89.85085
326.8062, 90.97308
327.2883, 91.82663
327.7704, 91.80664
328.2525, 91.00218
328.7346, 91.02797
329.2167, 92.99205
329.6989, 94.56175
330.1810, 94.88184
330.6631, 94.52109
331.1452, 94.41918
331.6273, 95.13786
332.1094, 96.25472
332.5916, 96.40023
333.0737, 94.95750
333.5558, 93.55031
334.0379, 92.16411
334.5200, 91.08275
335.0021, 90.84482
335.4843, 91.58173
335.9664, 92.44204
336.4485, 91.82157
336.9306, 88.89017
337.4127, 86.96632
337.8948, 87.06730
338.3770, 87.67885
338.8591, 88.10088
339.3412, 88.18790
339.8233, 88.00105
340.3055, 87.54173
340.7876, 86.78228
341.2697, 86.02958
341.7518, 84.77715
342.2339, 84.07983
342.7160, 84.45689
343.1982, 85.71951
343.6803, 87.45411
344.1624, 89.68303
344.6445, 92.11082
345.1266, 93.07832
345.6087, 91.38803
346.0909, 90.17570
346.5730, 90.89083
347.0551, 92.46011
347.5372, 93.42396
348.0193, 93.07255
348.5014, 92.29264
348.9836, 92.86913
349.4657, 95.30489
349.9478, 97.39883
350.4299, 98.39899
350.9120, 98.95175
351.3941, 99.33896
351.8763, 99.63242
352.3584, 100.1269
352.8405, 101.3256
353.3226, 103.2657
353.8047, 104.7066
354.2868, 105.3061
354.7690, 105.5117
355.2511, 105.3887
355.7332, 105.0713
356.2153, 105.0402
356.6974, 105.7191
357.1795, 106.9536
357.6617, 108.2018
358.1438, 109.5778
358.6259, 110.6921
359.1080, 111.0480
359.5901, 111.0582
360.0722, 111.4425
360.5544, 112.7312
361.0365, 114.1843
361.5186, 114.6523
362.0007, 114.0053
362.4828, 113.3654
362.9649, 113.1634
363.4471, 113.2225
363.9292, 113.3733
364.4113, 113.6278
364.8934, 113.8465
365.3755, 114.2153
365.8576, 114.5722
366.3398, 113.8484
366.8219, 111.2044
367.3040, 108.2834
367.7861, 106.9437
368.2682, 107.0287
368.7503, 107.0947
369.2325, 106.3346
369.7146, 105.2572
370.1967, 105.1012
370.6788, 106.2324
371.1609, 106.6186
371.6430, 104.0041
372.1252, 99.30027
372.6073, 95.64163
373.0894, 93.63756
373.5715, 92.65702
374.0536, 92.72763
374.5357, 93.63380
375.0179, 93.98129
375.5000, 92.82581
375.9821, 90.94268
376.4642, 90.23547
376.9463, 91.19961
377.4284, 92.02351
377.9106, 92.04896
378.3927, 91.49818
378.8748, 90.60137
379.3569, 89.36418
379.8390, 88.24055
380.3211, 87.97543
380.8033, 88.83140
381.2854, 88.94450
381.7675, 87.48121
382.2496, 85.73309
382.7317, 84.48605
383.2138, 83.87679
383.6960, 84.17342
384.1781, 85.92672
384.6602, 88.89217
385.1423, 89.54565
385.6244, 85.73500
386.1065, 82.47384
386.5887, 81.62761
387.0708, 82.40171
387.5529, 83.66409
388.0350, 84.97887
388.5171, 85.87276
388.9992, 85.28113
389.4814, 81.84627
389.9635, 78.91999
390.4456, 75.73698
390.9277, 73.54719
391.4098, 73.99989
391.8919, 76.93913
392.3741, 80.28198
392.8562, 81.89043
393.3383, 81.61230
393.8204, 80.74057
394.3025, 77.79750
394.7846, 75.82259
395.2668, 76.49091
395.7489, 78.82240
396.2310, 81.06905
396.7131, 82.27171
397.1952, 82.46019
397.6773, 81.65002
398.1595, 78.92442
398.6416, 76.69886
399.1237, 74.71089
399.6058, 73.61443
400.0879, 74.53405
400.5700, 77.50394
401.0522, 80.65284
401.5343, 81.57937
402.0164, 79.88701
402.4985, 78.24809
402.9806, 75.85445
403.4627, 74.44804
403.9449, 75.54361
404.4270, 78.29772
404.9091, 80.55190
405.3912, 80.89791
405.8733, 79.81410
406.3554, 78.49316
406.8376, 76.28914
407.3197, 75.47672
407.8018, 78.84285
408.2839, 83.17124
408.7660, 84.83477
409.2481, 82.64085
409.7303, 79.67460
410.2124, 79.30058
410.6945, 81.32168
411.1766, 82.54306
411.6587, 81.80968
412.1408, 80.69924
412.6230, 80.78743
413.1051, 81.91708
413.5872, 82.95522
414.0693, 83.37074
414.5514, 83.42435
415.0335, 83.71882
415.5157, 84.36848
415.9978, 84.30455
416.4799, 82.32748
416.9620, 79.16728
417.4441, 77.16739
417.9262, 77.19140
418.4084, 77.34647
418.8905, 76.36520
419.3726, 74.67948
419.8547, 73.47909
420.3368, 73.24516
420.8189, 73.40043
421.3011, 73.07583
421.7832, 72.27385
422.2653, 71.03041
422.7474, 68.86283
423.2295, 66.58192
423.7116, 64.79384
424.1938, 63.57343
424.6759, 62.74550
425.1580, 62.11445
425.6401, 61.72087
426.1222, 62.35149
426.6043, 65.72433
427.0865, 67.96642
427.5686, 67.24804
428.0507, 65.09641
428.5328, 63.81696
429.0149, 64.26850
429.4970, 65.30854
429.9792, 64.83877
430.4613, 61.76494
430.9434, 59.54515
431.4255, 58.25036
431.9076, 57.56628
432.3897, 57.73004
432.8719, 58.41047
433.3540, 58.67050
433.8361, 57.56455
434.3182, 55.44217
434.8003, 55.01305
435.2824, 58.06838
435.7646, 60.05744
436.2467, 59.12245
436.7288, 57.03643
437.2109, 55.60702
437.6930, 55.39887
438.1751, 55.87727
438.6573, 56.62834
439.1394, 57.71524
439.6215, 58.08407
440.1036, 56.84464
440.5857, 55.68876
441.0678, 55.78916
441.5500, 56.91970
442.0321, 58.15886
442.5142, 59.23743
442.9963, 60.05686
443.4784, 60.36489
443.9605, 60.10696
444.4427, 59.74584
444.9248, 59.36930
445.4069, 59.10953
445.8890, 59.23302
446.3711, 59.93290
446.8532, 60.50664
447.3354, 60.50037
447.8175, 60.09547
448.2996, 59.57352
448.7817, 58.94108
449.2638, 58.56144
449.7459, 58.90965
450.2281, 60.04223
450.7102, 61.09357
451.1923, 62.35874
451.6744, 63.24541
452.1565, 62.98669
452.6386, 61.98100
453.1208, 61.43659
453.6029, 62.00678
454.0850, 63.35351
454.5671, 64.55095
455.0492, 66.20567
455.5313, 66.80584
456.0135, 64.77513
456.4956, 62.73111
456.9777, 63.20422
457.4598, 66.21140
457.9419, 69.61228
458.4240, 71.39520
458.9062, 71.53432
459.3883, 71.56158
459.8704, 71.02142
460.3525, 70.90604
460.8346, 71.83604
461.3167, 73.16133
461.7989, 73.92093
462.2810, 73.73837
462.7631, 73.40290
463.2452, 74.33924
463.7273, 76.86339
464.2094, 78.74433
464.6916, 78.79929
465.1737, 79.00939
465.6558, 81.03017
466.1379, 84.31387
466.6200, 86.81274
467.1021, 87.17213
467.5843, 86.12839
468.0664, 84.72055
468.5485, 82.72929
469.0306, 81.98606
469.5127, 83.88980
469.9948, 87.25835
470.4770, 90.29503
470.9591, 93.05568
471.4412, 95.04859
471.9233, 95.63682
472.4054, 95.38914
472.8875, 95.11488
473.3697, 94.91570
473.8518, 95.36335
474.3339, 97.15424
474.8160, 100.2922
475.2981, 103.0296
475.7802, 106.4462
476.2624, 108.3459
476.7445, 106.3906
477.2266, 102.4361
477.7087, 100.1092
478.1908, 100.8497
478.6729, 103.1695
479.1551, 104.3494
479.6372, 103.5202
480.1193, 103.6026
480.6014, 105.2794
481.0835, 107.1269
481.5656, 108.5012
482.0478, 109.3588
482.5299, 109.8134
483.0120, 109.8919
483.4941, 109.7181
483.9762, 109.8045
484.4583, 110.4574
484.9405, 110.7336
485.4226, 110.5037
485.9047, 109.8303
486.3868, 108.4197
486.8689, 106.3681
487.3510, 104.6987
487.8332, 104.2372
488.3153, 104.8841
488.7974, 106.4509
489.2795, 109.5723
489.7616, 112.0210
490.2437, 111.7988
490.7259, 110.1603
491.2080, 108.8594
491.6901, 108.0732
492.1722, 107.9410
492.6543, 109.2408
493.1364, 111.3146
493.6186, 112.1658
494.1007, 111.1853
494.5828, 109.2747
495.0649, 106.9682
495.5470, 104.1297
496.0291, 103.5085
496.5113, 107.2030
496.9934, 111.2665
497.4755, 113.8039
497.9576, 114.8483
498.4397, 114.6212
498.9218, 113.1749
499.4040, 111.0654
499.8861, 109.5732
500.3682, 109.3265
500.8503, 108.5546
501.3324, 107.1617
501.8145, 105.3900
502.2967, 102.9151
502.7788, 100.1298
503.2609, 98.13420
503.7430, 97.88518
504.2251, 98.77227
504.7072, 98.26768
505.1894, 95.50507
505.6715, 93.33453
506.1536, 93.58920
506.6357, 93.97939
507.1178, 92.12305
507.5999, 87.89961
508.0821, 84.36765
508.5642, 84.62888
509.0463, 87.30456
509.5284, 88.22192
510.0105, 86.88377
510.4926, 84.93890
510.9748, 83.26315
511.4569, 81.72028
511.9390, 79.90310
512.4211, 77.32346
512.9032, 75.35500
513.3853, 75.19530
513.8674, 75.96139
514.3495, 76.17866
514.8317, 75.51663
515.3138, 74.33753
515.7959, 72.88136
516.2780, 71.08404
516.7601, 70.02967
517.2422, 69.85351
517.7244, 70.13191
518.2065, 71.43804
518.6886, 72.87232
519.1707, 72.97838
519.6528, 71.29748
520.1349, 68.94225
520.6171, 67.64953
521.0992, 67.73318
521.5813, 67.59658
522.0634, 66.68430
522.5455, 66.11533
523.0276, 66.50684
523.5098, 67.50628
523.9919, 68.48981
524.4740, 69.25655
524.9561, 69.69241
525.4382, 69.36350
525.9203, 68.24735
526.4025, 67.83334
526.8846, 68.79166
527.3667, 70.13339
527.8488, 70.98087
528.3309, 71.37969
528.8130, 71.57819
529.2952, 71.68309
529.7773, 71.59219
530.2594, 71.23510
530.7415, 70.60365
531.2236, 69.52184
531.7057, 67.75907
532.1879, 65.95829
532.6700, 65.44460
533.1521, 67.13524
533.6342, 68.03391
534.1163, 67.48429
534.5984, 66.64178
535.0806, 66.02814
535.5627, 65.77428
536.0448, 66.10551
536.5269, 67.24312
537.0090, 68.71193
537.4911, 68.85422
537.9733, 66.45826
538.4554, 65.43453
538.9375, 67.39951
539.4196, 69.84478
539.9017, 71.43591
540.3839, 72.09972
540.8660, 72.26786
541.3481, 72.17129
541.8302, 71.79406
542.3123, 70.95261
542.7944, 69.56455
543.2766, 68.35197
543.7587, 66.96619
544.2408, 66.50648
544.7229, 69.02384
545.2050, 75.00672
545.6871, 79.52015
546.1693, 80.01530
546.6514, 78.72083
547.1335, 77.59286
547.6156, 76.92143
548.0977, 77.08294
548.5798, 78.41222
549.0620, 80.57683
549.5441, 82.44249
550.0262, 84.18044
550.5083, 85.33475
550.9904, 85.07864
551.4725, 84.86211
551.9547, 86.38408
552.4368, 89.15205
552.9189, 90.92068
553.4010, 89.79742
553.8831, 86.61950
554.3652, 84.87337
554.8474, 85.25884
555.3295, 85.32914
555.8116, 84.52328
556.2937, 83.12501
556.7758, 80.98833
557.2579, 78.23362
557.7401, 75.83061
558.2222, 74.60324
558.7043, 73.99812
559.1864, 72.71243
559.6685, 70.71623
560.1506, 69.96168
560.6328, 72.07458
561.1149, 75.36622
561.5970, 75.89622
562.0791, 72.86985
562.5612, 70.26212
563.0433, 68.82384
563.5255, 68.07099
564.0076, 67.78866
564.4897, 67.83704
564.9718, 67.85260
565.4539, 67.55716
565.9360, 67.21135
566.4182, 67.77996
566.9003, 70.16908
567.3824, 71.76199
567.8645, 71.40133
568.3466, 71.11455
568.8287, 72.36122
569.3109, 74.90379
569.7930, 77.46156
570.2751, 79.22115
570.7572, 80.53788
571.2393, 82.26975
571.7214, 84.48586
572.2036, 86.10844
572.6857, 86.10283
573.1678, 86.10948
573.6499, 88.09524
574.1320, 91.98355
574.6141, 96.43889
575.0963, 101.0796
575.5784, 106.1426
576.0605, 111.0210
576.5426, 116.3716
577.0247, 124.4564
577.5068, 136.3655
577.9890, 150.9650
578.4711, 166.1737
578.9532, 181.8237
579.4353, 198.6021
579.9174, 217.7797
580.3995, 236.6951
580.8817, 255.8273
581.3638, 273.3886
581.8459, 285.8175
582.3280, 291.1809
582.8101, 292.9074
583.2922, 296.0838
583.7744, 300.7118
584.2565, 306.6561
584.7386, 313.7070
585.2207, 322.5244
585.7029, 334.1853
586.1850, 347.8701
586.6671, 361.5560
587.1492, 374.6911
