##NAMES=Chondrodite
##RRUFFID=R040016
##IDEAL CHEMISTRY=Mg_5_(SiO_4_)_2_F_2_
##LOCALITY=Vastmanland, Kafveltorp, Sweden
##OWNER=RRUFF
##SOURCE=University of Arizona Mineral Museum
##DESCRIPTION=Deep red single crystals embedded in matrix
##STATUS=The identification of this mineral has been confirmed by X-ray diffraction and chemical analysis
##URL=rruff.info/R040016
##MEASURED CHEMISTRY=(Mg_4.61_Fe_0.31_Mn_0.07_Ca_0.01_)_Σ=5_(Si_1.00_O_4_)_2_(F_1.16_(OH)_0.84_)_Σ=2_
157.1990, 983.0516
157.6812, 999.9053
158.1633, 1015.090
158.6454, 1022.862
159.1275, 1022.884
159.6096, 1023.004
160.0917, 1024.563
160.5739, 1027.609
161.0560, 1032.199
161.5381, 1039.388
162.0202, 1047.223
162.5023, 1055.417
162.9844, 1064.205
163.4666, 1071.147
163.9487, 1074.553
164.4308, 1075.456
164.9129, 1075.576
165.3950, 1075.169
165.8771, 1074.582
166.3593, 1073.240
166.8414, 1069.360
167.3235, 1069.124
167.8056, 1079.513
168.2877, 1097.103
168.7698, 1112.603
169.2519, 1119.305
169.7341, 1122.174
170.2162, 1126.175
170.6983, 1132.574
171.1804, 1140.246
171.6625, 1148.604
172.1446, 1157.600
172.6268, 1166.963
173.1089, 1177.925
173.5910, 1188.839
174.0731, 1197.276
174.5552, 1199.549
175.0373, 1200.935
175.5195, 1208.705
176.0016, 1222.677
176.4837, 1236.435
176.9658, 1244.950
177.4479, 1249.109
177.9300, 1250.764
178.4122, 1248.662
178.8943, 1245.075
179.3764, 1243.982
179.8585, 1245.653
180.3406, 1247.979
180.8227, 1250.695
181.3049, 1252.818
181.7870, 1250.628
182.2691, 1238.352
182.7512, 1220.521
183.2333, 1207.670
183.7154, 1200.641
184.1976, 1198.583
184.6797, 1204.063
185.1618, 1215.933
185.6439, 1223.609
186.1260, 1215.038
186.6081, 1195.559
187.0903, 1188.105
187.5724, 1198.908
188.0545, 1217.088
188.5366, 1221.153
189.0187, 1210.988
189.5008, 1201.636
189.9829, 1208.765
190.4651, 1229.354
190.9472, 1239.325
191.4293, 1230.373
191.9114, 1210.836
192.3935, 1202.234
192.8756, 1205.416
193.3578, 1213.570
193.8399, 1223.143
194.3220, 1234.114
194.8041, 1240.087
195.2862, 1237.259
195.7683, 1228.333
196.2505, 1226.896
196.7326, 1234.498
197.2147, 1243.818
197.6968, 1247.180
198.1789, 1244.356
198.6610, 1239.072
199.1432, 1230.335
199.6253, 1218.791
200.1074, 1215.437
200.5895, 1221.840
201.0716, 1232.732
201.5537, 1242.568
202.0359, 1251.917
202.5180, 1256.457
203.0001, 1251.830
203.4822, 1236.913
203.9643, 1231.335
204.4464, 1238.226
204.9286, 1250.237
205.4107, 1254.318
205.8928, 1248.503
206.3749, 1241.652
206.8570, 1237.429
207.3391, 1236.215
207.8212, 1235.511
208.3034, 1235.373
208.7855, 1235.740
209.2676, 1236.804
209.7497, 1239.249
210.2318, 1240.760
210.7139, 1239.537
211.1961, 1234.419
211.6782, 1231.923
212.1603, 1233.672
212.6424, 1237.858
213.1245, 1238.278
213.6066, 1233.302
214.0888, 1227.928
214.5709, 1224.508
215.0530, 1222.121
215.5351, 1225.103
216.0172, 1236.757
216.4993, 1254.156
216.9815, 1262.345
217.4636, 1256.530
217.9457, 1249.129
218.4278, 1249.664
218.9099, 1262.219
219.3920, 1271.835
219.8742, 1275.890
220.3563, 1274.925
220.8384, 1275.040
221.3205, 1277.810
221.8026, 1279.612
222.2847, 1276.125
222.7669, 1262.063
223.2490, 1255.135
223.7311, 1261.023
224.2132, 1279.687
224.6953, 1290.815
225.1774, 1290.282
225.6596, 1287.088
226.1417, 1290.372
226.6238, 1303.861
227.1059, 1316.329
227.5880, 1325.777
228.0701, 1332.034
228.5522, 1336.372
229.0344, 1337.924
229.5165, 1338.299
229.9986, 1339.583
230.4807, 1343.327
230.9628, 1345.076
231.4449, 1343.380
231.9271, 1337.735
232.4092, 1331.945
232.8913, 1324.752
233.3734, 1318.297
233.8555, 1316.062
234.3376, 1322.333
234.8198, 1325.472
235.3019, 1320.946
235.7840, 1306.145
236.2661, 1296.589
236.7482, 1294.116
237.2303, 1295.917
237.7125, 1297.902
238.1946, 1300.017
238.6767, 1302.464
239.1588, 1305.903
239.6409, 1311.652
240.1230, 1313.241
240.6052, 1307.272
241.0873, 1298.900
241.5694, 1297.698
242.0515, 1307.057
242.5336, 1318.255
243.0157, 1328.532
243.4979, 1337.859
243.9800, 1346.402
244.4621, 1355.325
244.9442, 1362.860
245.4263, 1364.986
245.9084, 1357.923
246.3905, 1351.208
246.8727, 1348.695
247.3548, 1352.234
247.8369, 1355.117
248.3190, 1357.327
248.8011, 1358.888
249.2832, 1359.691
249.7654, 1358.813
250.2475, 1358.755
250.7296, 1361.038
251.2117, 1367.953
251.6938, 1371.308
252.1759, 1367.156
252.6581, 1360.766
253.1402, 1366.896
253.6223, 1393.955
254.1044, 1420.005
254.5865, 1433.924
255.0686, 1430.083
255.5508, 1428.979
256.0329, 1431.546
256.5150, 1436.933
256.9971, 1442.691
257.4792, 1448.297
257.9613, 1455.162
258.4435, 1464.845
258.9256, 1480.097
259.4077, 1489.875
259.8898, 1490.572
260.3719, 1486.465
260.8540, 1491.808
261.3362, 1512.137
261.8183, 1531.504
262.3004, 1540.920
262.7825, 1536.735
263.2646, 1533.478
263.7467, 1530.685
264.2289, 1529.624
264.7110, 1535.146
265.1931, 1549.737
265.6752, 1565.539
266.1573, 1577.812
266.6394, 1584.728
267.1216, 1595.227
267.6037, 1611.613
268.0858, 1631.117
268.5679, 1644.614
269.0500, 1649.188
269.5321, 1654.638
270.0143, 1667.243
270.4964, 1688.541
270.9785, 1709.850
271.4606, 1732.270
271.9427, 1753.612
272.4248, 1766.855
272.9070, 1770.283
273.3891, 1771.023
273.8712, 1772.477
274.3533, 1774.416
274.8354, 1779.611
275.3175, 1791.003
275.7997, 1803.774
276.2818, 1803.830
276.7639, 1789.214
277.2460, 1769.708
277.7281, 1750.112
278.2102, 1730.297
278.6924, 1711.874
279.1745, 1695.046
279.6566, 1679.565
280.1387, 1665.062
280.6208, 1651.635
281.1029, 1638.495
281.5851, 1625.249
282.0672, 1611.897
282.5493, 1598.179
283.0314, 1583.717
283.5135, 1569.351
283.9956, 1556.769
284.4778, 1545.995
284.9599, 1536.900
285.4420, 1529.618
285.9241, 1524.087
286.4062, 1519.848
286.8883, 1516.824
287.3705, 1515.242
287.8526, 1515.409
288.3347, 1517.322
288.8168, 1521.350
289.2989, 1529.440
289.7810, 1540.472
290.2632, 1548.064
290.7453, 1551.044
291.2274, 1551.418
291.7095, 1551.984
292.1916, 1552.732
292.6737, 1553.553
293.1558, 1553.798
293.6379, 1554.002
294.1201, 1556.473
294.6022, 1562.189
295.0843, 1568.172
295.5664, 1571.188
296.0485, 1571.226
296.5306, 1568.037
297.0128, 1556.313
297.4949, 1541.722
297.9770, 1539.724
298.4591, 1554.533
298.9412, 1570.941
299.4233, 1565.282
299.9055, 1543.569
300.3876, 1528.745
300.8697, 1538.721
301.3518, 1561.601
301.8339, 1579.278
302.3160, 1589.831
302.7982, 1597.154
303.2803, 1603.542
303.7624, 1609.568
304.2445, 1617.024
304.7266, 1627.669
305.2087, 1639.655
305.6909, 1650.990
306.1730, 1661.277
306.6551, 1672.056
307.1372, 1688.318
307.6193, 1705.895
308.1014, 1716.357
308.5836, 1706.327
309.0657, 1693.422
309.5478, 1694.722
310.0299, 1712.093
310.5120, 1730.648
310.9941, 1741.886
311.4763, 1747.699
311.9584, 1750.934
312.4405, 1749.892
312.9226, 1748.696
313.4047, 1750.847
313.8868, 1756.611
314.3690, 1761.012
314.8511, 1763.653
315.3332, 1762.864
315.8153, 1756.763
316.2974, 1734.869
316.7795, 1715.954
317.2617, 1710.783
317.7438, 1719.213
318.2259, 1728.055
318.7080, 1734.809
319.1901, 1738.798
319.6722, 1739.416
320.1544, 1736.403
320.6365, 1730.072
321.1186, 1716.325
321.6007, 1696.215
322.0828, 1685.014
322.5649, 1690.785
323.0471, 1704.086
323.5292, 1718.331
324.0113, 1740.788
324.4934, 1755.087
324.9755, 1753.613
325.4576, 1738.978
325.9398, 1729.509
326.4219, 1733.218
326.9040, 1738.054
327.3861, 1737.581
327.8682, 1724.541
328.3503, 1714.544
328.8325, 1706.697
329.3146, 1701.961
329.7967, 1704.230
330.2788, 1724.445
330.7609, 1741.066
331.2430, 1743.496
331.7251, 1718.339
332.2072, 1702.548
332.6894, 1698.356
333.1715, 1703.198
333.6536, 1711.193
334.1357, 1726.456
334.6178, 1738.556
335.0999, 1742.386
335.5821, 1734.840
336.0642, 1729.401
336.5463, 1727.878
337.0284, 1727.000
337.5105, 1719.249
337.9926, 1701.115
338.4748, 1686.585
338.9569, 1682.750
339.4390, 1690.848
339.9211, 1692.809
340.4032, 1686.676
340.8853, 1677.849
341.3675, 1674.772
341.8496, 1678.164
342.3317, 1680.380
342.8138, 1677.752
343.2959, 1671.349
343.7780, 1669.486
344.2602, 1672.953
344.7423, 1677.911
345.2244, 1679.937
345.7065, 1679.296
346.1886, 1678.933
346.6707, 1679.603
347.1529, 1681.153
347.6350, 1682.018
348.1171, 1682.027
348.5992, 1685.322
349.0813, 1699.848
349.5634, 1721.096
350.0456, 1735.458
350.5277, 1737.000
351.0098, 1732.569
351.4919, 1730.589
351.9740, 1731.117
352.4561, 1734.533
352.9383, 1743.331
353.4204, 1754.699
353.9025, 1764.475
354.3846, 1772.347
354.8667, 1777.498
355.3488, 1775.206
355.8310, 1768.773
356.3131, 1768.030
356.7952, 1787.799
357.2773, 1811.053
357.7594, 1820.703
358.2415, 1811.100
358.7237, 1798.913
359.2058, 1790.212
359.6879, 1786.162
360.1700, 1788.872
360.6521, 1806.150
361.1342, 1825.075
361.6164, 1838.922
362.0985, 1846.733
362.5806, 1851.412
363.0627, 1851.443
363.5448, 1849.685
364.0269, 1849.484
364.5091, 1854.045
364.9912, 1858.019
365.4733, 1858.468
365.9554, 1855.074
366.4375, 1855.286
366.9196, 1862.869
367.4018, 1873.057
367.8839, 1882.228
368.3660, 1894.584
368.8481, 1900.795
369.3302, 1895.021
369.8123, 1879.540
370.2944, 1874.189
370.7766, 1880.539
371.2587, 1895.362
371.7408, 1918.754
372.2229, 1961.692
372.7050, 1990.602
373.1871, 1998.901
373.6693, 1993.256
374.1514, 1991.837
374.6335, 1992.699
375.1156, 2001.746
375.5977, 2023.905
376.0798, 2062.820
376.5620, 2097.097
377.0441, 2125.268
377.5262, 2151.223
378.0083, 2182.525
378.4904, 2220.492
378.9725, 2256.154
379.4547, 2285.912
379.9368, 2310.220
380.4189, 2334.612
380.9010, 2358.913
381.3831, 2383.640
381.8652, 2411.140
382.3474, 2440.584
382.8295, 2463.051
383.3116, 2474.678
383.7937, 2478.430
384.2758, 2481.436
384.7579, 2483.497
385.2401, 2480.436
385.7222, 2470.802
386.2043, 2453.317
386.6864, 2423.707
387.1685, 2374.479
387.6506, 2322.743
388.1328, 2290.261
388.6149, 2271.874
389.0970, 2250.025
389.5791, 2207.532
390.0612, 2159.725
390.5433, 2122.811
391.0255, 2101.461
391.5076, 2084.139
391.9897, 2065.575
392.4718, 2046.125
392.9539, 2026.164
393.4360, 2001.507
393.9182, 1980.351
394.4003, 1968.654
394.8824, 1968.330
395.3645, 1965.461
395.8466, 1947.855
396.3287, 1929.111
396.8109, 1922.719
397.2930, 1949.271
397.7751, 1969.322
398.2572, 1970.621
398.7393, 1953.864
399.2214, 1944.594
399.7036, 1950.096
400.1857, 1958.330
400.6678, 1962.200
401.1499, 1955.147
401.6320, 1954.633
402.1141, 1963.988
402.5963, 1980.056
403.0784, 1993.247
403.5605, 2002.799
404.0426, 2010.932
404.5247, 2018.447
405.0068, 2025.254
405.4890, 2032.089
405.9711, 2039.156
406.4532, 2046.027
406.9353, 2051.735
407.4174, 2056.008
407.8995, 2061.552
408.3816, 2071.036
408.8637, 2082.856
409.3459, 2087.046
409.8280, 2082.759
410.3101, 2077.579
410.7922, 2078.809
411.2743, 2085.595
411.7564, 2095.392
412.2386, 2111.893
412.7207, 2126.093
413.2028, 2117.781
413.6849, 2090.412
414.1670, 2067.515
414.6491, 2073.115
415.1313, 2089.867
415.6134, 2091.569
416.0955, 2069.526
416.5776, 2045.648
417.0597, 2042.173
417.5418, 2049.629
418.0240, 2048.987
418.5061, 2021.573
418.9882, 1990.762
419.4703, 1971.722
419.9524, 1966.045
420.4345, 1963.422
420.9167, 1964.626
421.3988, 1964.875
421.8809, 1959.400
422.3630, 1933.129
422.8451, 1915.796
423.3272, 1918.740
423.8094, 1939.800
424.2915, 1957.578
424.7736, 1969.907
425.2557, 1978.620
425.7378, 1984.626
426.2199, 1988.449
426.7021, 1988.346
427.1842, 1981.010
427.6663, 1970.791
428.1484, 1967.508
428.6305, 1973.742
429.1126, 1981.649
429.5948, 1988.991
430.0769, 1995.771
430.5590, 2000.692
431.0411, 2002.671
431.5232, 2005.011
432.0053, 2013.111
432.4875, 2027.328
432.9696, 2037.487
433.4517, 2039.176
433.9338, 2036.123
434.4159, 2040.219
434.8980, 2051.502
435.3802, 2061.619
435.8623, 2063.810
436.3444, 2059.992
436.8265, 2055.025
437.3086, 2049.503
437.7907, 2043.361
438.2729, 2034.984
438.7550, 2025.688
439.2371, 2019.112
439.7192, 2019.538
440.2013, 2021.995
440.6834, 2022.672
441.1656, 2021.336
441.6477, 2017.284
442.1298, 2006.468
442.6119, 1994.113
443.0940, 1985.856
443.5761, 1987.423
444.0583, 1989.322
444.5403, 1989.741
445.0225, 1988.344
445.5046, 1983.327
445.9867, 1968.743
446.4688, 1954.693
446.9509, 1946.311
447.4330, 1945.216
447.9152, 1947.544
448.3973, 1956.965
448.8794, 1968.432
449.3615, 1973.659
449.8436, 1969.266
450.3257, 1964.580
450.8079, 1962.226
451.2900, 1962.219
451.7721, 1961.439
452.2542, 1959.395
452.7363, 1957.593
453.2184, 1958.271
453.7006, 1961.653
454.1827, 1962.105
454.6648, 1957.016
455.1469, 1950.244
455.6290, 1951.892
456.1111, 1961.625
456.5933, 1971.759
457.0754, 1979.014
457.5575, 1982.969
458.0396, 1980.733
458.5217, 1971.150
459.0038, 1961.665
459.4860, 1959.431
459.9681, 1962.664
460.4502, 1967.878
460.9323, 1973.987
461.4144, 1981.232
461.8965, 1990.986
462.3787, 2002.747
462.8608, 2012.821
463.3429, 2019.333
463.8250, 2023.601
464.3071, 2026.362
464.7892, 2025.982
465.2714, 2027.197
465.7535, 2031.867
466.2356, 2038.831
466.7177, 2045.691
467.1998, 2053.883
467.6819, 2060.122
468.1641, 2062.291
468.6462, 2059.040
469.1283, 2061.485
469.6104, 2076.010
470.0925, 2089.392
470.5746, 2088.141
471.0568, 2065.621
471.5389, 2049.012
472.0210, 2042.810
472.5031, 2044.672
472.9852, 2048.943
473.4673, 2056.324
473.9495, 2061.086
474.4316, 2059.193
474.9137, 2051.581
475.3958, 2043.053
475.8779, 2033.429
476.3600, 2024.680
476.8422, 2019.644
477.3243, 2017.544
477.8064, 2016.006
478.2885, 2013.626
478.7706, 2011.910
479.2527, 2015.344
479.7349, 2022.425
480.2170, 2024.086
480.6991, 2003.863
481.1812, 1981.641
481.6633, 1976.560
482.1454, 1998.608
482.6275, 2021.395
483.1096, 2034.311
483.5918, 2040.846
484.0739, 2046.438
484.5560, 2053.901
485.0381, 2058.852
485.5202, 2059.127
486.0023, 2054.297
486.4845, 2050.155
486.9666, 2047.209
487.4487, 2044.593
487.9308, 2041.461
488.4129, 2036.454
488.8951, 2035.006
489.3772, 2039.817
489.8593, 2046.732
490.3414, 2043.998
490.8235, 2029.062
491.3056, 2018.696
491.7878, 2021.775
492.2699, 2036.376
492.7520, 2050.192
493.2341, 2063.573
493.7162, 2072.785
494.1983, 2069.456
494.6805, 2058.296
495.1626, 2054.599
495.6447, 2065.821
496.1268, 2079.598
496.6089, 2080.690
497.0910, 2072.405
497.5732, 2065.325
498.0553, 2066.671
498.5374, 2070.662
499.0195, 2072.660
499.5016, 2071.956
499.9837, 2071.918
500.4659, 2075.786
500.9480, 2080.211
501.4301, 2081.986
501.9122, 2079.640
502.3943, 2075.481
502.8764, 2068.387
503.3586, 2059.329
503.8407, 2052.348
504.3228, 2044.536
504.8049, 2042.418
505.2870, 2051.255
505.7691, 2075.762
506.2513, 2086.281
506.7334, 2076.920
507.2155, 2062.547
507.6976, 2061.950
508.1797, 2076.126
508.6618, 2091.490
509.1440, 2106.959
509.6261, 2119.872
510.1082, 2120.315
510.5903, 2109.106
511.0724, 2099.969
511.5545, 2105.777
512.0366, 2118.853
512.5187, 2125.723
513.0009, 2125.016
513.4830, 2119.602
513.9651, 2105.559
514.4472, 2089.759
514.9293, 2082.465
515.4114, 2096.394
515.8936, 2111.343
516.3757, 2117.132
516.8578, 2115.313
517.3399, 2113.975
517.8220, 2112.616
518.3041, 2114.402
518.7863, 2121.399
519.2684, 2136.476
519.7505, 2150.401
520.2326, 2163.950
520.7147, 2175.697
521.1968, 2183.125
521.6790, 2183.660
522.1611, 2186.637
522.6432, 2194.754
523.1253, 2206.550
523.6074, 2214.392
524.0895, 2217.358
524.5717, 2222.168
525.0538, 2234.075
525.5359, 2251.692
526.0180, 2268.562
526.5001, 2284.440
526.9822, 2299.276
527.4644, 2313.665
527.9465, 2327.128
528.4286, 2338.677
528.9107, 2348.070
529.3928, 2355.470
529.8749, 2356.459
530.3571, 2354.212
530.8392, 2360.807
531.3213, 2392.442
531.8034, 2427.012
532.2855, 2450.350
532.7676, 2457.505
533.2498, 2467.179
533.7319, 2484.979
534.2140, 2506.345
534.6961, 2526.800
535.1782, 2544.065
535.6603, 2563.472
536.1425, 2586.690
536.6246, 2612.520
537.1067, 2636.872
537.5888, 2658.257
538.0709, 2681.835
538.5530, 2711.351
539.0352, 2746.424
539.5173, 2778.812
539.9994, 2807.294
540.4815, 2836.531
540.9636, 2872.113
541.4457, 2912.804
541.9279, 2952.552
542.4100, 2988.277
542.8921, 3025.161
543.3742, 3072.481
543.8563, 3126.005
544.3384, 3172.751
544.8206, 3206.022
545.3027, 3230.077
545.7848, 3246.870
546.2669, 3256.510
546.7490, 3260.550
547.2311, 3267.501
547.7133, 3264.500
548.1954, 3241.830
548.6775, 3179.016
549.1596, 3120.892
549.6417, 3075.120
550.1238, 3033.483
550.6060, 2976.809
551.0881, 2893.711
551.5702, 2820.094
552.0523, 2768.423
552.5344, 2736.705
553.0165, 2703.522
553.4987, 2668.656
553.9808, 2633.435
554.4629, 2595.845
554.9450, 2557.962
555.4271, 2530.667
555.9092, 2517.095
556.3914, 2508.890
556.8735, 2496.678
557.3556, 2482.558
557.8377, 2471.292
558.3198, 2466.012
558.8019, 2463.477
559.2841, 2461.650
559.7662, 2460.600
560.2483, 2460.803
560.7304, 2458.919
561.2125, 2460.975
561.6946, 2471.905
562.1768, 2497.782
562.6589, 2517.271
563.1410, 2522.633
563.6231, 2524.864
564.1052, 2535.581
564.5873, 2558.438
565.0695, 2581.758
565.5516, 2605.211
566.0337, 2627.539
566.5158, 2643.776
566.9979, 2653.585
567.4800, 2661.197
567.9622, 2666.409
568.4443, 2671.021
568.9264, 2682.578
569.4085, 2701.456
569.8906, 2722.458
570.3727, 2742.133
570.8549, 2760.666
571.3370, 2779.707
571.8191, 2801.411
572.3012, 2819.440
572.7833, 2821.659
573.2654, 2818.050
573.7476, 2826.894
574.2297, 2867.115
574.7118, 2908.461
575.1939, 2939.600
575.6760, 2960.665
576.1581, 2981.788
576.6403, 3006.997
577.1223, 3028.784
577.6044, 3042.433
578.0865, 3044.676
578.5687, 3051.970
579.0508, 3068.619
579.5329, 3082.604
580.0150, 3074.757
580.4971, 3045.462
580.9792, 3020.037
581.4614, 3009.281
581.9435, 3000.650
582.4256, 2966.894
582.9077, 2912.710
583.3898, 2861.398
583.8719, 2830.216
584.3541, 2806.396
584.8362, 2777.146
585.3183, 2741.623
585.8004, 2705.178
586.2825, 2668.040
586.7646, 2632.616
587.2468, 2600.302
587.7289, 2568.718
588.2110, 2544.316
588.6931, 2532.821
589.1752, 2527.462
589.6573, 2517.364
590.1395, 2498.227
590.6216, 2482.681
591.1037, 2473.197
591.5858, 2469.588
592.0679, 2472.143
592.5500, 2481.800
593.0322, 2491.738
593.5143, 2496.338
593.9964, 2497.373
594.4785, 2500.959
594.9606, 2507.150
595.4427, 2518.557
595.9249, 2542.818
596.4070, 2572.861
596.8891, 2596.688
597.3712, 2606.945
597.8533, 2616.483
598.3354, 2633.856
598.8176, 2655.936
599.2997, 2676.087
599.7818, 2688.739
600.2639, 2702.502
600.7460, 2724.441
601.2281, 2754.724
601.7103, 2767.951
602.1924, 2753.592
602.6745, 2736.896
603.1566, 2732.088
603.6387, 2740.385
604.1208, 2754.503
604.6030, 2776.646
605.0851, 2798.424
605.5672, 2810.042
606.0493, 2811.948
606.5314, 2805.387
607.0135, 2787.406
607.4957, 2766.417
607.9778, 2752.676
608.4599, 2744.691
608.9420, 2737.617
609.4241, 2731.652
609.9063, 2723.718
610.3884, 2711.873
610.8705, 2695.958
611.3526, 2677.367
611.8347, 2652.933
612.3168, 2628.398
612.7990, 2607.392
613.2811, 2591.415
613.7632, 2575.002
614.2453, 2556.615
614.7274, 2539.651
615.2095, 2529.917
615.6917, 2528.805
616.1738, 2525.983
616.6559, 2520.033
617.1380, 2510.480
617.6201, 2492.409
618.1022, 2467.590
618.5844, 2448.233
619.0665, 2447.469
619.5486, 2452.319
620.0307, 2442.365
620.5128, 2418.723
620.9949, 2401.882
621.4771, 2412.531
621.9592, 2429.332
622.4413, 2435.803
622.9234, 2426.091
623.4055, 2415.024
623.8876, 2399.485
624.3698, 2386.878
624.8519, 2386.243
625.3340, 2408.875
625.8161, 2420.353
626.2982, 2413.731
626.7803, 2395.656
627.2625, 2382.455
627.7446, 2374.477
628.2267, 2367.554
628.7088, 2360.787
629.1909, 2353.551
629.6730, 2340.901
630.1552, 2323.764
630.6373, 2314.118
631.1194, 2329.264
631.6015, 2352.089
632.0836, 2363.656
632.5657, 2360.260
633.0479, 2353.083
633.5300, 2347.090
634.0121, 2339.984
634.4942, 2329.651
634.9763, 2302.629
635.4584, 2289.801
635.9406, 2303.073
636.4227, 2327.532
636.9048, 2332.701
637.3869, 2312.012
637.8690, 2292.587
638.3511, 2283.291
638.8333, 2280.791
639.3154, 2272.016
639.7975, 2257.092
640.2796, 2242.983
640.7617, 2232.327
641.2438, 2226.378
641.7260, 2229.522
642.2081, 2242.178
642.6902, 2254.021
643.1723, 2260.374
643.6544, 2261.323
644.1365, 2256.338
644.6187, 2241.408
645.1008, 2228.133
645.5829, 2219.762
646.0650, 2214.315
646.5471, 2208.925
647.0292, 2202.467
647.5114, 2198.068
647.9935, 2197.333
648.4756, 2198.360
648.9577, 2193.935
649.4398, 2183.148
649.9219, 2175.239
650.4041, 2176.075
650.8862, 2182.677
651.3683, 2186.641
651.8504, 2188.218
