##NAMES=Chondrodite
##RRUFFID=R110158
##IDEAL CHEMISTRY=Mg_5_(SiO_4_)_2_F_2_
##LOCALITY=Pein Pyit, Mogok, Mandalay Division, Burma
##OWNER=RRUFF
##SOURCE=Marcus Origlieri
##DESCRIPTION=Orange bleb enclosed in calcite, associated with red spinel
##STATUS=The identification of this mineral has been confirmed by single-crystal X-ray diffraction.
##URL=rruff.info/R110158
220.6637, 62257.29
221.1458, 62342.08
221.6279, 62428.87
222.1100, 62523.87
222.5921, 62605.38
223.0743, 62674.05
223.5564, 62728.62
224.0385, 62763.12
224.5206, 62770.32
225.0027, 62770.52
225.4848, 62774.43
225.9670, 62779.47
226.4491, 62799.36
226.9312, 62843.07
227.4133, 62904.23
227.8954, 62951.96
228.3775, 62981.04
228.8597, 63003.99
229.3418, 63029.25
229.8239, 63064.55
230.3060, 63080.76
230.7881, 63060.63
231.2702, 63016.44
231.7524, 63012.21
232.2345, 63062.26
232.7166, 63128.22
233.1987, 63187.01
233.6808, 63231.73
234.1629, 63281.21
234.6451, 63342.30
235.1272, 63408.48
235.6093, 63453.87
236.0914, 63471.95
236.5735, 63478.39
237.0556, 63481.30
237.5378, 63480.23
238.0199, 63479.47
238.5020, 63481.35
238.9841, 63485.64
239.4662, 63488.16
239.9483, 63487.48
240.4305, 63490.81
240.9126, 63504.95
241.3947, 63543.79
241.8768, 63565.13
242.3589, 63558.51
242.8410, 63534.38
243.3232, 63528.04
243.8053, 63539.77
244.2874, 63568.52
244.7695, 63616.16
245.2516, 63696.52
245.7337, 63759.66
246.2159, 63788.31
246.6980, 63798.84
247.1801, 63850.17
247.6622, 63973.39
248.1443, 64088.68
248.6264, 64152.72
249.1086, 64135.89
249.5907, 64139.69
250.0728, 64172.08
250.5549, 64224.86
251.0370, 64277.63
251.5191, 64338.82
252.0013, 64389.32
252.4834, 64418.75
252.9655, 64414.52
253.4476, 64425.17
253.9297, 64455.87
254.4118, 64500.18
254.8940, 64544.34
255.3761, 64589.45
255.8582, 64632.20
256.3403, 64670.25
256.8224, 64701.45
257.3046, 64730.93
257.7867, 64758.03
258.2688, 64781.42
258.7509, 64797.31
259.2330, 64799.65
259.7151, 64804.06
260.1973, 64816.46
260.6794, 64837.80
261.1615, 64861.35
261.6436, 64889.54
262.1257, 64918.26
262.6078, 64938.91
263.0900, 64947.03
263.5721, 64961.33
264.0542, 64991.75
264.5363, 65043.69
265.0184, 65087.55
265.5005, 65125.89
265.9827, 65157.12
266.4648, 65172.02
266.9469, 65156.44
267.4290, 65167.96
267.9111, 65238.64
268.3932, 65374.46
268.8754, 65447.93
269.3575, 65431.30
269.8396, 65392.11
270.3217, 65420.05
270.8038, 65529.68
271.2859, 65643.49
271.7681, 65739.90
272.2502, 65818.29
272.7323, 65894.17
273.2144, 65964.77
273.6965, 66034.76
274.1786, 66111.95
274.6608, 66200.80
275.1429, 66277.73
275.6250, 66338.64
276.1071, 66383.46
276.5892, 66407.74
277.0714, 66406.89
277.5535, 66398.09
278.0356, 66399.38
278.5177, 66412.52
278.9998, 66414.02
279.4819, 66396.84
279.9641, 66364.23
280.4462, 66336.45
280.9283, 66317.70
281.4104, 66283.86
281.8925, 66202.91
282.3746, 66074.16
282.8568, 65969.67
283.3389, 65905.37
283.8210, 65871.89
284.3031, 65848.75
284.7852, 65839.41
285.2673, 65824.87
285.7495, 65778.81
286.2316, 65707.01
286.7137, 65675.91
287.1958, 65702.53
287.6779, 65762.84
288.1600, 65810.83
288.6422, 65846.23
289.1243, 65875.41
289.6064, 65896.44
290.0885, 65911.22
290.5706, 65929.41
291.0527, 65947.16
291.5349, 65975.41
292.0170, 66042.26
292.4991, 66142.40
292.9812, 66234.91
293.4633, 66297.88
293.9454, 66334.70
294.4276, 66348.43
294.9097, 66333.89
295.3918, 66320.52
295.8739, 66354.95
296.3560, 66427.52
296.8381, 66493.05
297.3203, 66519.77
297.8024, 66526.55
298.2845, 66558.43
298.7666, 66619.52
299.2487, 66676.80
299.7308, 66686.70
300.2130, 66664.76
300.6951, 66655.27
301.1772, 66675.41
301.6593, 66717.84
302.1414, 66784.29
302.6235, 66873.14
303.1057, 66950.38
303.5878, 66978.66
304.0699, 66975.65
304.5520, 66973.09
305.0341, 66982.11
305.5162, 66995.77
305.9984, 67005.60
306.4805, 67012.73
306.9626, 67024.76
307.4447, 67052.94
307.9268, 67087.21
308.4089, 67112.73
308.8911, 67118.11
309.3732, 67125.73
309.8553, 67160.64
310.3374, 67214.75
310.8195, 67261.13
311.3016, 67273.79
311.7838, 67276.63
312.2659, 67292.79
312.7480, 67332.52
313.2301, 67370.58
313.7122, 67383.18
314.1943, 67383.06
314.6765, 67396.99
315.1586, 67455.58
315.6407, 67519.02
316.1228, 67562.61
316.6049, 67580.39
317.0870, 67590.55
317.5692, 67600.05
318.0513, 67607.27
318.5334, 67609.78
319.0155, 67616.32
319.4976, 67610.09
319.9797, 67567.40
320.4619, 67480.57
320.9440, 67435.84
321.4261, 67499.64
321.9082, 67599.22
322.3903, 67665.55
322.8724, 67653.31
323.3546, 67635.73
323.8367, 67628.92
324.3188, 67632.98
324.8009, 67640.70
325.2830, 67655.40
325.7651, 67671.48
326.2473, 67685.59
326.7294, 67703.70
327.2115, 67715.70
327.6936, 67717.93
328.1757, 67714.20
328.6578, 67719.44
329.1400, 67745.57
329.6221, 67773.65
330.1042, 67796.84
330.5863, 67819.63
331.0684, 67829.73
331.5505, 67807.02
332.0327, 67774.09
332.5148, 67782.79
332.9969, 67852.05
333.4790, 67933.42
333.9611, 68011.82
334.4432, 68085.23
334.9254, 68154.30
335.4075, 68218.87
335.8896, 68274.85
336.3717, 68316.18
336.8538, 68339.08
337.3359, 68352.82
337.8180, 68357.20
338.3001, 68352.71
338.7823, 68356.05
339.2644, 68372.05
339.7465, 68389.52
340.2286, 68403.40
340.7107, 68418.95
341.1928, 68405.26
341.6750, 68347.78
342.1571, 68261.45
342.6392, 68209.59
343.1213, 68198.63
343.6034, 68189.66
344.0855, 68143.30
344.5677, 68062.80
345.0498, 68017.57
345.5319, 68020.96
346.0140, 68055.49
346.4961, 68097.48
346.9782, 68145.93
347.4604, 68181.34
347.9425, 68173.82
348.4246, 68141.16
348.9067, 68153.95
349.3888, 68221.15
349.8709, 68307.51
350.3531, 68378.31
350.8352, 68433.87
351.3173, 68475.80
351.7994, 68490.26
352.2815, 68495.90
352.7636, 68525.09
353.2458, 68577.16
353.7279, 68638.10
354.2100, 68698.36
354.6921, 68758.11
355.1742, 68819.63
355.6563, 68898.40
356.1385, 68963.15
356.6206, 68969.35
357.1027, 68928.31
357.5848, 68897.31
358.0669, 68915.73
358.5490, 68957.79
359.0312, 69001.65
359.5133, 69048.59
359.9954, 69086.95
360.4775, 69103.35
360.9596, 69107.60
361.4417, 69119.52
361.9239, 69159.93
362.4060, 69201.89
362.8881, 69232.01
363.3702, 69248.86
363.8523, 69255.55
364.3344, 69239.16
364.8166, 69218.12
365.2987, 69213.42
365.7808, 69245.23
366.2629, 69279.01
366.7450, 69303.49
367.2271, 69318.30
367.7093, 69340.42
368.1914, 69387.49
368.6735, 69431.51
369.1556, 69453.83
369.6377, 69418.10
370.1198, 69403.59
370.6020, 69423.01
371.0841, 69466.22
371.5662, 69497.58
372.0483, 69509.20
372.5304, 69516.78
373.0125, 69527.16
373.4947, 69543.70
373.9768, 69551.16
374.4589, 69545.30
374.9410, 69533.70
375.4231, 69527.17
375.9052, 69524.45
376.3874, 69533.80
376.8695, 69560.67
377.3516, 69606.24
377.8337, 69657.83
378.3158, 69720.46
378.7979, 69782.07
379.2801, 69824.13
379.7622, 69845.93
380.2443, 69886.00
380.7264, 69955.42
381.2085, 70045.51
381.6906, 70134.20
382.1728, 70220.23
382.6549, 70308.84
383.1370, 70397.27
383.6191, 70488.09
384.1012, 70596.10
384.5833, 70728.26
385.0655, 70856.86
385.5476, 70944.51
386.0297, 70996.77
386.5118, 71031.28
386.9939, 71066.59
387.4760, 71085.84
387.9582, 71058.10
388.4403, 70982.97
388.9224, 70895.68
389.4045, 70829.68
389.8866, 70770.58
390.3687, 70695.36
390.8509, 70573.70
391.3330, 70461.91
391.8151, 70414.00
392.2972, 70415.28
392.7793, 70402.89
393.2614, 70324.79
393.7436, 70234.86
394.2257, 70170.11
394.7078, 70143.11
395.1899, 70126.45
395.6720, 70108.87
396.1541, 70094.62
396.6363, 70090.82
397.1184, 70099.42
397.6005, 70117.52
398.0826, 70151.14
398.5647, 70204.34
399.0468, 70236.84
399.5290, 70221.52
400.0111, 70197.01
400.4932, 70194.59
400.9753, 70238.54
401.4574, 70272.72
401.9395, 70286.63
402.4217, 70286.21
402.9038, 70299.70
403.3859, 70335.29
403.8680, 70373.13
404.3501, 70403.16
404.8322, 70421.48
405.3144, 70444.41
405.7965, 70471.41
406.2786, 70503.27
406.7607, 70544.85
407.2428, 70599.39
407.7249, 70644.09
408.2071, 70667.65
408.6892, 70673.77
409.1713, 70684.28
409.6534, 70698.53
410.1355, 70719.70
410.6176, 70755.93
411.0998, 70803.57
411.5819, 70838.90
412.0640, 70851.30
412.5461, 70858.83
413.0282, 70907.48
413.5103, 70986.47
413.9925, 71034.70
414.4746, 70985.00
414.9567, 70892.18
415.4388, 70849.65
415.9209, 70869.58
416.4030, 70891.41
416.8852, 70866.64
417.3673, 70809.77
417.8494, 70744.57
418.3315, 70668.63
418.8136, 70597.92
419.2957, 70541.34
419.7779, 70499.70
420.2600, 70469.83
420.7421, 70465.23
421.2242, 70464.78
421.7063, 70450.05
422.1884, 70396.21
422.6706, 70370.18
423.1527, 70416.52
423.6348, 70498.62
424.1169, 70547.14
424.5990, 70515.48
425.0811, 70483.11
425.5633, 70469.04
426.0454, 70471.76
426.5275, 70496.98
427.0096, 70559.55
427.4917, 70630.55
427.9738, 70684.88
428.4560, 70709.70
428.9381, 70744.05
429.4202, 70803.63
429.9023, 70871.97
430.3844, 70891.53
430.8665, 70849.66
431.3487, 70794.16
431.8308, 70737.27
432.3129, 70677.12
432.7950, 70673.39
433.2771, 70741.86
433.7592, 70828.42
434.2414, 70861.52
434.7235, 70845.54
435.2056, 70826.84
435.6877, 70817.08
436.1698, 70817.13
436.6519, 70832.91
437.1341, 70863.99
437.6162, 70894.97
438.0983, 70915.37
438.5804, 70928.52
439.0625, 70938.28
439.5446, 70943.55
440.0268, 70952.11
440.5089, 70968.55
440.9910, 70993.29
441.4731, 71026.85
441.9552, 71095.38
442.4373, 71151.73
442.9195, 71153.34
443.4016, 71100.30
443.8837, 71059.05
444.3658, 71056.95
444.8479, 71075.72
445.3300, 71101.16
445.8122, 71137.46
446.2943, 71169.41
446.7764, 71195.32
447.2585, 71214.63
447.7406, 71226.76
448.2227, 71232.26
448.7049, 71229.82
449.1870, 71215.45
449.6691, 71185.65
450.1512, 71171.41
450.6333, 71184.29
451.1154, 71202.23
451.5976, 71204.52
452.0797, 71188.86
452.5618, 71168.95
453.0439, 71144.82
453.5260, 71120.62
454.0081, 71106.92
454.4903, 71104.88
454.9724, 71108.20
455.4545, 71110.73
455.9366, 71113.91
456.4187, 71129.41
456.9008, 71157.07
457.3830, 71195.41
457.8651, 71249.78
458.3472, 71313.46
458.8293, 71363.58
459.3114, 71387.32
459.7935, 71397.74
460.2757, 71411.86
460.7578, 71427.24
461.2399, 71435.71
461.7220, 71428.17
462.2041, 71413.29
462.6862, 71396.34
463.1684, 71375.73
463.6505, 71367.65
464.1326, 71404.09
464.6147, 71452.63
465.0968, 71471.54
465.5789, 71412.89
466.0611, 71360.93
466.5432, 71347.39
467.0253, 71369.74
467.5074, 71384.38
467.9895, 71374.63
468.4716, 71366.48
468.9538, 71371.88
469.4359, 71393.83
469.9180, 71423.07
470.4001, 71469.10
470.8822, 71514.66
471.3643, 71530.25
471.8465, 71501.53
472.3286, 71481.32
472.8107, 71483.87
473.2928, 71505.32
473.7749, 71530.78
474.2570, 71562.61
474.7392, 71582.08
475.2213, 71557.45
475.7034, 71499.86
476.1855, 71495.88
476.6676, 71567.01
477.1497, 71652.66
477.6319, 71662.78
478.1140, 71617.89
478.5961, 71583.20
479.0782, 71593.16
479.5603, 71625.00
480.0424, 71659.50
480.5246, 71695.36
481.0067, 71721.02
481.4888, 71713.88
481.9709, 71701.15
482.4530, 71710.10
482.9352, 71757.34
483.4173, 71796.11
483.8994, 71797.05
484.3815, 71779.30
484.8636, 71772.34
485.3457, 71789.70
485.8279, 71810.45
486.3100, 71833.57
486.7921, 71859.13
487.2742, 71870.97
487.7563, 71853.23
488.2384, 71840.27
488.7206, 71855.76
489.2027, 71921.52
489.6848, 71957.07
490.1669, 71947.80
490.6490, 71924.45
491.1311, 71941.48
491.6133, 72006.09
492.0954, 72059.20
492.5775, 72075.57
493.0596, 72067.68
493.5417, 72084.58
494.0238, 72125.52
494.5060, 72172.83
494.9881, 72220.14
495.4702, 72261.45
495.9523, 72281.51
496.4344, 72274.23
496.9165, 72258.52
497.3987, 72248.85
497.8808, 72244.52
498.3629, 72244.98
498.8450, 72255.14
499.3271, 72266.25
499.8092, 72276.84
500.2914, 72285.98
500.7735, 72285.85
501.2556, 72270.07
501.7377, 72248.73
502.2198, 72227.36
502.7019, 72205.17
503.1841, 72189.52
503.6662, 72186.91
504.1483, 72190.26
504.6304, 72190.66
505.1125, 72180.96
505.5946, 72179.99
506.0768, 72191.73
506.5589, 72213.89
507.0410, 72240.28
507.5231, 72275.84
508.0052, 72299.17
508.4873, 72287.32
508.9695, 72239.35
509.4516, 72231.54
509.9337, 72270.05
510.4158, 72321.43
510.8979, 72350.23
511.3800, 72359.16
511.8622, 72359.92
512.3443, 72355.13
512.8264, 72344.20
513.3085, 72319.26
513.7906, 72285.86
514.2728, 72263.36
514.7549, 72283.41
515.2370, 72306.72
515.7191, 72292.66
516.2012, 72236.59
516.6833, 72189.90
517.1655, 72181.13
517.6476, 72190.58
518.1297, 72201.58
518.6118, 72209.95
519.0939, 72221.41
519.5760, 72242.59
520.0582, 72267.27
520.5403, 72279.91
521.0224, 72257.55
521.5045, 72254.53
521.9866, 72288.55
522.4688, 72359.37
522.9509, 72432.41
523.4330, 72512.77
523.9151, 72582.24
524.3972, 72620.40
524.8793, 72625.64
525.3615, 72638.87
525.8436, 72662.11
526.3257, 72696.40
526.8078, 72759.10
527.2899, 72839.78
527.7720, 72887.07
528.2542, 72858.61
528.7363, 72802.17
529.2184, 72782.95
529.7005, 72795.22
530.1826, 72806.70
530.6647, 72785.01
531.1469, 72762.63
531.6290, 72774.97
532.1111, 72837.45
532.5932, 72886.48
533.0753, 72884.04
533.5574, 72862.77
534.0396, 72856.52
534.5217, 72893.76
535.0038, 72921.39
535.4859, 72922.95
535.9680, 72909.97
536.4501, 72918.23
536.9323, 72956.72
537.4144, 73001.80
537.8965, 73046.78
538.3786, 73091.37
538.8607, 73124.75
539.3428, 73141.29
539.8250, 73160.64
540.3071, 73203.50
540.7892, 73266.47
541.2713, 73326.58
541.7534, 73378.84
542.2355, 73429.09
542.7177, 73484.20
543.1998, 73544.22
543.6819, 73607.92
544.1640, 73689.08
544.6461, 73763.05
545.1282, 73793.85
545.6104, 73790.11
546.0925, 73805.26
546.5746, 73889.65
547.0567, 73986.75
547.5388, 74065.09
548.0209, 74125.60
548.5031, 74147.27
548.9852, 74089.63
549.4673, 74008.07
549.9494, 73963.71
550.4315, 74017.32
550.9136, 74011.12
551.3958, 73903.55
551.8779, 73730.60
552.3600, 73602.27
552.8421, 73525.22
553.3242, 73465.98
553.8063, 73419.03
554.2885, 73380.70
554.7706, 73313.96
555.2527, 73215.99
555.7348, 73122.70
556.2169, 73072.12
556.6990, 73051.02
557.1812, 73021.98
557.6633, 72977.03
558.1454, 72934.38
558.6275, 72913.47
559.1096, 72907.55
559.5917, 72903.84
560.0739, 72887.74
560.5560, 72882.34
561.0381, 72911.11
561.5202, 72963.97
562.0023, 72997.66
562.4844, 72988.61
562.9666, 72967.78
563.4487, 72942.63
563.9308, 72906.96
564.4129, 72897.88
564.8950, 72929.98
565.3771, 72971.63
565.8593, 72995.22
566.3414, 72994.45
566.8235, 73002.49
567.3056, 73026.36
567.7877, 73054.66
568.2698, 73066.76
568.7520, 73063.70
569.2341, 73055.92
569.7162, 73043.61
570.1983, 73033.16
570.6804, 73042.79
571.1625, 73069.59
571.6447, 73088.13
572.1268, 73058.96
572.6089, 73028.07
573.0910, 73047.42
573.5731, 73129.59
574.0552, 73212.21
574.5374, 73265.67
575.0195, 73307.20
575.5016, 73352.87
575.9837, 73392.48
576.4658, 73450.23
576.9479, 73546.95
577.4301, 73656.43
577.9122, 73724.73
578.3943, 73721.73
578.8764, 73734.48
579.3585, 73792.58
579.8406, 73886.30
580.3228, 73956.83
580.8049, 74004.30
581.2870, 74025.88
581.7691, 74010.55
582.2512, 73967.52
582.7333, 73940.13
583.2155, 73935.51
583.6975, 73911.95
584.1796, 73795.59
584.6617, 73642.85
585.1439, 73548.72
585.6260, 73561.48
586.1081, 73600.71
586.5902, 73647.78
587.0723, 73683.73
587.5544, 73671.63
588.0366, 73537.39
588.5187, 73416.38
589.0008, 73353.08
589.4829, 73345.48
589.9650, 73344.13
590.4471, 73354.02
590.9293, 73359.24
591.4114, 73346.09
591.8935, 73307.02
592.3756, 73303.52
592.8577, 73348.09
593.3398, 73392.96
593.8220, 73382.73
594.3041, 73324.52
594.7862, 73270.41
595.2683, 73229.02
595.7504, 73199.88
596.2325, 73185.62
596.7147, 73183.65
597.1968, 73186.05
597.6789, 73187.05
598.1610, 73194.61
598.6431, 73225.09
599.1252, 73271.23
599.6074, 73298.88
600.0895, 73277.32
600.5716, 73250.40
601.0537, 73240.77
601.5358, 73255.52
602.0179, 73260.61
602.5001, 73250.25
602.9822, 73235.54
603.4643, 73222.33
603.9464, 73206.65
604.4285, 73211.27
604.9106, 73245.14
605.3928, 73286.11
605.8749, 73292.01
606.3570, 73266.65
606.8391, 73264.93
607.3212, 73320.30
607.8033, 73385.77
608.2855, 73374.34
608.7676, 73305.96
609.2497, 73255.20
609.7318, 73291.39
610.2139, 73339.84
610.6960, 73339.17
611.1782, 73287.34
611.6603, 73230.98
612.1424, 73179.98
612.6245, 73133.98
613.1066, 73093.61
613.5887, 73061.95
614.0709, 73031.00
614.5530, 73001.72
615.0351, 72974.15
615.5172, 72946.37
615.9993, 72916.48
616.4814, 72898.01
616.9636, 72895.58
617.4457, 72901.55
617.9278, 72899.11
618.4099, 72889.14
618.8920, 72885.11
619.3741, 72901.46
619.8563, 72918.67
620.3384, 72904.96
620.8205, 72864.02
621.3026, 72817.17
621.7847, 72767.13
622.2668, 72722.08
622.7490, 72690.92
623.2311, 72675.41
623.7132, 72662.65
624.1953, 72649.35
624.6774, 72639.66
625.1595, 72638.80
625.6417, 72666.16
626.1238, 72666.13
626.6059, 72626.05
627.0880, 72575.61
627.5701, 72556.73
628.0522, 72573.41
628.5344, 72588.04
629.0165, 72591.43
629.4986, 72590.41
629.9807, 72595.57
630.4628, 72606.77
630.9449, 72624.95
631.4271, 72656.23
631.9092, 72689.41
632.3913, 72705.90
632.8734, 72708.82
633.3555, 72722.50
633.8376, 72772.88
634.3198, 72825.20
634.8019, 72858.26
635.2840, 72867.16
635.7661, 72870.11
636.2482, 72867.39
636.7303, 72861.27
637.2125, 72853.63
637.6946, 72844.77
638.1767, 72835.12
638.6588, 72825.91
639.1409, 72816.04
639.6230, 72803.49
640.1052, 72788.92
640.5873, 72776.80
641.0694, 72769.47
641.5515, 72764.70
642.0336, 72755.84
642.5157, 72746.36
642.9979, 72746.10
643.4800, 72767.15
643.9621, 72792.49
644.4442, 72808.80
644.9263, 72817.59
645.4084, 72830.16
645.8906, 72855.49
646.3727, 72880.84
646.8548, 72901.84
647.3369, 72919.23
647.8190, 72928.66
648.3011, 72932.40
648.7833, 72924.86
649.2654, 72894.70
649.7475, 72837.73
650.2296, 72806.66
650.7117, 72806.23
651.1938, 72823.51
651.6760, 72842.75
652.1581, 72866.46
652.6402, 72902.92
653.1223, 72957.23
653.6044, 73017.67
654.0865, 73089.30
654.5687, 73158.09
655.0508, 73198.20
655.5329, 73176.08
656.0150, 73148.48
656.4971, 73128.79
656.9792, 73119.28
657.4614, 73130.12
657.9435, 73183.74
658.4256, 73225.40
658.9077, 73231.77
659.3898, 73204.85
659.8719, 73197.40
660.3541, 73213.09
660.8362, 73230.43
661.3183, 73232.02
661.8004, 73222.52
662.2825, 73221.28
662.7646, 73229.78
663.2468, 73241.52
663.7289, 73264.05
664.2110, 73281.86
664.6931, 73270.80
665.1752, 73213.77
665.6573, 73161.32
666.1395, 73132.08
666.6216, 73121.68
667.1037, 73124.55
667.5858, 73148.89
668.0679, 73176.55
668.5500, 73207.96
669.0322, 73240.91
669.5143, 73272.97
669.9964, 73307.20
670.4785, 73323.71
670.9606, 73310.75
671.4427, 73279.05
671.9249, 73250.29
672.4070, 73226.20
672.8891, 73225.13
673.3712, 73279.83
673.8533, 73350.32
674.3354, 73387.13
674.8176, 73392.16
675.2997, 73397.17
675.7818, 73426.80
676.2639, 73455.23
676.7460, 73463.22
677.2281, 73440.13
677.7103, 73431.05
678.1924, 73439.39
678.6745, 73460.16
679.1566, 73488.50
679.6387, 73522.02
680.1208, 73580.52
680.6030, 73675.22
681.0851, 73768.59
681.5672, 73808.26
682.0493, 73804.79
682.5314, 73805.84
683.0135, 73822.63
683.4957, 73846.66
683.9778, 73879.65
684.4599, 73911.92
684.9420, 73924.43
685.4241, 73882.05
685.9063, 73849.28
686.3884, 73857.59
686.8705, 73896.40
687.3526, 73926.64
687.8347, 73937.88
688.3168, 73955.83
688.7990, 73994.95
689.2811, 74049.15
689.7632, 74067.84
690.2453, 74047.13
690.7274, 74020.95
691.2095, 74000.99
691.6917, 73991.17
692.1738, 74015.86
692.6559, 74072.36
693.1380, 74111.27
693.6201, 74064.29
694.1022, 73999.50
694.5844, 73988.45
695.0665, 74047.91
695.5486, 74103.45
696.0307, 74122.84
696.5128, 74130.98
696.9949, 74149.84
697.4771, 74202.02
697.9592, 74216.30
698.4413, 74176.42
698.9234, 74121.51
699.4055, 74106.26
699.8876, 74132.80
700.3698, 74137.36
700.8519, 74106.64
701.3340, 74061.26
701.8161, 74028.85
702.2982, 74005.36
702.7803, 73977.99
703.2625, 73927.00
703.7446, 73889.90
704.2267, 73901.91
704.7088, 73945.55
705.1909, 73982.98
705.6730, 73989.38
706.1552, 74002.77
706.6373, 74031.60
707.1194, 74072.77
707.6015, 74115.00
708.0836, 74155.91
708.5657, 74199.95
709.0479, 74254.64
709.5300, 74311.96
710.0121, 74332.73
710.4942, 74317.93
710.9763, 74306.09
711.4584, 74335.23
711.9406, 74375.60
712.4227, 74390.70
712.9048, 74379.32
713.3869, 74357.80
713.8690, 74325.38
714.3511, 74293.71
714.8333, 74271.09
715.3154, 74262.95
715.7975, 74257.09
716.2796, 74263.02
716.7617, 74262.84
717.2438, 74235.10
717.7260, 74175.73
718.2081, 74150.59
