##NAMES=Chondrodite
##RRUFFID=R110158
##IDEAL CHEMISTRY=Mg_5_(SiO_4_)_2_F_2_
##LOCALITY=Pein Pyit, Mogok, Mandalay Division, Burma
##OWNER=RRUFF
##SOURCE=Marcus Origlieri
##DESCRIPTION=Orange bleb enclosed in calcite, associated with red spinel
##STATUS=The identification of this mineral has been confirmed by single-crystal X-ray diffraction.
##URL=rruff.info/R110158
214.5433, 3963.904
215.0254, 3961.076
215.5075, 3955.959
215.9896, 3950.469
216.4717, 3947.507
216.9539, 3948.817
217.4360, 3948.483
217.9181, 3945.862
218.4002, 3941.830
218.8823, 3936.205
219.3644, 3928.930
219.8466, 3922.730
220.3287, 3922.181
220.8108, 3928.569
221.2929, 3933.070
221.7750, 3933.555
222.2571, 3931.919
222.7393, 3929.953
223.2214, 3927.814
223.7035, 3926.686
224.1856, 3929.126
224.6677, 3934.840
225.1498, 3939.247
225.6320, 3940.990
226.1141, 3940.759
226.5962, 3939.853
227.0783, 3938.746
227.5604, 3936.124
228.0425, 3929.528
228.5247, 3919.935
229.0068, 3910.932
229.4889, 3902.978
229.9710, 3896.707
230.4531, 3893.737
230.9352, 3894.832
231.4174, 3898.163
231.8995, 3903.517
232.3816, 3910.023
232.8637, 3915.178
233.3458, 3918.443
233.8279, 3919.497
234.3101, 3916.670
234.7922, 3907.438
235.2743, 3898.516
235.7564, 3893.790
236.2385, 3892.091
236.7206, 3891.142
237.2028, 3889.844
237.6849, 3888.302
238.1670, 3887.279
238.6491, 3888.776
239.1312, 3887.516
239.6133, 3879.991
240.0955, 3868.866
240.5776, 3858.394
241.0597, 3850.930
241.5418, 3846.176
242.0239, 3842.847
242.5060, 3840.902
242.9882, 3840.715
243.4703, 3843.730
243.9524, 3848.094
244.4345, 3850.997
244.9166, 3850.561
245.3987, 3847.724
245.8809, 3847.071
246.3630, 3851.418
246.8451, 3854.324
247.3272, 3853.321
247.8093, 3850.507
248.2914, 3848.895
248.7736, 3850.255
249.2557, 3853.438
249.7378, 3853.695
250.2199, 3847.906
250.7020, 3842.868
251.1841, 3839.969
251.6663, 3838.144
252.1484, 3836.276
252.6305, 3833.831
253.1126, 3830.782
253.5947, 3826.894
254.0768, 3819.465
254.5590, 3814.675
255.0411, 3815.110
255.5232, 3817.488
256.0053, 3818.004
256.4874, 3815.059
256.9695, 3810.127
257.4517, 3806.754
257.9338, 3805.573
258.4159, 3805.427
258.8980, 3807.145
259.3801, 3809.513
259.8622, 3811.420
260.3444, 3812.460
260.8265, 3812.692
261.3086, 3812.224
261.7907, 3810.659
262.2728, 3808.845
262.7549, 3806.875
263.2371, 3804.590
263.7192, 3801.906
264.2013, 3798.782
264.6834, 3795.035
265.1655, 3790.032
265.6476, 3781.852
266.1298, 3777.715
266.6119, 3781.260
267.0940, 3786.980
267.5761, 3789.612
268.0582, 3788.181
268.5403, 3785.375
269.0225, 3784.124
269.5046, 3784.718
269.9867, 3786.383
270.4688, 3790.194
270.9509, 3794.421
271.4330, 3796.655
271.9152, 3796.829
272.3973, 3798.665
272.8794, 3806.888
273.3615, 3822.031
273.8436, 3831.683
274.3257, 3829.582
274.8079, 3826.238
275.2900, 3831.103
275.7721, 3844.190
276.2542, 3857.580
276.7363, 3866.351
277.2184, 3869.828
277.7006, 3869.298
278.1827, 3863.219
278.6648, 3854.317
279.1469, 3843.976
279.6290, 3832.327
280.1111, 3819.552
280.5933, 3804.703
281.0754, 3789.256
281.5575, 3777.575
282.0396, 3772.177
282.5217, 3767.477
283.0038, 3759.814
283.4860, 3749.735
283.9681, 3739.911
284.4502, 3731.278
284.9323, 3723.956
285.4144, 3717.838
285.8965, 3713.050
286.3787, 3709.060
286.8608, 3704.811
287.3429, 3700.944
287.8250, 3700.355
288.3071, 3705.701
288.7892, 3712.379
289.2714, 3713.563
289.7535, 3708.862
290.2356, 3703.229
290.7177, 3698.412
291.1998, 3694.379
291.6819, 3691.194
292.1641, 3689.259
292.6462, 3687.393
293.1283, 3684.006
293.6104, 3679.312
294.0925, 3674.948
294.5746, 3671.266
295.0568, 3668.415
295.5389, 3667.036
296.0210, 3667.680
296.5031, 3668.376
296.9852, 3666.688
297.4673, 3663.549
297.9495, 3661.617
298.4316, 3663.909
298.9137, 3667.077
299.3958, 3665.609
299.8779, 3658.644
300.3600, 3650.624
300.8422, 3643.781
301.3243, 3637.981
301.8064, 3633.236
302.2885, 3629.366
302.7706, 3626.668
303.2527, 3625.870
303.7349, 3627.102
304.2170, 3628.361
304.6991, 3628.401
305.1812, 3628.102
305.6633, 3628.999
306.1454, 3632.051
306.6276, 3634.382
307.1097, 3632.842
307.5918, 3627.671
308.0739, 3622.987
308.5560, 3620.682
309.0381, 3618.971
309.5203, 3615.749
310.0024, 3610.817
310.4845, 3605.659
310.9666, 3601.284
311.4487, 3597.536
311.9308, 3593.472
312.4130, 3587.993
312.8951, 3583.594
313.3772, 3582.973
313.8593, 3585.605
314.3414, 3588.315
314.8235, 3589.511
315.3057, 3589.614
315.7878, 3590.180
316.2699, 3592.262
316.7520, 3592.490
317.2341, 3587.145
317.7162, 3578.174
318.1984, 3569.456
318.6805, 3561.356
319.1626, 3554.818
319.6447, 3551.944
320.1268, 3553.380
320.6089, 3555.298
321.0911, 3554.697
321.5732, 3553.536
322.0553, 3555.021
322.5374, 3561.443
323.0195, 3567.985
323.5016, 3569.375
323.9838, 3565.596
324.4659, 3560.640
324.9480, 3554.892
325.4301, 3549.537
325.9122, 3546.167
326.3943, 3545.123
326.8765, 3544.522
327.3586, 3542.866
327.8407, 3540.398
328.3228, 3538.570
328.8049, 3537.974
329.2870, 3537.761
329.7692, 3536.805
330.2513, 3535.203
330.7334, 3534.206
331.2155, 3535.184
331.6976, 3537.129
332.1797, 3537.358
332.6619, 3534.970
333.1440, 3532.619
333.6261, 3532.679
334.1082, 3534.445
334.5903, 3536.501
335.0724, 3538.127
335.5546, 3539.960
336.0367, 3543.512
336.5188, 3549.065
337.0009, 3553.262
337.4830, 3553.797
337.9651, 3551.703
338.4473, 3548.855
338.9294, 3544.808
339.4115, 3541.080
339.8936, 3540.556
340.3757, 3542.407
340.8578, 3539.781
341.3400, 3527.746
341.8221, 3512.358
342.3042, 3503.014
342.7863, 3500.423
343.2684, 3498.975
343.7505, 3496.940
344.2327, 3493.980
344.7148, 3488.759
345.1969, 3480.268
345.6790, 3471.415
346.1611, 3465.967
346.6432, 3463.368
347.1254, 3460.689
347.6075, 3456.696
348.0896, 3452.454
348.5717, 3449.941
349.0538, 3449.409
349.5359, 3447.757
350.0181, 3441.259
350.5002, 3431.602
350.9823, 3426.290
351.4644, 3430.039
351.9465, 3434.573
352.4286, 3433.689
352.9108, 3428.433
353.3929, 3423.844
353.8750, 3422.468
354.3571, 3423.182
354.8392, 3423.285
355.3214, 3423.060
355.8035, 3421.801
356.2856, 3417.696
356.7677, 3412.668
357.2498, 3410.750
357.7319, 3413.455
358.2141, 3417.422
358.6962, 3417.625
359.1783, 3413.198
359.6604, 3410.640
360.1425, 3411.743
360.6246, 3414.384
361.1068, 3417.326
361.5889, 3420.250
362.0710, 3421.875
362.5531, 3421.109
363.0352, 3417.859
363.5173, 3413.593
363.9995, 3405.823
364.4816, 3399.553
364.9637, 3397.848
365.4458, 3399.603
365.9279, 3401.895
366.4100, 3403.217
366.8922, 3403.999
367.3743, 3405.608
367.8564, 3407.331
368.3385, 3410.769
368.8206, 3418.742
369.3027, 3427.416
369.7849, 3432.317
370.2670, 3432.195
370.7491, 3428.770
371.2312, 3424.146
371.7133, 3417.684
372.1954, 3412.027
372.6776, 3407.839
373.1597, 3403.859
373.6418, 3399.130
374.1239, 3393.805
374.6060, 3388.686
375.0881, 3384.302
375.5703, 3380.688
376.0524, 3378.086
376.5345, 3376.146
377.0166, 3375.576
377.4987, 3377.183
377.9808, 3380.115
378.4630, 3383.047
378.9451, 3385.368
379.4272, 3387.719
379.9093, 3391.325
380.3914, 3393.893
380.8735, 3402.196
381.3557, 3419.324
381.8378, 3439.502
382.3199, 3458.479
382.8020, 3475.775
383.2841, 3493.631
383.7662, 3514.574
384.2484, 3539.071
384.7305, 3563.877
385.2126, 3592.259
385.6947, 3617.786
386.1768, 3638.675
386.6589, 3655.027
387.1411, 3668.278
387.6232, 3680.190
388.1053, 3688.332
388.5874, 3683.221
389.0695, 3659.483
389.5516, 3631.927
390.0338, 3599.874
390.5159, 3568.244
390.9980, 3541.194
391.4801, 3519.866
391.9622, 3503.892
392.4443, 3494.757
392.9265, 3493.602
393.4086, 3488.358
393.8907, 3473.812
394.3728, 3458.271
394.8549, 3446.883
395.3370, 3438.904
395.8192, 3430.745
396.3013, 3420.200
396.7834, 3407.704
397.2655, 3393.978
397.7476, 3377.433
398.2297, 3363.899
398.7119, 3358.518
399.1940, 3357.302
399.6761, 3355.362
400.1582, 3351.015
400.6403, 3346.633
401.1224, 3345.359
401.6046, 3346.919
402.0867, 3346.902
402.5688, 3343.537
403.0509, 3338.441
403.5330, 3332.633
404.0151, 3325.976
404.4973, 3322.325
404.9794, 3325.096
405.4615, 3331.482
405.9436, 3336.918
406.4257, 3340.879
406.9078, 3343.787
407.3900, 3346.172
407.8721, 3347.732
408.3542, 3347.312
408.8363, 3342.087
409.3184, 3337.343
409.8005, 3337.252
410.2827, 3340.697
410.7648, 3343.911
411.2469, 3345.408
411.7290, 3345.408
412.2111, 3344.108
412.6932, 3341.026
413.1754, 3338.065
413.6575, 3335.196
414.1396, 3332.778
414.6217, 3331.737
415.1038, 3332.026
415.5859, 3331.813
416.0681, 3329.251
416.5502, 3324.140
417.0323, 3318.451
417.5144, 3311.266
417.9965, 3304.542
418.4786, 3298.934
418.9608, 3294.395
419.4429, 3290.954
419.9250, 3288.709
420.4071, 3286.948
420.8892, 3283.722
421.3713, 3279.126
421.8535, 3272.711
422.3356, 3263.101
422.8177, 3252.757
423.2998, 3243.149
423.7819, 3234.696
424.2640, 3227.657
424.7462, 3222.581
425.2283, 3219.633
425.7104, 3215.853
426.1925, 3209.846
426.6746, 3204.510
427.1567, 3201.128
427.6389, 3198.839
428.1210, 3196.099
428.6031, 3192.002
429.0852, 3187.761
429.5673, 3186.278
430.0494, 3188.606
430.5316, 3189.897
431.0137, 3187.308
431.4958, 3184.506
431.9779, 3184.394
432.4600, 3186.931
432.9421, 3189.038
433.4243, 3187.895
433.9064, 3184.279
434.3885, 3181.481
434.8706, 3179.630
435.3527, 3178.648
435.8348, 3179.679
436.3170, 3181.351
436.7991, 3181.219
437.2812, 3178.239
437.7633, 3173.882
438.2454, 3168.359
438.7275, 3162.097
439.2097, 3158.886
439.6918, 3161.583
440.1739, 3165.587
440.6560, 3162.730
441.1381, 3152.323
441.6202, 3144.988
442.1024, 3147.108
442.5845, 3151.949
443.0666, 3151.392
443.5487, 3144.914
444.0308, 3137.401
444.5129, 3132.126
444.9951, 3129.085
445.4772, 3127.612
445.9593, 3129.180
446.4414, 3130.375
446.9235, 3130.535
447.4056, 3129.575
447.8878, 3127.016
448.3699, 3122.741
448.8520, 3117.947
449.3341, 3114.380
449.8162, 3112.169
450.2983, 3111.034
450.7805, 3111.434
451.2626, 3112.313
451.7447, 3114.003
452.2268, 3115.746
452.7089, 3115.980
453.1910, 3113.640
453.6732, 3109.034
454.1553, 3103.163
454.6374, 3093.972
455.1195, 3087.122
455.6016, 3084.635
456.0837, 3083.786
456.5659, 3082.368
457.0480, 3079.946
457.5301, 3077.521
458.0122, 3075.991
458.4943, 3075.348
458.9764, 3075.780
459.4586, 3079.065
459.9407, 3080.657
460.4228, 3077.223
460.9049, 3070.867
461.3870, 3065.106
461.8691, 3060.632
462.3513, 3058.125
462.8334, 3060.078
463.3155, 3066.219
463.7976, 3069.009
464.2797, 3064.663
464.7618, 3057.667
465.2440, 3053.673
465.7261, 3052.661
466.2082, 3052.114
466.6903, 3050.913
467.1724, 3049.866
467.6545, 3050.594
468.1367, 3053.040
468.6188, 3054.383
469.1009, 3052.204
469.5830, 3047.525
470.0651, 3045.485
470.5472, 3047.612
471.0294, 3050.034
471.5115, 3052.243
471.9936, 3054.005
472.4757, 3054.938
472.9578, 3054.969
473.4399, 3054.479
473.9221, 3053.965
474.4042, 3053.543
474.8863, 3052.316
475.3684, 3051.621
475.8505, 3048.820
476.3326, 3040.829
476.8148, 3030.486
477.2969, 3022.647
477.7790, 3019.760
478.2611, 3019.741
478.7432, 3018.083
479.2253, 3013.699
479.7075, 3010.825
480.1896, 3011.417
480.6717, 3012.427
481.1538, 3012.102
481.6359, 3010.611
482.1180, 3009.309
482.6002, 3009.448
483.0823, 3010.346
483.5644, 3010.124
484.0465, 3008.750
484.5286, 3006.351
485.0107, 3002.461
485.4929, 2997.802
485.9750, 2992.958
486.4571, 2987.842
486.9392, 2983.449
487.4213, 2979.874
487.9034, 2977.521
488.3856, 2978.042
488.8677, 2982.073
489.3498, 2985.974
489.8319, 2986.762
490.3140, 2984.383
490.7961, 2981.106
491.2783, 2975.649
491.7604, 2970.625
492.2425, 2966.823
492.7246, 2964.350
493.2067, 2963.424
493.6888, 2964.121
494.1710, 2966.211
494.6531, 2969.793
495.1352, 2976.861
495.6173, 2978.769
496.0994, 2972.417
496.5815, 2964.723
497.0637, 2958.135
497.5458, 2952.917
498.0279, 2949.104
498.5100, 2946.854
498.9921, 2945.243
499.4742, 2941.458
499.9564, 2933.738
500.4385, 2928.339
500.9206, 2926.752
501.4027, 2927.194
501.8848, 2929.757
502.3669, 2933.788
502.8491, 2936.930
503.3312, 2937.399
503.8133, 2935.862
504.2954, 2933.883
504.7775, 2931.349
505.2596, 2929.050
505.7418, 2928.137
506.2239, 2927.229
506.7060, 2923.580
507.1881, 2915.814
507.6702, 2910.657
508.1523, 2914.131
508.6345, 2921.541
509.1166, 2925.164
509.5987, 2923.857
510.0808, 2920.107
510.5629, 2915.696
511.0450, 2910.587
511.5272, 2904.408
512.0093, 2895.473
512.4914, 2887.561
512.9735, 2881.092
513.4556, 2876.514
513.9377, 2874.873
514.4199, 2876.255
514.9020, 2878.941
515.3841, 2881.036
515.8662, 2882.757
516.3483, 2882.438
516.8304, 2878.763
517.3126, 2874.382
517.7947, 2869.907
518.2768, 2865.223
518.7589, 2859.388
519.2410, 2851.877
519.7231, 2845.469
520.2053, 2845.368
520.6874, 2852.187
521.1695, 2856.054
521.6516, 2853.690
522.1337, 2850.613
522.6158, 2852.292
523.0980, 2856.473
523.5801, 2856.409
524.0622, 2846.377
524.5443, 2834.417
525.0264, 2828.518
525.5085, 2828.163
525.9907, 2831.672
526.4728, 2840.267
526.9549, 2848.481
527.4370, 2846.594
527.9191, 2832.330
528.4012, 2823.212
528.8834, 2823.870
529.3655, 2827.720
529.8476, 2831.893
530.3297, 2835.448
530.8118, 2836.938
531.2939, 2835.539
531.7761, 2831.854
532.2582, 2827.086
532.7403, 2818.292
533.2224, 2813.980
533.7045, 2816.793
534.1866, 2821.250
534.6688, 2825.263
535.1509, 2828.079
535.6330, 2828.727
536.1151, 2826.036
536.5972, 2821.467
537.0793, 2819.088
537.5615, 2819.480
538.0436, 2819.804
538.5257, 2819.715
539.0078, 2818.882
539.4899, 2816.592
539.9720, 2812.968
540.4542, 2809.987
540.9363, 2808.007
541.4184, 2807.567
541.9005, 2810.282
542.3826, 2815.996
542.8647, 2821.181
543.3469, 2824.012
543.8290, 2825.149
544.3111, 2826.334
544.7932, 2828.234
545.2753, 2828.629
545.7574, 2825.297
546.2396, 2821.665
546.7217, 2820.617
547.2038, 2822.181
547.6859, 2825.305
548.1680, 2829.622
548.6501, 2834.199
549.1323, 2834.707
549.6144, 2828.625
550.0965, 2822.696
550.5786, 2818.296
551.0607, 2813.826
551.5428, 2808.215
552.0250, 2801.394
552.5071, 2793.763
552.9892, 2784.364
553.4713, 2774.769
553.9534, 2770.149
554.4355, 2771.514
554.9177, 2772.889
555.3998, 2772.474
555.8819, 2770.369
556.3640, 2766.828
556.8461, 2761.762
557.3282, 2755.958
557.8104, 2746.836
558.2925, 2738.778
558.7746, 2738.939
559.2567, 2746.548
559.7388, 2752.796
560.2209, 2752.223
560.7031, 2746.835
561.1852, 2743.033
561.6673, 2741.279
562.1494, 2740.561
562.6315, 2742.787
563.1136, 2744.548
563.5958, 2742.594
564.0779, 2737.638
564.5600, 2733.061
565.0421, 2731.292
565.5242, 2731.552
566.0063, 2731.051
566.4885, 2729.035
566.9706, 2728.440
567.4527, 2730.938
567.9348, 2734.405
568.4169, 2737.660
568.8990, 2740.588
569.3812, 2743.284
569.8633, 2746.131
570.3454, 2748.572
570.8275, 2749.593
571.3096, 2749.269
571.7917, 2748.514
572.2739, 2747.263
572.7560, 2746.517
573.2381, 2748.316
573.7202, 2753.300
574.2023, 2758.179
574.6844, 2762.471
575.1666, 2766.763
575.6487, 2770.996
576.1308, 2775.579
576.6129, 2781.792
577.0950, 2790.436
577.5771, 2799.810
578.0593, 2805.630
578.5414, 2805.358
579.0235, 2808.456
579.5056, 2818.458
579.9877, 2829.069
580.4698, 2838.875
580.9520, 2846.975
581.4341, 2851.786
581.9162, 2851.924
582.3983, 2849.873
582.8804, 2849.212
583.3625, 2849.670
583.8447, 2848.575
584.3268, 2845.696
584.8089, 2840.243
585.2910, 2830.360
585.7731, 2816.527
586.2552, 2803.757
586.7374, 2792.855
587.2195, 2782.747
587.7016, 2772.802
588.1837, 2763.349
588.6658, 2755.475
589.1479, 2749.379
589.6301, 2743.073
590.1122, 2733.503
590.5943, 2719.870
591.0764, 2710.761
591.5585, 2709.801
592.0406, 2709.298
592.5228, 2706.799
593.0049, 2704.066
593.4870, 2703.718
593.9691, 2706.342
594.4512, 2709.102
594.9333, 2708.132
595.4155, 2704.811
595.8976, 2706.464
596.3797, 2715.129
596.8618, 2721.375
597.3439, 2719.097
597.8260, 2710.673
598.3082, 2702.094
598.7903, 2691.754
599.2724, 2685.328
599.7545, 2685.382
600.2366, 2689.789
600.7188, 2698.044
601.2009, 2709.000
601.6830, 2718.962
602.1651, 2725.650
602.6472, 2729.076
603.1293, 2728.849
603.6115, 2721.111
604.0936, 2716.866
604.5757, 2717.983
605.0578, 2721.379
605.5399, 2726.315
606.0220, 2731.955
606.5042, 2736.849
606.9863, 2740.680
607.4684, 2742.549
607.9505, 2739.992
608.4326, 2733.138
608.9147, 2727.678
609.3969, 2726.055
609.8790, 2724.533
610.3611, 2718.815
610.8432, 2709.204
611.3253, 2699.133
611.8074, 2688.268
612.2896, 2677.749
612.7717, 2669.109
613.2538, 2660.957
613.7359, 2650.032
614.2180, 2635.638
614.7001, 2621.739
615.1823, 2613.105
615.6644, 2609.975
616.1465, 2607.108
616.6286, 2605.630
617.1107, 2602.790
617.5928, 2596.384
618.0750, 2589.245
618.5571, 2584.541
619.0392, 2582.813
619.5213, 2581.552
620.0034, 2578.069
620.4855, 2573.906
620.9677, 2573.281
621.4498, 2576.512
621.9319, 2578.674
622.4140, 2576.889
622.8961, 2573.083
623.3782, 2571.722
623.8604, 2574.405
624.3425, 2574.249
624.8246, 2568.685
625.3067, 2561.661
625.7888, 2553.996
626.2709, 2547.196
626.7531, 2544.572
627.2352, 2547.859
627.7173, 2553.451
628.1994, 2554.310
628.6815, 2549.217
629.1636, 2546.248
629.6458, 2548.327
630.1279, 2549.275
630.6100, 2544.584
631.0921, 2537.132
631.5742, 2532.022
632.0563, 2530.734
632.5385, 2531.287
633.0206, 2533.733
633.5027, 2536.644
633.9848, 2536.881
634.4669, 2534.035
634.9490, 2530.205
635.4312, 2526.634
635.9133, 2523.500
636.3954, 2521.587
636.8775, 2523.649
637.3596, 2523.205
637.8417, 2517.556
638.3239, 2511.386
638.8060, 2507.545
639.2881, 2506.223
639.7702, 2507.069
640.2523, 2510.556
640.7344, 2514.284
641.2166, 2512.476
641.6987, 2504.760
642.1808, 2500.376
642.6629, 2503.547
643.1450, 2506.495
643.6271, 2499.841
644.1093, 2486.598
644.5914, 2478.066
645.0735, 2479.370
645.5556, 2481.608
646.0377, 2480.453
646.5198, 2477.786
647.0020, 2476.820
647.4841, 2477.864
647.9662, 2478.010
648.4483, 2474.428
648.9304, 2467.787
649.4125, 2462.601
649.8947, 2458.932
650.3768, 2456.737
650.8589, 2457.664
651.3410, 2458.667
651.8231, 2457.353
652.3052, 2453.977
652.7874, 2450.668
653.2695, 2448.663
653.7516, 2447.068
654.2337, 2444.894
654.7158, 2442.192
655.1979, 2438.876
655.6801, 2434.692
656.1622, 2431.355
656.6443, 2431.319
657.1264, 2434.924
657.6085, 2435.124
658.0906, 2428.120
658.5728, 2422.972
659.0549, 2422.856
659.5370, 2425.007
660.0191, 2427.234
660.5012, 2428.761
660.9833, 2428.758
661.4655, 2425.929
661.9476, 2421.406
662.4297, 2419.130
662.9118, 2419.498
663.3939, 2418.892
663.8760, 2415.344
664.3582, 2411.411
664.8403, 2410.609
665.3224, 2412.646
665.8045, 2413.890
666.2866, 2413.171
666.7687, 2412.146
667.2509, 2411.851
667.7330, 2411.829
668.2151, 2411.303
668.6972, 2410.069
669.1793, 2408.516
669.6614, 2407.276
670.1436, 2406.167
670.6257, 2402.229
671.1078, 2392.927
671.5899, 2386.014
672.0720, 2385.153
672.5541, 2386.430
673.0363, 2387.215
673.5184, 2387.308
674.0005, 2387.050
674.4826, 2386.202
674.9647, 2385.359
675.4468, 2385.380
675.9290, 2385.904
676.4111, 2385.886
676.8932, 2385.007
677.3753, 2383.327
677.8574, 2380.555
678.3395, 2376.538
678.8217, 2375.516
679.3038, 2380.777
679.7859, 2384.922
680.2680, 2387.100
680.7501, 2387.392
681.2322, 2384.704
681.7144, 2379.698
682.1965, 2376.121
682.6786, 2377.487
683.1607, 2381.052
683.6428, 2382.698
684.1249, 2382.479
684.6071, 2379.999
685.0892, 2374.187
685.5713, 2369.747
686.0534, 2373.391
686.5355, 2385.943
687.0176, 2390.776
687.4998, 2381.974
687.9819, 2373.626
688.4640, 2368.862
688.9461, 2366.487
689.4282, 2365.375
689.9103, 2365.242
690.3925, 2366.294
690.8746, 2369.629
691.3567, 2373.353
691.8388, 2372.125
692.3209, 2365.731
692.8030, 2360.332
693.2852, 2358.076
693.7673, 2356.311
694.2494, 2351.620
694.7315, 2344.357
695.2136, 2339.942
695.6957, 2340.589
696.1779, 2341.663
696.6600, 2341.602
697.1421, 2341.126
697.6242, 2340.685
698.1063, 2340.601
698.5884, 2341.721
699.0706, 2344.984
699.5527, 2349.388
700.0348, 2352.009
700.5169, 2352.592
700.9990, 2353.096
701.4811, 2354.772
701.9633, 2355.236
702.4454, 2352.390
702.9275, 2346.687
703.4096, 2339.011
703.8917, 2325.284
704.3738, 2315.376
704.8560, 2315.151
705.3381, 2319.892
705.8202, 2325.244
706.3023, 2329.927
706.7844, 2332.742
707.2665, 2332.700
707.7487, 2330.817
708.2308, 2329.617
708.7129, 2328.944
709.1950, 2329.934
709.6771, 2334.954
710.1592, 2338.683
710.6414, 2337.334
711.1235, 2332.390
711.6056, 2326.468
712.0877, 2318.633
