##NAMES=Christelite
##RRUFFID=R060792
##IDEAL CHEMISTRY=Zn^2+^_3_Cu^2+^_2_(S^6+^_4_)_2_(OH)_6_&#183;4H_2_O
##LOCALITY=San Francisco mine, Sierra Gorda, Chile
##OWNER=RRUFF
##SOURCE=Bob Jenkins
##DESCRIPTION=Greenish blue bladed crystals associated with hemimorphite and quartz
##STATUS=The identification of this mineral has been confirmed by single-crystal X-ray diffraction.
##URL=rruff.info/R060792
119.599, 45.674
120.081, 48.550
120.563, 49.996
121.046, 48.129
121.528, 44.490
122.010, 42.413
122.492, 43.077
122.974, 45.011
123.456, 46.374
123.938, 47.144
124.420, 47.888
124.902, 48.858
125.385, 50.035
125.867, 51.291
126.349, 52.262
126.831, 53.703
127.313, 56.636
127.795, 61.292
128.277, 65.662
128.760, 67.465
129.242, 66.710
129.724, 67.586
130.206, 73.043
130.688, 79.398
131.170, 83.570
131.652, 84.985
132.134, 85.647
132.616, 88.089
133.098, 92.893
133.581, 96.381
134.063, 95.926
134.545, 94.696
135.027, 94.624
135.509, 96.211
135.991, 99.244
136.473, 103.466
136.956, 108.967
137.438, 115.547
137.920, 124.068
138.402, 133.110
138.884, 141.017
139.366, 147.140
139.848, 153.103
140.330, 162.348
140.812, 175.873
141.294, 191.094
141.777, 209.159
142.259, 227.542
142.741, 243.562
143.223, 255.882
143.705, 266.061
144.187, 278.697
144.669, 296.935
145.151, 313.077
145.634, 328.965
146.116, 341.439
146.598, 346.010
147.080, 340.071
147.562, 326.793
148.044, 318.157
148.526, 321.905
149.008, 321.526
149.490, 314.260
149.973, 302.092
150.455, 286.663
150.937, 268.602
151.419, 249.248
151.901, 235.883
152.383, 237.025
152.865, 234.973
153.347, 224.434
153.829, 209.214
154.312, 195.568
154.794, 187.128
155.276, 183.097
155.758, 177.469
156.240, 166.498
156.722, 158.122
157.204, 156.070
157.686, 157.878
158.169, 158.560
158.651, 154.888
159.133, 147.474
159.615, 142.170
160.097, 139.486
160.579, 137.844
161.061, 137.431
161.543, 137.737
162.025, 137.772
162.508, 136.978
162.990, 135.338
163.472, 132.829
163.954, 128.646
164.436, 124.602
164.918, 120.887
165.400, 117.794
165.883, 116.043
166.365, 116.282
166.847, 118.317
167.329, 120.269
167.811, 123.851
168.293, 125.761
168.775, 123.601
169.257, 118.196
169.739, 112.512
170.221, 108.271
170.704, 105.366
171.186, 102.603
171.668, 99.172
172.150, 96.604
172.632, 96.226
173.114, 97.632
173.596, 98.960
174.078, 99.028
174.561, 98.073
175.043, 97.548
175.525, 98.920
176.007, 99.419
176.489, 96.427
176.971, 90.581
177.453, 85.625
177.935, 83.554
178.417, 84.345
178.900, 86.466
179.382, 91.996
179.864, 97.014
180.346, 98.213
180.828, 96.148
181.310, 94.898
181.792, 97.620
182.274, 102.572
182.757, 103.979
183.239, 99.125
183.721, 93.448
184.203, 90.644
184.685, 90.442
185.167, 90.573
185.649, 89.141
186.131, 87.667
186.613, 89.816
187.096, 98.988
187.578, 107.813
188.060, 109.958
188.542, 106.113
189.024, 102.820
189.506, 103.591
189.988, 106.874
190.470, 108.890
190.952, 109.096
191.435, 108.682
191.917, 107.984
192.399, 107.122
192.881, 107.272
193.363, 109.244
193.845, 112.490
194.327, 115.763
194.809, 119.084
195.292, 122.345
195.774, 125.587
196.256, 128.766
196.738, 131.448
197.220, 133.194
197.702, 134.517
198.184, 136.310
198.666, 138.722
199.148, 141.274
199.631, 143.894
200.113, 146.495
200.595, 148.174
201.077, 147.404
201.559, 146.686
202.041, 149.900
202.523, 158.240
203.005, 166.373
203.488, 170.592
203.970, 171.434
204.452, 171.803
204.934, 171.636
205.416, 172.473
205.898, 176.283
206.380, 183.482
206.862, 191.189
207.344, 198.103
207.827, 204.206
208.309, 209.705
208.791, 215.563
209.273, 219.424
209.755, 217.732
210.237, 210.046
210.719, 203.463
211.201, 203.768
211.684, 208.520
212.166, 209.407
212.648, 203.604
213.130, 194.943
213.612, 187.246
214.094, 180.493
214.576, 174.228
215.058, 167.225
215.540, 160.550
216.023, 157.773
216.505, 161.274
216.987, 165.018
217.469, 161.876
217.951, 152.943
218.433, 145.359
218.915, 142.872
219.397, 143.455
219.880, 143.235
220.362, 141.716
220.844, 139.496
221.326, 136.449
221.808, 132.917
222.290, 130.481
222.772, 130.566
223.254, 131.736
223.736, 131.608
224.219, 129.769
224.701, 127.754
225.183, 126.714
225.665, 126.470
226.147, 126.689
226.629, 127.544
227.111, 128.700
227.593, 129.462
228.076, 129.697
228.558, 130.788
229.040, 134.036
229.522, 138.928
230.004, 143.941
230.486, 149.722
230.968, 154.987
231.450, 158.513
231.932, 160.314
232.415, 161.100
232.897, 160.779
233.379, 159.812
233.861, 159.503
234.343, 159.944
234.825, 161.008
235.307, 162.597
235.789, 164.716
236.271, 167.643
236.754, 172.183
237.236, 177.104
237.718, 179.523
238.200, 178.468
238.682, 176.773
239.164, 176.543
239.646, 176.984
240.128, 175.111
240.611, 168.973
241.093, 161.120
241.575, 156.707
242.057, 156.360
242.539, 156.846
243.021, 157.624
243.503, 158.370
243.985, 158.175
244.467, 156.510
244.950, 154.653
245.432, 154.862
245.914, 157.386
246.396, 160.072
246.878, 163.150
247.360, 165.909
247.842, 167.348
248.324, 167.223
248.807, 166.165
249.289, 164.862
249.771, 163.307
250.253, 161.356
250.735, 158.408
251.217, 155.408
251.699, 153.062
252.181, 151.474
252.663, 150.706
253.146, 151.027
253.628, 152.598
254.110, 153.370
254.592, 153.455
255.074, 152.708
255.556, 150.317
256.038, 146.739
256.520, 143.914
257.003, 143.465
257.485, 145.211
257.967, 145.459
258.449, 143.943
258.931, 141.542
259.413, 138.297
259.895, 134.424
260.377, 129.968
260.859, 124.726
261.342, 119.383
261.824, 117.161
262.306, 121.861
262.788, 124.975
263.270, 124.358
263.752, 121.727
264.234, 119.378
264.716, 118.249
265.198, 117.667
265.681, 116.094
266.163, 110.566
266.645, 108.257
267.127, 112.158
267.609, 117.442
268.091, 119.498
268.573, 117.441
269.056, 114.208
269.538, 114.182
270.020, 119.445
270.502, 122.479
270.984, 121.398
271.466, 120.097
271.948, 120.786
272.430, 123.553
272.912, 127.319
273.395, 131.234
273.877, 135.483
274.359, 138.441
274.841, 138.715
275.323, 139.009
275.805, 139.633
276.287, 140.953
276.769, 143.681
277.251, 148.661
277.734, 155.352
278.216, 160.158
278.698, 162.281
279.180, 163.393
279.662, 162.178
280.144, 160.827
280.626, 162.807
281.108, 170.263
281.591, 179.690
282.073, 182.827
282.555, 176.380
283.037, 171.907
283.519, 174.438
284.001, 178.665
284.483, 180.250
284.965, 178.067
285.447, 174.467
285.930, 172.711
286.412, 173.179
286.894, 171.018
287.376, 161.844
287.858, 152.785
288.340, 149.400
288.822, 151.562
289.304, 154.033
289.786, 152.528
290.269, 147.994
290.751, 145.121
291.233, 144.718
291.715, 145.411
292.197, 146.379
292.679, 147.578
293.161, 148.889
293.643, 151.157
294.125, 153.192
294.608, 152.417
295.090, 148.289
295.572, 144.667
296.054, 144.786
296.536, 147.125
297.018, 148.049
297.500, 146.057
297.983, 143.619
298.465, 142.514
298.947, 142.638
299.429, 143.447
299.911, 144.896
300.393, 146.706
300.875, 148.238
301.357, 149.286
301.839, 150.509
302.322, 152.468
302.804, 154.699
303.286, 156.269
303.768, 156.852
304.250, 157.161
304.732, 158.309
305.214, 160.705
305.696, 162.528
306.178, 162.501
306.661, 162.606
307.143, 164.976
307.625, 169.612
308.107, 174.617
308.589, 178.613
309.071, 181.741
309.553, 181.437
310.035, 174.748
310.517, 168.277
311.000, 165.010
311.482, 164.084
311.964, 163.047
312.446, 160.327
312.928, 156.602
313.410, 155.015
313.892, 159.935
314.374, 161.597
314.857, 156.260
315.339, 148.557
315.821, 143.613
316.303, 143.090
316.785, 144.400
317.267, 142.941
317.749, 136.814
318.231, 132.939
318.714, 134.493
319.196, 135.965
319.678, 133.585
320.160, 127.608
320.642, 121.483
321.124, 118.359
321.606, 118.190
322.088, 118.070
322.570, 117.777
323.052, 117.855
323.535, 118.765
324.017, 120.151
324.499, 121.324
324.981, 121.880
325.463, 122.084
325.945, 122.111
326.427, 121.592
326.909, 122.515
327.392, 127.772
327.874, 134.045
328.356, 137.357
328.838, 136.462
329.320, 134.593
329.802, 134.225
330.284, 135.092
330.766, 135.525
331.249, 134.355
331.731, 133.786
332.213, 138.109
332.695, 147.590
333.177, 153.498
333.659, 150.108
334.141, 143.095
334.623, 139.911
335.105, 141.487
335.588, 144.023
336.070, 144.118
336.552, 141.858
337.034, 141.970
337.516, 146.779
337.998, 151.611
338.480, 154.147
338.962, 154.794
339.444, 154.570
339.927, 153.848
340.409, 153.077
340.891, 153.706
341.373, 156.693
341.855, 159.964
342.337, 164.034
342.819, 168.017
343.302, 170.898
343.784, 172.491
344.266, 173.696
344.748, 175.754
345.230, 179.104
345.712, 181.673
346.194, 183.218
346.676, 184.282
347.158, 184.930
347.641, 185.278
348.123, 185.609
348.605, 186.328
349.087, 187.085
349.569, 185.981
350.051, 181.721
350.533, 177.940
351.015, 176.018
351.497, 174.964
351.980, 173.853
352.462, 172.472
352.944, 170.594
353.426, 167.260
353.908, 162.423
354.390, 159.608
354.872, 160.609
355.354, 162.950
355.836, 164.733
356.319, 165.917
356.801, 165.598
357.283, 161.868
357.765, 156.774
358.247, 154.441
358.729, 155.536
359.211, 156.637
359.693, 154.881
360.176, 150.786
360.658, 147.872
361.140, 146.393
361.622, 145.956
362.104, 147.302
362.586, 149.589
363.068, 150.137
363.550, 147.400
364.033, 143.586
364.515, 143.882
364.997, 154.611
365.479, 158.659
365.961, 148.053
366.443, 135.002
366.925, 130.142
367.407, 134.693
367.889, 142.879
368.371, 149.198
368.854, 153.556
369.336, 156.855
369.818, 158.430
370.300, 159.649
370.782, 159.717
371.264, 159.915
371.746, 162.624
372.228, 169.343
372.711, 177.903
373.193, 183.134
373.675, 183.904
374.157, 184.623
374.639, 185.001
375.121, 186.500
375.603, 191.040
376.085, 198.654
376.568, 205.917
377.050, 208.835
377.532, 208.795
378.014, 212.560
378.496, 222.204
378.978, 232.363
379.460, 239.143
379.942, 243.333
380.424, 246.568
380.907, 250.239
381.389, 252.248
381.871, 249.198
382.353, 242.226
382.835, 237.378
383.317, 237.981
383.799, 241.410
384.281, 241.401
384.763, 236.759
385.246, 232.068
385.728, 227.111
386.210, 222.991
386.692, 221.348
387.174, 222.189
387.656, 223.691
388.138, 224.350
388.620, 224.333
389.103, 221.269
389.585, 212.491
390.067, 203.762
390.549, 196.526
391.031, 190.531
391.513, 184.925
391.995, 179.199
392.477, 174.395
392.960, 173.351
393.442, 178.226
393.924, 180.658
394.406, 177.814
394.888, 173.299
395.370, 168.216
395.852, 163.081
396.334, 159.674
396.816, 161.164
397.298, 165.603
397.781, 165.198
398.263, 158.085
398.745, 151.216
399.227, 149.723
399.709, 151.409
400.191, 152.144
400.673, 150.881
401.155, 149.157
401.638, 148.444
402.120, 148.162
402.602, 146.028
403.084, 140.788
403.566, 135.280
404.048, 134.008
404.530, 138.580
405.012, 142.071
405.495, 143.570
405.977, 144.378
406.459, 145.340
406.941, 146.482
407.423, 147.672
407.905, 148.977
408.387, 150.084
408.869, 148.922
409.351, 141.982
409.834, 137.428
410.316, 136.357
410.798, 137.972
411.280, 142.281
411.762, 149.025
412.244, 156.069
412.726, 160.821
413.208, 163.174
413.690, 165.624
414.173, 168.258
414.655, 171.024
415.137, 173.811
415.619, 176.677
416.101, 179.776
416.583, 183.557
417.065, 187.210
417.547, 189.279
418.030, 189.932
418.512, 191.638
418.994, 195.913
419.476, 201.009
419.958, 203.306
420.440, 201.733
420.922, 202.428
421.404, 207.824
421.887, 215.536
422.369, 223.861
422.851, 232.346
423.333, 240.156
423.815, 246.548
424.297, 251.667
424.779, 257.383
425.261, 262.527
425.743, 269.769
426.225, 280.962
426.708, 293.830
427.190, 305.214
427.672, 314.367
428.154, 324.148
428.636, 340.252
429.118, 364.483
429.600, 380.849
430.082, 381.996
430.565, 382.657
431.047, 390.090
431.529, 402.548
432.011, 415.556
432.493, 426.946
432.975, 438.373
433.457, 453.646
433.939, 472.522
434.422, 487.360
434.904, 494.721
435.386, 497.472
435.868, 500.228
436.350, 503.458
436.832, 504.367
437.314, 500.319
437.796, 494.864
438.278, 492.413
438.761, 492.686
439.243, 491.018
439.725, 483.456
440.207, 471.290
440.689, 463.546
441.171, 461.646
441.653, 462.811
442.135, 467.981
442.617, 475.413
443.100, 483.404
443.582, 491.593
444.064, 500.966
444.546, 513.662
445.028, 529.933
445.510, 542.520
445.992, 549.146
446.474, 555.307
446.957, 563.160
447.439, 572.380
447.921, 582.761
448.403, 595.183
448.885, 606.869
449.367, 614.607
449.849, 618.971
450.331, 623.472
450.814, 630.131
451.296, 634.647
451.778, 630.034
452.260, 615.298
452.742, 603.897
453.224, 599.299
453.706, 596.518
454.188, 593.747
454.670, 590.066
455.152, 582.878
455.635, 570.358
456.117, 555.812
456.599, 548.286
457.081, 552.378
457.563, 555.598
458.045, 557.044
458.527, 557.875
459.009, 559.373
459.492, 561.151
459.974, 561.361
460.456, 558.254
460.938, 552.682
461.420, 546.579
461.902, 538.795
462.384, 534.774
462.866, 539.356
463.349, 547.672
463.831, 554.293
464.313, 559.309
464.795, 560.624
465.277, 553.707
465.759, 543.717
466.241, 540.525
466.723, 545.173
467.205, 547.787
467.688, 539.655
468.170, 521.743
468.652, 508.612
469.134, 507.709
469.616, 501.745
470.098, 481.494
470.580, 456.824
471.062, 439.972
471.544, 433.445
472.027, 429.863
472.509, 419.554
472.991, 401.812
473.473, 389.439
473.955, 386.789
474.437, 383.626
474.919, 375.063
475.401, 363.531
475.884, 353.128
476.366, 345.866
476.848, 337.832
477.330, 323.984
477.812, 305.948
478.294, 290.427
478.776, 278.948
479.258, 270.077
479.741, 262.524
480.223, 256.408
480.705, 251.147
481.187, 249.420
481.669, 245.829
482.151, 235.939
482.633, 222.584
483.115, 211.059
483.597, 203.416
484.079, 198.172
484.562, 192.886
485.044, 187.410
485.526, 182.338
486.008, 177.822
486.490, 173.555
486.972, 169.704
487.454, 165.989
487.936, 161.877
488.419, 157.099
488.901, 151.884
489.383, 146.154
489.865, 139.997
490.347, 135.094
490.829, 132.471
491.311, 130.348
491.793, 125.957
492.276, 119.332
492.758, 114.620
493.240, 113.490
493.722, 113.594
494.204, 113.876
494.686, 114.077
495.168, 113.844
495.650, 113.011
496.132, 111.677
496.615, 109.941
497.097, 107.353
497.579, 105.417
498.061, 103.538
498.543, 102.829
499.025, 105.723
499.507, 110.261
499.989, 111.478
500.471, 105.714
500.954, 97.002
501.436, 91.686
501.918, 89.779
502.400, 89.913
502.882, 92.678
503.364, 96.062
503.846, 97.240
504.328, 96.284
504.811, 96.145
505.293, 98.898
505.775, 101.353
506.257, 101.013
506.739, 98.374
507.221, 94.825
507.703, 90.919
508.185, 87.324
508.668, 85.653
509.150, 87.491
509.632, 87.687
510.114, 83.885
510.596, 80.752
511.078, 81.274
511.560, 84.263
512.042, 86.577
512.524, 86.467
513.006, 85.240
513.489, 84.804
513.971, 85.138
514.453, 85.576
514.935, 86.111
515.417, 86.414
515.899, 85.962
516.381, 84.783
516.864, 83.697
517.346, 82.558
517.828, 81.774
518.310, 81.838
518.792, 82.422
519.274, 82.742
519.756, 82.470
520.238, 82.053
520.720, 82.318
521.203, 83.616
521.685, 84.443
522.167, 85.820
522.649, 85.609
523.131, 80.873
523.613, 74.322
524.095, 71.359
524.577, 75.022
525.059, 80.274
525.542, 81.113
526.024, 78.428
526.506, 76.728
526.988, 76.986
527.470, 78.422
527.952, 80.972
528.434, 84.581
528.916, 85.467
529.398, 81.982
529.881, 77.667
530.363, 72.142
530.845, 67.279
531.327, 66.415
531.809, 70.156
532.291, 74.708
532.773, 75.013
533.255, 70.813
533.737, 69.172
534.220, 72.420
534.702, 74.553
535.184, 71.461
535.666, 66.630
536.148, 64.675
536.630, 66.852
537.112, 70.225
537.594, 73.966
538.077, 77.200
538.559, 77.505
539.041, 74.667
539.523, 72.248
540.005, 73.149
540.487, 76.632
540.969, 78.217
541.451, 75.841
541.933, 74.308
542.416, 74.187
542.898, 74.968
543.380, 76.386
543.862, 78.312
544.344, 80.577
544.826, 83.282
545.308, 86.093
545.791, 88.021
546.273, 89.066
546.755, 89.204
547.237, 88.195
547.719, 86.433
548.201, 84.255
548.683, 81.601
549.165, 79.424
549.647, 78.081
550.130, 77.225
550.612, 76.515
551.094, 76.038
551.576, 76.228
552.058, 77.319
552.540, 78.796
553.022, 79.457
553.504, 78.375
553.987, 79.058
554.469, 84.196
554.951, 88.526
555.433, 89.951
555.915, 89.064
556.397, 86.893
556.879, 83.197
557.361, 80.006
557.843, 79.836
558.326, 81.943
558.808, 83.520
559.290, 83.915
559.772, 84.703
560.254, 87.656
560.736, 92.604
561.218, 95.371
561.700, 95.152
562.182, 94.123
562.665, 91.874
563.147, 89.557
563.629, 88.420
564.111, 88.580
564.593, 89.121
565.075, 89.103
565.557, 88.814
566.039, 89.784
566.521, 92.427
567.004, 94.602
567.486, 95.390
567.968, 95.381
568.450, 95.426
568.932, 95.561
569.414, 95.433
569.896, 93.979
570.378, 93.004
570.860, 94.634
571.343, 98.097
571.825, 100.719
572.307, 101.215
572.789, 101.145
573.271, 103.749
573.753, 110.291
574.235, 115.147
574.718, 116.231
575.200, 117.912
575.682, 123.240
576.164, 130.138
576.646, 134.698
577.128, 135.337
577.610, 134.767
578.092, 133.872
578.574, 133.601
579.057, 137.280
579.539, 145.391
580.021, 152.342
580.503, 153.258
580.985, 149.327
581.467, 148.576
581.949, 153.022
582.431, 158.233
582.914, 164.584
583.396, 171.082
583.878, 177.385
584.360, 183.157
584.842, 187.737
585.324, 190.320
585.806, 191.733
586.288, 193.281
586.770, 194.970
587.253, 197.291
587.735, 200.380
588.217, 204.168
588.699, 208.465
589.181, 213.254
589.663, 219.416
590.145, 230.064
590.627, 238.719
591.109, 241.329
591.592, 240.798
592.074, 240.838
592.556, 242.622
593.038, 245.783
593.520, 250.201
594.002, 255.748
594.484, 261.204
594.966, 266.670
595.448, 271.635
595.931, 275.739
596.413, 279.246
596.895, 282.161
597.377, 284.054
597.859, 287.856
598.341, 297.131
598.823, 306.456
599.305, 310.026
599.788, 309.599
600.270, 310.972
600.752, 316.924
601.234, 324.980
601.716, 330.558
602.198, 332.960
602.680, 336.931
603.162, 346.379
603.644, 352.133
604.127, 344.720
604.609, 332.366
605.091, 329.753
605.573, 342.915
606.055, 356.030
606.537, 359.757
607.019, 358.227
607.502, 357.521
607.984, 357.930
608.466, 355.894
608.948, 348.804
609.430, 338.238
609.912, 328.948
610.394, 320.851
610.876, 314.314
611.358, 311.608
611.841, 308.427
612.323, 301.710
612.805, 292.786
613.287, 285.320
613.769, 281.446
614.251, 277.955
614.733, 271.766
615.215, 263.884
615.697, 256.432
616.180, 249.830
616.662, 243.585
617.144, 237.054
617.626, 230.546
618.108, 226.449
618.590, 228.035
619.072, 227.001
619.554, 220.766
620.036, 213.327
620.519, 207.118
621.001, 202.301
621.483, 198.169
621.965, 194.328
622.447, 191.008
622.929, 189.102
623.411, 188.070
623.893, 185.710
624.375, 181.430
624.858, 176.049
625.340, 170.214
625.822, 163.913
626.304, 158.451
626.786, 153.474
627.268, 149.849
627.750, 148.471
628.232, 147.933
628.715, 147.487
629.197, 146.798
629.679, 145.150
630.161, 141.666
630.643, 137.292
631.125, 133.095
631.607, 129.201
632.089, 126.877
632.571, 126.767
633.054, 126.895
633.536, 124.512
634.018, 119.179
634.500, 117.864
634.982, 128.240
635.464, 132.872
635.946, 122.124
636.429, 107.704
636.911, 102.066
637.393, 106.230
637.875, 111.132
638.357, 109.794
638.839, 105.491
639.321, 104.263
639.803, 105.781
640.285, 106.963
640.768, 106.860
641.250, 105.854
641.732, 104.318
642.214, 102.167
642.696, 100.189
643.178, 98.171
643.660, 96.573
644.142, 96.029
644.625, 95.658
645.107, 94.499
645.589, 92.454
646.071, 90.195
646.553, 88.018
647.035, 86.053
647.517, 84.312
647.999, 82.886
648.481, 82.881
648.964, 84.976
649.446, 87.321
649.928, 87.573
650.410, 85.559
650.892, 83.028
651.374, 77.619
651.856, 74.603
652.338, 76.820
652.820, 80.991
653.303, 84.727
653.785, 87.254
654.267, 87.284
654.749, 81.995
655.231, 74.769
655.713, 70.821
656.195, 69.743
656.677, 69.157
657.159, 68.217
657.642, 68.095
658.124, 70.563
658.606, 75.967
659.088, 79.135
659.570, 78.535
660.052, 77.526
660.534, 76.177
661.016, 75.035
661.498, 74.957
661.981, 75.815
662.463, 76.033
662.945, 73.718
663.427, 71.012
663.909, 70.855
664.391, 72.575
664.873, 73.407
665.356, 72.504
665.838, 72.765
666.320, 78.213
666.802, 88.618
667.284, 92.202
667.766, 83.445
668.248, 76.839
668.730, 76.296
669.212, 77.992
669.695, 79.253
670.177, 79.916
670.659, 80.647
671.141, 82.304
671.623, 83.603
672.105, 83.164
672.587, 81.634
673.069, 80.083
673.552, 78.855
674.034, 78.508
674.516, 79.803
674.998, 82.313
675.480, 83.153
675.962, 81.312
676.444, 80.570
676.926, 83.376
677.408, 85.871
677.891, 83.359
678.373, 77.575
678.855, 76.265
679.337, 86.893
679.819, 95.532
680.301, 92.447
680.783, 84.550
681.265, 80.678
681.747, 81.825
682.230, 84.199
682.712, 85.216
683.194, 85.241
