##NAMES=Christelite
##RRUFFID=R060792
##IDEAL CHEMISTRY=Zn^2+^_3_Cu^2+^_2_(S^6+^_4_)_2_(OH)_6_&#183;4H_2_O
##LOCALITY=San Francisco mine, Sierra Gorda, Chile
##OWNER=RRUFF
##SOURCE=Bob Jenkins
##DESCRIPTION=Greenish blue bladed crystals associated with hemimorphite and quartz
##STATUS=The identification of this mineral has been confirmed by single-crystal X-ray diffraction.
##URL=rruff.info/R060792
109.470, 54.059
109.952, 59.761
110.434, 66.915
110.916, 72.040
111.399, 71.625
111.881, 71.658
112.363, 74.627
112.845, 82.728
113.327, 91.468
113.809, 100.619
114.291, 110.045
114.773, 119.249
115.256, 128.344
115.738, 136.993
116.220, 144.808
116.702, 150.218
117.184, 156.033
117.666, 163.391
118.148, 172.315
118.630, 182.252
119.112, 192.830
119.595, 204.198
120.077, 216.504
120.559, 230.060
121.041, 244.355
121.523, 259.635
122.005, 276.213
122.487, 292.055
122.969, 304.414
123.451, 314.519
123.934, 325.371
124.416, 340.517
124.898, 356.921
125.380, 369.717
125.862, 376.281
126.344, 382.160
126.826, 395.304
127.308, 414.777
127.790, 434.385
128.273, 449.431
128.755, 460.858
129.237, 470.753
129.719, 478.406
130.201, 485.580
130.683, 497.090
131.165, 513.378
131.648, 529.784
132.130, 541.490
132.612, 548.846
133.094, 554.845
133.576, 559.467
134.058, 563.215
134.540, 569.353
135.022, 577.895
135.504, 588.855
135.986, 602.971
136.469, 620.591
136.951, 638.039
137.433, 653.036
137.915, 664.965
138.397, 679.452
138.879, 697.122
139.361, 717.090
139.843, 737.271
140.326, 757.631
140.808, 778.762
141.290, 801.225
141.772, 824.787
142.254, 850.189
142.736, 878.719
143.218, 909.502
143.700, 935.794
144.182, 957.851
144.665, 975.086
145.147, 986.641
145.629, 991.320
146.111, 992.446
146.593, 991.399
147.075, 988.376
147.557, 977.527
148.039, 959.423
148.521, 933.267
149.004, 897.584
149.486, 840.999
149.968, 787.644
150.450, 741.402
150.932, 703.380
151.414, 669.816
151.896, 644.823
152.378, 623.308
152.861, 598.505
153.343, 558.376
153.825, 524.748
154.307, 506.398
154.789, 513.120
155.271, 514.009
155.753, 499.423
156.235, 476.230
156.717, 458.554
157.200, 452.892
157.682, 450.591
158.164, 447.448
158.646, 442.352
159.128, 436.878
159.610, 430.142
160.092, 422.944
160.574, 418.256
161.057, 418.918
161.539, 421.477
162.021, 423.504
162.503, 426.515
162.985, 426.756
163.467, 421.458
163.949, 411.207
164.431, 400.656
164.913, 393.039
165.396, 385.876
165.878, 376.657
166.360, 359.860
166.842, 344.262
167.324, 337.151
167.806, 338.694
168.288, 338.940
168.770, 329.354
169.253, 314.948
169.735, 303.090
170.217, 299.569
170.699, 298.550
171.181, 294.780
171.663, 287.603
172.145, 280.417
172.627, 275.729
173.109, 273.001
173.592, 270.940
174.074, 268.584
174.556, 266.649
175.038, 266.388
175.520, 268.302
176.002, 270.466
176.484, 269.988
176.966, 267.792
177.449, 267.031
177.931, 271.415
178.413, 278.174
178.895, 282.439
179.377, 283.147
179.859, 281.793
180.341, 279.026
180.823, 275.234
181.305, 273.214
181.788, 276.433
182.270, 282.989
182.752, 287.685
183.234, 288.578
183.716, 288.126
184.198, 290.817
184.680, 296.575
185.162, 302.974
185.645, 308.713
186.127, 313.633
186.609, 317.153
187.091, 318.393
187.573, 318.503
188.055, 319.731
188.537, 322.011
189.019, 326.457
189.501, 335.498
189.984, 348.639
190.466, 360.492
190.948, 369.241
191.430, 375.549
191.912, 381.008
192.394, 385.258
192.876, 390.414
193.358, 399.988
193.840, 413.858
194.323, 426.240
194.805, 433.562
195.287, 436.927
195.769, 445.203
196.251, 459.181
196.733, 476.202
197.215, 492.766
197.697, 508.891
198.180, 525.419
198.662, 542.959
199.144, 561.662
199.626, 578.570
200.108, 592.359
200.590, 606.774
201.072, 628.738
201.554, 659.558
202.036, 690.886
202.519, 718.637
203.001, 742.292
203.483, 768.009
203.965, 796.205
204.447, 826.122
204.929, 855.902
205.411, 885.622
205.893, 915.358
206.376, 945.667
206.858, 977.056
207.340, 1005.383
207.822, 1029.322
208.304, 1050.961
208.786, 1077.022
209.268, 1110.286
209.750, 1139.829
210.232, 1161.002
210.714, 1174.448
211.197, 1175.755
211.679, 1162.459
212.161, 1137.764
212.643, 1111.467
213.125, 1084.095
213.607, 1054.525
214.089, 1021.775
214.572, 985.413
215.054, 946.588
215.536, 903.878
216.018, 858.964
216.500, 820.287
216.982, 790.018
217.464, 762.772
217.946, 734.581
218.428, 704.493
218.911, 676.901
219.393, 652.677
219.875, 631.538
220.357, 609.841
220.839, 584.728
221.321, 563.157
221.803, 550.427
222.285, 550.766
222.767, 549.839
223.250, 544.885
223.732, 536.640
224.214, 532.776
224.696, 535.213
225.178, 539.551
225.660, 542.080
226.142, 540.434
226.624, 542.219
227.107, 549.273
227.589, 561.384
228.071, 572.500
228.553, 580.259
229.035, 589.882
229.517, 606.458
229.999, 635.615
230.481, 660.644
230.963, 676.572
231.445, 683.708
231.928, 698.870
232.410, 726.486
232.892, 757.581
233.374, 783.581
233.856, 803.184
234.338, 820.378
234.820, 834.843
235.303, 846.390
235.785, 861.785
236.267, 884.629
236.749, 907.834
237.231, 924.288
237.713, 931.622
238.195, 936.353
238.677, 939.719
239.159, 941.787
239.641, 940.738
240.124, 934.666
240.606, 927.226
241.088, 921.845
241.570, 918.461
242.052, 917.465
242.534, 919.930
243.016, 926.214
243.498, 929.658
243.981, 929.313
244.463, 926.942
244.945, 924.138
245.427, 920.122
245.909, 916.890
246.391, 914.011
246.873, 911.134
247.355, 913.958
247.837, 926.947
248.320, 941.478
248.802, 947.228
249.284, 937.207
249.766, 931.937
250.248, 938.417
250.730, 958.093
251.212, 967.471
251.694, 963.124
252.176, 951.962
252.659, 941.049
253.141, 930.708
253.623, 920.158
254.105, 910.023
254.587, 900.714
255.069, 886.118
255.551, 864.057
256.033, 839.011
256.516, 815.083
256.998, 791.443
257.480, 770.685
257.962, 754.907
258.444, 744.315
258.926, 728.108
259.408, 703.910
259.890, 676.602
260.372, 651.728
260.855, 629.781
261.337, 608.309
261.819, 586.056
262.301, 562.734
262.783, 544.273
263.265, 531.297
263.747, 522.118
264.229, 515.529
264.711, 513.023
265.194, 508.983
265.676, 501.820
266.158, 491.742
266.640, 481.391
267.122, 470.044
267.604, 459.773
268.086, 453.213
268.569, 451.216
269.051, 449.895
269.533, 448.837
270.015, 447.944
270.497, 445.436
270.979, 440.941
271.461, 435.645
271.943, 429.934
272.425, 422.988
272.908, 419.675
273.390, 421.633
273.872, 428.352
274.354, 436.231
274.836, 445.824
275.318, 455.393
275.800, 463.471
276.282, 470.022
276.764, 475.030
277.247, 477.551
277.729, 478.504
278.211, 483.831
278.693, 494.640
279.175, 505.897
279.657, 512.428
280.139, 513.854
280.621, 517.009
281.103, 524.327
281.586, 533.962
282.068, 538.666
282.550, 537.895
283.032, 535.057
283.514, 533.171
283.996, 532.203
284.478, 529.043
284.960, 522.032
285.443, 513.197
285.925, 509.215
286.407, 510.460
286.889, 512.196
287.371, 511.120
287.853, 507.370
288.335, 502.023
288.817, 494.987
289.299, 486.767
289.782, 477.605
290.264, 467.644
290.746, 459.133
291.228, 454.156
291.710, 452.177
292.192, 451.074
292.674, 451.100
293.156, 450.911
293.638, 447.195
294.121, 440.297
294.603, 434.357
295.085, 433.165
295.567, 435.058
296.049, 434.755
296.531, 430.693
297.013, 426.453
297.496, 428.083
297.978, 434.576
298.460, 440.616
298.942, 441.238
299.424, 439.458
299.906, 441.598
300.388, 449.121
300.870, 457.881
301.352, 462.754
301.835, 464.709
302.317, 466.958
302.799, 471.561
303.281, 477.343
303.763, 482.248
304.245, 485.616
304.727, 490.426
305.209, 501.183
305.691, 515.649
306.174, 528.161
306.656, 534.416
307.138, 538.524
307.620, 544.570
308.102, 552.950
308.584, 562.267
309.066, 572.963
309.548, 583.829
310.030, 592.535
310.513, 599.532
310.995, 603.211
311.477, 600.936
311.959, 592.622
312.441, 584.189
312.923, 582.219
313.405, 581.180
313.887, 574.500
314.370, 552.831
314.852, 530.834
315.334, 517.102
315.816, 511.243
316.298, 504.868
316.780, 492.685
317.262, 479.025
317.744, 467.703
318.226, 462.724
318.709, 457.543
319.191, 449.095
319.673, 438.065
320.155, 428.799
320.637, 422.986
321.119, 419.130
321.601, 416.251
322.083, 414.267
322.565, 413.159
323.048, 413.315
323.530, 414.439
324.012, 415.448
324.494, 416.649
324.976, 417.331
325.458, 416.825
325.940, 410.780
326.422, 410.073
326.905, 419.721
327.387, 435.357
327.869, 446.002
328.351, 448.828
328.833, 448.932
329.315, 447.629
329.797, 443.809
330.279, 441.097
330.762, 440.089
331.244, 439.966
331.726, 439.368
332.208, 437.955
332.690, 436.576
333.172, 435.782
333.654, 436.051
334.136, 434.131
334.618, 428.249
335.100, 421.808
335.583, 419.221
336.065, 422.197
336.547, 424.959
337.029, 425.931
337.511, 425.146
337.993, 425.530
338.475, 427.585
338.957, 429.819
339.440, 430.400
339.922, 428.750
340.404, 428.692
340.886, 431.552
341.368, 436.506
341.850, 439.275
342.332, 439.135
342.814, 439.982
343.297, 446.229
343.779, 457.737
344.261, 466.359
344.743, 470.846
345.225, 472.054
345.707, 470.511
346.189, 466.169
346.671, 463.541
347.153, 467.517
347.635, 476.023
348.118, 480.090
348.600, 477.832
349.082, 473.762
349.564, 475.328
350.046, 481.314
350.528, 485.356
351.010, 481.853
351.492, 474.807
351.975, 471.844
352.457, 473.918
352.939, 476.173
353.421, 473.678
353.903, 467.844
354.385, 461.725
354.867, 455.265
355.349, 449.980
355.832, 448.857
356.314, 451.750
356.796, 452.864
357.278, 447.039
357.760, 437.472
358.242, 428.213
358.724, 419.299
359.206, 412.200
359.688, 408.018
360.171, 406.516
360.653, 406.407
361.135, 408.176
361.617, 410.497
362.099, 412.371
362.581, 413.634
363.063, 414.373
363.545, 413.612
364.027, 412.239
364.510, 412.611
364.992, 417.464
365.474, 422.496
365.956, 425.653
366.438, 425.766
366.920, 426.209
367.402, 425.902
367.884, 426.460
368.366, 430.356
368.849, 439.984
369.331, 450.787
369.813, 462.212
370.295, 474.585
370.777, 485.168
371.259, 492.093
371.741, 498.615
372.224, 507.816
372.706, 519.588
373.188, 534.493
373.670, 553.831
374.152, 576.825
374.634, 596.906
375.116, 613.232
375.598, 627.781
376.080, 641.433
376.562, 653.586
377.045, 667.510
377.527, 684.045
378.009, 702.072
378.491, 718.897
378.973, 734.751
379.455, 747.524
379.937, 754.351
380.419, 755.892
380.902, 759.719
381.384, 766.583
381.866, 774.832
382.348, 782.028
382.830, 788.351
383.312, 795.348
383.794, 807.892
384.276, 820.877
384.759, 820.316
385.241, 805.720
385.723, 788.223
386.205, 778.237
386.687, 773.289
387.169, 768.586
387.651, 764.974
388.133, 758.571
388.615, 742.943
389.098, 719.562
389.580, 696.844
390.062, 680.006
390.544, 666.739
391.026, 655.370
391.508, 646.316
391.990, 637.512
392.472, 629.753
392.954, 621.414
393.437, 608.802
393.919, 583.264
394.401, 558.850
394.883, 543.012
395.365, 538.229
395.847, 535.007
396.329, 533.969
396.811, 532.120
397.293, 526.009
397.776, 506.622
398.258, 491.634
398.740, 487.173
399.222, 493.691
399.704, 495.732
400.186, 491.134
400.668, 483.639
401.151, 475.004
401.633, 460.169
402.115, 453.407
402.597, 459.021
403.079, 472.851
403.561, 481.195
404.043, 482.647
404.525, 481.463
405.007, 478.536
405.490, 472.743
405.972, 471.902
406.454, 477.630
406.936, 485.555
407.418, 488.038
407.900, 484.460
408.382, 483.283
408.864, 488.295
409.346, 498.104
409.828, 506.021
410.311, 511.681
410.793, 518.606
411.275, 531.367
411.757, 548.541
412.239, 564.526
412.721, 578.183
413.203, 590.062
413.685, 599.164
414.168, 606.312
414.650, 615.832
415.132, 632.304
415.614, 651.904
416.096, 669.353
416.578, 683.546
417.060, 697.853
417.542, 714.197
418.025, 732.312
418.507, 751.673
418.989, 769.109
419.471, 790.305
419.953, 820.342
420.435, 859.163
420.917, 897.829
421.399, 935.246
421.881, 969.777
422.364, 1000.122
422.846, 1017.009
423.328, 1039.928
423.810, 1073.425
424.292, 1115.957
424.774, 1159.729
425.256, 1201.542
425.738, 1247.463
426.220, 1300.134
426.703, 1364.369
427.185, 1422.188
427.667, 1467.546
428.149, 1510.311
428.631, 1564.566
429.113, 1632.866
429.595, 1708.126
430.077, 1789.189
430.560, 1875.456
431.042, 1961.778
431.524, 2047.883
432.006, 2133.308
432.488, 2218.291
432.970, 2302.752
433.452, 2385.494
433.934, 2470.902
434.417, 2549.220
434.899, 2607.045
435.381, 2644.202
435.863, 2658.648
436.345, 2642.972
436.827, 2604.970
437.309, 2558.776
437.791, 2505.446
438.273, 2446.080
438.755, 2377.648
439.238, 2304.421
439.720, 2234.104
440.202, 2164.438
440.684, 2102.866
441.166, 2052.426
441.648, 2014.159
442.130, 1991.725
442.612, 1997.917
443.095, 2014.231
443.577, 2025.741
444.059, 2022.580
444.541, 2027.731
445.023, 2049.478
445.505, 2083.560
445.987, 2121.356
446.469, 2165.907
446.952, 2209.663
447.434, 2250.897
447.916, 2289.755
448.398, 2325.801
448.880, 2362.044
449.362, 2392.694
449.844, 2412.556
450.326, 2421.291
450.808, 2419.484
451.290, 2404.213
451.773, 2379.145
452.255, 2356.921
452.737, 2338.039
453.219, 2319.837
453.701, 2301.643
454.183, 2283.403
454.665, 2260.011
455.147, 2229.728
455.630, 2199.024
456.112, 2172.843
456.594, 2152.267
457.076, 2142.321
457.558, 2148.181
458.040, 2163.814
458.522, 2179.226
459.004, 2194.924
459.487, 2214.269
459.969, 2241.413
460.451, 2273.097
460.933, 2306.164
461.415, 2339.962
461.897, 2373.497
462.379, 2407.083
462.861, 2439.914
463.343, 2471.266
463.826, 2503.683
464.308, 2531.636
464.790, 2551.155
465.272, 2561.246
465.754, 2572.427
466.236, 2594.420
466.718, 2614.099
467.200, 2621.289
467.682, 2611.167
468.165, 2593.800
468.647, 2568.429
469.129, 2535.837
469.611, 2499.713
470.093, 2463.242
470.575, 2417.230
471.057, 2356.166
471.539, 2278.776
472.022, 2198.522
472.504, 2115.008
472.986, 2029.484
473.468, 1942.509
473.950, 1854.828
474.432, 1767.351
474.914, 1678.805
475.396, 1592.195
475.878, 1515.093
476.361, 1447.120
476.843, 1382.805
477.325, 1318.157
477.807, 1255.385
478.289, 1199.302
478.771, 1150.922
479.253, 1106.336
479.735, 1060.962
480.217, 1017.279
480.700, 979.233
481.182, 956.833
481.664, 933.597
482.146, 897.117
482.628, 849.848
483.110, 807.789
483.592, 779.605
484.074, 756.146
484.556, 731.834
485.039, 704.764
485.521, 679.341
486.003, 657.029
486.485, 636.105
486.967, 613.964
487.449, 589.723
487.931, 565.908
488.414, 541.892
488.896, 518.064
489.378, 501.469
489.860, 494.434
490.342, 488.967
490.824, 478.741
491.306, 463.444
491.788, 448.695
492.270, 434.191
492.753, 421.931
493.235, 417.232
493.717, 418.994
494.199, 418.264
494.681, 408.475
495.163, 394.449
495.645, 384.474
496.127, 378.521
496.609, 374.094
497.092, 370.906
497.574, 367.666
498.056, 362.590
498.538, 354.491
499.020, 346.183
499.502, 338.968
499.984, 332.698
500.466, 327.207
500.948, 322.582
501.431, 318.662
501.913, 315.018
502.395, 311.471
502.877, 310.348
503.359, 314.855
503.841, 319.657
504.323, 321.495
504.805, 319.925
505.288, 315.620
505.770, 306.141
506.252, 295.365
506.734, 293.851
507.216, 304.599
507.698, 312.289
508.180, 309.375
508.662, 297.658
509.145, 290.245
509.627, 287.396
510.109, 286.631
510.591, 286.116
511.073, 285.901
511.555, 286.415
512.037, 288.298
512.519, 289.622
513.001, 286.931
513.484, 281.826
513.966, 278.355
514.448, 279.695
514.930, 282.517
515.412, 284.893
515.894, 286.702
516.376, 287.491
516.858, 286.359
517.341, 284.545
517.823, 282.938
518.305, 281.573
518.787, 280.569
519.269, 281.050
519.751, 281.716
520.233, 279.896
520.715, 273.830
521.197, 268.189
521.680, 264.317
522.162, 262.178
522.644, 259.676
523.126, 256.249
523.608, 254.086
524.090, 255.848
524.572, 261.433
525.054, 265.359
525.536, 267.178
526.019, 266.978
526.501, 263.836
526.983, 258.464
527.465, 253.712
527.947, 250.145
528.429, 248.310
528.911, 250.391
529.393, 255.717
529.875, 258.879
530.358, 254.305
530.840, 247.415
531.322, 242.851
531.804, 242.245
532.286, 242.096
532.768, 240.243
533.250, 238.471
533.732, 239.269
534.214, 245.923
534.697, 251.949
535.179, 257.658
535.661, 262.458
536.143, 260.437
536.625, 246.629
537.107, 234.556
537.589, 233.135
538.071, 244.471
538.554, 250.324
539.036, 249.561
539.518, 245.520
540.000, 240.686
540.482, 235.575
540.964, 234.562
541.446, 240.891
541.928, 249.574
542.411, 251.645
542.893, 248.465
543.375, 246.264
543.857, 249.915
544.339, 255.732
544.821, 260.830
545.303, 265.096
545.785, 267.155
546.268, 263.892
546.750, 259.286
547.232, 257.054
547.714, 262.778
548.196, 265.330
548.678, 259.964
549.160, 250.331
549.642, 246.000
550.124, 249.732
550.606, 254.768
551.089, 259.623
551.571, 264.318
552.053, 266.712
552.535, 265.935
553.017, 265.289
553.499, 268.629
553.981, 275.515
554.463, 278.996
554.945, 277.680
555.428, 274.386
555.910, 271.709
556.392, 270.163
556.874, 271.401
557.356, 280.393
557.838, 289.498
558.320, 289.823
558.802, 282.723
559.284, 276.275
559.767, 273.535
560.249, 273.614
560.731, 276.565
561.213, 283.808
561.695, 289.375
562.177, 289.294
562.659, 288.328
563.141, 291.933
563.624, 305.780
564.106, 314.783
564.588, 315.462
565.070, 310.546
565.552, 308.568
566.034, 309.779
566.516, 313.064
566.998, 319.059
567.481, 327.134
567.963, 332.168
568.445, 333.985
568.927, 335.277
569.409, 337.853
569.891, 341.816
570.373, 347.998
570.855, 357.463
571.338, 366.494
571.820, 370.117
572.302, 371.073
572.784, 374.145
573.266, 382.419
573.748, 392.079
574.230, 401.935
574.712, 411.875
575.194, 421.732
575.677, 430.474
576.159, 440.040
576.641, 451.648
577.123, 466.804
577.605, 478.922
578.087, 486.448
578.569, 493.012
579.051, 502.442
579.533, 514.909
580.016, 529.114
580.498, 545.780
580.980, 562.715
581.462, 573.295
581.944, 578.783
582.426, 588.277
582.908, 611.128
583.390, 638.444
583.872, 657.297
584.355, 668.101
584.837, 679.738
585.319, 696.946
585.801, 717.969
586.283, 742.159
586.765, 771.955
587.247, 798.568
587.729, 818.416
588.211, 834.461
588.694, 850.509
589.176, 865.018
589.658, 882.062
590.140, 902.601
590.622, 926.056
591.104, 950.203
591.586, 974.601
592.068, 1000.520
592.551, 1029.762
593.033, 1061.526
593.515, 1089.268
593.997, 1112.877
594.479, 1135.039
594.961, 1158.166
595.443, 1181.679
595.925, 1203.466
596.407, 1221.846
596.890, 1242.747
597.372, 1273.386
597.854, 1308.989
598.336, 1341.893
598.818, 1364.909
599.300, 1389.446
599.782, 1421.435
600.265, 1459.389
600.747, 1493.567
601.229, 1520.059
601.711, 1545.888
602.193, 1574.266
602.675, 1605.859
603.157, 1632.613
603.639, 1653.291
604.121, 1672.415
604.604, 1695.673
605.086, 1722.764
605.568, 1744.854
606.050, 1761.018
606.532, 1771.720
607.014, 1780.182
607.496, 1784.066
607.978, 1776.653
608.460, 1747.764
608.943, 1712.856
609.425, 1685.046
609.907, 1662.335
610.389, 1637.878
610.871, 1607.370
611.353, 1575.545
611.835, 1544.621
612.317, 1514.489
612.799, 1485.535
613.282, 1456.906
613.764, 1429.923
614.246, 1405.682
614.728, 1384.944
615.210, 1364.802
615.692, 1345.958
616.174, 1326.320
616.656, 1302.953
617.138, 1275.935
617.621, 1246.146
618.103, 1211.018
618.585, 1175.871
619.067, 1150.162
619.549, 1132.009
620.031, 1113.486
620.513, 1088.191
620.995, 1061.690
621.477, 1040.508
621.960, 1025.110
622.442, 1003.561
622.924, 963.548
623.406, 921.401
623.888, 888.216
624.370, 872.508
624.852, 851.770
625.334, 822.461
625.817, 790.917
626.299, 765.685
626.781, 747.376
627.263, 731.682
627.745, 717.928
628.227, 706.125
628.709, 698.863
629.191, 695.230
629.674, 686.287
630.156, 662.278
630.638, 633.083
631.120, 611.982
631.602, 598.629
632.084, 587.859
632.566, 578.196
633.048, 568.896
633.531, 559.317
634.013, 549.455
634.495, 539.660
634.977, 530.803
635.459, 521.524
635.941, 510.425
636.423, 495.109
636.905, 483.129
637.387, 475.985
637.870, 471.639
638.352, 466.839
638.834, 461.649
639.316, 453.348
639.798, 438.458
640.280, 421.561
640.762, 413.676
641.244, 413.679
641.726, 415.026
642.209, 415.732
642.691, 414.516
643.173, 409.382
643.655, 400.070
644.137, 390.919
644.619, 383.622
645.101, 377.116
645.583, 370.597
646.065, 363.713
646.548, 357.254
647.030, 350.809
647.512, 345.151
647.994, 341.337
648.476, 339.420
648.958, 339.527
649.440, 343.296
649.922, 347.032
650.404, 341.388
650.887, 327.481
651.369, 314.092
651.851, 304.670
652.333, 298.585
652.815, 296.692
653.297, 298.278
653.779, 298.905
654.261, 295.531
654.744, 290.906
655.226, 286.861
655.708, 283.785
656.190, 280.028
656.672, 273.598
657.154, 267.748
657.636, 265.084
658.118, 267.209
658.601, 267.623
659.083, 265.986
