##NAMES=Chromite
##RRUFFID=R110060
##IDEAL CHEMISTRY=Fe^2+^Cr^3+^_2_O_4_
##LOCALITY=Pilliken mine, south of Auburn, El Dorado County, California, USA
##OWNER=RRUFF
##SOURCE=James Shigley
##DESCRIPTION=Black massive with conchoidal cleavage
##STATUS=The identification of this mineral has been confirmed only by single crystal X-ray diffraction.
##URL=rruff.info/R110060
196.5579, 150.8314
197.0400, 150.4899
197.5221, 150.8548
198.0042, 151.2910
198.4863, 151.4224
198.9684, 151.2443
199.4506, 151.1322
199.9327, 151.0597
200.4148, 151.1290
200.8969, 151.6789
201.3790, 152.8162
201.8611, 153.8935
202.3433, 154.5058
202.8254, 154.6177
203.3075, 154.7554
203.7896, 155.0552
204.2717, 155.3189
204.7538, 154.8163
205.2360, 153.2517
205.7181, 151.9971
206.2002, 152.1458
206.6823, 154.0258
207.1644, 155.0907
207.6465, 154.9206
208.1287, 153.9275
208.6108, 153.3755
209.0929, 153.4266
209.5750, 153.4659
210.0571, 153.0448
210.5392, 152.0126
211.0214, 151.2422
211.5035, 150.8819
211.9856, 150.8128
212.4677, 150.5407
212.9498, 149.8858
213.4319, 149.4368
213.9140, 149.7534
214.3962, 151.2905
214.8783, 151.8940
215.3604, 150.9956
215.8425, 149.0829
216.3246, 148.1967
216.8067, 148.6588
217.2889, 149.5011
217.7710, 150.1925
218.2531, 150.7614
218.7352, 151.0786
219.2173, 151.0662
219.6994, 150.7901
220.1816, 150.5960
220.6637, 150.5797
221.1458, 150.4679
221.6279, 150.0279
222.1100, 149.0176
222.5921, 148.3146
223.0743, 148.0511
223.5564, 148.1497
224.0385, 148.2780
224.5206, 148.5494
225.0027, 148.6769
225.4848, 148.3940
225.9670, 147.3371
226.4491, 146.7970
226.9312, 147.0997
227.4133, 148.0168
227.8954, 148.4395
228.3775, 148.1806
228.8597, 147.6944
229.3418, 147.2225
229.8239, 146.7024
230.3060, 146.3389
230.7881, 146.1596
231.2702, 146.1470
231.7524, 146.3002
232.2345, 146.9262
232.7166, 147.2776
233.1987, 146.7537
233.6808, 144.5142
234.1629, 143.2942
234.6451, 143.6269
235.1272, 145.1286
235.6093, 146.1471
236.0914, 146.6197
236.5735, 146.6991
237.0556, 146.4122
237.5378, 145.5065
238.0199, 144.7913
238.5020, 144.3355
238.9841, 144.1029
239.4662, 143.9875
239.9483, 144.1366
240.4305, 144.2108
240.9126, 143.9868
241.3947, 143.1985
241.8768, 142.7197
242.3589, 142.7108
242.8410, 143.0316
243.3232, 143.1857
243.8053, 143.1134
244.2874, 142.9525
244.7695, 142.7459
245.2516, 142.3835
245.7337, 142.2229
246.2159, 142.3815
246.6980, 142.7309
247.1801, 142.8637
247.6622, 142.7306
248.1443, 142.4527
248.6264, 142.0372
249.1086, 141.2792
249.5907, 140.8923
250.0728, 141.0704
250.5549, 141.5762
251.0370, 141.7688
251.5191, 141.5307
252.0013, 141.1721
252.4834, 140.7885
252.9655, 140.2811
253.4476, 140.0188
253.9297, 140.0099
254.4118, 140.2443
254.8940, 140.8066
255.3761, 142.1125
255.8582, 143.0091
256.3403, 142.8572
256.8224, 141.1497
257.3046, 140.0905
257.7867, 139.8792
258.2688, 140.1913
258.7509, 140.4414
259.2330, 140.6572
259.7151, 140.7452
260.1973, 140.6594
260.6794, 140.3812
261.1615, 139.9926
261.6436, 139.4043
262.1257, 138.7887
262.6078, 138.4843
263.0900, 138.6524
263.5721, 138.7612
264.0542, 138.6219
264.5363, 138.2001
265.0184, 137.7192
265.5005, 137.0477
265.9827, 136.4637
266.4648, 136.4586
266.9469, 137.2915
267.4290, 137.9497
267.9111, 138.0694
268.3932, 137.6082
268.8754, 137.3038
269.3575, 137.2559
269.8396, 137.2065
270.3217, 136.6891
270.8038, 135.4625
271.2859, 134.7180
271.7681, 134.9754
272.2502, 136.1827
272.7323, 136.8281
273.2144, 136.7589
273.6965, 136.4118
274.1786, 136.2614
274.6608, 136.3594
275.1429, 136.3593
275.6250, 136.1249
276.1071, 135.7067
276.5892, 135.4835
277.0714, 135.4831
277.5535, 135.6101
278.0356, 135.8155
278.5177, 136.1124
278.9998, 136.3704
279.4819, 136.6452
279.9641, 136.8458
280.4462, 136.4033
280.9283, 135.1491
281.4104, 133.9688
281.8925, 133.8050
282.3746, 134.6799
282.8568, 134.9721
283.3389, 134.2556
283.8210, 132.9234
284.3031, 132.1681
284.7852, 132.0737
285.2673, 131.8473
285.7495, 130.4581
286.2316, 128.0782
286.7137, 127.1518
287.1958, 128.3667
287.6779, 130.6178
288.1600, 131.6580
288.6422, 131.4739
289.1243, 130.9502
289.6064, 130.5304
290.0885, 130.2103
290.5706, 130.0383
291.0527, 130.0622
291.5349, 130.1180
292.0170, 129.8223
292.4991, 129.2216
292.9812, 128.8290
293.4633, 129.2715
293.9454, 130.1754
294.4276, 130.1355
294.9097, 128.8916
295.3918, 127.5381
295.8739, 127.7119
296.3560, 129.1060
296.8381, 130.2731
297.3203, 130.5291
297.8024, 130.0827
298.2845, 129.1130
298.7666, 127.5462
299.2487, 126.2160
299.7308, 126.3237
300.2130, 127.3932
300.6951, 128.0467
301.1772, 127.2812
301.6593, 126.0081
302.1414, 125.6307
302.6235, 126.1330
303.1057, 126.7170
303.5878, 126.6791
304.0699, 126.2569
304.5520, 125.8791
305.0341, 125.6223
305.5162, 125.5292
305.9984, 125.7742
306.4805, 126.2980
306.9626, 126.7081
307.4447, 126.7869
307.9268, 126.5740
308.4089, 126.0625
308.8911, 125.0095
309.3732, 124.0328
309.8553, 123.6792
310.3374, 123.8310
310.8195, 124.0885
311.3016, 124.2842
311.7838, 124.4518
312.2659, 124.6673
312.7480, 125.0531
313.2301, 125.2195
313.7122, 124.7226
314.1943, 123.8362
314.6765, 123.1468
315.1586, 123.0536
315.6407, 123.1452
316.1228, 123.1414
316.6049, 122.9587
317.0870, 122.8947
317.5692, 123.3640
318.0513, 123.9703
318.5334, 124.1547
319.0155, 123.4371
319.4976, 122.5187
319.9797, 121.5100
320.4619, 120.3688
320.9440, 119.8197
321.4261, 120.5931
321.9082, 121.8391
322.3903, 122.7510
322.8724, 122.9866
323.3546, 123.0408
323.8367, 122.9915
324.3188, 122.8455
324.8009, 122.6839
325.2830, 122.3451
325.7651, 122.1049
326.2473, 122.1435
326.7294, 123.1350
327.2115, 123.6529
327.6936, 123.4004
328.1757, 122.5121
328.6578, 121.6457
329.1400, 120.7348
329.6221, 119.9146
330.1042, 119.2315
330.5863, 118.6631
331.0684, 118.2686
331.5505, 118.0539
332.0327, 118.0111
332.5148, 118.1299
332.9969, 118.4300
333.4790, 118.8667
333.9611, 119.5340
334.4432, 120.6400
334.9254, 121.0572
335.4075, 120.3857
335.8896, 119.3524
336.3717, 119.0473
336.8538, 119.8808
337.3359, 120.4357
337.8180, 120.1855
338.3001, 119.1521
338.7823, 118.6640
339.2644, 118.8601
339.7465, 119.3404
340.2286, 119.8295
340.7107, 120.3918
341.1928, 120.5355
341.6750, 120.0227
342.1571, 119.0676
342.6392, 118.5770
343.1213, 118.6228
343.6034, 118.7342
344.0855, 118.5240
344.5677, 118.0116
345.0498, 117.6396
345.5319, 117.4850
346.0140, 117.4579
346.4961, 117.3266
346.9782, 117.1018
347.4604, 117.0679
347.9425, 117.5967
348.4246, 118.4815
348.9067, 118.9257
349.3888, 118.8517
349.8709, 118.5173
350.3531, 118.1425
350.8352, 117.7466
351.3173, 117.4031
351.7994, 117.1335
352.2815, 116.9355
352.7636, 116.7514
353.2458, 116.5805
353.7279, 116.6007
354.2100, 117.2750
354.6921, 118.1959
355.1742, 118.6278
355.6563, 118.0333
356.1385, 117.1937
356.6206, 116.8178
357.1027, 116.8454
357.5848, 116.9836
358.0669, 117.1045
358.5490, 117.2284
359.0312, 117.4204
359.5133, 117.8240
359.9954, 118.0038
360.4775, 117.4318
360.9596, 116.4537
361.4417, 115.8109
361.9239, 116.1870
362.4060, 116.6801
362.8881, 116.7770
363.3702, 116.3615
363.8523, 115.8916
364.3344, 115.3268
364.8166, 114.8517
365.2987, 114.6757
365.7808, 115.1557
366.2629, 115.6367
366.7450, 116.0385
367.2271, 116.3523
367.7093, 116.3372
368.1914, 115.3075
368.6735, 114.3512
369.1556, 114.1833
369.6377, 116.0144
370.1198, 117.1452
370.6020, 117.1942
371.0841, 116.4296
371.5662, 115.7992
372.0483, 115.2179
372.5304, 114.8791
373.0125, 114.8753
373.4947, 115.2668
373.9768, 115.8885
374.4589, 117.0679
374.9410, 118.2223
375.4231, 118.2955
375.9052, 116.8971
376.3874, 115.5098
376.8695, 114.5154
377.3516, 113.9060
377.8337, 113.7800
378.3158, 114.2673
378.7979, 114.8776
379.2801, 115.0723
379.7622, 114.8298
380.2443, 114.7309
380.7264, 114.9551
381.2085, 115.3381
381.6906, 115.4638
382.1728, 115.3305
382.6549, 115.0090
383.1370, 114.3176
383.6191, 113.4254
384.1012, 113.0701
384.5833, 113.3791
385.0655, 114.0348
385.5476, 114.7500
386.0297, 115.4889
386.5118, 116.0857
386.9939, 116.5428
387.4760, 116.7838
387.9582, 116.6469
388.4403, 116.1274
388.9224, 115.4692
389.4045, 114.7140
389.8866, 113.9924
390.3687, 113.4897
390.8509, 113.3452
391.3330, 113.3660
391.8151, 113.4143
392.2972, 113.5114
392.7793, 113.7395
393.2614, 114.4947
393.7436, 115.1693
394.2257, 115.2961
394.7078, 114.6000
395.1899, 113.8193
395.6720, 113.0323
396.1541, 112.3555
396.6363, 111.9771
397.1184, 112.1193
397.6005, 112.4008
398.0826, 112.7440
398.5647, 113.1615
399.0468, 113.4785
399.5290, 113.6350
400.0111, 113.7080
400.4932, 113.7688
400.9753, 114.0973
401.4574, 114.0189
401.9395, 113.1835
402.4217, 111.8347
402.9038, 111.1833
403.3859, 111.6259
403.8680, 112.1852
404.3501, 112.3636
404.8322, 111.9950
405.3144, 111.8656
405.7965, 112.1261
406.2786, 112.4480
406.7607, 112.1437
407.2428, 111.0221
407.7249, 110.3404
408.2071, 110.7104
408.6892, 111.9191
409.1713, 112.6195
409.6534, 112.7816
410.1355, 112.6102
410.6176, 112.1191
411.0998, 111.3891
411.5819, 110.9224
412.0640, 110.8551
412.5461, 111.0271
413.0282, 111.2179
413.5103, 111.4269
413.9925, 111.6548
414.4746, 111.9921
414.9567, 112.3215
415.4388, 112.4612
415.9209, 112.3949
416.4030, 112.1712
416.8852, 111.6418
417.3673, 111.0132
417.8494, 110.6185
418.3315, 110.8674
418.8136, 111.1576
419.2957, 111.1099
419.7779, 110.7557
420.2600, 110.3081
420.7421, 109.7695
421.2242, 109.2341
421.7063, 108.7718
422.1884, 108.3376
422.6706, 108.0698
423.1527, 108.1638
423.6348, 108.4269
424.1169, 108.4965
424.5990, 107.9132
425.0811, 107.5173
425.5633, 107.6548
426.0454, 108.4308
426.5275, 108.9900
427.0096, 109.3284
427.4917, 109.4539
427.9738, 109.3182
428.4560, 108.6256
428.9381, 108.3091
429.4202, 108.6194
429.9023, 109.3458
430.3844, 109.7885
430.8665, 109.8992
431.3487, 109.8534
431.8308, 109.6700
432.3129, 109.3346
432.7950, 109.2553
433.2771, 109.5445
433.7592, 109.8015
434.2414, 109.3096
434.7235, 108.1547
435.2056, 107.3819
435.6877, 107.4258
436.1698, 107.9855
436.6519, 108.5436
437.1341, 109.0905
437.6162, 109.4654
438.0983, 109.3710
438.5804, 109.0717
439.0625, 109.0705
439.5446, 109.5295
440.0268, 110.0238
440.5089, 110.1671
440.9910, 110.0660
441.4731, 109.9383
441.9552, 109.6939
442.4373, 109.6006
442.9195, 109.9926
443.4016, 110.8540
443.8837, 111.4415
444.3658, 111.0070
444.8479, 110.4192
445.3300, 110.3780
445.8122, 111.6898
446.2943, 112.6746
446.7764, 112.8917
447.2585, 112.5771
447.7406, 112.3339
448.2227, 112.0536
448.7049, 112.0045
449.1870, 112.3899
449.6691, 113.3603
450.1512, 113.8127
450.6333, 113.4623
451.1154, 112.9022
451.5976, 112.6793
452.0797, 112.8499
452.5618, 113.2109
453.0439, 113.8417
453.5260, 114.5873
454.0081, 114.9841
454.4903, 115.0035
454.9724, 114.8703
455.4545, 114.6094
455.9366, 114.2643
456.4187, 114.1379
456.9008, 114.2489
457.3830, 114.5282
457.8651, 115.0546
458.3472, 115.7093
458.8293, 116.0606
459.3114, 115.7775
459.7935, 115.3210
460.2757, 115.2772
460.7578, 115.5879
461.2399, 115.9582
461.7220, 116.1727
462.2041, 116.3786
462.6862, 116.7978
463.1684, 117.5654
463.6505, 118.0758
464.1326, 117.6925
464.6147, 116.9640
465.0968, 116.5942
465.5789, 116.9404
466.0611, 117.5357
466.5432, 118.4061
467.0253, 119.5010
467.5074, 120.3462
467.9895, 120.7645
468.4716, 121.0213
468.9538, 121.2395
469.4359, 121.4565
469.9180, 121.5365
470.4001, 121.3855
470.8822, 121.1602
471.3643, 121.1254
471.8465, 121.3812
472.3286, 121.5236
472.8107, 121.4071
473.2928, 121.0870
473.7749, 120.8367
474.2570, 120.6366
474.7392, 120.6166
475.2213, 121.0344
475.7034, 121.7923
476.1855, 122.1728
476.6676, 122.0386
477.1497, 121.7350
477.6319, 121.7804
478.1140, 122.0582
478.5961, 122.1834
479.0782, 121.7549
479.5603, 121.2315
480.0424, 121.2653
480.5246, 121.7806
481.0067, 122.1607
481.4888, 121.8623
481.9709, 121.3428
482.4530, 121.0117
482.9352, 121.0062
483.4173, 121.0438
483.8994, 121.0915
484.3815, 121.0935
484.8636, 120.9648
485.3457, 120.4960
485.8279, 120.0898
486.3100, 119.8729
486.7921, 119.8491
487.2742, 119.8298
487.7563, 119.9476
488.2384, 119.9392
488.7206, 119.5923
489.2027, 118.6111
489.6848, 118.1551
490.1669, 118.4865
490.6490, 119.0807
491.1311, 119.0371
491.6133, 118.2544
492.0954, 117.5224
492.5775, 117.0015
493.0596, 116.7381
493.5417, 117.0389
494.0238, 117.9100
494.5060, 118.7570
494.9881, 119.0878
495.4702, 119.0527
495.9523, 119.0086
496.4344, 118.9836
496.9165, 119.0259
497.3987, 119.2330
497.8808, 119.5378
498.3629, 119.8114
498.8450, 119.9237
499.3271, 120.0532
499.8092, 120.3204
500.2914, 120.7139
500.7735, 121.1395
501.2556, 121.5970
501.7377, 122.0601
502.2198, 122.5137
502.7019, 122.9595
503.1841, 123.4048
503.6662, 123.8503
504.1483, 124.2994
504.6304, 124.7411
505.1125, 125.0761
505.5946, 125.5639
506.0768, 126.3274
506.5589, 127.2840
507.0410, 128.0062
507.5231, 128.4088
508.0052, 128.8100
508.4873, 129.3998
508.9695, 130.1721
509.4516, 130.8988
509.9337, 131.5686
510.4158, 132.2280
510.8979, 132.8554
511.3800, 133.4984
511.8622, 134.3626
512.3443, 135.5655
512.8264, 136.9243
513.3085, 138.3134
513.7906, 139.6907
514.2728, 140.9043
514.7549, 141.7599
515.2370, 142.4878
515.7191, 143.1909
516.2012, 143.8688
516.6833, 144.8442
517.1655, 146.6233
517.6476, 148.5861
518.1297, 150.1998
518.6118, 151.0220
519.0939, 151.9062
519.5760, 152.8842
520.0582, 154.0164
520.5403, 155.4847
521.0224, 157.6822
521.5045, 159.6307
521.9866, 160.9342
522.4688, 161.5989
522.9509, 162.7674
523.4330, 164.6186
523.9151, 166.5666
524.3972, 168.0974
524.8793, 169.1898
525.3615, 170.5337
525.8436, 172.2249
526.3257, 174.1096
526.8078, 176.0249
527.2899, 177.9459
527.7720, 179.7249
528.2542, 181.2747
528.7363, 182.6488
529.2184, 183.8348
529.7005, 184.8719
530.1826, 186.0334
530.6647, 187.5732
531.1469, 189.2546
531.6290, 190.8820
532.1111, 192.3917
532.5932, 193.9949
533.0753, 195.7631
533.5574, 197.6791
534.0396, 199.6946
534.5217, 202.0744
535.0038, 204.2581
535.4859, 206.0829
535.9680, 207.6644
536.4501, 209.3671
536.9323, 211.0974
537.4144, 213.1139
537.8965, 215.6210
538.3786, 218.6287
538.8607, 221.1812
539.3428, 223.1626
539.8250, 224.9742
540.3071, 226.8917
540.7892, 228.8981
541.2713, 231.1813
541.7534, 233.8577
542.2355, 236.5240
542.7177, 238.4793
543.1998, 239.9370
543.6819, 241.5258
544.1640, 243.5864
544.6461, 245.8496
545.1282, 248.1661
545.6104, 250.5048
546.0925, 252.7359
546.5746, 254.7753
547.0567, 256.6899
547.5388, 258.5138
548.0209, 260.1916
548.5031, 261.9651
548.9852, 264.1166
549.4673, 266.2896
549.9494, 268.1191
550.4315, 269.6068
550.9136, 270.7291
551.3958, 271.3943
551.8779, 271.7121
552.3600, 271.9375
552.8421, 271.9846
553.3242, 272.2466
553.8063, 273.0331
554.2885, 274.2337
554.7706, 274.8947
555.2527, 274.9752
555.7348, 274.9588
556.2169, 275.3987
556.6990, 276.0652
557.1812, 276.3140
557.6633, 275.9647
558.1454, 275.5054
558.6275, 275.4413
559.1096, 275.5947
559.5917, 275.6489
560.0739, 275.4331
560.5560, 275.1308
561.0381, 274.7423
561.5202, 274.3185
562.0023, 274.0598
562.4844, 274.3295
562.9666, 274.5021
563.4487, 274.2152
563.9308, 273.3184
564.4129, 272.6959
564.8950, 272.3627
565.3771, 272.2828
565.8593, 272.4987
566.3414, 273.1328
566.8235, 273.5472
567.3056, 273.7043
567.7877, 273.5826
568.2698, 273.0260
568.7520, 272.0606
569.2341, 271.1941
569.7162, 270.6371
570.1983, 270.2850
570.6804, 269.9029
571.1625, 269.5210
571.6447, 269.3126
572.1268, 269.7049
572.6089, 270.1493
573.0910, 270.1021
573.5731, 269.4740
574.0552, 268.5915
574.5374, 267.1557
575.0195, 265.7501
575.5016, 264.9125
575.9837, 265.4677
576.4658, 265.6954
576.9479, 265.4546
577.4301, 264.7780
577.9122, 263.6951
578.3943, 262.0296
578.8764, 260.2459
579.3585, 258.3598
579.8406, 256.4337
580.3228, 254.9974
580.8049, 254.1147
581.2870, 253.3132
581.7691, 252.3526
582.2512, 251.2200
582.7333, 249.8358
583.2155, 248.1889
583.6975, 246.3513
584.1796, 244.1723
584.6617, 241.8681
585.1439, 239.7796
585.6260, 238.0273
586.1081, 236.4689
586.5902, 235.1377
587.0723, 233.9219
587.5544, 232.6314
588.0366, 231.1516
588.5187, 229.6122
589.0008, 228.0548
589.4829, 226.4709
589.9650, 224.7679
590.4471, 222.5911
590.9293, 220.7411
591.4114, 219.7046
591.8935, 219.6159
592.3756, 219.3495
592.8577, 218.9248
593.3398, 218.2624
593.8220, 217.1397
594.3041, 215.6305
594.7862, 214.2928
595.2683, 213.2167
595.7504, 212.3757
596.2325, 211.8876
596.7147, 211.6051
597.1968, 211.1511
597.6789, 210.2189
598.1610, 209.1724
598.6431, 208.3290
599.1252, 207.6230
599.6074, 206.7282
600.0895, 205.1133
600.5716, 203.6261
601.0537, 202.8258
601.5358, 203.0267
602.0179, 202.5765
602.5001, 201.0574
602.9822, 199.2778
603.4643, 197.8250
603.9464, 196.7557
604.4285, 195.7514
604.9106, 194.7955
605.3928, 193.8787
605.8749, 193.1185
606.3570, 192.4664
606.8391, 191.3394
607.3212, 189.4668
607.8033, 187.1524
608.2855, 184.4908
608.7676, 181.6913
609.2497, 179.4287
609.7318, 178.6400
610.2139, 178.1474
610.6960, 176.9995
611.1782, 175.1705
611.6603, 173.3970
612.1424, 172.1135
612.6245, 170.8200
613.1066, 169.1772
613.5887, 166.8880
614.0709, 164.8638
614.5530, 163.2602
615.0351, 161.7645
615.5172, 159.9204
615.9993, 157.5108
616.4814, 155.7376
616.9636, 154.9465
617.4457, 154.6110
617.9278, 153.7008
618.4099, 152.2596
618.8920, 150.7716
619.3741, 149.4054
619.8563, 148.1105
620.3384, 146.7314
620.8205, 145.3327
621.3026, 144.2459
621.7847, 144.1061
622.2668, 144.0267
622.7490, 143.2077
623.2311, 141.4864
623.7132, 140.1214
624.1953, 139.6963
624.6774, 139.5782
625.1595, 139.3100
625.6417, 138.6192
626.1238, 138.3231
626.6059, 138.5799
627.0880, 139.0656
627.5701, 139.3634
628.0522, 139.4602
628.5344, 139.4657
629.0165, 139.3006
629.4986, 139.2086
629.9807, 139.7087
630.4628, 140.7378
630.9449, 141.9328
631.4271, 143.1369
631.9092, 144.4072
632.3913, 145.8366
632.8734, 147.4089
633.3555, 148.9795
633.8376, 150.4057
634.3198, 151.8755
634.8019, 153.5750
635.2840, 155.6096
635.7661, 157.4182
636.2482, 158.7151
636.7303, 159.9763
637.2125, 161.5319
637.6946, 163.4822
638.1767, 165.4856
638.6588, 167.5715
639.1409, 169.6337
639.6230, 171.4565
640.1052, 173.0623
640.5873, 174.6450
641.0694, 176.2110
641.5515, 177.8281
642.0336, 179.6997
642.5157, 181.6947
642.9979, 183.4642
643.4800, 184.6313
643.9621, 185.6595
644.4442, 186.8972
644.9263, 188.2973
645.4084, 189.5264
645.8906, 190.4701
646.3727, 191.2138
646.8548, 191.7527
647.3369, 192.0614
647.8190, 192.3938
648.3011, 192.7230
648.7833, 193.1134
649.2654, 193.7123
649.7475, 194.5788
650.2296, 194.9202
650.7117, 194.6194
651.1938, 194.0875
651.6760, 193.8216
652.1581, 193.7424
652.6402, 193.5969
653.1223, 193.2622
653.6044, 192.9580
654.0865, 192.9175
654.5687, 193.0405
655.0508, 193.1339
655.5329, 193.0522
656.0150, 193.0044
656.4971, 193.2139
656.9792, 193.5725
657.4614, 193.4890
657.9435, 192.4162
658.4256, 191.6538
658.9077, 191.7851
659.3898, 192.7522
659.8719, 193.0770
660.3541, 192.6648
660.8362, 192.0530
661.3183, 191.4098
661.8004, 190.8553
662.2825, 190.9086
662.7646, 191.6208
663.2468, 192.5429
663.7289, 193.1584
664.2110, 193.7935
664.6931, 195.0038
665.1752, 197.3027
665.6573, 199.1481
666.1395, 199.3144
666.6216, 198.8792
667.1037, 199.1678
667.5858, 201.1707
668.0679, 202.8869
668.5500, 204.0020
669.0322, 204.8108
669.5143, 205.9158
669.9964, 207.3513
670.4785, 208.9496
670.9606, 210.7313
671.4427, 212.5959
671.9249, 214.1214
672.4070, 215.3726
672.8891, 216.8402
673.3712, 219.0686
673.8533, 221.5075
674.3354, 223.3490
674.8176, 224.6586
675.2997, 226.2327
675.7818, 228.7847
676.2639, 231.4684
676.7460, 233.7025
677.2281, 235.1760
677.7103, 237.0458
678.1924, 239.6129
678.6745, 242.3171
679.1566, 244.7507
679.6387, 246.8365
680.1208, 249.0671
680.6030, 251.5208
681.0851, 254.0439
681.5672, 256.5173
682.0493, 258.9403
682.5314, 261.4436
683.0135, 264.0824
683.4957, 266.6868
683.9778, 269.0096
684.4599, 271.1648
684.9420, 273.2784
685.4241, 275.4611
685.9063, 277.5993
686.3884, 279.5538
686.8705, 281.4276
687.3526, 283.6386
687.8347, 286.9238
688.3168, 289.5314
688.7990, 290.7428
689.2811, 290.8373
689.7632, 291.5811
690.2453, 293.0488
690.7274, 294.6362
691.2095, 296.1153
691.6917, 297.4200
692.1738, 298.3060
692.6559, 298.7710
693.1380, 299.1310
693.6201, 299.8775
694.1022, 300.4671
