##NAMES=Chromite
##RRUFFID=R110060
##IDEAL CHEMISTRY=Fe^2+^Cr^3+^_2_O_4_
##LOCALITY=Pilliken mine, south of Auburn, El Dorado County, California, USA
##OWNER=RRUFF
##SOURCE=James Shigley
##DESCRIPTION=Black massive with conchoidal cleavage
##STATUS=The identification of this mineral has been confirmed only by single crystal X-ray diffraction.
##URL=rruff.info/R110060
150.9039, 63.51649
151.3860, 63.24900
151.8681, 62.98009
152.3502, 62.71266
152.8323, 62.48705
153.3145, 62.38295
153.7966, 62.24339
154.2787, 61.99520
154.7608, 61.68451
155.2429, 61.40831
155.7250, 61.25036
156.2072, 61.22520
156.6893, 61.09808
157.1714, 60.70928
157.6535, 60.38276
158.1356, 60.35214
158.6177, 60.55428
159.0999, 60.68090
159.5820, 60.41396
160.0641, 59.66236
160.5462, 59.16677
161.0283, 59.05076
161.5104, 59.09164
161.9926, 59.18777
162.4747, 59.32045
162.9568, 59.37869
163.4389, 59.20921
163.9210, 58.82335
164.4031, 58.43587
164.8853, 58.04279
165.3674, 57.67996
165.8495, 57.40048
166.3316, 57.20613
166.8137, 57.11341
167.2958, 57.22584
167.7780, 57.48242
168.2601, 57.62831
168.7422, 57.46065
169.2243, 57.06252
169.7064, 56.77525
170.1885, 56.68629
170.6707, 56.65639
171.1528, 56.63430
171.6349, 56.60126
172.1170, 56.49114
172.5991, 56.18931
173.0812, 55.67992
173.5634, 55.32049
174.0455, 55.30585
174.5276, 55.31080
175.0097, 55.18711
175.4918, 54.94288
175.9739, 54.68427
176.4561, 54.54457
176.9382, 54.58493
177.4203, 54.52996
177.9024, 54.34119
178.3845, 54.09990
178.8666, 53.77991
179.3488, 53.41537
179.8309, 53.12604
180.3130, 53.10101
180.7951, 53.53904
181.2772, 53.79494
181.7593, 53.80843
182.2415, 53.70670
182.7236, 53.57244
183.2057, 53.42838
183.6878, 53.25437
184.1699, 53.01170
184.6520, 52.61594
185.1342, 52.32906
185.6163, 52.15329
186.0984, 52.09047
186.5805, 52.21852
187.0626, 52.57694
187.5447, 52.94238
188.0269, 52.87138
188.5090, 52.25068
188.9911, 51.74551
189.4732, 51.56921
189.9553, 51.59296
190.4374, 51.60467
190.9196, 51.54816
191.4017, 51.44992
191.8838, 51.34039
192.3659, 51.21801
192.8480, 51.10353
193.3301, 50.99703
193.8123, 50.90358
194.2944, 50.85125
194.7765, 50.88572
195.2586, 50.91383
195.7407, 50.82916
196.2228, 50.63000
196.7050, 50.42783
197.1871, 50.31478
197.6692, 50.28618
198.1513, 50.23500
198.6334, 50.14648
199.1155, 50.02027
199.5977, 49.81638
200.0798, 49.54322
200.5619, 49.32019
201.0440, 49.28733
201.5261, 49.47652
202.0082, 49.64483
202.4904, 49.85176
202.9725, 49.96374
203.4546, 49.85194
203.9367, 49.52627
204.4188, 49.15247
204.9009, 48.95452
205.3831, 49.01947
205.8652, 48.99283
206.3473, 48.71412
206.8294, 48.45742
207.3115, 48.44306
207.7936, 48.67471
208.2758, 48.94288
208.7579, 48.94114
209.2400, 48.51054
209.7221, 48.14451
210.2042, 47.80494
210.6863, 47.54246
211.1685, 47.41340
211.6506, 47.41838
212.1327, 47.49015
212.6148, 47.53571
213.0969, 47.55547
213.5790, 47.53785
214.0612, 47.43951
214.5433, 47.33329
215.0254, 47.29749
215.5075, 47.34463
215.9896, 47.39587
216.4718, 47.33797
216.9539, 47.11970
217.4360, 46.89606
217.9181, 46.55116
218.4002, 46.25985
218.8823, 46.25647
219.3645, 46.60020
219.8466, 47.02829
220.3287, 47.16905
220.8108, 46.96980
221.2929, 46.79799
221.7750, 46.73822
222.2572, 46.71747
222.7393, 46.63873
223.2214, 46.47691
223.7035, 46.28846
224.1856, 46.12959
224.6677, 45.99688
225.1499, 45.91520
225.6320, 45.98487
226.1141, 46.08718
226.5962, 45.97171
227.0783, 45.51978
227.5604, 45.08165
228.0426, 45.08426
228.5247, 45.42608
229.0068, 45.72306
229.4889, 45.80628
229.9710, 45.74282
230.4531, 45.67886
230.9353, 45.63084
231.4174, 45.57625
231.8995, 45.48965
232.3816, 45.38214
232.8637, 45.28449
233.3458, 45.20918
233.8280, 45.15479
234.3101, 45.12593
234.7922, 45.16009
235.2743, 45.15292
235.7564, 44.98344
236.2385, 44.73452
236.7207, 44.57812
237.2028, 44.65265
237.6849, 44.90052
238.1670, 45.08298
238.6491, 45.20916
239.1312, 45.24224
239.6134, 45.13504
240.0955, 44.94486
240.5776, 44.76458
241.0597, 44.64880
241.5418, 44.58681
242.0239, 44.53570
242.5061, 44.54229
242.9882, 44.48928
243.4703, 44.28295
243.9524, 44.01335
244.4345, 43.81229
244.9166, 43.76180
245.3988, 43.83039
245.8809, 43.87495
246.3630, 43.91805
246.8451, 43.89927
247.3272, 43.78420
247.8093, 43.61093
248.2915, 43.41820
248.7736, 43.22327
249.2557, 43.03788
249.7378, 42.91408
250.2199, 42.93377
250.7020, 42.91478
251.1842, 42.78425
251.6663, 42.61967
252.1484, 42.53076
252.6305, 42.57202
253.1126, 42.68464
253.5947, 42.68060
254.0769, 42.38105
254.5590, 42.17715
255.0411, 42.12843
255.5232, 42.17189
256.0053, 42.26870
256.4874, 42.40100
256.9695, 42.51540
257.4517, 42.48257
257.9338, 42.08086
258.4159, 41.79042
258.8980, 41.63628
259.3801, 41.58450
259.8622, 41.63950
260.3444, 41.79810
260.8265, 41.96879
261.3086, 41.97602
261.7907, 41.67586
262.2728, 41.42603
262.7549, 41.21687
263.2371, 41.06543
263.7192, 41.03754
264.2013, 41.14312
264.6834, 41.24201
265.1655, 41.10097
265.6476, 40.52268
266.1298, 40.19999
266.6119, 40.35418
267.0940, 40.65358
267.5761, 40.78272
268.0582, 40.68242
268.5403, 40.51505
269.0225, 40.48130
269.5046, 40.63370
269.9867, 40.66567
270.4688, 40.46119
270.9509, 40.20191
271.4330, 40.03232
271.9152, 39.97143
272.3973, 39.97847
272.8794, 40.03572
273.3615, 40.14684
273.8436, 40.20015
274.3257, 40.16035
274.8079, 40.08598
275.2900, 40.00921
275.7721, 39.93463
276.2542, 39.88243
276.7363, 39.87757
277.2184, 39.91280
277.7006, 39.91706
278.1827, 39.89295
278.6648, 39.83528
279.1469, 39.71179
279.6290, 39.53436
280.1111, 39.39494
280.5933, 39.36845
281.0754, 39.41693
281.5575, 39.39684
282.0396, 39.23080
282.5217, 39.09063
283.0038, 39.11500
283.4860, 39.27277
283.9681, 39.40722
284.4502, 39.46841
284.9323, 39.43925
285.4144, 39.30581
285.8965, 39.04956
286.3787, 38.74386
286.8608, 38.32346
287.3429, 37.86180
287.8250, 37.64993
288.3071, 37.86890
288.7892, 38.26743
289.2714, 38.47551
289.7535, 38.47860
290.2356, 38.45376
290.7177, 38.48421
291.1998, 38.54923
291.6819, 38.60043
292.1641, 38.63755
292.6462, 38.63601
293.1283, 38.55522
293.6104, 38.40516
294.0925, 38.25049
294.5746, 38.11503
295.0568, 37.99287
295.5389, 37.86735
296.0210, 37.72942
296.5031, 37.61008
296.9852, 37.51627
297.4673, 37.45600
297.9495, 37.47399
298.4316, 37.70274
298.9137, 37.97279
299.3958, 37.98200
299.8779, 37.66764
300.3600, 37.36866
300.8422, 37.39370
301.3243, 37.57615
301.8064, 37.62510
302.2885, 37.39780
302.7706, 37.08868
303.2527, 36.91692
303.7349, 36.88874
304.2170, 36.89928
304.6991, 36.89668
305.1812, 36.90959
305.6633, 36.98683
306.1454, 37.16070
306.6276, 37.33367
307.1097, 37.41619
307.5918, 37.41241
308.0739, 37.39788
308.5560, 37.41711
309.0381, 37.41336
309.5203, 37.31717
310.0024, 37.11832
310.4845, 36.91117
310.9666, 36.70005
311.4487, 36.51406
311.9308, 36.54019
312.4130, 36.95866
312.8951, 37.38672
313.3772, 37.44220
313.8593, 37.17518
314.3414, 36.89392
314.8235, 36.74573
315.3057, 36.69616
315.7878, 36.66441
316.2699, 36.65830
316.7520, 36.63592
317.2341, 36.52209
317.7162, 36.36731
318.1984, 36.29010
318.6805, 36.39988
319.1626, 36.58135
319.6447, 36.65722
320.1268, 36.61898
320.6089, 36.51661
321.0911, 36.25596
321.5732, 35.98311
322.0553, 35.93831
322.5374, 36.27948
323.0195, 36.68016
323.5016, 36.75973
323.9838, 36.51585
324.4659, 36.33295
324.9480, 36.42017
325.4301, 36.59797
325.9122, 36.63076
326.3943, 36.48021
326.8765, 36.32418
327.3586, 36.32717
327.8407, 36.45170
328.3228, 36.48487
328.8049, 36.35467
329.2870, 36.14685
329.7692, 35.91571
330.2513, 35.66802
330.7334, 35.50487
331.2155, 35.53752
331.6976, 35.68478
332.1797, 35.74529
332.6619, 35.66999
333.1440, 35.58736
333.6261, 35.62287
334.1082, 35.73372
334.5903, 35.82282
335.0724, 35.89058
335.5546, 35.90610
336.0367, 35.77190
336.5188, 35.46554
337.0009, 35.25935
337.4830, 35.39848
337.9651, 35.71775
338.4473, 35.89945
338.9294, 35.85501
339.4115, 35.75461
339.8936, 35.72728
340.3758, 35.76440
340.8579, 35.80611
341.3400, 35.84474
341.8221, 35.86086
342.3042, 35.82340
342.7863, 35.72328
343.2685, 35.62381
343.7506, 35.57737
344.2327, 35.55367
344.7148, 35.45281
345.1969, 35.21572
345.6790, 35.00051
346.1612, 35.08609
346.6433, 35.41658
347.1254, 35.57903
347.6075, 35.26229
348.0896, 34.81915
348.5717, 34.71881
349.0539, 35.00932
349.5360, 35.38523
350.0181, 35.69336
350.5002, 35.89910
350.9823, 35.91063
351.4644, 35.54268
351.9466, 35.13283
352.4287, 34.87556
352.9108, 34.76368
353.3929, 34.77188
353.8750, 34.92452
354.3571, 35.15621
354.8393, 35.30790
355.3214, 35.37905
355.8035, 35.39135
356.2856, 35.30777
356.7677, 35.17820
357.2498, 35.09053
357.7320, 35.07022
358.2141, 35.09461
358.6962, 35.14627
359.1783, 35.23547
359.6604, 35.28709
360.1425, 35.30915
360.6247, 35.28016
361.1068, 35.12040
361.5889, 34.84139
362.0710, 34.64925
362.5531, 34.75826
363.0352, 35.15879
363.5174, 35.31826
363.9995, 35.02219
364.4816, 34.72271
364.9637, 34.60937
365.4458, 34.66322
365.9279, 34.84572
366.4101, 35.16290
366.8922, 35.53427
367.3743, 35.68473
367.8564, 35.48315
368.3385, 35.26448
368.8206, 34.99032
369.3028, 34.75440
369.7849, 34.71425
370.2670, 34.90336
370.7491, 35.14285
371.2312, 35.17608
371.7133, 34.90089
372.1955, 34.72210
372.6776, 34.68639
373.1597, 34.69973
373.6418, 34.70555
374.1239, 34.70475
374.6060, 34.74251
375.0882, 34.87368
375.5703, 35.08964
376.0524, 35.10830
376.5345, 34.68213
377.0166, 34.34670
377.4987, 34.26109
377.9809, 34.33063
378.4630, 34.42255
378.9451, 34.47613
379.4272, 34.49526
379.9093, 34.48547
380.3914, 34.41192
380.8736, 34.36815
381.3557, 34.39865
381.8378, 34.42810
382.3199, 34.37778
382.8020, 34.25031
383.2841, 34.13380
383.7663, 34.14466
384.2484, 34.31509
384.7305, 34.38525
385.2126, 34.16182
385.6947, 34.02341
386.1768, 34.19695
386.6590, 34.54227
387.1411, 34.75947
387.6232, 34.64391
388.1053, 34.30837
388.5874, 34.18111
389.0695, 34.44073
389.5517, 34.56902
390.0338, 34.35941
390.5159, 34.03288
390.9980, 33.77128
391.4801, 33.62621
391.9622, 33.57315
392.4444, 33.57483
392.9265, 33.62574
393.4086, 33.79309
393.8907, 34.27822
394.3728, 34.69554
394.8549, 34.79850
395.3371, 34.63199
395.8192, 34.39854
396.3013, 34.20325
396.7834, 34.03996
397.2655, 33.87368
397.7477, 33.66897
398.2298, 33.55529
398.7119, 33.74381
399.1940, 34.02052
399.6761, 34.07338
400.1582, 33.73592
400.6404, 33.35256
401.1225, 33.34054
401.6046, 33.67171
402.0867, 33.85273
402.5688, 33.64967
403.0509, 33.32960
403.5331, 33.23291
404.0152, 33.36372
404.4973, 33.46950
404.9794, 33.38049
405.4615, 33.21155
405.9436, 33.20637
406.4258, 33.41848
406.9079, 33.58031
407.3900, 33.40441
407.8721, 32.97250
408.3542, 32.72456
408.8363, 32.77877
409.3185, 32.94633
409.8006, 33.18165
410.2827, 33.44555
410.7648, 33.59111
411.2469, 33.53502
411.7290, 33.36183
412.2112, 33.25347
412.6933, 33.20144
413.1754, 33.21823
413.6575, 33.36076
414.1396, 33.54383
414.6217, 33.70144
415.1039, 33.81448
415.5860, 33.84820
416.0681, 33.74706
416.5502, 33.48803
417.0323, 33.36043
417.5144, 33.47969
417.9966, 33.58726
418.4787, 33.56666
418.9608, 33.45887
419.4429, 33.36553
419.9250, 33.34203
420.4071, 33.33904
420.8893, 33.20807
421.3714, 32.72435
421.8535, 32.46365
422.3356, 32.60893
422.8177, 32.84958
423.2998, 32.96614
423.7820, 32.92139
424.2641, 32.78451
424.7462, 32.59850
425.2283, 32.34936
425.7104, 32.25077
426.1925, 32.45231
426.6747, 32.65096
427.1568, 32.73339
427.6389, 32.76243
428.1210, 32.85748
428.6031, 33.08971
429.0852, 33.35919
429.5674, 33.44638
430.0495, 33.29841
430.5316, 33.16126
431.0137, 33.12741
431.4958, 33.09821
431.9779, 32.96701
432.4601, 32.74441
432.9422, 32.60392
433.4243, 32.74212
433.9064, 33.08600
434.3885, 33.34042
434.8706, 33.52711
435.3528, 33.54131
435.8349, 33.12765
436.3170, 32.52681
436.7991, 32.14973
437.2812, 32.16513
437.7633, 32.33986
438.2455, 32.50209
438.7276, 32.64806
439.2097, 32.74893
439.6918, 32.79755
440.1739, 32.79100
440.6560, 32.67900
441.1382, 32.43940
441.6203, 32.32964
442.1024, 32.53811
442.5845, 32.84954
443.0666, 33.02898
443.5487, 33.05447
444.0309, 32.99269
444.5130, 32.86449
444.9951, 32.68859
445.4772, 32.63243
445.9593, 32.76292
446.4414, 32.91578
446.9236, 33.08203
447.4057, 33.22800
447.8878, 33.28586
448.3699, 33.23490
448.8520, 33.15326
449.3341, 33.16367
449.8163, 33.30938
450.2984, 33.42777
450.7805, 33.52206
451.2626, 33.59066
451.7447, 33.60968
452.2268, 33.60119
452.7090, 33.61987
453.1911, 33.70558
453.6732, 33.83943
454.1553, 33.94610
454.6374, 34.04884
455.1195, 34.07796
455.6017, 33.93061
456.0838, 33.77411
456.5659, 33.77594
457.0480, 33.95515
457.5301, 34.16129
458.0122, 34.22311
458.4944, 34.14449
458.9765, 34.12219
459.4586, 34.19010
459.9407, 34.27447
460.4228, 34.36466
460.9049, 34.43870
461.3871, 34.43779
461.8692, 34.27849
462.3513, 34.14027
462.8334, 34.33385
463.3155, 34.84004
463.7976, 35.12898
464.2798, 34.91583
464.7619, 34.55925
465.2440, 34.52654
465.7261, 34.81782
466.2082, 35.12592
466.6903, 35.37558
467.1725, 35.57300
467.6546, 35.70229
468.1367, 35.76777
468.6188, 35.86055
469.1009, 36.07481
469.5830, 36.35517
470.0652, 36.42546
470.5473, 36.04749
471.0294, 35.78974
471.5115, 35.93530
471.9936, 36.22225
472.4757, 36.28747
472.9579, 36.04920
473.4400, 35.73837
473.9221, 35.63825
474.4042, 35.79687
474.8863, 35.88933
475.3684, 35.84371
475.8506, 35.81681
476.3327, 35.91255
476.8148, 36.05727
477.2969, 36.12487
477.7790, 36.05371
478.2611, 35.88259
478.7433, 35.67519
479.2254, 35.39224
479.7075, 35.18853
480.1896, 35.10538
480.6717, 35.08729
481.1538, 35.14903
481.6360, 35.26210
482.1181, 35.33343
482.6002, 35.26616
483.0823, 35.12241
483.5644, 35.09814
484.0465, 35.23571
484.5287, 35.33692
485.0108, 35.27843
485.4929, 35.15398
485.9750, 35.07800
486.4571, 35.07240
486.9392, 35.06134
487.4214, 35.02980
487.9035, 34.95512
488.3856, 34.72878
488.8677, 34.30201
489.3498, 33.97135
489.8319, 34.05608
490.3141, 34.51780
490.7962, 34.75303
491.2783, 34.57574
491.7604, 34.37346
492.2425, 34.29770
492.7246, 34.32534
493.2068, 34.43066
493.6889, 34.60434
494.1710, 34.78354
494.6531, 34.86570
495.1352, 34.81400
495.6173, 34.77726
496.0995, 34.75116
496.5816, 34.74169
497.0637, 34.76261
497.5458, 34.80170
498.0279, 34.83030
498.5100, 34.82994
498.9922, 34.82112
499.4743, 34.85341
499.9564, 34.92540
500.4385, 35.04375
500.9206, 35.25884
501.4027, 35.48167
501.8849, 35.64343
502.3670, 35.75358
502.8491, 35.88208
503.3312, 36.09930
503.8133, 36.36474
504.2954, 36.55364
504.7776, 36.64410
505.2597, 36.75895
505.7418, 36.96042
506.2239, 37.21699
506.7060, 37.49392
507.1881, 37.80267
507.6703, 38.07353
508.1524, 38.24622
508.6345, 38.36676
509.1166, 38.50626
509.5987, 38.67590
510.0808, 38.85852
510.5630, 39.01418
511.0451, 39.16198
511.5272, 39.50628
512.0093, 40.30180
512.4914, 40.96626
512.9735, 41.24694
513.4556, 41.33510
513.9377, 41.48052
514.4199, 41.75093
514.9020, 42.06123
515.3841, 42.29316
515.8662, 42.42188
516.3483, 42.64129
516.8304, 43.00106
517.3126, 43.40247
517.7947, 43.81777
518.2768, 44.25777
518.7589, 44.77890
519.2410, 45.41199
519.7231, 46.00118
520.2053, 46.26361
520.6874, 46.16699
521.1695, 46.21146
521.6516, 46.51588
522.1337, 46.91108
522.6158, 47.33502
523.0980, 47.75433
523.5801, 48.06782
524.0622, 48.17155
524.5443, 48.22041
525.0264, 48.38473
525.5085, 48.64582
525.9907, 48.90845
526.4728, 49.17753
526.9549, 49.35246
527.4370, 49.24048
527.9191, 48.78868
528.4012, 48.40648
528.8834, 48.15514
529.3655, 47.96761
529.8476, 47.84191
530.3297, 47.74266
530.8118, 47.58523
531.2939, 47.32121
531.7761, 46.98827
532.2582, 46.67488
532.7403, 46.33183
533.2224, 46.10610
533.7045, 46.07831
534.1866, 46.08335
534.6688, 46.01028
535.1509, 45.87927
535.6330, 45.78500
536.1151, 45.80132
536.5972, 45.88014
537.0793, 45.88839
537.5615, 45.81003
538.0436, 45.72899
538.5257, 45.69374
539.0078, 45.64573
539.4899, 45.49821
539.9720, 45.25930
540.4542, 45.09990
540.9363, 45.13646
541.4184, 45.28574
541.9005, 45.45149
542.3826, 45.62691
542.8647, 45.76821
543.3469, 45.83012
543.8290, 45.86719
544.3111, 46.03137
544.7932, 46.36892
545.2753, 46.69975
545.7574, 47.03586
546.2396, 47.33043
546.7217, 47.54443
547.2038, 47.67709
547.6859, 47.73510
548.1680, 47.71571
548.6501, 47.64159
549.1323, 47.61339
549.6144, 47.64440
550.0965, 47.70172
550.5786, 47.80569
551.0607, 47.91266
551.5428, 47.99244
552.0250, 48.04317
552.5071, 48.07798
552.9892, 48.09487
553.4713, 48.10689
553.9534, 48.15992
554.4355, 48.26402
554.9177, 48.36090
555.3998, 48.45422
555.8819, 48.50585
556.3640, 48.45879
556.8461, 48.29950
557.3282, 48.14529
557.8104, 48.01078
558.2925, 47.92249
558.7746, 47.94240
559.2567, 48.05742
559.7388, 48.14799
560.2209, 48.13235
560.7031, 48.05773
561.1852, 48.07542
561.6673, 48.31940
562.1494, 48.46737
562.6315, 48.48793
563.1136, 48.43270
563.5958, 48.24680
564.0779, 48.00442
564.5600, 47.93999
565.0421, 48.25840
565.5242, 48.80590
566.0063, 49.03431
566.4885, 48.80469
566.9706, 48.65874
567.4527, 48.81005
567.9348, 49.02379
568.4169, 49.13188
568.8990, 49.14064
569.3812, 49.17464
569.8633, 49.37213
570.3454, 49.59342
570.8275, 49.57787
571.3096, 49.34596
571.7917, 49.22039
572.2739, 49.36161
572.7560, 49.64088
573.2381, 49.83515
573.7202, 49.93321
574.2023, 50.00305
574.6844, 50.06512
575.1666, 50.08922
575.6487, 50.00653
576.1308, 49.86865
576.6129, 49.83092
577.0950, 49.98168
577.5771, 50.18904
578.0593, 50.12453
578.5414, 49.61100
579.0235, 49.31012
579.5056, 49.42278
579.9877, 49.59922
580.4698, 49.71809
580.9520, 49.77672
581.4341, 49.80090
581.9162, 49.80705
582.3983, 49.77250
582.8804, 49.65601
583.3625, 49.46301
583.8447, 49.24369
584.3268, 48.98516
584.8089, 48.76034
585.2910, 48.67073
585.7732, 48.70208
586.2553, 48.70552
586.7374, 48.66735
587.2195, 48.59985
587.7017, 48.52510
588.1838, 48.42152
588.6659, 48.19773
589.1480, 47.83987
589.6301, 47.54548
590.1122, 47.58736
590.5944, 48.01743
591.0765, 48.28601
591.5586, 48.28014
592.0407, 48.23637
592.5228, 48.21651
593.0049, 48.18558
593.4871, 48.09253
593.9692, 47.92511
594.4513, 47.73395
594.9334, 47.52672
595.4155, 47.32829
595.8976, 47.25483
596.3798, 47.32314
596.8619, 47.48136
597.3440, 47.80755
597.8261, 48.15771
598.3082, 48.17276
598.7903, 47.67578
599.2725, 47.29293
599.7546, 47.37264
600.2367, 47.57490
600.7188, 47.49695
601.2009, 47.14761
601.6830, 46.83082
602.1652, 46.75921
602.6473, 46.85545
603.1294, 46.83041
603.6115, 46.60806
604.0936, 46.40112
604.5757, 46.19801
605.0579, 46.03541
605.5400, 45.99599
606.0221, 46.02382
606.5042, 45.94263
606.9863, 45.61315
607.4684, 45.18636
607.9506, 44.92029
608.4327, 44.80988
608.9148, 44.66516
609.3969, 44.42716
609.8790, 44.15748
610.3611, 43.92857
610.8433, 43.73443
611.3254, 43.50793
611.8075, 43.24113
612.2896, 42.94142
612.7717, 42.57272
613.2538, 42.18494
613.7360, 41.87294
614.2181, 41.66007
614.7002, 41.47185
615.1823, 41.20722
615.6644, 40.85721
616.1465, 40.61903
616.6287, 40.59163
617.1108, 40.54309
617.5929, 40.42548
618.0750, 40.25399
618.5571, 40.04033
619.0392, 39.78804
619.5214, 39.50653
620.0035, 39.19376
620.4856, 38.85984
620.9677, 38.50713
621.4498, 38.13445
621.9319, 37.82330
622.4141, 37.63491
622.8962, 37.51041
623.3783, 37.31115
623.8604, 36.98902
624.3425, 36.75360
624.8246, 36.68103
625.3068, 36.65682
625.7889, 36.62135
626.2710, 36.56874
626.7531, 36.50458
627.2352, 36.43187
627.7173, 36.34895
628.1995, 36.21482
628.6816, 35.97915
629.1637, 35.98439
629.6458, 36.46434
630.1279, 36.90929
630.6100, 36.97323
631.0922, 36.85638
631.5743, 36.92726
632.0564, 37.32563
632.5385, 37.77573
633.0206, 38.09157
633.5027, 38.31482
633.9849, 38.50226
634.4670, 38.66557
634.9491, 38.88916
635.4312, 39.24929
635.9133, 39.71146
636.3954, 40.11652
636.8776, 40.42314
637.3597, 40.72213
637.8418, 40.98734
638.3239, 41.26777
638.8060, 41.61820
639.2881, 42.01810
639.7703, 42.39017
640.2524, 42.67946
640.7345, 42.93785
641.2166, 43.28015
641.6987, 43.71376
642.1808, 44.08669
642.6630, 44.36482
643.1451, 44.58512
643.6272, 44.74887
644.1093, 44.87640
644.5914, 45.04259
645.0735, 45.28019
645.5557, 45.53156
646.0378, 45.77298
646.5199, 46.01079
647.0020, 46.27920
647.4841, 46.56986
647.9662, 46.79181
648.4484, 46.85395
