##NAMES=Chromite
##RRUFFID=R110059
##IDEAL CHEMISTRY=Fe^2+^Cr^3+^_2_O_4_
##LOCALITY=Mount Diablo, Contra Costa County, California, USA
##OWNER=RRUFF
##SOURCE=James Shigley
##DESCRIPTION=Black crystals embedded in a matrix of enstatite
##STATUS=The identification of this mineral has been confirmed only by single crystal X-ray diffraction.
##URL=rruff.info/R110059
211.9856, 352.8165
212.4677, 353.2813
212.9498, 353.0895
213.4319, 352.8387
213.9140, 352.9761
214.3962, 353.7278
214.8783, 354.0435
215.3604, 353.6374
215.8425, 352.7603
216.3246, 352.4458
216.8067, 352.8342
217.2889, 353.4977
217.7710, 354.2090
218.2531, 354.9991
218.7352, 355.7384
219.2173, 356.4329
219.6994, 357.0677
220.1816, 357.5701
220.6637, 357.9628
221.1458, 358.1827
221.6279, 358.1309
222.1100, 357.6178
222.5921, 357.3264
223.0743, 357.3401
223.5564, 357.6182
224.0385, 358.0272
224.5206, 358.7443
225.0027, 359.3168
225.4848, 359.3855
225.9670, 358.5900
226.4491, 358.2104
226.9312, 358.5325
227.4133, 359.3680
227.8954, 359.7874
228.3775, 359.5989
228.8597, 359.2701
229.3418, 359.0441
229.8239, 358.8386
230.3060, 358.9366
230.7881, 359.4907
231.2702, 360.3735
231.7524, 360.9438
232.2345, 360.9711
232.7166, 360.9837
233.1987, 361.3359
233.6808, 362.3383
234.1629, 362.9565
234.6451, 363.0001
235.1272, 362.5967
235.6093, 362.3374
236.0914, 362.3706
236.5735, 362.3455
237.0556, 362.0273
237.5378, 361.1632
238.0199, 360.5782
238.5020, 360.3930
238.9841, 360.5289
239.4662, 360.6500
239.9483, 360.6716
240.4305, 360.8164
240.9126, 361.2883
241.3947, 362.5197
241.8768, 363.1085
242.3589, 362.6823
242.8410, 361.5955
243.3232, 361.1467
243.8053, 361.7929
244.2874, 362.4467
244.7695, 362.4682
245.2516, 361.2811
245.7337, 360.7437
246.2159, 361.0707
246.6980, 362.0538
247.1801, 363.1232
247.6622, 364.6828
248.1443, 365.7226
248.6264, 365.5884
249.1086, 363.4266
249.5907, 362.1658
250.0728, 362.1557
250.5549, 362.9903
251.0370, 363.6157
251.5191, 364.0247
252.0013, 364.2512
252.4834, 364.2814
252.9655, 364.0011
253.4476, 363.8273
253.9297, 363.7073
254.4118, 363.7231
254.8940, 364.1070
255.3761, 365.0925
255.8582, 366.0356
256.3403, 366.7268
256.8224, 367.2617
257.3046, 367.1149
257.7867, 365.8366
258.2688, 364.1522
258.7509, 363.5878
259.2330, 364.6788
259.7151, 365.7906
260.1973, 366.2653
260.6794, 365.9175
261.1615, 365.7226
261.6436, 365.7213
262.1257, 365.8433
262.6078, 366.0273
263.0900, 366.4055
263.5721, 366.5381
264.0542, 366.1363
264.5363, 365.0322
265.0184, 364.5802
265.5005, 364.9408
265.9827, 365.7645
266.4648, 366.6370
266.9469, 367.6578
267.4290, 368.4229
267.9111, 368.7591
268.3932, 368.6333
268.8754, 368.5386
269.3575, 368.4853
269.8396, 368.4317
270.3217, 368.2685
270.8038, 367.9011
271.2859, 367.7603
271.7681, 368.0014
272.2502, 368.6056
272.7323, 369.2581
273.2144, 370.0107
273.6965, 370.6771
274.1786, 370.9843
274.6608, 370.8479
275.1429, 370.8474
275.6250, 371.2172
276.1071, 371.8714
276.5892, 372.0956
277.0714, 371.7745
277.5535, 371.3447
278.0356, 371.2317
278.5177, 371.4665
278.9998, 371.6832
279.4819, 371.8201
279.9641, 371.8773
280.4462, 371.8199
280.9283, 371.6147
281.4104, 371.4288
281.8925, 371.3784
282.3746, 371.4650
282.8568, 371.7585
283.3389, 372.4672
283.8210, 373.2506
284.3031, 372.9794
284.7852, 371.5504
285.2673, 370.0124
285.7495, 369.0126
286.2316, 368.5424
286.7137, 368.4529
287.1958, 368.7596
287.6779, 369.3947
288.1600, 370.4682
288.6422, 371.9934
289.1243, 373.1045
289.6064, 372.8641
290.0885, 371.5847
290.5706, 370.9790
291.0527, 371.3165
291.5349, 372.0629
292.0170, 372.3352
292.4991, 372.1720
292.9812, 372.0947
293.4633, 372.5750
293.9454, 373.3786
294.4276, 373.6688
294.9097, 373.3121
295.3918, 372.8317
295.8739, 372.8686
296.3560, 373.3599
296.8381, 374.0060
297.3203, 374.9482
297.8024, 375.8947
298.2845, 376.1361
298.7666, 375.6087
299.2487, 374.8985
299.7308, 374.5280
300.2130, 374.4381
300.6951, 374.4624
301.1772, 374.5399
301.6593, 374.6872
302.1414, 374.9595
302.6235, 375.3505
303.1057, 375.7603
303.5878, 376.1790
304.0699, 376.5488
304.5520, 376.7469
305.0341, 376.6465
305.5162, 376.4417
305.9984, 376.2665
306.4805, 376.1375
306.9626, 376.1547
307.4447, 376.5696
307.9268, 377.1167
308.4089, 377.4286
308.8911, 377.3027
309.3732, 377.0875
309.8553, 377.0708
310.3374, 377.2019
310.8195, 377.3076
311.3016, 377.2308
311.7838, 377.1127
312.2659, 377.1161
312.7480, 377.3744
313.2301, 377.5022
313.7122, 377.0068
314.1943, 376.2089
314.6765, 375.7967
315.1586, 376.4497
315.6407, 377.3246
316.1228, 377.8717
316.6049, 377.9395
317.0870, 378.0291
317.5692, 378.5211
318.0513, 379.1346
318.5334, 379.4723
319.0155, 379.1000
319.4976, 378.6902
319.9797, 378.5338
320.4619, 378.6655
320.9440, 378.8640
321.4261, 379.2047
321.9082, 379.5147
322.3903, 379.6274
322.8724, 379.1772
323.3546, 378.8503
323.8367, 378.9374
324.3188, 379.4181
324.8009, 379.6793
325.2830, 379.2323
325.7651, 378.7794
326.2473, 378.7783
326.7294, 380.0353
327.2115, 380.8804
327.6936, 380.9702
328.1757, 380.4643
328.6578, 380.1439
329.1400, 380.2324
329.6221, 380.3445
330.1042, 380.3215
330.5863, 380.1187
331.0684, 379.8475
331.5505, 379.3512
332.0327, 378.8093
332.5148, 378.6245
332.9969, 378.8354
333.4790, 379.3374
333.9611, 380.2164
334.4432, 381.7066
334.9254, 382.5250
335.4075, 382.3044
335.8896, 381.6928
336.3717, 381.6118
336.8538, 382.2699
337.3359, 382.9500
337.8180, 383.4984
338.3001, 383.9146
338.7823, 384.1123
339.2644, 384.0090
339.7465, 383.8646
340.2286, 384.0216
340.7107, 384.5894
341.1928, 384.8203
341.6750, 384.4572
342.1571, 383.6966
342.6392, 383.3123
343.1213, 383.3415
343.6034, 383.5515
344.0855, 383.9383
344.5677, 384.4775
345.0498, 384.5082
345.5319, 383.8068
346.0140, 382.8018
346.4961, 382.2859
346.9782, 382.2485
347.4604, 382.4178
347.9425, 382.6610
348.4246, 382.9910
348.9067, 383.4505
349.3888, 384.0453
349.8709, 384.7520
350.3531, 385.6942
350.8352, 386.7671
351.3173, 387.5803
351.7994, 387.9697
352.2815, 387.9942
352.7636, 387.5980
353.2458, 386.7786
353.7279, 386.0516
354.2100, 385.8614
354.6921, 386.0543
355.1742, 386.3754
355.6563, 386.8122
356.1385, 387.2718
356.6206, 387.7233
357.1027, 388.1444
357.5848, 388.4203
358.0669, 388.5609
358.5490, 388.4915
359.0312, 388.0552
359.5133, 386.9709
359.9954, 386.0958
360.4775, 385.9807
360.9596, 386.4398
361.4417, 387.0717
361.9239, 388.0904
362.4060, 388.9599
362.8881, 389.3119
363.3702, 389.0116
363.8523, 388.7319
364.3344, 388.7980
364.8166, 388.9640
365.2987, 388.9485
365.7808, 388.2066
366.2629, 387.7586
366.7450, 388.0677
367.2271, 389.1300
367.7093, 389.8828
368.1914, 389.9199
368.6735, 389.7814
369.1556, 389.8188
369.6377, 390.3888
370.1198, 390.6898
370.6020, 390.5202
371.0841, 390.0303
371.5662, 389.7652
372.0483, 389.7464
372.5304, 389.9212
373.0125, 390.3100
373.4947, 391.0426
373.9768, 391.6244
374.4589, 392.1435
374.9410, 392.4478
375.4231, 392.1830
375.9052, 391.0617
376.3874, 390.2016
376.8695, 390.0388
377.3516, 390.5576
377.8337, 390.8229
378.3158, 390.7885
378.7979, 390.6696
379.2801, 390.6884
379.7622, 390.8564
380.2443, 390.9808
380.7264, 390.9896
381.2085, 390.9621
381.6906, 391.1463
382.1728, 391.5415
382.6549, 391.9350
383.1370, 392.1674
383.6191, 392.2646
384.1012, 392.2870
384.5833, 392.1837
385.0655, 392.1687
385.5476, 392.6234
386.0297, 393.4347
386.5118, 394.1826
386.9939, 394.7181
387.4760, 395.0562
387.9582, 395.2032
388.4403, 395.1636
388.9224, 395.0063
389.4045, 394.5942
389.8866, 394.1578
390.3687, 394.0447
390.8509, 394.7203
391.3330, 395.3886
391.8151, 395.3491
392.2972, 394.7784
392.7793, 394.3867
393.2614, 394.7617
393.7436, 395.2982
394.2257, 395.5326
394.7078, 395.2155
395.1899, 394.9949
395.6720, 395.1591
396.1541, 395.5483
396.6363, 395.9076
397.1184, 396.0640
397.6005, 396.2786
398.0826, 396.7707
398.5647, 397.6332
399.0468, 398.0269
399.5290, 397.2287
400.0111, 396.2903
400.4932, 396.0590
400.9753, 397.0829
401.4574, 398.1046
401.9395, 399.1889
402.4217, 400.2265
402.9038, 400.5922
403.3859, 399.8100
403.8680, 399.0580
404.3501, 398.9917
404.8322, 399.9405
405.3144, 400.4042
405.7965, 400.2629
406.2786, 399.7742
406.7607, 399.2317
407.2428, 398.5563
407.7249, 398.2674
408.2071, 398.6478
408.6892, 399.5840
409.1713, 400.4536
409.6534, 401.2978
410.1355, 401.8298
410.6176, 401.4479
411.0998, 400.3755
411.5819, 400.0238
412.0640, 400.8780
412.5461, 402.2123
413.0282, 402.8534
413.5103, 402.8914
413.9925, 402.8844
414.4746, 403.2085
414.9567, 403.6783
415.4388, 403.9691
415.9209, 404.0370
416.4030, 404.1227
416.8852, 404.6446
417.3673, 405.2882
417.8494, 405.5455
418.3315, 405.0204
418.8136, 404.2238
419.2957, 403.3026
419.7779, 402.3251
420.2600, 401.6416
420.7421, 401.5871
421.2242, 401.7964
421.7063, 402.0316
422.1884, 402.3409
422.6706, 402.5164
423.1527, 402.3631
423.6348, 402.0614
424.1169, 401.9489
424.5990, 402.0119
425.0811, 402.3230
425.5633, 403.0634
426.0454, 404.3597
426.5275, 405.1270
427.0096, 405.0887
427.4917, 404.7322
427.9738, 404.4221
428.4560, 404.0654
428.9381, 403.9483
429.4202, 404.1967
429.9023, 404.6818
430.3844, 404.9664
430.8665, 404.9900
431.3487, 404.9785
431.8308, 405.0475
432.3129, 405.2033
432.7950, 405.3576
433.2771, 405.5230
433.7592, 405.6611
434.2414, 405.7491
434.7235, 405.7846
435.2056, 405.6810
435.6877, 405.2763
436.1698, 404.8161
436.6519, 404.8518
437.1341, 405.3720
437.6162, 406.0755
438.0983, 406.8429
438.5804, 407.6271
439.0625, 408.3993
439.5446, 409.2246
440.0268, 409.8023
440.5089, 409.7618
440.9910, 409.2762
441.4731, 408.7037
441.9552, 407.8428
442.4373, 407.2233
442.9195, 407.4062
443.4016, 408.3690
443.8837, 409.0108
444.3658, 408.2596
444.8479, 407.3394
445.3300, 407.2353
445.8122, 409.0410
446.2943, 410.4794
446.7764, 411.0413
447.2585, 410.9598
447.7406, 410.8328
448.2227, 410.3912
448.7049, 410.2256
449.1870, 410.6649
449.6691, 411.9120
450.1512, 412.5208
450.6333, 412.2553
451.1154, 411.6147
451.5976, 410.9815
452.0797, 410.2464
452.5618, 409.9716
453.0439, 410.4221
453.5260, 411.3067
454.0081, 411.7264
454.4903, 411.6363
454.9724, 411.3941
455.4545, 411.0740
455.9366, 410.7240
456.4187, 410.6516
456.9008, 410.8536
457.3830, 411.3860
457.8651, 412.5956
458.3472, 414.2335
458.8293, 415.4510
459.3114, 415.9610
459.7935, 415.9301
460.2757, 415.3843
460.7578, 414.4078
461.2399, 413.4370
461.7220, 412.5116
462.2041, 411.8429
462.6862, 411.7601
463.1684, 412.4544
463.6505, 413.0888
464.1326, 413.1259
464.6147, 412.8877
465.0968, 412.7899
465.5789, 413.0851
466.0611, 413.4214
466.5432, 413.7426
467.0253, 414.0421
467.5074, 414.2563
467.9895, 414.3863
468.4716, 414.4283
468.9538, 414.3657
469.4359, 414.1112
469.9180, 413.9276
470.4001, 413.7353
470.8822, 413.6588
471.3643, 413.9754
471.8465, 414.9238
472.3286, 415.5245
472.8107, 415.3671
473.2928, 414.6351
473.7749, 414.4307
474.2570, 414.8137
474.7392, 415.4084
475.2213, 416.0809
475.7034, 416.7790
476.1855, 417.0841
476.6676, 416.8837
477.1497, 416.5337
477.6319, 416.5242
478.1140, 416.7725
478.5961, 417.0021
479.0782, 417.0354
479.5603, 417.0269
480.0424, 417.2430
480.5246, 417.6397
481.0067, 417.8575
481.4888, 417.3045
481.9709, 416.6712
482.4530, 416.6405
482.9352, 417.6070
483.4173, 418.5087
483.8994, 418.9952
484.3815, 419.1341
484.8636, 419.0262
485.3457, 418.1290
485.8279, 417.5646
486.3100, 417.9181
486.7921, 419.1921
487.2742, 419.7344
487.7563, 419.0758
488.2384, 418.1810
488.7206, 417.5511
489.2027, 417.1790
489.6848, 417.1540
490.1669, 417.6332
490.6490, 418.3010
491.1311, 418.6596
491.6133, 418.6757
492.0954, 418.5671
492.5775, 418.2370
493.0596, 417.8728
493.5417, 418.3629
494.0238, 419.7139
494.5060, 421.0070
494.9881, 421.5169
495.4702, 421.4333
495.9523, 421.1310
496.4344, 420.5592
496.9165, 420.2057
497.3987, 420.7932
497.8808, 421.9260
498.3629, 422.8495
498.8450, 423.1165
499.3271, 423.1920
499.8092, 423.3071
500.2914, 423.4746
500.7735, 423.7213
501.2556, 424.2953
501.7377, 424.7929
502.2198, 424.9472
502.7019, 424.5817
503.1841, 424.2811
503.6662, 424.0674
504.1483, 423.9852
504.6304, 424.0966
505.1125, 424.5361
505.5946, 424.9510
506.0768, 425.3043
506.5589, 425.5903
507.0410, 425.7506
507.5231, 425.6849
508.0052, 425.7593
508.4873, 426.2700
508.9695, 427.2131
509.4516, 427.8658
509.9337, 428.1916
510.4158, 428.3427
510.8979, 428.3836
511.3800, 428.3671
511.8622, 428.5629
512.3443, 429.1446
512.8264, 429.8200
513.3085, 430.1332
513.7906, 430.1915
514.2728, 430.3775
514.7549, 431.2850
515.2370, 432.1736
515.7191, 432.2568
516.2012, 431.4352
516.6833, 430.7627
517.1655, 430.7930
517.6476, 431.1552
518.1297, 431.5359
518.6118, 431.9902
519.0939, 432.3148
519.5760, 432.2246
520.0582, 431.9984
520.5403, 432.3057
521.0224, 433.5595
521.5045, 434.7627
521.9866, 435.6489
522.4688, 436.2181
522.9509, 436.7120
523.4330, 437.1258
523.9151, 437.4687
524.3972, 437.6911
524.8793, 437.7836
525.3615, 438.0053
525.8436, 438.3488
526.3257, 438.9023
526.8078, 440.0971
527.2899, 441.7266
527.7720, 442.7690
528.2542, 442.4911
528.7363, 441.6553
529.2184, 441.0880
529.7005, 440.8141
530.1826, 440.9425
530.6647, 442.0789
531.1469, 443.3249
531.6290, 443.8320
532.1111, 443.3309
532.5932, 442.8551
533.0753, 442.7590
533.5574, 442.9245
534.0396, 443.2300
534.5217, 443.7256
535.0038, 444.2911
535.4859, 445.0485
535.9680, 445.8797
536.4501, 446.3721
536.9323, 446.2334
537.4144, 446.2599
537.8965, 446.8378
538.3786, 447.9837
538.8607, 448.7145
539.3428, 448.9470
539.8250, 448.9848
540.3071, 449.0640
540.7892, 449.1787
541.2713, 449.3116
541.7534, 449.4571
542.2355, 449.6176
542.7177, 449.7473
543.1998, 449.8861
543.6819, 450.1604
544.1640, 450.8522
544.6461, 451.5463
545.1282, 451.7015
545.6104, 451.4276
546.0925, 451.4028
546.5746, 452.3112
547.0567, 453.3574
547.5388, 453.9731
548.0209, 453.9218
548.5031, 453.9707
548.9852, 454.5273
549.4673, 455.1418
549.9494, 455.3121
550.4315, 454.4218
550.9136, 454.0551
551.3958, 454.6090
551.8779, 455.7285
552.3600, 456.3341
552.8421, 456.3171
553.3242, 456.1731
553.8063, 456.1226
554.2885, 456.1340
554.7706, 455.8966
555.2527, 455.3854
555.7348, 454.9020
556.2169, 454.7390
556.6990, 454.8110
557.1812, 454.9067
557.6633, 455.0088
558.1454, 455.0846
558.6275, 455.0836
559.1096, 455.0405
559.5917, 455.0138
560.0739, 454.9738
560.5560, 455.0100
561.0381, 455.2833
561.5202, 455.7054
562.0023, 455.9040
562.4844, 455.4964
562.9666, 455.0851
563.4487, 454.9922
563.9308, 455.3322
564.4129, 455.4110
564.8950, 455.0887
565.3771, 454.6500
565.8593, 454.2923
566.3414, 453.9854
566.8235, 453.8964
567.3056, 454.0966
567.7877, 454.4328
568.2698, 454.6354
568.7520, 454.7140
569.2341, 454.7796
569.7162, 454.9751
570.1983, 455.1285
570.6804, 454.8086
571.1625, 454.0912
571.6447, 453.4616
572.1268, 453.1648
572.6089, 453.1582
573.0910, 453.5992
573.5731, 454.6245
574.0552, 455.1689
574.5374, 454.2591
575.0195, 452.8854
575.5016, 451.9692
575.9837, 451.8377
576.4658, 451.9749
576.9479, 452.5560
577.4301, 453.3062
577.9122, 453.6930
578.3943, 453.6082
578.8764, 453.3260
579.3585, 452.7939
579.8406, 452.0916
580.3228, 451.8820
580.8049, 452.2297
581.2870, 452.6464
581.7691, 452.7823
582.2512, 452.7179
582.7333, 452.8830
583.2155, 453.3569
583.6975, 453.5950
584.1796, 452.6551
584.6617, 451.2447
585.1439, 450.5891
585.6260, 451.4042
586.1081, 452.3705
586.5902, 452.7496
587.0723, 452.7051
587.5544, 452.5469
588.0366, 452.1039
588.5187, 451.8153
589.0008, 451.9206
589.4829, 452.3851
589.9650, 452.6147
590.4471, 452.4731
590.9293, 452.2433
591.4114, 451.9937
591.8935, 451.6666
592.3756, 451.7452
592.8577, 452.3544
593.3398, 453.0251
593.8220, 453.2918
594.3041, 453.1854
594.7862, 452.9057
595.2683, 452.4534
595.7504, 451.9498
596.2325, 451.4637
596.7147, 451.0460
597.1968, 450.8266
597.6789, 451.0268
598.1610, 451.3142
598.6431, 451.5161
599.1252, 451.6197
599.6074, 451.5733
600.0895, 451.4068
600.5716, 451.0461
601.0537, 450.2979
601.5358, 448.9459
602.0179, 448.2897
602.5001, 448.8233
602.9822, 449.5758
603.4643, 449.8181
603.9464, 449.4134
604.4285, 449.0415
604.9106, 448.7399
605.3928, 448.4845
605.8749, 448.2071
606.3570, 447.9155
606.8391, 447.7557
607.3212, 447.8694
607.8033, 448.0087
608.2855, 447.6020
608.7676, 446.8376
609.2497, 446.4031
609.7318, 447.0413
610.2139, 447.8911
610.6960, 448.2477
611.1782, 448.0899
611.6603, 447.9365
612.1424, 448.0458
612.6245, 448.1612
613.1066, 448.1083
613.5887, 447.7490
614.0709, 447.5247
614.5530, 447.4463
615.0351, 447.5045
615.5172, 447.7335
615.9993, 448.2095
616.4814, 448.5230
616.9636, 448.5756
617.4457, 448.5000
617.9278, 448.5041
618.4099, 448.5918
618.8920, 448.8224
619.3741, 449.4070
619.8563, 450.0053
620.3384, 449.9384
620.8205, 449.3476
621.3026, 448.9566
621.7847, 449.3547
622.2668, 449.9857
622.7490, 450.4319
623.2311, 450.6396
623.7132, 450.8881
624.1953, 451.3059
624.6774, 451.7657
625.1595, 452.1808
625.6417, 452.5207
626.1238, 452.9034
626.6059, 453.3524
627.0880, 453.8317
627.5701, 454.3205
628.0522, 454.8377
628.5344, 455.1776
629.0165, 455.1912
629.4986, 455.1619
629.9807, 455.6497
630.4628, 456.6035
630.9449, 457.7355
631.4271, 459.1679
631.9092, 460.5341
632.3913, 461.3436
632.8734, 461.6668
633.3555, 461.9704
633.8376, 462.4582
634.3198, 463.0145
634.8019, 463.6091
635.2840, 464.2729
635.7661, 464.7820
636.2482, 465.0836
636.7303, 465.2592
637.2125, 465.3200
637.6946, 465.1281
638.1767, 465.2735
638.6588, 465.8690
639.1409, 466.6593
639.6230, 467.3484
640.1052, 467.9353
640.5873, 468.2607
641.0694, 468.2020
641.5515, 468.0099
642.0336, 467.9909
642.5157, 468.1413
642.9979, 468.4530
643.4800, 469.1070
643.9621, 469.7614
644.4442, 470.0873
644.9263, 470.1532
645.4084, 470.3788
645.8906, 471.3928
646.3727, 472.1632
646.8548, 472.0211
647.3369, 470.7816
647.8190, 470.1329
648.3011, 470.3082
648.7833, 470.7357
649.2654, 470.9813
649.7475, 471.0209
650.2296, 471.2650
650.7117, 471.7905
651.1938, 472.3130
651.6760, 472.2765
652.1581, 471.9213
652.6402, 472.0417
653.1223, 473.0120
653.6044, 474.1569
654.0865, 474.9346
654.5687, 475.4514
655.0508, 475.9200
655.5329, 476.4663
656.0150, 476.9366
656.4971, 477.1497
656.9792, 477.1964
657.4614, 477.5522
657.9435, 478.3774
658.4256, 479.3180
658.9077, 480.3896
659.3898, 481.5626
659.8719, 482.0170
660.3541, 481.6170
660.8362, 481.1321
661.3183, 480.9712
661.8004, 481.1593
662.2825, 481.9470
662.7646, 483.3864
663.2468, 484.7514
663.7289, 485.1820
664.2110, 485.2424
664.6931, 485.7092
665.1752, 486.9292
665.6573, 488.1136
666.1395, 488.7157
666.6216, 489.1813
667.1037, 490.0570
667.5858, 492.0684
668.0679, 493.6573
668.5500, 494.4985
669.0322, 494.9349
669.5143, 495.7007
669.9964, 496.8592
670.4785, 498.0526
670.9606, 499.2182
671.4427, 500.3111
671.9249, 501.0716
672.4070, 501.5553
672.8891, 502.2092
673.3712, 503.4592
673.8533, 504.9190
674.3354, 505.9938
674.8176, 506.7404
675.2997, 507.8364
675.7818, 510.3549
676.2639, 512.7610
676.7460, 513.9361
677.2281, 513.2731
677.7103, 513.2337
678.1924, 514.0815
678.6745, 515.3951
679.1566, 517.0002
679.6387, 519.0613
680.1208, 520.5478
680.6030, 521.2603
681.0851, 521.8141
681.5672, 523.0668
682.0493, 524.8666
682.5314, 526.7220
683.0135, 528.6910
683.4957, 530.1981
683.9778, 530.3553
684.4599, 529.6292
684.9420, 528.8998
685.4241, 528.3284
685.9063, 527.9872
686.3884, 527.9280
686.8705, 528.1272
687.3526, 528.5154
687.8347, 529.4495
688.3168, 530.0516
688.7990, 529.9865
689.2811, 529.3777
689.7632, 529.0761
690.2453, 529.1447
690.7274, 529.1166
691.2095, 528.5608
691.6917, 527.7117
692.1738, 527.3729
692.6559, 527.5266
693.1380, 527.5570
693.6201, 526.7944
694.1022, 525.8112
694.5844, 525.2468
695.0665, 525.2811
695.5486, 525.0226
696.0307, 523.7861
696.5128, 522.3716
696.9949, 521.4360
697.4771, 521.4522
697.9592, 520.9343
698.4413, 519.5927
698.9234, 518.1083
699.4055, 517.5078
699.8876, 517.8256
700.3698, 517.4558
700.8519, 515.9780
701.3340, 514.1606
701.8161, 513.0825
702.2982, 512.5307
702.7803, 511.9528
703.2625, 510.9970
703.7446, 510.1335
704.2267, 509.8305
704.7088, 509.8465
705.1909, 509.6525
705.6730, 508.6889
706.1552, 507.9697
706.6373, 507.8394
707.1194, 508.1467
707.6015, 508.1844
708.0836, 507.8248
708.5657, 507.5567
709.0479, 507.6716
709.5300, 508.0171
