##NAMES=Chrysoberyl
##RRUFFID=R040073
##IDEAL CHEMISTRY=BeAl_2_O_4_
##LOCALITY=Brazil
##OWNER=RRUFF
##SOURCE=University of Arizona Mineral Museum
##DESCRIPTION=Pair of green prismatic crystals
##STATUS=The identification of this mineral has been confirmed by X-ray diffraction and chemical analysis
##URL=rruff.info/R040073
##MEASURED CHEMISTRY=(Be_0.89_Al_0.06_Fe_0.02_)Al_2.00_O_4_
138.5035, 1422.470
138.9856, 1430.513
139.4677, 1435.418
139.9498, 1440.469
140.4319, 1451.525
140.9140, 1465.305
141.3962, 1491.633
141.8783, 1539.342
142.3604, 1596.427
142.8425, 1650.506
143.3246, 1696.797
143.8067, 1737.729
144.2889, 1778.779
144.7710, 1816.380
145.2531, 1859.170
145.7352, 1903.559
146.2173, 1930.098
146.6994, 1937.870
147.1816, 1948.012
147.6637, 1959.164
148.1458, 1967.517
148.6279, 1974.927
149.1100, 1978.593
149.5921, 1976.343
150.0743, 1970.007
150.5564, 1963.467
151.0385, 1958.667
151.5206, 1953.592
152.0027, 1942.259
152.4848, 1918.809
152.9670, 1897.479
153.4491, 1887.088
153.9312, 1883.141
154.4133, 1873.441
154.8954, 1851.745
155.3775, 1819.858
155.8597, 1784.837
156.3418, 1739.550
156.8239, 1699.994
157.3060, 1675.942
157.7881, 1664.983
158.2702, 1656.868
158.7524, 1647.441
159.2345, 1637.193
159.7166, 1627.779
160.1987, 1621.128
160.6808, 1613.149
161.1629, 1600.435
161.6451, 1583.745
162.1272, 1566.953
162.6093, 1549.757
163.0914, 1535.478
163.5735, 1530.127
164.0556, 1540.349
164.5378, 1552.019
165.0199, 1554.034
165.5020, 1546.993
165.9841, 1538.526
166.4662, 1532.653
166.9483, 1527.875
167.4305, 1520.826
167.9126, 1507.650
168.3947, 1496.227
168.8768, 1495.116
169.3589, 1504.515
169.8410, 1515.212
170.3232, 1524.814
170.8053, 1531.812
171.2874, 1533.329
171.7695, 1524.984
172.2516, 1515.188
172.7337, 1515.291
173.2159, 1526.651
173.6980, 1533.072
174.1801, 1519.420
174.6622, 1497.427
175.1443, 1484.665
175.6264, 1490.295
176.1086, 1499.793
176.5907, 1494.183
177.0728, 1470.979
177.5549, 1448.697
178.0370, 1437.928
178.5191, 1433.386
179.0013, 1428.898
179.4834, 1422.183
179.9655, 1415.940
180.4476, 1414.989
180.9297, 1420.720
181.4118, 1424.360
181.8940, 1422.061
182.3761, 1415.006
182.8582, 1402.205
183.3403, 1378.418
183.8224, 1355.383
184.3046, 1351.290
184.7867, 1369.797
185.2688, 1389.850
185.7509, 1403.198
186.2330, 1412.164
186.7151, 1419.243
187.1973, 1426.815
187.6794, 1430.352
188.1615, 1421.658
188.6436, 1398.098
189.1257, 1374.081
189.6078, 1349.525
190.0900, 1330.293
190.5721, 1324.871
191.0542, 1339.901
191.5363, 1362.405
192.0184, 1374.147
192.5005, 1372.937
192.9827, 1370.478
193.4648, 1372.829
193.9469, 1375.840
194.4290, 1375.030
194.9111, 1368.221
195.3932, 1359.277
195.8754, 1352.842
196.3575, 1348.793
196.8396, 1347.694
197.3217, 1350.558
197.8038, 1356.249
198.2859, 1365.674
198.7681, 1381.169
199.2502, 1394.916
199.7323, 1394.320
200.2144, 1376.163
200.6965, 1360.612
201.1786, 1358.372
201.6608, 1360.579
202.1429, 1359.630
202.6250, 1352.686
203.1071, 1345.847
203.5892, 1348.649
204.0713, 1363.252
204.5535, 1373.404
205.0356, 1368.684
205.5177, 1359.531
205.9998, 1353.619
206.4819, 1352.374
206.9640, 1354.805
207.4462, 1363.394
207.9283, 1379.825
208.4104, 1386.209
208.8925, 1364.364
209.3746, 1337.979
209.8567, 1327.536
210.3388, 1337.367
210.8210, 1353.006
211.3031, 1360.681
211.7852, 1360.136
212.2673, 1357.984
212.7494, 1356.948
213.2315, 1353.864
213.7137, 1345.436
214.1958, 1331.147
214.6779, 1315.600
215.1600, 1301.171
215.6421, 1287.955
216.1242, 1280.921
216.6064, 1284.308
217.0885, 1292.022
217.5706, 1300.483
218.0527, 1309.464
218.5348, 1315.696
219.0169, 1314.377
219.4991, 1306.533
219.9812, 1303.147
220.4633, 1309.956
220.9454, 1317.710
221.4275, 1318.234
221.9096, 1311.763
222.3918, 1304.830
222.8739, 1300.257
223.3560, 1298.317
223.8381, 1301.922
224.3202, 1317.739
224.8023, 1330.107
225.2845, 1323.661
225.7666, 1301.156
226.2487, 1280.617
226.7308, 1273.772
227.2129, 1276.739
227.6950, 1276.620
228.1772, 1269.488
228.6593, 1264.206
229.1414, 1269.304
229.6235, 1282.449
230.1056, 1295.403
230.5877, 1308.101
231.0699, 1317.662
231.5520, 1315.227
232.0341, 1295.430
232.5162, 1276.827
232.9983, 1277.163
233.4804, 1290.094
233.9626, 1300.690
234.4447, 1302.090
234.9268, 1299.185
235.4089, 1299.221
235.8910, 1302.816
236.3731, 1307.184
236.8553, 1310.166
237.3374, 1312.517
237.8195, 1316.111
238.3016, 1323.515
238.7837, 1331.028
239.2658, 1333.812
239.7480, 1331.698
240.2301, 1330.140
240.7122, 1334.249
241.1943, 1340.857
241.6764, 1341.630
242.1585, 1329.378
242.6407, 1317.504
243.1228, 1320.479
243.6049, 1336.090
244.0870, 1344.738
244.5691, 1334.653
245.0512, 1311.583
245.5334, 1292.631
246.0155, 1278.158
246.4976, 1267.188
246.9797, 1259.127
247.4618, 1254.154
247.9439, 1253.677
248.4261, 1260.141
248.9082, 1269.147
249.3903, 1270.494
249.8724, 1261.335
250.3545, 1252.471
250.8366, 1246.224
251.3188, 1243.083
251.8009, 1245.261
252.2830, 1254.494
252.7651, 1265.866
253.2472, 1270.420
253.7293, 1266.629
254.2115, 1262.299
254.6936, 1261.318
255.1757, 1259.565
255.6578, 1248.798
256.1399, 1226.879
256.6220, 1205.620
257.1042, 1201.300
257.5863, 1221.100
258.0684, 1234.831
258.5505, 1237.823
259.0326, 1236.854
259.5147, 1237.697
259.9969, 1240.962
260.4790, 1243.476
260.9611, 1241.812
261.4432, 1235.003
261.9253, 1230.411
262.4074, 1228.065
262.8896, 1227.656
263.3717, 1230.253
263.8538, 1234.993
264.3359, 1239.073
264.8180, 1240.217
265.3001, 1238.460
265.7823, 1237.759
266.2644, 1239.451
266.7465, 1240.617
267.2286, 1239.965
267.7107, 1238.123
268.1928, 1236.602
268.6750, 1236.425
269.1571, 1236.926
269.6392, 1234.848
270.1213, 1225.344
270.6034, 1218.600
271.0855, 1215.959
271.5677, 1216.501
272.0498, 1220.995
272.5319, 1229.723
273.0140, 1238.146
273.4961, 1234.757
273.9782, 1207.455
274.4604, 1189.165
274.9425, 1184.854
275.4246, 1187.334
275.9067, 1192.532
276.3888, 1198.867
276.8709, 1204.524
277.3531, 1205.865
277.8352, 1199.709
278.3173, 1199.647
278.7994, 1215.611
279.2815, 1229.979
279.7636, 1232.331
280.2458, 1223.281
280.7279, 1211.567
281.2100, 1204.463
281.6921, 1202.038
282.1742, 1202.316
282.6563, 1208.705
283.1385, 1214.099
283.6206, 1216.806
284.1027, 1216.282
284.5848, 1211.237
285.0669, 1198.249
285.5490, 1180.551
286.0312, 1170.801
286.5133, 1172.469
286.9954, 1175.087
287.4775, 1171.255
287.9596, 1165.932
288.4417, 1166.828
288.9239, 1179.278
289.4060, 1195.624
289.8881, 1205.712
290.3702, 1209.379
290.8523, 1207.488
291.3344, 1191.874
291.8166, 1175.313
292.2987, 1175.106
292.7808, 1197.825
293.2629, 1222.694
293.7450, 1234.755
294.2271, 1235.057
294.7093, 1228.816
295.1914, 1213.941
295.6735, 1197.733
296.1556, 1190.012
296.6377, 1191.266
297.1198, 1193.972
297.6020, 1197.172
298.0841, 1199.430
298.5662, 1196.693
299.0483, 1187.246
299.5304, 1178.631
300.0125, 1180.507
300.4947, 1193.274
300.9768, 1201.657
301.4589, 1201.676
301.9410, 1198.375
302.4231, 1195.753
302.9052, 1194.025
303.3874, 1191.420
303.8695, 1185.875
304.3516, 1177.847
304.8337, 1175.064
305.3158, 1182.844
305.7979, 1189.506
306.2801, 1188.021
306.7622, 1182.157
307.2443, 1181.458
307.7264, 1191.621
308.2085, 1207.279
308.6906, 1210.905
309.1728, 1184.767
309.6549, 1167.943
310.1370, 1165.864
310.6191, 1172.448
311.1012, 1184.141
311.5833, 1199.095
312.0655, 1212.666
312.5476, 1217.137
313.0297, 1208.391
313.5118, 1200.009
313.9939, 1187.396
314.4760, 1178.698
314.9582, 1181.656
315.4403, 1194.287
315.9224, 1206.814
316.4045, 1210.623
316.8866, 1205.681
317.3687, 1198.486
317.8509, 1185.625
318.3330, 1174.415
318.8151, 1167.718
319.2972, 1164.262
319.7793, 1161.592
320.2614, 1158.067
320.7436, 1154.970
321.2257, 1156.610
321.7078, 1165.777
322.1899, 1171.583
322.6720, 1164.523
323.1541, 1154.913
323.6363, 1153.770
324.1184, 1165.038
324.6005, 1177.887
325.0826, 1179.452
325.5647, 1170.806
326.0468, 1169.209
326.5290, 1184.915
327.0111, 1202.001
327.4932, 1201.077
327.9753, 1182.031
328.4574, 1166.103
328.9395, 1163.190
329.4217, 1169.276
329.9038, 1179.843
330.3859, 1195.337
330.8680, 1207.242
331.3501, 1204.902
331.8322, 1189.747
332.3144, 1182.399
332.7965, 1191.811
333.2786, 1203.239
333.7607, 1204.857
334.2428, 1198.693
334.7249, 1195.034
335.2070, 1200.242
335.6891, 1212.013
336.1713, 1220.170
336.6534, 1222.599
337.1355, 1224.522
337.6176, 1225.223
338.0997, 1226.536
338.5818, 1231.322
339.0640, 1240.423
339.5461, 1251.428
340.0282, 1260.405
340.5103, 1266.014
340.9924, 1272.527
341.4745, 1277.095
341.9567, 1284.670
342.4388, 1299.267
342.9209, 1320.088
343.4030, 1343.102
343.8851, 1364.879
344.3672, 1385.478
344.8494, 1407.468
345.3315, 1433.134
345.8136, 1457.162
346.2957, 1477.113
346.7778, 1494.956
347.2599, 1514.161
347.7421, 1536.964
348.2242, 1560.299
348.7063, 1582.056
349.1884, 1606.308
349.6705, 1611.586
350.1526, 1577.254
350.6348, 1529.681
351.1169, 1487.463
351.5990, 1452.516
352.0811, 1424.714
352.5632, 1407.318
353.0453, 1397.588
353.5275, 1384.194
354.0096, 1363.428
354.4917, 1343.213
354.9738, 1330.995
355.4559, 1325.670
355.9380, 1325.825
356.4202, 1336.887
356.9023, 1349.388
357.3844, 1353.214
357.8665, 1348.831
358.3486, 1343.367
358.8307, 1339.271
359.3129, 1338.160
359.7950, 1347.575
360.2771, 1376.235
360.7592, 1403.059
361.2413, 1420.578
361.7234, 1433.494
362.2056, 1447.474
362.6877, 1464.521
363.1698, 1485.240
363.6519, 1510.953
364.1340, 1545.014
364.6161, 1575.916
365.0983, 1601.595
365.5804, 1626.529
366.0625, 1654.498
366.5446, 1684.485
367.0267, 1712.251
367.5089, 1735.165
367.9910, 1753.045
368.4731, 1764.184
368.9552, 1770.486
369.4373, 1766.129
369.9194, 1750.986
370.4016, 1725.236
370.8837, 1687.324
371.3658, 1635.822
371.8479, 1577.947
372.3300, 1521.081
372.8121, 1464.817
373.2943, 1416.231
373.7764, 1378.032
374.2585, 1347.964
374.7406, 1324.100
375.2227, 1306.266
375.7048, 1291.619
376.1870, 1281.321
376.6691, 1272.639
377.1512, 1260.223
377.6333, 1243.327
378.1154, 1225.167
378.5975, 1206.194
379.0797, 1187.778
379.5618, 1176.055
380.0439, 1173.747
380.5260, 1175.423
381.0081, 1181.005
381.4902, 1188.443
381.9724, 1193.072
382.4545, 1192.899
382.9366, 1189.692
383.4187, 1186.725
383.9008, 1182.334
384.3829, 1181.461
384.8651, 1185.251
385.3472, 1191.597
385.8293, 1201.473
386.3114, 1213.275
386.7935, 1221.168
387.2756, 1218.651
387.7578, 1206.182
388.2399, 1202.039
388.7220, 1213.790
389.2041, 1224.867
389.6862, 1230.797
390.1683, 1233.785
390.6505, 1236.477
391.1326, 1239.698
391.6147, 1244.176
392.0968, 1250.849
392.5789, 1259.752
393.0610, 1271.077
393.5432, 1286.728
394.0253, 1303.123
394.5074, 1318.082
394.9895, 1331.410
395.4716, 1341.467
395.9537, 1349.801
396.4359, 1353.565
396.9180, 1347.634
397.4001, 1331.525
397.8822, 1307.375
398.3643, 1271.988
398.8464, 1229.787
399.3286, 1200.667
399.8107, 1193.060
400.2928, 1188.814
400.7749, 1181.016
401.2570, 1171.844
401.7391, 1165.743
402.2213, 1164.163
402.7034, 1163.555
403.1855, 1157.565
403.6676, 1139.908
404.1497, 1134.505
404.6318, 1152.467
405.1140, 1171.036
405.5961, 1177.701
406.0782, 1173.990
406.5603, 1167.478
407.0424, 1162.940
407.5245, 1160.098
408.0067, 1158.025
408.4888, 1157.128
408.9709, 1156.221
409.4530, 1151.916
409.9351, 1149.179
410.4172, 1153.885
410.8994, 1167.366
411.3815, 1182.228
411.8636, 1191.700
412.3457, 1196.643
412.8278, 1202.005
413.3099, 1208.555
413.7921, 1215.290
414.2742, 1223.020
414.7563, 1230.684
415.2384, 1233.800
415.7205, 1226.609
416.2026, 1218.580
416.6848, 1215.479
417.1669, 1217.529
417.6490, 1225.216
418.1311, 1239.130
418.6132, 1258.239
419.0953, 1281.223
419.5775, 1320.871
420.0596, 1341.412
420.5417, 1331.004
421.0238, 1308.748
421.5059, 1286.445
421.9880, 1266.851
422.4702, 1250.403
422.9523, 1238.547
423.4344, 1230.567
423.9165, 1215.558
424.3986, 1180.819
424.8807, 1157.376
425.3629, 1156.812
425.8450, 1168.625
426.3271, 1182.973
426.8092, 1197.183
427.2913, 1207.689
427.7734, 1207.840
428.2556, 1198.464
428.7377, 1193.382
429.2198, 1194.107
429.7019, 1200.735
430.1840, 1218.791
430.6661, 1244.462
431.1483, 1260.483
431.6304, 1253.259
432.1125, 1241.150
432.5946, 1241.972
433.0767, 1253.446
433.5588, 1262.868
434.0410, 1263.859
434.5231, 1259.891
435.0052, 1259.277
435.4873, 1262.238
435.9694, 1268.294
436.4515, 1277.583
436.9337, 1289.882
437.4158, 1306.432
437.8979, 1326.355
438.3800, 1345.892
438.8621, 1361.987
439.3442, 1374.861
439.8264, 1387.847
440.3085, 1399.578
440.7906, 1413.707
441.2727, 1429.323
441.7548, 1448.381
442.2369, 1473.256
442.7191, 1504.659
443.2012, 1540.479
443.6833, 1583.351
444.1654, 1631.051
444.6475, 1668.094
445.1296, 1695.513
445.6118, 1705.424
446.0939, 1683.112
446.5760, 1635.732
447.0581, 1587.069
447.5402, 1535.575
448.0223, 1489.017
448.5045, 1451.781
448.9866, 1423.652
449.4687, 1403.556
449.9508, 1391.488
450.4329, 1386.089
450.9150, 1384.749
451.3972, 1385.285
451.8793, 1395.815
452.3614, 1416.979
452.8435, 1446.775
453.3256, 1486.856
453.8077, 1534.661
454.2899, 1584.359
454.7720, 1631.342
455.2541, 1678.004
455.7362, 1732.729
456.2183, 1797.296
456.7004, 1865.149
457.1826, 1945.958
457.6647, 2022.579
458.1468, 2087.527
458.6289, 2139.431
459.1110, 2160.109
459.5931, 2139.325
460.0753, 2078.941
460.5574, 1969.165
461.0395, 1804.536
461.5216, 1647.477
462.0037, 1536.441
462.4858, 1467.011
462.9680, 1411.489
463.4501, 1373.869
463.9322, 1343.824
464.4143, 1318.116
464.8964, 1298.703
465.3785, 1290.212
465.8607, 1292.848
466.3428, 1299.472
466.8249, 1301.310
467.3070, 1297.111
467.7891, 1302.173
468.2712, 1322.389
468.7534, 1346.051
469.2355, 1369.485
469.7176, 1394.710
470.1997, 1425.932
470.6818, 1465.040
471.1639, 1506.094
471.6461, 1539.246
472.1282, 1565.594
472.6103, 1600.326
473.0924, 1649.256
473.5745, 1701.911
474.0566, 1745.587
474.5388, 1783.714
475.0209, 1832.265
475.5030, 1912.653
475.9851, 1987.863
476.4672, 2038.523
476.9493, 2063.818
477.4315, 2062.031
477.9136, 2032.346
478.3957, 1977.169
478.8778, 1898.917
479.3599, 1782.519
479.8420, 1680.655
480.3242, 1591.798
480.8063, 1516.532
481.2884, 1457.815
481.7705, 1413.374
482.2526, 1379.681
482.7347, 1356.110
483.2169, 1339.112
483.6990, 1320.550
484.1811, 1299.105
484.6632, 1284.705
485.1453, 1285.577
485.6274, 1288.733
486.1096, 1279.274
486.5917, 1258.282
487.0738, 1244.187
487.5559, 1249.034
488.0380, 1260.564
488.5201, 1266.495
489.0023, 1266.831
489.4844, 1264.715
489.9665, 1261.156
490.4486, 1257.445
490.9307, 1256.715
491.4128, 1260.248
491.8950, 1265.052
492.3771, 1273.571
492.8592, 1281.339
493.3413, 1281.225
493.8234, 1276.826
494.3055, 1280.709
494.7877, 1303.283
495.2698, 1338.509
495.7519, 1367.358
496.2340, 1389.010
496.7161, 1407.502
497.1982, 1417.724
497.6804, 1429.914
498.1625, 1452.471
498.6446, 1485.955
499.1267, 1527.436
499.6088, 1586.735
500.0909, 1647.277
500.5730, 1688.758
501.0551, 1710.262
501.5373, 1717.275
502.0194, 1713.199
502.5015, 1696.196
502.9836, 1660.151
503.4657, 1583.421
503.9478, 1518.234
504.4300, 1470.343
504.9121, 1431.060
505.3942, 1391.874
505.8763, 1354.332
506.3584, 1326.868
506.8405, 1317.691
507.3227, 1322.146
507.8048, 1323.978
508.2869, 1322.269
508.7690, 1320.764
509.2511, 1314.209
509.7332, 1313.238
510.2154, 1330.077
510.6975, 1365.645
511.1796, 1402.845
511.6617, 1432.877
512.1439, 1461.333
512.6260, 1493.740
513.1081, 1530.833
513.5902, 1574.489
514.0723, 1626.014
514.5544, 1684.396
515.0366, 1745.521
515.5187, 1811.526
516.0008, 1877.746
516.4829, 1951.350
516.9650, 2019.170
517.4471, 2070.484
517.9293, 2106.771
518.4114, 2135.265
518.8935, 2159.696
519.3756, 2181.423
519.8577, 2203.469
520.3398, 2225.073
520.8220, 2252.012
521.3041, 2297.777
521.7862, 2338.032
522.2683, 2349.190
522.7504, 2331.172
523.2325, 2295.767
523.7147, 2248.342
524.1968, 2184.074
524.6789, 2090.736
525.1610, 1974.412
525.6431, 1856.703
526.1252, 1746.848
526.6074, 1645.355
527.0895, 1553.796
527.5716, 1468.683
528.0537, 1400.312
528.5358, 1351.553
529.0179, 1314.821
529.5001, 1289.897
529.9822, 1273.857
530.4643, 1261.624
530.9464, 1251.761
531.4285, 1242.109
531.9106, 1229.045
532.3928, 1212.623
532.8749, 1194.182
533.3570, 1169.765
533.8391, 1151.233
534.3212, 1155.520
534.8033, 1181.162
535.2855, 1201.745
535.7676, 1212.818
536.2497, 1219.895
536.7318, 1222.950
537.2139, 1224.820
537.6960, 1231.640
538.1782, 1245.357
538.6603, 1259.361
539.1424, 1262.654
539.6245, 1252.063
540.1066, 1251.528
540.5887, 1270.995
541.0709, 1288.351
541.5530, 1293.771
542.0351, 1292.415
542.5172, 1291.608
542.9993, 1293.073
543.4814, 1296.562
543.9636, 1301.298
544.4457, 1307.952
544.9278, 1320.625
545.4099, 1340.534
545.8920, 1356.250
546.3741, 1357.697
546.8563, 1346.535
547.3384, 1338.495
547.8205, 1341.639
548.3026, 1337.139
548.7847, 1317.007
549.2668, 1290.976
549.7490, 1266.021
550.2311, 1244.371
550.7132, 1227.723
551.1953, 1219.301
551.6774, 1216.676
552.1595, 1208.714
552.6417, 1193.208
553.1238, 1181.771
553.6059, 1180.379
554.0880, 1184.162
554.5701, 1187.011
555.0522, 1189.001
555.5344, 1189.317
556.0165, 1186.488
556.4986, 1182.810
556.9807, 1180.423
557.4628, 1179.084
557.9449, 1177.844
558.4271, 1176.341
558.9092, 1173.704
559.3913, 1167.110
559.8734, 1152.412
560.3555, 1135.532
560.8376, 1149.624
561.3198, 1156.569
561.8019, 1156.755
562.2840, 1129.929
562.7661, 1137.983
563.2482, 1132.058
563.7303, 1125.561
564.2125, 1138.523
564.6946, 1115.626
565.1767, 1128.281
565.6588, 1126.743
566.1409, 1131.701
566.6230, 1115.042
567.1052, 1116.919
567.5873, 1114.900
568.0694, 1103.849
568.5515, 1095.824
569.0336, 1094.699
569.5157, 1097.181
569.9979, 1100.700
570.4800, 1104.348
570.9621, 1107.259
571.4442, 1108.056
571.9263, 1107.529
572.4084, 1109.402
572.8906, 1114.417
573.3727, 1117.972
573.8548, 1118.494
574.3369, 1116.344
574.8190, 1110.938
575.3011, 1101.262
575.7833, 1095.807
576.2654, 1099.250
576.7475, 1105.324
577.2296, 1110.950
577.7117, 1115.148
578.1938, 1115.700
578.6760, 1111.474
579.1581, 1106.124
579.6402, 1106.643
580.1223, 1114.454
580.6044, 1121.242
581.0865, 1127.526
581.5686, 1131.706
582.0507, 1130.075
582.5328, 1126.643
583.0150, 1129.923
583.4971, 1145.627
583.9792, 1158.940
584.4613, 1159.334
584.9434, 1150.969
585.4255, 1138.537
585.9077, 1123.547
586.3898, 1112.961
586.8719, 1113.165
587.3540, 1121.600
587.8361, 1123.547
588.3182, 1112.217
588.8004, 1105.333
589.2825, 1107.930
589.7646, 1112.334
590.2467, 1113.388
590.7288, 1111.184
591.2109, 1108.196
591.6931, 1103.266
592.1752, 1100.880
592.6573, 1110.082
593.1394, 1128.695
593.6215, 1144.151
594.1036, 1153.222
594.5858, 1156.410
595.0679, 1153.135
595.5500, 1142.380
596.0321, 1135.826
596.5142, 1134.865
596.9963, 1135.885
597.4785, 1139.347
597.9606, 1143.458
598.4427, 1146.806
598.9248, 1148.870
599.4069, 1148.912
599.8890, 1143.957
600.3712, 1136.409
600.8533, 1136.373
601.3354, 1144.927
601.8175, 1151.013
602.2996, 1148.826
602.7817, 1142.721
603.2639, 1140.410
603.7460, 1142.753
604.2281, 1144.490
604.7102, 1143.626
605.1923, 1143.440
605.6744, 1148.637
606.1566, 1155.398
606.6387, 1154.690
607.1208, 1142.922
607.6029, 1129.964
608.0850, 1131.871
608.5671, 1148.126
609.0493, 1155.656
609.5314, 1150.027
610.0135, 1144.371
610.4956, 1146.512
610.9777, 1153.569
611.4598, 1159.275
611.9420, 1163.618
612.4241, 1166.390
612.9062, 1164.925
613.3883, 1163.785
613.8704, 1169.396
614.3525, 1179.519
614.8347, 1185.063
615.3168, 1180.534
615.7989, 1171.423
616.2810, 1169.533
616.7631, 1175.968
617.2452, 1182.381
617.7274, 1189.640
618.2095, 1194.238
618.6916, 1192.339
619.1737, 1186.285
619.6558, 1180.872
620.1379, 1175.655
620.6201, 1173.268
621.1022, 1175.083
621.5843, 1180.314
622.0664, 1190.105
622.5485, 1203.128
623.0306, 1212.293
623.5128, 1211.238
623.9949, 1205.798
624.4770, 1217.347
624.9591, 1253.378
625.4412, 1280.581
625.9233, 1289.093
626.4055, 1292.621
626.8876, 1299.790
627.3697, 1309.837
627.8518, 1319.476
628.3339, 1318.035
628.8160, 1328.963
629.2982, 1375.101
629.7803, 1439.551
630.2624, 1491.824
630.7445, 1528.824
631.2266, 1574.028
631.7087, 1648.614
632.1909, 1746.504
632.6730, 1834.015
633.1551, 1902.711
633.6372, 1982.552
634.1193, 2081.833
634.6014, 2192.118
635.0836, 2307.989
635.5657, 2429.241
