##NAMES=Chrysoberyl
##RRUFFID=R100130
##IDEAL CHEMISTRY=BeAl_2_O_4_
##LOCALITY=Ratnapura district, Sri Lanka
##OWNER=RRUFF
##SOURCE=William W. Pinch
##DESCRIPTION=Pale yellow sixling twin
##STATUS=The identification of this mineral has been confirmed by single-crystal X-ray diffraction.
##URL=rruff.info/R100130
90.60547, 106.1433
91.08759, 110.4537
91.56970, 113.6282
92.05182, 112.8338
92.53394, 109.9089
93.01605, 106.6184
93.49817, 104.0611
93.98029, 102.1806
94.46240, 99.90587
94.94452, 97.02880
95.42664, 93.79863
95.90874, 90.09624
96.39086, 86.05051
96.87298, 82.41624
97.35509, 80.22329
97.83721, 80.07407
98.31933, 79.01083
98.80145, 76.37941
99.28356, 73.25164
99.76568, 70.26194
100.2478, 67.62610
100.7299, 65.24952
101.2120, 62.93062
101.6941, 59.92746
102.1763, 57.83497
102.6584, 57.18077
103.1405, 57.36633
103.6226, 57.60280
104.1047, 57.45743
104.5868, 56.97792
105.0690, 56.51416
105.5511, 56.30596
106.0332, 55.89049
106.5153, 55.01733
106.9974, 53.70896
107.4795, 52.16085
107.9617, 50.33121
108.4438, 48.36383
108.9259, 46.75909
109.4080, 45.68290
109.8901, 44.95794
110.3722, 44.38329
110.8544, 44.01902
111.3365, 43.64655
111.8186, 43.05101
112.3007, 42.33687
112.7828, 41.71583
113.2649, 41.38721
113.7471, 41.31919
114.2292, 41.10230
114.7113, 40.48962
115.1934, 39.95376
115.6755, 39.72582
116.1576, 39.76239
116.6397, 39.86134
117.1219, 39.78562
117.6040, 39.40960
118.0861, 39.25402
118.5682, 39.49376
119.0503, 39.78230
119.5324, 39.95037
120.0146, 39.94836
120.4967, 39.79983
120.9788, 39.54090
121.4609, 39.09455
121.9430, 38.63291
122.4251, 38.10829
122.9073, 37.58200
123.3894, 37.13879
123.8715, 36.81420
124.3536, 36.56861
124.8357, 36.31750
125.3178, 36.09468
125.8000, 35.80959
126.2821, 35.37922
126.7642, 34.84283
127.2463, 34.35468
127.7284, 33.98677
128.2105, 33.71296
128.6927, 33.46972
129.1748, 33.28092
129.6569, 33.07887
130.1390, 32.77885
130.6211, 32.36147
131.1032, 31.96381
131.5854, 31.63346
132.0675, 31.35720
132.5496, 31.14032
133.0317, 30.99724
133.5138, 30.89712
133.9959, 30.75339
134.4781, 30.48741
134.9602, 30.31104
135.4423, 30.33215
135.9244, 30.45347
136.4065, 30.55209
136.8886, 30.55443
137.3708, 30.46439
137.8529, 30.33841
138.3350, 30.24319
138.8171, 30.04128
139.2992, 29.49319
139.7813, 28.78629
140.2635, 28.35640
140.7456, 28.63870
141.2277, 29.78013
141.7098, 30.25048
142.1919, 29.64704
142.6740, 28.86097
143.1561, 28.36777
143.6383, 28.19927
144.1204, 28.08372
144.6025, 27.73500
145.0846, 27.10414
145.5667, 26.54491
146.0488, 25.88194
146.5310, 25.38304
147.0131, 25.44628
147.4952, 26.21807
147.9773, 27.15697
148.4594, 27.74319
148.9415, 28.02812
149.4237, 27.94966
149.9058, 27.19995
150.3879, 26.04364
150.8700, 25.26049
151.3521, 25.14730
151.8342, 25.20643
152.3164, 24.97196
152.7985, 24.48203
153.2806, 24.01946
153.7627, 23.79212
154.2448, 23.80196
154.7269, 23.90247
155.2091, 24.29432
155.6912, 24.60303
156.1733, 24.56792
156.6554, 24.19593
157.1375, 23.74872
157.6196, 23.56480
158.1018, 23.77194
158.5839, 23.87100
159.0660, 23.60637
159.5481, 23.39068
160.0302, 23.61392
160.5123, 24.32215
160.9945, 25.13230
161.4766, 25.33409
161.9587, 24.21389
162.4408, 23.53707
162.9229, 23.68065
163.4050, 24.06355
163.8871, 24.13840
164.3693, 23.70243
164.8514, 22.95924
165.3335, 22.39217
165.8156, 21.99749
166.2977, 21.78689
166.7798, 21.87667
167.2620, 22.13221
167.7441, 22.35414
168.2262, 22.45598
168.7083, 22.47369
169.1904, 22.50386
169.6725, 22.54929
170.1547, 22.59828
170.6368, 22.69535
171.1189, 22.80553
171.6010, 22.78782
172.0831, 22.50540
172.5652, 22.11412
173.0474, 21.93133
173.5295, 22.03247
174.0116, 22.19650
174.4937, 22.24768
174.9758, 22.18651
175.4579, 22.15523
175.9401, 22.25633
176.4222, 22.39988
176.9043, 22.49876
177.3864, 22.54575
177.8685, 22.52539
178.3506, 22.35684
178.8328, 21.94946
179.3149, 21.72671
179.7970, 22.11337
180.2791, 22.61549
180.7612, 22.76768
181.2433, 22.36994
181.7255, 21.67079
182.2076, 21.18436
182.6897, 20.94426
183.1718, 20.88923
183.6539, 21.08159
184.1360, 21.38230
184.6181, 21.68082
185.1003, 21.93130
185.5824, 22.10075
186.0645, 22.05981
186.5466, 21.49115
187.0287, 21.09565
187.5108, 21.06368
187.9930, 21.22784
188.4751, 21.37736
188.9572, 21.39315
189.4393, 21.30306
189.9214, 21.26115
190.4035, 21.32758
190.8857, 21.37557
191.3678, 21.37896
191.8499, 21.34826
192.3320, 21.29560
192.8141, 21.22192
193.2962, 21.13723
193.7784, 21.12417
194.2605, 21.33352
194.7426, 21.44067
195.2247, 21.13148
195.7068, 20.59161
196.1889, 20.41584
196.6711, 21.11388
197.1532, 22.40887
197.6353, 22.90361
198.1174, 21.88979
198.5995, 20.81388
199.0816, 20.48586
199.5638, 20.82847
200.0459, 21.32346
200.5280, 21.73812
201.0101, 22.06651
201.4922, 22.32475
201.9743, 22.53146
202.4565, 22.65139
202.9386, 22.63016
203.4207, 22.46490
203.9028, 22.26743
204.3849, 22.07531
204.8670, 21.89558
205.3492, 21.72831
205.8313, 21.53264
206.3134, 21.40316
206.7955, 21.49369
207.2776, 21.85081
207.7597, 22.21191
208.2419, 22.56345
208.7240, 22.81839
209.2061, 22.83459
209.6882, 22.51049
210.1703, 22.04441
210.6524, 21.78837
211.1346, 21.82305
211.6167, 21.86814
212.0988, 21.73788
212.5809, 21.61265
213.0630, 21.73797
213.5451, 22.25383
214.0273, 22.89377
214.5094, 23.00274
214.9915, 22.18355
215.4736, 21.53792
215.9557, 21.27150
216.4378, 21.25518
216.9200, 21.41580
217.4021, 21.72924
217.8842, 22.09702
218.3663, 22.21833
218.8484, 21.76593
219.3305, 21.54231
219.8127, 21.86657
220.2948, 22.35653
220.7769, 22.60263
221.2590, 22.41836
221.7411, 21.92865
222.2232, 21.49740
222.7054, 21.01233
223.1875, 20.74719
223.6696, 20.87529
224.1517, 21.17373
224.6338, 21.41039
225.1159, 21.48356
225.5980, 21.41088
226.0802, 21.23835
226.5623, 20.68644
227.0444, 20.37183
227.5265, 20.54163
228.0086, 20.91696
228.4907, 21.11917
228.9729, 20.98193
229.4550, 20.65521
229.9371, 20.53071
230.4192, 20.71460
230.9013, 20.91761
231.3834, 21.12338
231.8656, 21.31646
232.3477, 21.47397
232.8298, 21.58689
233.3119, 21.66139
233.7940, 21.69366
234.2761, 21.63775
234.7583, 21.65503
235.2404, 21.77978
235.7225, 22.00459
236.2046, 22.28920
236.6867, 22.59414
237.1688, 23.03058
237.6510, 23.91232
238.1331, 25.31995
238.6152, 26.56030
239.0973, 27.40427
239.5794, 27.91842
240.0615, 28.21603
240.5437, 28.29415
241.0258, 28.22883
241.5079, 28.16121
241.9900, 28.10810
242.4721, 27.85274
242.9542, 27.21296
243.4364, 26.30132
243.9185, 25.38740
244.4006, 24.49515
244.8827, 23.66766
245.3648, 22.94480
245.8469, 22.31795
246.3290, 21.76523
246.8112, 21.38015
247.2933, 21.07334
247.7754, 20.50904
248.2575, 19.47174
248.7396, 18.47214
249.2217, 17.83561
249.7039, 17.53022
250.1860, 17.50023
250.6681, 17.95203
251.1502, 18.69703
251.6323, 18.99131
252.1144, 18.55677
252.5966, 18.05976
253.0787, 17.92575
253.5608, 18.03604
254.0429, 18.12314
254.5250, 18.00787
255.0071, 17.75055
255.4893, 17.59245
255.9714, 17.59781
256.4535, 17.60380
256.9356, 17.47728
257.4177, 17.30889
257.8998, 17.26030
258.3820, 17.46952
258.8641, 17.83947
259.3462, 18.01684
259.8283, 17.89287
260.3104, 17.74357
260.7925, 17.58527
261.2747, 17.47951
261.7568, 17.52999
262.2389, 17.81720
262.7210, 18.23859
263.2031, 18.51985
263.6852, 18.72556
264.1674, 18.64256
264.6495, 17.99756
265.1316, 17.18123
265.6137, 16.60612
266.0958, 16.45197
266.5779, 16.60191
267.0601, 16.80654
267.5422, 17.14634
268.0243, 17.38826
268.5064, 17.45258
268.9885, 17.44654
269.4706, 17.49462
269.9528, 17.63586
270.4349, 17.76013
270.9170, 17.61067
271.3991, 16.88496
271.8812, 16.49761
272.3633, 16.75773
272.8455, 17.16263
273.3276, 17.33502
273.8097, 17.18344
274.2918, 16.86387
274.7739, 16.59516
275.2560, 16.35194
275.7382, 16.22698
276.2202, 16.36725
276.7024, 16.49132
277.1845, 16.33323
277.6666, 15.90758
278.1487, 15.51397
278.6308, 15.54888
279.1129, 16.20472
279.5951, 16.62228
280.0772, 16.63777
280.5593, 16.60306
281.0414, 16.65310
281.5235, 16.81986
282.0056, 17.13279
282.4878, 17.68163
282.9699, 18.58365
283.4520, 18.84535
283.9341, 17.74134
284.4162, 16.79519
284.8983, 16.80264
285.3805, 17.52369
285.8626, 18.17860
286.3447, 18.13150
286.8268, 17.40079
287.3089, 17.11394
287.7910, 17.73606
288.2732, 18.26511
288.7553, 18.30447
289.2374, 18.04768
289.7195, 17.92044
290.2016, 18.20058
290.6837, 18.77326
291.1659, 18.99257
291.6480, 18.54052
292.1301, 18.10820
292.6122, 17.75434
293.0943, 17.49952
293.5764, 17.40136
294.0586, 17.49203
294.5407, 17.67317
295.0228, 17.67791
295.5049, 17.29725
295.9870, 16.98764
296.4691, 16.78448
296.9513, 16.65158
297.4334, 16.55648
297.9155, 16.48818
298.3976, 16.44254
298.8797, 16.40719
299.3618, 16.31975
299.8440, 16.38314
300.3261, 16.81930
300.8082, 17.26439
301.2903, 17.39765
301.7724, 17.17100
302.2545, 16.78921
302.7367, 16.47573
303.2188, 16.23325
303.7009, 16.08409
304.1830, 16.06680
304.6651, 16.10030
305.1472, 16.14890
305.6294, 16.20356
306.1115, 16.24998
306.5936, 16.26288
307.0757, 16.23571
307.5578, 16.35245
308.0399, 16.84106
308.5221, 17.22399
309.0042, 17.26137
309.4863, 17.01795
309.9684, 16.63516
310.4505, 16.15593
310.9326, 15.65044
311.4148, 15.65426
311.8969, 16.85579
312.3790, 17.69340
312.8611, 17.53709
313.3432, 16.81945
313.8253, 16.23296
314.3075, 16.09294
314.7896, 16.26226
315.2717, 16.39704
315.7538, 16.43672
316.2359, 16.53058
316.7180, 16.85296
317.2001, 17.16417
317.6823, 17.13218
318.1644, 16.67154
318.6465, 16.07521
319.1286, 15.78629
319.6107, 15.98640
320.0928, 16.08664
320.5750, 15.91382
321.0571, 15.76268
321.5392, 15.93827
322.0213, 16.43216
322.5034, 16.92801
322.9855, 17.10694
323.4677, 16.92444
323.9498, 16.69637
324.4319, 16.27709
324.9140, 15.95131
325.3961, 15.92005
325.8782, 16.11723
326.3604, 16.33009
326.8425, 16.41771
327.3246, 16.38507
327.8067, 16.28354
328.2888, 15.81742
328.7709, 15.62280
329.2531, 16.12994
329.7352, 16.96998
330.2173, 17.51375
330.6994, 17.45186
331.1815, 17.01450
331.6636, 16.82259
332.1458, 17.11943
332.6279, 17.37540
333.1100, 17.61322
333.5921, 17.78358
334.0742, 17.76618
334.5563, 17.54849
335.0385, 17.34282
335.5206, 17.48530
336.0027, 18.22846
336.4848, 18.66532
336.9669, 18.59736
337.4490, 18.41863
337.9312, 18.27981
338.4133, 18.25108
338.8954, 18.45574
339.3775, 19.04240
339.8596, 20.05805
340.3417, 20.88062
340.8239, 21.34313
341.3060, 21.81207
341.7881, 22.37481
342.2702, 23.04583
342.7523, 23.80349
343.2344, 24.62129
343.7166, 25.53772
344.1987, 26.73584
344.6808, 28.53830
345.1629, 30.27788
345.6450, 31.78854
346.1271, 33.23990
346.6093, 34.78724
347.0914, 36.48387
347.5735, 38.36881
348.0556, 40.57795
348.5377, 43.94115
349.0198, 46.05804
349.5020, 47.09164
349.9841, 46.97755
350.4662, 45.31547
350.9483, 42.27930
351.4304, 38.64935
351.9125, 35.16829
352.3947, 31.76184
352.8768, 29.05220
353.3589, 27.32498
353.8410, 26.00448
354.3231, 24.98951
354.8052, 24.23222
355.2874, 23.71273
355.7695, 23.45206
356.2516, 23.39059
356.7337, 23.17044
357.2158, 22.57287
357.6979, 22.11588
358.1800, 21.81279
358.6621, 21.71926
359.1443, 21.96572
359.6264, 22.60047
360.1085, 23.38503
360.5906, 23.84802
361.0727, 23.76925
361.5548, 23.95097
362.0370, 24.50928
362.5191, 25.30275
363.0012, 26.29268
363.4833, 27.45973
363.9654, 28.73579
364.4475, 30.09253
364.9297, 31.53939
365.4118, 32.89734
365.8939, 33.95745
366.3760, 35.16577
366.8581, 36.81520
367.3402, 38.73013
367.8224, 40.61089
368.3045, 42.42451
368.7866, 43.95611
369.2687, 44.49446
369.7508, 43.74193
370.2329, 42.60793
370.7151, 41.47996
371.1972, 40.12353
371.6793, 38.16436
372.1614, 35.45558
372.6435, 32.53807
373.1256, 30.02943
373.6078, 27.94224
374.0899, 26.12931
374.5720, 24.52282
375.0541, 23.25750
375.5362, 22.56424
376.0183, 22.37608
376.5005, 22.14987
376.9826, 21.38143
377.4647, 20.26562
377.9468, 19.53579
378.4289, 19.32092
378.9110, 19.30890
379.3932, 19.39931
379.8753, 19.52845
380.3574, 19.56337
380.8395, 19.40413
381.3216, 19.18644
381.8037, 19.08649
382.2859, 19.10655
382.7680, 19.12044
383.2501, 19.06841
383.7322, 18.98145
384.2143, 18.89250
384.6964, 18.77812
385.1786, 18.74948
385.6607, 18.96705
386.1428, 19.32181
386.6249, 19.49965
387.1070, 19.38902
387.5891, 19.19503
388.0713, 19.07790
388.5534, 19.03403
389.0355, 19.27737
389.5176, 19.98875
389.9997, 20.92211
390.4818, 21.80468
390.9640, 22.63622
391.4461, 23.60994
391.9282, 24.82784
392.4103, 26.31814
392.8924, 28.11834
393.3745, 30.41107
393.8567, 32.78548
394.3388, 35.15934
394.8209, 37.49123
395.3030, 39.87946
395.7851, 42.47228
396.2672, 44.58502
396.7494, 44.98370
397.2315, 43.16990
397.7136, 40.65406
398.1957, 36.93201
398.6778, 32.88611
399.1599, 28.93515
399.6420, 25.27786
400.1241, 22.38188
400.6063, 20.74637
401.0884, 20.40624
401.5705, 19.96745
402.0526, 19.45667
402.5347, 18.83536
403.0168, 17.78625
403.4990, 16.67932
403.9811, 16.19666
404.4632, 16.67623
404.9453, 17.68481
405.4274, 18.17184
405.9095, 17.85259
406.3917, 17.44887
406.8738, 16.77468
407.3559, 16.18549
407.8380, 15.96806
408.3201, 16.12999
408.8022, 16.44927
409.2844, 16.72301
409.7665, 16.94802
410.2486, 17.15637
410.7307, 17.30669
411.2128, 17.48576
411.6949, 17.79509
412.1771, 18.13407
412.6592, 18.32512
413.1413, 18.26059
413.6234, 18.06981
414.1055, 18.06652
414.5876, 18.36418
415.0698, 18.50110
415.5519, 18.01362
416.0340, 17.56650
416.5161, 17.68696
416.9982, 18.41523
417.4803, 19.28575
417.9625, 19.94626
418.4446, 20.41542
418.9267, 20.83188
419.4088, 21.18049
419.8909, 21.51542
420.3730, 22.04135
420.8552, 22.57320
421.3373, 22.66601
421.8194, 21.87780
422.3015, 20.89181
422.7836, 20.67480
423.2657, 21.21405
423.7479, 21.44523
424.2300, 20.78584
424.7121, 19.72978
425.1942, 19.02915
425.6763, 18.70093
426.1584, 18.61255
426.6406, 18.90500
427.1227, 19.34515
427.6048, 19.47904
428.0869, 19.21155
428.5690, 18.91464
429.0511, 18.90839
429.5333, 19.21259
430.0154, 19.61127
430.4975, 20.28667
430.9796, 20.88492
431.4617, 21.05986
431.9438, 20.98931
432.4260, 21.19715
432.9081, 21.96807
433.3902, 22.99929
433.8723, 23.55850
434.3544, 23.17149
434.8365, 23.08867
435.3187, 23.58891
435.8008, 24.24961
436.2829, 24.61472
436.7650, 24.70460
437.2471, 24.95808
437.7292, 25.77257
438.2114, 27.15693
438.6935, 28.89497
439.1756, 31.26444
439.6577, 33.69215
440.1398, 35.68583
440.6219, 37.77509
441.1040, 40.72552
441.5862, 44.84414
442.0683, 49.68080
442.5504, 54.39849
443.0325, 58.94127
443.5146, 63.58360
443.9967, 69.02285
444.4789, 73.98839
444.9610, 78.48116
445.4431, 82.00908
445.9252, 83.29008
446.4073, 81.10022
446.8894, 75.94712
447.3716, 69.38035
447.8537, 60.54240
448.3358, 52.45230
448.8179, 46.52172
449.3000, 41.96492
449.7821, 38.02538
450.2643, 34.50658
450.7464, 31.79556
451.2285, 30.40145
451.7106, 30.16371
452.1927, 30.38983
452.6748, 31.04832
453.1570, 31.92374
453.6391, 32.72772
454.1212, 33.51725
454.6033, 34.69823
455.0854, 36.20774
455.5675, 38.25570
456.0497, 41.15096
456.5318, 44.81245
457.0139, 48.89764
457.4960, 53.37998
457.9781, 58.00319
458.4602, 62.24848
458.9424, 67.22477
459.4245, 69.73486
459.9066, 68.75317
460.3887, 65.27917
460.8708, 59.51792
461.3529, 51.88634
461.8351, 44.15203
462.3172, 37.80970
462.7993, 32.89581
463.2814, 29.51442
463.7635, 28.83802
464.2456, 28.23169
464.7278, 26.82765
465.2099, 25.15777
465.6920, 23.99101
466.1741, 23.62029
466.6562, 23.80763
467.1383, 24.24980
467.6205, 25.15458
468.1026, 25.67299
468.5847, 25.17208
469.0668, 24.82477
469.5489, 25.26303
470.0310, 26.31545
470.5132, 27.39520
470.9953, 28.05464
471.4774, 28.58588
471.9595, 29.79072
472.4416, 31.80952
472.9237, 33.96471
473.4059, 35.74623
473.8880, 37.73889
474.3701, 40.69544
474.8522, 44.71978
475.3343, 48.62321
475.8164, 51.74870
476.2986, 54.15089
476.7807, 56.14911
477.2628, 57.88934
477.7449, 58.56975
478.2270, 57.37901
478.7091, 54.51721
479.1913, 51.16899
479.6734, 46.89106
480.1555, 42.70010
480.6376, 39.04206
481.1197, 35.86117
481.6018, 32.95945
482.0839, 30.25572
482.5660, 28.03736
483.0482, 26.76088
483.5303, 26.74819
484.0124, 26.61364
484.4945, 26.30219
484.9766, 25.92964
485.4587, 25.51968
485.9409, 25.09838
486.4230, 24.70321
486.9051, 24.35190
487.3872, 24.04914
487.8693, 23.79361
488.3514, 23.45657
488.8336, 23.42628
489.3157, 23.98111
489.7978, 24.60343
490.2799, 24.90940
490.7620, 24.92166
491.2441, 24.94232
491.7263, 25.24493
492.2084, 25.35287
492.6905, 26.04657
493.1726, 25.93135
493.6547, 26.06021
494.1368, 26.61147
494.6190, 27.58486
495.1011, 29.09522
495.5832, 31.20188
496.0653, 33.50961
496.5474, 35.49721
497.0295, 37.42714
497.5117, 40.13447
497.9938, 43.81682
498.4759, 47.98035
498.9580, 52.34457
499.4401, 56.91916
499.9222, 61.66581
500.4044, 67.29984
500.8865, 72.37846
501.3686, 77.13676
501.8507, 80.70739
502.3328, 81.23382
502.8149, 78.04443
503.2971, 72.19024
503.7792, 64.85855
504.2613, 55.06892
504.7434, 47.24382
505.2255, 41.87247
505.7076, 37.74580
506.1898, 34.60381
506.6719, 32.21944
507.1540, 30.33810
507.6361, 28.82644
508.1182, 27.70103
508.6003, 27.05447
509.0825, 27.04656
509.5646, 27.08888
510.0467, 27.10318
510.5288, 27.17265
511.0109, 27.31594
511.4930, 27.55191
511.9752, 27.91945
512.4573, 28.42128
512.9394, 29.08579
513.4215, 29.94326
513.9036, 30.97298
514.3857, 32.34153
514.8679, 34.07763
515.3500, 36.25983
515.8321, 39.06267
516.3142, 42.57766
516.7963, 45.89119
517.2784, 48.39545
517.7606, 50.58090
518.2427, 53.24500
518.7248, 56.42550
519.2069, 59.40812
519.6890, 61.61560
520.1711, 63.28444
520.6533, 65.53391
521.1354, 69.38180
521.6175, 72.38767
522.0996, 74.02329
522.5817, 74.69913
523.0638, 74.96127
523.5460, 74.80238
524.0281, 73.60113
524.5102, 70.72323
524.9923, 66.21332
525.4744, 60.89545
525.9565, 53.53951
526.4387, 47.06359
526.9208, 42.09962
527.4029, 38.20399
527.8850, 35.04021
528.3671, 32.49099
528.8492, 30.34289
529.3314, 28.46507
529.8135, 26.83681
530.2956, 25.13998
530.7777, 23.12697
531.2598, 21.53891
531.7419, 21.16848
532.2241, 21.46011
532.7062, 21.55746
533.1883, 21.28116
533.6704, 20.84190
534.1525, 20.15916
534.6346, 19.44090
535.1168, 19.28086
535.5989, 19.85507
536.0810, 20.54833
536.5631, 20.74664
537.0452, 20.42183
537.5273, 20.09191
538.0095, 19.51958
538.4916, 19.20405
538.9737, 19.57604
539.4558, 20.23807
539.9379, 20.53077
540.4200, 20.26281
540.9022, 19.88987
541.3843, 20.13818
541.8664, 21.23221
542.3485, 21.66653
542.8306, 20.54340
543.3127, 19.72143
543.7948, 19.98465
544.2769, 20.86352
544.7590, 21.67027
545.2411, 22.17252
545.7233, 22.42122
546.2054, 22.35823
546.6875, 22.01491
547.1696, 21.91415
547.6517, 22.30215
548.1339, 22.62746
548.6160, 22.25902
549.0981, 21.43803
549.5802, 20.83282
550.0623, 20.72208
550.5444, 20.69652
551.0266, 20.52338
551.5087, 20.23366
551.9908, 19.87297
552.4729, 19.45098
552.9550, 19.04547
553.4371, 18.77273
553.9193, 18.67937
554.4014, 18.42126
554.8835, 17.71371
555.3656, 17.17974
555.8477, 17.13673
556.3298, 17.37832
556.8120, 17.62590
557.2941, 17.77133
557.7762, 17.81409
558.2583, 17.71170
558.7404, 17.43265
559.2225, 17.28144
559.7047, 17.34610
560.1868, 17.43996
560.6689, 17.49450
561.1510, 17.51152
561.6331, 17.48746
562.1152, 17.40650
562.5974, 17.32599
563.0795, 17.35915
563.5616, 17.44546
564.0437, 17.36054
564.5258, 17.05155
565.0079, 16.58499
565.4901, 15.88768
565.9722, 15.01298
566.4543, 14.68012
566.9364, 15.40791
567.4185, 16.07938
567.9006, 16.23918
568.3828, 16.09595
568.8649, 15.93868
569.3470, 15.84962
569.8291, 15.75533
570.3112, 15.55063
570.7933, 15.21839
571.2755, 15.07964
571.7576, 15.35958
572.2397, 15.55232
572.7218, 15.45269
573.2039, 15.24781
573.6860, 15.15022
574.1682, 15.21187
574.6503, 15.33355
575.1324, 15.48676
575.6145, 15.63302
576.0966, 15.54399
576.5787, 15.12601
577.0609, 14.79096
577.5430, 14.84414
578.0251, 15.14426
578.5072, 15.34156
578.9893, 15.41619
579.4714, 15.41740
579.9536, 15.29719
580.4357, 15.14863
580.9178, 15.06947
581.3999, 15.07818
581.8820, 15.19382
582.3641, 15.46090
582.8463, 15.82198
583.3284, 15.94140
583.8105, 15.63643
584.2926, 15.34342
584.7747, 15.04879
585.2568, 14.81151
585.7390, 14.60104
586.2211, 14.47024
586.7032, 14.62228
587.1853, 15.35515
587.6674, 16.36373
588.1495, 16.76071
588.6317, 16.45835
589.1138, 16.07032
589.5959, 15.67483
