##NAMES=Chrysoberyl
##RRUFFID=R100130
##IDEAL CHEMISTRY=BeAl_2_O_4_
##LOCALITY=Ratnapura district, Sri Lanka
##OWNER=RRUFF
##SOURCE=William W. Pinch
##DESCRIPTION=Pale yellow sixling twin
##STATUS=The identification of this mineral has been confirmed by single-crystal X-ray diffraction.
##URL=rruff.info/R100130
91.03516, 27.06469
91.51727, 27.08851
91.99939, 27.10787
92.48151, 27.10642
92.96362, 27.03726
93.44574, 26.69504
93.92786, 26.28500
94.40997, 26.40127
94.89210, 27.25087
95.37421, 28.12409
95.85633, 27.60317
96.33845, 25.76541
96.82056, 24.27237
97.30268, 24.72497
97.78480, 26.85570
98.26691, 27.81009
98.74903, 26.89965
99.23115, 24.85078
99.71326, 23.86240
100.1954, 24.19418
100.6775, 24.62625
101.1596, 23.98536
101.6417, 21.93747
102.1239, 20.48270
102.6060, 20.05014
103.0881, 20.58688
103.5702, 21.28420
104.0523, 22.27235
104.5344, 23.26988
105.0166, 24.06709
105.4987, 24.92842
105.9808, 25.07671
106.4629, 24.07303
106.9450, 21.45192
107.4271, 19.76748
107.9093, 19.36379
108.3914, 19.76553
108.8735, 20.26996
109.3556, 21.31969
109.8377, 22.05235
110.3198, 22.17266
110.8020, 21.21054
111.2841, 20.54330
111.7662, 20.49297
112.2483, 20.77046
112.7304, 20.73578
113.2125, 19.90676
113.6947, 19.03071
114.1768, 18.46512
114.6589, 18.38169
115.1410, 18.43296
115.6231, 18.66686
116.1052, 19.01050
116.5874, 19.19076
117.0695, 18.71645
117.5516, 18.23653
118.0337, 18.25389
118.5158, 19.84179
118.9980, 21.12380
119.4801, 21.02334
119.9622, 19.64630
120.4443, 18.25671
120.9264, 17.58115
121.4085, 17.29065
121.8907, 16.97876
122.3728, 16.14387
122.8549, 15.43947
123.3370, 15.63132
123.8191, 16.78004
124.3012, 17.82490
124.7834, 17.95464
125.2655, 17.34951
125.7476, 16.39124
126.2297, 14.71899
126.7118, 12.97705
127.1939, 12.27094
127.6761, 12.80903
128.1582, 13.67874
128.6403, 13.71772
129.1224, 13.10384
129.6045, 12.69534
130.0867, 13.25599
130.5688, 14.45172
131.0509, 15.14821
131.5330, 15.18472
132.0151, 14.83526
132.4972, 14.40567
132.9794, 13.89537
133.4615, 13.63278
133.9436, 14.01007
134.4257, 14.97081
134.9078, 15.66116
135.3899, 15.87341
135.8721, 15.82123
136.3542, 16.25027
136.8363, 17.30216
137.3184, 18.20794
137.8005, 18.29424
138.2826, 17.47264
138.7648, 16.40247
139.2469, 14.88490
139.7290, 13.12849
140.2111, 13.00809
140.6932, 15.12378
141.1753, 17.75763
141.6575, 19.20071
142.1396, 19.03509
142.6217, 18.85978
143.1038, 19.07382
143.5859, 19.71747
144.0681, 19.91518
144.5502, 19.46008
145.0323, 18.74548
145.5144, 18.11005
145.9965, 16.97442
146.4786, 16.85274
146.9608, 18.42829
147.4429, 22.34949
147.9250, 25.29187
148.4071, 27.17316
148.8892, 28.11273
149.3713, 28.22686
149.8535, 26.23692
150.3356, 24.68524
150.8177, 24.36816
151.2998, 26.07828
151.7819, 27.31299
152.2640, 27.58576
152.7462, 27.43406
153.2283, 27.81340
153.7104, 29.12942
154.1925, 30.69987
154.6746, 32.34409
155.1567, 34.32244
155.6389, 35.84836
156.1210, 36.65106
156.6031, 36.92698
157.0852, 37.17388
157.5673, 37.36544
158.0495, 37.63851
158.5316, 38.04763
159.0137, 38.47439
159.4958, 39.22332
159.9779, 41.00578
160.4600, 43.32637
160.9422, 44.56727
161.4243, 42.83427
161.9064, 40.61421
162.3885, 39.63313
162.8706, 41.51365
163.3527, 43.26853
163.8349, 43.59065
164.3170, 42.69448
164.7991, 41.60542
165.2812, 39.93250
165.7633, 38.65951
166.2454, 38.71192
166.7276, 41.75231
167.2097, 44.93888
167.6918, 46.41291
168.1739, 46.35496
168.6560, 46.38395
169.1381, 47.53210
169.6203, 49.25769
170.1024, 50.59489
170.5845, 51.79845
171.0666, 52.68075
171.5487, 52.68061
172.0309, 51.87584
172.5130, 51.26772
172.9951, 51.93166
173.4772, 53.18501
173.9593, 53.96379
174.4414, 53.35444
174.9236, 52.34111
175.4057, 52.08973
175.8878, 52.60602
176.3699, 53.15135
176.8520, 53.09176
177.3341, 52.60429
177.8163, 52.06865
178.2984, 51.51003
178.7805, 51.04609
179.2626, 50.95863
179.7447, 51.28407
180.2268, 51.60491
180.7090, 51.49881
181.1911, 51.04480
181.6732, 50.47654
182.1553, 49.53075
182.6374, 48.59123
183.1195, 48.68440
183.6017, 49.96436
184.0838, 51.50494
184.5659, 52.37424
185.0480, 52.62059
185.5301, 52.50850
186.0123, 51.85893
186.4944, 50.91788
186.9765, 50.54454
187.4586, 50.83612
187.9407, 51.41370
188.4228, 51.78627
188.9050, 51.96801
189.3871, 52.12111
189.8692, 52.32882
190.3513, 52.57650
190.8334, 52.77399
191.3155, 52.88833
191.7977, 53.02345
192.2798, 53.46876
192.7619, 54.22451
193.2440, 54.75220
193.7261, 54.71812
194.2082, 54.16282
194.6904, 53.41914
195.1725, 52.33489
195.6546, 51.38817
196.1367, 51.90127
196.6188, 54.02635
197.1009, 55.63963
197.5831, 55.10171
198.0652, 52.42214
198.5473, 51.03914
199.0294, 51.42936
199.5115, 52.78341
199.9937, 53.44384
200.4758, 53.30812
200.9579, 53.09503
201.4400, 53.21896
201.9221, 53.70904
202.4042, 54.09791
202.8864, 54.31519
203.3685, 54.46067
203.8506, 54.86541
204.3327, 55.64492
204.8148, 56.20387
205.2969, 56.06052
205.7791, 55.06089
206.2612, 54.51828
206.7433, 54.63282
207.2254, 55.14964
207.7075, 55.44446
208.1896, 55.50285
208.6718, 55.38535
209.1539, 55.05513
209.6360, 54.43596
210.1181, 54.01342
210.6002, 53.84257
211.0823, 53.86733
211.5645, 53.92901
212.0466, 54.01082
212.5287, 54.17348
213.0108, 54.52861
213.4929, 55.22430
213.9750, 55.51888
214.4572, 55.23749
214.9393, 54.58577
215.4214, 54.11660
215.9035, 53.76781
216.3856, 53.72579
216.8678, 54.20379
217.3499, 55.49200
217.8320, 56.33661
218.3141, 56.51618
218.7962, 56.25699
219.2783, 56.33504
219.7605, 57.05464
220.2426, 57.55333
220.7247, 57.24667
221.2068, 55.67304
221.6889, 54.63436
222.1710, 54.35976
222.6532, 54.63544
223.1353, 54.80400
223.6174, 54.80203
224.0995, 54.80384
224.5816, 54.94586
225.0637, 55.42736
225.5459, 55.51139
226.0280, 54.96589
226.5101, 54.05531
226.9922, 53.62915
227.4743, 53.91252
227.9564, 54.31752
228.4386, 54.56389
228.9207, 54.56972
229.4028, 54.60075
229.8849, 54.65124
230.3670, 54.73097
230.8492, 54.90086
231.3313, 55.30892
231.8134, 55.58129
232.2955, 55.47916
232.7776, 54.64363
233.2597, 54.30509
233.7419, 54.71389
234.2240, 55.55776
234.7061, 55.95605
235.1882, 55.51156
235.6703, 55.22678
236.1524, 55.57173
236.6346, 56.88839
237.1167, 58.05380
237.5988, 59.02007
238.0809, 59.85659
238.5630, 60.77432
239.0451, 61.97185
239.5273, 62.93815
240.0094, 63.38131
240.4915, 62.92268
240.9736, 62.98511
241.4557, 63.98101
241.9378, 65.31405
242.4200, 65.69375
242.9021, 64.62905
243.3842, 63.37613
243.8663, 62.40217
244.3484, 61.82396
244.8306, 61.18370
245.3127, 60.53623
245.7948, 59.80492
246.2769, 58.83585
246.7590, 57.55796
247.2411, 56.17579
247.7233, 54.63879
248.2054, 52.69426
248.6875, 51.57512
249.1696, 51.57835
249.6517, 52.21435
250.1338, 52.77299
250.6160, 53.46958
251.0981, 53.68591
251.5802, 53.00895
252.0623, 51.07982
252.5444, 50.14320
253.0265, 50.60155
253.5087, 51.72882
253.9908, 52.54588
254.4729, 53.10448
254.9550, 53.25399
255.4371, 52.81599
255.9192, 51.67647
256.4014, 50.90583
256.8835, 50.53882
257.3656, 50.50711
257.8477, 50.80945
258.3298, 51.73092
258.8120, 52.33656
259.2941, 52.30087
259.7762, 51.57082
260.2583, 51.03198
260.7404, 50.52929
261.2225, 50.40166
261.7047, 51.20168
262.1868, 53.52098
262.6689, 55.21264
263.1510, 55.74294
263.6331, 55.13609
264.1152, 54.33263
264.5974, 53.17987
265.0795, 52.07467
265.5616, 51.43750
266.0437, 51.35039
266.5258, 51.43791
267.0079, 51.68454
267.4901, 52.06776
267.9722, 52.32880
268.4543, 52.38358
268.9364, 52.49284
269.4185, 53.02747
269.9006, 54.23617
270.3828, 54.70966
270.8649, 53.89824
271.3470, 52.21974
271.8291, 51.81454
272.3112, 53.11408
272.7933, 54.54318
273.2755, 54.84639
273.7576, 53.83479
274.2397, 53.02001
274.7218, 52.58534
275.2039, 52.45824
275.6860, 52.50560
276.1682, 52.81272
276.6503, 52.97527
277.1324, 52.59450
277.6145, 51.60465
278.0966, 51.04298
278.5787, 51.08634
279.0609, 51.48692
279.5430, 51.69175
280.0251, 51.66421
280.5072, 51.67100
280.9893, 51.86488
281.4715, 52.24382
281.9536, 52.73779
282.4357, 53.45940
282.9178, 54.07147
283.3999, 53.71524
283.8820, 52.31308
284.3642, 51.32341
284.8463, 51.78976
285.3284, 53.53477
285.8105, 54.35073
286.2926, 54.05346
286.7747, 53.39088
287.2569, 53.53014
287.7390, 54.42986
288.2211, 54.99476
288.7032, 54.46275
289.1853, 53.18340
289.6674, 52.87212
290.1496, 53.65196
290.6317, 54.57928
291.1138, 54.44930
291.5959, 53.42028
292.0780, 52.59523
292.5602, 52.35917
293.0423, 52.55791
293.5244, 52.91614
294.0065, 53.44454
294.4886, 53.84845
294.9707, 53.70349
295.4529, 53.17596
295.9350, 52.89927
296.4171, 53.18987
296.8992, 53.67310
297.3813, 53.61426
297.8634, 53.05660
298.3456, 52.47675
298.8277, 52.17545
299.3098, 52.12447
299.7919, 52.31388
300.2740, 52.84153
300.7561, 53.42819
301.2383, 53.63086
301.7204, 53.53135
302.2025, 53.48763
302.6846, 53.90105
303.1667, 54.46370
303.6488, 54.67690
304.1310, 54.38853
304.6131, 53.97771
305.0952, 53.85097
305.5773, 53.90963
306.0594, 53.88729
306.5415, 53.27599
307.0237, 52.69285
307.5058, 53.04784
307.9879, 54.59665
308.4700, 55.86921
308.9521, 55.47199
309.4343, 54.05802
309.9164, 52.77868
310.3985, 51.78128
310.8806, 51.33422
311.3627, 52.00964
311.8448, 53.85054
312.3270, 55.29094
312.8091, 54.89469
313.2912, 53.73158
313.7733, 53.06535
314.2554, 53.93817
314.7375, 54.90696
315.2197, 55.16372
315.7018, 54.78294
316.1839, 54.41893
316.6660, 54.39199
317.1481, 54.49395
317.6302, 54.55880
318.1124, 54.57850
318.5945, 54.51657
319.0766, 54.35956
319.5587, 54.11053
320.0408, 53.77995
320.5229, 52.87031
321.0051, 52.23034
321.4872, 52.44618
321.9693, 54.32555
322.4514, 55.70227
322.9335, 55.82074
323.4156, 55.16952
323.8978, 54.69012
324.3799, 54.56258
324.8620, 54.61692
325.3441, 54.80603
325.8262, 55.14007
326.3083, 55.56142
326.7905, 56.38536
327.2726, 57.19333
327.7547, 57.46175
328.2368, 56.13783
328.7189, 55.35997
329.2010, 55.84822
329.6832, 57.78733
330.1653, 58.86645
330.6474, 58.33987
331.1295, 57.48988
331.6116, 57.36176
332.0938, 58.37428
332.5759, 59.46607
333.0580, 60.65381
333.5401, 61.87445
334.0222, 62.48675
334.5043, 61.93923
334.9865, 61.54967
335.4686, 62.27132
335.9507, 64.83273
336.4328, 66.47912
336.9149, 66.78550
337.3970, 66.23685
337.8792, 66.02611
338.3613, 66.08433
338.8434, 66.65706
339.3255, 68.05958
339.8076, 70.47553
340.2898, 72.25510
340.7719, 73.18301
341.2540, 73.87361
341.7361, 75.39339
342.2182, 77.82114
342.7003, 80.03311
343.1825, 81.17036
343.6646, 81.62025
344.1467, 84.18770
344.6288, 89.18332
345.1109, 94.83362
345.5930, 99.42593
346.0752, 103.0088
346.5573, 106.6447
347.0394, 110.5342
347.5215, 114.7050
348.0036, 119.6121
348.4857, 125.2087
348.9679, 130.4765
349.4500, 135.9768
349.9321, 140.6738
350.4142, 141.3636
350.8963, 137.1043
351.3784, 129.9734
351.8606, 121.4944
352.3427, 112.1701
352.8248, 103.6684
353.3069, 96.79079
353.7890, 91.46272
354.2711, 87.66372
354.7533, 85.48010
355.2354, 84.11567
355.7175, 83.15703
356.1996, 82.54992
356.6817, 82.19972
357.1638, 82.32774
357.6460, 82.50813
358.1281, 81.98656
358.6102, 80.89027
359.0923, 80.81117
359.5744, 83.76791
360.0565, 87.69102
360.5387, 90.51844
361.0208, 90.62280
361.5029, 90.85928
361.9850, 92.40755
362.4671, 95.06873
362.9492, 98.22911
363.4314, 101.7466
363.9135, 105.6536
364.3956, 109.9860
364.8777, 114.8307
365.3598, 119.9534
365.8419, 125.6205
366.3241, 131.4660
366.8062, 136.9037
367.2883, 141.4442
367.7704, 145.9634
368.2526, 151.2632
368.7347, 157.9465
369.2168, 161.9423
369.6989, 162.5052
370.1810, 160.8418
370.6631, 157.9646
371.1453, 154.4641
371.6274, 148.7713
372.1095, 139.7668
372.5916, 128.0325
373.0737, 117.7379
373.5558, 109.0168
374.0380, 101.4015
374.5201, 94.48705
375.0022, 88.16084
375.4843, 83.21886
375.9664, 80.04214
376.4485, 77.95539
376.9307, 75.48744
377.4128, 72.48360
377.8949, 69.84095
378.3770, 67.95902
378.8591, 66.82043
379.3412, 66.04816
379.8234, 65.70602
380.3055, 65.52779
380.7876, 65.17759
381.2697, 64.67220
381.7518, 64.37716
382.2339, 64.46137
382.7161, 64.76009
383.1982, 64.96043
383.6803, 65.05788
384.1624, 64.95451
384.6445, 64.31216
385.1266, 63.41925
385.6088, 63.08205
386.0909, 63.55304
386.5730, 64.18518
387.0551, 64.15147
387.5372, 63.64826
388.0193, 63.23627
388.5015, 63.13536
388.9836, 63.31649
389.4657, 63.79824
389.9478, 64.58645
390.4299, 65.49477
390.9120, 66.26114
391.3942, 67.11736
391.8763, 68.34091
392.3584, 70.22337
392.8405, 72.30955
393.3226, 74.35479
393.8047, 76.39894
394.2869, 78.62415
394.7690, 81.17681
395.2511, 83.88138
395.7332, 86.80551
396.2154, 90.71087
396.6975, 93.24924
397.1796, 94.03725
397.6617, 93.14552
398.1438, 90.72946
398.6259, 85.55769
399.1081, 80.08000
399.5902, 74.58887
400.0723, 68.86114
400.5544, 64.70754
401.0365, 62.87396
401.5186, 62.05398
402.0008, 61.23472
402.4829, 60.40654
402.9650, 59.55497
403.4471, 58.48640
403.9292, 57.39203
404.4113, 57.21502
404.8935, 58.34939
405.3756, 59.48946
405.8577, 59.94664
406.3398, 59.64126
406.8219, 59.15493
407.3040, 58.36646
407.7862, 57.64107
408.2683, 57.53494
408.7504, 58.06093
409.2325, 58.81096
409.7146, 59.86008
410.1967, 60.97763
410.6789, 61.18345
411.1610, 60.43447
411.6431, 59.91085
412.1252, 61.29518
412.6073, 63.76533
413.0894, 64.80223
413.5716, 63.53263
414.0537, 61.48545
414.5358, 60.35791
415.0179, 59.99010
415.5000, 59.82304
415.9821, 59.37967
416.4643, 59.07969
416.9464, 59.50589
417.4285, 60.74412
417.9106, 61.98060
418.3927, 62.73935
418.8748, 63.18201
419.3570, 63.48783
419.8391, 63.57104
420.3212, 63.67559
420.8033, 64.11419
421.2854, 64.73923
421.7675, 64.87298
422.2497, 63.52373
422.7318, 62.21589
423.2139, 61.91021
423.6960, 63.53916
424.1781, 64.35822
424.6602, 63.35690
425.1424, 61.56811
425.6245, 60.50128
426.1066, 60.42377
426.5887, 60.76806
427.0709, 61.61084
427.5530, 62.95128
428.0351, 63.80432
428.5172, 63.97172
428.9993, 63.93342
429.4814, 63.96303
429.9636, 63.97872
430.4457, 64.42326
430.9278, 65.47144
431.4099, 66.82980
431.8920, 67.76244
432.3741, 68.19442
432.8563, 68.85768
433.3384, 70.42350
433.8205, 72.64450
434.3026, 73.57408
434.7847, 73.08372
435.2668, 72.37974
435.7490, 72.71223
436.2311, 73.86665
436.7132, 75.04685
437.1953, 75.94406
437.6774, 76.91656
438.1595, 78.40647
438.6417, 80.39354
439.1238, 82.79500
439.6059, 85.69115
440.0880, 88.90968
440.5701, 92.16341
441.0522, 95.36571
441.5344, 99.12200
442.0165, 103.9810
442.4986, 109.5559
442.9807, 115.3518
443.4628, 121.2424
443.9449, 127.2875
444.4271, 134.1239
444.9092, 141.4049
445.3913, 147.2360
445.8734, 152.1856
446.3555, 154.6470
446.8376, 153.6377
447.3198, 147.9029
447.8019, 140.9258
448.2840, 131.3956
448.7661, 121.3351
449.2482, 113.5913
449.7303, 108.9771
450.2125, 105.4205
450.6946, 102.4483
451.1767, 100.0907
451.6588, 98.80994
452.1409, 98.43041
452.6230, 99.49973
453.1052, 102.7640
453.5873, 108.4271
454.0694, 113.8098
454.5515, 118.4251
455.0337, 123.2355
455.5158, 129.6155
455.9979, 137.5941
456.4800, 146.7602
456.9621, 157.0975
457.4442, 168.5416
457.9264, 182.0354
458.4085, 197.4031
458.8906, 211.3695
459.3727, 223.9248
459.8548, 232.5581
460.3369, 232.6056
460.8191, 221.8814
461.3012, 205.2685
461.7833, 182.7507
462.2654, 157.3451
462.7475, 135.4106
463.2296, 119.1405
463.7118, 107.2843
464.1939, 100.2063
464.6760, 97.88925
465.1581, 96.04220
465.6402, 93.14027
466.1223, 90.34542
466.6045, 88.51506
467.0866, 88.06229
467.5687, 88.21201
468.0508, 89.06393
468.5329, 90.47103
469.0150, 92.13844
469.4972, 94.04643
469.9793, 96.21162
470.4614, 98.65903
470.9435, 101.4002
471.4256, 104.0347
471.9077, 106.1710
472.3899, 108.9823
472.8720, 113.7021
473.3541, 120.5449
473.8362, 127.4952
474.3183, 134.2419
474.8004, 141.1018
475.2826, 149.2460
475.7647, 158.5191
476.2468, 166.7083
476.7289, 172.7499
477.2110, 176.9143
477.6931, 180.3952
478.1753, 183.2139
478.6574, 182.8243
479.1395, 175.8530
479.6216, 164.6924
480.1037, 152.5445
480.5858, 139.1996
481.0680, 126.9057
481.5501, 117.2317
482.0322, 109.6975
482.5143, 103.4103
482.9964, 98.16148
483.4786, 93.95634
483.9607, 90.98646
484.4428, 89.34641
484.9249, 87.98634
485.4070, 86.80193
485.8892, 85.78706
486.3713, 84.94482
486.8534, 84.32581
487.3355, 83.80343
487.8176, 83.34257
488.2997, 82.98811
488.7819, 82.84745
489.2640, 83.00069
489.7461, 83.17879
490.2282, 83.24269
490.7103, 83.21535
491.1924, 83.51414
491.6746, 84.17844
492.1567, 85.00801
492.6388, 85.92505
493.1209, 86.90551
493.6030, 87.51860
494.0851, 87.54873
494.5673, 87.66182
495.0494, 88.78114
495.5315, 90.80004
496.0136, 93.28768
496.4957, 96.17529
496.9778, 99.35936
497.4600, 102.7511
497.9421, 106.3624
498.4242, 110.4070
498.9063, 115.1713
499.3884, 120.3604
499.8705, 125.8719
500.3527, 131.8385
500.8348, 137.6329
501.3169, 143.8303
501.7990, 149.4060
502.2811, 152.9345
502.7632, 155.6240
503.2454, 154.6012
503.7275, 147.7372
504.2096, 135.6906
504.6917, 124.9364
505.1738, 115.3708
505.6559, 107.3896
506.1381, 101.4058
506.6202, 97.67651
507.1023, 94.96440
507.5844, 93.38531
508.0665, 92.61520
508.5486, 92.32757
509.0308, 92.52723
509.5129, 93.03755
509.9950, 93.80156
510.4771, 94.85249
510.9592, 96.39742
511.4413, 98.38767
511.9235, 100.4227
512.4056, 101.9906
512.8877, 103.5336
513.3698, 105.7826
513.8519, 108.8127
514.3340, 112.1944
514.8162, 115.3874
515.2983, 118.8333
515.7804, 123.0568
516.2625, 128.2222
516.7446, 134.2068
517.2267, 141.3755
517.7089, 149.3141
518.1910, 156.9333
518.6731, 162.6658
519.1552, 169.3330
519.6373, 178.3879
520.1194, 190.2154
520.6016, 200.6872
521.0837, 208.7118
521.5658, 216.4614
522.0479, 226.1884
522.5300, 239.5452
523.0121, 248.6097
523.4943, 252.8385
523.9764, 252.5684
524.4585, 248.1508
524.9406, 239.6577
525.4227, 227.4878
525.9048, 210.5591
526.3870, 190.6975
526.8691, 170.9836
527.3513, 151.4942
527.8334, 134.5776
528.3155, 122.1308
528.7976, 113.0156
529.2797, 105.8065
529.7618, 100.4331
530.2440, 95.92858
530.7261, 91.87340
531.2082, 88.22885
531.6903, 85.02046
532.1724, 81.95374
532.6545, 79.59910
533.1367, 78.41369
533.6188, 78.12003
534.1009, 77.68053
534.5830, 76.66399
535.0651, 75.75939
535.5472, 75.21776
536.0294, 75.08223
536.5115, 74.97740
536.9936, 74.91830
537.4757, 74.86975
537.9578, 74.81130
538.4399, 74.74825
538.9221, 74.61552
539.4042, 74.35796
539.8863, 74.10992
540.3684, 74.21239
540.8505, 74.62377
541.3326, 74.83345
541.8148, 74.44182
542.2969, 73.83632
542.7790, 73.77455
543.2611, 74.19614
543.7432, 74.61205
544.2253, 74.73139
544.7075, 74.65586
545.1896, 74.46909
545.6717, 74.16959
546.1538, 73.83485
546.6359, 73.68108
547.1180, 73.43712
547.6002, 72.81552
548.0823, 70.72233
548.5644, 69.42844
549.0465, 69.97350
549.5286, 71.63744
550.0107, 72.30492
550.4929, 71.34392
550.9750, 70.33089
551.4571, 69.76095
551.9392, 69.63485
552.4213, 69.51398
552.9034, 69.43155
553.3856, 69.24961
553.8677, 68.78899
554.3498, 68.07986
554.8319, 67.49485
555.3140, 67.08244
555.7961, 66.75531
556.2783, 66.43126
556.7604, 66.10617
557.2425, 65.77048
557.7246, 65.40691
558.2067, 65.04541
558.6888, 64.67047
559.1710, 64.31371
559.6531, 64.08817
560.1352, 64.21641
560.6173, 64.36316
561.0994, 64.21684
561.5815, 63.67422
562.0637, 63.54689
562.5458, 64.55621
563.0279, 65.66948
563.5100, 66.13101
563.9921, 65.47038
564.4742, 64.99712
564.9564, 64.89251
565.4385, 64.86871
565.9206, 64.37552
566.4027, 63.30741
566.8848, 62.28816
567.3669, 61.40011
567.8491, 60.74245
568.3312, 60.80729
568.8133, 61.56832
569.2954, 62.37234
569.7775, 62.89291
570.2596, 63.14038
570.7418, 63.09232
571.2239, 62.74426
571.7060, 62.22084
572.1881, 61.25476
572.6702, 60.32632
573.1523, 60.02747
573.6345, 60.95658
574.1166, 61.71709
574.5987, 61.54510
575.0808, 60.91462
575.5629, 60.61020
576.0450, 61.16718
576.5272, 61.60958
577.0093, 61.76513
577.4914, 61.65559
577.9735, 61.35818
578.4556, 60.68337
578.9377, 60.21933
579.4199, 60.33583
579.9020, 61.04494
580.3841, 61.68966
580.8662, 62.31800
581.3483, 62.63034
581.8304, 61.91259
582.3126, 60.56624
582.7947, 60.13784
583.2768, 61.16900
583.7589, 62.40208
584.2410, 62.28683
584.7231, 61.40589
585.2053, 60.91260
585.6874, 62.02338
586.1696, 62.97260
586.6517, 62.53210
587.1338, 61.02390
587.6159, 59.91463
588.0980, 59.48514
588.5801, 59.62140
589.0623, 60.52812
589.5444, 62.41963
590.0265, 63.52298
