##NAMES=Chrysoberyl
##RRUFFID=R080110
##IDEAL CHEMISTRY=BeAl_2_O_4_
##LOCALITY=Ratonapura, Sri Lanka
##OWNER=RRUFF
##SOURCE=Shinichi Kihara
##DESCRIPTION=Pale greenish blue euhedral single crystal
##STATUS=The identification of this mineral has been confirmed by single-crystal X-ray diffraction.
##URL=rruff.info/R080110
92.52344, 79.90580
93.00555, 81.67442
93.48767, 81.53284
93.96979, 79.33250
94.45190, 77.84437
94.93402, 77.33578
95.41614, 76.23695
95.89825, 74.43253
96.38037, 72.35201
96.86249, 70.11077
97.34460, 68.11623
97.82672, 66.60715
98.30884, 65.12963
98.79095, 63.66790
99.27307, 62.10662
99.75519, 60.32638
100.2373, 58.40761
100.7194, 56.45496
101.2015, 54.74358
101.6837, 53.37199
102.1658, 52.09900
102.6479, 50.71045
103.1300, 49.17654
103.6121, 47.71655
104.0942, 46.36530
104.5764, 45.18194
105.0585, 44.39587
105.5406, 44.32330
106.0227, 44.71514
106.5048, 44.81059
106.9869, 44.45257
107.4691, 43.96617
107.9512, 43.53560
108.4333, 43.12543
108.9154, 42.64213
109.3975, 41.97081
109.8796, 41.06548
110.3618, 40.26117
110.8439, 39.60150
111.3260, 38.99756
111.8081, 38.42792
112.2902, 37.88488
112.7723, 37.35521
113.2544, 36.80367
113.7366, 36.05737
114.2187, 35.65777
114.7008, 35.82201
115.1829, 36.18922
115.6650, 36.44594
116.1471, 36.48085
116.6293, 36.37565
117.1114, 36.31416
117.5935, 36.32453
118.0756, 36.31850
118.5577, 36.30592
119.0398, 36.26442
119.5220, 36.12281
120.0041, 35.80297
120.4862, 35.40191
120.9683, 35.12226
121.4504, 34.95652
121.9325, 34.91466
122.4147, 35.08069
122.8968, 35.47821
123.3789, 35.79344
123.8610, 35.81665
124.3431, 35.68664
124.8252, 35.50928
125.3074, 35.30711
125.7895, 35.08681
126.2716, 34.84473
126.7537, 34.51244
127.2358, 34.29565
127.7179, 34.29968
128.2001, 34.42513
128.6822, 34.54052
129.1643, 34.55980
129.6464, 34.49370
130.1285, 34.47807
130.6107, 34.73289
131.0928, 34.82596
131.5749, 34.52628
132.0570, 33.96098
132.5391, 33.42134
133.0212, 33.17579
133.5034, 33.28264
133.9855, 33.29668
134.4676, 33.11074
134.9497, 32.93743
135.4318, 32.91531
135.9139, 33.04889
136.3960, 33.22701
136.8782, 33.32395
137.3603, 33.31935
137.8424, 33.33308
138.3245, 33.38448
138.8066, 33.45248
139.2887, 33.53843
139.7709, 33.66169
140.2530, 33.72644
140.7351, 33.57222
141.2172, 33.22459
141.6993, 32.86006
142.1814, 32.54579
142.6636, 32.27468
143.1457, 31.99924
143.6278, 31.61824
144.1099, 31.35528
144.5920, 31.45576
145.0741, 31.91091
145.5563, 32.34848
146.0384, 32.40331
146.5205, 32.02656
147.0026, 31.68779
147.4847, 31.43269
147.9668, 31.26371
148.4490, 31.23055
148.9311, 31.33234
149.4132, 31.46795
149.8953, 31.46458
150.3774, 31.19008
150.8595, 31.05182
151.3417, 31.19724
151.8238, 31.40110
152.3059, 31.46511
152.7880, 31.31855
153.2701, 31.05715
153.7522, 30.92528
154.2344, 31.18853
154.7165, 31.27985
155.1986, 31.00145
155.6807, 30.58741
156.1628, 30.34643
156.6449, 30.44275
157.1271, 30.78607
157.6092, 31.01172
158.0913, 31.05506
158.5734, 31.08179
159.0555, 31.19179
159.5376, 31.32916
160.0198, 31.32356
160.5019, 31.02691
160.9840, 30.54437
161.4661, 30.27069
161.9482, 30.24972
162.4303, 30.37357
162.9125, 30.66124
163.3946, 31.10241
163.8767, 31.43688
164.3588, 31.44403
164.8409, 31.25459
165.3230, 31.09025
165.8052, 30.98955
166.2873, 30.92618
166.7694, 30.87826
167.2515, 30.85614
167.7336, 30.81249
168.2157, 30.67485
168.6979, 30.51611
169.1800, 30.43279
169.6621, 30.49459
170.1442, 30.63732
170.6263, 30.67454
171.1084, 30.54090
171.5906, 30.39872
172.0727, 30.23215
172.5548, 30.10262
173.0369, 30.12283
173.5190, 30.40620
174.0011, 30.89396
174.4833, 31.08636
174.9654, 30.58236
175.4475, 30.16043
175.9296, 29.98886
176.4117, 30.02065
176.8938, 30.15404
177.3760, 30.32786
177.8581, 30.54578
178.3402, 30.65548
178.8223, 30.52098
179.3044, 30.42325
179.7865, 30.51381
180.2687, 30.74158
180.7508, 30.93699
181.2329, 30.94888
181.7150, 30.75574
182.1971, 30.61179
182.6792, 30.45111
183.1614, 30.38241
183.6435, 30.56357
184.1256, 30.96280
184.6077, 31.29028
185.0898, 31.23880
185.5719, 30.78028
186.0541, 30.53860
186.5362, 30.69741
187.0183, 30.97957
187.5004, 31.14025
187.9825, 31.15203
188.4646, 31.09476
188.9468, 30.98539
189.4289, 30.85024
189.9110, 30.81120
190.3931, 30.99463
190.8752, 31.26097
191.3573, 31.36283
191.8395, 31.21817
192.3216, 31.09323
192.8037, 31.28574
193.2858, 31.66320
193.7679, 31.91804
194.2500, 31.81808
194.7322, 31.47943
195.2143, 31.27439
195.6964, 31.24339
196.1785, 31.31010
196.6606, 31.47646
197.1427, 31.69500
197.6249, 31.85565
198.1070, 31.83650
198.5891, 31.66726
199.0712, 31.65795
199.5533, 31.95399
200.0354, 32.26152
200.5176, 32.54503
200.9997, 32.75658
201.4818, 32.79442
201.9639, 32.50578
202.4460, 31.87393
202.9281, 31.56609
203.4103, 31.78763
203.8924, 32.17704
204.3745, 32.85512
204.8566, 33.65081
205.3387, 34.18071
205.8208, 34.05757
206.3030, 33.17495
206.7851, 32.63417
207.2672, 32.62842
207.7493, 32.73899
208.2314, 32.85527
208.7135, 32.95230
209.1957, 33.03206
209.6778, 33.09690
210.1599, 33.14739
210.6420, 33.16993
211.1241, 33.10900
211.6062, 33.07271
212.0884, 33.15570
212.5705, 33.33510
213.0526, 33.48446
213.5347, 33.47849
214.0168, 33.29182
214.4989, 33.19162
214.9811, 33.20022
215.4632, 33.26815
215.9453, 33.39925
216.4274, 33.58194
216.9095, 33.73620
217.3916, 33.79493
217.8737, 33.74868
218.3559, 33.66336
218.8380, 33.40474
219.3201, 33.19398
219.8022, 33.28592
220.2843, 33.69906
220.7664, 34.11714
221.2486, 34.28959
221.7307, 34.24995
222.2128, 34.15033
222.6949, 33.88596
223.1770, 33.63552
223.6591, 33.64803
224.1413, 33.96511
224.6234, 34.29576
225.1055, 34.39470
225.5876, 34.35958
226.0697, 34.36371
226.5518, 34.51370
227.0340, 34.69489
227.5161, 34.70124
227.9982, 34.46949
228.4803, 34.28343
228.9624, 34.35299
229.4445, 34.55795
229.9267, 34.75276
230.4088, 34.87388
230.8909, 34.96411
231.3730, 35.09016
231.8551, 35.23248
232.3372, 35.46619
232.8194, 35.92901
233.3015, 36.46111
233.7836, 36.85261
234.2657, 36.97122
234.7478, 36.97386
235.2299, 37.20885
235.7121, 37.71759
236.1942, 38.40422
236.6763, 39.30928
237.1584, 40.31641
237.6405, 41.30650
238.1227, 42.22915
238.6048, 43.12262
239.0869, 44.08026
239.5690, 45.12568
240.0511, 46.20848
240.5332, 47.34859
241.0154, 48.50044
241.4975, 49.67282
241.9796, 50.87528
242.4617, 51.96473
242.9438, 52.59820
243.4259, 52.89797
243.9081, 52.43121
244.3902, 51.06371
244.8723, 49.05874
245.3544, 46.49291
245.8365, 43.40754
246.3186, 40.13444
246.8008, 37.38924
247.2829, 35.36407
247.7650, 33.69489
248.2471, 32.36300
248.7292, 31.34432
249.2113, 30.71039
249.6935, 30.46412
250.1756, 30.40212
250.6577, 30.12142
251.1398, 29.36590
251.6219, 28.75705
252.1040, 28.27986
252.5862, 27.95221
253.0683, 27.81246
253.5504, 27.86666
254.0325, 28.06083
254.5146, 28.32244
254.9967, 28.79102
255.4789, 29.04260
255.9610, 28.93578
256.4431, 28.69680
256.9252, 28.51220
257.4073, 28.42734
257.8894, 28.38137
258.3716, 28.28364
258.8537, 28.07408
259.3358, 27.99386
259.8179, 28.16634
260.3000, 28.39411
260.7821, 28.50297
261.2643, 28.46418
261.7464, 28.36626
262.2285, 28.30091
262.7106, 28.27584
263.1927, 28.25392
263.6748, 28.27616
264.1570, 28.27477
264.6391, 28.15248
265.1212, 27.90876
265.6033, 27.69280
266.0854, 27.66022
266.5675, 27.82358
267.0497, 27.93933
267.5318, 27.92664
268.0139, 27.91660
268.4960, 28.06297
268.9781, 28.36145
269.4602, 28.59590
269.9424, 28.56540
270.4245, 28.30917
270.9066, 28.17341
271.3887, 28.27472
271.8708, 28.41629
272.3529, 28.47757
272.8351, 28.45524
273.3172, 28.32806
273.7993, 28.01072
274.2814, 27.59582
274.7635, 27.36761
275.2456, 27.43284
275.7278, 27.57372
276.2099, 27.64573
276.6920, 27.65726
277.1741, 27.68082
277.6562, 27.76883
278.1383, 27.87594
278.6205, 27.90065
279.1026, 27.78943
279.5847, 27.71165
280.0668, 27.82501
280.5489, 28.09340
281.0310, 28.30005
281.5132, 28.36434
281.9953, 28.32951
282.4774, 28.25564
282.9595, 28.13074
283.4416, 28.03590
283.9237, 28.04387
284.4059, 28.12948
284.8880, 28.18601
285.3701, 28.18044
285.8522, 28.14642
286.3343, 28.09488
286.8164, 28.02797
287.2986, 28.02852
287.7807, 28.22415
288.2628, 28.53297
288.7449, 28.67215
289.2270, 28.54968
289.7091, 28.34568
290.1913, 28.15591
290.6734, 27.99698
291.1555, 27.94315
291.6376, 28.16776
292.1197, 28.51012
292.6018, 28.53931
293.0840, 28.10386
293.5661, 27.66880
294.0482, 27.55388
294.5303, 27.65209
295.0124, 27.78924
295.4945, 27.91232
295.9767, 28.02806
296.4588, 28.16512
296.9409, 28.34798
297.4230, 28.46731
297.9051, 28.40212
298.3872, 28.26038
298.8694, 28.17280
299.3515, 28.20150
299.8336, 28.25470
300.3157, 28.17765
300.7978, 27.93422
301.2799, 27.77866
301.7621, 27.92629
302.2442, 28.14673
302.7263, 28.22140
303.2084, 28.09350
303.6905, 27.92545
304.1726, 27.89087
304.6548, 27.99592
305.1369, 28.08674
305.6190, 28.09040
306.1011, 28.09888
306.5832, 28.23931
307.0653, 28.50934
307.5475, 28.67985
308.0296, 28.44610
308.5117, 27.85926
308.9938, 27.54978
309.4759, 27.72919
309.9580, 28.06692
310.4402, 28.43440
310.9223, 28.78410
311.4044, 28.95579
311.8865, 28.70296
312.3686, 28.15282
312.8507, 27.89811
313.3329, 28.13764
313.8150, 28.34376
314.2971, 28.15283
314.7792, 27.74029
315.2613, 27.42531
315.7434, 27.35985
316.2256, 27.47544
316.7077, 27.64844
317.1898, 27.91583
317.6719, 28.14033
318.1540, 28.25064
318.6361, 28.29219
319.1183, 28.29573
319.6004, 28.25585
320.0825, 28.22172
320.5646, 28.31356
321.0467, 28.57792
321.5288, 28.66551
322.0110, 28.18336
322.4931, 27.65283
322.9752, 27.52801
323.4573, 27.88634
323.9394, 28.35638
324.4215, 28.62697
324.9037, 28.69925
325.3858, 28.66890
325.8679, 28.44709
326.3500, 28.23155
326.8321, 28.18360
327.3142, 28.28213
327.7964, 28.37972
328.2785, 28.29612
328.7606, 28.10432
329.2427, 28.19248
329.7248, 28.73159
330.2069, 29.29463
330.6891, 29.66072
331.1712, 29.86031
331.6533, 29.94097
332.1354, 29.84577
332.6175, 29.68461
333.0996, 29.70527
333.5818, 29.96705
334.0639, 30.21953
334.5460, 30.24973
335.0281, 30.22958
335.5102, 30.37433
335.9923, 30.78532
336.4745, 31.27091
336.9566, 31.59385
337.4387, 31.74098
337.9208, 31.92842
338.4029, 32.25486
338.8850, 32.63466
339.3671, 32.98238
339.8492, 33.29125
340.3314, 33.59352
340.8135, 33.82100
341.2956, 34.02338
341.7777, 34.53064
342.2598, 35.53330
342.7419, 36.67487
343.2241, 37.55167
343.7062, 38.24443
344.1883, 39.16877
344.6704, 40.50349
345.1525, 42.20979
345.6346, 44.22195
346.1168, 46.55119
346.5989, 49.12640
347.0810, 51.85695
347.5631, 54.78830
348.0452, 58.11798
348.5273, 62.09708
349.0095, 66.31286
349.4916, 70.72569
349.9737, 75.35154
350.4558, 78.75998
350.9379, 80.42127
351.4200, 80.19257
351.9022, 78.00152
352.3843, 73.36988
352.8664, 68.10014
353.3485, 62.93112
353.8306, 58.01147
354.3127, 53.98420
354.7949, 51.13260
355.2770, 49.05889
355.7591, 47.42604
356.2412, 46.23271
356.7233, 44.80453
357.2054, 42.67990
357.6876, 40.24043
358.1697, 38.04377
358.6518, 36.15321
359.1339, 34.55469
359.6160, 33.31783
360.0981, 32.39799
360.5803, 31.58297
361.0624, 30.86148
361.5445, 30.22984
362.0266, 29.68502
362.5087, 29.22774
362.9908, 28.87879
363.4730, 28.66650
363.9551, 28.56701
364.4372, 28.48084
364.9193, 28.35060
365.4014, 28.32277
365.8835, 28.56417
366.3657, 28.94024
366.8478, 29.16072
367.3299, 29.11193
367.8120, 28.94728
368.2941, 28.89606
368.7762, 28.96371
369.2584, 29.10437
369.7405, 29.35181
370.2226, 29.64636
370.7047, 29.97565
371.1868, 30.32594
371.6689, 30.58671
372.1511, 30.66906
372.6332, 30.55969
373.1153, 30.28659
373.5974, 29.69340
374.0795, 29.10529
374.5616, 28.68358
375.0438, 28.39328
375.5259, 28.12352
376.0080, 27.81696
376.4901, 27.48619
376.9722, 27.17750
377.4543, 26.80313
377.9365, 26.56228
378.4186, 26.60431
378.9007, 26.73166
379.3828, 26.71725
379.8649, 26.50179
380.3470, 26.19866
380.8292, 25.96312
381.3113, 25.81343
381.7934, 25.68197
382.2755, 25.50092
382.7576, 25.39247
383.2397, 25.48992
383.7219, 25.73833
384.2040, 25.95183
384.6861, 25.97808
385.1682, 25.83085
385.6503, 25.72507
386.1324, 25.66569
386.6146, 25.64719
387.0967, 25.70975
387.5788, 25.80015
388.0609, 25.84785
388.5430, 25.82292
389.0251, 25.76105
389.5073, 25.73668
389.9894, 25.77845
390.4715, 25.79739
390.9536, 25.79390
391.4357, 25.76581
391.9178, 25.72495
392.4000, 25.66355
392.8821, 25.54165
393.3642, 25.26299
393.8463, 24.81462
394.3284, 24.65432
394.8105, 25.03535
395.2927, 25.42706
395.7748, 25.73399
396.2569, 25.91367
396.7390, 25.88309
397.2211, 25.55418
397.7032, 25.09156
398.1854, 24.88694
398.6675, 25.03093
399.1496, 25.15704
399.6317, 25.20231
400.1138, 25.16621
400.5959, 24.99714
401.0781, 24.69195
401.5602, 24.40996
402.0423, 24.32389
402.5244, 24.41510
403.0065, 24.48373
403.4886, 24.53876
403.9708, 24.51565
404.4529, 24.30533
404.9350, 23.98162
405.4171, 23.75590
405.8992, 23.80249
406.3813, 23.95708
406.8635, 23.92323
407.3456, 23.67262
407.8277, 23.49625
408.3098, 23.57149
408.7919, 23.79800
409.2740, 24.00346
409.7562, 24.18223
410.2383, 24.33093
410.7204, 24.48345
411.2025, 24.60770
411.6846, 24.57403
412.1667, 24.29954
412.6489, 24.00363
413.1310, 23.99137
413.6131, 24.25144
414.0952, 24.47586
414.5773, 24.61197
415.0594, 24.69037
415.5416, 24.72135
416.0237, 24.71211
416.5058, 24.70483
416.9879, 24.73893
417.4700, 24.79365
417.9521, 24.75600
418.4343, 24.48935
418.9164, 24.30892
419.3985, 24.36247
419.8806, 24.53580
420.3627, 24.67669
420.8448, 24.73584
421.3270, 24.72163
421.8091, 24.63662
422.2912, 24.43434
422.7733, 24.29752
423.2554, 24.27541
423.7375, 24.27056
424.2197, 24.21111
424.7018, 24.11420
425.1839, 24.05444
425.6660, 24.09153
426.1481, 24.20622
426.6302, 24.26496
427.1124, 24.13512
427.5945, 24.11642
428.0766, 24.36683
428.5587, 24.68200
429.0408, 24.84655
429.5229, 24.79977
430.0051, 24.65779
430.4872, 24.58026
430.9693, 24.58425
431.4514, 24.58274
431.9335, 24.60463
432.4156, 24.59147
432.8978, 24.41998
433.3799, 24.18827
433.8620, 24.13268
434.3441, 24.42570
434.8262, 24.97458
435.3083, 25.55880
435.7905, 26.25528
436.2726, 26.76551
436.7547, 26.80249
437.2368, 26.70133
437.7189, 26.74847
438.2010, 27.00095
438.6832, 27.33540
439.1653, 27.66504
439.6474, 27.99067
440.1295, 28.34985
440.6116, 28.82113
441.0938, 29.18031
441.5759, 29.15917
442.0580, 28.86126
442.5401, 28.57898
443.0222, 28.43559
443.5043, 28.31502
443.9865, 28.08227
444.4686, 27.75065
444.9507, 27.42451
445.4328, 27.12442
445.9149, 26.89037
446.3970, 26.84283
446.8792, 27.06555
447.3613, 27.20135
447.8434, 27.04694
448.3255, 26.80240
448.8076, 26.72934
449.2897, 26.86658
449.7719, 27.05916
450.2540, 27.16043
450.7361, 27.16449
451.2182, 27.21115
451.7003, 27.34812
452.1824, 27.46902
452.6646, 27.50918
453.1467, 27.51312
453.6288, 27.51680
454.1109, 27.53570
454.5930, 27.65844
455.0751, 28.08689
455.5573, 29.05364
456.0394, 29.87663
456.5215, 30.37153
457.0036, 30.90210
457.4857, 31.58517
457.9678, 32.48841
458.4500, 33.77002
458.9321, 35.67811
459.4142, 38.02044
459.8963, 39.68173
460.3784, 40.50159
460.8605, 40.87462
461.3427, 41.08287
461.8248, 40.87703
462.3069, 39.82147
462.7890, 37.81140
463.2711, 35.66186
463.7532, 34.23660
464.2354, 33.48363
464.7175, 32.77448
465.1996, 31.94279
465.6817, 31.31365
466.1638, 31.09319
466.6459, 31.22952
467.1281, 31.63596
467.6102, 32.36607
468.0923, 33.27943
468.5744, 34.24417
469.0565, 35.26548
469.5386, 36.31777
470.0208, 37.38660
470.5029, 38.48895
470.9850, 39.58236
471.4671, 40.58805
471.9492, 41.95282
472.4313, 43.76319
472.9135, 46.00952
473.3956, 48.55306
473.8777, 51.43302
474.3598, 55.06941
474.8419, 59.78636
475.3240, 65.54710
475.8062, 71.91208
476.2883, 79.25617
476.7704, 86.68430
477.2525, 94.53737
477.7346, 102.1408
478.2167, 109.2564
478.6989, 115.6302
479.1810, 119.9229
479.6631, 120.4240
480.1452, 116.8266
480.6273, 110.8827
481.1094, 100.7563
481.5916, 90.16010
482.0737, 79.33815
482.5558, 69.05167
483.0379, 60.35587
483.5200, 53.75148
484.0021, 48.79079
484.4843, 44.68911
484.9664, 41.47041
485.4485, 38.94025
485.9306, 37.44557
486.4127, 36.34641
486.8948, 35.27660
487.3770, 34.22144
487.8591, 33.26209
488.3412, 32.44575
488.8233, 31.75820
489.3054, 31.19967
489.7875, 30.78341
490.2697, 30.39130
490.7518, 29.95603
491.2339, 29.51847
491.7160, 29.16459
492.1981, 28.94480
492.6802, 28.66691
493.1624, 28.13824
493.6445, 27.54529
494.1266, 27.21037
494.6087, 27.18069
495.0908, 27.18868
495.5729, 26.97592
496.0551, 26.54814
496.5372, 26.31489
497.0193, 26.46333
497.5014, 26.55798
497.9835, 26.43011
498.4656, 26.18022
498.9478, 25.91407
499.4299, 25.67705
499.9120, 25.54161
500.3941, 25.67071
500.8762, 26.23718
501.3583, 26.37675
501.8405, 25.61783
502.3226, 24.91071
502.8047, 24.57344
503.2868, 24.53770
503.7689, 24.67488
504.2510, 24.94841
504.7331, 25.25051
505.2152, 25.37839
505.6974, 25.31185
506.1795, 25.19140
506.6616, 24.94077
507.1437, 24.74821
507.6258, 24.81790
508.1079, 25.09614
508.5901, 25.28130
509.0722, 25.09486
509.5543, 24.79694
510.0364, 24.76744
510.5185, 25.00646
511.0006, 25.38196
511.4828, 25.91616
511.9649, 26.47341
512.4470, 26.72309
512.9291, 26.55132
513.4113, 26.51582
513.8934, 26.81663
514.3755, 27.28670
514.8576, 27.80716
515.3397, 28.34131
515.8218, 28.79718
516.3040, 29.09379
516.7861, 29.26198
517.2682, 29.52085
517.7503, 29.71712
518.2324, 30.20818
518.7145, 31.17730
519.1967, 32.37067
519.6788, 33.57687
520.1609, 34.74734
520.6430, 35.92947
521.1251, 37.16080
521.6072, 38.44897
522.0894, 39.82241
522.5715, 41.40998
523.0536, 42.87901
523.5357, 44.36254
524.0178, 45.57625
524.4999, 46.18490
524.9821, 46.09666
525.4642, 45.47834
525.9463, 44.43315
526.4284, 42.98309
526.9105, 41.11493
527.3926, 38.72779
527.8748, 36.24294
528.3569, 33.82095
528.8390, 31.55826
529.3211, 29.75849
529.8032, 28.62897
530.2853, 27.77723
530.7675, 27.06552
531.2496, 26.47362
531.7317, 25.97799
532.2138, 25.57039
532.6959, 25.21032
533.1780, 24.84751
533.6602, 24.47257
534.1423, 24.15335
534.6244, 23.84594
535.1065, 23.62886
535.5886, 23.57340
536.0707, 23.61555
536.5529, 23.67998
537.0350, 23.73369
537.5171, 23.74538
537.9992, 23.63314
538.4813, 23.34968
538.9634, 23.18950
539.4456, 23.25547
539.9277, 23.35168
540.4098, 23.37879
540.8919, 23.37072
541.3740, 23.41727
541.8561, 23.59772
542.3383, 23.75220
542.8204, 23.61697
543.3025, 23.23125
543.7846, 22.99269
544.2667, 23.04878
544.7488, 23.18042
545.2310, 23.09725
545.7131, 22.83255
546.1952, 22.73231
546.6773, 23.02215
547.1594, 23.33035
547.6415, 23.39972
548.1237, 23.29384
548.6058, 23.16612
549.0879, 23.07409
549.5700, 23.05478
550.0521, 23.19677
550.5342, 23.63842
551.0164, 23.80630
551.4985, 23.38918
551.9806, 23.05779
552.4627, 23.17009
552.9448, 23.57333
553.4269, 23.97017
553.9091, 24.22532
554.3912, 24.35346
554.8733, 24.31413
555.3554, 24.05075
555.8375, 24.02687
556.3196, 24.52833
556.8018, 25.02073
557.2839, 25.08419
557.7660, 24.86684
558.2481, 24.78083
558.7302, 24.94576
559.2123, 25.33402
559.6945, 26.01371
560.1766, 26.91959
560.6587, 27.72308
561.1408, 28.28813
561.6229, 28.84300
562.1050, 29.65975
562.5872, 30.76484
563.0693, 32.05634
563.5514, 33.69011
564.0335, 35.34845
564.5156, 37.10239
564.9977, 38.70885
565.4799, 39.74883
565.9620, 40.05438
566.4441, 39.85469
566.9262, 39.53141
567.4083, 39.17327
567.8904, 38.32804
568.3726, 36.66436
568.8547, 34.82527
569.3368, 32.78267
569.8189, 30.76956
570.3010, 29.18368
570.7831, 28.19438
571.2653, 27.46361
571.7474, 26.54213
572.2295, 25.48320
572.7116, 24.70911
573.1937, 24.33682
573.6758, 24.14499
574.1580, 24.01846
574.6401, 23.93308
575.1222, 23.79159
575.6043, 23.49348
576.0864, 23.24143
576.5685, 23.16009
577.0507, 23.18541
577.5328, 23.21992
578.0149, 23.23745
578.4970, 23.25441
578.9791, 23.30149
579.4612, 23.38526
579.9434, 23.33412
580.4255, 22.88963
580.9076, 22.61584
581.3897, 22.78797
581.8718, 23.09165
582.3539, 23.14590
582.8361, 22.88315
583.3182, 22.59033
583.8003, 22.61276
584.2824, 22.88817
584.7645, 22.91870
585.2466, 22.60121
585.7288, 22.32682
586.2108, 22.27884
586.6929, 22.39667
587.1750, 22.64111
587.6572, 23.06892
588.1393, 23.36150
588.6214, 23.24531
589.1035, 22.97577
589.5856, 22.91140
590.0677, 23.06718
590.5499, 23.21768
591.0320, 23.20821
