##NAMES=Churchite-(Y)
##RRUFFID=R050421
##IDEAL CHEMISTRY=YPO_4_&#183;2H_2_O
##LOCALITY=Vesuvius, Virginia, USA
##OWNER=RRUFF
##SOURCE=Marcus Origlieri
##DESCRIPTION=Colorless acicular radiating groups
##STATUS=The identification of this mineral is confirmed by single-crystal X-ray diffraction and chemical analysis.
##URL=rruff.info/R050421
##MEASURED CHEMISTRY=(Y_0.94_Er_0.01_Gd_0.01_Dy_0.01_Yb_0.01_Ca_0.02_)_Î£=1.00_(PO_4_)_0.97_&#183;1.28H_2_O
94.721, 72338.023
95.203, 72294.891
95.685, 71960.500
96.167, 71575.344
96.649, 71659.828
97.131, 72221.547
97.614, 72801.477
98.096, 72912.102
98.578, 72587.977
99.060, 72640.742
99.542, 73301.008
100.024, 74422.227
100.506, 75383.297
100.988, 76128.453
101.470, 76845.312
101.953, 77740.328
102.435, 78902.094
102.917, 79929.844
103.399, 80711.109
103.881, 81243.602
104.363, 81764.562
104.845, 82297.547
105.327, 82801.547
105.810, 83236.070
106.292, 83600.594
106.774, 83890.812
107.256, 84106.992
107.738, 84256.156
108.220, 84311.477
108.702, 84195.406
109.184, 83997.750
109.666, 83895.633
110.149, 84055.344
110.631, 84171.883
111.113, 84159.188
111.595, 84045.852
112.077, 83756.320
112.559, 83105.383
113.041, 82244.320
113.523, 81620.000
114.006, 81430.977
114.488, 81412.789
114.970, 81427.688
115.452, 81420.703
115.934, 81478.508
116.416, 81675.961
116.898, 81981.797
117.380, 82228.281
117.862, 82310.703
118.345, 82326.453
118.827, 82356.477
119.309, 82452.109
119.791, 82547.211
120.273, 82590.609
120.755, 82585.594
121.237, 82608.852
121.719, 82678.609
122.201, 82809.367
122.684, 83021.891
123.166, 83374.070
123.648, 83779.289
124.130, 84195.594
124.612, 84624.727
125.094, 84984.398
125.576, 85197.750
126.058, 85286.500
126.540, 85302.906
127.023, 85247.320
127.505, 85142.008
127.987, 85016.500
128.469, 84870.297
128.951, 84714.719
129.433, 84525.273
129.915, 84318.867
130.398, 84192.047
130.880, 84218.242
131.362, 84372.844
131.844, 84593.047
132.326, 84899.422
132.808, 85213.047
133.290, 85370.883
133.772, 85369.344
134.254, 85340.742
134.736, 85365.172
135.219, 85441.789
135.701, 85546.117
136.183, 85676.078
136.665, 85831.352
137.147, 86027.844
137.629, 86279.023
138.111, 86522.117
138.594, 86691.117
139.076, 86765.797
139.558, 86901.820
140.040, 87153.430
140.522, 87498.109
141.004, 87739.969
141.486, 87839.602
141.968, 87908.156
142.450, 88043.711
142.932, 88256.406
143.415, 88525.922
143.897, 88921.969
144.379, 89460.789
144.861, 89661.789
145.343, 89423.406
145.825, 88931.320
146.307, 88382.531
146.790, 87709.031
147.272, 87070.922
147.754, 86523.727
148.236, 86105.477
148.718, 85600.273
149.200, 84936.109
149.682, 84218.570
150.164, 83576.000
150.646, 82995.820
151.128, 82506.773
151.611, 82142.672
152.093, 81957.633
152.575, 81748.492
153.057, 81503.406
153.539, 81234.828
154.021, 80963.859
154.503, 80657.242
154.985, 80374.273
155.468, 80140.750
155.950, 79989.031
156.432, 79823.227
156.914, 79580.859
157.396, 79316.344
157.878, 79139.133
158.360, 79176.578
158.842, 79229.531
159.324, 79191.047
159.807, 78964.453
160.289, 78787.859
160.771, 78749.594
161.253, 78813.281
161.735, 78885.188
162.217, 78989.039
162.699, 79055.930
163.181, 79034.609
163.663, 78862.703
164.146, 78676.000
164.628, 78491.430
165.110, 78327.547
165.592, 78249.797
166.074, 78358.344
166.556, 78534.172
167.038, 78674.180
167.520, 78733.594
168.003, 78770.758
168.485, 78820.180
168.967, 78878.906
169.449, 78932.133
169.931, 78985.602
170.413, 79023.477
170.895, 79022.773
171.377, 78913.711
171.859, 78821.648
172.342, 78888.297
172.824, 79095.633
173.306, 79288.828
173.788, 79332.328
174.270, 79298.242
174.752, 79298.344
175.234, 79400.977
175.717, 79534.844
176.199, 79625.102
176.681, 79673.203
177.163, 79691.742
177.645, 79646.289
178.127, 79578.570
178.609, 79580.703
179.091, 79753.594
179.573, 79985.469
180.055, 80104.539
180.538, 80112.562
181.020, 80047.047
181.502, 79864.781
181.984, 79621.391
182.466, 79492.633
182.948, 79588.344
183.430, 79832.797
183.913, 80085.141
184.395, 80352.633
184.877, 80584.477
185.359, 80663.953
185.841, 80636.727
186.323, 80730.453
186.805, 81145.312
187.287, 81753.773
187.769, 82123.672
188.251, 82234.617
188.734, 82238.883
189.216, 82318.797
189.698, 82465.273
190.180, 82582.219
190.662, 82663.188
191.144, 82691.422
191.626, 82552.359
192.108, 82213.727
192.591, 81817.023
193.073, 81585.062
193.555, 81511.953
194.037, 81391.633
194.519, 81093.453
195.001, 80643.883
195.483, 80297.352
195.965, 80069.352
196.447, 79911.047
196.930, 79759.117
197.412, 79612.688
197.894, 79483.148
198.376, 79363.633
198.858, 79254.930
199.340, 79217.102
199.822, 79254.797
200.304, 79354.281
200.786, 79503.820
201.269, 79708.312
201.751, 79930.141
202.233, 80163.031
202.715, 80408.953
203.197, 80621.156
203.679, 80785.711
204.161, 80937.461
204.643, 81132.047
205.126, 81368.156
205.608, 81644.930
206.090, 81986.891
206.572, 82411.039
207.054, 82745.797
207.536, 82969.703
208.018, 83129.828
208.500, 83314.852
208.982, 83537.719
209.465, 83736.898
209.947, 83902.203
210.429, 84043.547
210.911, 84080.703
211.393, 84015.250
211.875, 83843.977
212.357, 83554.211
212.839, 83128.938
213.322, 82623.109
213.804, 82054.719
214.286, 81416.922
214.768, 80724.492
215.250, 79930.969
215.732, 79121.859
216.214, 78442.438
216.696, 77920.797
217.178, 77461.477
217.661, 77027.047
218.143, 76605.406
218.625, 76252.117
219.107, 75983.359
219.589, 75774.422
220.071, 75589.320
220.553, 75447.367
221.036, 75292.367
221.518, 75103.906
222.000, 74869.867
222.482, 74638.750
222.964, 74393.977
223.446, 74164.656
223.928, 74010.906
224.410, 73951.227
224.892, 73931.438
225.374, 73948.953
225.857, 74031.047
226.339, 74029.906
226.821, 73899.312
227.303, 73715.203
227.785, 73613.461
228.267, 73631.523
228.749, 73664.773
229.231, 73675.883
229.714, 73652.898
230.196, 73656.203
230.678, 73683.453
231.160, 73738.508
231.642, 73830.508
232.124, 73977.211
232.606, 74129.773
233.088, 74274.383
233.570, 74409.383
234.053, 74535.461
234.535, 74647.078
235.017, 74752.609
235.499, 74857.609
235.981, 74932.250
236.463, 75060.180
236.945, 75281.469
237.427, 75617.383
237.910, 75915.344
238.392, 76159.922
238.874, 76375.328
239.356, 76592.859
239.838, 76811.594
240.320, 77032.758
240.802, 77243.750
241.284, 77430.742
241.766, 77703.703
242.249, 78106.703
242.731, 78560.109
243.213, 78966.211
243.695, 79305.406
244.177, 79631.391
244.659, 79951.547
245.141, 80264.977
245.623, 80597.523
246.105, 80976.812
246.588, 81352.844
247.070, 81668.438
247.552, 81904.961
248.034, 82118.992
248.516, 82340.781
248.998, 82578.867
249.480, 82681.648
249.962, 82615.562
250.445, 82451.188
250.927, 82251.898
251.409, 82004.109
251.891, 81749.312
252.373, 81509.523
252.855, 81283.211
253.337, 80982.930
253.819, 80576.406
254.301, 80137.273
254.784, 79733.883
255.266, 79367.109
255.748, 79025.953
256.230, 78707.359
256.712, 78411.797
257.194, 78166.109
257.676, 77984.656
258.158, 77836.547
258.641, 77697.812
259.123, 77565.898
259.605, 77448.523
260.087, 77342.773
260.569, 77251.477
261.051, 77191.242
261.533, 77177.953
262.015, 77169.797
262.497, 77136.203
262.980, 77068.008
263.462, 77001.500
263.944, 76933.633
264.426, 76870.992
264.908, 76849.500
265.390, 76888.969
265.872, 76929.281
266.354, 76939.422
266.837, 76921.117
267.319, 76861.570
267.801, 76745.938
268.283, 76594.953
268.765, 76475.102
269.247, 76396.023
269.729, 76323.094
270.211, 76239.039
270.694, 76142.992
271.176, 76045.430
271.658, 75955.789
272.140, 75857.969
272.622, 75700.930
273.104, 75462.070
273.586, 75244.219
274.068, 75099.570
274.550, 75036.242
275.033, 74981.820
275.515, 74938.633
275.997, 74900.906
276.479, 74862.352
276.961, 74824.773
277.443, 74776.367
277.925, 74707.352
278.407, 74617.773
278.889, 74545.453
279.372, 74497.250
279.854, 74452.719
280.336, 74365.812
280.818, 74227.578
281.300, 74142.812
281.782, 74173.750
282.264, 74301.508
282.746, 74365.047
283.228, 74357.562
283.711, 74310.477
284.193, 74250.609
284.675, 74177.930
285.157, 74107.094
285.639, 74039.320
286.121, 73977.297
286.603, 73926.156
287.086, 73884.781
287.568, 73862.039
288.050, 73872.203
288.532, 73912.797
289.014, 73960.156
289.496, 74017.969
289.978, 74072.602
290.460, 74076.523
290.942, 74029.000
291.424, 73980.938
291.907, 73971.641
292.389, 73996.609
292.871, 74036.344
293.353, 74093.391
293.835, 74154.727
294.317, 74197.258
294.799, 74221.453
295.281, 74234.633
295.764, 74222.992
296.246, 74202.820
296.728, 74231.312
297.210, 74330.344
297.692, 74440.188
298.174, 74473.977
298.656, 74442.883
299.138, 74394.219
299.621, 74330.359
300.103, 74272.328
300.585, 74269.273
301.067, 74331.227
301.549, 74411.188
302.031, 74458.852
302.513, 74483.438
302.995, 74507.609
303.477, 74554.969
303.960, 74602.703
304.442, 74617.273
304.924, 74596.383
305.406, 74567.344
305.888, 74551.211
306.370, 74543.703
306.852, 74537.500
307.334, 74511.180
307.816, 74496.711
308.299, 74534.273
308.781, 74620.523
309.263, 74708.359
309.745, 74778.711
310.227, 74828.312
310.709, 74850.406
311.191, 74812.117
311.673, 74780.367
312.155, 74820.383
312.638, 74914.430
313.120, 74984.852
313.602, 74959.148
314.084, 74908.852
314.566, 74898.406
315.048, 74962.523
315.530, 75030.023
316.013, 75063.961
316.495, 75074.258
316.977, 75085.047
317.459, 75092.047
317.941, 75112.344
318.423, 75166.898
318.905, 75281.148
319.387, 75359.719
319.869, 75330.742
320.352, 75252.992
320.834, 75217.023
321.316, 75302.531
321.798, 75387.008
322.280, 75410.406
322.762, 75355.562
323.244, 75331.953
323.726, 75388.672
324.208, 75475.547
324.691, 75542.281
325.173, 75567.031
325.655, 75585.852
326.137, 75614.070
326.619, 75652.047
327.101, 75657.844
327.583, 75562.953
328.065, 75475.109
328.547, 75466.633
329.030, 75644.602
329.512, 75772.219
329.994, 75814.938
330.476, 75789.617
330.958, 75780.250
331.440, 75783.297
331.922, 75805.992
332.404, 75852.648
332.887, 75932.031
333.369, 76021.031
333.851, 76132.977
334.333, 76248.922
334.815, 76327.750
335.297, 76355.969
335.779, 76369.453
336.261, 76371.094
336.743, 76349.969
337.226, 76384.789
337.708, 76500.047
338.190, 76642.227
338.672, 76744.578
339.154, 76800.203
339.636, 76838.656
340.118, 76853.656
340.600, 76851.562
341.083, 76920.477
341.565, 77078.398
342.047, 77252.711
342.529, 77368.227
343.011, 77421.547
343.493, 77485.273
343.975, 77574.133
344.457, 77680.172
344.940, 77789.812
345.422, 77903.359
345.904, 78003.430
346.386, 78049.891
346.868, 78060.219
347.350, 78141.094
347.832, 78315.781
348.314, 78533.383
348.796, 78694.039
349.279, 78811.000
349.761, 78979.711
350.243, 79304.391
350.725, 79705.523
351.207, 80004.953
351.689, 80182.609
352.171, 80355.273
352.653, 80638.789
353.135, 81009.727
353.618, 81407.117
354.100, 81804.797
354.582, 82212.180
355.064, 82651.102
355.546, 83117.398
356.028, 83582.398
356.510, 84023.500
356.992, 84452.281
357.474, 84881.570
357.957, 85307.281
358.439, 85745.523
358.921, 86237.227
359.403, 86756.961
359.885, 87225.422
360.367, 87589.742
360.849, 87897.172
361.332, 88186.922
361.814, 88480.523
362.296, 88710.820
362.778, 88871.438
363.260, 88949.930
363.742, 88927.328
364.224, 88709.633
364.706, 88468.711
365.188, 88279.531
365.671, 88154.398
366.153, 87991.547
366.635, 87707.383
367.117, 87410.102
367.599, 87190.812
368.081, 87116.117
368.563, 87056.852
369.045, 87022.977
369.527, 87004.562
370.010, 86917.609
370.492, 86699.852
370.974, 86471.281
371.456, 86292.273
371.938, 86214.680
372.420, 86096.633
372.902, 85929.828
373.384, 85724.656
373.866, 85502.297
374.349, 85252.641
374.831, 85006.852
375.313, 84779.438
375.795, 84571.102
376.277, 84359.031
376.759, 84138.219
377.241, 83925.898
377.723, 83756.242
378.206, 83643.430
378.688, 83485.289
379.170, 83239.703
379.652, 82934.273
380.134, 82656.406
380.616, 82387.727
381.098, 82260.906
381.580, 82127.047
382.062, 81994.156
382.545, 81861.383
383.027, 81728.547
383.509, 81595.422
383.991, 81462.727
384.473, 81329.180
384.955, 81197.758
385.437, 81137.906
385.919, 81077.227
386.402, 80969.641
386.884, 80809.062
387.366, 80640.039
387.848, 80486.297
388.330, 80354.680
388.812, 80262.523
389.294, 80237.422
389.776, 80236.789
390.259, 80227.531
390.741, 80210.156
391.223, 80187.141
391.705, 80160.477
392.187, 80128.703
392.669, 80089.297
393.151, 80037.594
393.633, 79986.812
394.115, 79936.359
394.598, 79892.297
395.080, 79867.352
395.562, 79892.047
396.044, 79914.492
396.526, 79900.633
397.008, 79834.523
397.490, 79807.953
397.972, 79899.500
398.454, 80011.258
398.937, 80049.773
399.419, 79905.812
399.901, 79800.773
400.383, 79770.977
400.865, 79809.297
401.347, 79860.898
401.829, 79946.250
402.311, 80023.227
402.793, 80068.242
403.276, 80058.297
403.758, 80071.273
404.240, 80125.031
404.722, 80190.547
405.204, 80206.203
405.686, 80153.977
406.168, 80106.430
406.651, 80092.406
407.133, 80110.141
407.615, 80100.344
408.097, 80049.812
408.579, 80014.148
409.061, 80073.969
409.543, 80224.453
410.025, 80319.242
410.507, 80310.633
410.990, 80247.219
411.472, 80222.750
411.954, 80236.391
412.436, 80273.609
412.918, 80351.938
413.400, 80444.750
413.882, 80483.227
414.364, 80456.977
414.846, 80408.773
415.329, 80356.562
415.811, 80315.406
416.293, 80317.812
416.775, 80417.430
417.257, 80539.906
417.739, 80624.148
418.221, 80671.297
418.703, 80697.094
419.185, 80687.156
419.668, 80672.180
420.150, 80679.773
420.632, 80721.328
421.114, 80777.344
421.596, 80854.203
422.078, 80939.750
422.560, 81008.023
423.042, 81050.070
423.525, 81076.539
424.007, 81083.852
424.489, 81063.039
424.971, 81067.047
425.453, 81152.406
425.935, 81235.773
426.417, 81239.492
426.899, 81041.180
427.382, 80950.453
427.864, 81043.977
428.346, 81278.883
428.828, 81444.898
429.310, 81527.297
429.792, 81567.820
430.274, 81579.828
430.756, 81556.602
431.238, 81537.703
431.721, 81518.547
432.203, 81512.148
432.685, 81549.477
433.167, 81633.773
433.649, 81698.047
434.131, 81711.562
434.613, 81692.531
435.095, 81691.453
435.578, 81708.211
436.060, 81747.617
436.542, 81839.633
437.024, 81957.477
437.506, 82024.508
437.988, 82017.062
438.470, 81987.461
438.952, 82000.727
439.434, 82038.828
439.917, 82054.922
440.399, 81965.547
440.881, 81883.211
441.363, 81939.203
441.845, 82135.344
442.327, 82299.820
442.809, 82276.977
443.291, 82206.492
443.773, 82222.070
444.256, 82448.570
444.738, 82649.094
445.220, 82748.156
445.702, 82766.703
446.184, 82761.359
446.666, 82683.500
447.148, 82637.250
447.630, 82678.883
448.112, 82854.359
448.595, 82953.328
449.077, 82909.820
449.559, 82834.859
450.041, 82842.156
450.523, 82986.891
451.005, 83095.133
451.487, 83131.188
451.970, 83113.609
452.452, 83116.883
452.934, 83139.281
453.416, 83188.188
453.898, 83272.961
454.380, 83394.609
454.862, 83525.953
455.344, 83674.891
455.826, 83809.008
456.309, 83880.477
456.791, 83896.500
457.273, 83906.727
457.755, 83920.344
458.237, 83943.562
458.719, 83996.977
459.201, 84076.008
459.683, 84149.180
460.165, 84181.570
460.648, 84199.422
461.130, 84237.977
461.612, 84304.594
462.094, 84380.453
462.576, 84433.539
463.058, 84490.773
463.540, 84591.961
464.022, 84809.133
464.504, 85021.031
464.987, 85164.961
465.469, 85245.633
465.951, 85328.156
466.433, 85458.133
466.915, 85574.039
467.397, 85634.531
467.879, 85556.547
468.361, 85560.898
468.844, 85709.211
469.326, 85920.258
469.808, 86062.156
470.290, 86075.523
470.772, 86128.078
471.254, 86277.148
471.736, 86513.359
472.218, 86695.977
472.701, 86818.406
473.183, 86908.797
473.665, 86976.453
474.147, 87020.312
474.629, 87088.508
475.111, 87184.688
475.593, 87308.133
476.075, 87464.227
476.557, 87650.023
477.039, 87845.203
477.522, 88048.531
478.004, 88251.898
478.486, 88449.852
478.968, 88641.398
479.450, 88814.359
479.932, 88941.078
480.414, 89051.461
480.897, 89179.461
481.379, 89326.250
481.861, 89504.070
482.343, 89748.227
482.825, 90022.422
483.307, 90264.969
483.789, 90408.273
484.271, 90559.898
484.753, 90785.742
485.236, 91085.594
485.718, 91323.430
486.200, 91393.594
486.682, 91461.852
487.164, 91626.133
487.646, 91958.648
488.128, 92259.539
488.610, 92531.570
489.092, 92770.648
489.575, 92959.547
490.057, 93071.609
490.539, 93218.773
491.021, 93449.180
491.503, 93747.539
491.985, 93996.750
492.467, 94195.508
492.949, 94362.367
493.431, 94495.227
493.914, 94602.508
494.396, 94736.180
494.878, 94912.883
495.360, 95081.922
495.842, 95188.328
496.324, 95237.859
496.806, 95249.656
497.289, 95201.773
497.771, 95140.094
498.253, 95114.289
498.735, 95118.203
499.217, 95115.359
499.699, 95105.633
500.181, 95068.648
500.663, 94982.531
501.145, 94825.969
501.628, 94670.938
502.110, 94540.289
502.592, 94421.430
503.074, 94300.297
503.556, 94188.688
504.038, 94058.688
504.520, 93896.656
505.002, 93708.797
505.484, 93546.094
505.967, 93440.789
506.449, 93309.383
506.931, 93104.602
507.413, 92810.117
507.895, 92514.156
508.377, 92204.000
508.859, 91918.977
509.341, 91730.633
509.823, 91633.367
510.306, 91523.758
510.788, 91376.297
511.270, 91200.852
511.752, 91003.617
512.234, 90789.344
512.716, 90588.023
513.198, 90411.039
513.680, 90263.094
514.162, 90167.328
514.645, 90128.773
515.127, 90075.148
515.609, 89949.578
516.091, 89786.773
516.573, 89622.953
517.055, 89458.930
517.537, 89310.000
518.019, 89168.547
518.502, 89045.539
518.984, 88968.203
519.466, 88990.250
519.948, 89010.641
520.430, 88995.617
520.912, 88941.797
521.394, 88894.633
521.876, 88852.203
522.359, 88818.820
522.841, 88813.648
523.323, 88860.617
523.805, 88808.844
524.287, 88611.719
524.769, 88361.570
525.251, 88240.328
525.733, 88242.727
526.216, 88260.000
526.698, 88252.211
527.180, 88229.594
527.662, 88211.008
528.144, 88196.773
528.626, 88191.711
529.108, 88209.406
529.590, 88233.898
530.072, 88247.023
530.555, 88247.953
531.037, 88229.148
531.519, 88150.688
532.001, 88060.383
532.483, 88021.023
532.965, 88110.828
533.447, 88191.492
533.929, 88211.359
534.411, 88184.383
534.894, 88181.078
535.376, 88237.461
535.858, 88287.688
536.340, 88297.812
536.822, 88252.398
537.304, 88273.438
537.786, 88396.719
538.268, 88530.367
538.750, 88574.102
539.233, 88516.828
539.715, 88486.688
540.197, 88507.039
540.679, 88554.492
541.161, 88586.656
541.643, 88605.703
542.125, 88628.828
542.607, 88667.102
543.089, 88713.469
543.572, 88761.594
544.054, 88810.219
544.536, 88847.117
545.018, 88852.273
545.500, 88847.812
545.982, 88852.211
546.464, 88864.781
546.946, 88899.406
547.429, 88985.727
547.911, 89089.648
548.393, 89167.047
548.875, 89168.617
549.357, 89190.977
549.839, 89258.539
550.321, 89360.977
550.803, 89458.188
551.286, 89548.203
551.768, 89637.617
552.250, 89726.383
552.732, 89812.797
553.214, 89914.906
553.696, 90029.953
554.178, 90169.641
554.660, 90355.273
555.143, 90579.844
555.625, 90806.000
556.107, 91033.180
556.589, 91246.633
557.071, 91392.477
557.553, 91506.547
558.035, 91690.461
558.517, 92054.797
558.999, 92463.383
559.482, 92787.523
559.964, 93043.578
560.446, 93316.297
560.928, 93643.312
561.410, 94003.961
561.892, 94388.602
562.374, 94810.453
562.856, 95215.977
563.338, 95723.477
563.821, 96140.188
564.303, 96280.172
564.785, 96019.633
565.267, 95735.000
565.749, 95478.617
566.231, 95209.797
566.713, 94817.297
567.195, 94281.953
567.677, 93730.000
568.160, 93210.148
568.642, 92719.172
569.124, 92269.391
569.606, 91857.242
570.088, 91497.977
570.570, 91206.930
571.052, 90970.094
571.534, 90764.227
572.016, 90583.242
572.499, 90448.562
572.981, 90395.203
573.463, 90390.844
573.945, 90394.883
574.427, 90396.188
574.909, 90402.070
575.391, 90432.609
575.873, 90471.922
576.356, 90468.727
576.838, 90397.352
577.320, 90305.492
577.802, 90174.820
578.284, 90001.703
578.766, 89993.578
579.248, 90223.203
579.730, 90457.703
580.213, 90488.938
580.695, 90320.062
581.177, 90240.008
581.659, 90281.852
582.141, 90373.398
582.623, 90435.977
583.105, 90472.594
583.587, 90491.148
584.070, 90483.641
584.552, 90473.344
585.034, 90495.961
585.516, 90536.812
585.998, 90554.227
586.480, 90465.258
586.962, 90400.391
587.444, 90466.141
587.927, 90670.469
588.409, 90807.977
588.891, 90775.008
589.373, 90711.500
589.855, 90700.477
590.337, 90774.688
