##NAMES=Churchite-(Y)
##RRUFFID=R060424
##IDEAL CHEMISTRY=YPO_4_&#183;2H_2_O
##LOCALITY=Indian Mountain, Cherokee County, Alabama, USA
##OWNER=RRUFF
##SOURCE=Michael Scott
##DESCRIPTION=Spray of colorless acicular crystals
##STATUS=The identification of this mineral is confirmed by single-crystal X-ray diffraction and chemical analysis.
##URL=rruff.info/R060424
##MEASURED CHEMISTRY=(Y_0.93_Dy_0.03_Er_0.02_Gd_0.02_Yb_0.01_Ho_0.01_Tm_0.01_Ca_0.01_Fe_0.01_)_Σ=1.05_(P_0.94_Al_0.01_)_Σ=0.95_O_4_·0.57H_2_O
173.9593, 173.3594
174.4414, 175.8696
174.9236, 179.3772
175.4057, 182.0464
175.8878, 183.8836
176.3699, 185.7686
176.8520, 188.8951
177.3341, 192.6540
177.8163, 195.7270
178.2984, 197.0814
178.7805, 197.5679
179.2626, 198.5947
179.7447, 200.2370
180.2268, 201.6024
180.7090, 201.3997
181.1911, 200.0852
181.6732, 199.0626
182.1553, 198.4317
182.6374, 198.5949
183.1195, 200.8086
183.6017, 205.3682
184.0838, 210.5336
184.5659, 214.0983
185.0480, 216.4077
185.5301, 219.4137
186.0123, 224.6263
186.4944, 231.3115
186.9765, 236.8934
187.4586, 241.1888
187.9407, 244.9503
188.4228, 249.5921
188.9050, 254.9468
189.3871, 259.4177
189.8692, 262.0774
190.3513, 263.1034
190.8334, 263.3525
191.3155, 262.8505
191.7977, 261.6293
192.2798, 259.9391
192.7619, 257.7896
193.2440, 254.4472
193.7261, 248.6007
194.2082, 240.6088
194.6904, 234.5860
195.1725, 231.1245
195.6546, 228.9312
196.1367, 225.8019
196.6188, 221.6709
197.1009, 217.3492
197.5831, 213.0041
198.0652, 208.5975
198.5473, 205.0869
199.0294, 202.4533
199.5115, 200.8116
199.9937, 200.6922
200.4758, 202.2814
200.9579, 204.1459
201.4400, 205.2440
201.9221, 205.4391
202.4042, 206.7963
202.8864, 209.6089
203.3685, 213.4527
203.8506, 217.5208
204.3327, 221.8838
204.8148, 226.0278
205.2969, 229.3760
205.7791, 231.6751
206.2612, 235.1148
206.7433, 240.1504
207.2254, 246.1407
207.7075, 251.6269
208.1896, 256.7737
208.6718, 260.9893
209.1539, 264.1123
209.6360, 266.2115
210.1181, 266.8279
210.6002, 266.0172
211.0823, 263.6914
211.5645, 259.4915
212.0466, 253.1772
212.5287, 245.5224
213.0108, 236.6386
213.4929, 225.9726
213.9750, 215.9960
214.4572, 206.6067
214.9393, 198.0969
215.4214, 191.2542
215.9035, 186.6170
216.3856, 182.4919
216.8678, 177.9357
217.3499, 172.4333
217.8320, 168.0332
218.3141, 165.1922
218.7962, 163.4259
219.2783, 161.1797
219.7605, 158.0370
220.2426, 155.1970
220.7247, 153.4165
221.2068, 153.1352
221.6889, 152.6517
222.1710, 151.8229
222.6532, 150.7659
223.1353, 149.8539
223.6174, 149.0504
224.0995, 148.4412
224.5816, 148.0496
225.0637, 147.8159
225.5459, 148.0148
226.0280, 149.0109
226.5101, 150.3697
226.9922, 150.5969
227.4743, 148.8953
227.9564, 147.3214
228.4386, 146.9294
228.9207, 148.2905
229.4028, 149.4659
229.8849, 150.4224
230.3670, 151.1750
230.8492, 151.7119
231.3313, 151.6398
231.8134, 151.9352
232.2955, 153.2099
232.7776, 156.2682
233.2597, 158.3256
233.7419, 158.8413
234.2240, 158.5000
234.7061, 159.1230
235.1882, 161.2393
235.6703, 163.5102
236.1524, 165.3523
236.6346, 166.4172
237.1167, 167.8604
237.5988, 169.8559
238.0809, 172.1665
238.5630, 174.2771
239.0451, 176.1010
239.5273, 177.8269
240.0094, 179.4626
240.4915, 180.7859
240.9736, 182.5884
241.4557, 184.8359
241.9378, 187.5775
242.4200, 191.0294
242.9021, 195.9143
243.3842, 200.4317
243.8663, 203.7305
244.3484, 205.0806
244.8306, 207.4801
245.3127, 211.4931
245.7948, 216.2332
246.2769, 220.0207
246.7590, 222.3830
247.2411, 224.5302
247.7233, 226.8450
248.2054, 229.3571
248.6875, 232.0678
249.1696, 235.6182
249.6517, 238.9229
250.1338, 240.0659
250.6160, 238.1673
251.0981, 235.6875
251.5802, 233.4104
252.0623, 231.4539
252.5444, 229.0114
253.0265, 225.9550
253.5087, 222.5367
253.9908, 219.1519
254.4729, 215.7577
254.9550, 212.4290
255.4371, 209.0636
255.9192, 205.5985
256.4014, 202.8255
256.8835, 200.7199
257.3656, 199.3326
257.8477, 198.8080
258.3298, 199.6066
258.8120, 200.2075
259.2941, 200.0272
259.7762, 198.9626
260.2583, 199.0022
260.7404, 200.6968
261.2225, 202.8064
261.7047, 203.9153
262.1868, 203.4715
262.6689, 203.4903
263.1510, 204.5819
263.6331, 206.6938
264.1152, 208.2987
264.5974, 209.2814
265.0795, 209.9148
265.5616, 210.5774
266.0437, 211.5950
266.5258, 211.5526
267.0079, 209.8742
267.4901, 206.7878
267.9722, 204.5810
268.4543, 203.6765
268.9364, 202.7710
269.4185, 200.7162
269.9006, 197.2610
270.3828, 193.7449
270.8649, 190.2308
271.3470, 186.8000
271.8291, 183.8404
272.3112, 181.4511
272.7933, 179.1710
273.2755, 176.6290
273.7576, 173.7450
274.2397, 171.1023
274.7218, 168.8041
275.2039, 166.7870
275.6860, 164.8842
276.1682, 163.0843
276.6503, 161.3747
277.1324, 159.6416
277.6145, 157.8629
278.0966, 156.6369
278.5787, 156.1484
279.0609, 156.0849
279.5430, 155.8333
280.0251, 155.4155
280.5072, 154.7052
280.9893, 153.4401
281.4715, 151.6372
281.9536, 150.2879
282.4357, 149.4952
282.9178, 149.0460
283.3999, 148.6462
283.8820, 148.2994
284.3642, 147.8836
284.8463, 147.1650
285.3284, 146.2056
285.8105, 145.8782
286.2926, 146.2913
286.7747, 146.9757
287.2569, 147.3997
287.7390, 147.5590
288.2211, 147.3882
288.7032, 146.6810
289.1853, 145.5925
289.6674, 144.8411
290.1496, 144.4601
290.6317, 144.1800
291.1138, 143.5627
291.5959, 142.6976
292.0780, 142.2375
292.5602, 142.6319
293.0423, 143.4868
293.5244, 143.7601
294.0065, 143.4334
294.4886, 142.9320
294.9707, 142.5702
295.4529, 142.3369
295.9350, 142.2009
296.4171, 142.1667
296.8992, 142.2099
297.3813, 142.3341
297.8634, 142.5282
298.3456, 142.6680
298.8277, 142.6486
299.3098, 142.5047
299.7919, 142.2402
300.2740, 141.6974
300.7561, 141.3248
301.2383, 141.9470
301.7204, 143.3695
302.2025, 144.6669
302.6846, 145.2385
303.1667, 145.3298
303.6488, 145.2910
304.1310, 145.1505
304.6131, 144.9593
305.0952, 144.6452
305.5773, 144.3024
306.0594, 144.1857
306.5415, 144.8750
307.0237, 145.6368
307.5058, 145.5342
307.9879, 144.3558
308.4700, 143.1768
308.9521, 142.8149
309.4343, 143.0122
309.9164, 143.2984
310.3985, 143.4223
310.8806, 143.5930
311.3627, 144.1964
311.8448, 145.2627
312.3270, 145.8214
312.8091, 144.5621
313.2912, 142.7015
313.7733, 141.6771
314.2554, 142.7504
314.7375, 144.1378
315.2197, 145.1733
315.7018, 145.8245
316.1839, 145.8236
316.6660, 144.0455
317.1481, 142.0837
317.6302, 141.3005
318.1124, 143.1136
318.5945, 144.7728
319.0766, 145.0365
319.5587, 144.3321
320.0408, 144.1478
320.5229, 145.7903
321.0051, 147.4914
321.4872, 148.1645
321.9693, 146.8378
322.4514, 145.9835
322.9335, 146.4004
323.4156, 147.5990
323.8978, 148.6357
324.3799, 149.6236
324.8620, 150.1858
325.3441, 150.0456
325.8262, 148.8393
326.3083, 148.0252
326.7905, 147.9707
327.2726, 148.2834
327.7547, 148.4794
328.2368, 148.3523
328.7189, 148.3073
329.2010, 148.4939
329.6832, 148.9530
330.1653, 149.1587
330.6474, 148.6987
331.1295, 148.2825
331.6116, 148.5025
332.0938, 149.7390
332.5759, 151.0418
333.0580, 152.5493
333.5401, 154.1329
334.0222, 154.6375
334.5043, 153.4078
334.9865, 152.0093
335.4686, 151.3400
335.9507, 151.5235
336.4328, 152.1716
336.9149, 153.5418
337.3970, 155.2407
337.8792, 156.0746
338.3613, 155.7399
338.8434, 155.4354
339.3255, 155.7169
339.8076, 156.6583
340.2898, 157.6484
340.7719, 158.6889
341.2540, 159.7941
341.7361, 161.0469
342.2182, 162.4448
342.7003, 163.8202
343.1825, 165.1027
343.6646, 166.3092
344.1467, 167.3857
344.6288, 168.2840
345.1109, 169.3390
345.5930, 170.9272
346.0752, 173.0050
346.5573, 175.3741
347.0394, 178.1818
347.5215, 181.0959
348.0036, 183.3747
348.4857, 185.0181
348.9679, 186.5190
349.4500, 187.8967
349.9321, 189.4151
350.4142, 191.9338
350.8963, 195.7967
351.3784, 200.1606
351.8606, 204.0590
352.3427, 207.5079
352.8248, 210.6484
353.3069, 212.7400
353.7890, 214.8447
354.2711, 218.7311
354.7533, 224.6730
355.2354, 230.9505
355.7175, 235.8579
356.1996, 240.0635
356.6817, 244.7327
357.1638, 250.9421
357.6460, 257.3664
358.1281, 262.9557
358.6102, 267.7418
359.0923, 272.6216
359.5744, 278.8113
360.0565, 284.9721
360.5387, 289.8092
361.0208, 292.8119
361.5029, 294.6292
361.9850, 295.7326
362.4671, 295.9122
362.9492, 294.4728
363.4314, 290.1250
363.9135, 284.8589
364.3956, 279.6591
364.8777, 274.4929
365.3598, 269.7664
365.8419, 265.7550
366.3241, 262.1908
366.8062, 258.7008
367.2883, 254.6751
367.7704, 251.2541
368.2526, 248.9385
368.7347, 247.9661
369.2168, 246.7200
369.6989, 244.8418
370.1810, 242.8765
370.6631, 241.2331
371.1453, 239.8078
371.6274, 238.9083
372.1095, 239.0969
372.5916, 240.0208
373.0737, 239.2579
373.5558, 236.0112
374.0380, 232.2537
374.5201, 228.9341
375.0022, 226.0517
375.4843, 223.7879
375.9664, 222.4138
376.4485, 221.4309
376.9307, 219.7740
377.4128, 217.3333
377.8949, 214.7487
378.3770, 212.3760
378.8591, 210.1931
379.3412, 207.3545
379.8234, 203.7217
380.3055, 200.0047
380.7876, 197.1228
381.2697, 195.0111
381.7518, 192.9342
382.2339, 190.6497
382.7161, 188.3220
383.1982, 186.3065
383.6803, 184.6149
384.1624, 183.0660
384.6445, 181.5740
385.1266, 180.1378
385.6088, 178.7583
386.0909, 177.4470
386.5730, 176.1705
387.0551, 174.8457
387.5372, 173.5346
388.0193, 172.3909
388.5015, 171.5137
388.9836, 170.8479
389.4657, 170.4212
389.9478, 170.2432
390.4299, 169.9917
390.9120, 169.5614
391.3942, 168.8928
391.8763, 167.9118
392.3584, 166.1343
392.8405, 164.4775
393.3226, 163.4657
393.8047, 162.9992
394.2869, 162.6212
394.7690, 162.1336
395.2511, 161.6939
395.7332, 161.4077
396.2154, 161.3491
396.6975, 161.3260
397.1796, 161.1974
397.6617, 161.0954
398.1438, 161.2437
398.6259, 162.0992
399.1081, 162.7911
399.5902, 163.0747
400.0723, 162.9157
400.5544, 162.5664
401.0365, 161.8650
401.5186, 161.0868
402.0008, 160.4441
402.4829, 159.8617
402.9650, 159.5619
403.4471, 159.7022
403.9292, 160.1417
404.4113, 160.2833
404.8935, 160.0696
405.3756, 159.6961
405.8577, 159.2373
406.3398, 158.6869
406.8219, 158.0932
407.3040, 157.3756
407.7862, 156.7742
408.2683, 156.8566
408.7504, 157.6603
409.2325, 157.9396
409.7146, 156.9175
410.1967, 155.1384
410.6789, 154.4437
411.1610, 154.8631
411.6431, 155.6165
412.1252, 156.2120
412.6073, 156.6181
413.0894, 156.6983
413.5716, 156.3601
414.0537, 155.8318
414.5358, 155.2527
415.0179, 154.6865
415.5000, 154.3249
415.9821, 154.3270
416.4643, 154.5572
416.9464, 154.9013
417.4285, 155.3501
417.9106, 155.8626
418.3927, 156.6613
418.8748, 157.4240
419.3570, 157.7556
419.8391, 157.1768
420.3212, 156.4820
420.8033, 155.9620
421.2854, 155.5980
421.7675, 155.2807
422.2497, 154.8182
422.7318, 154.5148
423.2139, 154.5573
423.6960, 155.0942
424.1781, 155.7000
424.6602, 156.7626
425.1424, 157.7533
425.6245, 157.8371
426.1066, 155.6317
426.5887, 154.3033
427.0709, 155.0107
427.5530, 157.7508
428.0351, 158.8737
428.5172, 157.4230
428.9993, 155.6751
429.4814, 155.4572
429.9636, 157.3844
430.4457, 158.3504
430.9278, 157.7345
431.4099, 156.3848
431.8920, 156.3640
432.3741, 157.8797
432.8563, 159.0971
433.3384, 158.8421
433.8205, 157.4293
434.3026, 157.1338
434.7847, 158.0519
435.2668, 159.2867
435.7490, 160.0609
436.2311, 160.4180
436.7132, 160.4399
437.1953, 159.9926
437.6774, 159.4417
438.1595, 159.2143
438.6417, 159.2941
439.1238, 159.6135
439.6059, 160.3493
440.0880, 161.1936
440.5701, 161.8014
441.0522, 162.1135
441.5344, 162.3647
442.0165, 162.7772
442.4986, 163.1926
442.9807, 163.4135
443.4628, 163.0866
443.9449, 162.8350
444.4271, 163.0259
444.9092, 163.5597
445.3913, 163.8608
445.8734, 163.5176
446.3555, 163.1057
446.8376, 162.9125
447.3198, 163.0608
447.8019, 163.2238
448.2840, 163.2973
448.7661, 163.4182
449.2482, 163.8114
449.7303, 164.7578
450.2125, 165.4820
450.6946, 165.7194
451.1767, 165.5235
451.6588, 165.7131
452.1409, 166.4493
452.6230, 167.2028
453.1052, 167.4929
453.5873, 167.2623
454.0694, 167.4689
454.5515, 168.3519
455.0337, 169.3557
455.5158, 169.3085
455.9979, 168.2984
456.4800, 167.6487
456.9621, 168.1528
457.4442, 169.3380
457.9264, 170.0536
458.4085, 170.3155
458.8906, 170.6116
459.3727, 171.4769
459.8548, 172.6020
460.3369, 173.4799
460.8191, 173.9976
461.3012, 174.2858
461.7833, 174.1173
462.2654, 173.8094
462.7475, 174.0192
463.2296, 175.6559
463.7118, 177.3796
464.1939, 178.3232
464.6760, 178.4309
465.1581, 178.7369
465.6402, 179.8994
466.1223, 181.1676
466.6045, 181.9967
467.0866, 181.4948
467.5687, 181.5587
468.0508, 182.6989
468.5329, 184.4300
469.0150, 185.6881
469.4972, 186.2223
469.9793, 186.6367
470.4614, 187.0670
470.9435, 187.5080
471.4256, 188.0637
471.9077, 188.6858
472.3899, 189.5243
472.8720, 190.8930
473.3541, 192.8996
473.8362, 194.2863
474.3183, 194.7341
474.8004, 194.7330
475.2826, 195.1483
475.7647, 195.9728
476.2468, 197.1107
476.7289, 198.5295
477.2110, 200.2291
477.6931, 202.4235
478.1753, 205.1160
478.6574, 207.4421
479.1395, 208.3534
479.6216, 208.5364
480.1037, 208.9342
480.5858, 209.6008
481.0680, 210.9014
481.5501, 213.8226
482.0322, 217.5417
482.5143, 220.3126
482.9964, 220.3707
483.4786, 220.2640
483.9607, 221.2648
484.4428, 223.5219
484.9249, 225.7988
485.4070, 228.1137
485.8892, 230.1906
486.3713, 231.8040
486.8534, 232.2736
487.3355, 233.2900
487.8176, 235.2340
488.2997, 237.6285
488.7819, 239.4606
489.2640, 240.4832
489.7461, 241.5064
490.2282, 242.7765
490.7103, 244.2913
491.1924, 245.8413
491.6746, 247.4218
492.1567, 249.0842
492.6388, 251.0924
493.1209, 253.3568
493.6030, 254.8314
494.0851, 255.3142
494.5673, 255.2095
495.0494, 254.7496
495.5315, 254.1085
496.0136, 253.9315
496.4957, 255.2933
496.9778, 256.8147
497.4600, 256.8556
497.9421, 255.5156
498.4242, 253.8913
498.9063, 252.6233
499.3884, 251.3635
499.8705, 249.6929
500.3527, 247.2322
500.8348, 245.1422
501.3169, 244.5182
501.7990, 244.3661
502.2811, 243.2725
502.7632, 239.6557
503.2454, 236.5265
503.7275, 234.8740
504.2096, 234.5198
504.6917, 233.3587
505.1738, 231.0069
505.6559, 228.4013
506.1381, 226.1357
506.6202, 224.4654
507.1023, 221.9189
507.5844, 218.0588
508.0665, 214.1197
508.5486, 212.1183
509.0308, 212.1004
509.5129, 211.7106
509.9950, 210.3281
510.4771, 208.2021
510.9592, 205.4766
511.4413, 202.2608
511.9235, 199.5090
512.4056, 198.0975
512.8877, 197.4299
513.3698, 196.6630
513.8519, 195.7361
514.3340, 194.6554
514.8162, 193.4412
515.2983, 192.0711
515.7804, 190.4860
516.2625, 188.1297
516.7446, 186.2440
517.2267, 185.5664
517.7089, 185.7478
518.1910, 185.9409
518.6731, 186.6665
519.1552, 186.7213
519.6373, 185.3065
520.1194, 182.1989
520.6016, 180.0550
521.0837, 179.3320
521.5658, 179.0833
522.0479, 178.6162
522.5300, 177.7872
523.0121, 177.3064
523.4943, 177.3250
523.9764, 177.5697
524.4585, 177.5904
524.9406, 177.3862
525.4227, 176.9881
525.9048, 176.2187
526.3870, 175.3579
526.8691, 175.2928
527.3513, 175.9626
527.8334, 176.4525
528.3155, 175.7606
528.7976, 174.6055
529.2797, 174.1690
529.7618, 174.7284
530.2440, 175.1572
530.7261, 174.0752
531.2082, 172.5705
531.6903, 172.0540
532.1724, 174.5140
532.6545, 176.4028
533.1367, 176.0536
533.6188, 174.1221
534.1009, 172.9566
534.5830, 173.5604
535.0651, 174.3641
535.5472, 174.8875
536.0294, 175.1070
536.5115, 175.2710
536.9936, 175.4801
537.4757, 175.4957
537.9578, 174.9452
538.4399, 173.6303
538.9221, 173.0189
539.4042, 173.3544
539.8863, 174.2787
540.3684, 175.4101
540.8505, 176.6955
541.3326, 177.4952
541.8148, 177.4253
542.2969, 176.7854
542.7790, 175.7891
543.2611, 174.5395
543.7432, 173.8091
544.2253, 174.8232
544.7075, 176.2495
545.1896, 176.5401
545.6717, 175.2624
546.1538, 174.1271
546.6359, 173.8060
547.1180, 174.1322
547.6002, 174.9358
548.0823, 176.5717
548.5644, 178.2289
549.0465, 180.0269
549.5286, 181.7610
550.0107, 182.8088
550.4929, 182.7338
550.9750, 182.6232
551.4571, 182.8266
551.9392, 183.3463
552.4213, 183.7561
552.9034, 183.9872
553.3856, 184.3257
553.8677, 185.1140
554.3498, 186.2994
554.8319, 187.1429
555.3140, 187.4575
555.7961, 187.8449
556.2783, 189.3014
556.7604, 191.4841
557.2425, 193.3911
557.7246, 194.3850
558.2067, 195.2340
558.6888, 196.6846
559.1710, 198.6171
559.6531, 200.6139
560.1352, 202.4578
560.6173, 204.3033
561.0994, 206.2375
561.5815, 208.2941
562.0637, 210.2935
562.5458, 211.9745
563.0279, 213.7322
563.5100, 215.9551
563.9921, 219.8547
564.4742, 222.0711
564.9564, 222.3090
565.4385, 221.0113
565.9206, 218.7564
566.4027, 215.4503
566.8848, 211.7231
567.3669, 207.7321
567.8491, 203.4787
568.3312, 198.8340
568.8133, 193.8488
569.2954, 189.3884
569.7775, 186.3718
570.2596, 184.1944
570.7418, 181.6985
571.2239, 178.7717
571.7060, 176.2971
572.1881, 175.2957
572.6702, 174.9535
573.1523, 174.3207
573.6345, 172.8524
574.1166, 171.6454
574.5987, 171.2926
575.0808, 171.4375
575.5629, 171.4839
576.0450, 171.1399
576.5272, 170.9202
577.0093, 171.0561
577.4914, 171.4477
577.9735, 171.4294
578.4556, 170.9516
578.9377, 170.1658
579.4199, 168.9506
579.9020, 167.3047
580.3841, 166.3113
580.8662, 166.0154
581.3483, 166.1415
581.8304, 166.7596
582.3126, 167.6242
582.7947, 167.7147
583.2768, 166.5785
583.7589, 165.4334
584.2410, 165.7599
584.7231, 167.0139
585.2053, 168.1190
585.6874, 168.5043
586.1696, 168.7222
586.6517, 169.1238
587.1338, 169.6260
587.6159, 169.8598
588.0980, 169.5507
588.5801, 169.1050
589.0623, 168.6735
589.5444, 168.2598
590.0265, 167.8118
590.5086, 167.0633
590.9907, 166.6222
591.4728, 167.1884
591.9550, 169.0351
592.4371, 170.0600
592.9192, 169.9767
593.4013, 169.3456
593.8834, 168.8719
594.3655, 168.5480
594.8477, 168.3198
595.3298, 168.2150
595.8119, 168.1479
596.2940, 168.0939
596.7761, 167.9991
597.2582, 167.6806
597.7404, 166.5410
598.2225, 165.5251
598.7046, 165.4627
599.1867, 166.3834
599.6688, 167.1193
600.1509, 167.1237
600.6331, 166.9777
601.1152, 167.0692
601.5973, 167.6567
602.0794, 167.8886
602.5615, 167.6098
603.0436, 167.1217
603.5258, 166.6812
604.0079, 166.2173
604.4900, 166.2896
604.9721, 167.2273
605.4542, 168.3990
605.9363, 168.2958
606.4185, 167.0764
606.9006, 166.1247
607.3827, 166.2033
607.8648, 166.8456
608.3469, 167.5320
608.8290, 168.2348
609.3112, 168.7588
609.7933, 168.8527
610.2754, 168.8234
610.7575, 168.8915
611.2396, 169.0844
611.7217, 169.3305
612.2039, 169.6180
612.6860, 169.9392
613.1681, 170.3172
613.6502, 171.1499
614.1323, 171.2784
614.6144, 170.2392
615.0966, 168.8858
615.5787, 168.5460
616.0608, 169.4079
616.5429, 170.1132
617.0250, 170.3502
617.5071, 170.2463
617.9893, 169.9755
618.4714, 169.5695
618.9535, 169.2722
619.4356, 169.2601
619.9177, 169.3991
620.3998, 169.4423
620.8820, 169.4250
621.3641, 169.6689
621.8462, 170.8017
622.3283, 171.9612
622.8104, 172.4075
623.2925, 171.8106
623.7747, 171.4844
624.2568, 172.0086
624.7389, 172.6762
625.2210, 172.8688
625.7031, 172.1223
626.1852, 171.9726
626.6674, 172.7406
627.1495, 173.8611
627.6316, 174.3879
628.1137, 174.3012
628.5958, 174.0785
629.0779, 173.7386
629.5601, 173.4804
630.0422, 173.7549
630.5243, 174.4889
631.0064, 175.3426
631.4885, 176.3225
631.9706, 177.2046
632.4528, 177.8181
632.9349, 178.1490
633.4170, 178.1767
633.8991, 177.4331
634.3812, 176.7314
634.8633, 176.5985
635.3455, 177.2945
635.8276, 177.9174
636.3097, 178.4270
636.7918, 178.8667
637.2739, 179.2091
637.7560, 179.3295
638.2382, 179.8988
638.7203, 181.1067
639.2024, 182.4989
639.6845, 183.4137
640.1666, 183.8857
640.6487, 184.2124
641.1309, 184.5590
641.6130, 184.6968
642.0951, 183.9572
642.5772, 182.6996
643.0594, 181.9741
643.5415, 183.0119
644.0236, 184.1001
644.5057, 184.0272
644.9879, 182.9113
645.4700, 182.1574
645.9521, 182.6881
646.4342, 183.1032
646.9163, 182.7161
647.3984, 181.3575
647.8806, 180.3563
648.3627, 179.7859
648.8448, 179.4300
649.3269, 179.1683
649.8090, 179.0025
650.2911, 178.7273
650.7733, 178.3125
651.2554, 177.8465
651.7375, 177.4851
652.2196, 177.1477
652.7017, 176.5911
653.1838, 175.5810
653.6660, 174.6565
654.1481, 174.0842
654.6302, 173.9069
655.1123, 174.1994
655.5944, 175.7581
656.0765, 176.9684
656.5587, 177.2061
657.0408, 176.6303
657.5229, 176.0062
658.0050, 175.0473
658.4871, 174.5704
658.9692, 175.0965
659.4514, 176.4747
659.9335, 176.8834
660.4156, 176.2080
660.8977, 175.5018
661.3798, 175.6107
661.8619, 176.2654
662.3441, 176.9198
662.8262, 177.5576
663.3083, 177.6536
663.7904, 176.1486
664.2725, 174.1883
664.7546, 173.0246
665.2368, 173.0101
665.7189, 173.5377
666.2010, 175.2722
666.6831, 177.0631
667.1652, 177.5005
667.6473, 175.1096
668.1295, 173.8073
