##NAMES=Churchite-(Y)
##RRUFFID=R060424
##IDEAL CHEMISTRY=YPO_4_&#183;2H_2_O
##LOCALITY=Indian Mountain, Cherokee County, Alabama, USA
##OWNER=RRUFF
##SOURCE=Michael Scott
##DESCRIPTION=Spray of colorless acicular crystals
##STATUS=The identification of this mineral is confirmed by single-crystal X-ray diffraction and chemical analysis.
##URL=rruff.info/R060424
##MEASURED CHEMISTRY=(Y_0.93_Dy_0.03_Er_0.02_Gd_0.02_Yb_0.01_Ho_0.01_Tm_0.01_Ca_0.01_Fe_0.01_)_Σ=1.05_(P_0.94_Al_0.01_)_Σ=0.95_O_4_·0.57H_2_O
176.4222, 133.3617
176.9043, 133.7628
177.3864, 133.8275
177.8685, 133.8221
178.3506, 134.1189
178.8328, 134.8122
179.3149, 135.4761
179.7970, 135.9925
180.2791, 136.4054
180.7612, 136.6712
181.2433, 136.7341
181.7255, 136.8031
182.2076, 137.3228
182.6897, 138.3805
183.1718, 139.7950
183.6539, 141.8224
184.1360, 143.9978
184.6181, 145.7295
185.1003, 146.6987
185.5824, 147.2492
186.0645, 148.6493
186.5466, 152.6536
187.0287, 155.3210
187.5108, 155.4026
187.9930, 154.0770
188.4751, 152.8297
188.9572, 152.5065
189.4393, 152.8882
189.9214, 152.7495
190.4035, 151.7937
190.8857, 150.6529
191.3678, 149.4958
191.8499, 148.2304
192.3320, 146.6164
192.8141, 144.4558
193.2962, 141.8642
193.7784, 139.7269
194.2605, 138.2675
194.7426, 136.8996
195.2247, 135.1957
195.7068, 133.3750
196.1889, 132.1185
196.6711, 131.9756
197.1532, 132.7008
197.6353, 132.9191
198.1174, 132.0709
198.5995, 131.2795
199.0816, 131.2667
199.5638, 131.9323
200.0459, 132.5772
200.5280, 132.7084
201.0101, 132.5568
201.4922, 132.7930
201.9743, 133.6500
202.4565, 134.6911
202.9386, 135.4702
203.4207, 135.9754
203.9028, 136.7407
204.3849, 138.5519
204.8670, 140.6218
205.3492, 141.7250
205.8313, 141.2395
206.3134, 140.2330
206.7955, 140.1991
207.2776, 141.4417
207.7597, 142.2367
208.2419, 141.5326
208.7240, 140.0713
209.2061, 138.5259
209.6882, 137.1884
210.1703, 135.6967
210.6524, 133.2204
211.1346, 129.1998
211.6167, 125.6920
212.0988, 123.7036
212.5809, 122.3396
213.0630, 120.6997
213.5451, 118.3938
214.0273, 115.8126
214.5094, 113.8848
214.9915, 112.9981
215.4736, 112.1008
215.9557, 110.9007
216.4378, 109.6186
216.9200, 108.4383
217.4021, 107.4451
217.8842, 106.6368
218.3663, 106.0091
218.8484, 105.4542
219.3305, 105.2967
219.8127, 105.8711
220.2948, 106.7031
220.7769, 107.2345
221.2590, 107.2104
221.7411, 106.8991
222.2232, 107.1042
222.7054, 108.6954
223.1875, 109.7690
223.6696, 109.8810
224.1517, 109.5411
224.6338, 109.1815
225.1159, 108.9867
225.5980, 109.1377
226.0802, 110.1889
226.5623, 113.7852
227.0444, 116.3217
227.5265, 116.6937
228.0086, 116.0990
228.4907, 116.0785
228.9729, 117.2942
229.4550, 119.2840
229.9371, 120.8594
230.4192, 121.8898
230.9013, 122.7514
231.3834, 123.2147
231.8656, 123.6007
232.3477, 124.4802
232.8298, 126.1310
233.3119, 128.1248
233.7940, 129.4614
234.2761, 129.8205
234.7583, 130.4542
235.2404, 131.9966
235.7225, 133.9662
236.2046, 135.4997
236.6867, 136.2655
237.1688, 136.6306
237.6510, 137.1187
238.1331, 137.6110
238.6152, 138.5959
239.0973, 140.7559
239.5794, 143.4991
240.0615, 145.4583
240.5437, 146.0925
241.0258, 146.2227
241.5079, 146.8676
241.9900, 147.9892
242.4721, 149.3940
242.9542, 151.3658
243.4364, 153.5681
243.9185, 155.0602
244.4006, 155.4491
244.8827, 155.4639
245.3648, 156.0294
245.8469, 157.0401
246.3290, 157.5452
246.8112, 156.6748
247.2933, 154.9048
247.7754, 153.7412
248.2575, 153.6769
248.7396, 153.7323
249.2217, 153.2543
249.7039, 152.2996
250.1860, 150.9990
250.6681, 149.3504
251.1502, 147.4023
251.6323, 145.2259
252.1144, 142.5469
252.5966, 140.1339
253.0787, 138.5395
253.5608, 137.5177
254.0429, 136.5087
254.5250, 135.2617
255.0071, 133.7925
255.4893, 132.0422
255.9714, 129.5415
256.4535, 127.5743
256.9356, 126.7973
257.4177, 126.8208
257.8998, 127.0267
258.3820, 127.1163
258.8641, 127.1307
259.3462, 127.2379
259.8283, 127.5818
260.3104, 127.7692
260.7925, 127.7530
261.2747, 127.5152
261.7568, 126.9473
262.2389, 125.8933
262.7210, 124.6582
263.2031, 124.2536
263.6852, 125.6093
264.1674, 126.1694
264.6495, 124.9178
265.1316, 122.8732
265.6137, 121.1196
266.0958, 120.1338
266.5779, 119.5907
267.0601, 118.7127
267.5422, 117.2621
268.0243, 115.8988
268.5064, 114.8675
268.9885, 113.8769
269.4706, 112.6335
269.9528, 111.0403
270.4349, 109.2939
270.9170, 107.7266
271.3991, 106.2267
271.8812, 105.1971
272.3633, 105.0337
272.8455, 105.0299
273.3276, 104.6864
273.8097, 103.8695
274.2918, 102.7324
274.7739, 101.3969
275.2560, 99.35618
275.7382, 98.26662
276.2202, 98.78016
276.7024, 99.54424
277.1845, 99.71192
277.6666, 99.17195
278.1487, 98.34084
278.6308, 97.67396
279.1129, 97.10573
279.5951, 96.97179
280.0772, 97.77728
280.5593, 98.50510
281.0414, 98.57539
281.5235, 98.02026
282.0056, 97.22771
282.4878, 96.52803
282.9699, 95.88306
283.4520, 95.61987
283.9341, 96.08514
284.4162, 96.53703
284.8983, 96.68886
285.3805, 96.57150
285.8626, 96.30505
286.3447, 95.93290
286.8268, 95.46617
287.3089, 95.54508
287.7910, 96.81614
288.2732, 97.89409
288.7553, 98.33094
289.2374, 98.28517
289.7195, 98.03416
290.2016, 97.71120
290.6837, 97.38929
291.1659, 97.49891
291.6480, 98.59938
292.1301, 99.47242
292.6122, 99.82839
293.0943, 99.86060
293.5764, 99.81686
294.0586, 99.80643
294.5407, 99.83951
295.0228, 99.94476
295.5049, 100.2666
295.9870, 100.4839
296.4691, 100.5477
296.9513, 100.5180
297.4334, 100.4771
297.9155, 100.4487
298.3976, 100.3635
298.8797, 100.1094
299.3618, 99.68156
299.8440, 99.04102
300.3261, 97.69187
300.8082, 96.44604
301.2903, 96.11317
301.7724, 96.78029
302.2545, 97.74023
302.7367, 98.18860
303.2188, 98.01143
303.7009, 97.63177
304.1830, 97.02489
304.6651, 96.25744
305.1472, 95.16939
305.6294, 93.87716
306.1115, 92.87230
306.5936, 92.64357
307.0757, 93.25298
307.5578, 93.40499
308.0399, 92.72561
308.5221, 92.04749
309.0042, 91.71067
309.4863, 91.67178
309.9684, 91.80173
310.4505, 92.05753
310.9326, 92.38245
311.4148, 92.35177
311.8969, 91.83077
312.3790, 91.17452
312.8611, 90.16024
313.3432, 89.12029
313.8253, 88.64581
314.3075, 89.03719
314.7896, 89.95511
315.2717, 90.54467
315.7538, 90.86938
316.2359, 90.76482
316.7180, 89.78794
317.2001, 88.56162
317.6823, 87.80508
318.1644, 87.71711
318.6465, 87.92798
319.1286, 87.84785
319.6107, 87.10196
320.0928, 87.04542
320.5750, 88.45951
321.0571, 90.00396
321.5392, 90.54542
322.0213, 90.02026
322.5034, 89.22675
322.9855, 88.94402
323.4677, 89.24283
323.9498, 89.61727
324.4319, 90.48129
324.9140, 91.03376
325.3961, 90.66116
325.8782, 89.58868
326.3604, 88.52772
326.8425, 87.96801
327.3246, 87.87404
327.8067, 87.84041
328.2888, 87.82278
328.7709, 87.90588
329.2531, 88.07534
329.7352, 88.36784
330.2173, 88.91581
330.6994, 89.80165
331.1815, 90.81913
331.6636, 91.41067
332.1458, 90.95668
332.6279, 90.83318
333.1100, 91.38313
333.5921, 92.13205
334.0742, 92.58955
334.5563, 92.62432
335.0385, 92.48418
335.5206, 92.51127
336.0027, 92.70444
336.4848, 93.11336
336.9669, 93.80824
337.4490, 94.63957
337.9312, 95.65858
338.4133, 96.77774
338.8954, 97.64330
339.3775, 97.82886
339.8596, 97.20576
340.3417, 97.55407
340.8239, 99.75632
341.3060, 101.8713
341.7881, 103.1600
342.2702, 103.8397
342.7523, 104.4131
343.2344, 105.1739
343.7166, 106.1082
344.1987, 107.1430
344.6808, 108.1379
345.1629, 109.4258
345.6450, 111.3465
346.1271, 113.4432
346.6093, 115.2466
347.0914, 116.5684
347.5735, 117.5105
348.0556, 118.2264
348.5377, 118.6499
349.0198, 118.9473
349.5020, 118.5171
349.9841, 118.4137
350.4662, 119.5247
350.9483, 121.8297
351.4304, 124.5802
351.9125, 127.0343
352.3947, 129.2157
352.8768, 130.9082
353.3589, 131.1055
353.8410, 131.8097
354.3231, 134.2432
354.8052, 137.7302
355.2874, 140.8156
355.7695, 142.4735
356.2516, 142.9397
356.7337, 143.6009
357.2158, 144.6814
357.6979, 145.6550
358.1800, 146.3869
358.6621, 146.9894
359.1443, 147.7042
359.6264, 148.6242
360.1085, 149.3566
360.5906, 149.0952
361.0727, 147.3891
361.5548, 145.8520
362.0370, 145.0561
362.5191, 144.1665
363.0012, 142.4756
363.4833, 140.0198
363.9654, 137.5802
364.4475, 135.8737
364.9297, 134.9154
365.4118, 134.4790
365.8939, 135.3874
366.3760, 135.9060
366.8581, 135.1068
367.3402, 133.4249
367.8224, 131.7466
368.3045, 130.5148
368.7866, 129.7115
369.2687, 129.3754
369.7508, 129.7766
370.2329, 130.0493
370.7151, 129.9888
371.1972, 129.6298
371.6793, 128.9514
372.1614, 127.9360
372.6435, 126.7148
373.1256, 125.4112
373.6078, 124.0205
374.0899, 122.6477
374.5720, 121.2398
375.0541, 119.9326
375.5362, 118.7691
376.0183, 117.7615
376.5005, 117.0078
376.9826, 116.7253
377.4647, 116.7676
377.9468, 116.5626
378.4289, 115.9760
378.9110, 115.3622
379.3932, 114.9011
379.8753, 114.5827
380.3574, 114.4395
380.8395, 114.6995
381.3216, 114.9367
381.8037, 114.5802
382.2859, 113.6203
382.7680, 112.5059
383.2501, 111.2003
383.7322, 110.0233
384.2143, 109.4536
384.6964, 109.6350
385.1786, 109.9593
385.6607, 110.2074
386.1428, 110.3380
386.6249, 110.1933
387.1070, 109.6762
387.5891, 109.0501
388.0713, 108.5588
388.5534, 108.1923
389.0355, 108.0482
389.5176, 108.3410
389.9997, 108.7448
390.4818, 109.0334
390.9640, 109.1728
391.4461, 108.9431
391.9282, 108.0205
392.4103, 106.6202
392.8924, 105.8856
393.3745, 106.4222
393.8567, 106.8986
394.3388, 106.7943
394.8209, 106.2622
395.3030, 105.6077
395.7851, 104.9429
396.2672, 104.1556
396.7494, 102.9466
397.2315, 100.7837
397.7136, 99.54096
398.1957, 100.0026
398.6778, 100.9325
399.1599, 101.3418
399.6420, 101.1329
400.1241, 100.7491
400.6063, 100.6159
401.0884, 100.7546
401.5705, 100.3704
402.0526, 98.85967
402.5347, 97.57110
403.0168, 97.07336
403.4990, 97.03902
403.9811, 96.96386
404.4632, 96.61075
404.9453, 96.00121
405.4274, 95.15495
405.9095, 93.78706
406.3917, 92.68006
406.8738, 91.84560
407.3559, 91.25970
407.8380, 91.10417
408.3201, 91.27273
408.8022, 91.24738
409.2844, 90.36341
409.7665, 88.52576
410.2486, 87.42464
410.7307, 87.62034
411.2128, 87.99966
411.6949, 88.45300
412.1771, 88.82620
412.6592, 88.92188
413.1413, 88.63870
413.6234, 88.03913
414.1055, 87.20712
414.5876, 86.04266
415.0698, 84.93794
415.5519, 83.89087
416.0340, 83.00551
416.5161, 82.40234
416.9982, 82.08118
417.4803, 81.88834
417.9625, 81.71593
418.4446, 81.56479
418.9267, 81.47513
419.4088, 81.59066
419.8909, 81.50454
420.3730, 80.74690
420.8552, 79.62537
421.3373, 78.77794
421.8194, 78.50639
422.3015, 78.50759
422.7836, 78.39561
423.2657, 78.17449
423.7479, 78.20448
424.2300, 78.96980
424.7121, 79.73830
425.1942, 79.16442
425.6763, 76.86552
426.1584, 75.21571
426.6406, 76.00182
427.1227, 77.87881
427.6048, 78.35960
428.0869, 76.94926
428.5690, 75.31749
429.0511, 75.07639
429.5333, 76.23582
430.0154, 76.78449
430.4975, 76.27512
430.9796, 75.56837
431.4617, 75.06055
431.9438, 74.73927
432.4260, 74.47382
432.9081, 74.17674
433.3902, 74.01302
433.8723, 74.41916
434.3544, 76.21108
434.8365, 77.19922
435.3187, 76.68100
435.8008, 75.75191
436.2829, 75.30341
436.7650, 75.42805
437.2471, 75.70812
437.7292, 75.76746
438.2114, 75.60221
438.6935, 75.37107
439.1756, 74.90179
439.6577, 74.55910
440.1398, 74.44563
440.6219, 74.50376
441.1040, 74.73387
441.5862, 75.13313
442.0683, 75.48406
442.5504, 75.28342
443.0325, 74.20323
443.5146, 73.58262
443.9967, 73.97733
444.4789, 74.49171
444.9610, 74.66566
445.4431, 74.53055
445.9252, 74.38051
446.4073, 74.47678
446.8894, 74.71672
447.3716, 74.59973
447.8537, 73.82883
448.3358, 73.44714
448.8179, 74.50405
449.3000, 75.93611
449.7821, 76.47644
450.2643, 75.70268
450.7464, 74.80657
451.2285, 74.91904
451.7106, 75.83924
452.1927, 76.59249
452.6748, 77.02370
453.1570, 77.16407
453.6391, 76.94643
454.1212, 76.43505
454.6033, 75.85121
455.0854, 74.80138
455.5675, 74.03043
456.0497, 74.57590
456.5318, 76.19558
457.0139, 77.33756
457.4960, 77.07165
457.9781, 75.99632
458.4602, 75.77475
458.9424, 76.77263
459.4245, 77.68983
459.9066, 78.37292
460.3887, 78.82602
460.8708, 78.89003
461.3529, 78.62063
461.8351, 78.51446
462.3172, 79.12310
462.7993, 80.48666
463.2814, 81.17495
463.7635, 80.62197
464.2456, 80.09415
464.7278, 79.85595
465.2099, 79.84827
465.6920, 79.94318
466.1741, 80.09342
466.6562, 80.37964
467.1383, 80.99704
467.6205, 82.13779
468.1026, 83.02551
468.5847, 83.70818
469.0668, 84.06015
469.5489, 83.69668
470.0310, 82.91836
470.5132, 82.49522
470.9953, 82.97999
471.4774, 84.05710
471.9595, 84.97092
472.4416, 85.73753
472.9237, 86.27648
473.4059, 86.35131
473.8880, 86.30081
474.3701, 86.36108
474.8522, 86.55012
475.3343, 87.01266
475.8164, 87.94522
476.2986, 89.20974
476.7807, 90.58157
477.2628, 92.10262
477.7449, 93.33495
478.2270, 93.85099
478.7091, 93.77217
479.1913, 93.69212
479.6734, 93.40356
480.1555, 93.38077
480.6376, 94.03239
481.1197, 95.11061
481.6018, 96.11936
482.0839, 96.90079
482.5660, 97.53188
483.0482, 98.11201
483.5303, 98.62024
484.0124, 99.14414
484.4945, 99.72177
484.9766, 100.2770
485.4587, 100.7642
485.9409, 101.1976
486.4230, 101.6382
486.9051, 102.1299
487.3872, 102.6036
487.8693, 102.8284
488.3514, 102.5542
488.8336, 102.5091
489.3157, 102.9864
489.7978, 103.4838
490.2799, 103.5305
490.7620, 103.2147
491.2441, 103.1068
491.7263, 103.8724
492.2084, 105.2130
492.6905, 105.5846
493.1726, 104.5990
493.6547, 103.5786
494.1368, 102.8980
494.6190, 102.5434
495.1011, 102.7042
495.5832, 103.5095
496.0653, 104.0615
496.5474, 103.4756
497.0295, 102.0889
497.5117, 100.9632
497.9938, 100.3173
498.4759, 99.64391
498.9580, 98.32474
499.4401, 96.56498
499.9222, 95.45422
500.4044, 96.02358
500.8865, 96.25774
501.3686, 94.63206
501.8507, 91.97900
502.3328, 90.09581
502.8149, 89.61967
503.2971, 89.63900
503.7792, 88.82729
504.2613, 86.78822
504.7434, 85.32494
505.2255, 85.08347
505.7076, 84.71803
506.1898, 83.26344
506.6719, 81.22465
507.1540, 79.74898
507.6361, 79.45655
508.1182, 79.84309
508.6003, 79.78964
509.0825, 79.27348
509.5646, 78.37244
510.0467, 76.53102
510.5288, 74.78992
511.0109, 73.76234
511.4930, 73.36062
511.9752, 73.10767
512.4573, 72.72964
512.9394, 72.28703
513.4215, 72.01723
513.9036, 72.00610
514.3857, 71.57777
514.8679, 70.05750
515.3500, 68.29079
515.8321, 67.36770
516.3142, 67.37271
516.7963, 67.63725
517.2784, 68.23260
517.7606, 68.75274
518.2427, 68.56068
518.7248, 67.62364
519.2069, 66.39593
519.6890, 65.07455
520.1711, 63.74061
520.6533, 62.86123
521.1354, 62.40433
521.6175, 62.35004
522.0996, 63.02600
522.5817, 63.91467
523.0638, 64.48332
523.5460, 64.65685
524.0281, 64.71911
524.5102, 64.96378
524.9923, 65.37784
525.4744, 65.48502
525.9565, 65.10867
526.4387, 64.63251
526.9208, 63.88663
527.4029, 63.21186
527.8850, 63.17734
528.3671, 63.87104
528.8492, 64.37927
529.3314, 63.23733
529.8135, 60.73598
530.2956, 59.97340
530.7777, 61.92633
531.2598, 63.95266
531.7419, 64.24025
532.2241, 63.54820
532.7062, 62.99063
533.1883, 62.65500
533.6704, 62.71342
534.1525, 63.65963
534.6346, 65.05139
535.1168, 65.78214
535.5989, 65.56753
536.0810, 65.03928
536.5631, 64.80447
537.0452, 64.87930
537.5273, 64.92583
538.0095, 64.83042
538.4916, 64.83523
538.9737, 65.17825
539.4558, 65.62871
539.9379, 65.82818
540.4200, 65.66718
540.9022, 65.32925
541.3843, 65.02250
541.8664, 64.69733
542.3485, 64.69032
542.8306, 65.33652
543.3127, 65.94964
543.7948, 66.38615
544.2769, 66.63023
544.7590, 66.49890
545.2411, 65.82768
545.7233, 65.45493
546.2054, 66.77837
546.6875, 69.65360
547.1696, 71.85197
547.6517, 72.94422
548.1339, 73.47746
548.6160, 73.79968
549.0981, 73.91820
549.5802, 73.79090
550.0623, 73.08836
550.5444, 72.47916
551.0266, 72.41959
551.5087, 72.77492
551.9908, 73.32941
552.4729, 74.03330
552.9550, 74.61349
553.4371, 74.67603
553.9193, 74.07652
554.4014, 73.84659
554.8835, 74.16299
555.3656, 74.59561
555.8477, 75.11702
556.3298, 75.61558
556.8120, 75.90809
557.2941, 75.93773
557.7762, 75.88111
558.2583, 75.96404
558.7404, 76.18382
559.2225, 76.57587
559.7047, 77.33194
560.1868, 78.00391
560.6689, 78.12602
561.1510, 78.09353
561.6331, 78.76556
562.1152, 80.78453
562.5974, 82.46033
563.0795, 82.01123
563.5616, 79.88622
564.0437, 77.67151
564.5258, 75.65385
565.0079, 73.65198
565.4901, 71.44825
565.9722, 69.06976
566.4543, 66.94812
566.9364, 65.09818
567.4185, 63.48526
567.9006, 62.23941
568.3828, 61.17042
568.8649, 59.93073
569.3470, 58.46846
569.8291, 57.10891
570.3112, 56.27592
570.7933, 56.00060
571.2755, 55.62998
571.7576, 54.89647
572.2397, 54.41347
572.7218, 54.59820
573.2039, 54.96394
573.6860, 54.86372
574.1682, 54.15199
574.6503, 53.47321
575.1324, 53.57463
575.6145, 54.25386
576.0966, 54.62001
576.5787, 54.60129
577.0609, 54.32524
577.5430, 53.71494
578.0251, 52.94383
578.5072, 52.45992
578.9893, 52.46621
579.4714, 52.32134
579.9536, 51.53638
580.4357, 50.59446
580.9178, 50.09986
581.3999, 50.10691
581.8820, 50.32597
582.3641, 50.57240
582.8463, 50.81435
583.3284, 50.85029
583.8105, 50.16520
584.2926, 50.04393
584.7747, 51.25747
585.2568, 52.53044
585.7390, 52.87126
586.2211, 52.28148
586.7032, 51.36001
587.1853, 50.40563
587.6674, 49.51688
588.1495, 48.94157
588.6317, 48.66646
589.1138, 48.84563
589.5959, 49.96365
590.0780, 51.14331
590.5601, 51.22669
591.0422, 50.23660
591.5244, 49.44855
592.0065, 49.50202
592.4886, 49.72562
592.9707, 49.49704
593.4528, 48.90441
593.9349, 48.30531
594.4171, 47.85041
594.8992, 47.52470
595.3813, 47.29924
595.8634, 47.16339
596.3455, 47.16960
596.8276, 47.57194
597.3098, 47.83041
597.7919, 47.48289
598.2740, 46.89695
598.7561, 46.79792
599.2382, 47.50513
599.7203, 48.32821
600.2025, 48.18895
600.6846, 47.12285
601.1667, 46.48421
601.6488, 46.47908
602.1309, 46.77277
602.6130, 47.39876
603.0952, 48.12940
603.5773, 48.44191
604.0594, 48.06195
604.5415, 47.65678
605.0236, 47.56668
605.5057, 47.66774
605.9879, 47.81754
606.4700, 47.97576
606.9521, 48.04779
607.4342, 47.93029
607.9163, 47.66518
608.3984, 47.57535
608.8806, 47.85744
609.3627, 48.04765
609.8448, 48.14021
610.3269, 48.10495
610.8090, 47.93023
611.2911, 47.60805
611.7733, 47.08025
612.2554, 46.11126
612.7375, 45.08555
613.2196, 45.02617
613.7017, 46.03131
614.1838, 47.00695
614.6660, 47.79087
615.1481, 48.21527
615.6302, 47.82843
616.1123, 46.70245
616.5944, 46.09565
617.0765, 46.75871
617.5587, 47.55153
618.0408, 47.57770
618.5229, 47.16055
619.0050, 47.13115
619.4871, 47.77114
619.9692, 48.55643
620.4514, 48.76816
620.9335, 48.32847
621.4156, 47.90704
621.8977, 47.31796
622.3798, 46.98136
622.8619, 47.17399
623.3441, 47.58855
623.8262, 47.90856
624.3083, 48.05376
624.7904, 48.05654
625.2725, 47.87419
625.7546, 47.57717
626.2367, 47.33019
626.7188, 47.13292
627.2009, 47.08825
627.6830, 47.27256
628.1652, 47.62453
628.6473, 48.04435
629.1294, 48.59768
629.6115, 49.00067
630.0936, 49.30532
630.5757, 49.36864
631.0579, 48.93607
631.5400, 48.17677
632.0221, 47.45672
632.5042, 46.95628
632.9863, 46.73935
633.4684, 47.06271
633.9506, 48.13830
634.4327, 48.66575
634.9148, 47.97123
635.3969, 47.49731
635.8790, 48.37586
636.3611, 49.82585
636.8433, 50.38338
637.3254, 49.40866
637.8075, 48.38780
638.2896, 48.77356
638.7717, 49.76068
639.2538, 49.46798
639.7360, 47.69984
640.2181, 46.37814
640.7002, 47.01192
641.1823, 49.02144
641.6644, 50.04847
642.1465, 49.25484
642.6287, 48.58045
643.1108, 48.09792
643.5929, 47.69852
644.0750, 47.29769
644.5571, 46.91376
645.0392, 46.64350
645.5214, 46.57685
646.0035, 46.53398
646.4856, 46.02488
646.9677, 45.05405
647.4498, 44.83928
647.9319, 45.93420
648.4141, 47.12464
648.8962, 47.51379
649.3783, 47.17560
649.8604, 46.34615
650.3425, 44.45147
650.8246, 42.87250
651.3068, 42.21974
651.7889, 42.14947
652.2710, 42.29919
652.7531, 42.59303
653.2352, 43.13372
653.7173, 44.07762
654.1995, 45.20494
654.6816, 45.53097
655.1637, 44.67168
655.6458, 43.92736
656.1279, 43.45949
656.6100, 43.20367
657.0922, 43.27228
657.5743, 43.54736
658.0564, 43.63057
658.5385, 43.13526
659.0206, 42.71727
659.5027, 43.33836
659.9849, 44.53561
660.4670, 44.86213
660.9491, 43.96337
661.4312, 42.82437
661.9133, 42.30021
662.3954, 42.36202
662.8776, 42.59946
663.3597, 43.64299
663.8418, 44.02343
664.3239, 42.85789
664.8060, 41.53326
665.2881, 41.35469
665.7703, 42.16918
666.2524, 42.79010
666.7345, 42.36127
667.2166, 41.47252
667.6987, 41.29177
668.1808, 41.79491
668.6630, 42.04206
669.1451, 41.72737
669.6272, 41.30541
670.1093, 41.20880
670.5914, 41.41950
