##NAMES=Cinnabar
##RRUFFID=R070532
##IDEAL CHEMISTRY=HgS
##LOCALITY=Charcas, San Luis Potosi, Mexico
##OWNER=RRUFF
##SOURCE=James Shigley
##DESCRIPTION=Red prismatic crystals associated with calcite
##STATUS=The identification of this mineral is confirmed by single-crystal X-ray diffraction and chemical analysis.
##URL=rruff.info/R070532
##MEASURED CHEMISTRY=Hg_1.00_S_1.00_
151.1196, 1153.748
151.6017, 1134.500
152.0838, 1120.244
152.5659, 1114.408
153.0481, 1117.325
153.5302, 1125.245
154.0123, 1146.256
154.4944, 1169.083
154.9765, 1182.280
155.4586, 1167.468
155.9408, 1158.359
156.4229, 1167.101
156.9050, 1196.360
157.3871, 1214.211
157.8692, 1218.256
158.3513, 1213.667
158.8335, 1207.391
159.3156, 1199.406
159.7977, 1191.566
160.2798, 1183.959
160.7619, 1173.837
161.2440, 1169.514
161.7262, 1179.185
162.2083, 1197.179
162.6904, 1208.930
163.1725, 1203.390
163.6546, 1193.137
164.1367, 1186.537
164.6189, 1187.085
165.1010, 1189.430
165.5831, 1191.669
166.0652, 1193.733
166.5473, 1195.412
167.0294, 1195.246
167.5116, 1195.059
167.9937, 1196.629
168.4758, 1201.861
168.9579, 1207.942
169.4400, 1213.940
169.9221, 1219.750
170.4043, 1223.412
170.8864, 1224.621
171.3685, 1222.722
171.8506, 1216.742
172.3327, 1197.583
172.8148, 1179.137
173.2970, 1177.395
173.7791, 1194.337
174.2612, 1212.146
174.7433, 1216.049
175.2254, 1209.653
175.7076, 1200.724
176.1897, 1190.239
176.6718, 1180.456
177.1539, 1175.081
177.6360, 1175.457
178.1181, 1176.377
178.6003, 1169.087
179.0824, 1156.368
179.5645, 1149.468
180.0466, 1156.337
180.5287, 1173.151
181.0108, 1194.991
181.4930, 1225.443
181.9751, 1252.094
182.4572, 1252.181
182.9393, 1228.621
183.4214, 1204.739
183.9035, 1200.680
184.3857, 1209.589
184.8678, 1210.706
185.3499, 1196.114
185.8320, 1175.652
186.3141, 1168.703
186.7962, 1175.163
187.2784, 1185.542
187.7605, 1192.186
188.2426, 1195.816
188.7247, 1200.698
189.2068, 1210.241
189.6889, 1220.722
190.1711, 1219.990
190.6532, 1206.936
191.1353, 1192.295
191.6174, 1187.372
192.0995, 1191.573
192.5816, 1197.684
193.0638, 1204.656
193.5459, 1211.865
194.0280, 1215.850
194.5101, 1216.202
194.9922, 1215.151
195.4743, 1216.204
195.9565, 1219.431
196.4386, 1220.397
196.9207, 1215.632
197.4028, 1205.869
197.8849, 1200.909
198.3671, 1201.188
198.8492, 1205.216
199.3313, 1212.193
199.8134, 1222.819
200.2955, 1231.061
200.7776, 1233.497
201.2598, 1229.884
201.7419, 1227.014
202.2240, 1224.938
202.7061, 1223.556
203.1882, 1222.615
203.6703, 1222.022
204.1525, 1222.125
204.6346, 1223.525
205.1167, 1226.509
205.5988, 1227.639
206.0809, 1225.211
206.5630, 1222.000
207.0452, 1226.751
207.5273, 1242.623
208.0094, 1257.054
208.4915, 1261.287
208.9736, 1252.560
209.4557, 1248.800
209.9379, 1253.234
210.4200, 1263.036
210.9021, 1267.394
211.3842, 1263.826
211.8663, 1260.516
212.3484, 1264.279
212.8306, 1278.089
213.3127, 1286.818
213.7948, 1286.222
214.2769, 1278.884
214.7590, 1280.226
215.2411, 1293.241
215.7233, 1309.528
216.2054, 1322.563
216.6875, 1331.305
217.1696, 1340.153
217.6517, 1351.201
218.1338, 1363.698
218.6160, 1366.956
219.0981, 1354.198
219.5802, 1341.903
220.0623, 1346.974
220.5444, 1378.757
221.0265, 1403.883
221.5087, 1414.473
221.9908, 1410.743
222.4729, 1411.624
222.9550, 1417.619
223.4371, 1427.635
223.9192, 1441.364
224.4014, 1460.282
224.8835, 1478.937
225.3656, 1494.768
225.8477, 1507.389
226.3298, 1527.699
226.8119, 1562.572
227.2941, 1598.461
227.7762, 1617.708
228.2583, 1605.297
228.7404, 1605.711
229.2225, 1633.927
229.7046, 1694.438
230.1868, 1741.473
230.6689, 1768.005
231.1510, 1786.348
231.6331, 1812.512
232.1152, 1849.988
232.5974, 1888.446
233.0795, 1923.657
233.5616, 1952.433
234.0437, 1995.569
234.5258, 2056.264
235.0079, 2129.606
235.4901, 2209.810
235.9722, 2300.893
236.4543, 2392.261
236.9364, 2481.233
237.4185, 2567.894
237.9006, 2651.479
238.3828, 2727.218
238.8649, 2802.554
239.3470, 2890.870
239.8291, 2995.185
240.3112, 3107.214
240.7933, 3224.823
241.2755, 3351.563
241.7576, 3472.236
242.2397, 3581.918
242.7218, 3688.014
243.2039, 3802.704
243.6860, 3922.612
244.1682, 4057.298
244.6503, 4213.547
245.1324, 4405.291
245.6145, 4573.328
246.0966, 4705.805
246.5787, 4820.632
247.0609, 4952.032
247.5430, 5104.505
248.0251, 5266.483
248.5072, 5439.898
248.9893, 5637.713
249.4714, 5801.239
249.9536, 5922.515
250.4357, 6013.223
250.9178, 6102.093
251.3999, 6209.921
251.8820, 6279.488
252.3641, 6286.625
252.8463, 6221.283
253.3284, 6124.018
253.8105, 5999.562
254.2926, 5842.205
254.7747, 5635.427
255.2568, 5357.749
255.7390, 5067.667
256.2211, 4783.480
256.7032, 4507.204
257.1853, 4236.405
257.6674, 3966.572
258.1495, 3706.619
258.6317, 3479.671
259.1138, 3294.476
259.5959, 3128.885
260.0780, 2975.738
260.5601, 2832.198
261.0422, 2705.750
261.5244, 2599.379
262.0065, 2508.071
262.4886, 2423.443
262.9707, 2344.162
263.4528, 2272.839
263.9349, 2209.318
264.4171, 2151.927
264.8992, 2108.734
265.3813, 2084.646
265.8634, 2070.580
266.3455, 2045.458
266.8276, 2004.740
267.3098, 1963.833
267.7919, 1927.734
268.2740, 1895.643
268.7561, 1874.284
269.2382, 1867.637
269.7203, 1868.836
270.2025, 1863.466
270.6846, 1849.620
271.1667, 1835.053
271.6488, 1822.471
272.1309, 1811.682
272.6130, 1804.451
273.0952, 1800.876
273.5773, 1800.792
274.0594, 1803.802
274.5415, 1809.771
275.0236, 1819.291
275.5057, 1835.362
275.9879, 1859.540
276.4700, 1873.655
276.9521, 1875.054
277.4342, 1869.703
277.9163, 1866.565
278.3984, 1864.905
278.8806, 1869.821
279.3627, 1887.116
279.8448, 1917.164
280.3269, 1938.777
280.8090, 1948.389
281.2911, 1954.854
281.7733, 1976.949
282.2554, 2016.637
282.7375, 2049.989
283.2196, 2059.451
283.7017, 2046.811
284.1838, 2052.074
284.6660, 2078.740
285.1481, 2116.374
285.6302, 2155.559
286.1123, 2196.447
286.5944, 2224.383
287.0765, 2228.727
287.5587, 2212.353
288.0408, 2195.526
288.5229, 2178.531
289.0050, 2160.674
289.4871, 2141.576
289.9692, 2121.087
290.4514, 2097.864
290.9335, 2072.375
291.4156, 2043.778
291.8977, 2007.624
292.3798, 1962.582
292.8619, 1915.829
293.3441, 1876.593
293.8262, 1843.698
294.3083, 1812.717
294.7904, 1781.869
295.2726, 1751.325
295.7547, 1720.553
296.2368, 1689.505
296.7189, 1661.003
297.2010, 1639.169
297.6831, 1622.991
298.1653, 1608.720
298.6474, 1593.370
299.1295, 1579.567
299.6116, 1572.923
300.0937, 1573.674
300.5758, 1576.128
301.0580, 1577.652
301.5401, 1576.993
302.0222, 1571.038
302.5043, 1553.499
302.9864, 1532.976
303.4685, 1521.176
303.9507, 1517.780
304.4328, 1517.706
304.9149, 1519.465
305.3970, 1521.417
305.8791, 1520.751
306.3612, 1514.291
306.8434, 1506.629
307.3255, 1502.514
307.8076, 1501.634
308.2897, 1501.146
308.7718, 1498.833
309.2539, 1495.870
309.7361, 1493.950
310.2182, 1496.312
310.7003, 1496.849
311.1824, 1488.692
311.6645, 1473.627
312.1466, 1460.831
312.6288, 1453.006
313.1109, 1450.871
313.5930, 1455.952
314.0751, 1476.571
314.5572, 1493.452
315.0393, 1493.217
315.5215, 1479.999
316.0036, 1468.211
316.4857, 1463.279
316.9678, 1462.555
317.4499, 1464.316
317.9320, 1469.274
318.4142, 1474.863
318.8963, 1481.572
319.3784, 1488.313
319.8605, 1492.551
320.3426, 1494.409
320.8247, 1492.760
321.3069, 1485.462
321.7890, 1466.208
322.2711, 1454.383
322.7532, 1458.305
323.2353, 1472.086
323.7174, 1484.701
324.1996, 1492.589
324.6817, 1500.206
325.1638, 1509.654
325.6459, 1522.901
326.1280, 1532.966
326.6101, 1540.978
327.0923, 1545.078
327.5744, 1542.517
328.0565, 1518.113
328.5386, 1501.894
329.0207, 1504.155
329.5028, 1531.112
329.9850, 1549.119
330.4671, 1552.859
330.9492, 1550.568
331.4313, 1550.909
331.9134, 1552.411
332.3955, 1558.831
332.8777, 1573.324
333.3598, 1596.229
333.8419, 1612.778
334.3240, 1619.847
334.8061, 1623.709
335.2882, 1630.064
335.7704, 1640.118
336.2525, 1649.828
336.7346, 1658.497
337.2167, 1666.204
337.6988, 1674.306
338.1809, 1683.365
338.6631, 1691.744
339.1452, 1698.014
339.6273, 1701.954
340.1094, 1705.098
340.5915, 1707.719
341.0736, 1709.710
341.5558, 1710.652
342.0379, 1710.597
342.5200, 1709.492
343.0021, 1706.479
343.4842, 1701.604
343.9663, 1699.526
344.4485, 1702.089
344.9306, 1705.503
345.4127, 1700.123
345.8948, 1686.042
346.3769, 1674.444
346.8590, 1674.141
347.3412, 1682.431
347.8233, 1686.024
348.3054, 1683.187
348.7875, 1679.315
349.2696, 1684.522
349.7517, 1696.324
350.2339, 1702.969
350.7160, 1697.458
351.1981, 1683.199
351.6802, 1664.329
352.1623, 1640.417
352.6444, 1618.238
353.1266, 1606.257
353.6087, 1600.978
354.0908, 1595.316
354.5729, 1584.729
355.0550, 1573.306
355.5371, 1566.688
356.0193, 1564.463
356.5014, 1560.815
356.9835, 1551.131
357.4656, 1537.898
357.9477, 1524.055
358.4298, 1508.837
358.9120, 1495.211
359.3941, 1485.024
359.8762, 1478.118
360.3583, 1473.550
360.8404, 1471.823
361.3225, 1471.810
361.8047, 1472.873
362.2868, 1476.230
362.7689, 1478.287
363.2510, 1478.672
363.7331, 1476.795
364.2152, 1471.242
364.6974, 1454.603
365.1795, 1439.720
365.6616, 1432.957
366.1437, 1437.974
366.6258, 1443.178
367.1079, 1445.025
367.5901, 1446.472
368.0722, 1451.958
368.5543, 1471.528
369.0364, 1485.860
369.5185, 1488.542
370.0006, 1477.038
370.4828, 1468.391
370.9649, 1464.124
371.4470, 1461.801
371.9291, 1458.879
372.4112, 1453.389
372.8933, 1450.648
373.3755, 1452.798
373.8576, 1459.272
374.3397, 1461.974
374.8218, 1458.536
375.3039, 1454.880
375.7860, 1455.613
376.2682, 1461.841
376.7503, 1467.982
377.2324, 1473.535
377.7145, 1478.472
378.1967, 1482.712
378.6788, 1486.122
379.1609, 1489.350
379.6430, 1493.946
380.1251, 1499.798
380.6072, 1500.252
381.0894, 1493.477
381.5715, 1484.737
382.0536, 1482.884
382.5357, 1487.517
383.0178, 1492.421
383.4999, 1493.966
383.9821, 1493.601
384.4642, 1496.429
384.9463, 1502.875
385.4284, 1508.954
385.9105, 1509.065
386.3926, 1505.530
386.8748, 1504.828
387.3569, 1512.890
387.8390, 1522.184
388.3211, 1521.252
388.8032, 1511.194
389.2853, 1502.863
389.7675, 1508.529
390.2496, 1518.348
390.7317, 1519.370
391.2138, 1502.280
391.6959, 1485.855
392.1780, 1484.424
392.6602, 1493.682
393.1423, 1500.830
393.6244, 1493.895
394.1065, 1487.546
394.5886, 1493.478
395.0707, 1519.800
395.5529, 1538.255
396.0350, 1532.563
396.5171, 1515.231
396.9992, 1504.558
397.4813, 1512.147
397.9634, 1519.664
398.4456, 1520.480
398.9277, 1512.805
399.4098, 1509.394
399.8919, 1518.609
400.3740, 1528.149
400.8561, 1527.856
401.3383, 1508.159
401.8204, 1492.329
402.3025, 1481.469
402.7846, 1476.123
403.2667, 1481.336
403.7488, 1504.011
404.2310, 1526.593
404.7131, 1538.757
405.1952, 1538.320
405.6773, 1534.633
406.1594, 1525.793
406.6415, 1516.188
407.1237, 1517.033
407.6058, 1530.511
408.0879, 1541.224
408.5700, 1539.168
409.0521, 1525.876
409.5342, 1525.110
410.0164, 1539.524
410.4985, 1554.244
410.9806, 1547.176
411.4627, 1522.296
411.9448, 1505.914
412.4269, 1511.020
412.9091, 1526.665
413.3912, 1530.936
413.8733, 1524.727
414.3554, 1517.517
414.8375, 1517.229
415.3196, 1520.633
415.8018, 1522.345
416.2839, 1520.316
416.7660, 1518.300
417.2481, 1519.026
417.7302, 1522.312
418.2123, 1527.789
418.6945, 1539.899
419.1766, 1551.013
419.6587, 1554.198
420.1408, 1547.313
420.6229, 1541.369
421.1050, 1541.559
421.5872, 1545.140
422.0693, 1548.946
422.5514, 1554.185
423.0335, 1557.468
423.5156, 1556.129
423.9977, 1550.360
424.4799, 1548.074
424.9620, 1554.233
425.4441, 1561.357
425.9262, 1565.060
426.4083, 1561.092
426.8904, 1559.856
427.3726, 1562.532
427.8547, 1567.941
428.3368, 1572.763
428.8189, 1575.692
429.3010, 1580.614
429.7831, 1591.136
430.2653, 1609.255
430.7474, 1616.505
431.2295, 1610.040
431.7116, 1597.762
432.1937, 1587.877
432.6758, 1580.187
433.1580, 1578.235
433.6401, 1585.045
434.1222, 1597.545
434.6043, 1605.775
435.0864, 1609.630
435.5685, 1611.209
436.0507, 1612.876
436.5328, 1613.582
437.0149, 1608.690
437.4970, 1594.776
437.9791, 1581.712
438.4612, 1585.336
438.9434, 1600.838
439.4255, 1613.051
439.9076, 1607.265
440.3897, 1597.932
440.8718, 1602.203
441.3539, 1622.008
441.8361, 1640.194
442.3182, 1647.353
442.8003, 1647.061
443.2824, 1643.384
443.7645, 1633.680
444.2466, 1624.763
444.7288, 1618.214
445.2109, 1614.250
445.6930, 1614.251
446.1751, 1621.234
446.6572, 1630.123
447.1393, 1638.484
447.6215, 1646.547
448.1036, 1653.321
448.5857, 1661.448
449.0678, 1667.428
449.5499, 1664.764
450.0320, 1646.055
450.5142, 1631.083
450.9963, 1625.983
451.4784, 1631.031
451.9605, 1634.017
452.4426, 1633.780
452.9247, 1633.891
453.4069, 1638.378
453.8890, 1647.857
454.3711, 1655.170
454.8532, 1659.291
455.3353, 1660.618
455.8174, 1657.959
456.2996, 1651.373
456.7817, 1648.336
457.2638, 1659.099
457.7459, 1676.270
458.2280, 1677.897
458.7102, 1661.046
459.1923, 1642.322
459.6744, 1638.286
460.1565, 1644.787
460.6386, 1653.485
461.1208, 1666.594
461.6029, 1676.481
462.0850, 1671.960
462.5671, 1656.378
463.0492, 1647.910
463.5313, 1663.564
464.0135, 1685.294
464.4956, 1699.714
464.9777, 1704.551
465.4598, 1702.731
465.9419, 1687.404
466.4240, 1667.327
466.9062, 1656.994
467.3883, 1667.431
467.8704, 1678.871
468.3525, 1686.016
468.8346, 1688.234
469.3167, 1692.665
469.7989, 1701.601
470.2810, 1710.190
470.7631, 1715.339
471.2452, 1717.615
471.7273, 1713.635
472.2094, 1699.427
472.6916, 1681.489
473.1737, 1676.761
473.6558, 1687.031
474.1379, 1699.253
474.6200, 1708.065
475.1021, 1713.718
475.5843, 1718.330
476.0664, 1722.035
476.5485, 1724.249
477.0306, 1721.513
477.5127, 1716.350
477.9948, 1717.529
478.4770, 1732.534
478.9591, 1748.898
479.4412, 1748.279
479.9233, 1734.362
480.4054, 1723.310
480.8875, 1725.321
481.3697, 1733.880
481.8518, 1744.332
482.3339, 1756.581
482.8160, 1768.075
483.2981, 1781.276
483.7802, 1791.962
484.2624, 1794.541
484.7445, 1771.758
485.2266, 1757.606
485.7087, 1768.048
486.1908, 1800.511
486.6729, 1817.506
487.1551, 1804.174
487.6372, 1788.508
488.1193, 1784.419
488.6014, 1797.654
489.0835, 1808.941
489.5656, 1819.263
490.0478, 1826.785
490.5299, 1827.793
491.0120, 1820.902
491.4941, 1813.979
491.9762, 1808.717
492.4583, 1805.379
492.9405, 1806.155
493.4226, 1811.429
493.9047, 1816.207
494.3868, 1814.937
494.8689, 1809.811
495.3510, 1807.652
495.8332, 1809.673
496.3153, 1814.310
496.7974, 1821.353
497.2795, 1829.718
497.7616, 1836.631
498.2437, 1841.167
498.7259, 1843.487
499.2080, 1843.385
499.6901, 1840.908
500.1722, 1837.393
500.6543, 1828.974
501.1364, 1822.469
501.6186, 1823.674
502.1007, 1844.473
502.5828, 1857.163
503.0649, 1848.623
503.5470, 1829.689
504.0291, 1824.745
504.5113, 1850.448
504.9934, 1869.403
505.4755, 1869.904
505.9576, 1851.154
506.4397, 1836.048
506.9218, 1822.244
507.4040, 1816.442
507.8861, 1828.827
508.3682, 1862.156
508.8503, 1883.651
509.3324, 1887.410
509.8145, 1880.876
510.2967, 1875.478
510.7788, 1871.392
511.2609, 1870.960
511.7430, 1880.210
512.2252, 1892.506
512.7073, 1893.493
513.1894, 1883.200
513.6715, 1871.493
514.1536, 1863.936
514.6357, 1860.281
515.1179, 1861.172
515.6000, 1870.913
516.0821, 1877.524
516.5642, 1866.710
517.0463, 1848.626
517.5284, 1844.137
518.0106, 1878.130
518.4927, 1909.890
518.9748, 1921.349
519.4569, 1909.285
519.9390, 1902.475
520.4211, 1907.076
520.9033, 1912.940
521.3854, 1912.723
521.8675, 1901.455
522.3496, 1895.447
522.8317, 1895.590
523.3138, 1901.480
523.7960, 1916.070
524.2781, 1942.499
524.7602, 1957.847
525.2423, 1947.119
525.7244, 1918.011
526.2065, 1905.856
526.6887, 1911.229
527.1708, 1923.319
527.6529, 1937.844
528.1350, 1951.594
528.6171, 1956.131
529.0992, 1946.472
529.5814, 1936.664
530.0635, 1941.883
530.5456, 1956.058
531.0277, 1967.281
531.5098, 1967.234
531.9919, 1965.328
532.4741, 1967.420
532.9562, 1973.285
533.4383, 1975.800
533.9204, 1966.240
534.4025, 1957.467
534.8846, 1957.688
535.3668, 1974.193
535.8489, 1988.294
536.3310, 2002.996
536.8131, 2013.859
537.2952, 2011.859
537.7773, 1989.594
538.2595, 1975.794
538.7416, 1980.450
539.2237, 1999.289
539.7058, 2008.727
540.1879, 2008.017
540.6700, 2006.219
541.1522, 2013.370
541.6343, 2025.229
542.1164, 2022.475
542.5985, 2000.734
543.0806, 1979.844
543.5627, 1981.955
544.0449, 1999.847
544.5270, 2019.677
545.0091, 2044.338
545.4912, 2061.526
545.9733, 2055.937
546.4554, 2033.860
546.9376, 2019.027
547.4197, 2031.185
547.9018, 2044.683
548.3839, 2044.472
548.8660, 2023.350
549.3481, 2010.111
549.8303, 2009.247
550.3124, 2015.677
550.7945, 2026.573
551.2766, 2048.244
551.7587, 2059.496
552.2408, 2054.438
552.7230, 2039.568
553.2051, 2031.151
553.6872, 2029.163
554.1693, 2033.872
554.6514, 2052.249
555.1335, 2078.510
555.6157, 2079.307
556.0978, 2053.583
556.5799, 2031.451
557.0620, 2046.607
557.5441, 2082.623
558.0262, 2110.590
558.5084, 2125.475
558.9905, 2127.510
559.4726, 2103.901
559.9547, 2069.308
560.4368, 2049.927
560.9189, 2073.320
561.4011, 2097.276
561.8832, 2102.779
562.3653, 2090.413
562.8474, 2082.353
563.3295, 2085.937
563.8116, 2091.105
564.2938, 2093.177
564.7759, 2090.320
565.2580, 2089.361
565.7401, 2089.895
566.2222, 2092.818
566.7043, 2100.016
567.1865, 2111.899
567.6686, 2124.604
568.1507, 2139.775
568.6328, 2152.767
569.1149, 2146.307
569.5970, 2122.979
570.0792, 2110.034
570.5613, 2139.947
571.0434, 2183.153
571.5255, 2191.591
572.0076, 2162.053
572.4897, 2134.503
572.9719, 2142.924
573.4540, 2163.922
573.9361, 2173.014
574.4182, 2153.820
574.9003, 2139.182
575.3824, 2143.151
575.8646, 2157.227
576.3467, 2164.655
576.8288, 2153.083
577.3109, 2148.639
577.7930, 2160.655
578.2751, 2187.217
578.7573, 2201.988
579.2394, 2201.626
579.7215, 2197.918
580.2036, 2200.053
580.6857, 2207.868
581.1678, 2203.510
581.6500, 2183.755
582.1321, 2163.289
582.6142, 2162.416
583.0963, 2175.823
583.5784, 2187.405
584.0605, 2192.516
584.5427, 2193.820
585.0248, 2191.569
585.5069, 2187.317
585.9890, 2185.477
586.4711, 2189.743
586.9532, 2195.659
587.4354, 2201.099
587.9175, 2205.890
588.3996, 2210.305
588.8817, 2214.681
589.3638, 2218.409
589.8459, 2220.926
590.3281, 2219.976
590.8102, 2222.500
591.2923, 2230.427
591.7744, 2239.766
592.2565, 2242.505
592.7386, 2237.040
593.2208, 2238.631
593.7029, 2254.541
594.1850, 2277.597
594.6671, 2289.877
595.1492, 2292.036
595.6313, 2289.251
596.1135, 2277.298
596.5956, 2265.747
597.0777, 2271.185
597.5598, 2295.138
598.0419, 2316.423
598.5240, 2319.566
599.0062, 2315.271
599.4883, 2313.442
599.9704, 2316.504
600.4525, 2321.768
600.9346, 2334.112
601.4167, 2346.954
601.8989, 2348.261
602.3810, 2327.325
602.8631, 2312.222
603.3452, 2310.450
603.8273, 2319.272
604.3094, 2322.475
604.7916, 2318.326
605.2737, 2315.897
605.7558, 2321.575
606.2379, 2333.800
606.7200, 2345.678
607.2021, 2357.274
607.6843, 2366.517
608.1664, 2369.636
608.6485, 2369.646
609.1306, 2371.621
609.6127, 2376.611
610.0948, 2384.200
610.5770, 2400.594
611.0591, 2418.359
611.5412, 2424.432
612.0233, 2403.805
612.5054, 2382.519
612.9875, 2363.311
613.4697, 2347.860
613.9518, 2351.514
614.4339, 2389.907
614.9160, 2424.114
615.3981, 2433.993
615.8802, 2417.089
616.3624, 2407.683
616.8445, 2406.660
617.3266, 2410.398
617.8087, 2418.087
618.2908, 2428.238
618.7729, 2432.366
619.2551, 2427.293
619.7372, 2421.147
620.2193, 2427.075
620.7014, 2438.700
621.1835, 2442.393
621.6656, 2415.178
622.1478, 2394.284
622.6299, 2407.515
623.1120, 2446.984
623.5941, 2476.884
624.0762, 2483.075
624.5583, 2482.308
625.0405, 2479.460
625.5226, 2473.632
626.0047, 2474.129
626.4868, 2483.916
626.9689, 2495.415
627.4510, 2503.326
627.9332, 2507.623
628.4153, 2507.998
628.8974, 2504.157
629.3795, 2496.918
629.8616, 2482.413
630.3438, 2464.359
630.8259, 2456.806
631.3080, 2468.369
631.7901, 2487.609
632.2722, 2508.003
632.7543, 2527.184
633.2365, 2538.337
633.7186, 2535.588
634.2007, 2526.885
634.6828, 2511.744
635.1649, 2489.484
635.6470, 2480.559
636.1292, 2497.019
636.6113, 2517.817
637.0934, 2532.100
637.5755, 2538.169
638.0576, 2543.763
638.5397, 2549.097
639.0219, 2553.555
639.5040, 2557.492
639.9861, 2560.608
640.4682, 2557.130
640.9503, 2541.871
641.4324, 2527.694
641.9146, 2537.697
642.3967, 2563.913
642.8788, 2584.832
643.3609, 2585.363
643.8430, 2580.779
644.3251, 2579.825
644.8073, 2582.504
645.2894, 2587.622
645.7715, 2595.803
646.2536, 2605.549
646.7357, 2618.829
647.2178, 2638.416
647.7000, 2643.089
648.1821, 2622.225
