##NAMES=Cinnabar
##RRUFFID=R050072
##IDEAL CHEMISTRY=HgS
##LOCALITY=Gui Zhu, Hunan Province, China
##OWNER=RRUFF
##SOURCE=Rock Currier
##DESCRIPTION=Red single crystal associated with calcite
##STATUS=The identification of this mineral has been confirmed by X-ray diffraction and chemical analysis
##URL=rruff.info/R050072
##MEASURED CHEMISTRY=Hg_1.00_S_1.00_
130.7339, 929.5419
131.2160, 940.3792
131.6981, 936.1833
132.1802, 919.0203
132.6623, 904.9902
133.1445, 901.0302
133.6266, 905.5417
134.1087, 907.2147
134.5908, 904.2366
135.0729, 902.5097
135.5550, 916.2781
136.0372, 948.3274
136.5193, 973.4824
137.0014, 972.8944
137.4835, 943.3657
137.9656, 930.1068
138.4477, 942.2891
138.9299, 970.8675
139.4120, 981.8638
139.8941, 968.1305
140.3762, 952.5530
140.8583, 955.1733
141.3404, 984.0042
141.8225, 1005.236
142.3047, 1009.677
142.7868, 996.5660
143.2689, 994.9168
143.7510, 1011.989
144.2331, 1034.252
144.7152, 1043.894
145.1974, 1034.239
145.6795, 1022.732
146.1616, 1014.935
146.6437, 1014.961
147.1258, 1008.087
147.6079, 986.8871
148.0901, 958.9168
148.5722, 945.8030
149.0543, 964.6339
149.5364, 983.0144
150.0185, 986.7271
150.5006, 956.4869
150.9828, 934.4069
151.4649, 926.6334
151.9470, 931.5034
152.4291, 930.0425
152.9112, 909.6136
153.3933, 889.0547
153.8755, 881.4689
154.3576, 907.5219
154.8397, 927.7805
155.3218, 931.4644
155.8039, 915.4480
156.2860, 901.8963
156.7682, 895.4591
157.2503, 893.4805
157.7324, 892.6608
158.2145, 895.1977
158.6966, 896.4796
159.1787, 894.4273
159.6609, 887.8502
160.1430, 880.0927
160.6251, 870.1729
161.1072, 859.7282
161.5893, 852.5292
162.0714, 852.2164
162.5536, 854.4388
163.0357, 856.0967
163.5178, 853.2467
163.9999, 853.2930
164.4820, 864.0368
164.9641, 883.1937
165.4463, 895.7513
165.9284, 890.9296
166.4105, 876.7310
166.8926, 861.7717
167.3747, 842.4312
167.8568, 827.9881
168.3390, 827.6190
168.8211, 842.4166
169.3032, 857.3154
169.7853, 864.0640
170.2674, 864.1269
170.7495, 860.0571
171.2317, 848.2695
171.7138, 835.1602
172.1959, 827.4726
172.6780, 826.6639
173.1601, 828.7063
173.6422, 832.4088
174.1244, 836.7631
174.6065, 838.4094
175.0886, 831.7284
175.5707, 822.0108
176.0528, 817.7797
176.5349, 823.7698
177.0171, 831.5376
177.4992, 829.3758
177.9813, 818.4500
178.4634, 808.7080
178.9455, 809.3729
179.4276, 816.9940
179.9098, 823.7670
180.3919, 827.6796
180.8740, 829.0854
181.3561, 827.4505
181.8382, 822.5880
182.3203, 818.5414
182.8025, 818.6680
183.2846, 822.8409
183.7667, 830.6016
184.2488, 848.6485
184.7309, 870.4979
185.2130, 873.5328
185.6951, 854.0584
186.1773, 829.5767
186.6594, 825.9073
187.1415, 841.1711
187.6236, 854.4737
188.1057, 851.1292
188.5878, 835.1456
189.0700, 826.0708
189.5521, 826.9102
190.0342, 833.4875
190.5163, 839.1774
190.9984, 843.9091
191.4805, 847.6944
191.9627, 850.0945
192.4448, 851.2044
192.9269, 852.2380
193.4090, 852.7468
193.8911, 853.6448
194.3732, 859.2861
194.8554, 870.8239
195.3375, 880.9213
195.8196, 881.1415
196.3017, 871.2604
196.7838, 863.1553
197.2659, 860.1607
197.7481, 861.6052
198.2302, 863.2440
198.7123, 865.2857
199.1944, 867.0280
199.6765, 867.4061
200.1586, 866.2540
200.6408, 865.1456
201.1229, 864.7031
201.6050, 864.9405
202.0871, 864.9775
202.5692, 864.9594
203.0513, 864.4843
203.5335, 861.6075
204.0156, 854.8898
204.4977, 851.7037
204.9798, 858.1816
205.4619, 876.7740
205.9440, 885.4382
206.4262, 879.5897
206.9083, 866.2570
207.3904, 864.8627
207.8725, 879.7435
208.3546, 894.6022
208.8367, 898.0598
209.3189, 885.9274
209.8010, 880.5568
210.2831, 885.9974
210.7652, 899.3629
211.2473, 907.5532
211.7294, 908.8109
212.2116, 908.4246
212.6937, 910.0699
213.1758, 913.8375
213.6579, 919.8013
214.1400, 929.7059
214.6221, 942.9625
215.1043, 948.7857
215.5864, 943.2669
216.0685, 936.1187
216.5506, 938.6778
217.0327, 957.1889
217.5148, 969.2051
217.9970, 966.7885
218.4791, 948.5182
218.9612, 940.9638
219.4433, 948.7547
219.9254, 962.5748
220.4075, 969.7903
220.8897, 966.4274
221.3718, 964.5095
221.8539, 968.6247
222.3360, 981.0367
222.8181, 988.1011
223.3002, 986.5099
223.7824, 981.5762
224.2645, 983.1678
224.7466, 994.1471
225.2287, 1006.805
225.7108, 1018.940
226.1929, 1031.978
226.6750, 1039.897
227.1572, 1038.823
227.6393, 1033.727
228.1214, 1038.142
228.6035, 1056.780
229.0856, 1077.863
229.5677, 1095.571
230.0499, 1107.605
230.5320, 1120.987
231.0141, 1135.959
231.4962, 1152.336
231.9783, 1169.606
232.4604, 1186.445
232.9426, 1205.600
233.4247, 1229.354
233.9068, 1259.308
234.3889, 1289.932
234.8710, 1321.806
235.3531, 1354.633
235.8353, 1382.317
236.3174, 1400.101
236.7995, 1418.172
237.2816, 1444.209
237.7637, 1480.476
238.2458, 1520.634
238.7280, 1565.765
239.2101, 1615.732
239.6922, 1659.711
240.1743, 1691.653
240.6564, 1723.599
241.1385, 1767.163
241.6207, 1829.598
242.1028, 1891.825
242.5849, 1950.659
243.0670, 2005.825
243.5491, 2060.643
244.0313, 2113.349
244.5134, 2167.171
244.9955, 2226.476
245.4776, 2295.631
245.9597, 2362.618
246.4418, 2421.773
246.9240, 2468.798
247.4061, 2533.914
247.8882, 2621.558
248.3703, 2723.369
248.8524, 2827.826
249.3345, 2937.746
249.8167, 3045.906
250.2988, 3151.923
250.7809, 3257.407
251.2630, 3355.177
251.7451, 3446.352
252.2272, 3528.249
252.7094, 3597.433
253.1915, 3662.437
253.6736, 3700.028
254.1557, 3700.569
254.6378, 3658.109
255.1199, 3597.335
255.6021, 3519.141
256.0842, 3422.857
256.5663, 3304.646
257.0484, 3152.800
257.5305, 2998.478
258.0126, 2855.151
258.4948, 2723.846
258.9769, 2596.933
259.4590, 2471.244
259.9411, 2350.593
260.4232, 2242.261
260.9053, 2147.587
261.3875, 2062.485
261.8696, 1985.478
262.3517, 1922.086
262.8338, 1852.042
263.3159, 1768.002
263.7980, 1678.294
264.2802, 1617.360
264.7623, 1596.195
265.2444, 1580.710
265.7265, 1547.002
266.2086, 1486.514
266.6907, 1441.933
267.1729, 1420.715
267.6550, 1417.615
268.1371, 1414.565
268.6192, 1414.562
269.1013, 1407.869
269.5834, 1383.517
270.0656, 1335.486
270.5477, 1299.589
271.0298, 1282.460
271.5119, 1280.583
271.9940, 1279.749
272.4761, 1280.691
272.9583, 1280.885
273.4404, 1278.147
273.9225, 1271.992
274.4046, 1265.573
274.8867, 1258.970
275.3688, 1252.519
275.8510, 1247.237
276.3331, 1242.807
276.8152, 1240.641
277.2973, 1242.593
277.7794, 1249.083
278.2615, 1255.645
278.7437, 1261.411
279.2258, 1266.605
279.7079, 1273.017
280.1900, 1281.453
280.6721, 1288.039
281.1542, 1287.898
281.6364, 1280.675
282.1185, 1275.300
282.6006, 1274.114
283.0827, 1276.153
283.5648, 1277.363
284.0469, 1277.501
284.5291, 1278.117
285.0112, 1280.067
285.4933, 1283.393
285.9754, 1289.976
286.4575, 1301.990
286.9396, 1317.118
287.4217, 1327.438
287.9038, 1332.774
288.3860, 1334.369
288.8681, 1331.758
289.3502, 1325.484
289.8323, 1320.497
290.3144, 1318.726
290.7965, 1319.065
291.2787, 1320.813
291.7608, 1324.573
292.2429, 1322.823
292.7250, 1303.976
293.2071, 1271.524
293.6892, 1242.568
294.1714, 1222.772
294.6535, 1210.234
295.1356, 1202.798
295.6177, 1200.742
296.0998, 1197.705
296.5819, 1186.719
297.0641, 1169.539
297.5462, 1152.068
298.0283, 1135.092
298.5104, 1119.673
298.9925, 1107.558
299.4746, 1098.712
299.9568, 1092.146
300.4389, 1085.295
300.9210, 1079.906
301.4031, 1080.153
301.8852, 1093.996
302.3673, 1110.454
302.8495, 1112.789
303.3316, 1101.256
303.8137, 1089.960
304.2958, 1095.490
304.7779, 1108.856
305.2600, 1113.850
305.7422, 1095.133
306.2243, 1071.300
306.7064, 1061.338
307.1885, 1064.652
307.6706, 1071.197
308.1527, 1076.801
308.6349, 1080.575
309.1170, 1081.186
309.5991, 1077.340
310.0812, 1070.786
310.5633, 1060.414
311.0454, 1046.594
311.5276, 1036.855
312.0097, 1037.747
312.4918, 1044.441
312.9739, 1051.590
313.4560, 1063.563
313.9381, 1070.301
314.4203, 1061.973
314.9024, 1039.910
315.3845, 1021.932
315.8666, 1016.422
316.3487, 1018.915
316.8308, 1025.194
317.3130, 1040.083
317.7951, 1052.898
318.2772, 1058.838
318.7593, 1058.309
319.2414, 1055.798
319.7235, 1051.145
320.2057, 1045.952
320.6878, 1041.491
321.1699, 1035.532
321.6520, 1032.913
322.1341, 1036.978
322.6162, 1046.923
323.0984, 1054.432
323.5805, 1056.236
324.0626, 1056.104
324.5447, 1056.581
325.0268, 1063.165
325.5089, 1064.722
325.9911, 1054.229
326.4732, 1033.774
326.9553, 1024.523
327.4374, 1039.159
327.9195, 1057.673
328.4016, 1068.523
328.8838, 1060.651
329.3659, 1058.953
329.8480, 1068.972
330.3301, 1088.016
330.8122, 1099.121
331.2943, 1094.839
331.7765, 1090.064
332.2586, 1093.967
332.7407, 1116.149
333.2228, 1129.427
333.7049, 1129.358
334.1870, 1119.160
334.6692, 1111.784
335.1513, 1106.998
335.6334, 1105.336
336.1155, 1107.504
336.5976, 1114.562
337.0797, 1122.347
337.5619, 1131.227
338.0440, 1140.390
338.5261, 1146.044
339.0082, 1145.975
339.4903, 1148.888
339.9724, 1161.047
340.4546, 1183.943
340.9367, 1204.298
341.4188, 1222.410
341.9009, 1236.745
342.3830, 1244.067
342.8651, 1244.196
343.3473, 1239.417
343.8294, 1227.484
344.3115, 1209.394
344.7936, 1200.705
345.2757, 1204.535
345.7578, 1212.203
346.2400, 1209.042
346.7221, 1195.695
347.2042, 1182.353
347.6863, 1173.543
348.1684, 1168.678
348.6505, 1165.760
349.1327, 1164.647
349.6148, 1165.442
350.0969, 1170.177
350.5790, 1177.491
351.0611, 1182.217
351.5432, 1182.962
352.0254, 1179.209
352.5075, 1166.365
352.9896, 1143.029
353.4717, 1124.126
353.9538, 1134.253
354.4359, 1158.552
354.9181, 1167.462
355.4002, 1132.752
355.8823, 1086.601
356.3644, 1056.695
356.8465, 1043.708
357.3286, 1041.854
357.8108, 1057.453
358.2929, 1079.194
358.7750, 1092.595
359.2571, 1087.375
359.7392, 1076.590
360.2213, 1064.677
360.7035, 1052.094
361.1856, 1043.866
361.6677, 1047.111
362.1498, 1053.325
362.6319, 1055.164
363.1140, 1048.988
363.5962, 1039.904
364.0783, 1028.365
364.5604, 1014.690
365.0425, 1001.064
365.5246, 977.0005
366.0067, 960.1447
366.4889, 961.2478
366.9710, 1014.723
367.4531, 1047.502
367.9352, 1038.191
368.4173, 998.4541
368.8994, 980.1374
369.3815, 1005.805
369.8636, 1034.232
370.3458, 1047.245
370.8279, 1033.853
371.3100, 1023.874
371.7921, 1017.010
372.2742, 1013.542
372.7563, 1015.157
373.2385, 1026.652
373.7206, 1035.251
374.2027, 1034.444
374.6848, 1020.765
375.1669, 1011.883
375.6490, 1007.927
376.1312, 1008.640
376.6133, 1016.239
377.0954, 1034.149
377.5775, 1044.910
378.0596, 1037.114
378.5417, 1011.829
379.0239, 1003.806
379.5060, 1017.096
379.9881, 1035.760
380.4702, 1037.180
380.9523, 1022.127
381.4344, 1012.441
381.9166, 1018.165
382.3987, 1034.013
382.8808, 1046.114
383.3629, 1054.533
383.8450, 1056.416
384.3271, 1041.017
384.8093, 1015.471
385.2914, 1003.172
385.7735, 1018.102
386.2556, 1042.931
386.7377, 1052.720
387.2198, 1049.172
387.7020, 1045.506
388.1841, 1056.492
388.6662, 1071.425
389.1483, 1074.780
389.6304, 1056.200
390.1125, 1035.898
390.5947, 1028.424
391.0768, 1031.453
391.5589, 1037.979
392.0410, 1050.533
392.5231, 1061.458
393.0052, 1064.264
393.4874, 1054.406
393.9695, 1044.836
394.4516, 1039.631
394.9337, 1038.135
395.4158, 1039.163
395.8979, 1047.579
396.3801, 1054.009
396.8622, 1053.133
397.3443, 1041.221
397.8264, 1033.939
398.3085, 1034.766
398.7906, 1040.791
399.2728, 1048.718
399.7549, 1067.652
400.2370, 1078.054
400.7191, 1073.687
401.2012, 1053.329
401.6833, 1036.386
402.1655, 1021.567
402.6476, 1011.644
403.1297, 1010.086
403.6118, 1020.957
404.0939, 1030.385
404.5760, 1036.172
405.0582, 1038.861
405.5403, 1040.720
406.0224, 1041.162
406.5045, 1042.404
406.9866, 1046.683
407.4688, 1054.266
407.9509, 1060.626
408.4330, 1066.092
408.9151, 1069.068
409.3972, 1063.713
409.8793, 1050.032
410.3615, 1038.802
410.8436, 1038.219
411.3257, 1045.195
411.8078, 1049.584
412.2899, 1050.787
412.7720, 1049.268
413.2542, 1043.785
413.7363, 1035.743
414.2184, 1029.184
414.7005, 1024.980
415.1826, 1023.839
415.6647, 1027.671
416.1469, 1036.544
416.6290, 1046.298
417.1111, 1055.999
417.5932, 1064.177
418.0753, 1068.645
418.5574, 1063.249
419.0396, 1058.910
419.5217, 1062.546
420.0038, 1072.970
420.4859, 1082.492
420.9680, 1092.650
421.4501, 1098.083
421.9323, 1094.365
422.4144, 1068.507
422.8965, 1050.366
423.3786, 1049.963
423.8607, 1061.513
424.3428, 1068.267
424.8250, 1065.650
425.3071, 1060.959
425.7892, 1055.726
426.2713, 1046.714
426.7534, 1046.302
427.2355, 1060.877
427.7177, 1080.088
428.1998, 1087.727
428.6819, 1078.249
429.1640, 1069.332
429.6461, 1064.777
430.1282, 1064.645
430.6104, 1071.399
431.0925, 1087.581
431.5746, 1103.949
432.0567, 1111.168
432.5388, 1109.068
433.0209, 1102.164
433.5031, 1087.941
433.9852, 1072.324
434.4673, 1072.673
434.9494, 1088.618
435.4315, 1104.599
435.9136, 1108.338
436.3958, 1103.507
436.8779, 1098.549
437.3600, 1093.746
437.8421, 1091.938
438.3242, 1100.698
438.8063, 1115.745
439.2885, 1125.040
439.7706, 1115.276
440.2527, 1101.127
440.7348, 1096.130
441.2169, 1101.854
441.6990, 1110.915
442.1812, 1123.919
442.6633, 1136.309
443.1454, 1142.854
443.6275, 1137.012
444.1096, 1129.746
444.5917, 1124.844
445.0739, 1122.161
445.5560, 1118.869
446.0381, 1109.795
446.5202, 1103.034
447.0023, 1103.417
447.4844, 1120.546
447.9666, 1132.883
448.4487, 1138.287
448.9308, 1139.002
449.4129, 1141.572
449.8950, 1149.378
450.3771, 1153.399
450.8592, 1148.229
451.3413, 1131.109
451.8235, 1121.991
452.3056, 1123.346
452.7877, 1128.792
453.2698, 1129.011
453.7519, 1123.342
454.2340, 1120.269
454.7162, 1123.856
455.1983, 1131.577
455.6804, 1133.931
456.1625, 1130.663
456.6446, 1126.425
457.1267, 1123.088
457.6089, 1121.775
458.0910, 1126.410
458.5731, 1140.339
459.0552, 1155.791
459.5373, 1161.779
460.0194, 1160.949
460.5016, 1139.277
460.9837, 1168.072
461.4658, 1184.530
461.9479, 1189.314
462.4300, 1147.462
462.9121, 1165.832
463.3943, 1160.067
463.8764, 1153.313
464.3585, 1180.158
464.8406, 1145.089
465.3227, 1171.402
465.8048, 1173.212
466.2870, 1186.237
466.7691, 1174.978
467.2512, 1171.219
467.7333, 1191.752
468.2154, 1198.834
468.6975, 1184.780
469.1797, 1198.517
469.6618, 1162.600
470.1439, 1170.255
470.6260, 1196.710
471.1081, 1183.877
471.5902, 1198.058
472.0724, 1201.950
472.5545, 1159.086
473.0366, 1197.537
473.5187, 1200.821
474.0008, 1167.998
474.4829, 1203.662
474.9651, 1175.817
475.4472, 1170.641
475.9293, 1182.524
476.4114, 1176.624
476.8935, 1198.762
477.3756, 1193.888
477.8578, 1186.601
478.3399, 1189.846
478.8220, 1186.978
479.3041, 1187.503
479.7862, 1179.803
480.2683, 1174.858
480.7505, 1187.037
481.2326, 1207.986
481.7147, 1220.165
482.1968, 1207.948
482.6789, 1192.067
483.1610, 1181.331
483.6432, 1176.161
484.1253, 1178.751
484.6074, 1199.870
485.0895, 1223.726
485.5716, 1236.757
486.0537, 1225.936
486.5359, 1218.165
487.0180, 1215.540
487.5001, 1217.603
487.9822, 1223.391
488.4643, 1237.921
488.9464, 1247.886
489.4286, 1245.425
489.9107, 1227.837
490.3928, 1212.003
490.8749, 1197.254
491.3570, 1185.682
491.8391, 1181.130
492.3213, 1183.617
492.8034, 1187.421
493.2855, 1190.127
493.7676, 1192.917
494.2497, 1199.238
494.7318, 1209.001
495.2140, 1219.961
495.6961, 1233.581
496.1782, 1246.473
496.6603, 1251.948
497.1424, 1247.305
497.6245, 1238.217
498.1067, 1222.639
498.5888, 1205.756
499.0709, 1199.430
499.5530, 1223.471
500.0351, 1247.523
500.5172, 1252.108
500.9994, 1232.276
501.4815, 1218.508
501.9636, 1222.672
502.4457, 1233.341
502.9278, 1240.212
503.4099, 1240.009
503.8921, 1239.342
504.3742, 1239.699
504.8563, 1240.168
505.3384, 1236.517
505.8205, 1227.167
506.3026, 1216.877
506.7848, 1206.426
507.2669, 1194.632
507.7490, 1192.721
508.2311, 1203.724
508.7132, 1217.700
509.1953, 1218.943
509.6775, 1208.899
510.1596, 1204.504
510.6417, 1214.430
511.1238, 1231.315
511.6059, 1241.865
512.0880, 1246.225
512.5701, 1246.188
513.0522, 1238.236
513.5344, 1228.504
514.0165, 1224.960
514.4986, 1229.867
514.9807, 1238.456
515.4628, 1254.443
515.9449, 1271.187
516.4271, 1277.253
516.9092, 1254.017
517.3913, 1233.598
517.8734, 1231.297
518.3555, 1248.532
518.8376, 1259.577
519.3198, 1260.445
519.8019, 1255.068
520.2840, 1244.371
520.7661, 1219.061
521.2482, 1207.658
521.7303, 1216.372
522.2125, 1236.856
522.6946, 1251.053
523.1767, 1258.676
523.6588, 1261.510
524.1409, 1258.097
524.6230, 1249.719
525.1052, 1246.488
525.5873, 1248.968
526.0694, 1252.111
526.5515, 1248.611
527.0336, 1241.620
527.5157, 1240.873
527.9979, 1250.844
528.4800, 1264.074
528.9621, 1274.729
529.4442, 1282.398
529.9263, 1286.194
530.4084, 1282.833
530.8906, 1277.359
531.3727, 1272.012
531.8548, 1266.457
532.3369, 1265.385
532.8190, 1276.468
533.3011, 1289.706
533.7833, 1295.834
534.2654, 1282.929
534.7475, 1275.951
535.2296, 1280.870
535.7117, 1293.554
536.1938, 1299.438
536.6760, 1296.565
537.1581, 1290.759
537.6402, 1283.073
538.1223, 1273.037
538.6044, 1269.067
539.0865, 1272.881
539.5687, 1277.664
540.0508, 1273.854
540.5329, 1262.853
541.0150, 1255.067
541.4971, 1252.995
541.9792, 1255.635
542.4614, 1265.081
542.9435, 1279.314
543.4256, 1288.890
543.9077, 1282.915
544.3898, 1272.570
544.8719, 1268.401
545.3541, 1271.841
545.8362, 1278.797
546.3183, 1294.737
546.8004, 1310.189
547.2825, 1314.949
547.7646, 1290.737
548.2468, 1273.324
548.7289, 1271.987
549.2110, 1283.588
549.6931, 1294.936
550.1752, 1308.545
550.6573, 1318.417
551.1395, 1321.213
551.6216, 1315.355
552.1037, 1311.490
552.5858, 1309.488
553.0679, 1309.691
553.5500, 1313.616
554.0322, 1321.041
554.5143, 1327.422
554.9964, 1332.654
555.4785, 1335.085
555.9606, 1327.942
556.4427, 1313.464
556.9249, 1303.998
557.4070, 1315.070
557.8891, 1331.048
558.3712, 1332.255
558.8533, 1315.333
559.3354, 1299.105
559.8176, 1291.626
560.2997, 1291.036
560.7818, 1295.444
561.2639, 1313.415
561.7460, 1326.072
562.2281, 1325.640
562.7103, 1316.074
563.1924, 1312.655
563.6745, 1319.734
564.1566, 1327.277
564.6387, 1330.639
565.1208, 1328.726
565.6030, 1335.469
566.0851, 1354.828
566.5672, 1373.608
567.0493, 1376.804
567.5314, 1365.102
568.0135, 1352.964
568.4957, 1341.052
568.9778, 1333.684
569.4599, 1345.172
569.9420, 1370.132
570.4241, 1385.197
570.9063, 1367.916
571.3884, 1340.853
571.8705, 1324.806
572.3526, 1320.905
572.8347, 1324.723
573.3168, 1342.250
573.7990, 1362.016
574.2811, 1373.964
574.7632, 1370.480
575.2453, 1367.236
575.7274, 1368.164
576.2095, 1370.618
576.6917, 1368.938
577.1738, 1358.566
577.6559, 1351.435
578.1380, 1350.311
578.6201, 1355.160
579.1022, 1368.087
579.5844, 1392.130
580.0665, 1412.938
580.5486, 1416.940
581.0307, 1406.563
581.5128, 1398.148
581.9949, 1393.147
582.4771, 1391.779
582.9592, 1398.758
583.4413, 1409.800
583.9234, 1414.298
584.4055, 1396.081
584.8876, 1378.944
585.3698, 1385.197
585.8519, 1410.491
586.3340, 1431.145
586.8161, 1438.275
587.2982, 1436.945
587.7803, 1428.049
588.2625, 1405.689
588.7446, 1391.625
589.2267, 1388.377
589.7088, 1392.526
590.1909, 1402.046
590.6730, 1421.222
591.1552, 1433.273
591.6373, 1433.222
592.1194, 1425.591
592.6015, 1423.829
593.0836, 1428.222
593.5657, 1433.701
594.0479, 1438.099
594.5300, 1441.474
595.0121, 1443.710
595.4942, 1444.780
595.9763, 1445.579
596.4584, 1445.842
596.9406, 1446.620
597.4227, 1436.278
597.9048, 1451.224
598.3869, 1460.001
598.8690, 1462.943
599.3511, 1442.565
599.8333, 1452.299
600.3154, 1449.965
600.7975, 1447.137
601.2796, 1461.108
601.7617, 1444.123
602.2438, 1457.828
602.7260, 1459.282
603.2081, 1466.343
603.6902, 1461.262
604.1723, 1459.931
604.6544, 1470.746
605.1365, 1474.836
605.6187, 1468.358
606.1008, 1475.775
606.5829, 1458.365
607.0650, 1462.741
607.5471, 1463.755
608.0292, 1457.974
608.5114, 1457.564
608.9935, 1461.577
609.4756, 1466.748
609.9577, 1473.695
610.4398, 1479.355
610.9219, 1479.933
611.4041, 1473.693
611.8862, 1473.158
612.3683, 1488.360
612.8504, 1505.312
613.3325, 1513.348
613.8146, 1508.624
614.2968, 1501.624
614.7789, 1489.301
615.2610, 1477.933
615.7431, 1483.849
616.2252, 1509.405
616.7073, 1527.982
617.1895, 1527.009
617.6716, 1513.434
618.1537, 1503.387
618.6358, 1497.035
619.1179, 1498.512
619.6000, 1521.002
620.0822, 1548.253
620.5643, 1558.379
621.0464, 1546.231
621.5285, 1532.059
622.0106, 1524.116
622.4927, 1521.223
622.9749, 1522.190
623.4570, 1523.157
623.9391, 1532.648
624.4212, 1565.102
624.9033, 1605.684
625.3854, 1612.720
625.8676, 1568.483
626.3497, 1529.844
626.8318, 1519.079
627.3139, 1532.727
627.7960, 1535.958
628.2781, 1527.436
