##NAMES=Claringbullite
##RRUFFID=R090016
##IDEAL CHEMISTRY=Cu^2+^_4_FCl(OH)_6_
##LOCALITY=Copper Queen Mine, Bisbee, Arizona
##OWNER=RRUFF
##SOURCE=William W. Pinch
##DESCRIPTION=Blue green crystal plates and cleavages on cuprite with connellite, atacamite, clinoatacamite R090062. Note that this is the same sample used in the Burns et al (1995) structural study.
##STATUS=The identification of this mineral has been confirmed by single-crystal X-ray diffraction.
##URL=rruff.info/R090016
90.92609, 0.0000000E+00
91.40820, 7.630930
91.89032, 7.938954
92.37244, 7.805036
92.85455, 7.293149
93.33667, 6.786079
93.81879, 6.528374
94.30090, 6.488601
94.78302, 6.592660
95.26514, 6.910222
95.74725, 7.291084
96.22937, 7.370674
96.71149, 7.131054
97.19360, 6.786527
97.67572, 6.456478
98.15784, 6.149052
98.63995, 6.055368
99.12207, 6.325840
99.60419, 6.897985
100.0863, 7.204479
100.5684, 7.172168
101.0505, 7.020721
101.5327, 7.056032
102.0148, 7.350424
102.4969, 7.582790
102.9790, 7.582248
103.4611, 7.247797
103.9432, 7.269924
104.4253, 7.820983
104.9075, 8.636112
105.3896, 9.143760
105.8717, 9.052862
106.3538, 9.056349
106.8359, 9.433823
107.3180, 10.42747
107.8002, 11.36457
108.2823, 12.12339
108.7644, 12.80039
109.2465, 13.78596
109.7286, 15.36990
110.2107, 17.04137
110.6929, 18.60890
111.1750, 19.44751
111.6571, 20.85135
112.1392, 23.15482
112.6213, 26.24547
113.1034, 29.30196
113.5856, 32.10199
114.0677, 34.91493
114.5498, 37.90755
115.0319, 41.34532
115.5140, 44.77803
115.9961, 47.99372
116.4783, 50.99379
116.9604, 54.08262
117.4425, 57.71984
117.9246, 61.43761
118.4067, 64.69027
118.8888, 67.03156
119.3710, 69.07966
119.8531, 71.08959
120.3352, 73.04929
120.8173, 75.19431
121.2994, 77.50788
121.7815, 80.09858
122.2637, 83.16901
122.7458, 87.23584
123.2279, 91.59298
123.7100, 95.42306
124.1921, 98.50063
124.6742, 101.6354
125.1564, 105.6961
125.6385, 110.4685
126.1206, 115.2952
126.6027, 119.7022
127.0848, 123.8817
127.5669, 128.2054
128.0491, 132.8585
128.5312, 137.4027
129.0133, 141.2391
129.4954, 144.3651
129.9775, 147.0784
130.4596, 149.5045
130.9418, 151.6498
131.4239, 153.6163
131.9060, 155.3866
132.3881, 157.0268
132.8702, 158.5952
133.3523, 160.0855
133.8345, 161.6791
134.3166, 163.5845
134.7987, 165.8167
135.2808, 168.0098
135.7629, 170.0995
136.2450, 172.1214
136.7272, 174.1084
137.2093, 175.9842
137.6914, 178.0884
138.1735, 181.0792
138.6556, 185.2572
139.1377, 188.6029
139.6199, 190.3004
140.1020, 190.3471
140.5841, 191.4844
141.0662, 194.0777
141.5483, 197.2503
142.0304, 199.8884
142.5126, 201.7474
142.9947, 203.4842
143.4768, 204.6142
143.9589, 204.6500
144.4410, 204.8661
144.9231, 205.2125
145.4053, 205.7603
145.8874, 206.7277
146.3695, 208.8618
146.8516, 210.3740
147.3337, 210.6186
147.8158, 209.0478
148.2980, 207.6997
148.7801, 206.5870
149.2622, 205.6820
149.7443, 204.9598
150.2264, 204.5647
150.7085, 204.2069
151.1907, 203.8210
151.6728, 203.6077
152.1549, 203.0319
152.6370, 201.7463
153.1191, 200.0659
153.6012, 198.8081
154.0834, 198.3739
154.5655, 198.0992
155.0476, 197.6859
155.5297, 196.8651
156.0118, 196.2292
156.4939, 195.9334
156.9761, 195.8941
157.4582, 195.8508
157.9403, 195.8087
158.4224, 195.7059
158.9045, 195.4969
159.3866, 194.9005
159.8688, 194.5171
160.3509, 194.7191
160.8330, 195.3583
161.3151, 195.7379
161.7972, 195.2042
162.2793, 194.5296
162.7615, 194.3090
163.2436, 195.3997
163.7257, 196.3174
164.2078, 196.1379
164.6899, 195.0457
165.1720, 194.3555
165.6541, 195.1234
166.1363, 196.4378
166.6184, 197.3992
167.1005, 197.4474
167.5826, 197.2537
168.0647, 197.1429
168.5468, 197.1192
169.0290, 197.2376
169.5111, 197.4774
169.9932, 197.8900
170.4753, 198.5471
170.9574, 199.8369
171.4395, 201.1441
171.9217, 201.9396
172.4038, 202.2245
172.8859, 202.3132
173.3680, 202.2052
173.8501, 202.0864
174.3322, 202.2810
174.8144, 203.1589
175.2965, 204.3206
175.7786, 205.3395
176.2607, 206.2245
176.7428, 206.8681
177.2249, 207.1333
177.7071, 207.0753
178.1892, 206.8377
178.6713, 206.2583
179.1534, 205.5989
179.6355, 205.4558
180.1176, 205.9166
180.5998, 206.2348
181.0819, 205.2856
181.5640, 203.4299
182.0461, 201.9281
182.5282, 201.8670
183.0103, 202.5489
183.4925, 202.3277
183.9746, 201.0657
184.4567, 199.3150
184.9388, 197.7822
185.4209, 196.3852
185.9030, 194.7113
186.3852, 192.2244
186.8673, 189.2556
187.3494, 186.9840
187.8315, 185.5950
188.3136, 184.4654
188.7957, 182.7042
189.2779, 180.3601
189.7600, 177.8482
190.2421, 175.2541
190.7242, 172.6452
191.2063, 170.3690
191.6884, 168.4919
192.1706, 166.8484
192.6527, 165.1023
193.1348, 163.2554
193.6169, 161.5253
194.0990, 160.1479
194.5811, 159.0811
195.0633, 157.5224
195.5454, 155.2755
196.0275, 152.8342
196.5096, 151.3141
196.9917, 150.7915
197.4738, 150.2337
197.9560, 149.0156
198.4381, 147.1432
198.9202, 145.5199
199.4023, 144.2199
199.8844, 143.1529
200.3665, 142.1696
200.8487, 141.2654
201.3308, 140.4532
201.8129, 139.8078
202.2950, 139.3575
202.7771, 138.6951
203.2592, 137.7402
203.7414, 136.6277
204.2235, 135.5881
204.7056, 134.5942
205.1877, 133.8040
205.6698, 133.3600
206.1519, 133.3249
206.6341, 133.2447
207.1162, 133.1806
207.5983, 132.9951
208.0804, 132.2509
208.5625, 130.7293
209.0446, 129.3405
209.5268, 128.6119
210.0089, 128.7232
210.4910, 128.6232
210.9731, 128.2034
211.4552, 127.6159
211.9373, 127.2685
212.4195, 127.2878
212.9016, 127.2355
213.3837, 126.8488
213.8658, 125.9786
214.3479, 125.3371
214.8300, 125.0214
215.3121, 124.8892
215.7943, 124.5456
216.2764, 123.8236
216.7585, 123.2431
217.2406, 123.1158
217.7227, 123.6954
218.2048, 123.9055
218.6870, 123.6842
219.1691, 123.1145
219.6512, 122.3098
220.1333, 121.0249
220.6154, 119.9514
221.0975, 119.4577
221.5797, 119.8885
222.0618, 119.8792
222.5439, 119.2175
223.0260, 118.2199
223.5081, 117.5993
223.9902, 117.5453
224.4724, 117.5527
224.9545, 117.4201
225.4366, 117.1007
225.9187, 116.7758
226.4008, 116.4284
226.8829, 116.0829
227.3651, 115.7809
227.8472, 115.4974
228.3293, 115.2948
228.8114, 115.2444
229.2935, 115.4896
229.7757, 115.4115
230.2578, 114.7930
230.7399, 113.9549
231.2220, 113.5639
231.7041, 113.9392
232.1862, 114.2490
232.6684, 114.1580
233.1505, 113.4882
233.6326, 112.9819
234.1147, 112.6407
234.5968, 112.4602
235.0789, 112.4771
235.5611, 112.8914
236.0432, 113.1764
236.5253, 113.1076
237.0074, 112.5293
237.4895, 112.2055
237.9716, 112.3774
238.4538, 112.6580
238.9359, 112.3456
239.4180, 110.8676
239.9001, 109.7298
240.3822, 109.5033
240.8643, 110.4624
241.3465, 111.0495
241.8286, 111.0921
242.3107, 110.8843
242.7928, 110.8530
243.2749, 111.1285
243.7570, 111.3568
244.2392, 111.4680
244.7213, 111.4768
245.2034, 111.2458
245.6855, 110.6100
246.1676, 109.8710
246.6497, 109.4135
247.1319, 109.3530
247.6140, 109.3698
248.0961, 109.4078
248.5782, 109.4743
249.0603, 109.5097
249.5424, 109.5255
250.0246, 109.5023
250.5067, 109.3999
250.9888, 109.1322
251.4709, 108.9603
251.9530, 108.9815
252.4351, 109.2105
252.9173, 109.3053
253.3994, 109.2358
253.8815, 109.0651
254.3636, 108.8353
254.8457, 108.4940
255.3278, 108.2064
255.8100, 108.0031
256.2921, 107.8817
256.7742, 107.8249
257.2563, 107.9302
257.7384, 107.9693
258.2205, 107.7079
258.7026, 106.9705
259.1848, 106.3775
259.6669, 106.0693
260.1490, 106.0077
260.6311, 105.8757
261.1132, 105.6513
261.5953, 105.3977
262.0775, 105.1527
262.5596, 104.8923
263.0417, 104.7087
263.5238, 104.6208
264.0059, 104.6164
264.4880, 104.6562
264.9702, 104.7926
265.4523, 104.8657
265.9344, 104.7296
266.4165, 104.2809
266.8986, 104.0018
267.3807, 103.9729
267.8629, 104.1217
268.3450, 104.2426
268.8271, 104.3844
269.3092, 104.3838
269.7913, 104.0769
270.2734, 103.3556
270.7556, 102.8920
271.2377, 102.7757
271.7198, 102.8860
272.2019, 102.9434
272.6840, 102.9338
273.1661, 102.9286
273.6483, 103.0107
274.1304, 103.2180
274.6125, 103.1665
275.0946, 102.7598
275.5767, 102.2109
276.0588, 101.9174
276.5410, 101.9241
277.0231, 101.9383
277.5052, 101.7898
277.9873, 101.4696
278.4694, 101.3848
278.9515, 101.5937
279.4337, 101.9061
279.9158, 102.0416
280.3979, 101.9805
280.8800, 101.9360
281.3621, 102.0023
281.8442, 102.1634
282.3264, 102.3006
282.8085, 102.4483
283.2906, 102.4614
283.7727, 102.0453
284.2548, 101.1950
284.7369, 100.5711
285.2191, 100.4520
285.7012, 100.7000
286.1833, 100.7453
286.6654, 100.5724
287.1475, 100.3033
287.6296, 100.0085
288.1118, 99.69631
288.5939, 99.48230
289.0760, 99.42822
289.5581, 99.46102
290.0402, 99.40778
290.5223, 99.26647
291.0045, 99.06187
291.4866, 98.71901
291.9687, 98.29636
292.4508, 98.12931
292.9329, 98.40004
293.4150, 98.76044
293.8972, 98.52509
294.3793, 97.74092
294.8614, 96.94170
295.3435, 96.57455
295.8256, 96.47685
296.3077, 96.14800
296.7899, 95.45837
297.2720, 94.74157
297.7541, 94.54160
298.2362, 94.75600
298.7183, 94.92152
299.2004, 94.72240
299.6826, 94.31293
300.1647, 93.98868
300.6468, 93.78636
301.1289, 93.57484
301.6110, 93.13818
302.0931, 92.57342
302.5753, 92.12536
303.0574, 91.99890
303.5395, 92.01649
304.0216, 92.00478
304.5037, 91.96200
304.9858, 91.77310
305.4680, 91.15008
305.9501, 90.34077
306.4322, 89.77469
306.9143, 89.81499
307.3964, 90.01122
307.8785, 89.88628
308.3607, 89.48129
308.8428, 89.17739
309.3249, 89.39070
309.8070, 89.78871
310.2891, 89.97151
310.7712, 89.71604
311.2534, 89.35888
311.7355, 89.07653
312.2176, 88.86925
312.6997, 88.75127
313.1818, 88.80666
313.6639, 88.91039
314.1461, 88.98466
314.6282, 89.06767
315.1103, 88.99670
315.5924, 88.52578
316.0745, 87.84405
316.5566, 87.33872
317.0388, 87.22765
317.5209, 87.30045
318.0030, 87.48955
318.4851, 87.84325
318.9672, 88.07775
319.4493, 88.04411
319.9315, 87.85027
320.4136, 87.63775
320.8957, 87.39477
321.3778, 87.18792
321.8599, 86.96983
322.3420, 86.71486
322.8242, 86.75480
323.3063, 87.60195
323.7884, 88.56158
324.2705, 89.02770
324.7526, 88.39066
325.2347, 87.79785
325.7169, 87.45043
326.1990, 87.33981
326.6811, 87.37800
327.1632, 87.73722
327.6453, 88.12203
328.1274, 88.36862
328.6096, 88.39212
329.0917, 88.37796
329.5738, 88.29732
330.0559, 88.17878
330.5380, 88.10929
331.0201, 88.04589
331.5023, 88.07915
331.9844, 88.26562
332.4665, 88.69993
332.9486, 89.05018
333.4307, 89.28981
333.9128, 89.45695
334.3950, 89.61181
334.8771, 89.76582
335.3592, 89.88780
335.8413, 89.96387
336.3234, 89.99120
336.8055, 89.98876
337.2877, 89.90983
337.7698, 89.86507
338.2519, 90.00134
338.7340, 90.36974
339.2161, 90.72089
339.6982, 91.01795
340.1803, 91.25565
340.6624, 91.33379
341.1446, 91.18688
341.6267, 91.10202
342.1088, 91.42359
342.5909, 92.17403
343.0730, 92.54865
343.5551, 92.33788
344.0373, 91.80759
344.5194, 91.55667
345.0015, 91.59045
345.4836, 91.73842
345.9657, 92.02348
346.4478, 92.37804
346.9300, 92.37748
347.4121, 91.93765
347.8942, 91.35989
348.3763, 90.96620
348.8584, 90.76328
349.3405, 90.77147
349.8227, 91.15681
350.3048, 91.72916
350.7869, 92.10098
351.2690, 92.27132
351.7511, 92.30424
352.2332, 92.14816
352.7154, 91.89988
353.1975, 91.77312
353.6796, 91.89310
354.1617, 92.10252
354.6438, 92.27374
355.1259, 92.39539
355.6081, 92.41230
356.0902, 92.11681
356.5723, 91.76369
357.0544, 91.68273
357.5365, 92.05103
358.0186, 92.42919
358.5008, 92.46793
358.9829, 92.29173
359.4650, 92.16927
359.9471, 92.29492
360.4292, 92.46191
360.9113, 92.53081
361.3935, 92.47466
361.8756, 92.42370
362.3577, 92.41476
362.8398, 92.44733
363.3219, 92.52068
363.8040, 92.71520
364.2862, 92.87527
364.7683, 92.90268
365.2504, 92.80962
365.7325, 92.82383
366.2146, 93.24233
366.6967, 93.62148
367.1789, 93.68575
367.6610, 92.84459
368.1431, 92.35562
368.6252, 92.48219
369.1073, 93.04741
369.5894, 93.47680
370.0716, 93.59834
370.5537, 93.76578
371.0358, 94.15792
371.5179, 94.96666
372.0000, 95.38735
372.4821, 95.15210
372.9643, 94.70832
373.4464, 94.70937
373.9285, 95.47268
374.4106, 95.99223
374.8927, 95.93108
375.3748, 95.31858
375.8570, 95.04764
376.3391, 95.19850
376.8212, 95.51473
377.3033, 95.83975
377.7854, 96.19554
378.2675, 96.35654
378.7497, 96.23359
379.2318, 95.95573
379.7139, 95.88177
380.1960, 96.03372
380.6781, 96.14577
381.1602, 96.01598
381.6424, 95.69129
382.1245, 95.49285
382.6066, 95.46208
383.0887, 95.44376
383.5708, 95.24346
384.0529, 94.88280
384.5351, 94.44631
385.0172, 93.85464
385.4993, 93.26884
385.9814, 93.04811
386.4635, 93.17505
386.9456, 93.24305
387.4278, 92.82487
387.9099, 92.15202
388.3920, 91.59777
388.8741, 91.30204
389.3562, 91.07600
389.8383, 90.77504
390.3205, 90.40785
390.8026, 90.00825
391.2847, 89.41285
391.7668, 88.90841
392.2489, 88.82796
392.7310, 89.33016
393.2132, 89.60743
393.6953, 89.07769
394.1774, 88.16240
394.6595, 87.36462
395.1416, 86.84878
395.6237, 86.47391
396.1059, 86.27821
396.5880, 86.24124
397.0701, 86.07169
397.5522, 85.53663
398.0343, 84.97066
398.5164, 84.57335
398.9986, 84.52460
399.4807, 84.43434
399.9628, 84.24036
400.4449, 84.00117
400.9270, 83.85987
401.4091, 83.95089
401.8913, 83.96738
402.3734, 83.79012
402.8555, 83.37511
403.3376, 82.99866
403.8197, 82.60634
404.3018, 82.31496
404.7840, 82.27307
405.2661, 82.54167
405.7482, 82.86145
406.2303, 83.23900
406.7124, 83.61856
407.1945, 83.72546
407.6767, 83.50240
408.1588, 83.28374
408.6409, 83.33607
409.1230, 83.63670
409.6051, 83.84975
410.0872, 83.94478
410.5694, 83.96335
411.0515, 83.86230
411.5336, 83.68814
412.0157, 83.73879
412.4978, 84.31228
412.9799, 85.15359
413.4621, 85.74421
413.9442, 86.09431
414.4263, 86.38662
414.9084, 86.62949
415.3905, 86.94912
415.8727, 87.59473
416.3548, 88.80962
416.8369, 90.07478
417.3190, 90.88041
417.8011, 91.37765
418.2832, 91.98293
418.7654, 92.92281
419.2475, 94.02199
419.7296, 95.19563
420.2117, 96.47177
420.6938, 97.64053
421.1759, 98.43522
421.6581, 99.14991
422.1402, 100.1075
422.6223, 101.5398
423.1044, 103.0475
423.5865, 104.5589
424.0686, 106.0617
424.5508, 107.5399
425.0329, 108.8925
425.5150, 110.2893
425.9971, 111.8040
426.4792, 113.4537
426.9613, 115.1875
427.4435, 117.0569
427.9256, 118.9727
428.4077, 120.7662
428.8898, 122.3674
429.3719, 124.0577
429.8540, 125.9478
430.3362, 128.0143
430.8183, 130.0521
431.3004, 132.0405
431.7825, 134.0275
432.2646, 136.0657
432.7467, 138.1468
433.2289, 140.1948
433.7110, 142.1487
434.1931, 144.0836
434.6752, 146.2363
435.1573, 148.5658
435.6394, 150.6327
436.1216, 151.9841
436.6036, 152.9543
437.0858, 154.3559
437.5679, 156.2228
438.0500, 158.0069
438.5321, 159.2761
439.0142, 160.1262
439.4963, 160.7145
439.9785, 161.0698
440.4606, 161.2063
440.9427, 161.0226
441.4248, 160.6111
441.9069, 160.2433
442.3890, 160.4980
442.8712, 160.5236
443.3533, 159.6548
443.8354, 157.6487
444.3175, 155.6121
444.7996, 153.9548
445.2817, 152.4529
445.7639, 150.8575
446.2460, 149.2284
446.7281, 147.3796
447.2102, 145.1298
447.6923, 142.5521
448.1744, 140.2546
448.6566, 138.2888
449.1387, 136.5404
449.6208, 135.0242
450.1029, 133.9275
450.5850, 132.4348
451.0671, 130.4009
451.5493, 128.1405
452.0314, 126.0246
452.5135, 124.0099
452.9956, 122.4456
453.4777, 121.6100
453.9598, 121.2825
454.4420, 120.4122
454.9241, 118.9556
455.4062, 117.4306
455.8883, 116.2269
456.3704, 115.2913
456.8525, 114.4006
457.3347, 113.5429
457.8168, 112.7471
458.2989, 112.1030
458.7810, 111.5681
459.2631, 111.0374
459.7452, 110.4523
460.2274, 109.8467
460.7095, 109.1843
461.1916, 108.4874
461.6737, 107.9992
462.1558, 108.0692
462.6379, 108.3010
463.1201, 108.3044
463.6022, 107.8790
464.0843, 107.5142
464.5664, 107.4352
465.0485, 107.5369
465.5306, 107.6516
466.0128, 107.6985
466.4949, 107.7931
466.9770, 108.0168
467.4591, 108.3774
467.9412, 108.6049
468.4233, 108.6097
468.9055, 108.5573
469.3876, 108.5301
469.8697, 108.4829
470.3518, 108.5669
470.8339, 108.8107
471.3160, 109.1732
471.7982, 109.6140
472.2803, 110.1792
472.7624, 110.6440
473.2445, 110.9311
473.7266, 111.0527
474.2087, 111.0254
474.6909, 110.8298
475.1730, 110.6439
475.6551, 110.6064
476.1372, 110.7036
476.6193, 110.9411
477.1014, 111.3890
477.5836, 111.7466
478.0657, 111.4572
478.5478, 110.7434
479.0299, 110.2502
479.5120, 110.5393
479.9941, 111.0090
480.4763, 111.0797
480.9584, 110.7769
481.4405, 110.4213
481.9226, 110.1849
482.4047, 109.9725
482.8868, 109.7020
483.3690, 109.3310
483.8511, 108.9641
484.3332, 108.6508
484.8153, 108.3582
485.2974, 108.0249
485.7795, 107.5034
486.2617, 107.0956
486.7438, 106.9058
487.2259, 106.9293
487.7080, 106.8906
488.1901, 106.7365
488.6722, 106.5897
489.1544, 106.5386
489.6365, 106.6275
490.1186, 106.6314
490.6007, 106.5108
491.0828, 106.3522
491.5649, 106.2549
492.0471, 106.2148
492.5292, 106.3404
493.0113, 106.7116
493.4934, 107.2466
493.9755, 107.7602
494.4576, 108.2464
494.9398, 108.6925
495.4219, 108.8996
495.9040, 109.1008
496.3861, 109.7658
496.8682, 111.0151
497.3503, 112.3977
497.8325, 113.6299
498.3146, 114.7381
498.7967, 115.7891
499.2788, 116.5333
499.7609, 117.4741
500.2430, 118.8986
500.7252, 120.7405
501.2073, 122.7403
501.6894, 125.0188
502.1715, 127.2555
502.6536, 129.2701
503.1357, 130.8543
503.6179, 132.7426
504.1000, 134.9800
504.5821, 137.5060
505.0642, 140.2944
505.5463, 143.4800
506.0284, 146.6109
506.5106, 149.5919
506.9927, 152.4606
507.4748, 155.3195
507.9569, 158.1489
508.4390, 161.0520
508.9211, 164.0497
509.4033, 167.1509
509.8854, 170.4620
510.3675, 173.9926
510.8496, 177.6414
511.3317, 181.4194
511.8138, 185.2549
512.2960, 188.8654
512.7781, 192.2252
513.2602, 195.4129
513.7423, 198.4857
514.2244, 201.4623
514.7065, 204.3871
515.1887, 207.4966
515.6708, 210.4048
516.1529, 212.7737
516.6350, 214.6171
517.1171, 216.3279
517.5992, 218.1227
518.0814, 219.7596
518.5635, 221.0941
519.0456, 222.2770
519.5277, 222.8641
520.0098, 222.5950
520.4919, 221.8323
520.9741, 221.1357
521.4562, 220.7766
521.9383, 219.9369
522.4204, 218.3249
522.9025, 216.0605
523.3846, 213.9413
523.8668, 212.0496
524.3489, 210.0003
524.8310, 207.4791
525.3131, 204.5232
525.7952, 201.6047
526.2773, 198.7506
526.7595, 195.7972
527.2416, 192.4743
527.7237, 188.9398
528.2058, 185.5472
528.6879, 182.5187
529.1700, 179.5789
529.6522, 176.2582
530.1343, 172.8018
530.6164, 169.8125
531.0985, 168.1690
531.5806, 166.6686
532.0627, 164.4661
532.5449, 161.4566
533.0270, 158.7535
533.5091, 156.7810
533.9912, 155.1673
534.4733, 153.6856
534.9554, 152.5946
535.4376, 151.1855
535.9197, 149.2281
536.4018, 147.0705
536.8839, 145.4055
537.3660, 144.3938
537.8481, 143.4042
538.3303, 142.2664
538.8124, 141.0064
539.2945, 139.6933
539.7766, 138.3066
540.2587, 137.0415
540.7408, 136.2140
541.2230, 135.6384
541.7051, 134.5641
542.1872, 132.8875
542.6693, 131.1580
543.1514, 130.0029
543.6335, 129.1642
544.1157, 128.1145
544.5978, 126.5401
545.0799, 124.9296
545.5620, 123.6441
546.0441, 122.5970
546.5262, 121.5747
547.0084, 120.5526
547.4905, 119.4920
547.9726, 118.3632
548.4547, 117.1694
548.9368, 115.8940
549.4189, 114.4045
549.9011, 112.9362
550.3832, 111.6670
550.8653, 110.8813
551.3474, 109.5692
551.8295, 107.5138
552.3116, 105.1879
552.7938, 103.2905
553.2759, 101.8515
553.7580, 100.5602
554.2401, 99.36298
554.7222, 98.23792
555.2043, 97.19752
555.6865, 96.23107
556.1686, 95.11304
556.6507, 93.55379
557.1328, 91.82346
557.6149, 90.29007
558.0970, 88.97548
558.5792, 87.78985
559.0613, 86.67878
559.5434, 85.67442
560.0255, 84.84448
560.5076, 84.41393
560.9897, 83.79443
561.4719, 82.65068
561.9540, 81.22170
562.4361, 79.92311
562.9182, 78.91281
563.4003, 77.90299
563.8824, 76.78847
564.3646, 75.61106
564.8467, 74.62302
565.3288, 73.89300
565.8109, 73.20373
566.2930, 72.42239
566.7751, 71.54588
567.2573, 70.73857
567.7394, 69.99548
568.2215, 69.31128
568.7036, 68.72310
569.1857, 68.19363
569.6678, 67.54821
570.1500, 66.73099
570.6321, 65.85249
571.1142, 65.05206
571.5963, 64.29681
572.0784, 63.51544
572.5605, 62.58649
573.0427, 61.69408
573.5248, 60.95960
574.0069, 60.37016
574.4890, 59.77784
574.9711, 59.20703
575.4532, 58.57945
575.9354, 57.80424
576.4175, 56.74358
576.8996, 56.03813
577.3817, 55.92194
577.8638, 55.93904
578.3459, 55.66764
578.8281, 55.03829
579.3102, 54.41115
579.7923, 53.82109
580.2744, 53.25661
580.7565, 52.66936
581.2386, 52.06782
581.7208, 51.61950
582.2029, 51.48121
582.6850, 51.46553
583.1671, 51.24020
583.6492, 50.82276
584.1313, 50.31920
584.6134, 49.63519
585.0955, 48.98943
