##NAMES=Claudetite
##RRUFFID=R050313
##IDEAL CHEMISTRY=As^3+^_2_O_3_
##LOCALITY=JÃ¡chymov, Erzgebirge Region, Czech Republic
##OWNER=RRUFF
##SOURCE=University of Arizona Mineral Museum
##DESCRIPTION=Colorless prismatic crystals scattered on the matrix
##STATUS=The identification of this mineral is confirmed by single-crystal X-ray diffraction and chemical analysis.
##URL=rruff.info/R050313
##MEASURED CHEMISTRY=As_2.00_O_3_ ; trace amounts of Al, gray phase
92.35352, 33.51683
92.83563, 33.51856
93.31775, 33.52029
93.79987, 33.33302
94.28198, 33.12093
94.76410, 33.36306
95.24622, 34.16619
95.72833, 35.45586
96.21045, 37.24400
96.69257, 39.57393
97.17468, 41.85347
97.65680, 43.27380
98.13892, 43.86713
98.62103, 44.99496
99.10315, 46.93874
99.58527, 49.68149
100.0674, 53.24291
100.5495, 57.83995
101.0316, 62.71148
101.5137, 66.83949
101.9958, 70.10625
102.4780, 73.11650
102.9601, 75.74578
103.4422, 77.71780
103.9243, 81.16357
104.4064, 86.41997
104.8885, 92.94840
105.3707, 99.88122
105.8528, 106.7939
106.3349, 114.6277
106.8170, 123.7331
107.2991, 134.6188
107.7813, 145.8013
108.2634, 156.9045
108.7455, 168.3075
109.2276, 180.8481
109.7097, 197.0119
110.1918, 212.6229
110.6740, 225.9730
111.1561, 237.0271
111.6382, 245.8102
112.1203, 252.1616
112.6024, 256.2123
113.0845, 258.3409
113.5667, 257.5600
114.0488, 255.4626
114.5309, 253.1070
115.0130, 249.9060
115.4951, 247.2592
115.9772, 245.9499
116.4594, 245.9245
116.9415, 245.4619
117.4236, 242.6743
117.9057, 239.5224
118.3878, 238.1094
118.8699, 241.4133
119.3521, 245.0054
119.8342, 245.8321
120.3163, 243.4136
120.7984, 241.4820
121.2805, 242.3127
121.7626, 245.1695
122.2448, 248.7941
122.7269, 254.6103
123.2090, 259.9363
123.6911, 261.5880
124.1732, 258.5919
124.6553, 254.5959
125.1375, 252.7911
125.6196, 252.7370
126.1017, 253.0390
126.5838, 252.0254
127.0659, 250.9511
127.5480, 252.2774
128.0302, 256.8297
128.5123, 262.8848
128.9944, 268.5643
129.4765, 273.8345
129.9586, 278.3837
130.4407, 281.2472
130.9229, 282.9806
131.4050, 286.0107
131.8871, 291.1544
132.3692, 297.4563
132.8513, 302.5517
133.3334, 305.8650
133.8156, 307.6876
134.2977, 309.1664
134.7798, 311.3600
135.2619, 314.5972
135.7440, 319.4187
136.2261, 325.2792
136.7083, 329.7355
137.1904, 332.4310
137.6725, 334.9700
138.1546, 339.3193
138.6367, 345.9144
139.1188, 351.9586
139.6010, 356.5987
140.0831, 359.8193
140.5652, 363.7455
141.0473, 368.5956
141.5294, 373.8864
142.0115, 378.8625
142.4937, 383.2924
142.9758, 388.0100
143.4579, 393.0966
143.9400, 398.2430
144.4221, 405.0345
144.9042, 413.5501
145.3864, 423.6107
145.8685, 434.5509
146.3506, 445.1427
146.8327, 458.2996
147.3148, 475.1323
147.7969, 496.0266
148.2791, 519.3231
148.7612, 543.6223
149.2433, 570.2358
149.7254, 602.7657
150.2075, 637.8824
150.6896, 681.4640
151.1718, 735.2775
151.6539, 800.9873
152.1360, 874.2035
152.6181, 954.4736
153.1002, 1042.041
153.5823, 1137.320
154.0645, 1252.006
154.5466, 1366.951
155.0287, 1473.304
155.5108, 1575.964
155.9929, 1665.200
156.4750, 1733.156
156.9572, 1784.405
157.4393, 1835.805
157.9214, 1890.682
158.4035, 1947.501
158.8856, 2005.445
159.3677, 2065.046
159.8499, 2125.294
160.3320, 2183.173
160.8141, 2239.748
161.2962, 2302.281
161.7783, 2372.330
162.2604, 2449.367
162.7426, 2532.955
163.2247, 2620.308
163.7068, 2716.442
164.1889, 2822.431
164.6710, 2937.651
165.1531, 3066.339
165.6353, 3206.118
166.1174, 3361.625
166.5995, 3537.860
167.0816, 3730.801
167.5637, 3949.053
168.0458, 4196.101
168.5280, 4469.887
169.0101, 4780.400
169.4922, 5141.593
169.9743, 5538.708
170.4564, 5949.260
170.9385, 6404.163
171.4207, 6844.767
171.9028, 7260.900
172.3849, 7655.490
172.8670, 7902.228
173.3491, 7917.745
173.8312, 7719.509
174.3134, 7338.180
174.7955, 6681.286
175.2776, 5900.298
175.7597, 5149.737
176.2418, 4425.156
176.7239, 3783.160
177.2061, 3263.748
177.6882, 2852.210
178.1703, 2517.655
178.6524, 2258.701
179.1345, 2058.528
179.6166, 1897.066
180.0988, 1773.693
180.5809, 1676.673
181.0630, 1598.283
181.5451, 1535.768
182.0272, 1481.518
182.5093, 1430.291
182.9915, 1383.738
183.4736, 1347.333
183.9557, 1321.770
184.4378, 1303.712
184.9199, 1287.745
185.4020, 1274.623
185.8842, 1267.782
186.3663, 1269.307
186.8484, 1278.763
187.3305, 1295.110
187.8126, 1319.059
188.2947, 1348.215
188.7769, 1382.247
189.2590, 1420.723
189.7411, 1454.237
190.2232, 1483.038
190.7053, 1504.715
191.1874, 1505.231
191.6696, 1483.698
192.1517, 1440.294
192.6338, 1369.541
193.1159, 1270.682
193.5980, 1165.547
194.0801, 1062.467
194.5623, 962.4272
195.0444, 873.6618
195.5265, 797.4359
196.0086, 733.1237
196.4907, 680.8193
196.9728, 641.0700
197.4550, 608.4932
197.9371, 580.4625
198.4192, 556.9753
198.9013, 537.9254
199.3834, 524.2065
199.8655, 514.0235
200.3477, 502.5365
200.8298, 489.2386
201.3119, 477.0725
201.7940, 467.5618
202.2761, 460.7482
202.7582, 456.2885
203.2404, 454.6916
203.7225, 455.0325
204.2046, 454.6037
204.6867, 453.0392
205.1688, 451.9685
205.6509, 452.5428
206.1331, 454.9821
206.6152, 457.4896
207.0973, 459.5425
207.5794, 461.7548
208.0615, 466.1429
208.5436, 473.0709
209.0258, 481.2432
209.5079, 489.5979
209.9900, 497.6978
210.4721, 507.5497
210.9542, 518.5331
211.4363, 531.6266
211.9185, 550.4582
212.4006, 576.0248
212.8827, 605.4075
213.3648, 636.5513
213.8469, 670.0907
214.3290, 704.9131
214.8112, 743.7750
215.2933, 783.1237
215.7754, 813.1897
216.2575, 837.5521
216.7396, 845.8758
217.2217, 828.7015
217.7038, 776.8976
218.1860, 727.3068
218.6681, 680.8799
219.1502, 638.8671
219.6323, 606.9489
220.1144, 587.1084
220.5965, 574.4227
221.0787, 566.8049
221.5608, 565.2253
222.0429, 566.0151
222.5250, 568.6645
223.0071, 573.5817
223.4892, 582.2439
223.9714, 595.4861
224.4535, 611.2616
224.9356, 628.4415
225.4177, 645.8482
225.8998, 667.4307
226.3819, 694.0665
226.8641, 725.0188
227.3462, 756.5404
227.8283, 786.8157
228.3104, 820.3288
228.7925, 859.8330
229.2746, 910.5189
229.7568, 956.4025
230.2389, 995.3451
230.7210, 1029.774
231.2031, 1065.833
231.6852, 1102.499
232.1673, 1142.192
232.6495, 1186.198
233.1316, 1236.632
233.6137, 1286.567
234.0958, 1334.808
234.5779, 1382.113
235.0600, 1430.201
235.5422, 1481.719
236.0243, 1530.989
236.5064, 1574.689
236.9885, 1607.431
237.4706, 1646.153
237.9527, 1688.849
238.4349, 1737.635
238.9170, 1797.471
239.3991, 1869.332
239.8812, 1950.770
240.3633, 2041.310
240.8454, 2142.425
241.3276, 2248.592
241.8097, 2357.118
242.2918, 2470.294
242.7739, 2593.045
243.2560, 2730.589
243.7381, 2869.724
244.2203, 3006.907
244.7024, 3145.469
245.1845, 3274.192
245.6666, 3401.879
246.1487, 3515.271
246.6308, 3591.590
247.1130, 3628.218
247.5951, 3631.580
248.0772, 3597.535
248.5593, 3511.881
249.0414, 3438.484
249.5235, 3370.719
250.0057, 3319.479
250.4878, 3301.303
250.9699, 3317.684
251.4520, 3364.901
251.9341, 3443.588
252.4162, 3557.376
252.8984, 3686.619
253.3805, 3834.204
253.8626, 3996.368
254.3447, 4165.607
254.8268, 4352.700
255.3089, 4530.784
255.7911, 4696.358
256.2732, 4854.111
256.7553, 4969.950
257.2374, 5050.761
257.7195, 5082.720
258.2017, 5048.678
258.6838, 4941.479
259.1659, 4783.429
259.6480, 4571.764
260.1301, 4307.050
260.6122, 4022.678
261.0944, 3704.861
261.5765, 3382.956
262.0586, 3084.491
262.5407, 2809.775
263.0228, 2559.365
263.5049, 2336.264
263.9871, 2138.489
264.4692, 1965.758
264.9513, 1819.337
265.4334, 1693.393
265.9155, 1581.275
266.3976, 1486.314
266.8798, 1400.614
267.3619, 1323.896
267.8440, 1255.548
268.3261, 1196.744
268.8082, 1148.918
269.2903, 1107.773
269.7725, 1070.734
270.2546, 1038.454
270.7367, 1009.197
271.2188, 982.7726
271.7009, 959.4787
272.1830, 940.0803
272.6652, 924.7880
273.1473, 913.2208
273.6294, 904.8709
274.1115, 899.6349
274.5936, 898.6867
275.0757, 902.3009
275.5579, 910.1014
276.0400, 920.5005
276.5221, 932.9891
277.0042, 950.0892
277.4863, 973.2939
277.9684, 1002.676
278.4506, 1037.220
278.9327, 1077.277
279.4148, 1121.910
279.8969, 1169.460
280.3790, 1220.008
280.8611, 1272.885
281.3433, 1332.936
281.8254, 1400.188
282.3075, 1450.542
282.7896, 1484.765
283.2717, 1499.744
283.7538, 1490.778
284.2360, 1457.855
284.7181, 1402.286
285.2002, 1317.894
285.6823, 1207.725
286.1644, 1095.880
286.6465, 981.2863
287.1287, 872.6627
287.6108, 781.8115
288.0929, 708.3588
288.5750, 645.8901
289.0571, 593.2079
289.5392, 549.4637
290.0214, 512.9278
290.5035, 483.9315
290.9856, 460.2858
291.4677, 440.7726
291.9498, 425.0657
292.4319, 411.7529
292.9141, 400.5775
293.3962, 391.2662
293.8783, 383.4439
294.3604, 377.1620
294.8425, 371.6472
295.3246, 366.6147
295.8068, 361.8223
296.2889, 356.3625
296.7710, 349.2693
297.2531, 342.2122
297.7352, 338.3501
298.2173, 337.4441
298.6995, 337.3594
299.1816, 336.8433
299.6637, 336.0209
300.1458, 335.1563
300.6279, 334.2721
301.1100, 333.3845
301.5922, 332.4321
302.0743, 331.4643
302.5564, 330.6957
303.0385, 330.0225
303.5206, 329.6874
304.0027, 330.1875
304.4849, 331.7427
304.9670, 333.4564
305.4491, 334.2477
305.9312, 334.5048
306.4133, 335.1589
306.8954, 337.3741
307.3776, 339.8487
307.8597, 340.8688
308.3418, 340.1833
308.8239, 339.9293
309.3060, 342.0921
309.7881, 345.6870
310.2703, 349.0821
310.7524, 350.7240
311.2345, 352.6214
311.7166, 356.5510
312.1987, 362.4632
312.6808, 368.2936
313.1630, 372.7816
313.6451, 376.6599
314.1272, 380.7579
314.6093, 385.7257
315.0914, 390.5518
315.5735, 394.3376
316.0557, 397.3369
316.5378, 400.9112
317.0199, 405.8912
317.5020, 411.4984
317.9841, 417.2646
318.4662, 423.0140
318.9484, 428.8416
319.4305, 434.0430
319.9126, 439.2647
320.3947, 446.2054
320.8768, 456.9343
321.3589, 468.3136
321.8411, 478.7569
322.3232, 487.4345
322.8053, 496.4500
323.2874, 506.3874
323.7695, 516.8630
324.2516, 527.2692
324.7338, 536.0765
325.2159, 546.1174
325.6980, 559.3180
326.1801, 577.3281
326.6622, 591.5023
327.1443, 598.9178
327.6265, 603.3518
328.1086, 608.6321
328.5907, 618.3971
329.0728, 624.9599
329.5549, 626.8128
330.0370, 623.9171
330.5192, 619.3204
331.0013, 612.3602
331.4834, 604.2414
331.9655, 595.6624
332.4476, 586.3572
332.9297, 576.8609
333.4119, 566.1361
333.8940, 555.1498
334.3761, 548.4805
334.8582, 547.1697
335.3403, 548.6840
335.8224, 551.7926
336.3046, 556.3096
336.7867, 563.1936
337.2688, 573.2275
337.7509, 585.0794
338.2330, 595.9352
338.7151, 604.8535
339.1973, 615.5403
339.6794, 630.4056
340.1615, 649.6169
340.6436, 666.3778
341.1257, 679.9655
341.6078, 692.3436
342.0899, 706.0013
342.5721, 720.7953
343.0542, 735.6793
343.5363, 749.5884
344.0184, 763.2366
344.5005, 780.5896
344.9826, 801.8111
345.4648, 824.5306
345.9469, 845.8276
346.4290, 866.3666
346.9111, 888.7183
347.3932, 913.0361
347.8753, 940.1079
348.3575, 971.6839
348.8396, 1007.362
349.3217, 1044.636
349.8038, 1080.537
350.2859, 1116.498
350.7680, 1156.640
351.2502, 1202.099
351.7323, 1249.127
352.2144, 1294.934
352.6965, 1339.281
353.1786, 1380.086
353.6607, 1420.595
354.1429, 1455.130
354.6250, 1478.408
355.1071, 1490.353
355.5892, 1486.950
356.0713, 1464.873
356.5534, 1425.569
357.0356, 1371.004
357.5177, 1294.135
357.9998, 1208.484
358.4819, 1120.436
358.9640, 1031.132
359.4461, 949.2829
359.9283, 878.4001
360.4104, 817.4528
360.8925, 765.9410
361.3746, 725.5682
361.8567, 691.4174
362.3388, 662.1971
362.8210, 637.8759
363.3031, 617.6735
363.7852, 603.2710
364.2673, 591.4227
364.7494, 580.6937
365.2315, 570.8372
365.7137, 562.4108
366.1958, 555.6791
366.6779, 550.4708
367.1600, 546.5252
367.6421, 543.1691
368.1242, 541.7432
368.6064, 543.3625
369.0885, 548.2346
369.5706, 551.7816
370.0527, 552.3291
370.5348, 552.8734
371.0169, 555.5067
371.4991, 562.0706
371.9812, 567.5195
372.4633, 571.0073
372.9454, 573.1866
373.4275, 576.2966
373.9096, 580.7526
374.3918, 585.4849
374.8739, 589.6266
375.3560, 592.6376
375.8381, 597.9272
376.3202, 606.2473
376.8023, 615.7819
377.2845, 623.5035
377.7666, 628.9066
378.2487, 634.9212
378.7308, 642.4365
379.2129, 651.3525
379.6950, 660.3044
380.1772, 669.3097
380.6593, 678.6249
381.1414, 688.5878
381.6235, 699.1135
382.1056, 710.3741
382.5877, 722.5369
383.0699, 735.1321
383.5520, 747.5104
384.0341, 759.7244
384.5162, 771.1395
384.9983, 780.5444
385.4804, 789.0809
385.9626, 799.4195
386.4447, 811.9736
386.9268, 825.5095
387.4089, 839.0635
387.8910, 852.6985
388.3731, 866.2474
388.8553, 878.9214
389.3374, 891.9609
389.8195, 906.9866
390.3016, 923.6737
390.7837, 939.9242
391.2658, 953.4901
391.7480, 966.1337
392.2301, 979.7290
392.7122, 995.3557
393.1943, 1011.237
393.6764, 1026.354
394.1585, 1041.029
394.6407, 1055.848
395.1228, 1070.226
395.6049, 1085.527
396.0870, 1102.596
396.5691, 1121.572
397.0512, 1141.898
397.5334, 1164.810
398.0155, 1188.683
398.4976, 1211.168
398.9797, 1230.399
399.4618, 1250.163
399.9439, 1271.318
400.4261, 1293.834
400.9082, 1316.255
401.3903, 1337.922
401.8724, 1360.079
402.3545, 1383.626
402.8366, 1408.632
403.3188, 1434.346
403.8009, 1460.889
404.2830, 1488.034
404.7651, 1515.047
405.2472, 1541.076
405.7293, 1568.677
406.2115, 1599.624
406.6936, 1633.795
407.1757, 1665.898
407.6578, 1695.154
408.1399, 1724.716
408.6220, 1759.781
409.1042, 1800.201
409.5863, 1838.578
410.0684, 1871.731
410.5505, 1902.504
411.0326, 1939.805
411.5147, 1983.655
411.9969, 2029.095
412.4790, 2073.771
412.9611, 2117.910
413.4432, 2161.162
413.9253, 2203.823
414.4074, 2246.105
414.8896, 2287.819
415.3717, 2329.460
415.8538, 2371.960
416.3359, 2415.281
416.8180, 2459.648
417.3001, 2504.501
417.7823, 2550.405
418.2644, 2596.874
418.7465, 2643.636
419.2286, 2691.958
419.7107, 2742.713
420.1928, 2799.885
420.6750, 2855.281
421.1571, 2903.443
421.6392, 2947.519
422.1213, 2994.471
422.6034, 3046.541
423.0855, 3101.331
423.5677, 3158.927
424.0498, 3219.895
424.5319, 3280.251
425.0140, 3338.149
425.4961, 3396.642
425.9782, 3459.073
426.4604, 3528.416
426.9425, 3597.234
427.4246, 3661.678
427.9067, 3724.137
428.3888, 3797.104
428.8709, 3882.043
429.3531, 3974.534
429.8352, 4073.448
430.3173, 4177.116
430.7994, 4288.313
431.2815, 4405.978
431.7636, 4532.521
432.2458, 4669.275
432.7279, 4816.125
433.2100, 4973.915
433.6921, 5141.469
434.1742, 5321.074
434.6563, 5514.870
435.1385, 5725.041
435.6206, 5953.494
436.1027, 6200.607
436.5848, 6467.671
437.0669, 6756.986
437.5490, 7068.163
438.0312, 7405.901
438.5133, 7774.712
438.9954, 8177.379
439.4775, 8621.633
439.9596, 9114.420
440.4417, 9648.836
440.9239, 10218.01
441.4060, 10821.64
441.8881, 11468.47
442.3702, 12168.72
442.8523, 12904.36
443.3344, 13664.31
443.8166, 14459.86
444.2987, 15261.69
444.7808, 16066.96
445.2629, 16872.39
445.7450, 17675.13
446.2271, 18444.71
446.7093, 19217.61
447.1914, 20003.22
447.6735, 20801.92
448.1556, 21618.40
448.6377, 22423.83
449.1198, 23258.04
449.6020, 24166.71
450.0841, 25147.24
450.5662, 26165.41
451.0483, 27202.21
451.5304, 28277.29
452.0125, 29447.38
452.4947, 30726.89
452.9768, 32086.81
453.4589, 33534.54
453.9410, 35083.99
454.4231, 36659.94
454.9052, 38290.29
455.3874, 39920.06
455.8695, 41543.17
456.3516, 43150.61
456.8337, 44629.50
457.3158, 46006.52
457.7979, 47202.43
458.2801, 48145.08
458.7622, 48816.13
459.2443, 49100.09
459.7264, 48944.52
460.2085, 48338.84
460.6906, 47242.93
461.1728, 45632.27
461.6549, 43646.46
462.1370, 41277.96
462.6191, 38646.59
463.1012, 35978.73
463.5833, 33239.46
464.0655, 30586.79
464.5476, 28079.50
465.0297, 25735.40
465.5118, 23579.55
465.9939, 21673.74
466.4760, 19964.54
466.9582, 18438.41
467.4403, 17111.03
467.9224, 15910.53
468.4045, 14854.69
468.8866, 13918.01
469.3687, 13050.50
469.8509, 12270.08
470.3330, 11554.12
470.8151, 10902.78
471.2972, 10314.22
471.7793, 9773.611
472.2614, 9280.640
472.7436, 8822.268
473.2257, 8389.327
473.7078, 7980.169
474.1899, 7598.646
474.6720, 7243.930
475.1541, 6912.557
475.6363, 6600.993
476.1184, 6308.812
476.6005, 6033.778
477.0826, 5776.860
477.5647, 5535.861
478.0468, 5301.272
478.5290, 5073.803
479.0111, 4859.974
479.4932, 4670.187
479.9753, 4494.122
480.4574, 4318.858
480.9395, 4140.090
481.4217, 3967.326
481.9038, 3810.301
482.3859, 3664.840
482.8680, 3526.930
483.3501, 3397.692
483.8322, 3273.352
484.3144, 3151.533
484.7965, 3033.410
485.2786, 2920.977
485.7607, 2816.406
486.2428, 2717.614
486.7249, 2622.982
487.2071, 2532.186
487.6892, 2448.721
488.1713, 2374.835
488.6534, 2306.874
489.1355, 2237.670
489.6176, 2164.303
490.0998, 2097.600
490.5819, 2040.181
491.0640, 1990.461
491.5461, 1942.059
492.0282, 1894.697
492.5103, 1848.910
492.9925, 1805.535
493.4746, 1763.995
493.9567, 1724.653
494.4388, 1686.911
494.9209, 1651.434
495.4030, 1618.623
495.8852, 1588.354
496.3673, 1559.433
496.8494, 1531.734
497.3315, 1505.204
497.8136, 1480.012
498.2957, 1455.862
498.7779, 1432.650
499.2600, 1411.431
499.7421, 1390.023
500.2242, 1366.663
500.7063, 1340.439
501.1884, 1314.404
501.6706, 1290.869
502.1527, 1267.538
502.6348, 1242.479
503.1169, 1211.008
503.5990, 1183.231
504.0811, 1162.168
504.5633, 1145.990
505.0454, 1127.229
505.5275, 1104.718
506.0096, 1082.150
506.4917, 1060.757
506.9738, 1040.265
507.4560, 1022.315
507.9381, 1007.444
508.4202, 993.6479
508.9023, 978.5939
509.3844, 962.4170
509.8665, 947.7158
510.3487, 935.4103
510.8308, 923.9878
511.3129, 910.5649
511.7950, 895.6199
512.2772, 881.3711
512.7593, 868.9471
513.2414, 857.9128
513.7235, 847.7115
514.2056, 838.3088
514.6877, 829.4386
515.1699, 821.2979
515.6520, 813.4112
516.1341, 805.1752
516.6162, 795.5783
517.0983, 787.3085
517.5804, 781.8240
518.0626, 778.0375
518.5447, 774.1698
519.0268, 767.4039
519.5089, 763.2850
519.9910, 763.7516
520.4731, 768.4952
520.9553, 772.8835
521.4374, 776.4816
521.9195, 780.3070
522.4016, 784.5734
522.8837, 788.8221
523.3658, 795.7234
523.8480, 805.3674
524.3301, 817.5943
524.8122, 832.6448
525.2943, 850.3252
525.7764, 868.6442
526.2585, 887.3470
526.7407, 906.0645
527.2228, 924.1310
527.7049, 941.8334
528.1870, 960.2130
528.6691, 980.6663
529.1512, 1002.000
529.6334, 1022.595
530.1155, 1042.465
530.5976, 1062.972
531.0797, 1083.512
531.5618, 1106.048
532.0439, 1132.401
532.5261, 1166.101
533.0082, 1199.603
533.4903, 1229.958
533.9724, 1259.127
534.4545, 1292.097
534.9366, 1329.199
535.4188, 1370.053
535.9009, 1415.399
536.3830, 1465.117
536.8651, 1513.745
537.3472, 1561.132
537.8293, 1607.602
538.3115, 1653.507
538.7936, 1698.935
539.2757, 1741.633
539.7578, 1782.453
540.2399, 1816.974
540.7220, 1841.147
541.2042, 1854.353
541.6863, 1855.286
542.1684, 1843.915
542.6505, 1819.519
543.1326, 1780.293
543.6147, 1727.146
544.0969, 1662.031
544.5790, 1580.972
545.0611, 1493.212
545.5432, 1404.194
546.0253, 1314.455
546.5074, 1230.191
546.9896, 1154.162
547.4717, 1085.520
547.9538, 1023.623
548.4359, 969.7433
548.9180, 920.7975
549.4001, 876.6025
549.8823, 836.7278
550.3644, 800.6879
550.8465, 768.3260
551.3286, 739.5294
551.8107, 714.8785
552.2928, 693.8130
552.7750, 672.5353
553.2571, 650.3415
553.7392, 630.8027
554.2213, 617.5109
554.7034, 609.4286
555.1855, 599.8532
555.6677, 588.3676
556.1498, 576.0795
556.6319, 563.4629
557.1140, 551.0754
557.5961, 540.3207
558.0782, 532.2521
558.5604, 524.7900
559.0425, 515.8609
559.5246, 506.3118
560.0067, 498.0903
560.4888, 494.5654
560.9709, 490.2873
561.4531, 482.2133
561.9352, 470.2385
562.4173, 459.1542
562.8994, 450.7300
563.3815, 442.4430
563.8636, 432.7350
564.3458, 420.4988
564.8279, 410.2098
565.3100, 402.7009
565.7921, 395.9561
566.2742, 387.1725
566.7563, 376.0047
567.2385, 365.7649
567.7206, 357.2605
568.2027, 350.0348
568.6848, 343.5244
569.1669, 337.6483
569.6490, 332.4844
570.1312, 327.9978
570.6133, 324.2029
571.0954, 321.7613
571.5775, 320.5076
572.0596, 318.3758
572.5417, 313.0788
573.0239, 306.8381
573.5060, 301.4998
573.9881, 297.1460
574.4702, 294.2400
574.9523, 294.2009
575.4344, 295.1864
575.9166, 294.8648
576.3987, 291.8868
576.8808, 289.1363
577.3629, 286.7026
577.8450, 284.7226
578.3271, 283.7234
578.8093, 283.9858
579.2914, 284.4102
579.7735, 284.7437
580.2556, 284.9026
580.7377, 284.1511
581.2198, 282.4402
581.7020, 280.3152
582.1841, 278.1044
582.6662, 275.8397
583.1483, 273.3848
583.6304, 270.6314
584.1125, 268.4124
584.5947, 268.2256
585.0768, 268.8605
585.5589, 268.5345
586.0410, 265.9341
586.5231, 263.0641
587.0052, 260.7809
587.4873, 258.8751
