##NAMES=Claudetite
##RRUFFID=R050313
##IDEAL CHEMISTRY=As^3+^_2_O_3_
##LOCALITY=JÃ¡chymov, Erzgebirge Region, Czech Republic
##OWNER=RRUFF
##SOURCE=University of Arizona Mineral Museum
##DESCRIPTION=Colorless prismatic crystals scattered on the matrix
##STATUS=The identification of this mineral is confirmed by single-crystal X-ray diffraction and chemical analysis.
##URL=rruff.info/R050313
##MEASURED CHEMISTRY=As_2.00_O_3_ ; trace amounts of Al, gray phase
92.52344, 215.2464
93.00555, 216.0506
93.48767, 216.0327
93.96979, 217.5505
94.45190, 220.6142
94.93402, 225.0185
95.41614, 227.1225
95.89825, 227.6771
96.38037, 228.3781
96.86249, 228.8144
97.34460, 227.6575
97.82672, 223.1366
98.30884, 219.9060
98.79095, 219.4141
99.27307, 220.4558
99.75519, 220.9164
100.2373, 220.0337
100.7194, 218.5199
101.2015, 218.7764
101.6837, 222.1931
102.1658, 226.0193
102.6479, 227.9192
103.1300, 227.6859
103.6121, 227.5090
104.0942, 229.0966
104.5764, 231.8100
105.0585, 234.8879
105.5406, 238.2352
106.0227, 241.7642
106.5048, 245.2882
106.9869, 249.2976
107.4691, 252.3727
107.9512, 253.6434
108.4333, 253.5430
108.9154, 253.1526
109.3975, 253.6126
109.8796, 255.2647
110.3618, 255.4522
110.8439, 254.1142
111.3260, 251.4372
111.8081, 247.4991
112.2902, 242.2865
112.7723, 235.6239
113.2544, 227.1808
113.7366, 215.8698
114.2187, 204.5553
114.7008, 192.7433
115.1829, 181.1286
115.6650, 170.2961
116.1471, 160.4071
116.6293, 151.4758
117.1114, 143.6864
117.5935, 137.0362
118.0756, 131.2536
118.5577, 126.6868
119.0398, 122.9812
119.5220, 119.1301
120.0041, 114.4235
120.4862, 109.6135
120.9683, 106.1857
121.4504, 104.4373
121.9325, 103.5021
122.4147, 103.0394
122.8968, 103.1184
123.3789, 102.8147
123.8610, 101.1453
124.3431, 99.00710
124.8252, 97.28883
125.3074, 96.42686
125.7895, 95.93153
126.2716, 94.58439
126.7537, 91.36526
127.2358, 89.20950
127.7179, 89.54491
128.2001, 91.17699
128.6822, 92.52504
129.1643, 92.54935
129.6464, 91.38149
130.1285, 90.70349
130.6107, 90.67451
131.0928, 91.03373
131.5749, 92.21613
132.0570, 93.80721
132.5391, 94.91344
133.0212, 94.62691
133.5034, 92.58412
133.9855, 91.71260
134.4676, 92.64659
134.9497, 93.97295
135.4318, 94.96458
135.9139, 95.53116
136.3960, 95.95268
136.8782, 96.49235
137.3603, 97.14694
137.8424, 98.07492
138.3245, 99.35028
138.8066, 100.8773
139.2887, 102.5707
139.7709, 104.4264
140.2530, 106.3663
140.7351, 108.3492
141.2172, 110.3618
141.6993, 112.2741
142.1814, 113.6736
142.6636, 114.8237
143.1457, 116.7506
143.6278, 119.8763
144.1099, 123.6879
144.5920, 127.4310
145.0741, 131.1150
145.5563, 135.6123
146.0384, 141.6055
146.5205, 149.0964
147.0026, 157.9378
147.4847, 168.2277
147.9668, 179.8977
148.4490, 192.8402
148.9311, 207.0435
149.4132, 223.0501
149.8953, 241.2544
150.3774, 260.4131
150.8595, 285.3732
151.3417, 317.7817
151.8238, 353.9833
152.3059, 392.0936
152.7880, 430.9749
153.2701, 469.8764
153.7522, 506.3327
154.2344, 542.4097
154.7165, 572.5948
155.1986, 595.1915
155.6807, 612.2865
156.1628, 625.7607
156.6449, 636.2256
157.1271, 644.6262
157.6092, 654.8379
158.0913, 664.8668
158.5734, 678.3995
159.0555, 698.1083
159.5376, 722.3752
160.0198, 746.8920
160.5019, 768.9860
160.9840, 789.8116
161.4661, 813.1458
161.9482, 840.4274
162.4303, 868.5838
162.9125, 895.4803
163.3946, 921.1647
163.8767, 946.8519
164.3588, 973.3752
164.8409, 1000.156
165.3230, 1026.447
165.8052, 1051.812
166.2873, 1076.808
166.7694, 1101.944
167.2515, 1127.642
167.7336, 1152.314
168.2157, 1175.284
168.6979, 1196.922
169.1800, 1217.741
169.6621, 1238.185
170.1442, 1257.785
170.6263, 1275.742
171.1084, 1293.907
171.5906, 1306.707
172.0727, 1321.010
172.5548, 1328.454
173.0369, 1317.925
173.5190, 1282.699
174.0011, 1223.595
174.4833, 1147.411
174.9654, 1033.767
175.4475, 921.2140
175.9296, 812.3901
176.4117, 710.9320
176.8938, 620.1677
177.3760, 542.7489
177.8581, 478.7384
178.3402, 426.7241
178.8223, 390.9826
179.3044, 361.4136
179.7865, 335.7067
180.2687, 313.4604
180.7508, 295.1419
181.2329, 281.5193
181.7150, 273.0201
182.1971, 265.4543
182.6792, 259.1555
183.1614, 253.3633
183.6435, 247.5505
184.1256, 241.7466
184.6077, 236.4482
185.0898, 232.1930
185.5719, 229.0936
186.0541, 225.9552
186.5362, 222.2019
187.0183, 218.7260
187.5004, 216.5831
187.9825, 215.9302
188.4646, 215.6320
188.9468, 214.9242
189.4289, 213.7837
189.9110, 211.9191
190.3931, 209.5946
190.8752, 206.4064
191.3573, 201.6212
191.8395, 195.0045
192.3216, 187.2268
192.8037, 177.9350
193.2858, 167.8726
193.7679, 158.7748
194.2500, 151.4305
194.7322, 145.6704
195.2143, 140.9221
195.6964, 137.5050
196.1785, 134.7322
196.6606, 132.3638
197.1427, 130.2406
197.6249, 128.0213
198.1070, 125.2836
198.5891, 122.1382
199.0712, 119.7457
199.5533, 118.7103
200.0354, 117.8266
200.5176, 116.5034
200.9997, 114.9529
201.4818, 113.6830
201.9639, 113.0855
202.4460, 113.1640
202.9281, 113.6363
203.4103, 114.7766
203.8924, 116.0919
204.3745, 117.6482
204.8566, 119.2956
205.3387, 120.6832
205.8208, 121.4396
206.3030, 121.4474
206.7851, 121.9741
207.2672, 123.0526
207.7493, 124.5448
208.2314, 126.7528
208.7135, 129.4203
209.1957, 131.8491
209.6778, 133.3618
210.1599, 133.7952
210.6420, 134.5162
211.1241, 135.3552
211.6062, 136.5501
212.0884, 138.3492
212.5705, 140.6749
213.0526, 143.1461
213.5347, 145.3675
214.0168, 147.2782
214.4989, 149.9749
214.9811, 155.1328
215.4632, 159.7382
215.9453, 161.9547
216.4274, 161.6517
216.9095, 159.5088
217.3916, 155.8693
217.8737, 150.5791
218.3559, 144.8855
218.8380, 137.3070
219.3201, 130.2477
219.8022, 126.0152
220.2843, 124.7785
220.7664, 124.5708
221.2486, 123.7208
221.7307, 122.6075
222.2128, 122.8322
222.6949, 125.2008
223.1770, 128.7248
223.6591, 132.2522
224.1413, 135.6769
224.6234, 139.6149
225.1055, 144.7377
225.5876, 150.6763
226.0697, 156.8619
226.5518, 163.0636
227.0340, 169.4503
227.5161, 176.3026
227.9982, 183.7040
228.4803, 191.2967
228.9624, 199.2283
229.4445, 207.0980
229.9267, 214.3052
230.4088, 220.0163
230.8909, 225.3729
231.3730, 232.6156
231.8551, 242.2942
232.3372, 252.4941
232.8194, 262.0666
233.3015, 271.8262
233.7836, 282.8268
234.2657, 295.5421
234.7478, 309.6783
235.2299, 324.5820
235.7121, 340.3519
236.1942, 356.9459
236.6763, 374.4867
237.1584, 392.6297
237.6405, 411.2029
238.1227, 430.2607
238.6048, 449.5785
239.0869, 468.6223
239.5690, 487.9283
240.0511, 506.0077
240.5332, 521.9055
241.0154, 536.9426
241.4975, 552.3605
241.9796, 568.7019
242.4617, 585.3483
242.9438, 600.3591
243.4259, 611.7618
243.9081, 624.7795
244.3902, 641.8116
244.8723, 659.6371
245.3544, 675.2495
245.8365, 687.5441
246.3186, 697.3160
246.8008, 706.5286
247.2829, 715.6130
247.7650, 723.2452
248.2471, 729.4558
248.7292, 734.2818
249.2113, 737.2697
249.6935, 738.3772
250.1756, 738.7038
250.6577, 740.4022
251.1398, 744.2958
251.6219, 748.5301
252.1040, 752.8713
252.5862, 757.6172
253.0683, 763.6337
253.5504, 770.9889
254.0325, 778.1664
254.5146, 782.6872
254.9967, 783.5907
255.4789, 783.0004
255.9610, 782.8028
256.4431, 780.1281
256.9252, 772.9503
257.4073, 760.6605
257.8894, 743.0609
258.3716, 719.6388
258.8537, 688.4518
259.3358, 655.0217
259.8179, 617.9755
260.3000, 579.3954
260.7821, 540.3273
261.2643, 501.0300
261.7464, 462.6896
262.2285, 426.0817
262.7106, 390.9910
263.1927, 360.0681
263.6748, 334.3572
264.1570, 312.2806
264.6391, 293.3180
265.1212, 277.2466
265.6033, 262.7851
266.0854, 248.9530
266.5675, 235.8892
267.0497, 224.1736
267.5318, 213.7899
268.0139, 204.8359
268.4960, 197.8604
268.9781, 192.8039
269.4602, 188.1490
269.9424, 182.5992
270.4245, 176.4521
270.9066, 171.5190
271.3887, 168.1467
271.8708, 165.7623
272.3529, 164.1725
272.8351, 163.3184
273.3172, 162.6991
273.7993, 161.9723
274.2814, 161.2992
274.7635, 161.0577
275.2456, 161.2541
275.7278, 161.8866
276.2099, 163.3021
276.6920, 165.3672
277.1741, 166.9280
277.6562, 167.1666
278.1383, 166.7144
278.6205, 166.9595
279.1026, 168.1908
279.5847, 169.4981
280.0668, 170.1688
280.5489, 170.3287
281.0310, 170.7507
281.5132, 171.8834
281.9953, 173.2196
282.4774, 174.4799
282.9595, 175.9593
283.4416, 175.7523
283.9237, 172.3017
284.4059, 166.1003
284.8880, 159.1128
285.3701, 151.7583
285.8522, 143.7700
286.3343, 134.4972
286.8164, 124.0245
287.2986, 114.2618
287.7807, 106.1594
288.2628, 99.54433
288.7449, 93.93364
289.2270, 89.25433
289.7091, 85.63647
290.1913, 83.55846
290.6734, 82.63303
291.1555, 81.42661
291.6376, 78.97334
292.1197, 75.80930
292.6018, 73.06917
293.0840, 70.70716
293.5661, 69.07084
294.0482, 68.95575
294.5303, 69.65065
295.0124, 69.84341
295.4945, 68.76390
295.9767, 67.02782
296.4588, 65.70781
296.9409, 64.86141
297.4230, 64.23656
297.9051, 63.80012
298.3872, 63.47396
298.8694, 63.21282
299.3515, 63.08601
299.8336, 62.87609
300.3157, 62.08897
300.7978, 60.53804
301.2799, 59.52245
301.7621, 60.02217
302.2442, 61.05677
302.7263, 61.79905
303.2084, 62.08102
303.6905, 62.19727
304.1726, 62.46011
304.6548, 62.87882
305.1369, 63.21030
305.6190, 63.43924
306.1011, 63.51033
306.5832, 63.35999
307.0653, 62.98922
307.5475, 62.52262
308.0296, 61.86320
308.5117, 61.06894
308.9938, 60.89595
309.4759, 61.86229
309.9580, 63.00046
310.4402, 63.58067
310.9223, 63.73322
311.4044, 63.98967
311.8865, 64.95271
312.3686, 66.35765
312.8507, 66.98280
313.3329, 66.42513
313.8150, 65.73071
314.2971, 65.20821
314.7792, 64.97435
315.2613, 65.33139
315.7434, 66.80073
316.2256, 68.69483
316.7077, 69.38361
317.1898, 68.40923
317.6719, 67.51167
318.1540, 67.39970
318.6361, 67.79062
319.1183, 68.51424
319.6004, 69.63108
320.0825, 70.76218
320.5646, 71.26781
321.0467, 71.00661
321.5288, 71.03362
322.0110, 72.25993
322.4931, 73.54711
322.9752, 73.84956
323.4573, 72.98497
323.9394, 71.95570
324.4215, 71.69616
324.9037, 72.19283
325.3858, 72.75301
325.8679, 73.23845
326.3500, 73.79042
326.8321, 74.61952
327.3142, 75.66070
327.7964, 76.51579
328.2785, 76.85374
328.7606, 76.76134
329.2427, 76.68407
329.7248, 76.73938
330.2069, 76.63396
330.6891, 76.03017
331.1712, 75.15567
331.6533, 74.49764
332.1354, 74.36110
332.6175, 74.53463
333.0996, 74.58678
333.5818, 74.47424
334.0639, 74.38092
334.5460, 74.37709
335.0281, 74.45192
335.5102, 74.58865
335.9923, 74.75386
336.4745, 75.04933
336.9566, 75.68888
337.4387, 76.69814
337.9208, 77.55400
338.4029, 77.84274
338.8850, 78.08577
339.3671, 78.91022
339.8492, 80.41747
340.3314, 81.79478
340.8135, 82.22804
341.2956, 81.90364
341.7777, 81.99721
342.2598, 82.89031
342.7419, 84.01074
343.2241, 84.85073
343.7062, 85.46416
344.1883, 86.09969
344.6704, 87.00581
345.1525, 87.99630
345.6346, 88.50935
346.1168, 88.27802
346.5989, 88.33705
347.0810, 89.87154
347.5631, 92.18253
348.0452, 94.10362
348.5273, 95.43540
349.0095, 96.16715
349.4916, 96.01604
349.9737, 94.95897
350.4558, 94.11208
350.9379, 94.03090
351.4200, 94.47005
351.9022, 94.97488
352.3843, 95.50771
352.8664, 96.15518
353.3485, 97.22021
353.8306, 98.51015
354.3127, 99.17980
354.7949, 98.79099
355.2770, 98.04198
355.7591, 98.00916
356.2412, 98.69376
356.7233, 98.80025
357.2054, 97.74287
357.6876, 95.85950
358.1697, 93.50385
358.6518, 90.64246
359.1339, 87.84879
359.6160, 85.56512
360.0981, 83.77926
360.5803, 82.47506
361.0624, 82.06396
361.5445, 81.83215
362.0266, 81.11751
362.5087, 79.98262
362.9908, 78.98714
363.4730, 78.39714
363.9551, 78.20945
364.4372, 78.34278
364.9193, 78.93297
365.4014, 79.58152
365.8835, 80.40405
366.3657, 81.14156
366.8478, 81.03257
367.3299, 79.65193
367.8120, 78.06831
368.2941, 78.15641
368.7762, 80.35863
369.2584, 82.12508
369.7405, 82.86251
370.2226, 83.15213
370.7047, 83.51662
371.1868, 84.03289
371.6689, 84.53981
372.1511, 84.86984
372.6332, 85.01460
373.1153, 85.35952
373.5974, 86.24461
374.0795, 86.98194
374.5616, 86.97676
375.0438, 86.54081
375.5259, 86.51579
376.0080, 87.39814
376.4901, 88.92516
376.9722, 90.17162
377.4543, 91.24239
377.9365, 91.90573
378.4186, 91.82253
378.9007, 91.46046
379.3828, 91.32312
379.8649, 91.55058
380.3470, 91.95095
380.8292, 92.21477
381.3113, 92.09209
381.7934, 92.65839
382.2755, 94.82777
382.7576, 96.80587
383.2397, 97.31177
383.7219, 96.62090
384.2040, 95.87383
384.6861, 95.93960
385.1682, 96.78786
385.6503, 97.95885
386.1324, 100.3048
386.6146, 102.0151
387.0967, 102.4246
387.5788, 102.1241
388.0609, 101.7003
388.5430, 101.4115
389.0251, 101.4957
389.5073, 102.5255
389.9894, 105.0769
390.4715, 107.3963
390.9536, 109.7577
391.4357, 111.6166
391.9178, 112.3387
392.4000, 112.0550
392.8821, 111.6710
393.3642, 112.1297
393.8463, 113.4669
394.3284, 114.4302
394.8105, 114.3831
395.2927, 114.7188
395.7748, 116.1684
396.2569, 118.2533
396.7390, 120.2386
397.2211, 121.8192
397.7032, 122.9577
398.1854, 123.3404
398.6675, 122.4887
399.1496, 122.3487
399.6317, 124.2252
400.1138, 126.5646
400.5959, 128.2083
401.0781, 128.9592
401.5602, 129.4109
402.0423, 129.9137
402.5244, 130.4991
403.0065, 131.5607
403.4886, 133.2404
403.9708, 135.2923
404.4529, 137.7769
404.9350, 140.4845
405.4171, 142.8270
405.8992, 144.3304
406.3813, 145.4243
406.8635, 146.6968
407.3456, 148.1313
407.8277, 149.9424
408.3098, 152.4963
408.7919, 155.4073
409.2740, 158.0730
409.7562, 160.5641
410.2383, 162.5564
410.7204, 163.3897
411.2025, 163.5479
411.6846, 164.5722
412.1667, 167.0364
412.6489, 169.9364
413.1310, 171.8269
413.6131, 172.7386
414.0952, 174.4801
414.5773, 178.1315
415.0594, 182.2285
415.5416, 185.5316
416.0237, 187.9752
416.5058, 189.7474
416.9879, 190.6652
417.4700, 191.1057
417.9521, 193.1315
418.4343, 198.1519
418.9164, 202.7785
419.3985, 205.7233
419.8806, 207.8300
420.3627, 210.2850
420.8448, 213.4778
421.3270, 217.0766
421.8091, 220.5690
422.2912, 223.7062
422.7733, 227.4869
423.2554, 232.2904
423.7375, 237.3340
424.2197, 242.0225
424.7018, 246.4758
425.1839, 251.3244
425.6660, 257.1344
426.1481, 263.6059
426.6302, 268.8034
427.1124, 270.4150
427.5945, 273.5717
428.0766, 279.5612
428.5587, 287.0002
429.0408, 294.6013
429.5229, 301.9401
430.0051, 309.3928
430.4872, 317.3083
430.9693, 325.4016
431.4514, 334.9821
431.9335, 347.5322
432.4156, 360.4354
432.8978, 372.2312
433.3799, 383.5327
433.8620, 396.1725
434.3441, 411.3548
434.8262, 428.4914
435.3083, 445.5022
435.7905, 461.3976
436.2726, 479.7935
436.7547, 502.2097
437.2368, 527.7618
437.7189, 556.1884
438.2010, 587.5231
438.6832, 620.6453
439.1653, 653.6157
439.6474, 687.1093
440.1295, 725.6823
440.6116, 770.9791
441.0938, 819.5261
441.5759, 868.5480
442.0580, 918.1315
442.5401, 969.1266
443.0222, 1023.742
443.5043, 1078.261
443.9865, 1129.168
444.4686, 1176.519
444.9507, 1222.818
445.4328, 1269.232
445.9149, 1315.268
446.3970, 1359.266
446.8792, 1400.137
447.3613, 1442.148
447.8434, 1486.104
448.3255, 1532.012
448.8076, 1580.879
449.2897, 1632.815
449.7719, 1684.479
450.2540, 1732.539
450.7361, 1776.937
451.2182, 1822.363
451.7003, 1868.666
452.1824, 1915.960
452.6646, 1966.186
453.1467, 2017.272
453.6288, 2065.777
454.1109, 2110.320
454.5930, 2151.032
455.0751, 2188.543
455.5573, 2222.627
456.0394, 2253.537
456.5215, 2286.588
457.0036, 2312.583
457.4857, 2327.196
457.9678, 2329.900
458.4500, 2321.796
458.9321, 2303.516
459.4142, 2275.104
459.8963, 2237.092
460.3784, 2191.167
460.8605, 2131.706
461.3427, 2054.454
461.8248, 1965.959
462.3069, 1869.878
462.7890, 1767.173
463.2711, 1663.541
463.7532, 1563.992
464.2354, 1468.154
464.7175, 1379.264
465.1996, 1298.325
465.6817, 1223.758
466.1638, 1155.030
466.6459, 1091.225
467.1281, 1030.254
467.6102, 970.3363
468.0923, 914.2160
468.5744, 866.4242
469.0565, 826.0708
469.5386, 788.1432
470.0208, 751.0623
470.5029, 714.8691
470.9850, 679.7265
471.4671, 645.1002
471.9492, 612.9141
472.4313, 583.9596
472.9135, 557.3436
473.3956, 532.3038
473.8777, 508.7157
474.3598, 486.2585
474.8419, 464.9300
475.3240, 444.5945
475.8062, 424.3850
476.2883, 402.5259
476.7704, 382.8393
477.2525, 367.1806
477.7346, 353.6763
478.2167, 340.1460
478.6989, 325.9550
479.1810, 312.2237
479.6631, 300.3557
480.1452, 290.9109
480.6273, 280.8279
481.1094, 268.2161
481.5916, 256.9646
482.0737, 248.8795
482.5558, 242.9621
483.0379, 237.4879
483.5200, 231.6521
484.0021, 225.5783
484.4843, 219.3723
484.9664, 212.8692
485.4485, 206.8709
485.9306, 201.4971
486.4127, 196.7555
486.8948, 192.9642
487.3770, 189.9274
487.8591, 186.7227
488.3412, 182.6038
488.8233, 178.0456
489.3054, 174.0082
489.7875, 170.5639
490.2697, 167.1595
490.7518, 163.1403
491.2339, 159.2739
491.7160, 157.0743
492.1981, 157.2324
492.6802, 157.0635
493.1624, 154.9825
493.6445, 152.0556
494.1266, 149.9832
494.6087, 149.0287
495.0908, 148.1974
495.5729, 146.5751
496.0551, 144.1740
496.5372, 142.0372
497.0193, 140.3537
497.5014, 138.6764
497.9835, 136.9263
498.4656, 135.0732
498.9478, 132.9815
499.4299, 130.6336
499.9120, 128.3467
500.3941, 126.7203
500.8762, 126.1502
501.3583, 124.6036
501.8405, 120.9166
502.3226, 117.4402
502.8047, 115.0990
503.2868, 113.5665
503.7689, 112.2649
504.2510, 110.9478
504.7331, 109.5189
505.2152, 107.6485
505.6974, 105.1768
506.1795, 103.2498
506.6616, 102.5486
507.1437, 102.0593
507.6258, 101.0267
508.1079, 99.50824
508.5901, 97.96304
509.0722, 96.38887
509.5543, 95.02662
510.0364, 94.53098
510.5185, 94.88078
511.0006, 94.55654
511.4828, 92.47299
511.9649, 89.62621
512.4470, 88.26774
512.9291, 88.85746
513.4113, 89.06584
513.8934, 87.82387
514.3755, 86.20470
514.8576, 85.45360
515.3397, 85.58101
515.8218, 85.62067
516.3040, 84.76766
516.7861, 83.23716
517.2682, 82.59969
517.7503, 83.58543
518.2324, 84.58299
518.7145, 85.46674
519.1967, 86.29536
519.6788, 87.07220
520.1609, 87.83470
520.6430, 88.73203
521.1251, 89.97194
521.6072, 91.54525
522.0894, 92.86435
522.5715, 93.76958
523.0536, 94.67435
523.5357, 95.46510
524.0178, 96.44524
524.4999, 98.07573
524.9821, 100.5231
525.4642, 103.1166
525.9463, 105.1881
526.4284, 106.8640
526.9105, 108.9279
527.3926, 111.7214
527.8748, 114.1457
528.3569, 114.9465
528.8390, 114.6384
529.3211, 115.0213
529.8032, 116.2591
530.2853, 118.2327
530.7675, 121.3845
531.2496, 125.1375
531.7317, 128.3353
532.2138, 130.6509
532.6959, 132.5482
533.1780, 134.6316
533.6602, 137.0443
534.1423, 138.7234
534.6244, 138.8239
535.1065, 139.2402
535.5886, 140.8578
536.0707, 143.1999
536.5529, 145.5848
537.0350, 147.7149
537.5171, 149.5666
537.9992, 151.1371
538.4813, 152.5092
538.9634, 153.1488
539.4456, 152.4816
539.9277, 151.6523
540.4098, 151.5476
540.8919, 151.6285
541.3740, 150.7674
541.8561, 148.3791
542.3383, 145.1930
542.8204, 142.1757
543.3025, 139.2467
543.7846, 135.5520
544.2667, 130.6844
544.7488, 125.3873
545.2310, 120.3545
545.7131, 115.5693
546.1952, 110.9300
546.6773, 106.1839
547.1594, 101.8328
547.6415, 98.34789
548.1237, 95.51692
548.6058, 92.68033
549.0879, 89.57659
549.5700, 86.58369
550.0521, 84.36892
550.5342, 83.24457
551.0164, 81.99329
551.4985, 80.48463
551.9806, 79.01240
552.4627, 77.71531
552.9448, 76.53886
553.4269, 75.38287
553.9091, 74.20744
554.3912, 72.95077
554.8733, 71.36287
555.3554, 69.30195
555.8375, 67.87832
556.3196, 67.68307
556.8018, 67.65260
557.2839, 67.11379
557.7660, 66.18658
558.2481, 65.21091
558.7302, 64.22760
559.2123, 63.34480
559.6945, 62.56168
560.1766, 61.94569
560.6587, 62.01402
561.1408, 63.15430
561.6229, 64.24460
562.1050, 63.78991
562.5872, 61.50209
563.0693, 59.49348
563.5514, 57.64693
564.0335, 56.23120
564.5156, 55.54041
564.9977, 55.35343
565.4799, 55.36053
565.9620, 55.42879
566.4441, 55.40504
566.9262, 55.00530
567.4083, 54.10420
567.8904, 53.33308
568.3726, 52.55201
568.8547, 52.06788
569.3368, 52.34299
569.8189, 52.89647
570.3010, 52.88084
570.7831, 51.90413
571.2653, 50.69796
571.7474, 50.12322
572.2295, 50.11428
572.7116, 50.12580
573.1937, 50.07352
573.6758, 50.02774
574.1580, 50.09520
574.6401, 50.22548
575.1222, 50.21979
575.6043, 50.14533
576.0864, 49.83450
576.5685, 48.84966
577.0507, 47.67734
577.5328, 47.17923
578.0149, 47.55375
578.4970, 48.34536
578.9791, 49.13288
579.4612, 49.93209
579.9434, 50.33022
580.4255, 50.18094
580.9076, 49.78282
581.3897, 48.94445
581.8718, 48.00741
582.3539, 47.36559
582.8361, 47.08954
583.3182, 46.90830
583.8003, 46.41383
584.2824, 45.71001
584.7645, 45.71735
585.2466, 46.79256
585.7288, 47.55173
586.2108, 46.88344
586.6929, 45.69187
587.1750, 45.39403
587.6572, 46.34008
