##NAMES=Clintonite
##RRUFFID=R070229
##IDEAL CHEMISTRY=CaAlMg_2_(SiAl_3_)O_10_(OH)_2_
##LOCALITY=Amity, Warwick Township, Orange County, New York, USA
##OWNER=RRUFF
##SOURCE=Michael Scott
##DESCRIPTION=Brown micaceous plates in dolomite. Polytype 1M, variety called seybertite
##STATUS=The identification of this mineral has been confirmed by X-ray diffraction and chemical analysis
##URL=rruff.info/R070229
##MEASURED CHEMISTRY=(Ca_0.98_Na_0.02_)_Σ=1_(Al_0.68_Mg_0.20_Fe^3+^_0.11_Ti_0.01_)_Σ=1_Mg_2.00_(Si_1.34_Al_2.66_)_Σ=4_O_10_((OH)_1.87_O_0.13_)_Σ=2_; OH estimated by charge balance
195.7475, 2018.674
196.2296, 2033.762
196.7117, 2043.438
197.1938, 2041.839
197.6759, 2036.412
198.1581, 2034.061
198.6402, 2037.041
199.1223, 2041.741
199.6044, 2040.670
200.0865, 2028.231
200.5686, 2021.379
201.0508, 2022.686
201.5329, 2028.282
202.0150, 2037.059
202.4971, 2048.191
202.9792, 2058.396
203.4613, 2062.399
203.9435, 2058.776
204.4256, 2051.585
204.9077, 2041.268
205.3898, 2028.001
205.8719, 2011.498
206.3540, 1991.862
206.8362, 1969.944
207.3183, 1946.235
207.8004, 1919.503
208.2825, 1894.646
208.7646, 1876.444
209.2467, 1856.275
209.7289, 1826.876
210.2110, 1788.843
210.6931, 1749.888
211.1752, 1719.556
211.6573, 1700.985
212.1395, 1680.192
212.6216, 1652.164
213.1037, 1626.395
213.5858, 1608.265
214.0679, 1597.384
214.5500, 1589.499
215.0322, 1579.833
215.5143, 1567.106
215.9964, 1561.605
216.4785, 1571.781
216.9606, 1581.224
217.4427, 1582.088
217.9249, 1576.429
218.4070, 1571.600
218.8891, 1574.022
219.3712, 1583.928
219.8533, 1592.627
220.3354, 1603.220
220.8176, 1609.357
221.2997, 1605.319
221.7818, 1595.422
222.2639, 1588.119
222.7460, 1589.623
223.2281, 1599.098
223.7103, 1607.298
224.1924, 1610.786
224.6745, 1616.899
225.1566, 1628.092
225.6387, 1642.678
226.1208, 1658.515
226.6030, 1674.577
227.0851, 1690.359
227.5672, 1703.394
228.0493, 1708.878
228.5314, 1718.349
229.0135, 1735.288
229.4957, 1756.355
229.9778, 1779.350
230.4599, 1803.550
230.9420, 1825.693
231.4241, 1837.340
231.9062, 1833.022
232.3884, 1826.640
232.8705, 1821.627
233.3526, 1814.908
233.8347, 1804.146
234.3168, 1788.522
234.7989, 1767.922
235.2811, 1741.553
235.7632, 1706.504
236.2453, 1672.254
236.7274, 1636.787
237.2095, 1603.886
237.6916, 1577.253
238.1738, 1557.069
238.6559, 1538.722
239.1380, 1516.063
239.6201, 1487.470
240.1022, 1460.413
240.5843, 1435.031
241.0665, 1411.350
241.5486, 1389.192
242.0307, 1368.636
242.5128, 1350.122
242.9949, 1333.714
243.4770, 1319.257
243.9592, 1308.727
244.4413, 1308.927
244.9234, 1306.537
245.4055, 1296.108
245.8876, 1278.882
246.3697, 1258.844
246.8519, 1237.846
247.3340, 1216.130
247.8161, 1196.723
248.2982, 1177.324
248.7803, 1163.944
249.2624, 1162.950
249.7446, 1167.935
250.2267, 1168.454
250.7088, 1158.098
251.1909, 1140.535
251.6730, 1125.833
252.1551, 1113.557
252.6373, 1105.299
253.1194, 1105.325
253.6015, 1107.618
254.0836, 1105.201
254.5657, 1094.987
255.0478, 1081.411
255.5300, 1070.867
256.0121, 1063.350
256.4942, 1059.081
256.9763, 1062.298
257.4584, 1066.458
257.9406, 1065.494
258.4227, 1057.933
258.9048, 1050.895
259.3869, 1052.683
259.8690, 1063.707
260.3511, 1074.398
260.8333, 1083.474
261.3154, 1091.261
261.7975, 1097.653
262.2796, 1102.770
262.7617, 1108.023
263.2438, 1115.686
263.7260, 1124.891
264.2081, 1129.665
264.6902, 1125.820
265.1723, 1123.075
265.6544, 1131.175
266.1365, 1146.730
266.6187, 1158.238
267.1008, 1154.969
267.5829, 1144.948
268.0650, 1147.014
268.5471, 1165.244
269.0292, 1183.627
269.5114, 1188.647
269.9935, 1186.410
270.4756, 1186.988
270.9577, 1193.249
271.4398, 1203.144
271.9219, 1216.875
272.4041, 1234.712
272.8862, 1247.216
273.3683, 1246.400
273.8504, 1238.592
274.3325, 1236.616
274.8146, 1243.860
275.2968, 1251.844
275.7789, 1256.412
276.2610, 1257.392
276.7431, 1253.459
277.2252, 1242.720
277.7073, 1228.655
278.1895, 1216.252
278.6716, 1204.821
279.1537, 1197.132
279.6358, 1198.394
280.1179, 1203.145
280.6000, 1200.834
281.0822, 1188.352
281.5643, 1173.578
282.0464, 1166.494
282.5285, 1167.947
283.0106, 1166.664
283.4927, 1160.071
283.9749, 1151.051
284.4570, 1140.754
284.9391, 1129.719
285.4212, 1121.134
285.9033, 1118.382
286.3854, 1121.352
286.8676, 1121.127
287.3497, 1115.063
287.8318, 1108.679
288.3139, 1103.878
288.7960, 1100.842
289.2781, 1100.354
289.7603, 1103.413
290.2424, 1108.411
290.7245, 1108.376
291.2066, 1099.973
291.6887, 1091.068
292.1708, 1081.296
292.6530, 1072.189
293.1351, 1064.746
293.6172, 1059.405
294.0993, 1057.924
294.5814, 1063.942
295.0635, 1084.455
295.5457, 1099.350
296.0278, 1105.077
296.5099, 1108.127
296.9920, 1111.856
297.4741, 1117.298
297.9562, 1124.948
298.4384, 1135.692
298.9205, 1150.146
299.4026, 1163.573
299.8847, 1173.301
300.3668, 1184.677
300.8489, 1200.528
301.3311, 1219.551
301.8131, 1239.093
302.2953, 1257.838
302.7774, 1275.278
303.2595, 1288.589
303.7416, 1295.114
304.2237, 1301.141
304.7058, 1307.238
305.1880, 1313.880
305.6701, 1320.656
306.1522, 1327.293
306.6343, 1336.491
307.1164, 1354.710
307.5985, 1385.780
308.0807, 1411.277
308.5628, 1423.984
309.0449, 1432.687
309.5270, 1441.332
310.0091, 1450.621
310.4912, 1460.249
310.9734, 1470.773
311.4555, 1481.929
311.9376, 1490.643
312.4197, 1497.009
312.9018, 1500.104
313.3839, 1497.314
313.8661, 1491.009
314.3482, 1487.469
314.8303, 1490.639
315.3124, 1497.808
315.7945, 1505.560
316.2766, 1514.643
316.7588, 1519.777
317.2409, 1515.455
317.7230, 1506.045
318.2051, 1498.145
318.6872, 1490.623
319.1693, 1488.122
319.6515, 1495.986
320.1336, 1512.488
320.6157, 1531.127
321.0978, 1551.812
321.5799, 1570.202
322.0620, 1578.062
322.5442, 1574.221
323.0263, 1570.590
323.5084, 1569.102
323.9905, 1570.286
324.4726, 1575.360
324.9547, 1584.533
325.4369, 1595.947
325.9190, 1609.232
326.4011, 1624.742
326.8832, 1632.166
327.3653, 1622.408
327.8474, 1613.248
328.3296, 1616.615
328.8117, 1629.336
329.2938, 1640.545
329.7759, 1643.739
330.2580, 1640.835
330.7401, 1640.418
331.2223, 1641.222
331.7044, 1646.153
332.1865, 1657.786
332.6686, 1672.683
333.1507, 1686.111
333.6328, 1696.949
334.1150, 1709.622
334.5971, 1732.695
335.0792, 1775.235
335.5613, 1802.802
336.0434, 1808.257
336.5255, 1807.005
337.0077, 1801.156
337.4898, 1794.671
337.9719, 1795.758
338.4540, 1813.015
338.9361, 1843.994
339.4182, 1866.473
339.9004, 1876.130
340.3825, 1882.876
340.8646, 1889.865
341.3467, 1896.016
341.8288, 1898.455
342.3109, 1895.059
342.7931, 1892.669
343.2752, 1904.574
343.7573, 1933.805
344.2394, 1955.688
344.7215, 1959.782
345.2036, 1957.771
345.6858, 1959.800
346.1679, 1966.191
346.6500, 1969.497
347.1321, 1962.278
347.6142, 1948.436
348.0963, 1939.329
348.5785, 1937.343
349.0606, 1936.059
349.5427, 1930.152
350.0248, 1920.852
350.5069, 1911.608
350.9890, 1900.682
351.4712, 1891.839
351.9533, 1891.803
352.4354, 1898.108
352.9175, 1896.971
353.3996, 1879.951
353.8817, 1853.750
354.3639, 1835.959
354.8460, 1828.298
355.3281, 1823.161
355.8102, 1822.563
356.2923, 1821.983
356.7744, 1815.069
357.2566, 1800.740
357.7387, 1784.170
358.2208, 1770.810
358.7029, 1760.757
359.1850, 1753.836
359.6671, 1757.061
360.1493, 1756.102
360.6314, 1740.292
361.1135, 1715.408
361.5956, 1695.031
362.0777, 1687.605
362.5598, 1688.698
363.0420, 1681.559
363.5241, 1658.273
364.0062, 1639.375
364.4883, 1628.615
364.9704, 1621.864
365.4525, 1616.066
365.9347, 1610.442
366.4168, 1605.399
366.8989, 1602.368
367.3810, 1601.643
367.8631, 1597.481
368.3452, 1588.469
368.8274, 1577.106
369.3095, 1561.068
369.7916, 1543.742
370.2737, 1533.546
370.7558, 1538.218
371.2379, 1549.121
371.7201, 1549.527
372.2022, 1537.804
372.6843, 1531.539
373.1664, 1541.367
373.6485, 1559.185
374.1306, 1573.363
374.6128, 1584.263
375.0949, 1588.982
375.5770, 1579.447
376.0591, 1563.702
376.5412, 1558.718
377.0233, 1568.576
377.5055, 1584.468
377.9876, 1598.563
378.4697, 1610.628
378.9518, 1620.552
379.4339, 1626.450
379.9160, 1631.857
380.3982, 1639.679
380.8803, 1648.801
381.3624, 1655.351
381.8445, 1656.906
382.3266, 1655.629
382.8087, 1658.219
383.2909, 1671.716
383.7730, 1679.723
384.2551, 1678.038
384.7372, 1673.319
385.2193, 1671.061
385.7014, 1672.042
386.1836, 1673.380
386.6657, 1671.774
387.1478, 1666.992
387.6299, 1663.799
388.1120, 1662.124
388.5941, 1662.335
389.0763, 1662.979
389.5584, 1665.849
390.0405, 1675.410
390.5226, 1695.885
391.0047, 1717.194
391.4868, 1720.437
391.9690, 1703.120
392.4511, 1691.639
392.9332, 1696.426
393.4153, 1706.754
393.8974, 1712.944
394.3795, 1714.844
394.8617, 1714.645
395.3438, 1712.270
395.8259, 1708.878
396.3080, 1707.537
396.7901, 1708.790
397.2722, 1706.740
397.7544, 1695.518
398.2365, 1677.380
398.7186, 1664.719
399.2007, 1658.713
399.6828, 1656.777
400.1649, 1660.748
400.6471, 1667.502
401.1292, 1671.622
401.6113, 1671.331
402.0934, 1669.254
402.5755, 1669.916
403.0576, 1677.064
403.5398, 1674.797
404.0219, 1655.442
404.5040, 1635.140
404.9861, 1622.607
405.4682, 1616.128
405.9503, 1609.719
406.4325, 1599.529
406.9146, 1586.740
407.3967, 1576.019
407.8788, 1569.477
408.3609, 1560.616
408.8430, 1547.176
409.3252, 1531.750
409.8073, 1515.242
410.2894, 1498.116
410.7715, 1482.801
411.2536, 1471.018
411.7357, 1462.722
412.2179, 1459.097
412.7000, 1462.404
413.1821, 1465.150
413.6642, 1458.418
414.1463, 1447.661
414.6284, 1444.725
415.1106, 1458.358
415.5927, 1472.343
416.0748, 1473.201
416.5569, 1464.538
417.0390, 1457.808
417.5211, 1457.285
418.0033, 1458.619
418.4854, 1454.600
418.9675, 1441.979
419.4496, 1435.526
419.9317, 1441.607
420.4138, 1449.238
420.8960, 1452.847
421.3781, 1451.561
421.8602, 1445.124
422.3423, 1433.055
422.8244, 1416.266
423.3065, 1398.547
423.7887, 1377.234
424.2708, 1359.250
424.7529, 1346.216
425.2350, 1335.805
425.7171, 1325.974
426.1992, 1316.513
426.6814, 1309.058
427.1635, 1306.607
427.6456, 1308.494
428.1277, 1306.367
428.6098, 1297.563
429.0919, 1289.886
429.5741, 1289.289
430.0562, 1291.817
430.5383, 1291.181
431.0204, 1284.195
431.5025, 1277.474
431.9846, 1279.073
432.4668, 1285.935
432.9489, 1285.970
433.4310, 1274.706
433.9131, 1260.685
434.3952, 1255.184
434.8773, 1259.603
435.3595, 1257.099
435.8416, 1241.319
436.3237, 1223.304
436.8058, 1207.235
437.2879, 1194.469
437.7701, 1187.872
438.2522, 1189.344
438.7343, 1195.095
439.2164, 1195.508
439.6985, 1188.190
440.1806, 1179.482
440.6628, 1167.032
441.1449, 1155.396
441.6270, 1147.496
442.1091, 1143.236
442.5912, 1140.882
443.0733, 1139.597
443.5555, 1139.059
444.0376, 1137.989
444.5197, 1136.203
445.0018, 1134.423
445.4839, 1135.009
445.9660, 1134.565
446.4482, 1127.857
446.9303, 1113.101
447.4124, 1101.450
447.8945, 1103.843
448.3766, 1113.381
448.8587, 1114.192
449.3409, 1103.569
449.8230, 1092.990
450.3051, 1091.829
450.7872, 1099.146
451.2693, 1103.778
451.7514, 1103.002
452.2336, 1102.922
452.7157, 1107.414
453.1978, 1113.118
453.6799, 1114.755
454.1620, 1110.990
454.6441, 1105.247
455.1263, 1101.455
455.6084, 1099.204
456.0905, 1101.228
456.5726, 1114.121
457.0547, 1124.590
457.5368, 1128.346
458.0190, 1127.046
458.5011, 1123.489
458.9832, 1118.711
459.4653, 1112.728
459.9474, 1104.657
460.4295, 1094.466
460.9117, 1086.279
461.3938, 1080.463
461.8759, 1077.564
462.3580, 1080.333
462.8401, 1087.259
463.3222, 1089.944
463.8044, 1082.610
464.2865, 1072.837
464.7686, 1066.649
465.2507, 1063.796
465.7328, 1062.751
466.2149, 1062.922
466.6971, 1064.345
467.1792, 1067.242
467.6613, 1073.237
468.1434, 1077.217
468.6255, 1081.096
469.1076, 1081.387
469.5898, 1073.154
470.0719, 1059.192
470.5540, 1046.760
471.0361, 1040.091
471.5182, 1038.810
472.0003, 1043.429
472.4825, 1058.489
472.9646, 1066.932
473.4467, 1061.330
473.9288, 1050.406
474.4109, 1037.404
474.8930, 1023.321
475.3752, 1011.715
475.8573, 1005.207
476.3394, 1002.250
476.8215, 1001.203
477.3036, 1002.046
477.7857, 1001.273
478.2679, 996.5665
478.7500, 989.6066
479.2321, 984.0455
479.7142, 978.7718
480.1963, 977.2109
480.6784, 985.5236
481.1606, 994.1362
481.6427, 993.3033
482.1248, 983.3368
482.6069, 970.9277
483.0890, 960.4226
483.5711, 952.3195
484.0533, 949.5120
484.5354, 955.8300
485.0175, 961.3042
485.4996, 964.1622
485.9817, 965.9644
486.4638, 967.1705
486.9460, 968.2191
487.4281, 970.7461
487.9102, 979.2982
488.3923, 990.1728
488.8744, 989.4788
489.3565, 974.4705
489.8387, 963.4659
490.3208, 967.5986
490.8029, 980.7953
491.2850, 989.5178
491.7671, 991.9299
492.2492, 995.3011
492.7314, 1005.828
493.2135, 1016.446
493.6956, 1016.263
494.1777, 1005.975
494.6598, 998.6938
495.1419, 1005.631
495.6241, 1023.319
496.1062, 1028.949
496.5883, 1006.865
497.0704, 994.6572
497.5525, 1002.536
498.0346, 1016.729
498.5168, 1027.595
498.9989, 1033.135
499.4810, 1034.390
499.9631, 1030.056
500.4452, 1022.200
500.9273, 1018.725
501.4095, 1020.074
501.8916, 1024.271
502.3737, 1033.743
502.8558, 1043.595
503.3379, 1046.308
503.8200, 1040.745
504.3022, 1032.227
504.7843, 1019.920
505.2664, 1007.319
505.7485, 998.5320
506.2306, 993.7571
506.7127, 991.3240
507.1949, 990.1134
507.6770, 990.3100
508.1591, 992.8921
508.6412, 1003.035
509.1233, 1007.804
509.6054, 1000.134
510.0876, 992.0195
510.5697, 993.3865
511.0518, 1003.490
511.5339, 1014.335
512.0161, 1021.379
512.4982, 1024.284
512.9803, 1020.550
513.4624, 1008.755
513.9445, 999.0675
514.4266, 995.2762
514.9088, 995.2061
515.3909, 996.5638
515.8730, 999.6080
516.3551, 1000.849
516.8372, 998.9997
517.3193, 995.0752
517.8015, 988.7952
518.2836, 981.0369
518.7657, 974.6816
519.2478, 971.3687
519.7299, 969.9932
520.2120, 968.0524
520.6942, 966.0859
521.1763, 962.4081
521.6584, 952.8959
522.1405, 945.7019
522.6226, 947.0247
523.1047, 954.2988
523.5869, 960.5151
524.0690, 961.8698
524.5511, 960.6698
525.0332, 960.7165
525.5153, 961.9964
525.9974, 962.0759
526.4796, 959.5556
526.9617, 957.0019
527.4438, 957.4502
527.9259, 960.5440
528.4080, 963.7037
528.8901, 967.3785
529.3723, 970.2344
529.8544, 970.1589
530.3365, 968.9499
530.8186, 970.1632
531.3007, 974.9977
531.7828, 981.9553
532.2650, 989.9771
532.7471, 1000.536
533.2292, 1002.969
533.7113, 988.6238
534.1934, 975.8647
534.6755, 967.9469
535.1577, 965.7751
535.6398, 972.8501
536.1219, 991.4144
536.6040, 1007.566
537.0861, 1005.054
537.5682, 989.6054
538.0504, 979.2147
538.5325, 976.0326
539.0146, 977.9806
539.4967, 985.6918
539.9788, 997.2759
540.4609, 1003.177
540.9431, 996.7111
541.4252, 994.4266
541.9073, 1004.488
542.3894, 1017.090
542.8715, 1021.777
543.3536, 1018.547
543.8358, 1015.688
544.3179, 1020.672
544.8000, 1030.513
545.2821, 1030.451
545.7642, 1014.557
546.2463, 1005.098
546.7285, 1014.793
547.2106, 1027.807
547.6927, 1032.350
548.1748, 1028.338
548.6569, 1021.828
549.1390, 1013.369
549.6211, 1005.186
550.1032, 998.5540
550.5853, 994.1048
551.0674, 995.6294
551.5496, 1005.529
552.0317, 1017.536
552.5138, 1021.360
552.9959, 1014.371
553.4780, 1007.912
553.9601, 998.9670
554.4423, 993.6305
554.9244, 997.6194
555.4065, 1005.815
555.8886, 1011.207
556.3707, 1011.326
556.8528, 1005.669
557.3350, 990.9861
557.8171, 968.6869
558.2992, 949.8322
558.7813, 934.9687
559.2634, 925.1321
559.7455, 922.7210
560.2277, 925.8857
560.7098, 928.1736
561.1919, 930.0648
561.6740, 930.1607
562.1561, 928.0172
562.6382, 923.8658
563.1204, 917.4125
563.6025, 909.0064
564.0846, 899.3113
564.5667, 887.9393
565.0488, 877.0334
565.5309, 876.2181
566.0131, 891.5714
566.4952, 901.6428
566.9773, 899.2770
567.4594, 893.1695
567.9415, 887.3047
568.4236, 882.1831
568.9058, 878.4875
569.3879, 876.4677
569.8700, 876.0152
570.3521, 877.7335
570.8342, 880.9979
571.3163, 884.0571
571.7985, 886.4928
572.2806, 887.4485
572.7627, 885.9711
573.2448, 882.0507
573.7269, 875.6100
574.2090, 862.6125
574.6912, 851.9525
575.1733, 846.1603
575.6554, 843.6981
576.1375, 843.9010
576.6196, 846.1660
577.1017, 847.3145
577.5839, 841.9581
578.0660, 833.2020
578.5481, 832.7513
579.0302, 841.7212
579.5123, 850.8871
579.9944, 857.5762
580.4766, 860.6697
580.9587, 856.5446
581.4408, 843.2209
581.9229, 832.4497
582.4050, 825.9605
582.8871, 822.4565
583.3693, 822.4859
583.8514, 824.6574
584.3335, 826.3121
584.8156, 826.2252
585.2977, 825.4446
585.7798, 825.4810
586.2620, 826.3364
586.7441, 828.3018
587.2262, 832.9532
587.7083, 836.1506
588.1904, 834.7625
588.6725, 830.5922
589.1547, 825.7799
589.6368, 818.9048
590.1189, 815.9002
590.6010, 824.5204
591.0831, 835.9639
591.5652, 837.1539
592.0474, 828.6404
592.5295, 821.7118
593.0116, 824.2643
593.4937, 832.4848
593.9758, 834.0303
594.4579, 824.5686
594.9401, 818.7254
595.4222, 821.3990
595.9043, 824.6299
596.3864, 823.4611
596.8685, 819.7223
597.3506, 818.4349
597.8328, 821.7681
598.3149, 827.5065
598.7970, 836.9260
599.2791, 846.9312
599.7612, 847.9137
600.2433, 837.9951
600.7255, 826.4977
601.2076, 820.7982
601.6897, 820.5886
602.1718, 823.3730
602.6539, 830.6293
603.1360, 839.0547
603.6182, 852.3522
604.1003, 863.6080
604.5824, 866.7220
605.0645, 862.6296
605.5466, 856.9678
606.0287, 852.4466
606.5109, 848.8012
606.9930, 845.1966
607.4751, 841.8540
607.9572, 840.3367
608.4393, 840.7987
608.9214, 844.3996
609.4036, 854.1498
609.8857, 870.0681
610.3678, 876.7205
610.8499, 866.4323
611.3320, 857.5274
611.8141, 854.9625
612.2963, 855.3240
612.7784, 855.0766
613.2605, 853.8909
613.7426, 853.8462
614.2247, 857.2184
614.7068, 862.2597
615.1890, 864.5795
615.6711, 864.0884
616.1532, 862.4895
616.6353, 859.2059
617.1174, 856.9447
617.5995, 860.1074
618.0817, 868.8361
618.5638, 872.9556
619.0459, 866.2430
619.5280, 861.6013
620.0101, 866.5640
620.4922, 875.1328
620.9744, 877.8691
621.4565, 874.1658
621.9386, 873.7093
622.4207, 887.3935
622.9028, 910.3696
623.3849, 922.3407
623.8671, 921.3036
624.3492, 920.8804
624.8313, 925.1229
625.3134, 931.7493
625.7955, 939.1884
626.2776, 947.3761
626.7598, 952.3867
627.2419, 950.2702
627.7240, 948.5178
628.2061, 949.6641
628.6882, 954.0560
629.1703, 964.5227
629.6525, 980.3098
630.1346, 992.6928
630.6167, 990.6898
631.0988, 978.2995
631.5809, 979.6825
632.0630, 999.1476
632.5452, 1015.198
633.0273, 1017.293
633.5094, 1017.270
633.9915, 1028.705
634.4736, 1050.973
634.9557, 1074.511
635.4379, 1101.962
635.9200, 1125.280
636.4021, 1134.451
636.8842, 1138.526
637.3663, 1152.499
637.8484, 1179.351
638.3306, 1209.840
638.8127, 1234.109
639.2948, 1254.065
639.7769, 1281.835
640.2590, 1320.349
640.7411, 1356.119
641.2233, 1380.297
641.7054, 1404.884
642.1875, 1444.629
642.6696, 1498.172
643.1517, 1547.899
643.6339, 1585.085
644.1160, 1623.036
644.5981, 1670.175
645.0802, 1722.413
645.5623, 1773.002
646.0444, 1820.590
646.5266, 1867.800
647.0087, 1915.358
647.4908, 1965.130
647.9729, 2029.556
648.4550, 2114.167
648.9371, 2188.353
649.4193, 2232.883
649.9014, 2276.665
650.3835, 2355.228
650.8656, 2462.188
651.3477, 2553.840
651.8298, 2614.831
652.3120, 2668.573
652.7941, 2725.722
653.2762, 2782.742
653.7583, 2835.912
654.2404, 2883.778
654.7225, 2924.450
655.2047, 2956.444
655.6868, 2980.018
656.1689, 2996.197
656.6510, 3005.624
657.1331, 3003.754
657.6152, 2990.112
658.0974, 2964.357
658.5795, 2925.588
659.0616, 2874.280
659.5437, 2811.041
660.0258, 2726.410
660.5079, 2641.465
660.9901, 2568.494
661.4722, 2495.511
661.9543, 2405.904
662.4364, 2301.985
662.9185, 2199.082
663.4006, 2106.611
663.8828, 2023.553
664.3649, 1949.083
664.8470, 1883.466
665.3291, 1816.922
665.8112, 1745.003
666.2933, 1678.366
666.7755, 1626.483
667.2576, 1586.736
667.7397, 1545.901
668.2218, 1504.992
668.7039, 1461.624
669.1860, 1409.699
669.6682, 1359.862
670.1503, 1318.456
670.6324, 1286.257
671.1145, 1264.194
671.5966, 1253.564
672.0787, 1245.891
672.5609, 1226.572
673.0430, 1198.077
673.5251, 1180.483
674.0072, 1177.807
674.4893, 1172.776
674.9714, 1153.950
675.4536, 1126.723
675.9357, 1105.156
676.4178, 1090.570
676.8999, 1078.720
677.3820, 1071.004
677.8641, 1064.464
678.3463, 1058.360
678.8284, 1052.165
679.3105, 1044.937
679.7926, 1036.394
680.2747, 1028.349
680.7568, 1022.893
681.2390, 1019.177
681.7211, 1015.700
682.2032, 1012.317
682.6853, 1007.840
683.1674, 1001.977
683.6495, 993.9831
684.1317, 982.3455
684.6138, 966.3295
685.0959, 950.7239
685.5780, 928.0239
686.0601, 914.6988
686.5422, 922.4384
687.0244, 936.8129
687.5065, 943.1884
