##NAMES=Clinoptilolite-Ca
##RRUFFID=R061098
##IDEAL CHEMISTRY=Ca_3_(Si_30_Al_6_)O_72_&#183;20H_2_O
##LOCALITY=Fish Creek Quarry, Clackamas River, Estacada, Clackamas County, Oregon, USA
##OWNER=RRUFF
##SOURCE=Michael Scott
##DESCRIPTION=Druse of colorless, clear tabular somewhat pseudohexagonal crystals in vug
##STATUS=The identification of this mineral is confirmed by single-crystal X-ray diffraction and chemical analysis.
##URL=rruff.info/R061098
##MEASURED CHEMISTRY=(Ca_1.90_K_1.85_Na_0.23_Mg_0.11_)_Σ=4.09_(Si_29.90_Al_6.10_)_Σ=36_O_72_·21.90H_2_O; H_2_O estimated by difference
118.1900, 2430.048
118.6721, 2600.389
119.1542, 2782.604
119.6363, 2965.192
120.1184, 3134.957
120.6006, 3319.736
121.0827, 3545.129
121.5648, 3805.068
122.0469, 4066.607
122.5290, 4322.442
123.0111, 4564.350
123.4933, 4780.663
123.9754, 4957.541
124.4575, 5112.066
124.9396, 5260.002
125.4217, 5399.722
125.9038, 5539.525
126.3860, 5659.485
126.8681, 5710.492
127.3502, 5707.396
127.8323, 5680.199
128.3144, 5639.157
128.7965, 5604.973
129.2787, 5579.021
129.7608, 5557.446
130.2429, 5538.430
130.7250, 5520.783
131.2071, 5495.224
131.6892, 5442.741
132.1714, 5369.110
132.6535, 5323.854
133.1356, 5319.663
133.6177, 5341.152
134.0998, 5341.650
134.5819, 5316.240
135.0640, 5294.244
135.5462, 5303.587
136.0283, 5345.471
136.5104, 5394.559
136.9925, 5449.863
137.4746, 5510.628
137.9567, 5550.079
138.4389, 5565.504
138.9210, 5567.469
139.4031, 5573.258
139.8852, 5590.217
140.3673, 5591.348
140.8494, 5564.188
141.3316, 5499.840
141.8137, 5443.989
142.2958, 5396.451
142.7779, 5357.239
143.2600, 5325.784
143.7421, 5306.835
144.2243, 5289.617
144.7064, 5269.710
145.1885, 5249.571
145.6706, 5222.290
146.1527, 5183.364
146.6348, 5134.833
147.1170, 5094.944
147.5991, 5066.744
148.0812, 5044.433
148.5633, 5024.073
149.0454, 5007.806
149.5275, 4990.159
150.0097, 4969.813
150.4918, 4945.901
150.9739, 4922.669
151.4560, 4894.572
151.9381, 4868.750
152.4202, 4852.833
152.9024, 4853.521
153.3845, 4858.274
153.8666, 4866.989
154.3487, 4888.552
154.8308, 4891.224
155.3129, 4858.424
155.7950, 4804.597
156.2772, 4758.556
156.7593, 4727.063
157.2414, 4704.059
157.7235, 4687.533
158.2056, 4686.186
158.6877, 4679.132
159.1699, 4660.447
159.6520, 4631.774
160.1341, 4599.221
160.6162, 4561.258
161.0983, 4522.335
161.5804, 4485.628
162.0626, 4446.501
162.5447, 4415.266
163.0268, 4403.341
163.5089, 4409.339
163.9910, 4405.927
164.4731, 4374.374
164.9553, 4328.057
165.4374, 4282.591
165.9195, 4242.485
166.4016, 4205.967
166.8837, 4172.297
167.3658, 4141.683
167.8480, 4110.978
168.3301, 4076.865
168.8122, 4041.149
169.2943, 4007.270
169.7764, 3977.428
170.2585, 3949.769
170.7407, 3923.035
171.2228, 3897.523
171.7049, 3870.848
172.1870, 3839.160
172.6691, 3803.945
173.1512, 3770.908
173.6334, 3743.192
174.1155, 3719.334
174.5976, 3697.830
175.0797, 3679.169
175.5618, 3661.656
176.0439, 3643.160
176.5260, 3623.895
177.0082, 3605.961
177.4903, 3593.047
177.9724, 3582.416
178.4545, 3568.647
178.9366, 3550.268
179.4187, 3527.746
179.9009, 3499.740
180.3830, 3466.002
180.8651, 3434.275
181.3472, 3412.698
181.8293, 3399.140
182.3114, 3386.396
182.7936, 3366.062
183.2757, 3345.106
183.7578, 3344.220
184.2399, 3366.513
184.7220, 3390.490
185.2041, 3383.885
185.6863, 3351.037
186.1684, 3324.589
186.6505, 3327.293
187.1326, 3350.645
187.6147, 3360.202
188.0968, 3352.539
188.5790, 3335.430
189.0611, 3318.581
189.5432, 3302.055
190.0253, 3288.047
190.5074, 3279.947
190.9895, 3276.785
191.4717, 3269.413
191.9538, 3256.320
192.4359, 3239.546
192.9180, 3223.290
193.4001, 3207.628
193.8822, 3191.676
194.3644, 3173.037
194.8465, 3151.933
195.3286, 3136.699
195.8107, 3130.153
196.2928, 3129.755
196.7749, 3127.826
197.2570, 3124.739
197.7392, 3118.485
198.2213, 3106.599
198.7034, 3088.614
199.1855, 3068.942
199.6676, 3046.966
200.1497, 3023.537
200.6319, 3005.590
201.1140, 2985.128
201.5961, 2987.279
202.0782, 2984.780
202.5603, 2977.883
203.0424, 2953.411
203.5246, 2951.631
204.0067, 2940.758
204.4888, 2929.513
204.9709, 2930.929
205.4530, 2909.013
205.9352, 2910.227
206.4173, 2898.231
206.8994, 2887.850
207.3815, 2867.839
207.8636, 2835.607
208.3457, 2816.814
208.8279, 2815.563
209.3100, 2823.518
209.7921, 2825.859
210.2742, 2821.541
210.7563, 2814.441
211.2384, 2805.942
211.7206, 2795.579
212.2027, 2785.488
212.6848, 2775.841
213.1669, 2766.330
213.6490, 2756.581
214.1311, 2746.953
214.6133, 2736.136
215.0954, 2721.685
215.5775, 2700.043
216.0596, 2687.938
216.5417, 2690.487
217.0238, 2702.490
217.5059, 2704.722
217.9881, 2693.036
218.4702, 2678.568
218.9523, 2668.726
219.4344, 2667.283
219.9165, 2660.518
220.3986, 2644.950
220.8808, 2622.637
221.3629, 2604.489
221.8450, 2588.580
222.3271, 2579.541
222.8092, 2582.188
223.2913, 2603.176
223.7735, 2620.757
224.2556, 2630.966
224.7377, 2634.348
225.2198, 2639.678
225.7019, 2649.129
226.1840, 2657.869
226.6662, 2661.494
227.1483, 2657.416
227.6304, 2652.955
228.1125, 2648.702
228.5946, 2644.607
229.0767, 2643.026
229.5589, 2645.179
230.0410, 2648.665
230.5231, 2651.486
231.0052, 2655.085
231.4873, 2655.041
231.9694, 2646.752
232.4516, 2627.779
232.9337, 2627.483
233.4158, 2657.566
233.8979, 2696.692
234.3800, 2717.202
234.8621, 2706.458
235.3443, 2699.356
235.8264, 2706.713
236.3085, 2732.601
236.7906, 2749.750
237.2727, 2754.736
237.7548, 2753.362
238.2369, 2754.048
238.7191, 2759.378
239.2012, 2762.443
239.6833, 2759.654
240.1654, 2747.507
240.6475, 2743.581
241.1296, 2750.901
241.6118, 2764.653
242.0939, 2777.008
242.5760, 2787.419
243.0581, 2797.304
243.5402, 2807.614
244.0223, 2819.550
244.5045, 2827.519
244.9866, 2829.437
245.4687, 2828.424
245.9508, 2830.313
246.4329, 2834.949
246.9150, 2842.848
247.3972, 2855.455
247.8793, 2876.834
248.3614, 2891.751
248.8435, 2899.127
249.3256, 2900.426
249.8077, 2897.397
250.2899, 2882.926
250.7720, 2875.304
251.2541, 2885.531
251.7362, 2928.220
252.2183, 2951.490
252.7004, 2946.262
253.1826, 2924.050
253.6647, 2915.340
254.1468, 2925.905
254.6289, 2940.667
255.1110, 2953.456
255.5931, 2965.388
256.0753, 2971.667
256.5574, 2968.541
257.0395, 2960.698
257.5216, 2963.567
258.0037, 2983.562
258.4858, 3003.076
258.9680, 3012.775
259.4501, 3010.081
259.9322, 3004.957
260.4143, 2997.111
260.8964, 2987.368
261.3785, 2977.737
261.8607, 2966.058
262.3428, 2950.086
262.8249, 2954.851
263.3070, 2954.966
263.7891, 2950.683
264.2712, 2928.825
264.7534, 2929.660
265.2355, 2921.401
265.7176, 2912.770
266.1997, 2916.800
266.6818, 2897.498
267.1639, 2901.328
267.6461, 2895.923
268.1282, 2894.744
268.6103, 2884.416
269.0924, 2876.913
269.5745, 2879.602
270.0566, 2886.985
270.5387, 2891.447
271.0208, 2893.273
271.5030, 2889.115
271.9851, 2875.310
272.4672, 2856.664
272.9493, 2851.107
273.4314, 2862.409
273.9135, 2874.819
274.3957, 2877.943
274.8778, 2870.995
275.3599, 2860.140
275.8420, 2843.743
276.3241, 2825.270
276.8062, 2816.437
277.2884, 2818.985
277.7705, 2824.229
278.2526, 2826.355
278.7347, 2825.144
279.2168, 2824.960
279.6989, 2827.015
280.1811, 2829.848
280.6632, 2830.412
281.1453, 2829.064
281.6274, 2822.933
282.1095, 2805.901
282.5916, 2778.084
283.0738, 2759.522
283.5559, 2753.581
284.0380, 2757.466
284.5201, 2767.595
285.0022, 2784.809
285.4843, 2798.257
285.9665, 2797.451
286.4486, 2783.922
286.9307, 2774.537
287.4128, 2772.184
287.8949, 2774.508
288.3770, 2777.987
288.8592, 2782.724
289.3413, 2785.656
289.8234, 2786.461
290.3055, 2784.355
290.7876, 2773.104
291.2697, 2748.094
291.7519, 2719.822
292.2340, 2706.906
292.7161, 2709.024
293.1982, 2718.409
293.6803, 2734.937
294.1624, 2755.362
294.6446, 2768.241
295.1267, 2770.706
295.6088, 2768.018
296.0909, 2769.565
296.5730, 2774.133
297.0551, 2773.683
297.5373, 2756.800
298.0194, 2731.653
298.5015, 2716.983
298.9836, 2717.834
299.4657, 2724.104
299.9478, 2723.069
300.4300, 2716.382
300.9121, 2710.541
301.3942, 2709.967
301.8763, 2712.694
302.3584, 2716.177
302.8405, 2720.697
303.3227, 2724.223
303.8048, 2723.620
304.2869, 2720.172
304.7690, 2717.632
305.2511, 2720.362
305.7332, 2724.191
306.2154, 2723.959
306.6975, 2718.278
307.1796, 2711.308
307.6617, 2702.334
308.1438, 2694.493
308.6259, 2694.489
309.1081, 2714.848
309.5901, 2739.257
310.0723, 2754.252
310.5544, 2757.505
311.0365, 2754.330
311.5186, 2744.123
312.0007, 2730.035
312.4828, 2717.900
312.9650, 2704.452
313.4471, 2697.693
313.9292, 2706.071
314.4113, 2733.151
314.8934, 2758.571
315.3755, 2773.356
315.8577, 2780.528
316.3398, 2783.960
316.8219, 2785.169
317.3040, 2782.960
317.7861, 2773.354
318.2682, 2754.192
318.7504, 2743.678
319.2325, 2752.769
319.7146, 2771.991
320.1967, 2790.106
320.6788, 2803.295
321.1609, 2815.976
321.6431, 2832.033
322.1252, 2852.572
322.6073, 2864.005
323.0894, 2852.069
323.5715, 2835.002
324.0536, 2829.698
324.5358, 2846.073
325.0179, 2866.689
325.5000, 2895.722
325.9821, 2933.815
326.4642, 2949.533
326.9464, 2917.665
327.4285, 2876.152
327.9106, 2853.054
328.3927, 2864.023
328.8748, 2874.935
329.3569, 2885.265
329.8391, 2894.527
330.3212, 2893.658
330.8033, 2871.146
331.2854, 2849.070
331.7675, 2842.885
332.2496, 2865.101
332.7318, 2880.880
333.2139, 2886.663
333.6960, 2883.863
334.1781, 2878.473
334.6602, 2866.838
335.1423, 2858.248
335.6245, 2859.722
336.1066, 2877.054
336.5887, 2886.062
337.0708, 2881.388
337.5529, 2869.400
338.0350, 2869.902
338.5172, 2886.475
338.9993, 2904.878
339.4814, 2918.798
339.9635, 2928.158
340.4456, 2932.318
340.9277, 2931.064
341.4099, 2924.809
341.8920, 2910.315
342.3741, 2885.914
342.8562, 2869.346
343.3383, 2872.688
343.8204, 2894.142
344.3026, 2914.668
344.7847, 2934.263
345.2668, 2950.455
345.7489, 2957.199
346.2310, 2955.345
346.7131, 2954.129
347.1953, 2960.521
347.6774, 2970.851
348.1595, 2971.417
348.6416, 2961.277
349.1237, 2950.323
349.6058, 2948.761
350.0880, 2955.080
350.5700, 2964.711
351.0522, 2980.287
351.5343, 2996.075
352.0164, 3001.234
352.4985, 2996.118
352.9806, 2990.778
353.4627, 2992.756
353.9449, 2999.989
354.4270, 3009.177
354.9091, 3020.066
355.3912, 3031.574
355.8733, 3042.022
356.3554, 3051.605
356.8376, 3062.541
357.3197, 3073.894
357.8018, 3088.090
358.2839, 3108.574
358.7660, 3142.831
359.2481, 3173.360
359.7303, 3187.662
360.2124, 3190.087
360.6945, 3194.100
361.1766, 3210.751
361.6587, 3227.275
362.1408, 3234.042
362.6230, 3223.060
363.1051, 3217.283
363.5872, 3225.897
364.0693, 3244.168
364.5514, 3262.611
365.0335, 3285.023
365.5157, 3302.434
365.9978, 3307.676
366.4799, 3291.369
366.9620, 3291.127
367.4441, 3322.396
367.9262, 3367.944
368.4084, 3404.725
368.8905, 3423.807
369.3726, 3443.719
369.8547, 3469.413
370.3368, 3502.261
370.8189, 3527.983
371.3011, 3543.530
371.7832, 3554.361
372.2653, 3564.986
372.7474, 3573.217
373.2295, 3586.099
373.7116, 3606.532
374.1938, 3633.351
374.6759, 3654.730
375.1580, 3666.958
375.6401, 3681.389
376.1222, 3711.081
376.6043, 3760.606
377.0865, 3791.913
377.5686, 3794.167
378.0507, 3780.833
378.5328, 3788.005
379.0149, 3817.428
379.4970, 3853.207
379.9792, 3884.075
380.4613, 3911.600
380.9434, 3948.486
381.4255, 3997.572
381.9076, 4052.111
382.3897, 4105.771
382.8719, 4158.036
383.3540, 4201.974
383.8361, 4228.229
384.3182, 4244.893
384.8003, 4268.912
385.2824, 4300.600
385.7646, 4340.704
386.2467, 4397.818
386.7288, 4464.261
387.2109, 4523.333
387.6930, 4562.487
388.1751, 4595.625
388.6573, 4635.613
389.1394, 4682.692
389.6215, 4735.494
390.1036, 4795.133
390.5857, 4859.093
391.0678, 4925.766
391.5499, 4996.917
392.0320, 5067.471
392.5142, 5134.599
392.9963, 5198.465
393.4784, 5259.957
393.9605, 5317.791
394.4426, 5373.846
394.9247, 5428.544
395.4069, 5479.121
395.8890, 5534.426
396.3711, 5602.340
396.8532, 5675.211
397.3353, 5738.736
397.8174, 5784.425
398.2996, 5826.744
398.7817, 5867.224
399.2638, 5902.703
399.7459, 5949.488
400.2280, 6018.114
400.7101, 6091.645
401.1923, 6154.506
401.6744, 6208.873
402.1565, 6247.178
402.6386, 6264.171
403.1207, 6261.343
403.6028, 6261.336
404.0850, 6266.220
404.5671, 6270.278
405.0492, 6268.403
405.5313, 6259.256
406.0134, 6253.022
406.4955, 6254.122
406.9777, 6256.222
407.4598, 6243.960
407.9419, 6217.034
408.4240, 6176.905
408.9061, 6117.805
409.3882, 6043.467
409.8704, 5979.876
410.3525, 5930.386
410.8346, 5884.765
411.3167, 5831.768
411.7988, 5770.574
412.2809, 5701.104
412.7631, 5616.265
413.2452, 5524.112
413.7273, 5439.440
414.2094, 5361.979
414.6915, 5285.209
415.1736, 5200.893
415.6558, 5114.526
416.1379, 5038.032
416.6200, 4982.551
417.1021, 4927.889
417.5842, 4859.766
418.0663, 4779.555
418.5485, 4695.237
419.0306, 4603.085
419.5127, 4512.361
419.9948, 4428.348
420.4769, 4355.516
420.9590, 4285.817
421.4412, 4216.696
421.9233, 4149.114
422.4054, 4083.213
422.8875, 4017.825
423.3696, 3955.815
423.8517, 3900.220
424.3339, 3854.789
424.8160, 3802.563
425.2981, 3735.892
425.7802, 3667.816
426.2623, 3609.814
426.7444, 3565.958
427.2266, 3526.480
427.7087, 3491.694
428.1908, 3460.784
428.6729, 3423.867
429.1550, 3378.822
429.6371, 3332.649
430.1193, 3290.592
430.6014, 3253.234
431.0835, 3214.115
431.5656, 3170.274
432.0477, 3128.009
432.5298, 3099.340
433.0119, 3084.300
433.4940, 3077.628
433.9762, 3086.029
434.4583, 3101.801
434.9404, 3093.695
435.4225, 3059.486
435.9046, 3016.973
436.3867, 2981.670
436.8689, 2952.556
437.3510, 2927.311
437.8331, 2902.319
438.3152, 2883.492
438.7973, 2882.993
439.2794, 2897.432
439.7616, 2907.156
440.2437, 2895.367
440.7258, 2875.461
441.2079, 2860.064
441.6900, 2853.639
442.1721, 2847.612
442.6543, 2834.701
443.1364, 2819.700
443.6185, 2811.698
444.1006, 2820.449
444.5827, 2830.719
445.0648, 2837.372
445.5470, 2840.021
446.0291, 2839.373
446.5112, 2832.781
446.9933, 2824.359
447.4754, 2817.451
447.9576, 2809.419
448.4397, 2807.123
448.9218, 2814.306
449.4039, 2828.560
449.8860, 2834.934
450.3681, 2827.122
450.8503, 2822.881
451.3324, 2834.037
451.8145, 2863.865
452.2966, 2889.216
452.7787, 2909.000
453.2608, 2925.044
453.7430, 2939.416
454.2251, 2951.964
454.7072, 2966.741
455.1893, 2985.653
455.6714, 3008.086
456.1535, 3032.206
456.6357, 3057.961
457.1178, 3085.723
457.5999, 3119.485
458.0820, 3155.229
458.5641, 3180.987
459.0462, 3185.384
459.5284, 3192.945
460.0105, 3234.729
460.4926, 3301.678
460.9747, 3364.589
461.4568, 3404.552
461.9389, 3437.304
462.4211, 3474.753
462.9032, 3519.444
463.3853, 3563.955
463.8674, 3606.748
464.3495, 3647.079
464.8316, 3684.099
465.3138, 3709.509
465.7959, 3739.977
466.2780, 3782.731
466.7601, 3836.943
467.2422, 3884.824
467.7243, 3920.570
468.2065, 3955.531
468.6886, 3996.536
469.1707, 4048.465
469.6528, 4095.371
470.1349, 4133.658
470.6170, 4169.117
471.0992, 4212.863
471.5813, 4266.375
472.0634, 4323.808
472.5455, 4387.270
473.0276, 4454.745
473.5097, 4506.388
473.9918, 4540.873
474.4739, 4569.597
474.9561, 4602.046
475.4382, 4638.062
475.9203, 4676.664
476.4024, 4719.490
476.8845, 4762.119
477.3666, 4802.867
477.8488, 4839.465
478.3309, 4862.772
478.8130, 4863.765
479.2951, 4850.605
479.7772, 4829.671
480.2593, 4800.743
480.7415, 4771.287
481.2236, 4751.815
481.7057, 4732.083
482.1878, 4700.009
482.6699, 4641.458
483.1520, 4580.231
483.6342, 4527.042
484.1163, 4479.204
484.5984, 4421.187
485.0805, 4345.168
485.5626, 4262.874
486.0447, 4179.000
486.5269, 4094.050
487.0090, 4005.790
487.4911, 3910.736
487.9732, 3815.874
488.4553, 3731.073
488.9374, 3660.565
489.4196, 3589.719
489.9017, 3512.497
490.3838, 3431.872
490.8659, 3364.251
491.3480, 3311.996
491.8301, 3261.845
492.3123, 3202.277
492.7944, 3135.381
493.2765, 3068.172
493.7586, 3000.833
494.2407, 2937.414
494.7228, 2885.438
495.2050, 2843.004
495.6871, 2804.246
496.1692, 2765.458
496.6513, 2729.246
497.1334, 2699.201
497.6155, 2675.348
498.0977, 2650.702
498.5798, 2620.660
499.0619, 2588.333
499.5440, 2556.768
500.0261, 2522.014
500.5082, 2494.694
500.9904, 2484.471
501.4725, 2483.885
501.9546, 2476.119
502.4367, 2447.573
502.9188, 2422.610
503.4009, 2409.834
503.8831, 2411.356
504.3652, 2407.307
504.8473, 2393.285
505.3294, 2378.799
505.8115, 2375.213
506.2936, 2388.464
506.7758, 2385.230
507.2579, 2354.439
507.7400, 2311.402
508.2221, 2296.792
508.7042, 2311.576
509.1863, 2325.656
509.6685, 2320.573
510.1506, 2302.672
510.6327, 2292.106
511.1148, 2289.739
511.5969, 2287.922
512.0790, 2278.398
512.5612, 2264.798
513.0433, 2253.193
513.5254, 2244.134
514.0075, 2239.372
514.4896, 2245.218
514.9717, 2257.032
515.4539, 2261.801
515.9360, 2241.213
516.4181, 2222.393
516.9002, 2223.484
517.3823, 2251.842
517.8644, 2268.394
518.3466, 2255.411
518.8287, 2233.832
519.3108, 2223.074
519.7929, 2234.596
520.2750, 2238.186
520.7571, 2226.724
521.2393, 2206.208
521.7214, 2196.320
522.2035, 2200.579
522.6856, 2205.431
523.1677, 2203.241
523.6498, 2194.466
524.1320, 2192.603
524.6141, 2198.672
525.0962, 2206.908
525.5783, 2213.529
526.0604, 2217.715
526.5425, 2215.498
527.0247, 2203.610
527.5068, 2188.669
527.9889, 2176.230
528.4710, 2167.136
528.9531, 2163.776
529.4352, 2172.408
529.9174, 2184.000
530.3995, 2192.494
530.8816, 2197.279
531.3637, 2198.055
531.8458, 2191.842
532.3279, 2182.992
532.8101, 2175.376
533.2922, 2167.201
533.7743, 2163.185
534.2564, 2168.454
534.7385, 2178.027
535.2206, 2178.171
535.7027, 2160.130
536.1848, 2147.104
536.6669, 2148.327
537.1490, 2164.327
537.6312, 2179.878
538.1133, 2197.009
538.5954, 2207.509
539.0775, 2197.428
539.5596, 2169.345
540.0417, 2155.074
540.5239, 2163.909
541.0060, 2180.048
541.4881, 2175.357
541.9702, 2155.787
542.4523, 2143.912
542.9344, 2160.561
543.4166, 2184.858
543.8987, 2194.994
544.3808, 2191.005
544.8629, 2185.132
545.3450, 2183.797
545.8271, 2183.684
546.3093, 2181.763
546.7914, 2174.550
547.2735, 2170.507
547.7556, 2173.798
548.2377, 2180.958
548.7198, 2185.506
549.2020, 2181.960
549.6841, 2183.170
550.1662, 2194.405
550.6483, 2214.485
551.1304, 2227.620
551.6125, 2233.594
552.0947, 2232.932
552.5768, 2220.624
553.0589, 2196.943
553.5410, 2192.077
554.0231, 2212.563
554.5052, 2237.126
554.9874, 2233.690
555.4695, 2209.081
555.9516, 2187.791
556.4337, 2180.392
556.9158, 2179.134
557.3979, 2172.797
557.8801, 2163.825
558.3622, 2163.263
558.8443, 2191.755
559.3264, 2220.714
559.8085, 2227.034
560.2906, 2202.630
560.7728, 2181.228
561.2549, 2173.197
561.7370, 2171.696
562.2191, 2169.566
562.7012, 2160.547
563.1833, 2159.577
563.6655, 2171.837
564.1476, 2192.284
564.6297, 2205.809
565.1118, 2211.386
565.5939, 2212.588
566.0760, 2208.964
566.5582, 2201.330
567.0403, 2199.124
567.5224, 2203.030
568.0045, 2206.962
568.4866, 2203.199
568.9688, 2194.924
569.4509, 2192.103
569.9330, 2199.115
570.4151, 2205.447
570.8972, 2196.241
571.3793, 2178.874
571.8615, 2168.428
572.3436, 2176.643
572.8257, 2188.636
573.3078, 2197.641
573.7899, 2203.591
574.2720, 2207.617
574.7542, 2210.346
575.2363, 2210.956
575.7184, 2208.299
576.2005, 2199.106
576.6826, 2195.096
577.1647, 2196.978
577.6469, 2203.387
578.1290, 2213.615
578.6111, 2228.716
579.0932, 2242.552
579.5753, 2255.361
580.0574, 2264.717
580.5396, 2261.778
581.0217, 2247.251
581.5038, 2233.531
581.9859, 2227.312
582.4680, 2226.677
582.9501, 2229.879
583.4323, 2236.805
583.9144, 2243.172
584.3965, 2245.016
584.8786, 2245.080
585.3607, 2246.093
585.8428, 2248.300
586.3250, 2252.214
586.8071, 2258.896
587.2892, 2267.248
587.7713, 2275.447
588.2534, 2292.098
588.7355, 2298.007
589.2177, 2284.889
589.6998, 2256.186
590.1819, 2237.102
590.6640, 2227.759
591.1461, 2227.778
591.6282, 2240.997
592.1104, 2267.170
592.5925, 2284.025
593.0746, 2290.000
593.5567, 2292.283
594.0388, 2297.508
594.5209, 2305.290
595.0031, 2315.156
595.4852, 2328.499
595.9673, 2340.775
596.4494, 2346.531
596.9315, 2347.776
597.4136, 2349.321
597.8958, 2351.159
598.3779, 2355.765
598.8600, 2368.561
599.3421, 2389.464
599.8242, 2399.110
600.3063, 2377.728
600.7885, 2358.223
601.2706, 2358.420
601.7527, 2386.893
602.2348, 2411.674
602.7169, 2433.474
603.1990, 2450.256
603.6812, 2456.315
604.1633, 2450.701
604.6454, 2451.112
605.1275, 2463.115
605.6096, 2480.876
606.0917, 2495.221
606.5739, 2505.994
607.0560, 2513.339
607.5381, 2512.404
608.0202, 2510.841
608.5023, 2519.638
608.9844, 2538.455
609.4666, 2553.108
609.9487, 2549.783
