##NAMES=Clinobisvanite
##RRUFFID=R070401
##IDEAL CHEMISTRY=Bi^3+^V^5+^O_4_
##LOCALITY=Linka mine (Garnetite mine), Spencer Hot Springs District, Lander County, Nevada, USA
##OWNER=RRUFF
##SOURCE=Michael Scott
##DESCRIPTION=Orange platy crust on quartz associated with bismutite
##STATUS=The identification of this mineral has been confirmed by single-crystal X-ray diffraction.
##URL=rruff.info/R070401
137.8935, 13308.07
138.3756, 13592.07
138.8577, 13913.56
139.3398, 14247.46
139.8220, 14594.32
140.3041, 15014.81
140.7862, 15519.17
141.2683, 16067.30
141.7504, 16650.96
142.2325, 17263.31
142.7147, 17889.88
143.1968, 18527.15
143.6789, 19172.05
144.1610, 19796.00
144.6431, 20412.75
145.1252, 20997.99
145.6074, 21537.21
146.0895, 22030.95
146.5716, 22490.45
147.0537, 22929.13
147.5358, 23339.85
148.0179, 23684.40
148.5001, 23963.65
148.9822, 24178.30
149.4643, 24323.25
149.9464, 24400.25
150.4285, 24427.27
150.9106, 24411.06
151.3928, 24350.64
151.8749, 24271.71
152.3570, 24170.24
152.8391, 24053.97
153.3212, 23924.49
153.8033, 23781.72
154.2855, 23638.12
154.7676, 23491.87
155.2497, 23350.43
155.7318, 23247.83
156.2139, 23208.48
156.6960, 23201.34
157.1782, 23181.63
157.6603, 23140.65
158.1424, 23131.87
158.6245, 23214.50
159.1066, 23363.32
159.5887, 23525.62
160.0709, 23689.52
160.5530, 23858.83
161.0351, 24043.98
161.5172, 24251.40
161.9993, 24448.10
162.4814, 24589.20
162.9636, 24702.05
163.4457, 24841.09
163.9278, 25042.44
164.4099, 25275.86
164.8920, 25484.03
165.3741, 25659.71
165.8563, 25828.96
166.3384, 26025.25
166.8205, 26225.72
167.3026, 26387.03
167.7847, 26472.01
168.2668, 26513.53
168.7490, 26588.90
169.2311, 26719.17
169.7132, 26835.67
170.1953, 26901.09
170.6774, 26931.00
171.1595, 26945.45
171.6417, 26944.65
172.1238, 26937.93
172.6059, 26949.84
173.0880, 26987.21
173.5701, 27030.55
174.0522, 27067.97
174.5344, 27105.71
175.0165, 27153.60
175.4986, 27220.57
175.9807, 27298.46
176.4628, 27364.98
176.9449, 27414.53
177.4271, 27462.50
177.9092, 27506.04
178.3913, 27553.64
178.8734, 27619.13
179.3555, 27715.26
179.8376, 27829.04
180.3197, 27917.79
180.8019, 27950.81
181.2840, 28015.19
181.7661, 28148.48
182.2482, 28320.16
182.7303, 28492.55
183.2124, 28647.15
183.6946, 28791.58
184.1767, 28947.72
184.6588, 29117.37
185.1409, 29295.31
185.6230, 29480.56
186.1051, 29670.50
186.5873, 29863.70
187.0694, 30059.97
187.5515, 30257.57
188.0336, 30451.89
188.5157, 30615.82
188.9978, 30825.50
189.4800, 31109.23
189.9621, 31431.50
190.4442, 31762.12
190.9263, 32086.33
191.4084, 32406.16
191.8905, 32724.74
192.3727, 33037.69
192.8548, 33360.28
193.3369, 33679.12
193.8190, 34014.96
194.3011, 34395.44
194.7832, 34832.13
195.2654, 35299.74
195.7475, 35737.96
196.2296, 36127.68
196.7117, 36529.68
197.1938, 36947.55
197.6759, 37381.51
198.1581, 37832.89
198.6402, 38303.07
199.1223, 38783.10
199.6044, 39256.07
200.0865, 39716.95
200.5686, 40182.49
201.0508, 40657.07
201.5329, 41135.39
202.0150, 41617.87
202.4971, 42104.25
202.9792, 42572.17
203.4613, 42984.21
203.9435, 43318.61
204.4256, 43640.74
204.9077, 43951.64
205.3898, 44255.95
205.8719, 44566.18
206.3540, 44880.80
206.8362, 45176.72
207.3183, 45428.57
207.8004, 45641.60
208.2825, 45785.34
208.7646, 45871.88
209.2467, 45891.45
209.7289, 45834.36
210.2110, 45700.83
210.6931, 45498.38
211.1752, 45230.70
211.6573, 44890.53
212.1395, 44513.75
212.6216, 44129.59
213.1037, 43690.41
213.5858, 43166.47
214.0679, 42563.08
214.5500, 41905.58
215.0322, 41213.99
215.5143, 40486.37
215.9964, 39748.01
216.4785, 39012.54
216.9606, 38250.62
217.4427, 37417.71
217.9249, 36540.20
218.4070, 35683.65
218.8891, 34905.18
219.3712, 34206.81
219.8533, 33513.56
220.3354, 32812.51
220.8176, 32129.31
221.2997, 31468.82
221.7818, 30831.99
222.2639, 30215.56
222.7460, 29618.84
223.2281, 29040.19
223.7103, 28514.86
224.1924, 28075.52
224.6745, 27657.80
225.1566, 27246.68
225.6387, 26847.71
226.1208, 26470.48
226.6030, 26122.29
227.0851, 25799.78
227.5672, 25488.57
228.0493, 25173.92
228.5314, 24892.71
229.0135, 24654.51
229.4957, 24449.96
229.9778, 24274.53
230.4599, 24127.17
230.9420, 23994.86
231.4241, 23841.75
231.9062, 23644.56
232.3884, 23468.20
232.8705, 23319.74
233.3526, 23193.12
233.8347, 23086.00
234.3168, 22997.37
234.7989, 22917.19
235.2811, 22826.90
235.7632, 22715.42
236.2453, 22620.24
236.7274, 22555.17
237.2095, 22497.04
237.6916, 22429.11
238.1738, 22348.82
238.6559, 22265.99
239.1380, 22191.40
239.6201, 22125.04
240.1022, 22067.04
240.5843, 22046.54
241.0665, 22010.66
241.5486, 21917.15
242.0307, 21774.68
242.5128, 21634.96
242.9949, 21541.10
243.4770, 21493.16
243.9592, 21492.59
244.4413, 21640.28
244.9234, 21738.66
245.4055, 21686.38
245.8876, 21520.19
246.3697, 21343.62
246.8519, 21229.45
247.3340, 21170.29
247.8161, 21103.76
248.2982, 21006.91
248.7803, 20935.14
249.2624, 20923.65
249.7446, 20944.39
250.2267, 20948.70
250.7088, 20902.05
251.1909, 20831.32
251.6730, 20822.69
252.1551, 20919.92
252.6373, 20989.82
253.1194, 20967.06
253.6015, 20907.38
254.0836, 20870.17
254.5657, 20878.39
255.0478, 20910.41
255.5300, 20930.68
256.0121, 20933.30
256.4942, 20946.60
256.9763, 20984.97
257.4584, 21033.75
257.9406, 21087.66
258.4227, 21146.03
258.9048, 21197.69
259.3869, 21226.16
259.8690, 21230.13
260.3511, 21243.53
260.8333, 21287.50
261.3154, 21329.54
261.7975, 21336.04
262.2796, 21309.47
262.7617, 21297.80
263.2438, 21350.77
263.7260, 21454.77
264.2081, 21526.76
264.6902, 21542.46
265.1723, 21548.96
265.6544, 21586.42
266.1365, 21645.26
266.6187, 21692.80
267.1008, 21700.81
267.5829, 21689.46
268.0650, 21703.74
268.5471, 21750.61
269.0292, 21803.65
269.5114, 21853.55
269.9935, 21896.40
270.4756, 21922.24
270.9577, 21916.79
271.4398, 21902.87
271.9219, 21910.33
272.4041, 21940.06
272.8862, 21961.03
273.3683, 21952.26
273.8504, 21927.19
274.3325, 21912.71
274.8146, 21913.29
275.2968, 21918.58
275.7789, 21924.65
276.2610, 21930.48
276.7431, 21932.67
277.2252, 21931.73
277.7073, 21923.88
278.1895, 21899.71
278.6716, 21854.97
279.1537, 21817.21
279.6358, 21798.22
280.1179, 21792.34
280.6000, 21792.58
281.0822, 21798.59
281.5643, 21803.10
282.0464, 21795.06
282.5285, 21773.01
283.0106, 21757.64
283.4927, 21757.98
283.9749, 21761.72
284.4570, 21749.73
284.9391, 21723.28
285.4212, 21713.48
285.9033, 21750.83
286.3854, 21834.51
286.8676, 21895.73
287.3497, 21930.56
287.8318, 21949.26
288.3139, 21938.22
288.7960, 21913.22
289.2781, 21918.46
289.7603, 21983.32
290.2424, 22088.78
290.7245, 22153.05
291.2066, 22130.54
291.6887, 22126.23
292.1708, 22156.50
292.6530, 22213.19
293.1351, 22289.58
293.6172, 22382.95
294.0993, 22486.84
294.5814, 22589.03
295.0635, 22684.65
295.5457, 22789.07
296.0278, 22898.85
296.5099, 23018.37
296.9920, 23159.04
297.4741, 23317.15
297.9562, 23466.90
298.4384, 23575.63
298.9205, 23629.96
299.4026, 23739.83
299.8847, 23935.07
300.3668, 24153.90
300.8489, 24387.57
301.3310, 24629.35
301.8131, 24867.89
302.2953, 25093.69
302.7774, 25312.96
303.2595, 25558.86
303.7416, 25849.44
304.2237, 26141.61
304.7058, 26412.72
305.1880, 26686.16
305.6701, 26986.26
306.1522, 27322.02
306.6343, 27686.58
307.1164, 28069.84
307.5985, 28469.54
308.0807, 28891.05
308.5628, 29360.82
309.0449, 29834.65
309.5270, 30253.57
310.0091, 30625.28
310.4912, 31048.35
310.9734, 31640.65
311.4555, 32384.97
311.9376, 33076.86
312.4197, 33669.93
312.9018, 34251.74
313.3839, 34872.28
313.8661, 35526.26
314.3482, 36194.13
314.8303, 36863.75
315.3124, 37543.90
315.7945, 38257.02
316.2766, 39007.80
316.7588, 39757.63
317.2409, 40460.98
317.7230, 41153.00
318.2051, 41893.31
318.6872, 42706.02
319.1693, 43530.06
319.6515, 44316.50
320.1336, 45069.37
320.6157, 45826.53
321.0978, 46605.82
321.5799, 47377.63
322.0620, 48107.95
322.5442, 48797.73
323.0263, 49446.18
323.5084, 50084.45
323.9905, 50670.59
324.4726, 51152.95
324.9547, 51524.72
325.4369, 51801.84
325.9190, 52004.91
326.4011, 52127.07
326.8832, 52121.37
327.3653, 51964.26
327.8474, 51707.60
328.3296, 51376.19
328.8117, 50968.45
329.2938, 50476.33
329.7759, 49893.37
330.2580, 49220.70
330.7401, 48481.47
331.2223, 47621.88
331.7044, 46757.04
332.1865, 45901.21
332.6686, 45042.01
333.1507, 44157.32
333.6328, 43244.70
334.1150, 42328.48
334.5971, 41432.59
335.0792, 40540.56
335.5613, 39728.76
336.0434, 39019.14
336.5255, 38360.86
337.0077, 37734.80
337.4898, 37141.23
337.9719, 36586.92
338.4540, 36083.95
338.9361, 35628.39
339.4182, 35179.80
339.9004, 34702.74
340.3825, 34295.49
340.8646, 33999.03
341.3467, 33773.03
341.8288, 33565.35
342.3109, 33353.10
342.7931, 33163.87
343.2752, 33040.24
343.7573, 32986.24
344.2394, 32968.82
344.7215, 32980.92
345.2036, 33030.45
345.6858, 33127.85
346.1679, 33272.96
346.6500, 33438.79
347.1321, 33610.68
347.6142, 33790.01
348.0963, 33979.09
348.5785, 34174.82
349.0606, 34391.68
349.5427, 34634.13
350.0248, 34906.57
350.5069, 35229.55
350.9890, 35631.24
351.4712, 36067.16
351.9533, 36511.27
352.4354, 36962.46
352.9175, 37416.18
353.3996, 37869.85
353.8817, 38325.03
354.3639, 38787.84
354.8460, 39255.24
355.3281, 39730.13
355.8102, 40200.88
356.2923, 40684.30
356.7744, 41195.90
357.2566, 41740.73
357.7387, 42305.53
358.2208, 42880.26
358.7029, 43474.07
359.1850, 44030.01
359.6671, 44526.44
360.1493, 45010.55
360.6314, 45518.51
361.1135, 46030.22
361.5956, 46502.98
362.0777, 46914.73
362.5598, 47267.07
363.0420, 47569.04
363.5241, 47819.71
364.0062, 48014.10
364.4883, 48165.91
364.9704, 48260.63
365.4525, 48307.50
365.9347, 48299.75
366.4168, 48181.86
366.8989, 47875.16
367.3810, 47368.73
367.8631, 46814.40
368.3452, 46226.93
368.8274, 45570.47
369.3095, 44822.53
369.7916, 43995.82
370.2737, 43124.58
370.7558, 42218.05
371.2379, 41280.54
371.7201, 40323.76
372.2022, 39348.71
372.6843, 38357.66
373.1664, 37326.93
373.6485, 36302.23
374.1306, 35346.78
374.6128, 34468.81
375.0949, 33640.07
375.5770, 32851.86
376.0591, 32107.99
376.5412, 31428.05
377.0233, 30820.10
377.5055, 30243.81
377.9876, 29651.47
378.4697, 29041.84
378.9518, 28491.89
379.4339, 28038.17
379.9160, 27614.24
380.3982, 27187.39
380.8803, 26760.46
381.3624, 26356.32
381.8445, 25989.15
382.3266, 25646.55
382.8087, 25283.59
383.2909, 24870.53
383.7730, 24479.43
384.2551, 24101.11
384.7372, 23752.67
385.2193, 23458.49
385.7014, 23215.90
386.1836, 22985.36
386.6657, 22717.74
387.1478, 22409.39
387.6299, 22155.81
388.1120, 21998.46
388.5941, 21849.46
389.0763, 21686.02
389.5584, 21510.67
390.0405, 21328.14
390.5226, 21134.94
391.0047, 20946.03
391.4868, 20781.90
391.9690, 20643.82
392.4511, 20525.88
392.9332, 20444.48
393.4153, 20367.67
393.8974, 20264.15
394.3795, 20133.43
394.8617, 20001.55
395.3438, 19876.64
395.8259, 19760.34
396.3080, 19656.23
396.7901, 19565.26
397.2722, 19480.52
397.7544, 19401.02
398.2365, 19323.95
398.7186, 19234.83
399.2007, 19128.11
399.6828, 19016.94
400.1649, 18896.48
400.6471, 18777.39
401.1292, 18682.89
401.6113, 18620.28
402.0934, 18563.74
402.5755, 18471.39
403.0576, 18322.14
403.5398, 18203.13
404.0219, 18156.89
404.5040, 18096.17
404.9861, 17956.38
405.4682, 17763.32
405.9503, 17586.79
406.4325, 17471.03
406.9146, 17403.89
407.3967, 17349.63
407.8788, 17328.09
408.3609, 17277.72
408.8430, 17157.58
409.3252, 17025.25
409.8073, 16929.93
410.2894, 16877.54
410.7715, 16829.72
411.2536, 16745.90
411.7357, 16635.81
412.2179, 16557.46
412.7000, 16528.89
413.1821, 16498.22
413.6642, 16414.19
414.1463, 16303.41
414.6284, 16222.03
415.1106, 16196.11
415.5927, 16182.50
416.0748, 16154.04
416.5569, 16112.61
417.0390, 16062.86
417.5211, 16005.50
418.0033, 15944.01
418.4854, 15883.23
418.9675, 15823.26
419.4496, 15764.23
419.9317, 15704.23
420.4138, 15647.19
420.8960, 15596.15
421.3781, 15550.34
421.8602, 15506.53
422.3423, 15462.20
422.8244, 15418.60
423.3065, 15382.07
423.7887, 15364.06
424.2708, 15334.63
424.7529, 15286.85
425.2350, 15230.17
425.7171, 15169.08
426.1992, 15105.72
426.6814, 15045.91
427.1635, 14996.48
427.6456, 14956.24
428.1277, 14913.83
428.6098, 14862.50
429.0919, 14822.41
429.5741, 14811.32
430.0562, 14815.56
430.5383, 14816.44
431.0204, 14810.92
431.5025, 14798.28
431.9846, 14776.94
432.4668, 14747.80
432.9489, 14712.85
433.4310, 14671.23
433.9131, 14628.51
434.3952, 14591.54
434.8773, 14561.20
435.3595, 14529.68
435.8416, 14491.53
436.3237, 14456.80
436.8058, 14434.50
437.2879, 14420.70
437.7701, 14404.50
438.2522, 14380.15
438.7343, 14351.04
439.2164, 14326.65
439.6985, 14316.60
440.1806, 14293.62
440.6628, 14242.75
441.1449, 14192.06
441.6270, 14160.87
442.1091, 14147.63
442.5912, 14139.02
443.0733, 14129.34
443.5555, 14114.98
444.0376, 14075.46
444.5197, 13994.90
445.0018, 13933.92
445.4839, 13943.84
445.9660, 13969.99
446.4482, 13956.28
446.9303, 13892.18
447.4124, 13818.43
447.8945, 13745.90
448.3766, 13684.04
448.8587, 13665.29
449.3409, 13697.61
449.8230, 13718.46
450.3051, 13669.52
450.7872, 13560.59
451.2693, 13495.73
451.7514, 13506.25
452.2336, 13520.70
452.7157, 13522.35
453.1978, 13511.58
453.6799, 13486.29
454.1620, 13446.93
454.6441, 13403.40
455.1263, 13369.97
455.6084, 13350.92
456.0905, 13318.02
456.5726, 13256.41
457.0547, 13195.96
457.5368, 13141.43
458.0190, 13095.06
458.5011, 13061.46
458.9832, 13044.37
459.4653, 13031.90
459.9474, 13006.81
460.4295, 12969.04
460.9117, 12928.13
461.3938, 12882.23
461.8759, 12838.69
462.3580, 12804.26
462.8401, 12777.74
463.3222, 12753.39
463.8044, 12731.03
464.2865, 12708.96
464.7686, 12689.37
465.2507, 12669.69
465.7328, 12638.08
466.2149, 12587.70
466.6971, 12528.97
467.1792, 12483.17
467.6613, 12458.60
468.1434, 12429.83
468.6255, 12387.06
469.1076, 12348.59
469.5898, 12334.17
470.0719, 12334.92
470.5540, 12323.85
471.0361, 12282.08
471.5182, 12221.80
472.0003, 12177.75
472.4825, 12154.44
472.9646, 12135.96
473.4467, 12137.55
473.9288, 12129.28
474.4109, 12081.08
474.8930, 11996.83
475.3752, 11920.72
475.8573, 11881.26
476.3394, 11864.78
476.8215, 11849.88
477.3036, 11836.08
477.7857, 11823.71
478.2679, 11814.37
478.7500, 11805.40
479.2321, 11790.81
479.7142, 11773.75
480.1963, 11745.50
480.6784, 11688.49
481.1606, 11630.25
481.6427, 11601.59
482.1248, 11599.76
482.6069, 11595.82
483.0890, 11566.96
483.5711, 11518.97
484.0533, 11483.50
484.5354, 11465.90
485.0175, 11452.71
485.4996, 11446.09
485.9817, 11439.64
486.4638, 11430.66
486.9460, 11417.67
487.4281, 11396.55
487.9102, 11357.95
488.3923, 11308.98
488.8744, 11272.62
489.3565, 11251.15
489.8387, 11230.51
490.3208, 11203.48
490.8029, 11173.13
491.2850, 11144.68
491.7671, 11115.17
492.2492, 11095.75
492.7314, 11103.95
493.2135, 11116.73
493.6956, 11103.55
494.1777, 11064.46
494.6598, 11025.02
495.1419, 11005.18
495.6241, 11001.44
496.1062, 10990.39
496.5883, 10963.81
497.0704, 10941.41
497.5525, 10931.29
498.0346, 10921.61
498.5168, 10898.68
498.9989, 10863.52
499.4810, 10832.98
499.9631, 10825.52
500.4452, 10833.61
500.9273, 10828.41
501.4095, 10807.82
501.8916, 10782.82
502.3737, 10758.64
502.8558, 10732.08
503.3379, 10695.94
503.8200, 10645.54
504.3022, 10605.70
504.7843, 10587.52
505.2664, 10583.87
505.7485, 10594.15
506.2306, 10614.36
506.7127, 10625.63
507.1949, 10614.76
507.6770, 10585.83
508.1591, 10556.18
508.6412, 10510.89
509.1233, 10487.92
509.6054, 10509.33
510.0876, 10537.15
510.5697, 10541.19
511.0518, 10522.96
511.5339, 10506.40
512.0161, 10513.87
512.4982, 10532.04
512.9803, 10518.03
513.4624, 10464.51
513.9445, 10424.42
514.4266, 10421.80
514.9088, 10437.13
515.3909, 10445.15
515.8730, 10445.48
516.3551, 10444.24
516.8372, 10450.22
517.3193, 10450.38
517.8015, 10425.95
518.2836, 10382.85
518.7657, 10345.19
519.2478, 10325.74
519.7299, 10320.24
520.2120, 10320.00
520.6942, 10335.78
521.1763, 10335.71
521.6584, 10305.26
522.1405, 10274.53
522.6226, 10262.34
523.1047, 10263.23
523.5869, 10259.30
524.0690, 10237.97
524.5511, 10214.07
525.0332, 10217.62
525.5153, 10248.38
525.9974, 10265.01
526.4796, 10254.87
526.9617, 10232.31
527.4438, 10208.13
527.9259, 10182.89
528.4080, 10164.97
528.8901, 10159.00
529.3723, 10157.23
529.8544, 10156.11
530.3365, 10155.65
530.8186, 10157.26
531.3007, 10161.26
531.7828, 10164.20
532.2650, 10161.76
532.7471, 10154.09
533.2292, 10139.61
533.7113, 10103.92
534.1934, 10078.15
534.6755, 10080.74
535.1577, 10095.19
535.6398, 10097.20
536.1219, 10078.63
536.6040, 10058.59
537.0861, 10058.95
537.5682, 10072.32
538.0504, 10074.06
538.5325, 10060.52
539.0146, 10041.68
539.4967, 10024.32
539.9788, 10007.45
540.4609, 9986.746
540.9431, 9961.899
541.4252, 9933.901
541.9073, 9891.962
542.3894, 9854.050
542.8715, 9838.992
543.3536, 9846.967
543.8358, 9865.811
544.3179, 9888.378
544.8000, 9911.492
545.2821, 9920.063
545.7642, 9909.514
546.2463, 9897.052
546.7285, 9891.922
547.2106, 9882.422
547.6926, 9853.386
548.1747, 9807.118
548.6569, 9771.262
549.1390, 9764.302
549.6211, 9769.482
550.1032, 9772.877
550.5853, 9773.078
551.0674, 9763.783
551.5496, 9740.748
552.0317, 9715.701
552.5138, 9708.523
552.9959, 9726.839
553.4780, 9737.313
553.9601, 9742.210
554.4423, 9738.163
554.9244, 9715.271
555.4065, 9685.187
555.8886, 9664.560
556.3707, 9659.377
556.8528, 9665.917
557.3350, 9688.188
557.8171, 9722.174
558.2992, 9730.620
558.7813, 9701.748
559.2634, 9674.279
559.7455, 9678.944
560.2277, 9703.908
560.7098, 9710.211
561.1919, 9688.134
561.6740, 9663.976
562.1561, 9640.172
562.6382, 9621.854
563.1204, 9619.239
563.6025, 9629.610
564.0846, 9634.622
564.5667, 9618.519
565.0488, 9590.884
565.5309, 9593.878
566.0131, 9648.770
566.4952, 9680.398
566.9773, 9646.075
567.4594, 9608.510
567.9415, 9614.708
568.4236, 9655.849
568.9058, 9683.511
569.3879, 9667.410
569.8700, 9637.932
570.3521, 9622.845
570.8342, 9620.030
571.3163, 9626.363
571.7985, 9642.305
572.2806, 9652.221
572.7627, 9634.227
573.2448, 9583.244
573.7269, 9552.067
574.2090, 9553.705
574.6912, 9558.163
575.1733, 9555.405
575.6554, 9552.957
576.1375, 9564.295
576.6196, 9590.479
577.1017, 9611.001
577.5839, 9599.310
578.0660, 9567.175
578.5481, 9556.429
579.0302, 9569.881
579.5123, 9584.890
579.9944, 9590.642
580.4766, 9592.453
580.9587, 9603.280
581.4408, 9628.946
581.9229, 9638.999
582.4050, 9621.161
582.8871, 9593.720
583.3693, 9556.357
583.8514, 9520.686
584.3335, 9512.767
584.8156, 9544.980
585.2977, 9589.410
585.7798, 9596.505
586.2620, 9561.310
586.7441, 9549.176
587.2262, 9578.628
587.7083, 9605.801
588.1904, 9602.997
588.6725, 9582.260
589.1547, 9560.175
589.6368, 9534.141
590.1189, 9519.438
590.6010, 9533.140
591.0831, 9557.036
591.5652, 9564.750
592.0474, 9556.996
592.5295, 9556.938
593.0116, 9582.286
593.4937, 9619.190
593.9758, 9622.374
594.4579, 9573.276
594.9401, 9534.602
595.4222, 9501.153
595.9043, 9489.496
596.3864, 9524.993
596.8685, 9589.045
597.3506, 9635.643
597.8328, 9645.053
598.3149, 9636.881
598.7970, 9624.340
599.2791, 9608.409
599.7612, 9588.980
600.2433, 9565.923
600.7255, 9549.271
601.2076, 9547.661
601.6897, 9559.992
602.1718, 9577.456
602.6539, 9611.307
603.1360, 9634.616
603.6182, 9642.815
604.1003, 9641.994
604.5824, 9631.409
605.0645, 9615.144
605.5466, 9605.168
606.0287, 9609.729
606.5109, 9622.330
606.9930, 9634.433
607.4751, 9646.058
607.9572, 9655.100
608.4393, 9658.766
608.9214, 9669.483
609.4036, 9703.609
609.8857, 9761.292
610.3678, 9801.384
610.8499, 9814.195
611.3320, 9823.386
611.8141, 9830.361
612.2963, 9838.871
612.7784, 9857.573
613.2605, 9883.676
613.7426, 9898.441
614.2247, 9879.491
614.7068, 9845.992
615.1890, 9848.365
615.6711, 9888.103
616.1532, 9931.391
616.6353, 9971.251
617.1174, 10006.03
617.5995, 10031.10
618.0817, 10046.27
618.5638, 10068.41
619.0459, 10100.92
619.5280, 10137.25
620.0101, 10176.75
620.4922, 10217.76
620.9744, 10260.01
621.4565, 10302.53
621.9386, 10341.23
622.4207, 10371.64
622.9028, 10395.67
623.3849, 10418.34
623.8671, 10437.92
624.3492, 10466.87
624.8313, 10512.62
625.3134, 10565.23
625.7955, 10616.49
626.2776, 10666.46
626.7598, 10702.66
627.2419, 10690.77
627.7240, 10699.73
628.2061, 10783.52
628.6882, 10902.29
629.1703, 10997.38
629.6525, 11055.27
630.1346, 11100.38
630.6167, 11157.06
631.0988, 11221.26
631.5809, 11269.04
632.0630, 11296.18
632.5452, 11323.90
633.0273, 11358.35
633.5094, 11396.50
633.9915, 11438.71
634.4736, 11484.32
