##NAMES=Clinoclase
##RRUFFID=R070092
##IDEAL CHEMISTRY=Cu^2+^_3_As^5+^O_4_(OH)_3_
##LOCALITY=Majuba Hill, Antelope District, Pershing County, Nevada, USA
##OWNER=RRUFF
##SOURCE=James Shigley
##DESCRIPTION=Rich area of dark blue-green prismatic crystals
##STATUS=The identification of this mineral is confirmed by single-crystal X-ray diffraction and chemical analysis.
##URL=rruff.info/R070092
##MEASURED CHEMISTRY=(Cu_2.97_Al_0.02_[box]_0.01_)_Σ=3_(As_0.99_P_0.01_)_Σ=1_O_4_(OH)_3_ ; trace amounts of Fe and Zn; OH estimated by difference and charge balance
125.5927, 1303.880
126.0748, 1383.492
126.5569, 1464.257
127.0390, 1545.949
127.5211, 1625.237
128.0032, 1704.052
128.4854, 1791.985
128.9675, 1894.501
129.4496, 2007.796
129.9317, 2118.657
130.4138, 2225.387
130.8959, 2338.646
131.3781, 2471.764
131.8602, 2624.648
132.3423, 2786.023
132.8244, 2943.376
133.3065, 3100.354
133.7886, 3283.300
134.2708, 3497.570
134.7529, 3733.455
135.2350, 3974.805
135.7171, 4220.053
136.1992, 4468.033
136.6813, 4720.980
137.1635, 4980.856
137.6456, 5221.710
138.1277, 5445.676
138.6098, 5647.001
139.0919, 5815.492
139.5740, 5962.863
140.0562, 6054.978
140.5383, 6075.289
141.0204, 6041.184
141.5025, 5883.258
141.9846, 5561.816
142.4667, 5079.031
142.9489, 4597.870
143.4310, 4101.233
143.9131, 3625.122
144.3952, 3214.456
144.8773, 2872.424
145.3594, 2592.409
145.8416, 2375.788
146.3237, 2233.240
146.8058, 2119.538
147.2879, 2043.410
147.7700, 1993.154
148.2522, 1948.261
148.7343, 1907.539
149.2164, 1874.361
149.6985, 1849.762
150.1806, 1836.269
150.6627, 1827.413
151.1449, 1821.528
151.6270, 1820.193
152.1091, 1827.362
152.5912, 1852.319
153.0733, 1879.351
153.5554, 1901.319
154.0376, 1903.658
154.5197, 1917.619
155.0018, 1955.461
155.4839, 2011.911
155.9660, 2059.321
156.4481, 2082.509
156.9303, 2100.367
157.4124, 2126.137
157.8945, 2162.136
158.3766, 2206.865
158.8587, 2261.331
159.3408, 2325.702
159.8230, 2394.170
160.3051, 2469.079
160.7872, 2545.379
161.2693, 2618.954
161.7514, 2701.512
162.2335, 2770.488
162.7157, 2817.016
163.1978, 2840.662
163.6799, 2840.473
164.1620, 2809.678
164.6441, 2755.475
165.1262, 2689.226
165.6084, 2596.144
166.0905, 2504.594
166.5726, 2433.043
167.0547, 2383.804
167.5368, 2353.332
168.0189, 2345.836
168.5011, 2355.964
168.9832, 2371.617
169.4653, 2381.157
169.9474, 2395.482
170.4295, 2428.056
170.9116, 2487.572
171.3938, 2550.839
171.8759, 2595.934
172.3580, 2626.749
172.8401, 2659.073
173.3222, 2700.671
173.8043, 2749.928
174.2865, 2804.552
174.7686, 2863.035
175.2507, 2927.080
175.7328, 3001.890
176.2149, 3085.576
176.6970, 3169.148
177.1792, 3248.656
177.6613, 3321.978
178.1434, 3385.337
178.6255, 3434.704
179.1076, 3475.512
179.5897, 3516.026
180.0719, 3556.415
180.5540, 3596.183
181.0361, 3627.692
181.5182, 3656.535
182.0003, 3703.740
182.4824, 3784.907
182.9646, 3887.092
183.4467, 3978.680
183.9288, 4059.546
184.4109, 4138.038
184.8930, 4227.948
185.3751, 4326.501
185.8573, 4418.785
186.3394, 4511.056
186.8215, 4594.821
187.3036, 4632.250
187.7857, 4620.568
188.2678, 4574.250
188.7500, 4511.792
189.2321, 4432.017
189.7142, 4331.361
190.1963, 4196.071
190.6784, 4031.999
191.1605, 3880.797
191.6427, 3748.374
192.1248, 3619.555
192.6069, 3469.215
193.0890, 3296.412
193.5711, 3120.816
194.0532, 2950.631
194.5354, 2785.937
195.0175, 2627.138
195.4996, 2468.927
195.9817, 2321.171
196.4638, 2207.139
196.9459, 2129.977
197.4281, 2066.136
197.9102, 2000.670
198.3923, 1932.948
198.8744, 1876.952
199.3565, 1834.906
199.8386, 1804.864
200.3208, 1781.926
200.8029, 1766.550
201.2850, 1756.528
201.7671, 1752.550
202.2492, 1755.791
202.7313, 1754.410
203.2135, 1744.335
203.6956, 1728.870
204.1777, 1723.329
204.6598, 1730.078
205.1419, 1740.567
205.6240, 1747.744
206.1062, 1750.531
206.5883, 1755.127
207.0704, 1763.291
207.5525, 1774.359
208.0346, 1782.720
208.5167, 1787.083
208.9989, 1791.214
209.4810, 1798.114
209.9631, 1807.505
210.4452, 1820.508
210.9273, 1837.445
211.4094, 1858.293
211.8916, 1883.279
212.3737, 1914.736
212.8558, 1946.974
213.3379, 1974.255
213.8200, 1994.563
214.3021, 2014.747
214.7843, 2035.341
215.2664, 2056.311
215.7485, 2081.933
216.2306, 2115.052
216.7127, 2149.568
217.1948, 2178.520
217.6770, 2199.921
218.1591, 2220.532
218.6412, 2243.422
219.1233, 2269.296
219.6054, 2288.609
220.0875, 2299.512
220.5697, 2305.525
221.0518, 2311.431
221.5339, 2317.688
222.0160, 2322.630
222.4981, 2323.708
222.9802, 2318.252
223.4624, 2325.025
223.9445, 2348.653
224.4266, 2381.098
224.9087, 2409.457
225.3908, 2430.145
225.8729, 2453.246
226.3551, 2481.869
226.8372, 2517.198
227.3193, 2554.154
227.8014, 2592.665
228.2835, 2633.205
228.7657, 2677.144
229.2478, 2727.551
229.7299, 2777.288
230.2120, 2822.188
230.6941, 2859.238
231.1762, 2905.031
231.6584, 2967.749
232.1405, 3035.426
232.6226, 3082.617
233.1047, 3099.615
233.5868, 3111.195
234.0689, 3125.481
234.5511, 3142.810
235.0332, 3162.305
235.5153, 3185.341
235.9974, 3210.066
236.4795, 3232.360
236.9616, 3253.449
237.4438, 3270.315
237.9259, 3280.943
238.4080, 3282.449
238.8901, 3284.625
239.3722, 3282.616
239.8543, 3282.778
240.3365, 3300.029
240.8186, 3337.506
241.3007, 3387.552
241.7828, 3448.930
242.2649, 3527.080
242.7470, 3601.399
243.2292, 3666.239
243.7113, 3728.755
244.1934, 3808.483
244.6755, 3915.758
245.1576, 4025.093
245.6397, 4124.261
246.1219, 4201.045
246.6040, 4295.602
247.0861, 4423.785
247.5682, 4565.934
248.0503, 4669.044
248.5324, 4721.757
249.0146, 4751.188
249.4967, 4771.717
249.9788, 4798.223
250.4609, 4780.643
250.9430, 4712.886
251.4251, 4602.741
251.9073, 4464.190
252.3894, 4279.815
252.8715, 4094.627
253.3536, 3926.477
253.8357, 3774.645
254.3178, 3644.721
254.8000, 3535.145
255.2821, 3446.875
255.7642, 3386.266
256.2463, 3361.942
256.7284, 3349.542
257.2105, 3337.222
257.6927, 3320.483
258.1748, 3317.389
258.6569, 3335.725
259.1390, 3365.017
259.6211, 3377.722
260.1032, 3373.960
260.5854, 3353.630
261.0675, 3316.370
261.5496, 3261.174
262.0317, 3189.859
262.5138, 3097.609
262.9959, 2992.157
263.4781, 2890.392
263.9602, 2794.283
264.4423, 2699.444
264.9244, 2603.548
265.4065, 2502.707
265.8886, 2410.676
266.3708, 2326.535
266.8529, 2252.957
267.3350, 2203.397
267.8171, 2186.704
268.2992, 2169.646
268.7813, 2132.372
269.2635, 2066.652
269.7456, 2020.420
270.2277, 2001.040
270.7098, 1996.238
271.1919, 1978.735
271.6740, 1943.977
272.1562, 1912.313
272.6383, 1894.040
273.1204, 1890.532
273.6025, 1891.482
274.0846, 1898.955
274.5667, 1908.209
275.0489, 1909.203
275.5310, 1900.240
276.0131, 1891.000
276.4952, 1883.639
276.9773, 1877.600
277.4594, 1884.528
277.9416, 1909.428
278.4237, 1939.833
278.9058, 1951.882
279.3879, 1942.912
279.8700, 1936.233
280.3521, 1944.350
280.8343, 1967.271
281.3164, 1985.503
281.7985, 1996.739
282.2806, 2007.745
282.7627, 2030.738
283.2448, 2066.352
283.7270, 2102.018
284.2091, 2130.597
284.6912, 2153.077
285.1733, 2181.026
285.6554, 2214.773
286.1375, 2252.349
286.6197, 2291.014
287.1018, 2330.891
287.5839, 2371.179
288.0660, 2412.005
288.5481, 2453.087
289.0302, 2492.096
289.5124, 2527.892
289.9945, 2565.370
290.4766, 2611.353
290.9587, 2664.921
291.4408, 2718.196
291.9229, 2763.412
292.4051, 2805.820
292.8872, 2862.336
293.3693, 2934.449
293.8514, 3010.489
294.3335, 3079.841
294.8156, 3143.140
295.2978, 3205.940
295.7799, 3270.046
296.2620, 3334.445
296.7441, 3394.830
297.2262, 3450.427
297.7083, 3509.615
298.1905, 3578.895
298.6726, 3656.903
299.1547, 3739.307
299.6368, 3823.822
300.1189, 3911.862
300.6010, 4004.131
301.0832, 4101.324
301.5653, 4201.283
302.0474, 4305.790
302.5295, 4411.264
303.0116, 4513.576
303.4937, 4615.489
303.9759, 4708.579
304.4580, 4783.022
304.9401, 4839.704
305.4222, 4879.951
305.9043, 4909.549
306.3864, 4922.310
306.8686, 4910.981
307.3507, 4873.729
307.8328, 4811.643
308.3149, 4718.520
308.7970, 4598.343
309.2791, 4468.117
309.7613, 4329.110
310.2434, 4187.796
310.7255, 4049.441
311.2076, 3921.185
311.6897, 3786.589
312.1718, 3631.058
312.6540, 3461.097
313.1361, 3296.506
313.6182, 3140.143
314.1003, 2995.094
314.5824, 2860.756
315.0645, 2735.279
315.5467, 2625.219
316.0288, 2537.675
316.5109, 2467.028
316.9930, 2400.286
317.4751, 2333.223
317.9572, 2268.149
318.4394, 2205.875
318.9215, 2144.037
319.4036, 2091.164
319.8857, 2055.442
320.3678, 2029.324
320.8499, 2000.605
321.3321, 1961.866
321.8142, 1923.996
322.2963, 1890.519
322.7784, 1860.765
323.2605, 1838.221
323.7426, 1828.316
324.2248, 1824.024
324.7069, 1817.109
325.1890, 1800.663
325.6711, 1787.450
326.1532, 1780.483
326.6353, 1780.425
327.1175, 1783.417
327.5996, 1796.596
328.0817, 1809.099
328.5638, 1811.014
329.0459, 1788.518
329.5280, 1772.892
330.0102, 1769.177
330.4923, 1777.309
330.9744, 1789.888
331.4565, 1810.623
331.9386, 1832.344
332.4207, 1849.234
332.9029, 1856.207
333.3850, 1868.143
333.8671, 1888.433
334.3492, 1915.111
334.8313, 1939.483
335.3134, 1960.834
335.7956, 1981.154
336.2777, 2002.035
336.7598, 2024.152
337.2419, 2043.963
337.7240, 2059.037
338.2061, 2073.185
338.6883, 2098.459
339.1704, 2138.746
339.6525, 2177.342
340.1346, 2204.419
340.6167, 2218.829
341.0988, 2236.610
341.5810, 2259.524
342.0631, 2283.794
342.5452, 2300.854
343.0273, 2310.543
343.5094, 2321.028
343.9915, 2336.428
344.4737, 2356.063
344.9558, 2378.548
345.4379, 2405.642
345.9200, 2427.664
346.4021, 2428.000
346.8842, 2409.931
347.3664, 2394.925
347.8485, 2392.732
348.3306, 2398.651
348.8127, 2404.027
349.2948, 2409.072
349.7769, 2408.242
350.2591, 2391.864
350.7412, 2365.454
351.2233, 2343.302
351.7054, 2333.648
352.1876, 2326.757
352.6697, 2310.153
353.1518, 2284.542
353.6339, 2256.154
354.1160, 2225.262
354.5981, 2195.783
355.0803, 2173.513
355.5624, 2161.599
356.0445, 2153.641
356.5266, 2148.809
357.0087, 2144.645
357.4908, 2133.589
357.9730, 2104.487
358.4551, 2071.185
358.9372, 2043.580
359.4193, 2023.101
359.9014, 2008.873
360.3835, 2010.663
360.8657, 2017.271
361.3478, 2009.474
361.8299, 1961.125
362.3120, 1912.937
362.7941, 1884.977
363.2762, 1882.211
363.7584, 1880.065
364.2405, 1878.332
364.7226, 1871.994
365.2047, 1855.685
365.6868, 1808.013
366.1689, 1770.948
366.6511, 1759.308
367.1332, 1774.142
367.6153, 1782.043
368.0974, 1774.170
368.5795, 1763.487
369.0616, 1758.541
369.5438, 1762.366
370.0259, 1767.902
370.5080, 1778.364
370.9901, 1791.092
371.4722, 1789.402
371.9543, 1755.267
372.4365, 1731.276
372.9186, 1745.876
373.4007, 1823.941
373.8828, 1868.292
374.3649, 1865.273
374.8470, 1834.950
375.3292, 1817.732
375.8113, 1815.664
376.2934, 1820.171
376.7755, 1827.035
377.2576, 1836.059
377.7397, 1857.358
378.2219, 1894.866
378.7040, 1933.643
379.1861, 1948.462
379.6682, 1939.603
380.1503, 1939.690
380.6324, 1963.749
381.1146, 2003.637
381.5967, 2033.537
382.0788, 2052.867
382.5609, 2068.794
383.0430, 2086.542
383.5251, 2105.869
384.0073, 2126.984
384.4894, 2151.512
384.9715, 2175.391
385.4536, 2191.465
385.9357, 2200.626
386.4178, 2208.645
386.9000, 2222.023
387.3821, 2235.264
387.8642, 2240.958
388.3463, 2237.014
388.8284, 2228.249
389.3105, 2215.038
389.7927, 2199.830
390.2748, 2187.333
390.7569, 2189.106
391.2390, 2187.579
391.7211, 2166.228
392.2032, 2121.542
392.6854, 2083.974
393.1675, 2074.422
393.6496, 2076.128
394.1317, 2071.259
394.6138, 2050.223
395.0959, 2026.671
395.5781, 2004.906
396.0602, 1984.691
396.5423, 1961.949
397.0244, 1930.871
397.5065, 1900.378
397.9886, 1875.972
398.4708, 1863.014
398.9529, 1849.694
399.4350, 1836.483
399.9171, 1822.849
400.3992, 1807.087
400.8813, 1786.567
401.3635, 1767.306
401.8456, 1751.139
402.3277, 1737.940
402.8098, 1729.654
403.2919, 1729.302
403.7740, 1730.703
404.2562, 1723.925
404.7383, 1705.705
405.2204, 1691.160
405.7025, 1685.131
406.1846, 1686.597
406.6667, 1687.465
407.1489, 1687.776
407.6310, 1687.312
408.1131, 1684.770
408.5952, 1680.490
409.0773, 1679.348
409.5594, 1683.119
410.0416, 1689.284
410.5237, 1693.047
411.0058, 1694.672
411.4879, 1696.780
411.9700, 1699.617
412.4521, 1704.354
412.9343, 1713.682
413.4164, 1728.331
413.8985, 1745.638
414.3806, 1762.556
414.8627, 1780.186
415.3448, 1800.779
415.8270, 1833.019
416.3091, 1863.301
416.7912, 1875.114
417.2733, 1869.039
417.7554, 1868.726
418.2375, 1889.564
418.7197, 1921.143
419.2018, 1954.119
419.6839, 1985.625
420.1660, 2018.159
420.6481, 2053.652
421.1302, 2091.246
421.6124, 2125.930
422.0945, 2152.062
422.5766, 2179.404
423.0587, 2211.938
423.5408, 2249.968
424.0229, 2293.992
424.5051, 2345.852
424.9872, 2403.168
425.4693, 2462.646
425.9514, 2527.107
426.4335, 2588.140
426.9156, 2640.376
427.3978, 2683.385
427.8799, 2739.363
428.3620, 2811.958
428.8441, 2891.242
429.3262, 2969.849
429.8083, 3046.503
430.2905, 3124.491
430.7726, 3204.651
431.2547, 3285.250
431.7368, 3358.670
432.2189, 3423.536
432.7010, 3495.834
433.1832, 3589.777
433.6653, 3700.658
434.1474, 3799.326
434.6295, 3883.180
435.1116, 3964.848
435.5938, 4063.375
436.0759, 4172.801
436.5580, 4274.146
437.0401, 4358.038
437.5222, 4431.030
438.0043, 4503.257
438.4865, 4574.035
438.9686, 4637.178
439.4507, 4682.997
439.9328, 4721.384
440.4149, 4764.651
440.8970, 4823.271
441.3792, 4872.466
441.8613, 4892.398
442.3434, 4893.956
442.8255, 4900.449
443.3076, 4920.583
443.7897, 4946.764
444.2719, 4975.499
444.7540, 5005.991
445.2361, 5042.021
445.7182, 5091.065
446.2003, 5142.224
446.6824, 5185.100
447.1646, 5200.456
447.6467, 5232.721
448.1288, 5290.305
448.6109, 5369.998
449.0930, 5451.073
449.5751, 5525.771
450.0573, 5611.667
450.5394, 5721.046
451.0215, 5860.996
451.5036, 5993.320
451.9857, 6114.929
452.4678, 6233.898
452.9500, 6368.528
453.4321, 6519.376
453.9142, 6665.745
454.3963, 6798.667
454.8784, 6921.990
455.3605, 7059.465
455.8427, 7210.778
456.3248, 7353.230
456.8069, 7464.930
457.2890, 7551.248
457.7711, 7626.192
458.2532, 7697.449
458.7354, 7750.130
459.2175, 7767.364
459.6996, 7753.388
460.1817, 7720.876
460.6638, 7685.529
461.1459, 7628.682
461.6281, 7527.217
462.1102, 7376.353
462.5923, 7220.659
463.0744, 7093.451
463.5565, 6968.244
464.0386, 6816.473
464.5208, 6591.871
465.0029, 6382.350
465.4850, 6214.864
465.9671, 6082.095
466.4492, 5955.991
466.9313, 5834.901
467.4135, 5719.947
467.8956, 5610.175
468.3777, 5504.979
468.8598, 5407.640
469.3419, 5317.360
469.8240, 5236.971
470.3062, 5170.310
470.7883, 5118.890
471.2704, 5077.902
471.7525, 5047.643
472.2346, 5026.901
472.7167, 5007.272
473.1989, 4987.881
473.6810, 4976.672
474.1631, 4982.265
474.6452, 5002.255
475.1273, 5025.394
475.6094, 5051.263
476.0916, 5076.813
476.5737, 5097.813
477.0558, 5114.959
477.5379, 5131.167
478.0200, 5139.007
478.5021, 5151.724
478.9843, 5190.384
479.4664, 5253.989
479.9485, 5310.932
480.4306, 5336.971
480.9127, 5349.079
481.3948, 5363.944
481.8770, 5388.286
482.3591, 5411.660
482.8412, 5442.242
483.3233, 5469.412
483.8054, 5468.582
484.2875, 5418.937
484.7697, 5355.256
485.2518, 5287.185
485.7339, 5214.968
486.2160, 5138.994
486.6981, 5068.167
487.1802, 4986.445
487.6624, 4876.575
488.1445, 4726.865
488.6266, 4583.809
489.1087, 4455.872
489.5908, 4338.428
490.0729, 4212.360
490.5551, 4073.611
491.0372, 3948.918
491.5193, 3855.896
492.0014, 3790.658
492.4835, 3720.215
492.9656, 3642.749
493.4478, 3571.875
493.9299, 3522.068
494.4120, 3490.020
494.8941, 3465.571
495.3762, 3446.759
495.8583, 3433.278
496.3405, 3427.013
496.8226, 3426.561
497.3047, 3427.432
497.7868, 3429.332
498.2689, 3430.170
498.7510, 3425.456
499.2332, 3411.653
499.7153, 3408.428
500.1974, 3434.785
500.6795, 3470.395
501.1616, 3493.537
501.6437, 3482.963
502.1259, 3479.537
502.6080, 3490.607
503.0901, 3514.127
503.5722, 3542.625
504.0543, 3582.466
504.5364, 3618.393
505.0186, 3644.293
505.5007, 3659.778
505.9828, 3666.035
506.4649, 3658.456
506.9470, 3650.142
507.4291, 3658.158
507.9113, 3682.920
508.3934, 3712.563
508.8755, 3748.026
509.3576, 3782.450
509.8397, 3797.713
510.3218, 3795.175
510.8040, 3789.201
511.2861, 3790.605
511.7682, 3794.166
512.2503, 3792.412
512.7324, 3784.791
513.2145, 3770.788
513.6967, 3749.988
514.1788, 3722.311
514.6609, 3687.973
515.1430, 3646.320
515.6251, 3598.260
516.1072, 3540.721
516.5894, 3476.153
517.0715, 3415.667
517.5536, 3362.214
518.0357, 3312.927
518.5178, 3267.169
518.9999, 3225.923
519.4821, 3184.837
519.9642, 3147.165
520.4463, 3107.406
520.9284, 3058.097
521.4105, 2995.187
521.8926, 2935.281
522.3748, 2881.297
522.8569, 2832.309
523.3390, 2782.731
523.8211, 2731.830
524.3032, 2685.992
524.7853, 2649.318
525.2675, 2620.586
525.7496, 2598.921
526.2317, 2585.481
526.7138, 2568.858
527.1959, 2533.363
527.6780, 2487.584
528.1602, 2445.586
528.6423, 2409.856
529.1244, 2382.504
529.6065, 2370.163
530.0886, 2368.267
530.5707, 2363.632
531.0529, 2351.910
531.5350, 2335.049
532.0171, 2312.259
532.4992, 2281.671
532.9813, 2255.945
533.4634, 2235.573
533.9456, 2221.484
534.4277, 2214.085
534.9098, 2214.137
535.3919, 2220.869
535.8740, 2240.572
536.3561, 2263.790
536.8383, 2262.979
537.3204, 2230.626
537.8025, 2205.344
538.2846, 2205.198
538.7667, 2226.206
539.2488, 2244.461
539.7310, 2259.940
540.2131, 2272.349
540.6952, 2280.029
541.1773, 2284.692
541.6594, 2290.437
542.1415, 2297.410
542.6237, 2307.337
543.1058, 2326.763
543.5879, 2350.041
544.0700, 2365.989
544.5521, 2362.367
545.0342, 2356.602
545.5164, 2357.921
545.9985, 2366.303
546.4806, 2377.393
546.9627, 2399.360
547.4448, 2416.680
547.9269, 2419.668
548.4091, 2396.385
548.8912, 2381.498
549.3733, 2380.877
549.8554, 2384.736
550.3375, 2381.174
550.8196, 2371.056
551.3018, 2349.827
551.7839, 2312.805
552.2660, 2265.562
552.7481, 2229.219
553.2302, 2204.298
553.7123, 2182.625
554.1945, 2164.226
554.6766, 2145.175
555.1587, 2110.155
555.6408, 2057.844
556.1229, 2003.862
556.6050, 1963.315
557.0872, 1930.496
557.5693, 1896.015
558.0514, 1853.022
558.5335, 1813.327
559.0156, 1784.804
559.4977, 1765.316
559.9799, 1750.685
560.4620, 1747.561
560.9441, 1741.715
561.4262, 1724.403
561.9083, 1692.957
562.3904, 1672.993
562.8726, 1673.732
563.3547, 1677.180
563.8368, 1670.678
564.3189, 1649.891
564.8010, 1634.455
565.2831, 1627.120
565.7653, 1622.907
566.2474, 1611.035
566.7295, 1591.250
567.2116, 1579.239
567.6937, 1584.197
568.1758, 1597.031
568.6580, 1598.389
569.1401, 1589.270
569.6222, 1577.812
570.1043, 1569.286
570.5864, 1561.608
571.0685, 1551.279
571.5507, 1537.051
572.0328, 1526.324
572.5149, 1526.046
572.9970, 1529.917
573.4791, 1531.395
573.9612, 1524.902
574.4434, 1520.470
574.9255, 1520.436
575.4076, 1523.792
575.8897, 1527.997
576.3718, 1535.167
576.8539, 1539.837
577.3361, 1539.122
577.8182, 1533.150
578.3003, 1533.401
578.7824, 1542.666
579.2645, 1548.071
579.7466, 1531.905
580.2288, 1499.034
580.7109, 1486.194
581.1930, 1499.974
581.6751, 1523.649
582.1572, 1540.823
582.6393, 1552.040
583.1215, 1558.841
583.6036, 1557.871
584.0857, 1556.464
584.5678, 1561.267
585.0499, 1570.606
585.5320, 1578.237
586.0142, 1580.651
586.4963, 1581.589
586.9784, 1582.725
587.4605, 1584.169
587.9426, 1585.779
588.4247, 1584.140
588.9069, 1585.513
589.3890, 1595.656
589.8711, 1618.912
590.3532, 1638.231
590.8353, 1651.575
591.3174, 1661.767
591.7996, 1672.910
592.2817, 1684.992
592.7638, 1700.444
593.2459, 1721.386
593.7280, 1745.673
594.2101, 1767.689
594.6923, 1787.987
595.1744, 1809.100
595.6565, 1828.800
596.1386, 1852.293
596.6207, 1887.813
597.1028, 1937.679
597.5850, 1985.201
598.0671, 2018.902
598.5492, 2047.848
599.0314, 2079.892
599.5135, 2112.286
599.9956, 2153.845
600.4777, 2211.143
600.9598, 2276.199
601.4420, 2332.918
601.9241, 2377.675
602.4062, 2419.805
602.8883, 2461.087
603.3704, 2501.594
603.8525, 2542.878
604.3347, 2584.701
604.8168, 2631.014
605.2989, 2689.531
605.7810, 2755.002
606.2631, 2813.131
606.7452, 2862.572
607.2274, 2906.253
607.7095, 2945.970
608.1916, 2981.296
608.6737, 3011.001
609.1558, 3036.032
609.6379, 3053.989
610.1201, 3063.289
610.6022, 3065.155
611.0843, 3062.347
611.5664, 3053.388
612.0485, 3042.018
612.5306, 3033.268
613.0128, 3025.552
613.4949, 2996.668
613.9770, 2939.694
614.4591, 2875.914
614.9412, 2815.586
615.4233, 2758.194
615.9055, 2706.571
616.3876, 2661.532
616.8697, 2618.437
617.3518, 2573.472
617.8339, 2526.401
618.3160, 2474.043
