##NAMES=Clintonite
##RRUFFID=R070229
##IDEAL CHEMISTRY=CaAlMg_2_(SiAl_3_)O_10_(OH)_2_
##LOCALITY=Amity, Warwick Township, Orange County, New York, USA
##OWNER=RRUFF
##SOURCE=Michael Scott
##DESCRIPTION=Brown micaceous plates in dolomite. Polytype 1M, variety called seybertite
##STATUS=The identification of this mineral has been confirmed by X-ray diffraction and chemical analysis
##URL=rruff.info/R070229
##MEASURED CHEMISTRY=(Ca_0.98_Na_0.02_)_Σ=1_(Al_0.68_Mg_0.20_Fe^3+^_0.11_Ti_0.01_)_Σ=1_Mg_2.00_(Si_1.34_Al_2.66_)_Σ=4_O_10_((OH)_1.87_O_0.13_)_Σ=2_; OH estimated by charge balance
140.5016, 1470.525
140.9837, 1472.516
141.4658, 1477.209
141.9480, 1485.334
142.4301, 1497.836
142.9122, 1516.892
143.3943, 1535.611
143.8764, 1553.095
144.3585, 1569.240
144.8407, 1586.521
145.3228, 1605.595
145.8049, 1625.195
146.2870, 1644.041
146.7691, 1662.058
147.2512, 1679.050
147.7334, 1693.241
148.2155, 1702.572
148.6976, 1719.139
149.1797, 1750.126
149.6618, 1786.357
150.1439, 1815.445
150.6261, 1826.352
151.1082, 1839.688
151.5903, 1861.301
152.0724, 1895.811
152.5545, 1928.400
153.0366, 1959.640
153.5188, 1988.048
154.0009, 2010.623
154.4830, 2023.473
154.9651, 2033.199
155.4472, 2043.025
155.9293, 2055.755
156.4115, 2065.020
156.8936, 2066.022
157.3757, 2061.685
157.8578, 2062.130
158.3399, 2072.884
158.8221, 2087.850
159.3042, 2103.186
159.7863, 2123.220
160.2684, 2138.352
160.7505, 2143.721
161.2326, 2140.334
161.7148, 2135.528
162.1969, 2128.435
162.6790, 2122.918
163.1611, 2122.762
163.6432, 2136.070
164.1253, 2149.560
164.6075, 2154.594
165.0896, 2150.808
165.5717, 2148.604
166.0538, 2155.414
166.5359, 2167.192
167.0180, 2178.135
167.5002, 2184.698
167.9823, 2190.323
168.4644, 2197.157
168.9465, 2205.235
169.4286, 2215.396
169.9107, 2231.160
170.3929, 2249.533
170.8750, 2264.615
171.3571, 2268.586
171.8392, 2269.636
172.3213, 2277.910
172.8034, 2296.724
173.2856, 2315.710
173.7677, 2326.053
174.2498, 2328.701
174.7319, 2326.804
175.2140, 2317.521
175.6961, 2306.001
176.1783, 2300.462
176.6604, 2303.488
177.1425, 2311.045
177.6246, 2322.138
178.1067, 2335.434
178.5888, 2342.945
179.0710, 2329.840
179.5531, 2306.587
180.0352, 2298.047
180.5173, 2316.412
180.9994, 2345.904
181.4815, 2359.010
181.9637, 2356.320
182.4458, 2352.658
182.9279, 2365.191
183.4100, 2388.598
183.8921, 2402.598
184.3742, 2397.463
184.8564, 2380.960
185.3385, 2369.884
185.8206, 2364.170
186.3027, 2363.508
186.7848, 2370.204
187.2669, 2383.153
187.7491, 2394.145
188.2312, 2399.815
188.7133, 2401.269
189.1954, 2403.440
189.6775, 2406.980
190.1596, 2408.203
190.6418, 2399.975
191.1239, 2382.626
191.6060, 2368.264
192.0881, 2364.757
192.5702, 2370.282
193.0524, 2367.241
193.5345, 2353.400
194.0166, 2336.830
194.4987, 2331.935
194.9808, 2339.599
195.4629, 2345.568
195.9451, 2342.470
196.4272, 2330.448
196.9093, 2318.133
197.3914, 2305.480
197.8735, 2293.026
198.3556, 2280.031
198.8378, 2265.469
199.3199, 2256.965
199.8020, 2263.998
200.2841, 2288.499
200.7662, 2296.747
201.2483, 2281.484
201.7305, 2253.787
202.2126, 2243.134
202.6947, 2254.121
203.1768, 2264.999
203.6589, 2260.565
204.1410, 2238.005
204.6232, 2220.506
205.1053, 2210.770
205.5874, 2207.108
206.0695, 2202.512
206.5516, 2194.250
207.0337, 2192.240
207.5159, 2208.655
207.9980, 2250.536
208.4801, 2274.701
208.9622, 2270.344
209.4443, 2244.335
209.9264, 2230.667
210.4086, 2232.420
210.8907, 2240.363
211.3728, 2247.896
211.8549, 2255.000
212.3370, 2261.934
212.8191, 2268.606
213.3013, 2275.075
213.7834, 2281.853
214.2655, 2287.614
214.7476, 2295.873
215.2297, 2310.865
215.7118, 2336.590
216.1940, 2358.055
216.6761, 2370.747
217.1582, 2375.329
217.6403, 2386.335
218.1224, 2407.435
218.6045, 2429.884
219.0867, 2443.305
219.5688, 2439.875
220.0509, 2445.981
220.5330, 2468.772
221.0151, 2508.911
221.4972, 2547.330
221.9794, 2582.856
222.4615, 2618.333
222.9436, 2656.949
223.4257, 2698.312
223.9078, 2744.565
224.3899, 2797.767
224.8721, 2859.747
225.3542, 2912.708
225.8363, 2950.607
226.3184, 2985.639
226.8005, 3034.286
227.2827, 3104.468
227.7648, 3172.530
228.2469, 3231.705
228.7290, 3280.222
229.2111, 3332.411
229.6932, 3391.200
230.1754, 3450.666
230.6575, 3506.045
231.1396, 3565.984
231.6217, 3605.630
232.1038, 3617.451
232.5859, 3599.236
233.0681, 3564.501
233.5502, 3510.861
234.0323, 3442.726
234.5144, 3364.981
234.9965, 3276.858
235.4786, 3180.909
235.9608, 3073.928
236.4429, 2951.792
236.9250, 2844.990
237.4071, 2762.058
237.8892, 2689.937
238.3713, 2605.876
238.8535, 2495.443
239.3356, 2397.294
239.8177, 2325.382
240.2998, 2285.822
240.7819, 2248.813
241.2640, 2213.443
241.7462, 2180.556
242.2283, 2151.264
242.7104, 2125.491
243.1925, 2103.449
243.6746, 2085.313
244.1567, 2071.300
244.6389, 2060.776
245.1210, 2056.240
245.6031, 2053.726
246.0852, 2045.490
246.5673, 2026.769
247.0494, 2010.476
247.5316, 2001.967
248.0137, 2004.389
248.4958, 2003.991
248.9779, 2000.388
249.4600, 1994.169
249.9421, 1985.989
250.4243, 1973.705
250.9064, 1963.225
251.3885, 1957.625
251.8706, 1959.708
252.3527, 1956.690
252.8348, 1945.583
253.3170, 1931.250
253.7991, 1923.721
254.2812, 1927.126
254.7633, 1929.523
255.2454, 1925.011
255.7275, 1909.624
256.2097, 1902.950
256.6918, 1909.107
257.1739, 1921.218
257.6560, 1925.839
258.1381, 1918.799
258.6202, 1912.896
259.1024, 1913.592
259.5845, 1922.979
260.0666, 1930.153
260.5487, 1934.353
261.0308, 1936.899
261.5129, 1940.134
261.9951, 1943.703
262.4772, 1948.756
262.9593, 1956.128
263.4414, 1966.625
263.9235, 1976.404
264.4056, 1987.080
264.8878, 1995.616
265.3699, 1994.848
265.8520, 1980.088
266.3341, 1969.442
266.8162, 1972.089
267.2983, 1991.179
267.7805, 2002.914
268.2626, 2005.581
268.7447, 2002.647
269.2268, 1998.994
269.7089, 1993.694
270.1910, 1991.002
270.6732, 1992.950
271.1553, 1999.935
271.6374, 2007.950
272.1195, 2017.275
272.6016, 2027.239
273.0837, 2037.514
273.5659, 2049.046
274.0480, 2056.325
274.5301, 2055.137
275.0122, 2045.011
275.4943, 2041.064
275.9764, 2045.028
276.4586, 2051.915
276.9407, 2052.867
277.4228, 2046.748
277.9049, 2044.459
278.3870, 2053.114
278.8691, 2071.917
279.3513, 2081.881
279.8334, 2081.692
280.3155, 2076.045
280.7976, 2068.885
281.2798, 2059.992
281.7619, 2056.060
282.2440, 2060.609
282.7261, 2072.771
283.2082, 2087.562
283.6903, 2106.228
284.1725, 2122.932
284.6546, 2127.619
285.1367, 2120.813
285.6188, 2117.456
286.1009, 2124.554
286.5830, 2139.542
287.0652, 2150.580
287.5473, 2156.793
288.0294, 2163.682
288.5115, 2180.938
288.9936, 2206.712
289.4757, 2224.851
289.9579, 2225.515
290.4400, 2215.864
290.9221, 2215.822
291.4042, 2225.795
291.8863, 2240.319
292.3684, 2256.954
292.8506, 2274.401
293.3327, 2286.918
293.8148, 2288.925
294.2969, 2287.139
294.7790, 2297.779
295.2611, 2320.919
295.7433, 2342.015
296.2254, 2344.888
296.7075, 2335.427
297.1896, 2329.756
297.6717, 2331.103
298.1538, 2339.717
298.6360, 2358.563
299.1181, 2387.083
299.6002, 2416.642
300.0823, 2441.882
300.5644, 2463.594
301.0465, 2483.759
301.5287, 2504.070
302.0108, 2521.554
302.4929, 2527.450
302.9750, 2524.580
303.4571, 2528.755
303.9392, 2559.780
304.4214, 2601.563
304.9035, 2632.561
305.3856, 2643.632
305.8677, 2647.962
306.3498, 2656.197
306.8319, 2666.970
307.3141, 2675.617
307.7962, 2674.008
308.2783, 2671.324
308.7604, 2677.379
309.2425, 2696.785
309.7246, 2719.119
310.2068, 2738.420
310.6889, 2755.602
311.1710, 2773.253
311.6531, 2791.952
312.1352, 2812.036
312.6173, 2833.965
313.0995, 2858.244
313.5816, 2882.366
314.0637, 2905.590
314.5458, 2927.927
315.0279, 2949.598
315.5100, 2969.496
315.9922, 2989.646
316.4743, 3010.994
316.9564, 3033.596
317.4385, 3057.612
317.9206, 3082.575
318.4027, 3109.101
318.8849, 3138.051
319.3670, 3176.365
319.8491, 3211.241
320.3312, 3235.587
320.8133, 3246.506
321.2954, 3262.121
321.7776, 3292.541
322.2597, 3326.965
322.7418, 3353.882
323.2239, 3361.797
323.7060, 3371.877
324.1881, 3391.580
324.6703, 3422.394
325.1524, 3446.301
325.6345, 3452.531
326.1166, 3456.172
326.5987, 3469.413
327.0808, 3497.385
327.5630, 3529.055
328.0451, 3566.120
328.5272, 3608.049
329.0093, 3643.527
329.4914, 3670.850
329.9735, 3692.514
330.4557, 3709.221
330.9378, 3715.608
331.4199, 3726.367
331.9020, 3742.651
332.3841, 3764.219
332.8662, 3791.268
333.3484, 3829.257
333.8305, 3864.048
334.3126, 3886.790
334.7947, 3892.022
335.2768, 3901.475
335.7589, 3917.197
336.2411, 3937.161
336.7232, 3956.330
337.2053, 3973.470
337.6874, 3993.046
338.1695, 4019.248
338.6516, 4053.274
339.1338, 4080.825
339.6159, 4099.775
340.0980, 4114.810
340.5801, 4134.632
341.0622, 4160.423
341.5443, 4182.092
342.0265, 4193.387
342.5086, 4195.739
342.9907, 4205.861
343.4728, 4225.979
343.9549, 4244.787
344.4370, 4245.137
344.9192, 4228.953
345.4013, 4214.554
345.8834, 4210.931
346.3655, 4213.122
346.8476, 4206.497
347.3297, 4190.769
347.8119, 4175.406
348.2940, 4173.730
348.7761, 4180.234
349.2582, 4177.664
349.7403, 4155.333
350.2225, 4127.574
350.7046, 4116.639
351.1867, 4120.575
351.6688, 4125.072
352.1509, 4120.681
352.6331, 4110.037
353.1152, 4096.505
353.5973, 4079.329
354.0794, 4062.285
354.5615, 4051.332
355.0436, 4043.839
355.5258, 4031.804
356.0079, 4007.846
356.4900, 3979.075
356.9721, 3950.489
357.4542, 3921.535
357.9363, 3897.251
358.4185, 3884.277
358.9006, 3877.488
359.3827, 3868.015
359.8648, 3846.423
360.3469, 3825.998
360.8290, 3816.839
361.3112, 3822.311
361.7933, 3819.945
362.2754, 3794.650
362.7575, 3760.807
363.2396, 3733.935
363.7217, 3728.871
364.2039, 3720.132
364.6860, 3696.422
365.1681, 3657.313
365.6502, 3629.640
366.1323, 3625.430
366.6144, 3627.912
367.0966, 3625.562
367.5787, 3615.207
368.0608, 3603.362
368.5429, 3587.791
369.0250, 3570.157
369.5071, 3559.545
369.9893, 3560.194
370.4714, 3562.928
370.9535, 3562.742
371.4356, 3555.316
371.9177, 3555.510
372.3998, 3567.736
372.8820, 3585.565
373.3641, 3594.179
373.8462, 3590.958
374.3283, 3585.198
374.8104, 3578.372
375.2925, 3569.497
375.7747, 3572.409
376.2568, 3590.695
376.7389, 3613.703
377.2210, 3626.500
377.7031, 3628.441
378.1852, 3629.507
378.6674, 3633.279
379.1495, 3638.608
379.6316, 3638.634
380.1137, 3632.448
380.5958, 3629.198
381.0779, 3641.264
381.5601, 3665.230
382.0422, 3683.358
382.5243, 3691.739
383.0064, 3692.827
383.4885, 3686.495
383.9706, 3674.195
384.4528, 3667.053
384.9349, 3676.373
385.4170, 3694.815
385.8991, 3710.790
386.3812, 3722.818
386.8633, 3731.937
387.3455, 3739.079
387.8276, 3744.083
388.3097, 3746.659
388.7918, 3738.582
389.2739, 3733.165
389.7560, 3743.041
390.2382, 3770.214
390.7203, 3800.047
391.2024, 3830.212
391.6845, 3856.728
392.1666, 3875.335
392.6487, 3872.759
393.1309, 3872.890
393.6130, 3889.969
394.0951, 3922.033
394.5772, 3944.489
395.0593, 3941.480
395.5414, 3932.996
396.0236, 3931.558
396.5057, 3949.241
396.9878, 3961.764
397.4699, 3966.649
397.9520, 3964.674
398.4341, 3958.104
398.9163, 3938.464
399.3984, 3923.084
399.8805, 3920.029
400.3626, 3936.850
400.8447, 3943.485
401.3268, 3937.698
401.8090, 3923.353
402.2911, 3904.435
402.7732, 3878.448
403.2553, 3854.914
403.7374, 3836.650
404.2195, 3823.426
404.7017, 3811.175
405.1838, 3799.924
405.6659, 3789.460
406.1480, 3782.774
406.6301, 3780.089
407.1122, 3764.396
407.5944, 3727.450
408.0765, 3680.995
408.5586, 3655.256
409.0407, 3649.762
409.5228, 3647.433
410.0049, 3638.819
410.4871, 3624.775
410.9692, 3606.320
411.4513, 3582.443
411.9334, 3558.430
412.4155, 3539.517
412.8976, 3524.916
413.3798, 3512.977
413.8619, 3508.147
414.3440, 3502.309
414.8261, 3486.248
415.3082, 3459.687
415.7903, 3429.059
416.2725, 3389.877
416.7546, 3352.008
417.2367, 3326.252
417.7188, 3328.651
418.2009, 3330.659
418.6830, 3316.167
419.1652, 3289.692
419.6473, 3268.363
420.1294, 3259.532
420.6115, 3255.969
421.0937, 3254.590
421.5758, 3258.293
422.0579, 3257.087
422.5400, 3246.752
423.0221, 3231.360
423.5042, 3217.271
423.9864, 3202.171
424.4685, 3191.427
424.9506, 3187.759
425.4327, 3192.038
425.9148, 3193.164
426.3969, 3192.563
426.8791, 3187.204
427.3612, 3172.598
427.8433, 3143.862
428.3254, 3120.955
428.8075, 3105.648
429.2896, 3098.569
429.7718, 3105.948
430.2539, 3131.295
430.7360, 3152.646
431.2181, 3153.976
431.7002, 3136.833
432.1823, 3123.758
432.6645, 3116.109
433.1466, 3111.685
433.6287, 3108.980
434.1108, 3107.465
434.5929, 3104.388
435.0750, 3097.581
435.5572, 3088.979
436.0393, 3081.910
436.5214, 3076.327
437.0035, 3071.203
437.4856, 3068.683
437.9677, 3065.318
438.4499, 3055.462
438.9320, 3033.682
439.4141, 3011.901
439.8962, 3003.071
440.3783, 3001.343
440.8604, 2991.363
441.3426, 2955.702
441.8247, 2918.086
442.3068, 2891.741
442.7889, 2879.280
443.2710, 2872.510
443.7531, 2874.577
444.2353, 2879.171
444.7174, 2879.343
445.1995, 2870.635
445.6816, 2861.256
446.1637, 2853.243
446.6458, 2846.302
447.1280, 2835.853
447.6101, 2817.776
448.0922, 2800.685
448.5743, 2789.738
449.0564, 2787.178
449.5385, 2784.805
450.0207, 2783.087
450.5028, 2780.855
450.9849, 2775.289
451.4670, 2765.679
451.9491, 2756.480
452.4312, 2748.266
452.9134, 2741.582
453.3955, 2742.609
453.8776, 2752.618
454.3597, 2761.277
454.8418, 2755.516
455.3239, 2738.883
455.8061, 2727.055
456.2882, 2725.912
456.7703, 2727.244
457.2524, 2716.627
457.7345, 2697.243
458.2166, 2681.863
458.6988, 2681.369
459.1809, 2687.357
459.6630, 2692.247
460.1451, 2695.778
460.6272, 2694.556
461.1093, 2679.778
461.5915, 2661.047
462.0736, 2650.628
462.5557, 2667.796
463.0378, 2679.027
463.5199, 2662.262
464.0020, 2623.071
464.4842, 2603.256
464.9663, 2633.379
465.4484, 2669.123
465.9305, 2686.867
466.4126, 2674.004
466.8947, 2664.037
467.3769, 2658.392
467.8590, 2655.039
468.3411, 2651.189
468.8232, 2648.925
469.3053, 2641.552
469.7874, 2624.428
470.2696, 2598.572
470.7517, 2583.618
471.2338, 2581.440
471.7159, 2584.424
472.1980, 2587.694
472.6801, 2591.182
473.1623, 2591.987
473.6444, 2589.838
474.1265, 2584.612
474.6086, 2574.841
475.0907, 2561.138
475.5728, 2547.461
476.0550, 2535.717
476.5371, 2525.353
477.0192, 2515.498
477.5013, 2506.061
477.9834, 2497.876
478.4655, 2491.075
478.9477, 2486.056
479.4298, 2483.705
479.9119, 2488.059
480.3940, 2490.314
480.8761, 2479.707
481.3582, 2462.501
481.8404, 2456.933
482.3225, 2487.552
482.8046, 2515.813
483.2867, 2521.522
483.7688, 2494.330
484.2509, 2474.646
484.7331, 2465.765
485.2152, 2466.067
485.6973, 2475.328
486.1794, 2504.050
486.6615, 2523.474
487.1436, 2526.987
487.6258, 2518.108
488.1079, 2512.363
488.5900, 2508.730
489.0721, 2511.256
489.5542, 2525.616
490.0363, 2552.035
490.5185, 2569.419
491.0006, 2576.028
491.4827, 2577.119
491.9648, 2579.350
492.4470, 2582.075
492.9291, 2581.161
493.4112, 2571.798
493.8933, 2561.007
494.3754, 2560.911
494.8575, 2570.225
495.3397, 2580.859
495.8218, 2587.847
496.3039, 2593.331
496.7860, 2600.018
497.2681, 2609.166
497.7502, 2616.536
498.2324, 2618.990
498.7145, 2618.610
499.1966, 2618.274
499.6787, 2613.981
500.1608, 2614.739
500.6429, 2626.708
501.1251, 2648.899
501.6072, 2665.206
502.0893, 2672.406
502.5714, 2675.578
503.0535, 2676.594
503.5356, 2673.649
504.0178, 2673.030
504.4999, 2675.878
504.9820, 2680.021
505.4641, 2681.203
505.9462, 2678.082
506.4283, 2679.192
506.9105, 2688.592
507.3926, 2703.725
507.8747, 2715.372
508.3568, 2723.606
508.8389, 2727.358
509.3210, 2721.803
509.8032, 2711.242
510.2853, 2709.384
510.7674, 2720.059
511.2495, 2730.340
511.7316, 2723.954
512.2137, 2707.492
512.6959, 2694.490
513.1780, 2694.851
513.6601, 2696.893
514.1422, 2690.384
514.6243, 2677.185
515.1064, 2670.385
515.5886, 2678.156
516.0707, 2691.806
516.5528, 2707.223
517.0349, 2729.404
517.5170, 2742.046
517.9991, 2732.809
518.4813, 2717.311
518.9634, 2715.895
519.4455, 2738.181
519.9276, 2758.150
520.4097, 2770.941
520.8918, 2777.023
521.3740, 2779.965
521.8561, 2778.689
522.3382, 2777.839
522.8203, 2781.934
523.3024, 2790.416
523.7845, 2793.664
524.2667, 2790.463
524.7488, 2784.616
525.2309, 2778.874
525.7130, 2773.977
526.1951, 2772.546
526.6772, 2775.575
527.1594, 2782.398
527.6415, 2795.232
528.1236, 2812.200
528.6057, 2825.315
529.0878, 2828.387
529.5699, 2826.781
530.0521, 2823.663
530.5342, 2818.797
531.0163, 2815.340
531.4984, 2811.972
531.9805, 2811.482
532.4626, 2816.786
532.9448, 2833.647
533.4269, 2849.991
533.9090, 2864.774
534.3911, 2878.094
534.8732, 2889.158
535.3553, 2895.419
535.8375, 2904.629
536.3196, 2922.823
536.8017, 2951.239
537.2838, 2964.427
537.7659, 2958.312
538.2480, 2950.827
538.7302, 2964.200
539.2123, 2995.344
539.6944, 3022.302
540.1765, 3040.438
540.6586, 3052.144
541.1407, 3059.696
541.6229, 3063.687
542.1050, 3066.403
542.5871, 3065.458
543.0692, 3066.153
543.5513, 3074.774
544.0334, 3091.493
544.5156, 3107.711
544.9977, 3120.912
545.4798, 3131.087
545.9619, 3138.003
546.4440, 3140.528
546.9261, 3141.430
547.4083, 3141.434
547.8904, 3139.924
548.3725, 3135.645
548.8546, 3126.422
549.3367, 3117.908
549.8188, 3111.222
550.3010, 3106.363
550.7831, 3104.847
551.2652, 3108.814
551.7473, 3108.958
552.2294, 3094.000
552.7115, 3066.307
553.1937, 3052.911
553.6758, 3058.675
554.1579, 3067.426
554.6400, 3054.095
555.1221, 3026.916
555.6042, 3010.074
556.0864, 3019.238
556.5685, 3035.072
557.0506, 3041.683
557.5327, 3039.851
558.0148, 3032.208
558.4969, 3013.190
558.9791, 2993.866
559.4612, 2981.960
559.9433, 2979.958
560.4254, 2976.687
560.9075, 2972.854
561.3896, 2965.264
561.8718, 2950.612
562.3539, 2919.609
562.8360, 2897.878
563.3181, 2891.625
563.8002, 2893.902
564.2823, 2887.629
564.7645, 2871.469
565.2466, 2852.617
565.7287, 2830.666
566.2108, 2808.171
566.6929, 2803.348
567.1750, 2817.192
567.6572, 2827.000
568.1393, 2805.232
568.6214, 2767.085
569.1035, 2744.901
569.5856, 2746.086
570.0677, 2752.978
570.5499, 2752.380
571.0320, 2747.478
571.5141, 2743.324
571.9962, 2746.354
572.4783, 2745.926
572.9604, 2735.267
573.4426, 2716.539
573.9247, 2700.752
574.4068, 2687.379
574.8889, 2679.734
575.3710, 2681.336
575.8531, 2695.603
576.3353, 2700.651
576.8174, 2693.525
577.2995, 2681.491
577.7816, 2670.734
578.2637, 2661.349
578.7458, 2652.377
579.2280, 2642.893
579.7101, 2635.204
580.1922, 2637.361
580.6743, 2646.849
581.1564, 2649.461
581.6385, 2630.195
582.1207, 2604.831
582.6028, 2597.198
583.0849, 2604.989
583.5670, 2609.600
584.0491, 2595.664
584.5313, 2576.982
585.0134, 2565.085
585.4955, 2564.722
585.9776, 2561.336
586.4597, 2548.191
586.9418, 2531.418
587.4240, 2517.796
587.9061, 2503.478
588.3882, 2498.781
588.8703, 2508.767
589.3524, 2528.008
589.8345, 2540.398
590.3167, 2544.645
590.7988, 2547.135
591.2809, 2551.876
591.7630, 2557.322
592.2451, 2551.898
592.7272, 2535.031
593.2094, 2521.299
593.6915, 2529.774
594.1736, 2548.605
594.6557, 2552.388
595.1378, 2533.084
595.6199, 2515.340
596.1021, 2517.116
596.5842, 2532.263
597.0663, 2552.097
597.5485, 2584.358
598.0306, 2609.319
598.5127, 2617.730
598.9948, 2612.759
599.4769, 2608.422
599.9590, 2603.645
600.4412, 2602.081
600.9233, 2606.419
601.4054, 2617.404
601.8875, 2623.669
602.3696, 2626.281
602.8517, 2621.350
603.3339, 2598.585
603.8160, 2560.302
604.2981, 2542.614
604.7802, 2552.819
605.2623, 2573.200
605.7444, 2582.622
606.2266, 2584.004
606.7087, 2584.806
607.1908, 2589.000
607.6729, 2592.517
608.1550, 2591.556
608.6371, 2587.156
609.1193, 2582.655
609.6014, 2574.630
610.0835, 2570.959
610.5656, 2577.369
611.0477, 2595.880
611.5298, 2611.076
612.0120, 2623.658
612.4941, 2631.505
612.9762, 2632.216
613.4583, 2623.440
613.9404, 2614.988
614.4225, 2605.113
614.9047, 2599.534
615.3868, 2611.128
615.8689, 2638.215
616.3510, 2656.282
616.8331, 2653.646
617.3152, 2644.277
617.7974, 2653.760
618.2795, 2676.509
618.7616, 2691.325
619.2437, 2675.975
619.7258, 2656.090
620.2079, 2652.020
620.6901, 2664.784
621.1722, 2677.399
621.6543, 2679.197
622.1364, 2682.320
622.6185, 2696.433
623.1006, 2734.818
623.5828, 2754.639
624.0649, 2744.064
624.5470, 2725.780
625.0291, 2728.035
625.5112, 2754.575
625.9933, 2782.454
626.4755, 2808.938
626.9576, 2832.268
627.4397, 2846.971
627.9218, 2853.952
628.4039, 2860.134
628.8860, 2865.360
629.3682, 2873.671
629.8503, 2892.495
630.3324, 2920.674
630.8145, 2949.131
631.2966, 2966.136
631.7787, 2985.676
632.2609, 3019.594
