##NAMES=Clinoptilolite-Ca
##RRUFFID=R060662
##IDEAL CHEMISTRY=Ca_3_(Si_30_Al_6_)O_72_&#183;20H_2_O
##LOCALITY=Succor Creek, Malheur County, Oregon, USA
##OWNER=RRUFF
##SOURCE=Michael Scott
##DESCRIPTION=Group of colorless platy prismatic crystals
##STATUS=The identification of this mineral has been confirmed by X-ray diffraction and chemical analysis
##URL=rruff.info/R060662
##MEASURED CHEMISTRY=(Ca_1.02_Na_0.97_K_0.59_)_Σ=2.58_(Si_14.40_Al_3.60_)_Σ=18_O_36_·10.96H_2_O
115.738, 7659.193
116.220, 8003.052
116.702, 8391.359
117.184, 8824.509
117.666, 9277.402
118.148, 9740.202
118.630, 10220.040
119.113, 10712.170
119.595, 11252.750
120.077, 11785.960
120.559, 12281.810
121.041, 12741.770
121.523, 13143.660
122.005, 13469.500
122.487, 13725.530
122.969, 13923.430
123.451, 14070.460
123.934, 14166.090
124.416, 14202.110
124.898, 14159.230
125.380, 14081.290
125.862, 14006.740
126.344, 13936.630
126.826, 13881.070
127.308, 13849.780
127.791, 13839.750
128.273, 13843.610
128.755, 13853.160
129.237, 13877.020
129.719, 13932.460
130.201, 14019.750
130.683, 14136.960
131.165, 14290.390
131.648, 14475.970
132.130, 14666.760
132.612, 14841.590
133.094, 15006.360
133.576, 15207.590
134.058, 15452.960
134.540, 15718.060
135.022, 15957.290
135.504, 16169.830
135.986, 16372.050
136.469, 16581.570
136.951, 16801.289
137.433, 17000.330
137.915, 17178.240
138.397, 17334.750
138.879, 17468.750
139.361, 17588.420
139.844, 17670.990
140.326, 17691.561
140.808, 17635.109
141.290, 17568.520
141.772, 17504.711
142.254, 17444.029
142.736, 17368.381
143.218, 17269.510
143.700, 17162.801
144.182, 17061.930
144.665, 16962.520
145.147, 16876.400
145.629, 16808.131
146.111, 16759.670
146.593, 16721.279
147.075, 16721.711
147.557, 16725.279
148.040, 16655.221
148.522, 16463.330
149.004, 16244.900
149.486, 16031.340
149.968, 15806.920
150.450, 15611.570
150.932, 15456.510
151.414, 15334.570
151.896, 15211.270
152.378, 15089.910
152.861, 14964.070
153.343, 14830.910
153.825, 14673.000
154.307, 14526.120
154.789, 14404.880
155.271, 14309.460
155.753, 14197.970
156.235, 14045.680
156.718, 13884.200
157.200, 13741.920
157.682, 13636.780
158.164, 13538.140
158.646, 13434.790
159.128, 13323.840
159.610, 13216.710
160.092, 13122.820
160.574, 13033.100
161.057, 12936.310
161.539, 12825.120
162.021, 12705.930
162.503, 12575.950
162.985, 12423.400
163.467, 12290.380
163.949, 12219.390
164.431, 12184.270
164.913, 12123.140
165.396, 11981.420
165.878, 11817.470
166.360, 11676.250
166.842, 11572.580
167.324, 11487.200
167.806, 11422.880
168.288, 11373.260
168.770, 11307.530
169.253, 11181.560
169.735, 11038.830
170.217, 10929.560
170.699, 10905.260
171.181, 10891.220
171.663, 10811.740
172.145, 10672.150
172.627, 10540.860
173.109, 10463.350
173.592, 10366.611
174.074, 10322.410
174.556, 10265.441
175.038, 10196.419
175.520, 10079.185
176.002, 10024.205
176.484, 9944.277
176.966, 9863.326
177.449, 9803.357
177.931, 9701.753
178.413, 9619.442
178.895, 9547.781
179.377, 9470.260
179.859, 9381.675
180.341, 9299.102
180.823, 9251.543
181.305, 9231.743
181.788, 9206.476
182.270, 9146.178
182.752, 9064.610
183.234, 9001.618
183.716, 8967.523
184.198, 8943.175
184.680, 8892.233
185.162, 8817.228
185.645, 8745.678
186.127, 8706.094
186.609, 8689.955
187.091, 8659.927
187.573, 8601.504
188.055, 8531.197
188.537, 8493.705
189.019, 8490.978
189.501, 8488.591
189.984, 8449.823
190.466, 8378.862
190.948, 8318.346
191.430, 8281.360
191.912, 8262.510
192.394, 8241.656
192.876, 8219.021
193.358, 8195.225
193.840, 8174.555
194.323, 8157.125
194.805, 8129.398
195.287, 8083.756
195.769, 8022.634
196.251, 7964.114
196.733, 7907.378
197.215, 7855.803
197.697, 7814.034
198.180, 7782.395
198.662, 7757.980
199.144, 7742.222
199.626, 7735.375
200.108, 7723.806
200.590, 7704.308
201.072, 7685.014
201.554, 7685.397
202.036, 7711.254
202.519, 7727.020
203.001, 7710.818
203.483, 7658.081
203.965, 7612.435
204.447, 7574.450
204.929, 7544.407
205.411, 7525.775
205.893, 7521.154
206.376, 7518.073
206.858, 7509.424
207.340, 7494.226
207.822, 7478.063
208.304, 7460.818
208.786, 7443.140
209.268, 7429.127
209.750, 7422.335
210.232, 7411.614
210.715, 7388.860
211.197, 7351.681
211.679, 7311.938
212.161, 7266.783
212.643, 7220.015
213.125, 7193.563
213.607, 7194.044
214.089, 7202.658
214.572, 7205.949
215.054, 7204.636
215.536, 7194.816
216.018, 7171.886
216.500, 7137.343
216.982, 7111.979
217.464, 7096.618
217.946, 7088.931
218.428, 7087.744
218.911, 7094.942
219.393, 7103.349
219.875, 7111.868
220.357, 7120.523
220.839, 7128.913
221.321, 7138.378
221.803, 7146.291
222.285, 7149.934
222.768, 7149.150
223.250, 7144.621
223.732, 7133.363
224.214, 7113.196
224.696, 7109.089
225.178, 7128.112
225.660, 7157.537
226.142, 7180.909
226.624, 7196.908
227.107, 7209.659
227.589, 7219.696
228.071, 7226.378
228.553, 7232.564
229.035, 7235.231
229.517, 7239.111
229.999, 7253.097
230.481, 7285.117
230.964, 7313.673
231.446, 7329.099
231.928, 7323.524
232.410, 7333.985
232.892, 7371.234
233.374, 7419.561
233.856, 7444.234
234.338, 7423.884
234.820, 7414.617
235.303, 7442.774
235.785, 7533.955
236.267, 7591.732
236.749, 7599.159
237.231, 7579.121
237.713, 7585.107
238.195, 7633.410
238.677, 7683.815
239.160, 7718.226
239.642, 7724.244
240.124, 7743.035
240.606, 7780.871
241.088, 7830.357
241.570, 7869.518
242.052, 7888.294
242.534, 7911.011
243.016, 7950.387
243.499, 8017.702
243.981, 8077.605
244.463, 8130.952
244.945, 8175.954
245.427, 8205.874
245.909, 8213.201
246.391, 8214.742
246.873, 8219.206
247.355, 8230.380
247.838, 8234.225
248.320, 8221.767
248.802, 8201.435
249.284, 8209.162
249.766, 8263.492
250.248, 8319.396
250.730, 8353.275
251.212, 8363.370
251.695, 8354.487
252.177, 8315.744
252.659, 8257.780
253.141, 8232.024
253.623, 8257.584
254.105, 8288.659
254.587, 8298.213
255.069, 8280.555
255.551, 8254.043
256.034, 8211.943
256.516, 8160.886
256.998, 8140.043
257.480, 8168.470
257.962, 8198.041
258.444, 8195.471
258.926, 8146.539
259.408, 8102.011
259.891, 8066.938
260.373, 8040.047
260.855, 8015.892
261.337, 7993.415
261.819, 7975.233
262.301, 7963.621
262.783, 7959.869
263.265, 7959.292
263.747, 7966.727
264.229, 7977.441
264.712, 7963.531
265.194, 7917.450
265.676, 7860.614
266.158, 7808.024
266.640, 7758.001
267.122, 7716.851
267.604, 7690.160
268.086, 7673.288
268.569, 7640.787
269.051, 7587.390
269.533, 7529.147
270.015, 7478.817
270.497, 7437.412
270.979, 7396.143
271.461, 7352.869
271.943, 7308.795
272.426, 7273.106
272.908, 7249.161
273.390, 7225.154
273.872, 7188.242
274.354, 7134.802
274.836, 7095.868
275.318, 7082.220
275.800, 7085.045
276.282, 7065.376
276.765, 7018.021
277.247, 6965.288
277.729, 6922.173
278.211, 6888.615
278.693, 6866.073
279.175, 6859.601
279.657, 6862.209
280.139, 6844.562
280.621, 6801.709
281.104, 6761.347
281.586, 6746.946
282.068, 6758.804
282.550, 6775.848
283.032, 6800.029
283.514, 6823.562
283.996, 6818.624
284.478, 6782.093
284.961, 6742.305
285.443, 6723.022
285.925, 6722.897
286.407, 6718.741
286.889, 6704.208
287.371, 6686.066
287.853, 6680.222
288.335, 6686.951
288.818, 6701.060
289.300, 6722.985
289.782, 6750.864
290.264, 6771.397
290.746, 6781.234
291.228, 6784.358
291.710, 6786.861
292.192, 6788.759
292.674, 6792.994
293.156, 6804.494
293.639, 6820.771
294.121, 6832.438
294.603, 6838.282
295.085, 6838.694
295.567, 6833.642
296.049, 6845.912
296.531, 6853.977
297.013, 6858.063
297.496, 6846.253
297.978, 6854.970
298.460, 6855.460
298.942, 6855.613
299.424, 6862.689
299.906, 6856.458
300.388, 6853.841
300.870, 6832.760
301.353, 6801.414
301.835, 6773.477
302.317, 6751.464
302.799, 6732.575
303.281, 6713.952
303.763, 6695.858
304.245, 6680.416
304.727, 6674.842
305.209, 6669.899
305.691, 6651.547
306.174, 6614.275
306.656, 6575.382
307.138, 6548.103
307.620, 6530.502
308.102, 6517.299
308.584, 6517.758
309.066, 6515.174
309.548, 6489.983
310.031, 6435.411
310.513, 6380.043
310.995, 6336.308
311.477, 6305.335
311.959, 6288.673
312.441, 6304.978
312.923, 6323.776
313.405, 6319.819
313.888, 6286.031
314.370, 6256.371
314.852, 6250.925
315.334, 6259.432
315.816, 6266.544
316.298, 6264.433
316.780, 6261.212
317.262, 6260.225
317.744, 6261.622
318.227, 6266.688
318.709, 6279.306
319.191, 6294.866
319.673, 6308.042
320.155, 6313.037
320.637, 6319.479
321.119, 6318.601
321.601, 6306.604
322.083, 6339.709
322.566, 6360.424
323.048, 6397.464
323.530, 6430.542
324.012, 6459.875
324.494, 6474.221
324.976, 6507.650
325.458, 6542.273
325.940, 6572.749
326.422, 6593.132
326.905, 6605.844
327.387, 6612.542
327.869, 6599.377
328.351, 6595.787
328.833, 6610.275
329.315, 6640.907
329.797, 6660.577
330.280, 6662.017
330.762, 6658.642
331.244, 6658.356
331.726, 6662.765
332.208, 6667.552
332.690, 6669.699
333.172, 6671.539
333.654, 6685.469
334.136, 6720.072
334.618, 6755.248
335.101, 6778.617
335.583, 6780.884
336.065, 6787.539
336.547, 6761.662
337.029, 6757.602
337.511, 6775.775
337.993, 6805.528
338.475, 6832.476
338.958, 6856.759
339.440, 6870.415
339.922, 6897.794
340.404, 6919.672
340.886, 6941.325
341.368, 6970.640
341.850, 6985.843
342.332, 7015.030
342.815, 7038.635
343.297, 7064.794
343.779, 7085.421
344.261, 7107.763
344.743, 7135.634
345.225, 7160.439
345.707, 7180.431
346.189, 7206.752
346.671, 7224.283
347.154, 7244.459
347.636, 7280.565
348.118, 7333.457
348.600, 7392.799
349.082, 7449.327
349.564, 7503.646
350.046, 7559.207
350.528, 7614.389
351.010, 7672.685
351.493, 7743.799
351.975, 7826.479
352.457, 7906.975
352.939, 7971.681
353.421, 8025.913
353.903, 8077.763
354.385, 8121.402
354.867, 8173.628
355.349, 8260.851
355.832, 8376.040
356.314, 8484.150
356.796, 8558.366
357.278, 8617.015
357.760, 8679.686
358.242, 8750.840
358.724, 8824.454
359.207, 8896.624
359.689, 8968.309
360.171, 9041.934
360.653, 9123.625
361.135, 9204.054
361.617, 9273.468
362.099, 9322.017
362.581, 9384.790
363.063, 9434.095
363.546, 9511.946
364.028, 9564.920
364.510, 9638.965
364.992, 9707.908
365.474, 9771.996
365.956, 9816.749
366.438, 9886.473
366.920, 9946.188
367.402, 10005.495
367.885, 10078.745
368.367, 10126.311
368.849, 10199.323
369.331, 10260.320
369.813, 10323.670
370.295, 10388.310
370.777, 10451.820
371.259, 10517.890
371.741, 10590.360
372.224, 10673.990
372.706, 10755.400
373.188, 10832.250
373.670, 10905.000
374.152, 10976.210
374.634, 11046.260
375.116, 11110.490
375.598, 11161.540
376.081, 11192.450
376.563, 11239.720
377.045, 11307.000
377.527, 11390.780
378.009, 11494.570
378.491, 11622.700
378.973, 11733.430
379.455, 11789.720
379.938, 11797.060
380.420, 11841.860
380.902, 11932.050
381.384, 12043.970
381.866, 12145.800
382.348, 12239.520
382.830, 12346.260
383.312, 12476.880
383.794, 12627.030
384.276, 12785.890
384.759, 12955.270
385.241, 13122.880
385.723, 13270.530
386.205, 13407.550
386.687, 13555.040
387.169, 13713.750
387.651, 13890.590
388.134, 14100.340
388.616, 14336.970
389.098, 14572.710
389.580, 14778.010
390.062, 14974.970
390.544, 15186.380
391.026, 15428.410
391.508, 15672.430
391.990, 15892.110
392.473, 16099.710
392.955, 16328.720
393.437, 16606.930
393.919, 16901.000
394.401, 17189.311
394.883, 17470.150
395.365, 17750.000
395.847, 18032.510
396.329, 18315.881
396.812, 18593.051
397.294, 18846.131
397.776, 19109.920
398.258, 19398.039
398.740, 19717.061
399.222, 20017.869
399.704, 20307.270
400.186, 20572.480
400.668, 20802.570
401.151, 20981.811
401.633, 21150.330
402.115, 21320.830
402.597, 21485.971
403.079, 21608.350
403.561, 21679.330
404.043, 21722.551
404.525, 21749.881
405.008, 21761.070
405.490, 21762.119
405.972, 21761.070
406.454, 21741.990
406.936, 21669.789
407.418, 21540.449
407.900, 21381.131
408.382, 21195.891
408.865, 20986.561
409.347, 20776.730
409.829, 20571.029
410.311, 20351.641
410.793, 20097.010
411.275, 19809.699
411.757, 19516.590
412.239, 19226.590
412.721, 18932.590
413.203, 18620.480
413.686, 18289.010
414.168, 17962.660
414.650, 17668.910
415.132, 17389.551
415.614, 17097.150
416.096, 16784.680
416.578, 16462.551
417.060, 16142.620
417.543, 15819.870
418.025, 15497.210
418.507, 15161.200
418.989, 14828.970
419.471, 14510.510
419.953, 14214.710
420.435, 13914.480
420.917, 13590.370
421.400, 13260.270
421.882, 12952.610
422.364, 12689.070
422.846, 12435.820
423.328, 12182.170
423.810, 11928.900
424.292, 11679.180
424.774, 11434.860
425.256, 11190.830
425.738, 10942.990
426.221, 10685.630
426.703, 10432.330
427.185, 10177.770
427.667, 9926.665
428.149, 9708.492
428.631, 9538.016
429.113, 9373.179
429.595, 9186.910
430.078, 8968.379
430.560, 8785.491
431.042, 8644.374
431.524, 8526.320
432.006, 8410.325
432.488, 8296.999
432.970, 8175.134
433.452, 8035.135
433.935, 7883.447
434.417, 7748.517
434.899, 7630.660
435.381, 7521.171
435.863, 7420.340
436.345, 7323.493
436.827, 7212.618
437.309, 7070.019
437.791, 6933.290
438.274, 6861.896
438.756, 6841.301
439.238, 6819.399
439.720, 6757.970
440.202, 6684.377
440.684, 6626.099
441.166, 6588.515
441.648, 6555.517
442.130, 6522.404
442.613, 6487.270
443.095, 6447.173
443.577, 6393.940
444.059, 6342.320
444.541, 6299.109
445.023, 6264.298
445.505, 6228.515
445.987, 6183.398
446.470, 6141.750
446.952, 6112.016
447.434, 6097.726
447.916, 6092.010
448.398, 6097.940
448.880, 6112.132
449.362, 6125.211
449.844, 6134.416
450.327, 6146.784
450.809, 6164.467
451.291, 6187.000
451.773, 6217.896
452.255, 6260.205
452.737, 6305.393
453.219, 6338.517
453.701, 6357.308
454.183, 6396.022
454.665, 6470.582
455.148, 6567.241
455.630, 6644.417
456.112, 6702.062
456.594, 6765.012
457.076, 6859.173
457.558, 6973.530
458.040, 7079.578
458.522, 7171.543
459.005, 7259.464
459.487, 7344.789
459.969, 7432.654
460.451, 7537.115
460.933, 7680.370
461.415, 7832.467
461.897, 7961.465
462.379, 8066.408
462.862, 8178.675
463.344, 8325.993
463.826, 8481.350
464.308, 8618.786
464.790, 8719.311
465.272, 8815.593
465.754, 8908.809
466.236, 9001.632
466.718, 9101.673
467.201, 9213.691
467.683, 9330.861
468.165, 9450.892
468.647, 9573.342
469.129, 9697.285
469.611, 9812.904
470.093, 9936.739
470.575, 10093.900
471.057, 10295.430
471.540, 10495.880
472.022, 10680.620
472.504, 10856.860
472.986, 11051.690
473.468, 11264.620
473.950, 11502.220
474.432, 11776.100
474.914, 12083.140
475.397, 12404.670
475.879, 12741.890
476.361, 13084.160
476.843, 13416.790
477.325, 13743.760
477.807, 14071.120
478.289, 14404.350
478.771, 14742.350
479.254, 14982.780
479.736, 15161.204
480.218, 15505.119
480.700, 15808.854
481.182, 16074.579
481.664, 16188.522
482.146, 16498.496
482.628, 16729.875
483.110, 17000.180
483.592, 16974.971
484.075, 16955.711
484.557, 16880.631
485.039, 16756.900
485.521, 16586.580
486.003, 16365.610
486.485, 16103.940
486.967, 15794.700
487.449, 15448.840
487.931, 15074.440
488.414, 14676.010
488.896, 14247.120
489.378, 13771.820
489.860, 13274.140
490.342, 12802.040
490.824, 12355.650
491.306, 11929.880
491.789, 11526.300
492.271, 11144.770
492.753, 10734.240
493.235, 10280.680
493.717, 9843.148
494.199, 9483.158
494.681, 9188.470
495.163, 8905.539
495.645, 8620.827
496.128, 8337.855
496.610, 8059.159
497.092, 7784.482
497.574, 7535.034
498.056, 7329.712
498.538, 7144.898
499.020, 6957.547
499.502, 6756.818
499.984, 6574.364
500.467, 6424.519
500.949, 6298.061
501.431, 6183.703
501.913, 6088.042
502.395, 5991.801
502.877, 5889.567
503.359, 5780.795
503.841, 5674.631
504.323, 5564.842
504.806, 5464.252
505.288, 5382.437
505.770, 5328.479
506.252, 5267.998
506.734, 5199.785
507.216, 5125.793
507.698, 5046.012
508.181, 4958.505
508.663, 4885.586
509.145, 4839.172
509.627, 4811.944
510.109, 4779.123
510.591, 4740.877
511.073, 4700.942
511.555, 4662.976
512.037, 4625.374
512.519, 4583.449
513.002, 4535.044
513.484, 4488.709
513.966, 4451.032
514.448, 4420.950
514.930, 4396.455
515.412, 4379.829
515.894, 4365.736
516.376, 4353.352
516.859, 4342.135
517.341, 4326.133
517.823, 4299.096
518.305, 4269.659
518.787, 4242.800
519.269, 4216.009
519.751, 4196.869
520.233, 4191.972
520.716, 4191.763
521.198, 4178.636
521.680, 4143.550
522.162, 4116.741
522.644, 4111.008
523.126, 4122.490
523.608, 4115.910
524.090, 4087.700
524.572, 4057.643
525.055, 4040.532
525.537, 4035.032
526.019, 4033.872
526.501, 4037.990
526.983, 4040.300
527.465, 4033.744
527.947, 4018.263
528.429, 3993.468
528.911, 3937.212
529.394, 3887.309
529.876, 3890.422
530.358, 3938.986
530.840, 3973.036
531.322, 3947.550
531.804, 3905.244
532.286, 3876.704
532.768, 3874.116
533.250, 3871.801
533.733, 3858.470
534.215, 3844.516
534.697, 3846.321
535.179, 3885.142
535.661, 3910.799
536.143, 3910.996
536.625, 3888.444
537.107, 3867.645
537.589, 3846.078
538.072, 3831.679
538.554, 3832.378
539.036, 3848.470
539.518, 3857.808
540.000, 3857.022
540.482, 3856.966
540.964, 3877.137
541.446, 3911.883
541.929, 3938.071
542.411, 3941.833
542.893, 3938.137
543.375, 3947.237
543.857, 3966.419
544.339, 3983.012
544.821, 3984.965
545.303, 3984.035
545.786, 3991.197
546.268, 4010.472
546.750, 4024.358
547.232, 4012.427
547.714, 3998.355
548.196, 4006.739
548.678, 4066.322
549.160, 4118.599
549.643, 4158.282
550.125, 4186.392
550.607, 4205.476
551.089, 4212.496
551.571, 4216.703
552.053, 4220.441
552.535, 4223.541
553.017, 4234.975
553.499, 4257.362
553.982, 4278.170
554.464, 4284.415
554.946, 4277.953
555.428, 4266.748
555.910, 4249.126
556.392, 4234.370
556.874, 4238.447
557.356, 4255.752
557.838, 4269.947
558.321, 4276.035
558.803, 4273.427
559.285, 4258.237
559.767, 4230.795
560.249, 4205.442
560.731, 4182.889
561.213, 4167.571
561.695, 4163.543
562.177, 4187.238
562.660, 4195.854
563.142, 4177.093
563.624, 4145.973
564.106, 4123.878
564.588, 4110.698
565.070, 4108.046
565.552, 4119.863
566.034, 4142.629
566.516, 4158.166
566.999, 4166.077
567.481, 4169.140
567.963, 4166.558
568.445, 4160.280
568.927, 4157.869
569.409, 4159.854
569.891, 4165.705
570.373, 4180.295
570.856, 4197.647
571.338, 4205.383
571.820, 4188.069
572.302, 4174.632
572.784, 4187.537
573.266, 4219.497
573.748, 4250.404
574.230, 4277.497
574.713, 4297.962
575.195, 4306.594
575.677, 4299.766
576.159, 4304.944
576.641, 4331.990
577.123, 4362.421
577.605, 4382.017
578.087, 4383.233
578.570, 4397.353
579.052, 4428.453
579.534, 4471.071
580.016, 4515.707
580.498, 4562.355
580.980, 4613.201
581.462, 4672.242
581.944, 4733.524
582.426, 4778.526
582.909, 4810.220
583.391, 4851.001
583.873, 4928.001
584.355, 5015.787
584.837, 5082.876
585.319, 5121.374
585.801, 5163.739
586.283, 5228.782
586.765, 5305.459
587.248, 5382.578
587.730, 5442.627
588.212, 5519.449
588.694, 5627.743
589.176, 5755.866
589.658, 5875.963
590.140, 5986.202
590.622, 6091.606
591.104, 6192.541
591.587, 6289.715
592.069, 6386.844
592.551, 6483.011
593.033, 6586.531
593.515, 6707.611
593.997, 6842.139
594.479, 6968.730
594.961, 7083.141
595.443, 7198.792
595.926, 7338.144
596.408, 7490.441
596.890, 7632.395
597.372, 7746.392
597.854, 7857.643
598.336, 7986.982
598.818, 8128.189
599.300, 8252.899
599.783, 8366.996
600.265, 8453.615
600.747, 8495.536
601.229, 8484.424
601.711, 8491.802
602.193, 8547.438
602.675, 8585.447
603.157, 8543.589
603.640, 8405.120
604.122, 8292.472
604.604, 8222.877
605.086, 8168.131
605.568, 8037.467
606.050, 7856.016
606.532, 7811.721
607.014, 7704.208
607.497, 7677.714
607.979, 7631.573
608.461, 7566.807
608.943, 7427.667
609.425, 7384.565
609.907, 7302.985
610.389, 7219.800
610.871, 7169.031
611.353, 7078.175
611.836, 7024.322
612.318, 6980.988
612.800, 6927.057
613.282, 6849.037
613.764, 6781.392
614.246, 6718.678
614.728, 6672.128
615.210, 6571.532
615.692, 6541.965
616.175, 6495.132
616.657, 6432.012
617.139, 6303.705
617.621, 6259.561
618.103, 6181.688
618.585, 6102.441
619.067, 6070.125
619.549, 5951.307
620.031, 5918.263
620.514, 5850.977
620.996, 5775.750
621.478, 5729.343
621.960, 5696.288
622.442, 5646.501
622.924, 5561.683
623.406, 5479.711
623.888, 5411.112
624.370, 5347.901
624.853, 5277.112
625.335, 5190.801
625.817, 5111.276
626.299, 5038.794
626.781, 4977.519
627.263, 4956.044
627.745, 4982.195
628.227, 4979.132
628.710, 4879.757
629.192, 4718.164
629.674, 4602.531
630.156, 4534.471
