##NAMES=Clinochalcomenite
##RRUFFID=R110125
##IDEAL CHEMISTRY=CuSe^4+^O_3_&#183;2H_2_O
##LOCALITY=El Dragon mine, Potosi, Bolivia
##OWNER=RRUFF
##SOURCE=Royal Ontario Museum
##DESCRIPTION=Aggregates of pale greenish-blue crystals associated with darker blue chalcomenite
##STATUS=The identification of this mineral is confirmed by single-crystal X-ray diffraction and chemical analysis.
##URL=rruff.info/R110125
##MEASURED CHEMISTRY=(Cu_0.99_Ni_0.02_Co_0.01_Fe_0.01_)_Σ=1.03_Se^+4^_1.11_O_3_·1.77H_2_O ; Note: water content determined by difference
175.4918, 62.47000
175.9739, 62.66590
176.4561, 62.88583
176.9382, 63.17472
177.4203, 63.33105
177.9024, 63.29468
178.3845, 63.18987
178.8666, 63.02770
179.3488, 62.83789
179.8309, 62.69432
180.3130, 62.70530
180.7951, 62.94384
181.2772, 63.18919
181.7593, 63.45969
182.2415, 63.72412
182.7236, 63.98141
183.2057, 64.22425
183.6878, 64.40684
184.1699, 64.44797
184.6520, 64.21476
185.1342, 64.10635
185.6163, 64.26250
186.0984, 64.49107
186.5805, 64.56187
187.0626, 64.39977
187.5447, 64.15482
188.0269, 64.07718
188.5090, 64.17661
188.9911, 64.34740
189.4732, 64.68700
189.9553, 65.06566
190.4374, 65.21828
190.9196, 65.01083
191.4017, 64.68289
191.8838, 64.63975
192.3659, 64.91331
192.8480, 65.04174
193.3301, 64.66187
193.8123, 63.92720
194.2944, 63.43040
194.7765, 63.45589
195.2586, 63.60659
195.7407, 63.42763
196.2228, 62.91379
196.7050, 62.39742
197.1871, 62.14933
197.6692, 62.15603
198.1513, 62.11218
198.6334, 61.96205
199.1155, 61.73305
199.5977, 61.38911
200.0798, 60.94284
200.5619, 60.55236
201.0440, 60.40907
201.5261, 60.55914
202.0082, 60.64492
202.4904, 60.60341
202.9725, 60.49765
203.4546, 60.33433
203.9367, 60.12307
204.4188, 59.89574
204.9009, 59.67752
205.3831, 59.44203
205.8652, 59.30390
206.3473, 59.33422
206.8294, 59.40196
207.3115, 59.43800
207.7936, 59.42907
208.2758, 59.40138
208.7579, 59.39030
209.2400, 59.40019
209.7221, 59.41914
210.2042, 59.51694
210.6863, 59.57557
211.1685, 59.44979
211.6506, 59.14017
212.1327, 58.83488
212.6148, 58.82454
213.0969, 59.36365
213.5790, 59.66311
214.0612, 59.52360
214.5433, 59.28621
215.0254, 59.25610
215.5075, 59.49397
215.9896, 59.79223
216.4717, 59.85343
216.9539, 59.55996
217.4360, 59.27708
217.9181, 58.92916
218.4002, 58.63389
218.8823, 58.55775
219.3644, 58.74324
219.8466, 58.98275
220.3287, 58.95961
220.8108, 58.60273
221.2929, 58.39771
221.7750, 58.51963
222.2571, 58.78564
222.7393, 58.99806
223.2214, 59.12506
223.7035, 59.14388
224.1856, 58.94158
224.6677, 58.53663
225.1498, 58.23940
225.6320, 58.21189
226.1141, 58.32116
226.5962, 58.34795
227.0783, 58.24502
227.5604, 58.09463
228.0425, 57.97443
228.5247, 57.87743
229.0068, 57.77016
229.4889, 57.58988
229.9710, 57.39543
230.4531, 57.32655
230.9352, 57.42516
231.4174, 57.59578
231.8995, 57.84368
232.3816, 58.11640
232.8637, 58.25150
233.3458, 58.07896
233.8279, 57.69933
234.3101, 57.43689
234.7922, 57.32985
235.2743, 57.30131
235.7564, 57.32722
236.2385, 57.38725
236.7206, 57.43982
237.2028, 57.45006
237.6849, 57.43321
238.1670, 57.46717
238.6491, 57.62926
239.1312, 57.72081
239.6133, 57.59832
240.0955, 57.36851
240.5776, 57.21338
241.0597, 57.25778
241.5418, 57.45791
242.0239, 57.59557
242.5060, 57.59000
242.9882, 57.63499
243.4703, 57.83654
243.9524, 58.10983
244.4345, 58.33159
244.9166, 58.42750
245.3987, 58.42173
245.8809, 58.42479
246.3630, 58.43663
246.8451, 58.45903
247.3272, 58.53327
247.8093, 58.60682
248.2914, 58.58781
248.7736, 58.41570
249.2557, 58.15792
249.7378, 58.09275
250.2199, 58.38515
250.7020, 58.68354
251.1841, 58.98566
251.6663, 59.25347
252.1484, 59.44384
252.6305, 59.53693
253.1126, 59.54553
253.5947, 59.50853
254.0768, 59.33258
254.5590, 59.22588
255.0411, 59.22432
255.5232, 59.28817
256.0053, 59.39333
256.4874, 59.52859
256.9695, 59.66039
257.4517, 59.70670
257.9338, 59.42881
258.4159, 59.36025
258.8980, 59.75090
259.3801, 60.24583
259.8622, 60.45222
260.3444, 60.23723
260.8265, 59.78628
261.3086, 59.43951
261.7907, 59.15016
262.2728, 59.07150
262.7549, 59.43076
263.2371, 59.89142
263.7192, 60.08606
264.2013, 59.92249
264.6834, 59.62192
265.1655, 59.51124
265.6476, 59.68622
266.1298, 59.84138
266.6119, 60.02575
267.0940, 60.15883
267.5761, 60.13963
268.0582, 59.95339
268.5403, 59.71045
269.0225, 59.54993
269.5046, 59.51064
269.9867, 59.35262
270.4688, 58.91175
270.9509, 58.44981
271.4330, 58.23124
271.9152, 58.27716
272.3973, 58.35393
272.8794, 58.22118
273.3615, 57.86024
273.8436, 57.63300
274.3257, 57.70467
274.8079, 57.79804
275.2900, 57.65015
275.7721, 57.26332
276.2542, 56.89280
276.7363, 56.72918
277.2184, 56.76580
277.7006, 56.79462
278.1827, 56.87359
278.6648, 56.89788
279.1469, 56.76749
279.6290, 56.49747
280.1111, 56.19394
280.5933, 55.86213
281.0754, 55.57357
281.5575, 55.51765
282.0396, 55.91381
282.5217, 56.27457
283.0038, 56.26771
283.4860, 55.94776
283.9681, 55.59659
284.4502, 55.32825
284.9323, 55.11551
285.4144, 54.88157
285.8965, 54.58955
286.3787, 54.36277
286.8608, 54.28064
287.3429, 54.32246
287.8250, 54.43100
288.3071, 54.63615
288.7892, 54.83207
289.2714, 54.85799
289.7535, 54.70074
290.2356, 54.52254
290.7177, 54.40214
291.1998, 54.31805
291.6819, 54.20247
292.1641, 54.02007
292.6462, 53.84413
293.1283, 53.74453
293.6104, 53.71431
294.0925, 53.74958
294.5746, 53.93782
295.0568, 54.17607
295.5389, 54.21499
296.0210, 53.95594
296.5031, 53.70714
296.9852, 53.80991
297.4673, 54.14706
297.9495, 54.40926
298.4316, 54.48785
298.9137, 54.43754
299.3958, 54.29560
299.8779, 54.03206
300.3600, 53.83115
300.8422, 53.91037
301.3243, 54.12389
301.8064, 54.21515
302.2885, 54.05489
302.7706, 53.82186
303.2527, 53.72479
303.7349, 53.77176
304.2170, 53.83495
304.6991, 53.85328
305.1812, 53.85489
305.6633, 53.88347
306.1454, 53.95824
306.6276, 54.02540
307.1097, 54.03917
307.5918, 54.00123
308.0739, 53.92936
308.5560, 53.77622
309.0381, 53.64278
309.5203, 53.67326
310.0024, 53.89150
310.4845, 54.05972
310.9666, 53.92985
311.4487, 53.58091
311.9308, 53.42402
312.4130, 53.62289
312.8951, 53.91590
313.3772, 54.08924
313.8593, 54.15010
314.3414, 54.11876
314.8235, 53.90792
315.3057, 53.61585
315.7878, 53.54829
316.2699, 53.85029
316.7520, 54.08556
317.2341, 53.80514
317.7162, 53.21616
318.1984, 52.76297
318.6805, 52.68682
319.1626, 52.80117
319.6447, 52.78904
320.1268, 52.61052
320.6089, 52.50839
321.0911, 52.72322
321.5732, 53.07389
322.0553, 53.31727
322.5374, 53.40453
323.0195, 53.37451
323.5016, 53.25117
323.9838, 53.03362
324.4659, 52.75594
324.9480, 52.34423
325.4301, 51.94466
325.9122, 51.73011
326.3943, 51.72206
326.8765, 51.82351
327.3586, 52.02867
327.8407, 52.30861
328.3228, 52.49579
328.8049, 52.53901
329.2870, 52.48962
329.7692, 52.39596
330.2513, 52.26142
330.7334, 52.11296
331.2155, 51.92154
331.6976, 51.72953
332.1797, 51.65456
332.6619, 51.74226
333.1440, 51.85304
333.6261, 51.83161
334.1082, 51.73992
334.5903, 51.73548
335.0724, 52.00751
335.5546, 52.32107
336.0367, 52.32823
336.5188, 52.00033
337.0009, 51.65863
337.4830, 51.47044
337.9651, 51.39769
338.4473, 51.36133
338.9294, 51.33783
339.4115, 51.37418
339.8936, 51.58976
340.3757, 51.94596
340.8578, 52.12696
341.3400, 51.93970
341.8221, 51.59428
342.3042, 51.39748
342.7863, 51.34820
343.2684, 51.41799
343.7505, 51.72358
344.2327, 52.13369
344.7148, 52.29889
345.1969, 52.09184
345.6790, 51.77244
346.1611, 51.63594
346.6432, 51.65290
347.1254, 51.67948
347.6075, 51.64290
348.0896, 51.61334
348.5717, 51.71875
349.0538, 51.97681
349.5359, 52.18388
350.0181, 52.14389
350.5002, 51.92036
350.9823, 51.81950
351.4644, 51.99441
351.9465, 52.17952
352.4286, 52.15971
352.9108, 51.97831
353.3929, 51.83696
353.8750, 51.82133
354.3571, 51.92120
354.8392, 52.11998
355.3214, 52.47734
355.8035, 52.78555
356.2856, 52.99234
356.7677, 53.09546
357.2498, 53.05788
357.7319, 52.85093
358.2141, 52.60052
358.6962, 52.47400
359.1783, 52.48119
359.6604, 52.54581
360.1425, 52.63657
360.6246, 52.79597
361.1068, 53.11249
361.5889, 53.57995
362.0710, 54.02423
362.5531, 54.29429
363.0352, 54.39020
363.5173, 54.51322
363.9995, 54.74691
364.4816, 54.92415
364.9637, 54.89232
365.4458, 54.73482
365.9279, 54.68145
366.4100, 54.86638
366.8922, 55.20084
367.3743, 55.39164
367.8564, 55.33712
368.3385, 55.29412
368.8206, 55.31365
369.3027, 55.35311
369.7849, 55.36650
370.2670, 55.34041
370.7491, 55.28738
371.2312, 55.23213
371.7133, 55.21016
372.1954, 55.05828
372.6776, 54.69203
373.1597, 54.27905
373.6418, 53.88137
374.1239, 53.52440
374.6060, 53.24696
375.0881, 53.08841
375.5703, 53.04458
376.0524, 52.94010
376.5345, 52.80645
377.0166, 52.57929
377.4987, 52.11224
377.9808, 51.57532
378.4630, 51.22604
378.9451, 51.18404
379.4272, 51.32959
379.9093, 51.37572
380.3914, 51.21999
380.8735, 51.13554
381.3557, 51.26139
381.8378, 51.36473
382.3199, 51.21516
382.8020, 50.81542
383.2841, 50.40126
383.7662, 50.25909
384.2484, 50.44329
384.7305, 50.51252
385.2126, 50.44347
385.6947, 50.27225
386.1768, 49.86964
386.6589, 49.37897
387.1411, 49.07784
387.6232, 49.15689
388.1053, 49.50735
388.5874, 49.75055
389.0695, 49.88908
389.5516, 49.90236
390.0338, 49.73141
390.5159, 49.48362
390.9980, 49.21013
391.4801, 48.92867
391.9622, 48.75106
392.4443, 48.89294
392.9265, 49.40702
393.4086, 49.72747
393.8907, 49.66785
394.3728, 49.49581
394.8549, 49.28380
395.3370, 49.07642
395.8192, 49.00191
396.3013, 49.25747
396.7834, 49.70637
397.2655, 49.87074
397.7476, 49.66189
398.2297, 49.39753
398.7119, 49.20237
399.1940, 49.06400
399.6761, 48.97763
400.1582, 48.94805
400.6403, 48.95607
401.1224, 48.99769
401.6046, 49.07017
402.0867, 49.12586
402.5688, 49.16011
403.0509, 49.15778
403.5330, 49.10175
404.0151, 48.99195
404.4973, 48.86472
404.9794, 48.67360
405.4615, 48.49268
405.9436, 48.48745
406.4257, 48.69704
406.9078, 48.92041
407.3900, 49.01894
407.8721, 48.99006
408.3542, 48.85965
408.8363, 48.50275
409.3184, 48.15838
409.8005, 47.98281
410.2827, 47.95099
410.7648, 47.98276
411.2469, 48.05129
411.7290, 48.14628
412.2111, 48.25002
412.6932, 48.37724
413.1754, 48.47610
413.6575, 48.54609
414.1396, 48.57878
414.6217, 48.56650
415.1038, 48.50743
415.5859, 48.39397
416.0681, 48.19818
416.5502, 47.90062
417.0323, 47.75919
417.5144, 47.92642
417.9965, 48.06407
418.4786, 47.98362
418.9608, 47.77873
419.4429, 47.64180
419.9250, 47.67319
420.4071, 47.82434
420.8892, 47.96436
421.3713, 48.10942
421.8535, 48.21418
422.3356, 48.31614
422.8177, 48.35574
423.2998, 48.24329
423.7819, 47.99443
424.2640, 47.73899
424.7462, 47.59549
425.2283, 47.56133
425.7104, 47.67598
426.1925, 48.23971
426.6746, 48.62253
427.1567, 48.52296
427.6389, 48.15449
428.1210, 47.85096
428.6031, 47.77459
429.0852, 47.82977
429.5673, 47.81535
430.0494, 47.69352
430.5316, 47.63861
431.0137, 47.80653
431.4958, 47.97657
431.9779, 47.97280
432.4600, 47.79824
432.9421, 47.63993
433.4243, 47.67365
433.9064, 47.84893
434.3885, 47.94256
434.8706, 47.92505
435.3527, 47.87090
435.8348, 47.80577
436.3170, 47.74001
436.7991, 47.69664
437.2812, 47.70861
437.7633, 47.70607
438.2454, 47.58917
438.7275, 47.37992
439.2097, 47.23339
439.6918, 47.20086
440.1739, 47.25820
440.6560, 47.38232
441.1381, 47.57305
441.6202, 47.78569
442.1024, 48.09628
442.5845, 48.37389
443.0666, 48.45669
443.5487, 48.33524
444.0308, 48.09118
444.5129, 47.72338
444.9951, 47.27821
445.4772, 47.16057
445.9593, 47.73780
446.4414, 48.16618
446.9235, 48.06361
447.4056, 47.68864
447.8878, 47.43923
448.3699, 47.45009
448.8520, 47.56807
449.3341, 47.54580
449.8162, 47.26562
450.2983, 47.18962
450.7805, 47.51685
451.2626, 47.83294
451.7447, 47.88971
452.2268, 47.74812
452.7089, 47.62666
453.1910, 47.68133
453.6732, 47.84914
454.1553, 47.85065
454.6374, 47.53166
455.1195, 47.30868
455.6016, 47.30207
456.0837, 47.37043
456.5659, 47.39447
457.0480, 47.35326
457.5301, 47.30918
458.0122, 47.35152
458.4943, 47.47717
458.9764, 47.50249
459.4586, 47.34178
459.9407, 47.20057
460.4228, 47.20282
460.9049, 47.29255
461.3870, 47.37450
461.8691, 47.42257
462.3513, 47.43781
462.8334, 47.39069
463.3155, 47.28602
463.7976, 47.26374
464.2797, 47.42874
464.7618, 47.62035
465.2440, 47.62206
465.7261, 47.43344
466.2082, 47.24266
466.6903, 47.05300
467.1724, 46.92622
467.6545, 46.99813
468.1367, 47.26211
468.6188, 47.46173
469.1009, 47.38562
469.5830, 47.11593
470.0651, 47.07003
470.5472, 47.47902
471.0294, 47.78735
471.5115, 47.75773
471.9936, 47.59015
472.4757, 47.56057
472.9578, 47.73129
473.4399, 47.92531
473.9221, 47.91132
474.4042, 47.62177
474.8863, 47.51994
475.3684, 47.77883
475.8505, 48.01772
476.3326, 48.11165
476.8148, 48.08582
477.2969, 47.97419
477.7790, 47.78945
478.2611, 47.59763
478.7432, 47.55444
479.2253, 47.71943
479.7075, 47.86547
480.1896, 47.94394
480.6717, 48.01683
481.1538, 48.13927
481.6359, 48.29404
482.1180, 48.40406
482.6002, 48.40014
483.0823, 48.31940
483.5644, 48.26105
484.0465, 48.22486
484.5286, 48.21740
485.0107, 48.33619
485.4929, 48.43330
485.9750, 48.28364
486.4571, 47.80729
486.9392, 47.38686
487.4213, 47.30272
487.9034, 47.43451
488.3856, 47.53428
488.8677, 47.56775
489.3498, 47.53390
489.8319, 47.41516
490.3140, 47.21537
490.7961, 47.03485
491.2783, 46.84069
491.7604, 46.69855
492.2425, 46.64865
492.7246, 46.66927
493.2067, 46.74309
493.6888, 46.86403
494.1710, 46.96721
494.6531, 46.94082
495.1352, 46.71642
495.6173, 46.57900
496.0994, 46.54956
496.5815, 46.57279
497.0637, 46.66325
497.5458, 46.78254
498.0279, 46.86257
498.5100, 46.86460
498.9921, 46.80590
499.4742, 46.71928
499.9564, 46.57465
500.4385, 46.47935
500.9206, 46.52372
501.4027, 46.56103
501.8848, 46.45409
502.3669, 46.23318
502.8491, 46.08484
503.3312, 46.17556
503.8133, 46.42237
504.2954, 46.60124
504.7775, 46.69982
505.2596, 46.79015
505.7418, 46.95301
506.2239, 47.09546
506.7060, 47.06098
507.1881, 46.78991
507.6702, 46.56223
508.1523, 46.51217
508.6345, 46.59794
509.1166, 46.80035
509.5987, 47.11757
510.0808, 47.37156
510.5629, 47.38642
511.0450, 47.19180
511.5272, 47.14666
512.0093, 47.46041
512.4914, 47.65425
512.9735, 47.45911
513.4556, 47.11714
513.9377, 46.93190
514.4199, 46.98998
514.9020, 47.20960
515.3841, 47.51534
515.8662, 47.93982
516.3483, 48.22334
516.8304, 48.28062
517.3126, 48.28078
517.7947, 48.28443
518.2768, 48.25424
518.7589, 48.11066
519.2410, 47.81696
519.7231, 47.48158
520.2053, 47.24916
520.6874, 47.12300
521.1695, 47.07120
521.6516, 47.17352
522.1337, 47.24048
522.6158, 47.09999
523.0980, 46.82256
523.5801, 46.61407
524.0622, 46.61118
524.5443, 46.64531
525.0264, 46.50388
525.5085, 46.22292
525.9907, 46.03947
526.4728, 46.06670
526.9549, 46.15610
527.4370, 46.07422
527.9191, 45.78923
528.4012, 45.54720
528.8834, 45.36467
529.3655, 45.23908
529.8476, 45.18815
530.3297, 45.19374
530.8118, 45.23198
531.2939, 45.29807
531.7761, 45.33634
532.2582, 45.17836
532.7403, 44.53808
533.2224, 44.23912
533.7045, 44.61864
534.1866, 45.01371
534.6688, 44.95149
535.1509, 44.54043
535.6330, 44.22245
536.1151, 44.31691
536.5972, 44.65818
537.0793, 44.79573
537.5615, 44.68409
538.0436, 44.55486
538.5257, 44.48498
539.0078, 44.41466
539.4899, 44.26913
539.9720, 44.05337
540.4542, 43.88756
540.9363, 43.85336
541.4184, 43.89289
541.9005, 43.94878
542.3826, 44.01436
542.8647, 44.02277
543.3469, 43.92127
543.8290, 43.75834
544.3111, 43.66245
544.7932, 43.66583
545.2753, 43.64962
545.7574, 43.62946
546.2396, 43.55943
546.7217, 43.32518
547.2038, 42.98059
547.6859, 42.75536
548.1680, 42.82236
548.6501, 43.11232
549.1323, 43.32856
549.6144, 43.51345
550.0965, 43.53712
550.5786, 43.15683
551.0607, 42.80754
551.5428, 42.93227
552.0250, 43.46090
552.5071, 43.84419
552.9892, 43.54314
553.4713, 42.84829
553.9534, 42.65073
554.4355, 43.04717
554.9177, 43.46674
555.3998, 43.76101
555.8819, 43.89962
556.3640, 43.82854
556.8461, 43.51815
557.3282, 43.23203
557.8104, 43.04564
558.2925, 42.95150
558.7746, 42.98218
559.2567, 43.11872
559.7388, 43.23390
560.2209, 43.25077
560.7031, 43.19378
561.1852, 43.14128
561.6673, 43.11422
562.1494, 43.06011
562.6315, 42.93443
563.1136, 42.81591
563.5958, 42.77019
564.0779, 42.78814
564.5600, 42.81786
565.0421, 42.82423
565.5242, 42.81239
566.0063, 42.80225
566.4885, 42.80235
566.9706, 42.77905
567.4527, 42.69384
567.9348, 42.60509
568.4169, 42.54445
568.8990, 42.51582
569.3812, 42.52229
569.8633, 42.59685
570.3454, 42.69129
570.8275, 42.74574
571.3096, 42.75886
571.7917, 42.70777
572.2739, 42.54942
572.7560, 42.37481
573.2381, 42.36349
573.7202, 42.56500
574.2023, 42.72263
574.6844, 42.80886
575.1666, 42.84836
575.6487, 42.85123
576.1308, 42.82191
576.6129, 42.75286
577.0950, 42.63654
577.5771, 42.51577
578.0593, 42.50982
578.5414, 42.72145
579.0235, 42.76543
579.5056, 42.44199
579.9877, 42.11399
580.4698, 41.90592
580.9520, 41.82373
581.4341, 41.87747
581.9162, 42.14016
582.3983, 42.39589
582.8804, 42.26414
583.3625, 41.79422
583.8447, 41.53919
584.3268, 41.67569
584.8089, 41.94948
585.2910, 42.13569
585.7731, 42.23677
586.2552, 42.26960
586.7374, 42.15398
587.2195, 42.05603
587.7016, 42.12641
588.1837, 42.25665
588.6658, 42.22117
589.1479, 41.96175
589.6301, 41.67035
590.1122, 41.58762
590.5943, 41.73650
591.0764, 41.87967
591.5585, 42.08971
592.0406, 42.20378
592.5228, 42.13988
593.0049, 41.98040
593.4870, 41.80223
593.9691, 41.62748
594.4512, 41.49007
594.9333, 41.41496
595.4155, 41.40245
595.8976, 41.47794
596.3797, 41.66968
596.8618, 41.82793
597.3439, 41.85501
597.8260, 41.78988
598.3082, 41.74413
598.7903, 41.74723
599.2724, 41.69605
599.7545, 41.47068
600.2366, 41.22836
600.7188, 41.14561
601.2009, 41.22506
601.6830, 41.37897
602.1651, 41.56281
602.6472, 41.74099
603.1293, 41.76648
603.6115, 41.48038
604.0936, 41.33617
604.5757, 41.51561
605.0578, 41.69781
605.5399, 41.60993
606.0220, 41.34088
606.5042, 41.22888
606.9863, 41.54421
607.4684, 41.99215
607.9505, 42.06742
608.4326, 41.77903
608.9147, 41.47669
609.3969, 41.20929
609.8790, 41.03498
610.3611, 41.08333
610.8432, 41.32972
611.3253, 41.45247
611.8074, 41.33041
612.2896, 41.16857
612.7717, 41.03764
613.2538, 40.95039
613.7359, 40.94953
614.2180, 41.03893
614.7001, 41.11755
615.1823, 41.04845
615.6644, 40.81847
616.1465, 40.71735
616.6286, 40.86926
617.1107, 40.98092
617.5928, 40.96790
618.0750, 40.88671
618.5571, 40.77658
619.0392, 40.64924
619.5213, 40.55040
620.0034, 40.53553
620.4855, 40.56897
620.9677, 40.54660
621.4498, 40.46056
621.9319, 40.45443
622.4140, 40.61770
622.8961, 40.88423
623.3782, 41.14533
623.8604, 41.47146
624.3425, 41.57806
624.8246, 41.23262
625.3067, 40.83497
625.7888, 40.65068
626.2709, 40.63887
626.7531, 40.64817
627.2352, 40.60504
627.7173, 40.53102
628.1994, 40.44320
628.6815, 40.31614
629.1636, 40.32378
629.6458, 40.60345
630.1279, 40.85296
630.6100, 40.89212
631.0921, 40.81010
631.5742, 40.77684
632.0563, 40.86753
632.5385, 40.91161
633.0206, 40.64642
633.5027, 40.28310
633.9848, 40.32662
634.4669, 40.83915
634.9490, 41.33463
635.4312, 41.47151
635.9133, 41.29902
636.3954, 41.04642
636.8775, 40.52012
637.3596, 40.18084
637.8417, 40.13370
638.3239, 40.20528
638.8060, 40.32834
639.2881, 40.46116
639.7702, 40.53314
640.2523, 40.49009
640.7344, 40.39410
641.2166, 40.37815
641.6987, 40.44759
642.1808, 40.45655
642.6629, 40.32428
643.1450, 40.20971
643.6271, 40.32658
644.1093, 40.59588
644.5914, 40.71658
645.0735, 40.48858
645.5556, 40.28614
646.0377, 40.31160
646.5198, 40.45765
647.0020, 40.59163
647.4841, 40.67906
647.9662, 40.72575
648.4483, 40.74250
648.9304, 40.72011
649.4125, 40.57077
649.8947, 40.15153
650.3768, 39.87905
650.8589, 39.94951
651.3410, 40.08488
651.8231, 40.09975
652.3052, 39.99638
652.7874, 39.87062
653.2695, 39.72088
653.7516, 39.61950
654.2337, 39.71907
654.7158, 39.96429
655.1979, 40.07821
655.6801, 39.96554
656.1622, 39.79827
656.6443, 39.76046
657.1264, 39.85810
657.6085, 39.97786
658.0906, 40.17354
658.5728, 40.32129
659.0549, 40.39915
659.5370, 40.41170
660.0191, 40.31873
660.5012, 40.14545
660.9833, 40.03502
661.4655, 40.13818
661.9476, 40.37422
662.4297, 40.48969
662.9118, 40.47511
663.3939, 40.41441
663.8760, 40.32873
664.3582, 40.21249
664.8403, 40.00391
665.3224, 39.71589
665.8045, 39.59742
666.2866, 39.84452
666.7687, 40.10677
667.2509, 40.19276
667.7330, 40.16195
668.2151, 40.10364
