##NAMES=Clinoptilolite-Ca
##RRUFFID=R061098
##IDEAL CHEMISTRY=Ca_3_(Si_30_Al_6_)O_72_&#183;20H_2_O
##LOCALITY=Fish Creek Quarry, Clackamas River, Estacada, Clackamas County, Oregon, USA
##OWNER=RRUFF
##SOURCE=Michael Scott
##DESCRIPTION=Druse of colorless, clear tabular somewhat pseudohexagonal crystals in vug
##STATUS=The identification of this mineral is confirmed by single-crystal X-ray diffraction and chemical analysis.
##URL=rruff.info/R061098
##MEASURED CHEMISTRY=(Ca_1.90_K_1.85_Na_0.23_Mg_0.11_)_Σ=4.09_(Si_29.90_Al_6.10_)_Σ=36_O_72_·21.90H_2_O; H_2_O estimated by difference
128.8611, 2002.726
129.3432, 2156.514
129.8254, 2290.193
130.3075, 2416.696
130.7896, 2514.509
131.2717, 2567.242
131.7538, 2583.050
132.2359, 2583.766
132.7181, 2587.271
133.2002, 2594.928
133.6823, 2574.685
134.1644, 2515.803
134.6465, 2444.912
135.1286, 2364.622
135.6108, 2280.888
136.0929, 2208.480
136.5750, 2160.798
137.0571, 2141.180
137.5392, 2137.191
138.0213, 2150.957
138.5035, 2177.111
138.9856, 2208.062
139.4677, 2244.485
139.9498, 2298.974
140.4319, 2386.481
140.9140, 2514.311
141.3961, 2641.546
141.8783, 2771.293
142.3604, 2898.205
142.8425, 3012.282
143.3246, 3111.818
143.8067, 3215.298
144.2888, 3344.796
144.7710, 3501.717
145.2531, 3664.884
145.7352, 3838.775
146.2173, 3960.789
146.6994, 3998.517
147.1815, 3990.814
147.6637, 3963.252
148.1458, 3942.570
148.6279, 3928.375
149.1100, 3901.484
149.5921, 3846.338
150.0742, 3777.955
150.5564, 3721.745
151.0385, 3682.714
151.5206, 3650.635
152.0027, 3612.408
152.4848, 3567.793
152.9669, 3529.000
153.4491, 3502.058
153.9312, 3483.156
154.4133, 3465.140
154.8954, 3447.259
155.3775, 3426.964
155.8596, 3398.742
156.3418, 3362.769
156.8239, 3331.413
157.3060, 3313.264
157.7881, 3304.797
158.2702, 3293.264
158.7523, 3274.072
159.2345, 3254.400
159.7166, 3241.303
160.1987, 3234.539
160.6808, 3228.799
161.1629, 3221.333
161.6451, 3212.576
162.1272, 3204.454
162.6093, 3199.968
163.0914, 3193.716
163.5735, 3185.323
164.0556, 3174.755
164.5378, 3154.044
165.0199, 3110.084
165.5020, 3046.035
165.9841, 2996.369
166.4662, 2973.812
166.9483, 2961.194
167.4305, 2948.604
167.9126, 2935.303
168.3947, 2917.739
168.8768, 2886.735
169.3589, 2842.502
169.8410, 2815.820
170.3232, 2832.511
170.8053, 2849.629
171.2874, 2834.317
171.7695, 2786.140
172.2516, 2736.255
172.7337, 2715.694
173.2159, 2726.023
173.6980, 2729.885
174.1801, 2718.991
174.6622, 2701.426
175.1443, 2678.467
175.6264, 2651.098
176.1085, 2626.444
176.5907, 2612.857
177.0728, 2611.304
177.5549, 2609.117
178.0370, 2602.249
178.5191, 2596.127
179.0012, 2595.727
179.4834, 2600.688
179.9655, 2603.993
180.4476, 2598.828
180.9297, 2584.718
181.4118, 2565.677
181.8939, 2529.195
182.3761, 2497.445
182.8582, 2485.662
183.3403, 2493.440
183.8224, 2504.542
184.3045, 2500.002
184.7866, 2476.399
185.2688, 2460.277
185.7509, 2461.858
186.2330, 2465.864
186.7151, 2465.917
187.1972, 2461.310
187.6793, 2454.505
188.1615, 2449.589
188.6436, 2448.439
189.1257, 2438.328
189.6078, 2401.173
190.0899, 2368.309
190.5720, 2358.808
191.0542, 2371.130
191.5363, 2386.091
192.0184, 2379.238
192.5005, 2343.728
192.9826, 2327.965
193.4647, 2360.183
193.9469, 2391.613
194.4290, 2398.923
194.9111, 2383.052
195.3932, 2361.970
195.8753, 2354.075
196.3574, 2362.112
196.8396, 2365.685
197.3217, 2364.661
197.8038, 2358.816
198.2859, 2345.564
198.7680, 2326.306
199.2501, 2306.141
199.7323, 2289.503
200.2144, 2276.425
200.6965, 2265.888
201.1786, 2259.051
201.6607, 2253.966
202.1428, 2252.184
202.6250, 2252.173
203.1071, 2249.570
203.5892, 2239.007
204.0713, 2219.563
204.5534, 2205.287
205.0355, 2200.359
205.5177, 2197.218
205.9998, 2193.394
206.4819, 2189.102
206.9640, 2186.117
207.4461, 2188.355
207.9282, 2195.802
208.4104, 2189.790
208.8925, 2150.161
209.3746, 2116.960
209.8567, 2108.063
210.3388, 2116.619
210.8209, 2125.313
211.3030, 2120.519
211.7852, 2103.674
212.2673, 2093.613
212.7494, 2092.965
213.2315, 2097.139
213.7136, 2110.545
214.1957, 2127.183
214.6779, 2136.141
215.1600, 2128.506
215.6421, 2107.341
216.1242, 2092.607
216.6063, 2091.421
217.0884, 2087.439
217.5706, 2070.269
218.0527, 2048.271
218.5348, 2035.887
219.0169, 2044.371
219.4990, 2065.927
219.9811, 2068.869
220.4633, 2038.484
220.9454, 2012.144
221.4275, 2001.535
221.9096, 2000.160
222.3917, 1999.927
222.8738, 1997.052
223.3560, 1992.751
223.8381, 1990.736
224.3202, 1993.654
224.8023, 1993.483
225.2844, 1983.498
225.7665, 1971.576
226.2487, 1966.495
226.7308, 1972.168
227.2129, 1984.104
227.6950, 1994.121
228.1771, 2001.954
228.6592, 2008.299
229.1414, 2018.084
229.6235, 2024.137
230.1056, 2017.058
230.5877, 1993.068
231.0698, 1965.361
231.5519, 1954.739
232.0341, 1966.569
232.5162, 1974.624
232.9983, 1967.271
233.4804, 1957.531
233.9625, 1954.450
234.4446, 1959.965
234.9268, 1968.617
235.4089, 1973.336
235.8910, 1973.216
236.3731, 1977.639
236.8552, 1993.756
237.3373, 2011.111
237.8195, 2023.507
238.3016, 2030.304
238.7837, 2033.675
239.2658, 2035.122
239.7479, 2034.661
240.2300, 2032.071
240.7122, 2023.796
241.1943, 2017.179
241.6764, 2017.359
242.1585, 2023.851
242.6406, 2032.379
243.1227, 2042.755
243.6049, 2053.684
244.0870, 2056.695
244.5691, 2045.423
245.0512, 2034.727
245.5333, 2035.538
246.0154, 2045.413
246.4975, 2056.195
246.9797, 2063.487
247.4618, 2068.699
247.9439, 2076.111
248.4260, 2087.358
248.9081, 2097.139
249.3902, 2100.075
249.8724, 2098.954
250.3545, 2099.418
250.8366, 2105.867
251.3187, 2113.988
251.8008, 2115.153
252.2829, 2107.448
252.7651, 2103.274
253.2472, 2114.437
253.7293, 2133.637
254.2114, 2148.165
254.6935, 2156.434
255.1756, 2158.481
255.6578, 2150.474
256.1399, 2115.392
256.6220, 2141.856
257.1041, 2158.937
257.5862, 2167.139
258.0684, 2139.870
258.5505, 2158.405
259.0326, 2175.959
259.5147, 2181.987
259.9968, 2178.522
260.4789, 2176.884
260.9611, 2182.401
261.4432, 2190.727
261.9253, 2194.098
262.4074, 2192.493
262.8895, 2187.383
263.3716, 2177.698
263.8537, 2165.110
264.3358, 2152.098
264.8180, 2138.793
265.3001, 2127.359
265.7822, 2122.214
266.2643, 2124.367
266.7464, 2125.526
267.2285, 2121.362
267.7107, 2116.605
268.1928, 2119.497
268.6749, 2131.519
269.1570, 2141.506
269.6391, 2135.815
270.1212, 2109.718
270.6034, 2091.094
271.0855, 2083.902
271.5676, 2081.312
272.0497, 2078.229
272.5318, 2074.587
273.0139, 2074.251
273.4961, 2081.971
273.9782, 2097.957
274.4603, 2101.647
274.9424, 2079.405
275.4245, 2060.426
275.9066, 2059.727
276.3888, 2072.369
276.8709, 2085.439
277.3530, 2091.488
277.8351, 2091.195
278.3172, 2088.407
278.7993, 2078.173
279.2815, 2071.345
279.7636, 2071.736
280.2457, 2075.916
280.7278, 2079.424
281.2099, 2080.362
281.6920, 2079.702
282.1742, 2079.771
282.6563, 2082.316
283.1384, 2082.861
283.6205, 2081.027
284.1026, 2077.510
284.5847, 2072.080
285.0669, 2065.065
285.5490, 2058.115
286.0311, 2053.280
286.5132, 2050.085
286.9953, 2050.584
287.4774, 2059.416
287.9596, 2067.775
288.4417, 2070.454
288.9238, 2068.012
289.4059, 2064.781
289.8880, 2064.699
290.3701, 2067.800
290.8523, 2069.956
291.3344, 2070.808
291.8165, 2070.926
292.2986, 2070.725
292.7807, 2069.926
293.2628, 2067.616
293.7450, 2062.133
294.2271, 2055.552
294.7092, 2055.498
295.1913, 2066.276
295.6734, 2073.971
296.1555, 2071.420
296.6377, 2063.978
297.1198, 2057.414
297.6019, 2053.709
298.0840, 2050.856
298.5661, 2044.647
299.0482, 2034.293
299.5304, 2029.843
300.0125, 2040.173
300.4946, 2053.735
300.9767, 2060.710
301.4588, 2060.521
301.9409, 2052.371
302.4231, 2009.986
302.9052, 2033.236
303.3873, 2047.103
303.8694, 2052.091
304.3515, 2021.606
304.8336, 2036.927
305.3158, 2033.891
305.7979, 2030.102
306.2800, 2051.870
306.7621, 2026.545
307.2442, 2047.907
307.7263, 2054.196
308.2085, 2058.434
308.6906, 2056.011
309.1727, 2047.383
309.6548, 2040.448
310.1369, 2035.506
310.6190, 2032.258
311.1012, 2027.146
311.5833, 2002.440
312.0654, 2026.681
312.5475, 2041.538
313.0296, 2047.516
313.5117, 2018.022
313.9939, 2034.334
314.4760, 2032.288
314.9581, 2029.490
315.4402, 2052.248
315.9223, 2050.867
316.4044, 2058.689
316.8866, 2067.439
317.3687, 2075.256
317.8508, 2082.941
318.3329, 2087.634
318.8150, 2086.714
319.2971, 2084.946
319.7793, 2084.972
320.2614, 2087.374
320.7435, 2092.011
321.2256, 2099.042
321.7077, 2108.799
322.1898, 2117.642
322.6720, 2130.163
323.1541, 2137.160
323.6362, 2133.597
324.1183, 2122.652
324.6004, 2108.955
325.0826, 2093.901
325.5647, 2080.427
326.0468, 2081.279
326.5289, 2109.727
327.0110, 2126.711
327.4931, 2112.412
327.9753, 2089.001
328.4574, 2078.268
328.9395, 2087.002
329.4216, 2102.611
329.9037, 2109.668
330.3858, 2107.520
330.8680, 2107.315
331.3501, 2113.851
331.8322, 2120.355
332.3143, 2121.066
332.7964, 2116.242
333.2785, 2110.901
333.7606, 2106.447
334.2427, 2103.700
334.7249, 2105.798
335.2070, 2114.443
335.6891, 2123.019
336.1712, 2125.663
336.6533, 2124.031
337.1354, 2122.992
337.6176, 2123.299
338.0997, 2124.559
338.5818, 2125.666
339.0639, 2127.025
339.5460, 2131.843
340.0281, 2143.212
340.5103, 2157.882
340.9924, 2165.785
341.4745, 2162.522
341.9566, 2160.826
342.4387, 2171.274
342.9208, 2182.977
343.4030, 2176.481
343.8851, 2146.450
344.3672, 2111.308
344.8493, 2097.527
345.3314, 2114.414
345.8135, 2126.904
346.2957, 2135.099
346.7778, 2139.322
347.2599, 2135.991
347.7420, 2127.994
348.2241, 2124.631
348.7062, 2134.425
349.1884, 2155.908
349.6705, 2167.195
350.1526, 2153.860
350.6347, 2146.800
351.1168, 2159.538
351.5989, 2178.967
352.0811, 2186.328
352.5632, 2173.395
353.0453, 2153.818
353.5274, 2154.437
354.0095, 2182.998
354.4916, 2203.140
354.9738, 2196.053
355.4559, 2187.276
355.9380, 2195.714
356.4201, 2220.814
356.9022, 2242.413
357.3843, 2239.051
357.8665, 2217.790
358.3486, 2209.853
358.8307, 2219.184
359.3128, 2237.398
359.7949, 2265.732
360.2770, 2298.667
360.7592, 2323.712
361.2413, 2335.523
361.7234, 2339.823
362.2055, 2340.121
362.6876, 2336.866
363.1697, 2333.415
363.6519, 2330.340
364.1340, 2328.947
364.6161, 2332.696
365.0982, 2343.304
365.5803, 2354.072
366.0624, 2360.494
366.5446, 2367.140
367.0267, 2382.008
367.5088, 2406.339
367.9909, 2431.785
368.4730, 2448.706
368.9551, 2455.920
369.4373, 2459.826
369.9194, 2454.877
370.4015, 2452.445
370.8836, 2457.753
371.3657, 2469.923
371.8478, 2486.709
372.3300, 2507.373
372.8121, 2530.160
373.2942, 2548.078
373.7763, 2555.216
374.2584, 2566.966
374.7405, 2590.707
375.2227, 2616.185
375.7048, 2633.274
376.1869, 2640.080
376.6690, 2645.460
377.1511, 2662.008
377.6332, 2690.268
378.1154, 2708.415
378.5975, 2705.962
379.0796, 2704.152
379.5617, 2718.551
380.0438, 2744.024
380.5259, 2765.450
381.0081, 2768.931
381.4902, 2768.531
381.9723, 2789.717
382.4544, 2833.723
382.9365, 2873.184
383.4186, 2892.700
383.9008, 2900.246
384.3829, 2914.619
384.8650, 2938.796
385.3471, 2962.861
385.8292, 2979.042
386.3113, 2993.392
386.7935, 3017.179
387.2756, 3053.271
387.7577, 3094.357
388.2398, 3132.719
388.7219, 3168.582
389.2040, 3200.221
389.6862, 3218.129
390.1683, 3241.228
390.6504, 3284.894
391.1325, 3342.127
391.6146, 3393.853
392.0967, 3428.668
392.5789, 3451.225
393.0610, 3477.870
393.5431, 3506.884
394.0252, 3543.872
394.5073, 3594.573
394.9894, 3648.982
395.4716, 3698.662
395.9537, 3742.252
396.4358, 3785.542
396.9179, 3838.324
397.4000, 3900.144
397.8821, 3946.710
398.3643, 3964.524
398.8464, 3985.698
399.3285, 4033.891
399.8106, 4097.905
400.2927, 4154.129
400.7748, 4191.063
401.2570, 4219.998
401.7391, 4256.964
402.2212, 4300.630
402.7033, 4332.858
403.1854, 4343.741
403.6675, 4342.377
404.1497, 4344.117
404.6317, 4348.737
405.1139, 4356.062
405.5960, 4370.391
406.0781, 4384.996
406.5602, 4394.413
407.0423, 4397.240
407.5244, 4391.181
408.0066, 4373.825
408.4887, 4345.169
408.9708, 4311.099
409.4529, 4267.524
409.9350, 4223.774
410.4171, 4185.773
410.8993, 4147.887
411.3814, 4100.792
411.8635, 4041.001
412.3456, 3977.056
412.8277, 3925.069
413.3098, 3890.942
413.7920, 3847.644
414.2741, 3781.948
414.7562, 3716.394
415.2383, 3663.728
415.7204, 3621.135
416.2025, 3576.888
416.6847, 3521.979
417.1668, 3461.697
417.6489, 3407.853
418.1310, 3361.425
418.6131, 3315.118
419.0952, 3266.904
419.5774, 3215.900
420.0595, 3159.649
420.5416, 3093.506
421.0237, 3034.151
421.5058, 2996.384
421.9879, 2968.552
422.4701, 2929.867
422.9522, 2876.080
423.4343, 2818.639
423.9164, 2768.949
424.3985, 2727.887
424.8806, 2684.584
425.3628, 2636.189
425.8449, 2588.676
426.3270, 2540.046
426.8091, 2494.852
427.2912, 2462.289
427.7733, 2446.883
428.2555, 2438.956
428.7376, 2417.997
429.2197, 2377.362
429.7018, 2340.840
430.1839, 2310.960
430.6660, 2284.652
431.1482, 2260.303
431.6303, 2238.130
432.1124, 2219.490
432.5945, 2208.056
433.0766, 2199.963
433.5587, 2183.275
434.0409, 2155.447
434.5230, 2131.410
435.0051, 2119.320
435.4872, 2114.708
435.9693, 2111.536
436.4514, 2112.276
436.9336, 2106.240
437.4157, 2080.283
437.8978, 2046.571
438.3799, 2027.375
438.8620, 2026.843
439.3441, 2029.256
439.8263, 2019.051
440.3084, 1995.261
440.7905, 1979.118
441.2726, 1976.072
441.7547, 1973.289
442.2368, 1964.449
442.7190, 1953.641
443.2011, 1947.239
443.6832, 1947.744
444.1653, 1952.956
444.6474, 1961.218
445.1295, 1976.339
445.6117, 1980.719
446.0938, 1962.804
446.5759, 1943.249
447.0580, 1929.192
447.5401, 1921.165
448.0222, 1918.952
448.5044, 1923.976
448.9865, 1933.392
449.4686, 1943.538
449.9507, 1954.555
450.4328, 1962.565
450.9149, 1962.860
451.3971, 1962.455
451.8792, 1974.244
452.3613, 2001.382
452.8434, 2023.428
453.3255, 2028.103
453.8076, 2028.496
454.2898, 2040.027
454.7719, 2062.944
455.2540, 2086.279
455.7361, 2101.512
456.2182, 2110.213
456.7003, 2124.537
457.1825, 2153.908
457.6646, 2177.602
458.1467, 2186.594
458.6288, 2192.884
459.1109, 2209.139
459.5930, 2237.481
460.0752, 2269.068
460.5573, 2294.635
461.0394, 2314.241
461.5215, 2334.775
462.0036, 2355.345
462.4857, 2378.595
462.9679, 2411.758
463.4500, 2446.845
463.9321, 2469.652
464.4142, 2471.212
464.8963, 2472.151
465.3784, 2492.604
465.8606, 2526.137
466.3427, 2551.867
466.8248, 2563.754
467.3069, 2571.748
467.7890, 2585.972
468.2711, 2607.065
468.7533, 2632.876
469.2354, 2674.819
469.7175, 2709.786
470.1996, 2716.743
470.6817, 2710.604
471.1638, 2722.390
471.6460, 2766.012
472.1281, 2823.322
472.6102, 2859.532
473.0923, 2865.814
473.5744, 2877.548
474.0565, 2898.267
474.5387, 2923.431
475.0208, 2951.148
475.5029, 2981.840
475.9850, 3017.909
476.4671, 3066.944
476.9492, 3115.309
477.4313, 3137.046
477.9135, 3132.552
478.3956, 3134.454
478.8777, 3160.130
479.3598, 3189.874
479.8419, 3189.210
480.3240, 3154.998
480.8062, 3127.222
481.2883, 3122.035
481.7704, 3120.003
482.2525, 3106.455
482.7346, 3081.394
483.2167, 3049.374
483.6989, 3013.136
484.1810, 2972.969
484.6631, 2930.646
485.1452, 2889.221
485.6273, 2839.589
486.1094, 2774.663
486.5916, 2707.964
487.0737, 2647.095
487.5558, 2593.114
488.0379, 2543.567
488.5200, 2496.791
489.0021, 2453.443
489.4843, 2417.614
489.9664, 2391.289
490.4485, 2360.657
490.9306, 2321.497
491.4127, 2273.027
491.8948, 2209.785
492.3770, 2123.794
492.8591, 2057.657
493.3412, 2038.787
493.8233, 2039.345
494.3054, 2033.948
494.7875, 2018.372
495.2697, 1989.068
495.7518, 1940.532
496.2339, 1879.236
496.7160, 1839.631
497.1981, 1839.806
497.6802, 1836.926
498.1624, 1826.406
498.6445, 1812.468
499.1266, 1797.829
499.6087, 1783.157
500.0908, 1768.358
500.5729, 1751.947
501.0551, 1735.450
501.5372, 1726.370
502.0193, 1727.567
502.5014, 1723.968
502.9835, 1702.919
503.4656, 1676.562
503.9478, 1666.370
504.4299, 1678.544
504.9120, 1685.064
505.3941, 1669.554
505.8762, 1645.937
506.3583, 1631.432
506.8405, 1626.719
507.3226, 1620.535
507.8047, 1603.631
508.2868, 1579.661
508.7689, 1569.209
509.2510, 1588.359
509.7332, 1598.215
510.2153, 1589.318
510.6974, 1574.702
511.1795, 1561.489
511.6616, 1552.195
512.1437, 1550.710
512.6259, 1566.641
513.1080, 1591.616
513.5901, 1595.245
514.0722, 1573.326
514.5543, 1554.002
515.0364, 1549.500
515.5186, 1554.863
516.0007, 1562.880
516.4828, 1576.281
516.9649, 1581.347
517.4470, 1566.083
517.9291, 1545.567
518.4113, 1535.117
518.8934, 1534.777
519.3755, 1536.466
519.8576, 1535.019
520.3397, 1531.396
520.8218, 1528.785
521.3040, 1523.871
521.7861, 1526.286
522.2682, 1547.640
522.7503, 1566.950
523.2324, 1566.878
523.7145, 1550.140
524.1967, 1534.341
524.6788, 1532.350
525.1609, 1537.319
525.6430, 1535.248
526.1251, 1525.999
526.6072, 1517.975
527.0894, 1512.999
527.5715, 1512.329
528.0536, 1522.085
528.5357, 1546.573
529.0178, 1555.571
529.4999, 1528.347
529.9821, 1498.560
530.4642, 1493.670
530.9463, 1506.367
531.4284, 1513.302
531.9105, 1502.190
532.3926, 1481.689
532.8748, 1470.547
533.3569, 1471.578
533.8390, 1472.521
534.3211, 1467.920
534.8032, 1467.835
535.2853, 1483.336
535.7675, 1507.559
536.2496, 1522.050
536.7317, 1516.272
537.2138, 1502.539
537.6959, 1491.686
538.1780, 1483.541
538.6602, 1477.245
539.1423, 1472.385
539.6244, 1470.741
540.1065, 1476.004
540.5886, 1490.086
541.0707, 1494.181
541.5529, 1479.578
542.0350, 1465.868
542.5171, 1458.882
542.9992, 1457.281
543.4813, 1459.291
543.9634, 1464.180
544.4456, 1470.681
544.9277, 1478.343
545.4098, 1487.036
545.8919, 1492.337
546.3740, 1494.119
546.8561, 1492.457
547.3383, 1483.997
547.8204, 1473.067
548.3025, 1467.636
548.7846, 1471.210
549.2667, 1473.539
549.7488, 1466.404
550.2310, 1457.056
550.7131, 1456.925
551.1952, 1466.254
551.6773, 1474.806
552.1594, 1474.231
552.6415, 1467.055
553.1237, 1468.003
553.6058, 1491.016
554.0879, 1498.223
554.5700, 1468.952
555.0521, 1437.090
555.5342, 1428.738
556.0164, 1442.908
556.4985, 1459.733
556.9806, 1470.719
557.4627, 1474.846
557.9448, 1466.624
558.4269, 1447.074
558.9091, 1432.937
559.3912, 1431.491
559.8733, 1435.572
560.3554, 1433.664
560.8375, 1421.817
561.3196, 1420.502
561.8018, 1442.826
562.2839, 1462.709
562.7660, 1467.081
563.2481, 1459.748
563.7302, 1447.773
564.2123, 1433.987
564.6945, 1420.241
565.1766, 1407.245
565.6587, 1394.676
566.1408, 1394.005
566.6229, 1414.073
567.1050, 1430.748
567.5872, 1421.767
568.0693, 1400.725
568.5514, 1392.894
569.0335, 1406.293
569.5156, 1422.901
569.9977, 1439.430
570.4799, 1451.746
570.9620, 1453.564
571.4441, 1444.550
571.9262, 1427.186
572.4083, 1400.596
572.8904, 1370.436
573.3726, 1366.797
573.8547, 1410.537
574.3368, 1441.066
574.8189, 1443.848
575.3010, 1436.142
575.7831, 1426.179
576.2653, 1415.649
576.7474, 1406.666
577.2295, 1398.655
577.7116, 1393.995
578.1937, 1398.026
578.6758, 1408.871
579.1580, 1416.249
579.6401, 1416.095
580.1222, 1415.057
580.6042, 1423.227
581.0864, 1444.364
581.5685, 1452.309
582.0506, 1438.391
582.5327, 1423.135
583.0148, 1407.912
583.4969, 1397.490
583.9791, 1401.258
584.4612, 1420.800
584.9433, 1439.403
585.4254, 1437.340
585.9075, 1419.889
586.3896, 1409.120
586.8718, 1406.391
587.3539, 1407.779
587.8360, 1413.491
588.3181, 1420.625
588.8002, 1421.377
589.2823, 1411.140
589.7645, 1407.800
590.2466, 1421.579
590.7287, 1437.041
591.2108, 1441.055
591.6929, 1436.811
592.1750, 1436.888
592.6572, 1448.560
593.1393, 1462.283
593.6214, 1456.913
594.1035, 1429.577
594.5856, 1413.228
595.0677, 1416.152
595.5499, 1423.213
596.0320, 1421.188
596.5141, 1415.447
596.9962, 1419.636
597.4783, 1443.396
597.9604, 1465.207
598.4426, 1476.722
598.9247, 1479.697
599.4068, 1472.007
599.8889, 1456.037
600.3710, 1444.434
600.8531, 1448.238
601.3353, 1463.343
601.8174, 1471.235
602.2995, 1469.790
602.7816, 1466.203
603.2637, 1455.002
603.7458, 1447.865
604.2280, 1456.794
604.7101, 1478.312
605.1922, 1494.102
605.6743, 1492.336
606.1564, 1486.819
606.6385, 1489.922
607.1207, 1498.175
607.6028, 1502.239
608.0849, 1499.648
608.5670, 1497.644
609.0491, 1504.887
609.5313, 1521.445
610.0134, 1531.880
610.4955, 1529.712
610.9776, 1530.830
611.4597, 1540.179
611.9418, 1552.820
612.4240, 1566.088
612.9061, 1579.017
613.3882, 1587.427
613.8703, 1586.484
614.3524, 1581.178
614.8345, 1578.758
615.3167, 1578.406
615.7988, 1573.252
616.2809, 1559.519
616.7630, 1547.677
617.2451, 1554.569
617.7272, 1585.733
618.2094, 1605.646
618.6915, 1605.514
619.1736, 1604.232
619.6557, 1610.468
620.1378, 1616.451
620.6199, 1609.252
