##NAMES=Clinohedrite
##RRUFFID=R050416
##IDEAL CHEMISTRY=CaZn^2+^SiO_4_&#183;H_2_O
##LOCALITY=Franklin, Sussex County, New Jersey, USA
##OWNER=RRUFF
##SOURCE=Marcus Origlieri
##DESCRIPTION=Colorless prismatic single crystals
##STATUS=The identification of this mineral has been confirmed by X-ray diffraction and chemical analysis
##URL=rruff.info/R050416
##MEASURED CHEMISTRY=(Ca_0.99_Mn_0.01_)_Σ=1_Zn_1.00_Si_1.00_O_4_·H_2_O
92.52344, 95.62369
93.00555, 91.39810
93.48767, 91.50150
93.96979, 98.53283
94.45190, 108.9299
94.93402, 123.4962
95.41614, 137.8258
95.89825, 151.7924
96.38037, 166.0717
96.86249, 178.4335
97.34460, 180.5977
97.82672, 170.3380
98.30884, 155.9906
98.79095, 135.8566
99.27307, 112.5622
99.75519, 91.53590
100.2373, 76.03218
100.7194, 65.88329
101.2015, 58.12945
101.6837, 53.35130
102.1658, 50.06880
102.6479, 47.26684
103.1300, 44.87524
103.6121, 43.11337
104.0942, 42.46416
104.5764, 42.51966
105.0585, 42.80699
105.5406, 43.13847
106.0227, 43.56798
106.5048, 44.30298
106.9869, 45.57647
107.4691, 46.81152
107.9512, 47.64715
108.4333, 48.21375
108.9154, 48.83202
109.3975, 49.71711
109.8796, 50.84957
110.3618, 52.37560
110.8439, 54.13198
111.3260, 56.38620
111.8081, 59.17327
112.2902, 62.54218
112.7723, 66.62714
113.2544, 71.58297
113.7366, 77.31181
114.2187, 84.41423
114.7008, 92.94831
115.1829, 102.6775
115.6650, 114.2916
116.1471, 128.1302
116.6293, 142.1073
117.1114, 151.1768
117.5935, 156.1768
118.0756, 156.1351
118.5577, 148.5404
119.0398, 135.4972
119.5220, 121.5340
120.0041, 107.8258
120.4862, 95.41129
120.9683, 85.83425
121.4504, 79.47681
121.9325, 75.15625
122.4147, 72.26286
122.8968, 70.84025
123.3789, 70.30766
123.8610, 70.78289
124.3431, 71.91311
124.8252, 73.42771
125.3074, 75.16755
125.7895, 77.34053
126.2716, 80.42663
126.7537, 84.66638
127.2358, 89.47231
127.7179, 94.34107
128.2001, 99.58811
128.6822, 105.5363
129.1643, 112.1666
129.6464, 119.6347
130.1285, 129.6066
130.6107, 141.9922
131.0928, 157.3541
131.5749, 177.1396
132.0570, 200.1879
132.5391, 225.0265
133.0212, 251.1732
133.5034, 280.4598
133.9855, 296.4369
134.4676, 300.3467
134.9497, 293.3922
135.4318, 272.2757
135.9139, 238.3200
136.3960, 200.0952
136.8782, 166.3676
137.3603, 137.4504
137.8424, 114.4544
138.3245, 99.35104
138.8066, 89.54736
139.2887, 82.62733
139.7709, 78.33492
140.2530, 76.08314
140.7351, 75.52441
141.2172, 76.44299
141.6993, 78.28896
142.1814, 80.85551
142.6636, 84.15921
143.1457, 88.22451
143.6278, 92.66579
144.1099, 98.50762
144.5920, 105.8253
145.0741, 114.6647
145.5563, 126.0603
146.0384, 141.1118
146.5205, 159.9619
147.0026, 180.9358
147.4847, 211.7683
147.9668, 239.4232
148.4490, 257.5762
148.9311, 264.5397
149.4132, 261.1945
149.8953, 247.0820
150.3774, 214.5935
150.8595, 186.3976
151.3417, 162.6120
151.8238, 143.8405
152.3059, 131.0014
152.7880, 124.4273
153.2701, 123.0766
153.7522, 124.4984
154.2344, 131.0842
154.7165, 138.0979
155.1986, 147.6404
155.6807, 156.9555
156.1628, 162.9953
156.6449, 164.3140
157.1271, 160.9546
157.6092, 152.3645
158.0913, 135.3006
158.5734, 117.7589
159.0555, 100.8218
159.5376, 84.95705
160.0198, 71.39262
160.5019, 60.96606
160.9840, 53.52680
161.4661, 47.47546
161.9482, 43.14233
162.4303, 39.72803
162.9125, 36.81158
163.3946, 34.38985
163.8767, 32.48735
164.3588, 31.34806
164.8409, 30.72697
165.3230, 30.19146
165.8052, 29.66865
166.2873, 29.21179
166.7694, 28.88656
167.2515, 28.68468
167.7336, 28.64832
168.2157, 28.89026
168.6979, 29.27311
169.1800, 29.64233
169.6621, 29.91288
170.1442, 30.14274
170.6263, 30.50290
171.1084, 31.06010
171.5906, 31.65272
172.0727, 32.13053
172.5548, 32.62140
173.0369, 33.27626
173.5190, 34.15359
174.0011, 35.27880
174.4833, 36.86819
174.9654, 39.35286
175.4475, 41.93819
175.9296, 44.41350
176.4117, 46.86319
176.8938, 49.50663
177.3760, 52.52758
177.8581, 55.93946
178.3402, 59.21038
178.8223, 63.15877
179.3044, 66.21261
179.7865, 68.06781
180.2687, 68.57911
180.7508, 67.44841
181.2329, 64.28786
181.7150, 58.86512
182.1971, 53.43467
182.6792, 47.43892
183.1614, 41.88746
183.6435, 37.33782
184.1256, 33.82794
184.6077, 31.09051
185.0898, 28.97764
185.5719, 27.57140
186.0541, 26.41517
186.5362, 25.58021
187.0183, 24.95129
187.5004, 24.42583
187.9825, 23.98941
188.4646, 23.69575
188.9468, 23.67662
189.4289, 23.86920
189.9110, 24.02894
190.3931, 24.08292
190.8752, 24.07792
191.3573, 24.08125
191.8395, 24.09502
192.3216, 24.12511
192.8037, 24.12517
193.2858, 24.13489
193.7679, 24.26830
194.2500, 24.62450
194.7322, 25.14840
195.2143, 25.67791
195.6964, 26.23339
196.1785, 26.75190
196.6606, 27.13412
197.1427, 27.45551
197.6249, 27.87939
198.1070, 28.52862
198.5891, 29.38582
199.0712, 30.27017
199.5533, 31.10079
200.0354, 32.06610
200.5176, 33.27623
200.9997, 34.66817
201.4818, 36.10040
201.9639, 37.45220
202.4460, 38.72042
202.9281, 40.03981
203.4103, 41.51751
203.8924, 42.94091
204.3745, 44.18032
204.8566, 45.30184
205.3387, 46.43344
205.8208, 47.66839
206.3030, 48.99673
206.7851, 50.59544
207.2672, 52.37416
207.7493, 54.46708
208.2314, 56.86224
208.7135, 59.60132
209.1957, 62.78953
209.6778, 66.54795
210.1599, 70.93169
210.6420, 75.48755
211.1241, 80.35899
211.6062, 85.22383
212.0884, 90.24725
212.5705, 95.22958
213.0526, 99.53873
213.5347, 102.6038
214.0168, 104.2550
214.4989, 105.3355
214.9811, 105.2156
215.4632, 105.0655
215.9453, 105.3321
216.4274, 106.1450
216.9095, 107.9258
217.3916, 110.9793
217.8737, 115.5230
218.3559, 121.3576
218.8380, 128.4281
219.3201, 136.8751
219.8022, 147.4079
220.2843, 160.0744
220.7664, 173.0226
221.2486, 185.9721
221.7307, 198.1414
222.2128, 205.9254
222.6949, 208.2966
223.1770, 206.2851
223.6591, 200.1381
224.1413, 189.4604
224.6234, 177.5820
225.1055, 166.2500
225.5876, 155.4708
226.0697, 145.3884
226.5518, 135.8645
227.0340, 127.1946
227.5161, 119.8133
227.9982, 113.7227
228.4803, 108.9568
228.9624, 105.6423
229.4445, 103.6156
229.9267, 102.9009
230.4088, 103.7006
230.8909, 105.6861
231.3730, 108.4490
231.8551, 112.4019
232.3372, 116.0680
232.8194, 119.0757
233.3015, 121.4417
233.7836, 123.1576
234.2657, 124.2377
234.7478, 124.6398
235.2299, 124.2795
235.7121, 123.1756
236.1942, 121.1507
236.6763, 117.7078
237.1584, 113.6667
237.6405, 109.7287
238.1227, 106.1127
238.6048, 103.0047
239.0869, 100.8465
239.5690, 99.58575
240.0511, 99.53798
240.5332, 100.4078
241.0154, 102.4184
241.4975, 105.7487
241.9796, 110.4607
242.4617, 116.5998
242.9438, 124.2218
243.4259, 133.5714
243.9081, 144.3505
244.3902, 156.8119
244.8723, 170.3130
245.3544, 184.9896
245.8365, 200.8608
246.3186, 216.3319
246.8008, 228.0370
247.2829, 235.8577
247.7650, 239.1412
248.2471, 237.0092
248.7292, 231.2033
249.2113, 222.5904
249.6935, 211.6324
250.1756, 199.3992
250.6577, 187.9116
251.1398, 177.1118
251.6219, 167.4264
252.1040, 158.8550
252.5862, 151.3989
253.0683, 145.0661
253.5504, 139.8867
254.0325, 135.8530
254.5146, 133.0081
254.9967, 131.9425
255.4789, 131.2084
255.9610, 131.4243
256.4431, 131.6229
256.9252, 131.0338
257.4073, 129.4589
257.8894, 127.0683
258.3716, 124.0516
258.8537, 120.2044
259.3358, 116.1025
259.8179, 111.2575
260.3000, 106.4332
260.7821, 102.1451
261.2643, 98.50505
261.7464, 95.60828
262.2285, 93.56796
262.7106, 92.53263
263.1927, 92.07209
263.6748, 92.09376
264.1570, 92.74742
264.6391, 94.34908
265.1212, 96.88280
265.6033, 99.78947
266.0854, 102.7861
266.5675, 105.8140
267.0497, 107.6535
267.5318, 108.5736
268.0139, 108.0828
268.4960, 105.6299
268.9781, 101.2250
269.4602, 95.45329
269.9424, 88.29858
270.4245, 79.98876
270.9066, 72.38229
271.3887, 65.47409
271.8708, 59.29606
272.3529, 53.88039
272.8351, 49.21627
273.3172, 45.36803
273.7993, 42.52661
274.2814, 40.56782
274.7635, 38.76583
275.2456, 37.05674
275.7278, 35.57208
276.2099, 34.47284
276.6920, 33.72634
277.1741, 33.06084
277.6562, 32.33526
278.1383, 31.63937
278.6205, 31.13334
279.1026, 30.85703
279.5847, 30.67274
280.0668, 30.45961
280.5489, 30.24190
281.0310, 30.17472
281.5132, 30.33643
281.9953, 30.66467
282.4774, 31.04797
282.9595, 31.48923
283.4416, 31.96289
283.9237, 32.39120
284.4059, 32.81936
284.8880, 33.45860
285.3701, 34.40963
285.8522, 35.52958
286.3343, 36.62647
286.8164, 37.70345
287.2986, 38.91471
287.7807, 40.37264
288.2628, 42.03639
288.7449, 43.79783
289.2270, 45.75459
289.7091, 47.60618
290.1913, 49.22027
290.6734, 50.58056
291.1555, 51.59894
291.6376, 52.35658
292.1197, 52.72823
292.6018, 52.37709
293.0840, 51.18682
293.5661, 49.48224
294.0482, 47.25533
294.5303, 44.71993
295.0124, 42.19823
295.4945, 39.70853
295.9767, 37.38352
296.4588, 35.52667
296.9409, 34.24843
297.4230, 33.05805
297.9051, 31.54011
298.3872, 29.99791
298.8694, 28.83150
299.3515, 28.23516
299.8336, 27.91557
300.3157, 27.45722
300.7978, 26.80778
301.2799, 26.32460
301.7621, 26.32898
302.2442, 26.47051
302.7263, 26.40476
303.2084, 26.03546
303.6905, 25.66681
304.1726, 25.66079
304.6548, 26.03588
305.1369, 26.32683
305.6190, 26.32026
306.1011, 26.27445
306.5832, 26.35682
307.0653, 26.58208
307.5475, 26.94085
308.0296, 27.46631
308.5117, 28.14455
308.9938, 28.81897
309.4759, 29.43416
309.9580, 30.08841
310.4402, 30.80636
310.9223, 31.59896
311.4044, 32.50731
311.8865, 33.62186
312.3686, 34.88449
312.8507, 36.03374
313.3329, 36.94616
313.8150, 37.95910
314.2971, 39.34227
314.7792, 40.93938
315.2613, 42.48259
315.7434, 43.89357
316.2256, 45.15494
316.7077, 46.27119
317.1898, 47.32312
317.6719, 48.01434
318.1540, 48.13125
318.6361, 47.86704
319.1183, 47.34037
319.6004, 46.51880
320.0825, 45.62888
320.5646, 44.98136
321.0467, 44.60627
321.5288, 44.28462
322.0110, 44.04226
322.4931, 43.76715
322.9752, 43.37218
323.4573, 42.84483
323.9394, 42.22243
324.4215, 41.52742
324.9037, 40.76459
325.3858, 39.95416
325.8679, 39.10408
326.3500, 38.19698
326.8321, 37.17081
327.3142, 36.05368
327.7964, 35.01744
328.2785, 34.18049
328.7606, 33.52318
329.2427, 32.93734
329.7248, 32.40121
330.2069, 31.97673
330.6891, 31.71235
331.1712, 31.57180
331.6533, 31.48218
332.1354, 31.39946
332.6175, 31.35275
333.0996, 31.41353
333.5818, 31.60702
334.0639, 31.82824
334.5460, 32.01937
335.0281, 32.21008
335.5102, 32.42392
335.9923, 32.64991
336.4745, 32.94328
336.9566, 33.33479
337.4387, 33.81544
337.9208, 34.53238
338.4029, 35.75436
338.8850, 37.08387
339.3671, 38.06868
339.8492, 38.65146
340.3314, 39.27543
340.8135, 40.24896
341.2956, 41.55298
341.7777, 43.03451
342.2598, 44.72640
342.7419, 46.51516
343.2241, 48.25556
343.7062, 49.98087
344.1883, 51.84447
344.6704, 54.04629
345.1525, 56.41828
345.6346, 58.61629
346.1168, 60.62568
346.5989, 62.44283
347.0810, 63.95415
347.5631, 65.26798
348.0452, 66.57806
348.5273, 68.08282
349.0095, 69.46947
349.4916, 70.40170
349.9737, 70.87389
350.4558, 71.00780
350.9379, 70.82433
351.4200, 70.31524
351.9022, 69.49498
352.3843, 68.29019
352.8664, 66.98576
353.3485, 65.73808
353.8306, 64.54268
354.3127, 63.37772
354.7949, 62.21630
355.2770, 61.11274
355.7591, 60.02071
356.2412, 58.92260
356.7233, 58.24176
357.2054, 58.38037
357.6876, 58.95078
358.1697, 59.34434
358.6518, 59.46957
359.1339, 59.52332
359.6160, 59.67345
360.0981, 59.89974
360.5803, 60.08560
361.0624, 60.33411
361.5445, 60.44861
362.0266, 60.24059
362.5087, 59.72978
362.9908, 59.12572
363.4730, 58.65399
363.9551, 58.08075
364.4372, 56.71964
364.9193, 54.15338
365.4014, 51.58276
365.8835, 49.48533
366.3657, 47.74233
366.8478, 46.10429
367.3299, 44.49477
367.8120, 42.97088
368.2941, 41.60865
368.7762, 40.38873
369.2584, 39.39154
369.7405, 38.79684
370.2226, 38.33753
370.7047, 37.71342
371.1868, 36.89765
371.6689, 36.14599
372.1511, 35.68374
372.6332, 35.52987
373.1153, 35.44635
373.5974, 35.38514
374.0795, 35.43091
374.5616, 35.67815
375.0438, 36.06823
375.5259, 36.43938
376.0080, 36.68698
376.4901, 36.88611
376.9722, 37.30916
377.4543, 37.94081
377.9365, 38.80579
378.4186, 40.11636
378.9007, 41.56897
379.3828, 42.77655
379.8649, 43.64670
380.3470, 44.43793
380.8292, 45.50032
381.3113, 46.88337
381.7934, 48.45068
382.2755, 50.30383
382.7576, 52.22828
383.2397, 54.10538
383.7219, 55.94171
384.2040, 57.74471
384.6861, 59.47636
385.1682, 61.16957
385.6503, 63.31462
386.1324, 66.22591
386.6146, 69.26537
387.0967, 72.27678
387.5788, 75.35336
388.0609, 78.61391
388.5430, 82.09973
389.0251, 85.83628
389.5073, 89.87550
389.9894, 94.13156
390.4715, 98.94113
390.9536, 104.4340
391.4357, 110.2973
391.9178, 116.3685
392.4000, 122.6218
392.8821, 129.1620
393.3642, 136.1614
393.8463, 143.6500
394.3284, 151.0076
394.8105, 158.5185
395.2927, 165.6005
395.7748, 172.3709
396.2569, 178.5376
396.7390, 183.8085
397.2211, 188.1503
397.7032, 191.2542
398.1854, 192.4686
398.6675, 191.8259
399.1496, 189.1626
399.6317, 183.6964
400.1138, 176.6030
400.5959, 168.3779
401.0781, 159.1546
401.5602, 149.5235
402.0423, 139.8876
402.5244, 130.2952
403.0065, 121.0188
403.4886, 111.9647
403.9708, 103.5209
404.4529, 95.86174
404.9350, 88.94263
405.4171, 82.61695
405.8992, 76.86567
406.3813, 71.68983
406.8635, 67.11443
407.3456, 63.16338
407.8277, 59.53983
408.3098, 56.08848
408.7919, 52.86855
409.2740, 49.97239
409.7562, 47.44637
410.2383, 45.10942
410.7204, 42.81144
411.2025, 40.59893
411.6846, 38.57371
412.1667, 36.74352
412.6489, 35.13146
413.1310, 33.84423
413.6131, 32.86229
414.0952, 31.87368
414.5773, 30.75836
415.0594, 29.65764
415.5416, 28.71392
416.0237, 27.92600
416.5058, 27.20691
416.9879, 26.50530
417.4700, 25.82526
417.9521, 25.18628
418.4343, 24.57957
418.9164, 24.01584
419.3985, 23.48747
419.8806, 23.00599
420.3627, 22.61587
420.8448, 22.32848
421.3270, 22.06185
421.8091, 21.68629
422.2912, 21.13748
422.7733, 20.66914
423.2554, 20.28085
423.7375, 19.96648
424.2197, 19.78015
424.7018, 19.67691
425.1839, 19.53232
425.6660, 19.25287
426.1481, 18.86009
426.6302, 18.48809
427.1124, 18.07094
427.5945, 17.76983
428.0766, 17.66269
428.5587, 17.64952
429.0408, 17.65401
429.5229, 17.64556
430.0051, 17.59287
430.4872, 17.42715
430.9693, 17.10244
431.4514, 16.86089
431.9335, 16.81634
432.4156, 16.76073
432.8978, 16.58181
433.3799, 16.32150
433.8620, 16.09778
434.3441, 15.99905
434.8262, 15.97647
435.3083, 15.87197
435.7905, 15.63134
436.2726, 15.46076
436.7547, 15.48433
437.2368, 15.58473
437.7189, 15.67609
438.2010, 15.74435
438.6832, 15.77968
439.1653, 15.75181
439.6474, 15.67582
440.1295, 15.63984
440.6116, 15.67653
441.0938, 15.71794
441.5759, 15.67116
442.0580, 15.57413
442.5401, 15.55383
443.0222, 15.74883
443.5043, 15.96490
443.9865, 15.98311
444.4686, 15.82270
444.9507, 15.66402
445.4328, 15.59048
445.9149, 15.57087
446.3970, 15.53348
446.8792, 15.47008
447.3613, 15.41599
447.8434, 15.36065
448.3255, 15.32918
448.8076, 15.35017
449.2897, 15.42895
449.7719, 15.56864
450.2540, 15.79811
450.7361, 16.12835
451.2182, 16.27271
451.7003, 16.07835
452.1824, 15.89555
452.6646, 15.84053
453.1467, 15.88514
453.6288, 15.98532
454.1109, 16.12217
454.5930, 16.27103
455.0751, 16.37735
455.5573, 16.37872
456.0394, 16.46309
456.5215, 16.74639
457.0036, 17.00046
457.4857, 17.06113
457.9678, 16.96045
458.4500, 16.84402
458.9321, 16.81036
459.4142, 16.85929
459.8963, 16.99175
460.3784, 17.22875
460.8605, 17.51653
461.3427, 17.92502
461.8248, 18.32832
462.3069, 18.56996
462.7890, 18.61165
463.2711, 18.64052
463.7532, 18.85443
464.2354, 19.24348
464.7175, 19.64981
465.1996, 20.04225
465.6817, 20.47443
466.1638, 21.05327
466.6459, 21.70270
467.1281, 22.21636
467.6102, 22.37674
468.0923, 22.50517
468.5744, 23.01559
469.0565, 23.86939
469.5386, 24.61858
470.0208, 25.03785
470.5029, 25.32689
470.9850, 25.84703
471.4671, 26.62801
471.9492, 27.40603
472.4313, 28.13570
472.9135, 28.82116
473.3956, 29.44584
473.8777, 30.01718
474.3598, 30.61478
474.8419, 31.31796
475.3240, 32.10220
475.8062, 32.70290
476.2883, 32.95417
476.7704, 33.25592
477.2525, 33.81604
477.7346, 34.41238
478.2167, 34.82499
478.6989, 34.97929
479.1810, 34.84661
479.6631, 34.34460
480.1452, 33.38293
480.6273, 32.52850
481.1094, 31.97480
481.5916, 31.33299
482.0737, 30.44511
482.5558, 29.38511
483.0379, 28.26731
483.5200, 27.12771
484.0021, 26.02607
484.4843, 25.08077
484.9664, 24.30882
485.4485, 23.59889
485.9306, 22.96547
486.4127, 22.36137
486.8948, 21.72791
487.3770, 21.08114
487.8591, 20.52438
488.3412, 20.17767
488.8233, 19.94303
489.3054, 19.59090
489.7875, 19.09770
490.2697, 18.73223
490.7518, 18.69735
491.2339, 18.84847
491.7160, 18.87185
492.1981, 18.72153
492.6802, 18.57837
493.1624, 18.49532
493.6445, 18.47529
494.1266, 18.55039
494.6087, 18.72277
495.0908, 18.88528
495.5729, 18.92295
496.0551, 18.83973
496.5372, 18.91288
497.0193, 19.14943
497.5014, 19.50538
497.9835, 20.09791
498.4656, 20.75755
498.9478, 21.21386
499.4299, 21.38963
499.9120, 21.49226
500.3941, 21.82012
500.8762, 22.42286
501.3583, 23.06525
501.8405, 23.64710
502.3226, 24.36944
502.8047, 25.34011
503.2868, 26.50095
503.7689, 27.71872
504.2510, 28.93016
504.7331, 30.19381
505.2152, 31.63037
505.6974, 33.26236
506.1795, 34.95007
506.6616, 36.67848
507.1437, 38.43959
507.6258, 40.29561
508.1079, 42.21455
508.5901, 43.95257
509.0722, 45.59131
509.5543, 46.88523
510.0364, 47.45581
510.5185, 47.30583
511.0006, 46.69004
511.4828, 45.67319
511.9649, 44.29608
512.4470, 42.62951
512.9291, 40.63128
513.4113, 38.55370
513.8934, 36.39148
514.3755, 34.23492
514.8576, 32.14910
515.3397, 30.15430
515.8218, 28.34008
516.3040, 26.76761
516.7861, 25.42120
517.2682, 24.21034
517.7503, 23.13096
518.2324, 22.20482
518.7145, 21.46988
519.1967, 20.86039
519.6788, 20.31914
520.1609, 19.83253
520.6430, 19.41174
521.1251, 19.06730
521.6072, 18.79759
522.0894, 18.62032
522.5715, 18.65173
523.0536, 18.58642
523.5357, 18.21702
524.0178, 17.75398
524.4999, 17.46231
524.9821, 17.42123
525.4642, 17.41581
525.9463, 17.21610
526.4284, 16.87524
526.9105, 16.64514
527.3926, 16.59555
527.8748, 16.55510
528.3569, 16.36312
528.8390, 16.06870
529.3211, 15.83976
529.8032, 15.68997
530.2853, 15.61292
530.7675, 15.61238
531.2496, 15.68160
531.7317, 15.83153
532.2138, 16.06729
532.6959, 16.30310
533.1780, 16.42050
533.6602, 16.38395
534.1423, 16.45439
534.6244, 16.70931
535.1065, 16.96909
535.5886, 17.16569
536.0707, 17.32269
536.5529, 17.47160
537.0350, 17.62539
537.5171, 17.80504
537.9992, 18.04797
538.4813, 18.36569
538.9634, 18.68807
539.4456, 19.06078
539.9277, 19.37987
540.4098, 19.52112
540.8919, 19.58364
541.3740, 19.77758
541.8561, 20.22820
542.3383, 20.74927
542.8204, 21.10886
543.3025, 21.32174
543.7846, 21.50849
544.2667, 21.65152
544.7488, 21.86876
545.2310, 22.33485
545.7131, 23.02145
546.1952, 23.71325
546.6773, 24.31757
547.1594, 24.96906
547.6415, 25.79162
548.1237, 26.73097
548.6058, 27.65816
549.0879, 28.51573
549.5700, 29.35666
550.0521, 30.26208
550.5342, 31.22025
551.0164, 32.27654
551.4985, 33.39968
551.9806, 34.62675
552.4627, 35.98396
552.9448, 37.46359
553.4269, 39.09040
553.9091, 40.88665
554.3912, 42.72528
554.8733, 44.36486
555.3554, 45.77994
555.8375, 47.22361
556.3196, 48.84139
556.8018, 50.35520
557.2839, 51.59690
557.7660, 52.61369
558.2481, 53.54110
558.7302, 54.56162
559.2123, 55.34734
559.6945, 55.55315
560.1766, 55.22660
560.6587, 54.55706
561.1408, 53.58417
561.6229, 52.33914
562.1050, 50.83066
562.5872, 49.03025
563.0693, 47.09156
563.5514, 44.82426
564.0335, 42.61891
564.5156, 40.67071
564.9977, 38.93846
565.4799, 37.31597
565.9620, 35.76686
566.4441, 34.31878
566.9262, 33.01136
567.4083, 31.84068
567.8904, 30.82608
568.3726, 29.96797
568.8547, 29.28186
569.3368, 28.82659
569.8189, 28.53498
570.3010, 28.29023
570.7831, 28.03404
571.2653, 27.87895
571.7474, 28.00527
572.2295, 28.37833
572.7116, 28.70712
573.1937, 28.91123
573.6758, 29.14530
574.1580, 29.51724
574.6401, 30.02591
575.1222, 30.67225
575.6043, 31.50570
576.0864, 32.42046
576.5685, 33.44332
577.0507, 34.48420
577.5328, 35.35938
578.0149, 36.03228
578.4970, 36.68617
578.9791, 37.55127
579.4612, 38.64903
579.9434, 39.41785
580.4255, 39.47055
580.9076, 39.64398
581.3897, 40.36468
581.8718, 41.14260
582.3539, 41.42137
582.8361, 41.08946
583.3182, 40.47432
583.8003, 39.88766
584.2824, 39.30421
584.7645, 38.54580
585.2466, 37.59002
585.7288, 36.50817
586.2108, 35.28551
586.6929, 33.97210
587.1750, 32.63873
587.6572, 31.26813
588.1393, 29.97308
588.6214, 28.88076
