##NAMES=Clinochlore
##RRUFFID=R061080
##IDEAL CHEMISTRY=Mg_5_Al(AlSi_3_O_10_)(OH)_8_
##LOCALITY=Callaghan Creek, Whistler, British Columbia, Canada
##OWNER=RRUFF
##SOURCE=Lloyd Twaites
##DESCRIPTION=Dark green micaceous crystals with quartz
##STATUS=The identification of this mineral has been confirmed by X-ray diffraction and chemical analysis
##URL=rruff.info/R061080
##MEASURED CHEMISTRY=(Mg_2.82_Fe^2+^_1.80_A1_1.24_[box]_0.08_Mn_0.06_)_Σ=6_(Si_2.91_Al_1.09_)_Σ=4_O_10_(OH)_8_
132.8255, 921.0794
133.3076, 921.0695
133.7897, 927.6730
134.2718, 941.9780
134.7539, 957.4109
135.2360, 968.5005
135.7182, 975.1801
136.2003, 979.5657
136.6824, 981.7426
137.1645, 981.8546
137.6466, 981.7090
138.1287, 981.0643
138.6109, 980.5765
139.0930, 982.3835
139.5751, 988.7332
140.0572, 990.3189
140.5393, 982.3414
141.0214, 961.5468
141.5036, 945.4570
141.9857, 933.6551
142.4678, 926.6569
142.9499, 926.3749
143.4320, 937.1471
143.9141, 948.0966
144.3963, 953.5646
144.8784, 948.5040
145.3605, 947.6458
145.8426, 954.0671
146.3247, 966.0963
146.8068, 973.3269
147.2890, 971.7507
147.7711, 968.4252
148.2532, 967.8464
148.7353, 969.9868
149.2174, 974.9024
149.6995, 983.8090
150.1817, 997.3492
150.6638, 1008.802
151.1459, 1016.267
151.6280, 1022.380
152.1101, 1029.639
152.5922, 1040.691
153.0744, 1050.531
153.5565, 1057.451
154.0386, 1060.009
154.5207, 1064.172
155.0028, 1073.085
155.4849, 1083.745
155.9671, 1091.390
156.4492, 1093.025
156.9313, 1093.019
157.4134, 1093.068
157.8955, 1093.154
158.3776, 1093.785
158.8598, 1096.284
159.3419, 1099.659
159.8240, 1101.006
160.3061, 1092.125
160.7882, 1085.063
161.2704, 1088.263
161.7525, 1116.373
162.2346, 1141.405
162.7167, 1148.863
163.1988, 1141.217
163.6809, 1135.542
164.1631, 1139.541
164.6452, 1149.675
165.1273, 1162.413
165.6094, 1182.446
166.0915, 1200.137
166.5736, 1206.407
167.0558, 1200.784
167.5379, 1198.622
168.0200, 1214.048
168.5021, 1238.538
168.9842, 1259.081
169.4663, 1265.417
169.9485, 1267.781
170.4306, 1274.996
170.9127, 1288.000
171.3948, 1304.339
171.8769, 1322.834
172.3590, 1343.135
172.8412, 1364.307
173.3233, 1384.649
173.8054, 1405.776
174.2875, 1430.376
174.7696, 1460.350
175.2517, 1490.556
175.7339, 1513.149
176.2160, 1530.293
176.6981, 1550.658
177.1802, 1581.886
177.6623, 1620.427
178.1444, 1658.802
178.6266, 1694.734
179.1087, 1731.172
179.5908, 1770.656
180.0729, 1813.156
180.5550, 1861.292
181.0371, 1917.620
181.5193, 1981.305
182.0014, 2047.823
182.4835, 2115.688
182.9656, 2186.068
183.4477, 2263.335
183.9298, 2347.308
184.4120, 2436.302
184.8941, 2529.338
185.3762, 2626.791
185.8583, 2725.607
186.3404, 2827.606
186.8225, 2930.468
187.3047, 3027.208
187.7868, 3115.208
188.2689, 3206.070
188.7510, 3316.026
189.2331, 3443.693
189.7152, 3577.612
190.1974, 3714.487
190.6795, 3852.773
191.1616, 3985.402
191.6437, 4109.017
192.1258, 4232.375
192.6079, 4369.104
193.0901, 4521.429
193.5722, 4676.488
194.0543, 4825.756
194.5364, 4969.175
195.0185, 5122.744
195.5007, 5292.067
195.9828, 5466.339
196.4649, 5616.982
196.9470, 5744.607
197.4291, 5858.978
197.9112, 5969.594
198.3934, 6077.249
198.8755, 6164.328
199.3576, 6228.436
199.8397, 6270.470
200.3218, 6293.165
200.8039, 6296.271
201.2861, 6280.908
201.7682, 6252.308
202.2503, 6213.504
202.7324, 6138.282
203.2145, 6017.380
203.6966, 5855.044
204.1788, 5674.735
204.6609, 5471.356
205.1430, 5266.286
205.6251, 5084.829
206.1072, 4934.205
206.5893, 4774.640
207.0715, 4593.182
207.5536, 4392.220
208.0357, 4196.944
208.5178, 4005.168
208.9999, 3822.148
209.4820, 3649.803
209.9642, 3486.083
210.4463, 3340.169
210.9284, 3219.067
211.4105, 3126.616
211.8926, 3023.929
212.3747, 2903.632
212.8569, 2781.164
213.3390, 2677.578
213.8211, 2598.313
214.3032, 2526.808
214.7853, 2458.839
215.2674, 2396.279
215.7496, 2329.829
216.2317, 2254.550
216.7138, 2178.808
217.1959, 2119.072
217.6780, 2080.855
218.1601, 2046.227
218.6423, 2008.911
219.1244, 1968.380
219.6065, 1925.018
220.0886, 1875.214
220.5707, 1823.428
221.0528, 1783.365
221.5350, 1759.228
222.0171, 1738.278
222.4992, 1714.409
222.9813, 1686.574
223.4634, 1658.757
223.9455, 1630.094
224.4277, 1601.575
224.9098, 1578.572
225.3919, 1562.826
225.8740, 1549.355
226.3561, 1535.254
226.8382, 1519.943
227.3204, 1505.902
227.8025, 1495.272
228.2846, 1486.452
228.7667, 1469.808
229.2488, 1438.564
229.7310, 1409.044
230.2131, 1392.653
230.6952, 1398.464
231.1773, 1398.193
231.6594, 1385.759
232.1415, 1363.581
232.6237, 1351.536
233.1058, 1356.687
233.5879, 1363.565
234.0700, 1360.182
234.5521, 1339.328
235.0342, 1322.837
235.5164, 1315.098
235.9985, 1315.508
236.4806, 1312.983
236.9627, 1306.852
237.4448, 1298.620
237.9269, 1288.747
238.4091, 1274.181
238.8912, 1263.933
239.3733, 1259.978
239.8554, 1262.285
240.3375, 1266.663
240.8196, 1276.628
241.3018, 1285.126
241.7839, 1284.784
242.2660, 1269.089
242.7481, 1257.178
243.2302, 1254.981
243.7123, 1263.284
244.1945, 1261.636
244.6766, 1243.849
245.1587, 1222.023
245.6408, 1207.754
246.1229, 1201.567
246.6050, 1202.329
247.0872, 1212.991
247.5693, 1235.216
248.0514, 1246.649
248.5335, 1242.619
249.0156, 1231.955
249.4977, 1224.343
249.9799, 1219.646
250.4620, 1218.314
250.9441, 1220.912
251.4262, 1227.777
251.9083, 1236.059
252.3904, 1248.149
252.8726, 1259.402
253.3547, 1262.898
253.8368, 1253.585
254.3189, 1246.885
254.8010, 1248.068
255.2831, 1258.830
255.7653, 1264.285
256.2474, 1261.342
256.7295, 1255.864
257.2116, 1256.160
257.6937, 1264.483
258.1758, 1273.563
258.6580, 1281.263
259.1401, 1287.408
259.6222, 1294.033
260.1043, 1301.754
260.5864, 1309.290
261.0685, 1313.992
261.5507, 1313.721
262.0328, 1315.872
262.5149, 1323.365
262.9970, 1337.150
263.4791, 1349.652
263.9612, 1360.664
264.4434, 1370.774
264.9255, 1381.629
265.4076, 1394.777
265.8897, 1404.138
266.3718, 1405.907
266.8539, 1398.498
267.3361, 1398.194
267.8182, 1407.186
268.3003, 1420.596
268.7824, 1431.346
269.2645, 1438.595
269.7466, 1445.732
270.2288, 1453.652
270.7109, 1462.216
271.1930, 1474.164
271.6751, 1492.418
272.1572, 1510.055
272.6393, 1513.939
273.1215, 1500.092
273.6036, 1490.091
274.0857, 1494.790
274.5678, 1515.143
275.0499, 1524.086
275.5320, 1517.704
276.0142, 1506.875
276.4963, 1510.007
276.9784, 1529.822
277.4605, 1546.663
277.9426, 1551.318
278.4247, 1544.137
278.9069, 1543.156
279.3890, 1550.883
279.8711, 1559.466
280.3532, 1555.321
280.8353, 1537.198
281.3174, 1521.138
281.7996, 1513.182
282.2817, 1512.979
282.7638, 1518.998
283.2459, 1533.247
283.7281, 1547.929
284.2102, 1551.290
284.6923, 1543.269
285.1744, 1534.056
285.6565, 1526.752
286.1386, 1521.452
286.6208, 1519.843
287.1029, 1522.650
287.5850, 1526.392
288.0671, 1527.025
288.5492, 1524.656
289.0313, 1520.597
289.5135, 1513.354
289.9956, 1504.625
290.4777, 1501.301
290.9598, 1503.826
291.4419, 1508.794
291.9240, 1513.804
292.4062, 1518.469
292.8883, 1520.381
293.3704, 1517.091
293.8525, 1510.568
294.3346, 1506.044
294.8167, 1503.771
295.2989, 1501.337
295.7810, 1493.574
296.2631, 1482.908
296.7452, 1477.668
297.2273, 1486.420
297.7094, 1500.825
298.1916, 1505.477
298.6737, 1500.086
299.1558, 1492.190
299.6379, 1487.042
300.1200, 1484.642
300.6021, 1484.942
301.0843, 1491.119
301.5664, 1498.308
302.0485, 1498.422
302.5306, 1491.673
303.0127, 1486.063
303.4948, 1489.214
303.9770, 1497.717
304.4591, 1505.786
304.9412, 1511.344
305.4233, 1515.496
305.9054, 1519.345
306.3875, 1522.832
306.8697, 1525.431
307.3518, 1526.317
307.8339, 1526.193
308.3160, 1526.047
308.7981, 1528.004
309.2802, 1528.368
309.7624, 1521.773
310.2445, 1509.611
310.7266, 1501.056
311.2087, 1504.717
311.6908, 1513.070
312.1729, 1518.380
312.6551, 1514.845
313.1372, 1511.962
313.6193, 1515.512
314.1014, 1524.410
314.5835, 1533.823
315.0656, 1544.504
315.5478, 1553.349
316.0299, 1557.705
316.5120, 1553.165
316.9941, 1549.138
317.4762, 1549.035
317.9583, 1552.202
318.4405, 1556.589
318.9226, 1562.884
319.4047, 1569.286
319.8868, 1574.733
320.3689, 1578.775
320.8510, 1582.267
321.3332, 1585.901
321.8153, 1589.157
322.2974, 1590.763
322.7795, 1586.695
323.2616, 1583.857
323.7437, 1585.483
324.2259, 1594.255
324.7080, 1603.192
325.1901, 1612.185
325.6722, 1620.884
326.1543, 1628.603
326.6364, 1635.126
327.1186, 1640.891
327.6007, 1645.804
328.0828, 1648.946
328.5649, 1653.476
329.0470, 1661.531
329.5291, 1670.327
330.0113, 1675.198
330.4934, 1671.766
330.9755, 1670.275
331.4576, 1675.711
331.9397, 1691.827
332.4218, 1695.649
332.9040, 1678.225
333.3861, 1655.212
333.8682, 1647.937
334.3503, 1664.657
334.8324, 1679.490
335.3145, 1685.087
335.7967, 1680.979
336.2788, 1680.526
336.7609, 1684.033
337.2430, 1690.753
337.7251, 1701.967
338.2072, 1720.680
338.6894, 1730.808
339.1715, 1726.224
339.6536, 1709.440
340.1357, 1698.400
340.6178, 1693.274
341.0999, 1693.012
341.5821, 1698.004
342.0642, 1708.298
342.5463, 1718.783
343.0284, 1729.496
343.5105, 1739.018
343.9926, 1741.428
344.4748, 1736.267
344.9569, 1730.796
345.4390, 1729.976
345.9211, 1733.526
346.4032, 1740.305
346.8853, 1750.910
347.3675, 1763.326
347.8496, 1774.804
348.3317, 1785.178
348.8138, 1793.371
349.2959, 1796.539
349.7780, 1797.095
350.2602, 1800.423
350.7423, 1807.375
351.2244, 1816.558
351.7065, 1829.060
352.1886, 1843.180
352.6707, 1853.046
353.1529, 1850.326
353.6350, 1843.893
354.1171, 1846.096
354.5992, 1859.383
355.0814, 1871.481
355.5635, 1869.946
356.0456, 1860.729
356.5277, 1854.305
357.0098, 1856.448
357.4919, 1862.188
357.9741, 1870.176
358.4562, 1880.426
358.9383, 1886.216
359.4204, 1879.027
359.9025, 1867.120
360.3846, 1859.703
360.8668, 1867.969
361.3489, 1873.759
361.8310, 1867.923
362.3131, 1851.285
362.7952, 1835.052
363.2773, 1825.694
363.7595, 1816.376
364.2416, 1802.370
364.7237, 1774.566
365.2058, 1751.073
365.6879, 1738.887
366.1700, 1734.900
366.6522, 1724.919
367.1343, 1700.349
367.6164, 1675.063
368.0985, 1655.538
368.5806, 1649.705
369.0627, 1637.417
369.5449, 1612.020
370.0270, 1581.239
370.5091, 1561.965
370.9912, 1562.039
371.4733, 1563.042
371.9554, 1559.097
372.4376, 1550.163
372.9197, 1535.239
373.4018, 1509.500
373.8839, 1482.526
374.3660, 1468.882
374.8481, 1472.656
375.3303, 1477.378
375.8124, 1478.675
376.2945, 1476.615
376.7766, 1472.475
377.2587, 1465.233
377.7408, 1458.725
378.2230, 1458.267
378.7051, 1464.088
379.1872, 1467.158
379.6693, 1464.199
380.1514, 1457.516
380.6335, 1454.059
381.1157, 1453.888
381.5978, 1455.298
382.0799, 1457.414
382.5620, 1460.069
383.0441, 1463.470
383.5262, 1469.364
384.0084, 1472.852
384.4905, 1464.984
384.9726, 1447.317
385.4547, 1428.707
385.9368, 1411.972
386.4189, 1398.062
386.9011, 1389.857
387.3832, 1389.064
387.8653, 1387.133
388.3474, 1372.229
388.8295, 1350.851
389.3116, 1336.160
389.7938, 1340.043
390.2759, 1348.883
390.7580, 1354.669
391.2401, 1356.934
391.7222, 1354.052
392.2043, 1339.999
392.6865, 1322.437
393.1686, 1309.175
393.6507, 1304.258
394.1328, 1302.770
394.6149, 1305.950
395.0970, 1312.760
395.5792, 1314.654
396.0613, 1302.393
396.5434, 1289.516
397.0255, 1283.946
397.5076, 1299.509
397.9897, 1306.571
398.4719, 1296.086
398.9540, 1275.286
399.4361, 1264.646
399.9182, 1273.391
400.4003, 1282.174
400.8824, 1283.282
401.3646, 1272.589
401.8467, 1266.678
402.3288, 1266.538
402.8109, 1270.336
403.2930, 1276.612
403.7751, 1287.836
404.2573, 1294.428
404.7394, 1291.979
405.2215, 1280.960
405.7036, 1274.503
406.1857, 1273.488
406.6678, 1274.354
407.1500, 1272.878
407.6321, 1269.055
408.1142, 1269.083
408.5963, 1275.745
409.0784, 1285.743
409.5605, 1290.611
410.0427, 1290.385
410.5248, 1289.602
411.0069, 1292.625
411.4890, 1297.547
411.9711, 1298.404
412.4532, 1293.341
412.9354, 1287.545
413.4175, 1284.182
413.8996, 1284.588
414.3817, 1292.857
414.8638, 1322.732
415.3459, 1355.094
415.8281, 1367.723
416.3102, 1358.633
416.7923, 1346.321
417.2744, 1337.378
417.7565, 1334.053
418.2386, 1339.321
418.7208, 1370.064
419.2029, 1394.810
419.6850, 1394.524
420.1671, 1372.779
420.6492, 1356.870
421.1313, 1359.375
421.6135, 1367.885
422.0956, 1374.937
422.5777, 1378.367
423.0598, 1381.852
423.5419, 1386.800
424.0241, 1392.010
424.5062, 1394.521
424.9883, 1388.899
425.4704, 1386.652
425.9525, 1393.462
426.4347, 1413.696
426.9168, 1422.377
427.3989, 1414.209
427.8810, 1399.766
428.3631, 1391.581
428.8452, 1391.531
429.3274, 1391.688
429.8095, 1390.401
430.2916, 1387.882
430.7737, 1385.013
431.2558, 1381.563
431.7379, 1378.867
432.2201, 1379.603
432.7022, 1383.201
433.1843, 1381.462
433.6664, 1371.534
434.1485, 1359.432
434.6306, 1355.530
435.1128, 1358.871
435.5949, 1363.255
436.0770, 1367.457
436.5591, 1369.883
437.0412, 1366.146
437.5233, 1355.510
438.0055, 1345.056
438.4876, 1341.456
438.9697, 1342.045
439.4518, 1342.453
439.9339, 1339.959
440.4160, 1337.606
440.8982, 1338.307
441.3803, 1341.427
441.8624, 1342.893
442.3445, 1339.679
442.8266, 1334.909
443.3087, 1330.656
443.7909, 1326.965
444.2730, 1324.376
444.7551, 1323.493
445.2372, 1323.745
445.7193, 1323.923
446.2014, 1322.542
446.6836, 1322.405
447.1657, 1324.312
447.6478, 1328.455
448.1299, 1333.922
448.6120, 1342.908
449.0941, 1351.197
449.5763, 1353.446
450.0584, 1345.593
450.5405, 1343.177
451.0226, 1351.091
451.5047, 1365.888
451.9868, 1372.361
452.4690, 1368.707
452.9511, 1364.348
453.4332, 1364.901
453.9153, 1370.187
454.3974, 1378.020
454.8795, 1388.798
455.3617, 1400.625
455.8438, 1412.259
456.3259, 1423.154
456.8080, 1431.130
457.2901, 1429.604
457.7722, 1426.607
458.2544, 1438.460
458.7365, 1464.518
459.2186, 1487.030
459.7007, 1489.596
460.1828, 1482.095
460.6649, 1476.742
461.1471, 1474.963
461.6292, 1478.808
462.1113, 1494.531
462.5934, 1517.332
463.0755, 1534.433
463.5576, 1535.755
464.0398, 1534.727
464.5219, 1538.051
465.0040, 1547.406
465.4861, 1557.078
465.9682, 1564.661
466.4503, 1572.790
466.9325, 1584.615
467.4146, 1607.142
467.8967, 1623.852
468.3788, 1631.063
468.8609, 1629.951
469.3430, 1629.039
469.8252, 1628.526
470.3073, 1627.862
470.7894, 1627.496
471.2715, 1628.178
471.7536, 1623.961
472.2357, 1613.548
472.7179, 1599.977
473.2000, 1588.167
473.6821, 1578.097
474.1642, 1567.572
474.6463, 1554.014
475.1284, 1539.762
475.6106, 1534.855
476.0927, 1539.306
476.5748, 1538.483
477.0569, 1512.716
477.5390, 1474.604
478.0211, 1447.327
478.5033, 1439.667
478.9854, 1437.396
479.4675, 1430.881
479.9496, 1420.504
480.4317, 1407.149
480.9138, 1385.118
481.3960, 1365.108
481.8781, 1355.153
482.3602, 1357.315
482.8423, 1357.840
483.3244, 1350.339
483.8065, 1340.604
484.2887, 1333.860
484.7708, 1333.805
485.2529, 1333.361
485.7350, 1331.856
486.2171, 1329.428
486.6992, 1326.593
487.1814, 1323.215
487.6635, 1319.669
488.1456, 1315.735
488.6277, 1310.931
489.1098, 1308.495
489.5919, 1308.688
490.0741, 1310.722
490.5562, 1314.729
491.0383, 1320.882
491.5204, 1324.062
492.0025, 1321.662
492.4846, 1316.240
492.9668, 1314.894
493.4489, 1317.339
493.9310, 1319.190
494.4131, 1315.907
494.8953, 1310.248
495.3774, 1306.548
495.8595, 1304.955
496.3416, 1307.142
496.8237, 1315.939
497.3058, 1329.183
497.7880, 1343.420
498.2701, 1359.844
498.7522, 1374.479
499.2343, 1384.963
499.7164, 1391.397
500.1985, 1395.885
500.6807, 1394.135
501.1628, 1393.932
501.6449, 1400.457
502.1270, 1423.827
502.6091, 1437.975
503.0912, 1433.178
503.5734, 1422.350
504.0555, 1428.142
504.5376, 1460.535
505.0197, 1489.275
505.5018, 1505.146
505.9839, 1509.139
506.4661, 1515.574
506.9482, 1524.524
507.4303, 1535.905
507.9124, 1550.969
508.3945, 1569.389
508.8766, 1585.666
509.3588, 1599.252
509.8409, 1610.453
510.3230, 1617.792
510.8051, 1622.561
511.2872, 1629.749
511.7693, 1640.783
512.2515, 1656.089
512.7336, 1680.337
513.2157, 1712.630
513.6978, 1738.803
514.1799, 1742.444
514.6620, 1739.583
515.1442, 1745.875
515.6263, 1771.485
516.1084, 1794.957
516.5905, 1807.120
517.0726, 1812.775
517.5547, 1821.183
518.0369, 1835.948
518.5190, 1851.562
519.0011, 1867.796
519.4832, 1884.932
519.9653, 1896.391
520.4474, 1895.953
520.9296, 1897.756
521.4117, 1914.902
521.8938, 1952.886
522.3759, 1979.682
522.8580, 1989.740
523.3401, 1991.390
523.8223, 1999.447
524.3044, 2013.812
524.7865, 2032.729
525.2686, 2058.749
525.7507, 2087.751
526.2328, 2106.929
526.7150, 2116.476
527.1971, 2129.033
527.6792, 2151.722
528.1613, 2184.496
528.6434, 2230.105
529.1255, 2293.591
529.6077, 2357.563
530.0898, 2403.980
530.5719, 2443.937
531.0540, 2498.628
531.5361, 2581.471
532.0182, 2674.083
532.5004, 2769.469
532.9825, 2868.054
533.4646, 2973.637
533.9467, 3084.842
534.4288, 3205.315
534.9109, 3339.177
535.3931, 3489.422
535.8752, 3644.778
536.3573, 3804.772
536.8394, 3969.423
537.3215, 4142.854
537.8036, 4325.636
538.2858, 4506.887
538.7679, 4682.423
539.2500, 4855.492
539.7321, 5039.354
540.2142, 5234.009
540.6964, 5437.760
541.1785, 5660.857
541.6606, 5890.638
542.1427, 6096.820
542.6248, 6273.370
543.1069, 6436.025
543.5891, 6599.435
544.0712, 6757.351
544.5533, 6899.966
545.0354, 7040.537
545.5175, 7148.764
545.9996, 7212.921
546.4818, 7234.053
546.9639, 7215.518
547.4460, 7175.834
547.9281, 7080.991
548.4102, 6911.399
548.8923, 6651.625
549.3745, 6364.994
549.8566, 6044.011
550.3387, 5703.425
550.8208, 5352.816
551.3029, 4981.971
551.7850, 4641.529
552.2672, 4343.138
552.7493, 4075.644
553.2314, 3803.511
553.7135, 3526.940
554.1956, 3278.764
554.6777, 3085.172
555.1599, 2931.868
555.6420, 2791.791
556.1241, 2663.266
556.6062, 2544.856
557.0883, 2440.025
557.5704, 2344.192
558.0526, 2251.530
558.5347, 2156.107
559.0168, 2069.709
559.4989, 2002.241
559.9810, 1948.793
560.4631, 1900.530
560.9453, 1856.178
561.4274, 1815.670
561.9095, 1781.784
562.3916, 1754.794
562.8737, 1721.324
563.3558, 1677.206
563.8380, 1632.852
564.3201, 1594.404
564.8022, 1561.961
565.2843, 1537.966
565.7664, 1525.466
566.2485, 1516.259
566.7307, 1495.304
567.2128, 1463.514
567.6949, 1434.445
568.1770, 1412.493
568.6591, 1396.067
569.1412, 1384.816
569.6234, 1377.627
570.1055, 1366.772
570.5876, 1340.211
571.0697, 1311.534
571.5518, 1296.023
572.0339, 1297.583
572.5161, 1298.473
572.9982, 1290.024
573.4803, 1277.024
573.9624, 1264.531
574.4445, 1250.312
574.9266, 1240.397
575.4088, 1238.177
575.8909, 1240.569
576.3730, 1238.966
576.8551, 1231.619
577.3372, 1223.505
577.8193, 1215.490
578.3015, 1207.710
578.7836, 1205.350
579.2657, 1209.632
579.7478, 1214.017
580.2299, 1212.784
580.7120, 1206.759
581.1942, 1199.490
581.6763, 1191.170
582.1584, 1182.780
582.6405, 1173.868
583.1226, 1165.818
583.6047, 1161.849
584.0869, 1168.998
584.5690, 1175.742
585.0511, 1172.732
585.5332, 1162.077
586.0153, 1154.652
586.4974, 1158.097
586.9796, 1162.357
587.4617, 1161.393
587.9438, 1151.315
588.4259, 1148.352
588.9080, 1155.351
589.3901, 1166.995
589.8723, 1179.306
590.3544, 1193.735
590.8365, 1203.382
591.3186, 1206.886
591.8007, 1206.008
592.2828, 1202.891
592.7650, 1197.720
593.2471, 1194.642
593.7292, 1195.555
594.2113, 1199.771
594.6934, 1207.000
595.1755, 1216.921
595.6577, 1226.896
596.1398, 1237.328
596.6219, 1245.717
597.1040, 1247.704
597.5861, 1239.419
598.0682, 1236.977
598.5504, 1255.241
599.0325, 1279.147
599.5146, 1291.582
599.9967, 1276.295
600.4789, 1266.698
600.9610, 1267.439
601.4431, 1275.870
601.9252, 1284.350
602.4073, 1292.319
602.8895, 1301.576
603.3716, 1314.402
603.8537, 1329.676
604.3358, 1337.184
604.8179, 1336.193
605.3000, 1334.970
605.7822, 1343.037
606.2643, 1355.788
606.7464, 1361.772
607.2285, 1357.883
607.7106, 1353.315
608.1927, 1353.963
608.6749, 1359.557
609.1570, 1369.661
609.6391, 1391.338
610.1212, 1410.135
610.6033, 1418.106
611.0854, 1418.518
611.5676, 1423.144
612.0497, 1441.097
612.5318, 1455.139
613.0139, 1458.143
613.4960, 1449.113
613.9781, 1447.505
614.4603, 1454.305
614.9424, 1465.984
615.4245, 1481.831
615.9066, 1501.387
616.3887, 1517.165
616.8708, 1528.636
617.3530, 1535.063
617.8351, 1528.980
618.3172, 1516.899
618.7993, 1515.863
619.2814, 1541.439
619.7635, 1569.575
620.2457, 1577.580
620.7278, 1571.941
621.2099, 1571.578
621.6920, 1590.272
622.1741, 1610.029
622.6563, 1621.749
623.1384, 1623.773
623.6205, 1630.351
624.1026, 1643.171
624.5847, 1659.143
625.0668, 1677.431
625.5490, 1699.865
626.0311, 1716.853
626.5132, 1727.172
626.9953, 1734.469
627.4774, 1741.520
