##NAMES=Clinochlore
##RRUFFID=R060725
##IDEAL CHEMISTRY=Mg_5_Al(AlSi_3_O_10_)(OH)_8_
##LOCALITY=Crestmore Quarry, Riverside, California, USA
##OWNER=RRUFF
##SOURCE=Bob Jenkins
##DESCRIPTION=Green transparent books of mica
##STATUS=The identification of this mineral has been confirmed by X-ray diffraction and chemical analysis
##URL=rruff.info/R060725
##MEASURED CHEMISTRY=(Mg_4.65_Al_1.12_Fe^2+^_0.17_[box]_0.06_)_Σ=6_(Si_3.00_Al_1.00_)_Σ=4_O_10_(OH)_8_
106.577, 484.431
107.060, 488.732
107.542, 503.876
108.024, 517.362
108.506, 527.673
108.988, 534.974
109.470, 543.471
109.952, 549.877
110.434, 559.189
110.916, 574.784
111.399, 597.232
111.881, 625.604
112.363, 661.167
112.845, 705.144
113.327, 748.692
113.809, 790.581
114.291, 831.505
114.773, 872.818
115.256, 913.002
115.738, 954.676
116.220, 999.459
116.702, 1050.371
117.184, 1098.322
117.666, 1135.158
118.148, 1165.626
118.630, 1203.630
119.112, 1252.756
119.595, 1313.068
120.077, 1384.485
120.559, 1466.652
121.041, 1559.791
121.523, 1669.184
122.005, 1793.274
122.487, 1920.248
122.969, 2048.407
123.451, 2172.380
123.934, 2282.876
124.416, 2368.758
124.898, 2442.377
125.380, 2515.868
125.862, 2589.058
126.344, 2666.424
126.826, 2756.999
127.308, 2856.567
127.790, 2953.619
128.273, 3037.199
128.755, 3113.209
129.237, 3195.809
129.719, 3289.152
130.201, 3384.025
130.683, 3470.821
131.165, 3549.577
131.648, 3610.401
132.130, 3635.985
132.612, 3631.896
133.094, 3638.384
133.576, 3668.117
134.058, 3711.564
134.540, 3735.402
135.022, 3737.086
135.504, 3731.441
135.986, 3734.052
136.469, 3745.878
136.951, 3754.377
137.433, 3756.613
137.915, 3752.624
138.397, 3744.504
138.879, 3735.664
139.361, 3717.675
139.843, 3676.102
140.326, 3605.002
140.808, 3526.712
141.290, 3446.921
141.772, 3364.438
142.254, 3287.463
142.736, 3216.358
143.218, 3150.905
143.700, 3093.771
144.182, 3051.486
144.665, 3008.096
145.147, 2954.975
145.629, 2881.118
146.111, 2816.338
146.593, 2768.903
147.075, 2735.187
147.557, 2685.329
148.039, 2602.787
148.521, 2516.841
149.004, 2446.763
149.486, 2400.594
149.968, 2361.967
150.450, 2331.662
150.932, 2311.390
151.414, 2286.780
151.896, 2249.634
152.378, 2211.530
152.861, 2184.032
153.343, 2178.821
153.825, 2173.919
154.307, 2165.777
154.789, 2156.297
155.271, 2136.592
155.753, 2095.869
156.235, 2045.698
156.717, 2004.055
157.200, 1977.179
157.682, 1956.942
158.164, 1940.692
158.646, 1931.641
159.128, 1919.595
159.610, 1898.088
160.092, 1870.733
160.574, 1847.702
161.057, 1833.799
161.539, 1824.472
162.021, 1816.790
162.503, 1811.146
162.985, 1805.633
163.467, 1801.178
163.949, 1797.027
164.431, 1788.652
164.913, 1769.081
165.396, 1746.135
165.878, 1727.437
166.360, 1721.667
166.842, 1716.380
167.324, 1700.584
167.806, 1674.333
168.288, 1654.372
168.770, 1658.218
169.253, 1673.547
169.735, 1682.327
170.217, 1671.533
170.699, 1654.005
171.181, 1640.536
171.663, 1632.113
172.145, 1625.189
172.627, 1616.283
173.109, 1606.629
173.592, 1598.826
174.074, 1596.341
174.556, 1595.693
175.038, 1591.883
175.520, 1583.316
176.002, 1574.588
176.484, 1571.020
176.966, 1571.655
177.449, 1572.851
177.931, 1574.323
178.413, 1574.541
178.895, 1570.759
179.377, 1562.286
179.859, 1549.830
180.341, 1530.928
180.823, 1506.471
181.305, 1486.147
181.788, 1480.219
182.270, 1484.352
182.752, 1486.050
183.234, 1481.214
183.716, 1472.937
184.198, 1467.294
184.680, 1464.316
185.162, 1461.706
185.645, 1457.774
186.127, 1452.543
186.609, 1445.601
187.091, 1433.655
187.573, 1420.429
188.055, 1418.995
188.537, 1430.612
189.019, 1446.356
189.501, 1457.805
189.984, 1465.120
190.466, 1468.929
190.948, 1466.366
191.430, 1459.465
191.912, 1459.966
192.394, 1468.342
192.876, 1482.633
193.358, 1503.218
193.840, 1530.192
194.323, 1553.323
194.805, 1563.195
195.287, 1561.055
195.769, 1571.065
196.251, 1595.669
196.733, 1629.774
197.215, 1662.767
197.697, 1693.922
198.180, 1731.405
198.662, 1780.307
199.144, 1841.396
199.626, 1905.573
200.108, 1971.022
200.590, 2040.824
201.072, 2122.394
201.554, 2217.710
202.036, 2317.869
202.519, 2417.829
203.001, 2517.462
203.483, 2619.155
203.965, 2727.323
204.447, 2836.358
204.929, 2929.916
205.411, 3014.914
205.893, 3065.845
206.376, 3060.633
206.858, 2993.340
207.340, 2896.933
207.822, 2766.647
208.304, 2609.869
208.786, 2471.402
209.268, 2356.012
209.750, 2252.399
210.232, 2149.675
210.714, 2045.435
211.197, 1955.284
211.679, 1885.185
212.161, 1834.026
212.643, 1780.324
213.125, 1721.203
213.607, 1664.809
214.089, 1618.956
214.572, 1585.311
215.054, 1557.673
215.536, 1536.968
216.018, 1523.466
216.500, 1503.831
216.982, 1474.650
217.464, 1443.419
217.946, 1418.795
218.428, 1402.772
218.911, 1389.146
219.393, 1376.536
219.875, 1365.100
220.357, 1353.856
220.839, 1341.217
221.321, 1330.205
221.803, 1325.902
222.285, 1333.227
222.767, 1337.419
223.250, 1332.628
223.732, 1315.716
224.214, 1304.776
224.696, 1302.638
225.178, 1304.558
225.660, 1301.841
226.142, 1290.573
226.624, 1281.736
227.107, 1279.917
227.589, 1288.052
228.071, 1293.917
228.553, 1298.681
229.035, 1300.613
229.517, 1295.012
229.999, 1275.057
230.481, 1258.264
230.963, 1252.259
231.445, 1262.577
231.928, 1269.847
232.410, 1273.800
232.892, 1274.801
233.374, 1273.191
233.856, 1266.662
234.338, 1261.028
234.820, 1259.779
235.303, 1268.981
235.785, 1268.714
236.267, 1253.356
236.749, 1229.235
237.231, 1216.261
237.713, 1220.271
238.195, 1227.375
238.677, 1230.686
239.159, 1226.391
239.641, 1226.910
240.124, 1235.996
240.606, 1250.139
241.088, 1256.197
241.570, 1250.707
242.052, 1241.754
242.534, 1233.179
243.016, 1224.339
243.498, 1217.148
243.981, 1211.502
244.463, 1207.519
244.945, 1206.069
245.427, 1208.749
245.909, 1211.791
246.391, 1212.390
246.873, 1206.714
247.355, 1207.007
247.837, 1217.211
248.320, 1234.584
248.802, 1244.755
249.284, 1244.317
249.766, 1241.123
250.248, 1239.530
250.730, 1239.367
251.212, 1241.729
251.694, 1249.505
252.176, 1260.515
252.659, 1261.712
253.141, 1246.717
253.623, 1230.827
254.105, 1224.557
254.587, 1232.971
255.069, 1239.090
255.551, 1240.601
256.033, 1238.345
256.516, 1237.242
256.998, 1237.189
257.480, 1238.427
257.962, 1240.666
258.444, 1242.621
258.926, 1249.286
259.408, 1263.700
259.890, 1283.984
260.372, 1296.126
260.855, 1295.520
261.337, 1294.154
261.819, 1301.883
262.301, 1323.846
262.783, 1339.778
263.265, 1344.809
263.747, 1341.354
264.229, 1345.067
264.711, 1358.077
265.194, 1374.396
265.676, 1389.265
266.158, 1401.280
266.640, 1416.268
267.122, 1435.475
267.604, 1458.355
268.086, 1480.057
268.569, 1499.224
269.051, 1520.586
269.533, 1549.614
270.015, 1589.378
270.497, 1623.379
270.979, 1648.237
271.461, 1665.813
271.943, 1682.693
272.425, 1697.321
272.908, 1715.246
273.390, 1739.769
273.872, 1770.310
274.354, 1810.455
274.836, 1864.574
275.318, 1928.065
275.800, 1983.358
276.282, 2030.048
276.764, 2069.671
277.247, 2103.163
277.729, 2130.163
278.211, 2153.642
278.693, 2175.594
279.175, 2193.719
279.657, 2199.136
280.139, 2190.484
280.621, 2175.371
281.103, 2158.997
281.586, 2141.387
282.068, 2120.766
282.550, 2097.442
283.032, 2070.510
283.514, 2036.583
283.996, 1995.173
284.478, 1950.723
284.960, 1902.439
285.443, 1850.865
285.925, 1811.947
286.407, 1791.411
286.889, 1780.821
287.371, 1761.490
287.853, 1733.162
288.335, 1702.601
288.817, 1671.583
289.299, 1641.148
289.782, 1619.049
290.264, 1608.475
290.746, 1604.140
291.228, 1596.495
291.710, 1585.691
292.192, 1576.061
292.674, 1572.016
293.156, 1571.878
293.638, 1568.659
294.121, 1559.826
294.603, 1550.996
295.085, 1553.883
295.567, 1566.828
296.049, 1576.400
296.531, 1569.120
297.013, 1552.215
297.496, 1543.303
297.978, 1545.292
298.460, 1554.534
298.942, 1571.461
299.424, 1593.646
299.906, 1609.994
300.388, 1610.396
300.870, 1601.154
301.352, 1591.763
301.835, 1582.163
302.317, 1576.428
302.799, 1581.015
303.281, 1593.349
303.763, 1605.944
304.245, 1614.265
304.727, 1620.542
305.209, 1627.545
305.691, 1635.806
306.174, 1643.683
306.656, 1652.060
307.138, 1659.227
307.620, 1661.554
308.102, 1653.099
308.584, 1641.444
309.066, 1634.809
309.548, 1634.650
310.030, 1632.508
310.513, 1617.693
310.995, 1597.702
311.477, 1584.797
311.959, 1585.168
312.441, 1593.680
312.923, 1610.524
313.405, 1636.582
313.887, 1657.738
314.370, 1662.895
314.852, 1660.372
315.334, 1660.661
315.816, 1668.146
316.298, 1678.724
316.780, 1691.438
317.262, 1706.213
317.744, 1720.807
318.226, 1732.954
318.709, 1744.997
319.191, 1759.103
319.673, 1775.041
320.155, 1793.955
320.637, 1818.785
321.119, 1849.014
321.601, 1874.847
322.083, 1892.101
322.565, 1904.730
323.048, 1915.489
323.530, 1918.920
324.012, 1926.797
324.494, 1944.168
324.976, 1969.544
325.458, 1990.800
325.940, 2004.953
326.422, 2015.651
326.905, 2025.073
327.387, 2032.686
327.869, 2039.724
328.351, 2045.870
328.833, 2051.339
329.315, 2057.454
329.797, 2069.494
330.279, 2077.339
330.762, 2075.783
331.244, 2052.676
331.726, 2040.945
332.208, 2046.735
332.690, 2062.817
333.172, 2069.914
333.654, 2061.106
334.136, 2053.520
334.618, 2054.064
335.100, 2064.722
335.583, 2077.666
336.065, 2095.032
336.547, 2113.093
337.029, 2123.087
337.511, 2118.663
337.993, 2123.068
338.475, 2148.877
338.957, 2198.272
339.440, 2233.299
339.922, 2248.957
340.404, 2258.752
340.886, 2279.675
341.368, 2311.711
341.850, 2354.339
342.332, 2410.833
342.814, 2479.024
343.297, 2535.110
343.779, 2577.181
344.261, 2617.511
344.743, 2666.146
345.225, 2723.381
345.707, 2796.061
346.189, 2891.311
346.671, 3000.885
347.153, 3105.558
347.635, 3204.489
348.118, 3311.765
348.600, 3447.066
349.082, 3602.542
349.564, 3750.873
350.046, 3883.255
350.528, 4011.675
351.010, 4156.900
351.492, 4317.018
351.975, 4485.957
352.457, 4668.195
352.939, 4852.799
353.421, 5023.936
353.903, 5181.898
354.385, 5317.970
354.867, 5420.133
355.349, 5493.029
355.832, 5549.689
356.314, 5614.002
356.796, 5656.994
357.278, 5647.033
357.760, 5575.386
358.242, 5474.307
358.724, 5355.669
359.206, 5221.958
359.688, 5077.205
360.171, 4921.421
360.653, 4756.210
361.135, 4576.925
361.617, 4380.662
362.099, 4194.577
362.581, 4036.022
363.063, 3888.361
363.545, 3734.356
364.027, 3547.138
364.510, 3374.953
364.992, 3236.618
365.474, 3131.578
365.956, 3029.253
366.438, 2917.853
366.920, 2812.488
367.402, 2722.372
367.884, 2660.188
368.366, 2599.647
368.849, 2538.054
369.331, 2475.953
369.813, 2417.668
370.295, 2361.100
370.777, 2310.586
371.259, 2268.197
371.741, 2236.259
372.224, 2209.039
372.706, 2188.588
373.188, 2171.937
373.670, 2152.747
374.152, 2129.906
374.634, 2106.725
375.116, 2084.301
375.598, 2062.300
376.080, 2042.832
376.562, 2027.157
377.045, 2012.306
377.527, 1993.696
378.009, 1970.287
378.491, 1948.919
378.973, 1930.879
379.455, 1916.420
379.937, 1909.648
380.419, 1911.706
380.902, 1915.248
381.384, 1912.293
381.866, 1903.788
382.348, 1896.544
382.830, 1890.187
383.312, 1888.049
383.794, 1899.747
384.276, 1924.270
384.759, 1950.063
385.241, 1967.544
385.723, 1980.260
386.205, 1995.056
386.687, 2013.173
387.169, 2033.148
387.651, 2051.732
388.133, 2070.252
388.615, 2093.111
389.098, 2125.864
389.580, 2162.258
390.062, 2198.625
390.544, 2236.510
391.026, 2263.786
391.508, 2275.203
391.990, 2270.925
392.472, 2251.130
392.954, 2210.562
393.437, 2159.244
393.919, 2095.780
394.401, 2021.683
394.883, 1956.565
395.365, 1910.391
395.847, 1874.682
396.329, 1842.794
396.811, 1814.336
397.293, 1788.578
397.776, 1764.378
398.258, 1742.510
398.740, 1725.683
399.222, 1718.474
399.704, 1712.711
400.186, 1705.240
400.668, 1696.551
401.151, 1684.995
401.633, 1668.548
402.115, 1650.082
402.597, 1633.969
403.079, 1618.402
403.561, 1608.792
404.043, 1608.692
404.525, 1619.314
405.007, 1625.378
405.490, 1626.377
405.972, 1623.686
406.454, 1616.160
406.936, 1602.216
407.418, 1597.107
407.900, 1607.471
408.382, 1628.197
408.864, 1640.391
409.346, 1643.357
409.828, 1645.128
410.311, 1654.877
410.793, 1669.640
411.275, 1674.108
411.757, 1662.127
412.239, 1647.854
412.721, 1654.843
413.203, 1679.010
413.685, 1700.974
414.168, 1703.884
414.650, 1700.501
415.132, 1710.602
415.614, 1736.910
416.096, 1763.521
416.578, 1777.818
417.060, 1784.371
417.542, 1790.254
418.025, 1795.242
418.507, 1802.865
418.989, 1815.583
419.471, 1833.089
419.953, 1853.298
420.435, 1879.415
420.917, 1905.435
421.399, 1926.569
421.881, 1939.565
422.364, 1950.830
422.846, 1960.680
423.328, 1969.805
423.810, 1979.713
424.292, 1990.507
424.774, 2002.381
425.256, 2016.227
425.738, 2034.657
426.220, 2047.521
426.703, 2051.469
427.185, 2052.153
427.667, 2057.242
428.149, 2071.296
428.631, 2079.783
429.113, 2077.094
429.595, 2064.588
430.077, 2062.262
430.560, 2074.698
431.042, 2084.871
431.524, 2075.654
432.006, 2045.745
432.488, 2024.281
432.970, 2016.088
433.452, 2016.392
433.934, 2020.303
434.417, 2027.333
434.899, 2024.988
435.381, 1998.205
435.863, 1957.217
436.345, 1929.864
436.827, 1918.236
437.309, 1912.904
437.791, 1906.030
438.273, 1898.369
438.755, 1891.650
439.238, 1890.935
439.720, 1888.000
440.202, 1871.753
440.684, 1844.406
441.166, 1820.646
441.648, 1813.769
442.130, 1811.642
442.612, 1803.675
443.095, 1783.840
443.577, 1765.158
444.059, 1752.049
444.541, 1743.221
445.023, 1736.130
445.505, 1731.513
445.987, 1727.355
446.469, 1724.026
446.952, 1722.774
447.434, 1716.296
447.916, 1702.107
448.398, 1684.172
448.880, 1665.722
449.362, 1643.868
449.844, 1626.391
450.326, 1614.709
450.808, 1608.123
451.290, 1604.176
451.773, 1603.702
452.255, 1603.776
452.737, 1600.858
453.219, 1594.148
453.701, 1597.801
454.183, 1615.223
454.665, 1636.573
455.147, 1647.059
455.630, 1647.271
456.112, 1646.249
456.594, 1645.392
457.076, 1646.455
457.558, 1656.164
458.040, 1674.280
458.522, 1690.479
459.004, 1692.212
459.487, 1687.518
459.969, 1690.659
460.451, 1708.733
460.933, 1728.407
461.415, 1738.214
461.897, 1740.848
462.379, 1742.688
462.861, 1753.045
463.343, 1758.692
463.826, 1748.148
464.308, 1717.549
464.790, 1691.607
465.272, 1683.331
465.754, 1681.096
466.236, 1673.435
466.718, 1650.511
467.200, 1631.211
467.682, 1621.425
468.165, 1618.765
468.647, 1609.510
469.129, 1590.664
469.611, 1568.783
470.093, 1544.987
470.575, 1515.318
471.057, 1498.700
471.539, 1500.849
472.022, 1509.199
472.504, 1502.451
472.986, 1478.018
473.468, 1458.816
473.950, 1455.286
474.432, 1461.901
474.914, 1456.427
475.396, 1438.398
475.878, 1419.720
476.361, 1409.128
476.843, 1405.458
477.325, 1406.834
477.807, 1414.726
478.289, 1422.475
478.771, 1420.977
479.253, 1413.541
479.735, 1408.353
480.217, 1410.908
480.700, 1416.286
481.182, 1420.919
481.664, 1424.616
482.146, 1428.224
482.628, 1430.390
483.110, 1433.423
483.592, 1439.255
484.074, 1451.126
484.556, 1462.440
485.039, 1474.665
485.521, 1485.593
486.003, 1488.497
486.485, 1473.710
486.967, 1461.265
487.449, 1457.938
487.931, 1465.122
488.414, 1474.032
488.896, 1486.127
489.378, 1498.047
489.860, 1506.048
490.342, 1509.375
490.824, 1513.075
491.306, 1518.387
491.788, 1524.469
492.270, 1528.409
492.753, 1530.106
493.235, 1533.242
493.717, 1540.271
494.199, 1550.394
494.681, 1562.507
495.163, 1576.894
495.645, 1589.396
496.127, 1593.221
496.609, 1592.261
497.092, 1593.897
497.574, 1600.378
498.056, 1610.739
498.538, 1627.238
499.020, 1648.057
499.502, 1664.948
499.984, 1670.833
500.466, 1674.378
500.948, 1680.781
501.431, 1691.382
501.913, 1703.174
502.395, 1718.271
502.877, 1733.372
503.359, 1744.024
503.841, 1745.789
504.323, 1749.209
504.805, 1757.955
505.288, 1770.418
505.770, 1774.267
506.252, 1764.677
506.734, 1756.385
507.216, 1758.945
507.698, 1773.299
508.180, 1786.979
508.662, 1799.411
509.145, 1811.418
509.627, 1823.401
510.109, 1835.630
510.591, 1850.276
511.073, 1869.662
511.555, 1890.812
512.037, 1909.234
512.519, 1925.033
513.001, 1938.232
513.484, 1946.548
513.966, 1953.579
514.448, 1963.302
514.930, 1976.639
515.412, 1991.481
515.894, 2008.668
516.376, 2026.152
516.858, 2040.854
517.341, 2050.513
517.823, 2058.813
518.305, 2063.739
518.787, 2066.186
519.269, 2077.501
519.751, 2107.799
520.233, 2137.952
520.715, 2157.309
521.197, 2159.433
521.680, 2170.404
522.162, 2192.725
522.644, 2221.131
523.126, 2248.852
523.608, 2276.301
524.090, 2300.567
524.572, 2318.594
525.054, 2334.135
525.536, 2360.765
526.019, 2398.261
526.501, 2437.117
526.983, 2472.193
527.465, 2503.363
527.947, 2530.118
528.429, 2551.828
528.911, 2569.642
529.393, 2580.522
529.875, 2588.694
530.358, 2600.435
530.840, 2622.361
531.322, 2644.260
531.804, 2659.056
532.286, 2669.009
532.768, 2683.061
533.250, 2706.931
533.732, 2732.913
534.214, 2758.317
534.697, 2783.642
535.179, 2805.945
535.661, 2823.717
536.143, 2839.675
536.625, 2854.131
537.107, 2862.329
537.589, 2885.164
538.071, 2930.246
538.554, 2989.754
539.036, 3037.272
539.518, 3071.641
540.000, 3107.060
540.482, 3149.204
540.964, 3197.801
541.446, 3251.283
541.928, 3309.045
542.411, 3376.652
542.893, 3459.047
543.375, 3555.027
543.857, 3660.957
544.339, 3771.823
544.821, 3896.457
545.303, 4034.795
545.785, 4191.814
546.268, 4380.368
546.750, 4629.294
547.232, 4889.245
547.714, 5137.559
548.196, 5367.345
548.678, 5613.374
549.160, 5901.906
549.642, 6188.026
550.124, 6448.002
550.606, 6699.293
551.089, 6889.119
551.571, 7028.110
552.053, 7093.228
552.535, 7033.639
553.017, 6842.912
553.499, 6579.282
553.981, 6242.671
554.463, 5853.953
554.945, 5474.334
555.428, 5102.451
555.910, 4747.542
556.392, 4405.197
556.874, 4086.731
557.356, 3817.242
557.838, 3604.368
558.320, 3419.404
558.802, 3242.485
559.284, 3079.969
559.767, 2937.445
560.249, 2833.876
560.731, 2735.494
561.213, 2621.785
561.695, 2500.917
562.177, 2406.916
562.659, 2366.054
563.141, 2332.954
563.624, 2292.480
564.106, 2243.382
564.588, 2193.385
565.070, 2141.319
565.552, 2090.831
566.034, 2046.972
566.516, 2011.020
566.998, 1970.898
567.481, 1922.615
567.963, 1873.481
568.445, 1837.639
568.927, 1813.926
569.409, 1792.188
569.891, 1767.927
570.373, 1742.641
570.855, 1719.369
571.338, 1697.665
571.820, 1675.407
572.302, 1647.715
572.784, 1620.396
573.266, 1598.262
573.748, 1583.311
574.230, 1571.393
574.712, 1567.579
575.194, 1564.256
575.677, 1550.816
576.159, 1515.526
576.641, 1484.181
577.123, 1460.935
577.605, 1444.541
578.087, 1428.710
578.569, 1414.006
579.051, 1398.042
579.533, 1377.391
580.016, 1352.444
580.498, 1337.215
580.980, 1332.746
581.462, 1331.553
581.944, 1326.747
582.426, 1319.166
582.908, 1311.240
583.390, 1303.562
583.872, 1295.716
584.355, 1289.477
584.837, 1282.728
585.319, 1270.901
585.801, 1244.077
586.283, 1218.791
586.765, 1203.850
587.247, 1199.207
587.729, 1196.663
588.211, 1198.995
588.694, 1199.423
589.176, 1193.544
589.658, 1176.520
590.140, 1168.073
590.622, 1172.472
591.104, 1180.343
591.586, 1179.879
592.068, 1170.061
592.551, 1161.411
593.033, 1155.987
593.515, 1152.871
593.997, 1151.792
594.479, 1152.131
594.961, 1149.361
595.443, 1136.282
595.925, 1121.193
596.407, 1116.008
596.890, 1120.502
597.372, 1126.242
597.854, 1128.912
598.336, 1130.249
598.818, 1131.831
599.300, 1134.638
599.782, 1135.989
600.265, 1136.556
600.747, 1134.809
601.229, 1128.423
601.711, 1110.555
602.193, 1099.531
602.675, 1100.476
603.157, 1109.570
603.639, 1113.503
604.121, 1111.134
604.604, 1109.163
605.086, 1110.166
605.568, 1114.130
606.050, 1122.590
606.532, 1135.705
607.014, 1147.698
607.496, 1154.110
607.978, 1156.038
608.460, 1154.151
608.943, 1147.134
609.425, 1141.307
609.907, 1140.902
610.389, 1144.164
610.871, 1148.582
611.353, 1155.859
611.835, 1161.521
612.317, 1164.741
612.799, 1165.471
613.282, 1163.801
613.764, 1158.414
614.246, 1152.620
614.728, 1147.209
615.210, 1142.195
615.692, 1138.922
616.174, 1137.161
616.656, 1138.020
617.138, 1143.801
617.621, 1153.347
618.103, 1161.868
618.585, 1168.934
619.067, 1173.567
619.549, 1173.186
620.031, 1169.795
620.513, 1166.938
620.995, 1164.227
621.477, 1164.231
621.960, 1172.698
622.442, 1185.490
622.924, 1190.478
623.406, 1173.986
623.888, 1159.464
624.370, 1155.543
624.852, 1162.557
625.334, 1171.473
625.817, 1185.504
626.299, 1196.241
626.781, 1196.543
627.263, 1185.433
627.745, 1177.841
628.227, 1174.186
628.709, 1174.782
629.191, 1184.491
629.674, 1199.640
