##NAMES=Clinoptilolite-K
##RRUFFID=R110201
##IDEAL CHEMISTRY=K_6_(Si_30_Al_6_)O_72_&#183;20H_2_O
##LOCALITY=Conejo Volcanics, Agoura, Santa Monica Mountains, Los Angeles County, California, USA
##OWNER=RRUFF
##SOURCE=Donald Doell
##DESCRIPTION=Colorless tabular crystals associated with ferrierite-K R110200
##STATUS=The identification of this mineral has been confirmed only by single crystal X-ray diffraction.
##URL=rruff.info/R110201
229.4889, 483.9554
229.9710, 485.1770
230.4531, 485.8334
230.9353, 485.6813
231.4174, 485.2738
231.8995, 484.8437
232.3816, 484.4710
232.8637, 484.4281
233.3458, 484.9593
233.8280, 485.9313
234.3101, 486.9403
234.7922, 487.9951
235.2743, 489.0428
235.7564, 490.0150
236.2385, 490.9555
236.7207, 491.9707
237.2028, 493.1840
237.6849, 494.5184
238.1670, 495.6949
238.6491, 496.8350
239.1312, 497.5820
239.6134, 497.6704
240.0955, 497.3528
240.5776, 496.9924
241.0597, 496.6511
241.5418, 496.4762
242.0239, 497.2898
242.5061, 500.1502
242.9882, 502.5673
243.4703, 503.6654
243.9524, 503.9385
244.4345, 504.0354
244.9166, 504.2420
245.3988, 504.6553
245.8809, 505.7943
246.3630, 508.6372
246.8451, 510.9421
247.3272, 512.1199
247.8093, 512.5685
248.2915, 512.7330
248.7736, 512.8311
249.2557, 512.9203
249.7378, 513.2482
250.2199, 514.2891
250.7020, 514.9695
251.1842, 514.7814
251.6663, 514.2873
252.1484, 514.2080
252.6305, 514.9000
253.1126, 516.0766
253.5947, 516.8508
254.0769, 516.9711
254.5590, 516.9289
255.0411, 516.5860
255.5232, 516.1663
256.0053, 515.8989
256.4874, 515.8823
256.9695, 516.0668
257.4517, 516.3328
257.9338, 516.9688
258.4159, 517.3249
258.8980, 517.2206
259.3801, 516.9091
259.8622, 516.5985
260.3444, 516.3661
260.8265, 516.2638
261.3086, 516.4142
261.7907, 517.3644
262.2728, 517.6484
262.7549, 516.7043
263.2371, 515.3477
263.7192, 514.3797
264.2013, 514.0124
264.6834, 513.9503
265.1655, 513.7650
265.6476, 513.3774
266.1298, 513.0578
266.6119, 513.0259
267.0940, 512.9476
267.5761, 512.4740
268.0582, 511.5445
268.5403, 510.4144
269.0225, 509.3566
269.5046, 508.3872
269.9867, 507.4732
270.4688, 506.3705
270.9509, 505.4818
271.4330, 505.3667
271.9152, 506.0406
272.3973, 506.6936
272.8794, 506.5016
273.3615, 505.3803
273.8436, 504.5115
274.3257, 503.9369
274.8079, 503.5970
275.2900, 503.5669
275.7721, 503.8160
276.2542, 503.9897
276.7363, 503.7204
277.2184, 503.1077
277.7006, 502.9551
278.1827, 503.8315
278.6648, 504.7161
279.1469, 504.8599
279.6290, 504.3159
280.1111, 503.6306
280.5933, 503.2416
281.0754, 502.8778
281.5575, 501.7379
282.0396, 499.1595
282.5217, 496.6242
283.0038, 495.0625
283.4860, 494.3536
283.9681, 493.9177
284.4502, 493.7405
284.9323, 493.4547
285.4144, 492.3109
285.8965, 489.9713
286.3787, 487.6437
286.8608, 485.8914
287.3429, 484.6758
287.8250, 483.8603
288.3071, 483.4832
288.7892, 483.4012
289.2714, 483.5466
289.7535, 484.0175
290.2356, 484.0151
290.7177, 482.8206
291.1998, 480.8575
291.6819, 479.2149
292.1641, 478.1216
292.6462, 477.4292
293.1283, 476.9674
293.6104, 476.7182
294.0925, 476.7504
294.5746, 477.9348
295.0568, 479.2804
295.5389, 478.3441
296.0210, 474.1137
296.5031, 469.7906
296.9852, 468.5157
297.4673, 469.3885
297.9495, 470.1822
298.4316, 470.0237
298.9137, 469.4361
299.3958, 469.2948
299.8779, 469.7468
300.3600, 470.0161
300.8422, 469.4189
301.3243, 468.3031
301.8064, 467.2147
302.2885, 466.1274
302.7706, 465.2419
303.2527, 464.8949
303.7349, 465.1258
304.2170, 465.3111
304.6991, 465.0236
305.1812, 464.5911
305.6633, 464.5181
306.1454, 465.0248
306.6276, 465.5000
307.1097, 465.2698
307.5918, 464.3854
308.0739, 463.7382
308.5560, 463.7392
309.0381, 464.0157
309.5203, 464.0916
310.0024, 463.9277
310.4845, 463.8481
310.9666, 464.0306
311.4487, 464.4687
311.9308, 465.2078
312.4130, 466.4963
312.8951, 467.7220
313.3772, 468.3965
313.8593, 468.5548
314.3414, 468.3175
314.8235, 467.2858
315.3057, 465.9180
315.7878, 465.5679
316.2699, 465.3380
316.7520, 467.9735
317.2341, 466.0372
317.7162, 468.0190
318.1984, 469.2520
318.6805, 469.7766
319.1626, 467.4706
319.6447, 468.8197
320.1268, 468.7039
320.6089, 468.5282
321.0911, 470.3917
321.5732, 468.4974
322.0553, 470.3285
322.5374, 470.6725
323.0195, 471.6971
323.5016, 471.2479
323.9838, 471.2540
324.4659, 471.3688
324.9480, 471.4042
325.4301, 470.7308
325.9122, 469.8510
326.3943, 468.6870
326.8765, 467.7933
327.3586, 467.8492
327.8407, 468.6377
328.3228, 468.8693
328.8049, 467.9090
329.2870, 466.7809
329.7692, 466.5680
330.2513, 467.1953
330.7334, 467.9389
331.2155, 468.5760
331.6976, 469.0682
332.1797, 469.3123
332.6619, 469.2726
333.1440, 469.0517
333.6261, 468.5220
334.1082, 467.8534
334.5903, 467.4941
335.0724, 467.7315
335.5546, 468.2765
336.0367, 468.8612
336.5188, 469.5075
337.0009, 469.9157
337.4830, 469.7833
337.9651, 469.3253
338.4473, 468.8866
338.9294, 468.2359
339.4115, 468.0368
339.8936, 469.2520
340.3758, 471.6503
340.8579, 473.4101
341.3400, 473.6696
341.8221, 473.1356
342.3042, 473.0543
342.7863, 473.5867
343.2685, 473.6922
343.7506, 472.5615
344.2327, 470.6374
344.7148, 468.9762
345.1969, 467.8189
345.6790, 466.9102
346.1612, 465.9298
346.6433, 464.9002
347.1254, 464.1416
347.6075, 463.9337
348.0896, 463.9470
348.5717, 463.7765
349.0539, 463.3828
349.5360, 462.9510
350.0181, 462.5379
350.5002, 462.2040
350.9823, 462.1464
351.4644, 462.6891
351.9466, 463.2437
352.4287, 463.3167
352.9108, 463.0137
353.3929, 462.8085
353.8750, 462.8510
354.3571, 463.2245
354.8393, 464.1828
355.3214, 466.0402
355.8035, 467.6863
356.2856, 468.6399
356.7677, 469.1271
357.2498, 469.4752
357.7320, 469.7416
358.2141, 470.0891
358.6962, 470.8053
359.1783, 471.9655
359.6604, 473.0150
360.1425, 473.6827
360.6247, 474.3498
361.1068, 475.5257
361.5889, 477.2123
362.0710, 478.6949
362.5531, 479.2256
363.0352, 478.8520
363.5174, 479.4514
363.9995, 482.0148
364.4816, 484.4774
364.9637, 485.7114
365.4458, 486.0433
365.9279, 486.3118
366.4101, 486.8964
366.8922, 487.8361
367.3743, 489.2935
367.8564, 491.7296
368.3385, 493.9903
368.8206, 495.8405
369.3028, 497.4777
369.7849, 499.0991
370.2670, 500.7567
370.7491, 502.4232
371.2312, 504.0493
371.7133, 505.5674
372.1955, 507.2369
372.6776, 509.2851
373.1597, 511.2777
373.6418, 512.8275
374.1239, 514.0341
374.6060, 515.3684
375.0882, 517.2440
375.5703, 519.6368
376.0524, 521.8807
376.5345, 523.9587
377.0166, 525.9310
377.4987, 527.5345
377.9809, 529.1211
378.4630, 531.2236
378.9451, 534.0900
379.4272, 537.4721
379.9093, 540.8185
380.3914, 544.4294
380.8736, 547.4780
381.3557, 549.3647
381.8378, 551.1394
382.3199, 553.4890
382.8020, 556.5637
383.2841, 560.2037
383.7663, 564.3176
384.2484, 569.0290
384.7305, 573.4399
385.2126, 577.0228
385.6947, 580.8245
386.1768, 585.1519
386.6590, 589.9574
387.1411, 595.0807
387.6232, 600.4301
388.1053, 606.0651
388.5874, 612.2874
389.0695, 619.8224
389.5517, 626.5192
390.0338, 631.1016
390.5159, 635.2118
390.9980, 640.2928
391.4801, 646.7624
391.9622, 654.0649
392.4444, 661.8307
392.9265, 670.1566
393.4086, 677.8799
393.8907, 684.1300
394.3728, 690.4114
394.8549, 697.6719
395.3371, 705.7418
395.8192, 713.7861
396.3013, 721.1987
396.7834, 728.1969
397.2655, 735.4484
397.7477, 743.0231
398.2298, 750.6331
398.7119, 758.1111
399.1940, 765.5494
399.6761, 773.1869
400.1582, 781.4278
400.6404, 789.1138
401.1225, 794.7284
401.6046, 798.4269
402.0867, 802.1921
402.5688, 806.8409
403.0509, 811.5238
403.5331, 815.3466
404.0152, 818.3206
404.4973, 820.6767
404.9794, 822.8019
405.4615, 824.2947
405.9436, 824.3685
406.4258, 822.8806
406.9079, 820.4336
407.3900, 817.3285
407.8721, 813.6075
408.3542, 809.5781
408.8363, 805.4371
409.3185, 800.8510
409.8006, 795.7569
410.2827, 790.0858
410.7648, 783.5839
411.2469, 776.0300
411.7290, 767.8203
412.2112, 759.9179
412.6933, 752.7481
413.1754, 744.8422
413.6575, 735.4252
414.1396, 725.4433
414.6217, 715.7719
415.1039, 706.5977
415.5860, 697.6848
416.0681, 688.8495
416.5502, 680.1215
417.0323, 671.1044
417.5144, 661.6412
417.9966, 652.1094
418.4787, 642.3690
418.9608, 632.7200
419.4429, 623.6773
419.9250, 615.5379
420.4071, 607.9839
420.8893, 600.0929
421.3714, 591.2237
421.8535, 583.0848
422.3356, 576.4060
422.8177, 569.9162
423.2998, 562.4964
423.7820, 554.0925
424.2641, 545.6605
424.7462, 538.1381
425.2283, 531.5188
425.7104, 525.4746
426.1925, 520.6420
426.6747, 515.7215
427.1568, 510.1300
427.6389, 504.2518
428.1210, 498.6851
428.6031, 493.6807
429.0852, 489.2374
429.5674, 485.6417
430.0495, 483.3438
430.5316, 480.2561
431.0137, 474.7379
431.4958, 469.0747
431.9779, 464.9761
432.4601, 462.4464
432.9422, 459.9426
433.4243, 455.8698
433.9064, 450.7614
434.3885, 447.0140
434.8706, 445.0983
435.3528, 443.6802
435.8349, 442.0868
436.3170, 440.3695
436.7991, 438.5084
437.2812, 436.1146
437.7633, 434.1256
438.2455, 434.0829
438.7276, 435.5847
439.2097, 435.6583
439.6918, 432.7826
440.1739, 428.7852
440.6560, 426.4372
441.1382, 425.7686
441.6203, 425.2553
442.1024, 424.4655
442.5845, 423.6225
443.0666, 423.1186
443.5487, 422.9463
444.0309, 422.5230
444.5130, 421.3163
444.9951, 419.4458
445.4772, 418.0296
445.9593, 416.4019
446.4414, 415.9135
446.9236, 418.2194
447.4057, 421.5666
447.8878, 423.2013
448.3699, 422.2051
448.8520, 419.9051
449.3341, 418.2377
449.8163, 417.2155
450.2984, 416.9160
450.7805, 417.2627
451.2626, 418.2741
451.7447, 420.5111
452.2268, 423.4550
452.7090, 425.8132
453.1911, 426.6080
453.6732, 426.3537
454.1553, 427.2531
454.6374, 430.0210
455.1195, 432.7758
455.6017, 435.2516
456.0838, 437.5575
456.5659, 439.6035
457.0480, 441.4566
457.5301, 443.5441
458.0122, 446.3155
458.4944, 449.7743
458.9765, 453.6576
459.4586, 458.5725
459.9407, 462.9523
460.4228, 465.5924
460.9049, 467.2611
461.3871, 469.3330
461.8692, 472.3718
462.3513, 475.8604
462.8334, 479.1637
463.3155, 482.2941
463.7976, 485.6544
464.2798, 489.7224
464.7619, 493.6323
465.2440, 496.1284
465.7261, 497.2022
466.2082, 498.4299
466.6903, 500.3564
467.1725, 502.7184
467.6546, 505.2662
468.1367, 507.9587
468.6188, 510.7105
469.1009, 513.4130
469.5830, 516.1194
470.0652, 519.1777
470.5473, 522.8082
471.0294, 526.4291
471.5115, 529.7007
471.9936, 532.9529
472.4757, 536.5788
472.9579, 540.6807
473.4400, 545.2437
473.9221, 550.3152
474.4042, 556.0325
474.8863, 561.4402
475.3684, 566.9607
475.8506, 571.8193
476.3327, 575.5106
476.8148, 578.3716
477.2969, 580.9499
477.7790, 583.4920
478.2611, 585.9110
478.7433, 588.0754
479.2254, 590.1874
479.7075, 591.4308
480.1896, 592.0505
480.6717, 591.4904
481.1538, 589.1262
481.6360, 585.1643
482.1181, 580.4780
482.6002, 575.4955
483.0823, 570.2869
483.5644, 565.1256
484.0465, 560.2900
484.5287, 554.5419
485.0108, 546.8651
485.4929, 538.1879
485.9750, 529.3737
486.4571, 520.4493
486.9392, 511.9811
487.4214, 504.7701
487.9035, 498.1914
488.3856, 490.8176
488.8677, 482.2926
489.3498, 473.5816
489.8319, 465.5335
490.3141, 458.0917
490.7962, 450.5640
491.2783, 442.3959
491.7604, 434.6596
492.2425, 428.0490
492.7246, 422.1402
493.2068, 415.9579
493.6889, 409.1805
494.1710, 402.5433
494.6531, 397.3677
495.1352, 394.3200
495.6173, 390.6691
496.0995, 385.6840
496.5816, 380.8957
497.0637, 377.1252
497.5458, 374.1456
498.0279, 371.3780
498.5100, 368.5042
498.9922, 365.5819
499.4743, 362.5937
499.9564, 359.1950
500.4385, 356.6402
500.9206, 355.8861
501.4027, 355.3844
501.8849, 354.3566
502.3670, 352.7197
502.8491, 350.6235
503.3312, 347.7408
503.8133, 344.5706
504.2954, 342.6353
504.7776, 342.1867
505.2597, 341.8289
505.7418, 340.9946
506.2239, 339.8466
506.7060, 338.5872
507.1881, 337.1841
507.6703, 335.8645
508.1524, 334.7753
508.6345, 333.8329
509.1166, 332.8437
509.5987, 331.7744
510.0808, 330.9167
510.5630, 330.5908
511.0451, 330.7282
511.5272, 330.5004
512.0093, 329.8431
512.4914, 328.9489
512.9735, 327.6595
513.4556, 326.2503
513.9377, 324.9803
514.4199, 323.9572
514.9020, 323.3066
515.3841, 323.3011
515.8662, 324.1211
516.3483, 324.3513
516.8304, 323.5192
517.3126, 322.5792
517.7947, 321.6998
518.2768, 320.9066
518.7589, 320.2612
519.2410, 319.8009
519.7231, 319.3006
520.2053, 318.2934
520.6874, 316.7170
521.1695, 315.6077
521.6516, 315.3934
522.1337, 315.3070
522.6158, 314.7065
523.0980, 313.7954
523.5801, 313.1732
524.0622, 313.2565
524.5443, 313.5180
525.0264, 313.2847
525.5085, 312.6751
525.9907, 312.4829
526.4728, 313.1316
526.9549, 313.9897
527.4370, 314.0853
527.9191, 313.3150
528.4012, 312.5258
528.8834, 311.4710
529.3655, 310.7056
529.8476, 310.9594
530.3297, 311.8585
530.8118, 312.3028
531.2939, 311.6826
531.7761, 310.3640
532.2582, 309.2406
532.7403, 308.1594
533.2224, 307.5878
533.7045, 307.8992
534.1866, 308.3258
534.6688, 308.5585
535.1509, 308.5074
535.6330, 308.0452
536.1151, 306.9429
536.5972, 305.5660
537.0793, 304.9671
537.5615, 305.3495
538.0436, 305.6876
538.5257, 305.6191
539.0078, 305.4471
539.4899, 305.5003
539.9720, 305.7694
540.4542, 305.8649
540.9363, 305.5000
541.4184, 304.9017
541.9005, 304.3590
542.3826, 303.8860
542.8647, 303.4742
543.3469, 303.1162
543.8290, 302.8157
544.3111, 302.5780
544.7932, 302.3666
545.2753, 302.2836
545.7574, 302.6880
546.2396, 302.9772
546.7217, 302.2809
547.2038, 300.8533
547.6859, 299.9894
548.1680, 300.6856
548.6501, 302.4932
549.1323, 303.4075
549.6144, 302.9627
550.0965, 302.3843
550.5786, 301.5336
551.0607, 300.8268
551.5428, 300.6351
552.0250, 300.9258
552.5071, 301.3571
552.9892, 301.8892
553.4713, 302.3100
553.9534, 301.7946
554.4355, 300.0865
554.9177, 298.7426
555.3998, 298.4495
555.8819, 298.8133
556.3640, 299.4433
556.8461, 300.4400
557.3282, 300.8204
557.8104, 299.4451
558.2925, 297.6959
558.7746, 297.4590
559.2567, 298.6582
559.7388, 299.7225
560.2209, 299.7039
560.7031, 298.8919
561.1852, 298.2104
561.6673, 297.6778
562.1494, 297.2538
562.6315, 296.9123
563.1136, 296.7002
563.5958, 296.7302
564.0779, 296.9362
564.5600, 297.1055
565.0421, 297.0838
565.5242, 296.9212
566.0063, 296.7526
566.4885, 296.5110
566.9706, 296.4612
567.4527, 297.0846
567.9348, 297.6010
568.4169, 297.3042
568.8990, 296.2859
569.3812, 295.3961
569.8633, 295.0537
570.3454, 295.1170
570.8275, 295.6966
571.3096, 296.7097
571.7917, 296.9118
572.2739, 295.4806
572.7560, 293.4391
573.2381, 292.6541
573.7202, 293.3813
574.2023, 294.2360
574.6844, 295.3711
575.1666, 296.3581
575.6487, 296.8800
576.1308, 297.0069
576.6129, 296.9603
577.0950, 296.8523
577.5771, 296.6676
578.0593, 296.3222
578.5414, 295.6335
579.0235, 295.2822
579.5056, 295.6056
579.9877, 295.9915
580.4698, 296.0493
580.9520, 295.9604
581.4341, 296.2346
581.9162, 297.2748
582.3983, 298.4040
582.8804, 298.6099
583.3625, 297.9797
583.8447, 297.4243
584.3268, 297.1342
584.8089, 297.0195
585.2910, 297.0133
585.7732, 297.1147
586.2553, 297.3149
586.7374, 297.8774
587.2195, 298.2646
587.7017, 298.0146
588.1838, 297.4467
588.6659, 297.1044
589.1480, 297.1529
589.6301, 297.4302
590.1122, 297.7650
590.5944, 298.1736
591.0765, 298.4728
591.5586, 298.6198
592.0407, 298.6976
592.5228, 298.8049
593.0049, 298.8148
593.4871, 298.4395
593.9692, 297.6256
594.4513, 296.9837
594.9334, 297.2486
595.4155, 298.2016
595.8976, 298.9295
596.3798, 299.4012
596.8619, 299.5484
597.3440, 299.1751
597.8261, 298.4974
598.3082, 298.0357
598.7903, 297.7754
599.2725, 297.7690
599.7546, 298.0659
600.2367, 298.6057
600.7188, 299.4213
601.2009, 300.4511
601.6830, 301.4367
602.1652, 302.2016
602.6473, 302.8051
603.1294, 303.4584
603.6115, 304.1304
604.0936, 304.9160
604.5757, 306.1077
605.0579, 307.1498
605.5400, 307.5988
606.0221, 307.5794
606.5042, 307.5448
606.9863, 307.6876
607.4684, 308.0365
607.9506, 308.6236
608.4327, 309.4523
608.9148, 310.6204
609.3969, 312.2881
609.8790, 314.0580
610.3611, 315.4727
610.8433, 316.5706
611.3254, 317.7158
611.8075, 318.9512
612.2896, 320.2383
612.7717, 321.6204
613.2538, 323.0223
613.7360, 324.3730
614.2181, 325.6373
614.7002, 326.6713
615.1823, 327.2530
615.6644, 327.3464
616.1465, 327.7316
616.6287, 328.6263
617.1108, 329.5178
617.5929, 330.1649
618.0750, 330.8010
618.5571, 331.9406
619.0392, 333.6160
619.5214, 334.6447
620.0035, 333.5440
620.4856, 331.3041
620.9677, 330.1561
621.4498, 330.2177
621.9319, 330.7430
622.4141, 331.6317
622.8962, 332.4828
623.3783, 332.3287
623.8604, 330.8569
624.3425, 329.5214
624.8246, 328.7143
625.3068, 327.8958
625.7889, 326.6881
626.2710, 325.1649
626.7531, 323.5222
627.2352, 321.8602
627.7173, 320.2296
628.1995, 318.7714
628.6816, 317.5302
629.1637, 316.1830
629.6458, 314.6798
630.1279, 313.1123
630.6100, 311.5167
631.0922, 309.8910
631.5743, 308.2314
632.0564, 306.5184
632.5385, 304.8266
633.0206, 303.1047
633.5027, 301.4725
633.9849, 300.2578
634.4670, 299.4973
634.9491, 298.6972
635.4312, 297.4596
635.9133, 295.9113
636.3954, 294.6351
636.8776, 293.7626
637.3597, 293.0165
637.8418, 292.5706
638.3239, 292.1050
638.8060, 291.4168
639.2881, 290.4996
639.7703, 289.3760
640.2524, 287.9749
640.7345, 286.5935
641.2166, 286.0295
641.6987, 286.3414
642.1808, 285.9907
642.6630, 284.3716
643.1451, 282.5071
643.6272, 281.3104
644.1093, 280.6274
644.5914, 279.9681
645.0735, 279.1576
645.5557, 278.4875
646.0378, 278.1701
646.5199, 278.0455
647.0020, 277.9417
647.4841, 277.8011
647.9662, 277.5461
648.4484, 277.0949
648.9305, 276.4756
649.4126, 275.8469
649.8947, 275.1140
650.3768, 274.5637
650.8589, 274.4513
651.3411, 274.3663
651.8232, 274.1187
652.3053, 273.6520
652.7874, 272.8314
653.2695, 271.2348
653.7516, 269.5882
654.2338, 268.9070
654.7159, 269.0083
655.1980, 269.0619
655.6801, 268.8332
656.1622, 268.4789
656.6443, 268.1237
657.1265, 267.7551
657.6086, 267.6699
658.0907, 268.1249
658.5728, 268.5018
659.0549, 268.8421
659.5370, 268.9235
660.0192, 268.3713
660.5013, 267.2380
660.9834, 266.1243
661.4655, 265.6049
661.9476, 265.4307
662.4297, 264.6289
662.9119, 263.0226
663.3940, 262.2823
663.8761, 263.4157
664.3582, 265.0393
664.8403, 265.4688
665.3224, 264.8056
665.8046, 264.0987
666.2867, 263.3531
666.7688, 262.7712
667.2509, 262.6694
667.7330, 262.7426
668.2151, 262.4142
668.6973, 261.5719
669.1794, 260.6754
669.6615, 260.1469
670.1436, 259.9948
670.6257, 260.4218
671.1078, 262.0352
671.5900, 262.9725
672.0721, 262.0207
672.5542, 260.6790
673.0363, 260.2018
673.5184, 260.5722
674.0005, 260.7799
674.4827, 260.0865
674.9648, 259.2799
675.4469, 259.2966
675.9290, 259.8615
676.4111, 260.0663
676.8932, 259.6219
677.3754, 259.0614
677.8575, 259.0519
678.3396, 259.6294
678.8217, 259.8322
679.3038, 259.3625
679.7859, 258.8863
680.2681, 258.4086
680.7502, 258.0476
681.2323, 257.9192
681.7144, 258.0249
682.1965, 258.2762
682.6786, 258.8065
683.1608, 259.3146
683.6429, 259.1983
684.1250, 258.5296
684.6071, 257.9567
685.0892, 257.7047
685.5714, 257.4795
686.0535, 256.8783
686.5356, 255.8589
687.0177, 255.2740
687.4998, 255.3947
687.9819, 255.5628
688.4641, 255.7598
688.9462, 255.8330
689.4283, 255.4238
689.9104, 254.6450
690.3925, 254.2370
690.8746, 254.9282
691.3568, 256.2174
691.8389, 256.9260
692.3210, 257.0420
692.8031, 256.8798
693.2852, 256.3826
693.7673, 255.8991
694.2495, 255.8652
694.7316, 256.2419
695.2137, 256.3781
695.6958, 256.0106
696.1779, 255.6918
696.6600, 255.7303
697.1422, 255.8461
697.6243, 255.6470
698.1064, 255.1488
698.5885, 254.7582
699.0706, 254.8290
699.5527, 255.1504
700.0349, 255.0767
700.5170, 254.5324
700.9991, 254.0590
701.4812, 253.7026
701.9633, 253.5229
702.4454, 253.6230
702.9276, 253.9450
703.4097, 254.3250
703.8918, 254.8528
704.3739, 255.2808
704.8560, 255.5565
705.3381, 255.6501
705.8203, 255.3624
706.3024, 254.8002
706.7845, 254.4738
707.2666, 254.7430
707.7487, 255.4481
708.2308, 256.2601
708.7130, 257.3172
709.1951, 257.7793
709.6772, 257.0500
710.1593, 256.3672
710.6414, 256.7198
711.1235, 257.6585
711.6057, 258.1981
712.0878, 257.9829
712.5699, 257.8209
713.0520, 258.4275
713.5341, 259.1034
714.0162, 258.7846
714.4984, 257.6400
714.9805, 256.8612
715.4626, 257.1716
715.9447, 257.8977
716.4268, 257.4483
716.9089, 255.3813
717.3911, 254.1271
717.8732, 254.0301
718.3553, 254.3820
718.8374, 255.2175
719.3195, 256.1211
719.8016, 256.4240
720.2838, 255.9375
720.7659, 255.4148
721.2480, 255.2610
721.7301, 255.2197
722.2122, 254.9669
722.6943, 254.5654
723.1765, 254.3468
723.6586, 254.4600
724.1407, 254.5927
724.6228, 254.2038
725.1049, 253.1950
