##NAMES=Clinoptilolite-K
##RRUFFID=R110201
##IDEAL CHEMISTRY=K_6_(Si_30_Al_6_)O_72_&#183;20H_2_O
##LOCALITY=Conejo Volcanics, Agoura, Santa Monica Mountains, Los Angeles County, California, USA
##OWNER=RRUFF
##SOURCE=Donald Doell
##DESCRIPTION=Colorless tabular crystals associated with ferrierite-K R110200
##STATUS=The identification of this mineral has been confirmed only by single crystal X-ray diffraction.
##URL=rruff.info/R110201
234.1629, 733.5275
234.6451, 735.7468
235.1272, 736.8969
235.6093, 738.2906
236.0914, 740.1289
236.5735, 741.9349
237.0556, 743.4644
237.5378, 744.7308
238.0199, 745.6855
238.5020, 746.0842
238.9841, 746.1855
239.4662, 747.0297
239.9483, 749.0223
240.4305, 751.2499
240.9126, 753.3124
241.3947, 755.3634
241.8768, 756.9210
242.3589, 757.7053
242.8410, 758.0032
243.3232, 758.8695
243.8053, 760.5846
244.2874, 762.4717
244.7695, 764.1308
245.2516, 765.2839
245.7337, 766.8323
246.2159, 768.9886
246.6980, 771.5173
247.1801, 773.5989
247.6622, 774.9075
248.1443, 776.2617
248.6264, 778.1986
249.1086, 781.5394
249.5907, 783.3979
250.0728, 782.9247
250.5549, 781.1771
251.0370, 781.0603
251.5191, 783.4071
252.0013, 786.0957
252.4834, 788.3295
252.9655, 790.2230
253.4476, 791.2965
253.9297, 791.2069
254.4118, 790.4645
254.8940, 790.1198
255.3761, 790.0111
255.8582, 790.5886
256.3403, 792.2791
256.8224, 795.7354
257.3046, 798.0507
257.7867, 798.9179
258.2688, 798.7975
258.7509, 798.5123
259.2330, 797.9769
259.7151, 797.4244
260.1973, 796.9083
260.6794, 796.4030
261.1615, 796.0731
261.6436, 795.9345
262.1257, 795.9693
262.6078, 796.2324
263.0900, 796.9442
263.5721, 797.3978
264.0542, 797.3013
264.5363, 796.5724
265.0184, 795.9525
265.5005, 795.5007
265.9827, 795.1107
266.4648, 794.5939
266.9469, 793.8974
267.4290, 793.2561
267.9111, 792.7755
268.3932, 792.4726
268.8754, 791.8635
269.3575, 790.6602
269.8396, 789.5590
270.3217, 789.7489
270.8038, 791.7372
271.2859, 792.9167
271.7681, 792.1252
272.2502, 789.4658
272.7323, 788.4960
273.2144, 789.8376
273.6965, 791.6290
274.1786, 791.6263
274.6608, 789.3936
275.1429, 787.7495
275.6250, 787.4640
276.1071, 788.3799
276.5892, 789.5031
277.0714, 791.0135
277.5535, 792.1693
278.0356, 792.0956
278.5177, 790.6668
278.9998, 789.2333
279.4819, 787.9618
279.9641, 786.9040
280.4462, 786.6035
280.9283, 787.2989
281.4104, 787.7072
281.8925, 786.3478
282.3746, 783.1865
282.8568, 781.0794
283.3389, 780.7590
283.8210, 781.6048
284.3031, 782.1082
284.7852, 782.3301
285.2673, 781.8752
285.7495, 779.8458
286.2316, 776.4578
286.7137, 774.6057
287.1958, 775.0625
287.6779, 776.6395
288.1600, 776.8182
288.6422, 775.5762
289.1243, 774.2047
289.6064, 773.3660
290.0885, 773.0342
290.5706, 773.3347
291.0527, 774.4493
291.5349, 775.7189
292.0170, 775.8821
292.4991, 775.0323
292.9812, 774.3630
293.4633, 774.9200
293.9454, 776.2015
294.4276, 776.4626
294.9097, 775.4555
295.3918, 774.1219
295.8739, 773.4888
296.3560, 773.5226
296.8381, 774.0242
297.3203, 775.2534
297.8024, 776.8244
298.2845, 778.0586
298.7666, 778.9665
299.2487, 779.3510
299.7308, 778.3796
300.2130, 776.6299
300.6951, 775.7847
301.1772, 777.1932
301.6593, 779.5482
302.1414, 781.0082
302.6235, 781.5723
303.1057, 781.8552
303.5878, 782.2098
304.0699, 782.6514
304.5520, 783.2217
305.0341, 784.1270
305.5162, 784.9918
305.9984, 785.3806
306.4805, 785.3396
306.9626, 785.1998
307.4447, 784.7912
307.9268, 784.5401
308.4089, 785.0859
308.8911, 787.0010
309.3732, 789.1243
309.8553, 790.6422
310.3374, 791.6165
310.8195, 792.2786
311.3016, 792.4847
311.7838, 792.5632
312.2659, 792.8301
312.7480, 793.4211
313.2301, 794.0102
313.7122, 794.2508
314.1943, 794.3480
314.6765, 794.7322
315.1586, 796.3034
315.6407, 797.7296
316.1228, 797.7937
316.6049, 795.8075
317.0870, 794.7964
317.5692, 797.2081
318.0513, 801.1656
318.5334, 804.0315
319.0155, 804.4867
319.4976, 804.0809
319.9797, 803.0876
320.4619, 801.4314
320.9440, 800.4911
321.4261, 801.2361
321.9082, 802.6423
322.3903, 803.7382
322.8724, 804.1291
323.3546, 804.3605
323.8367, 804.6136
324.3188, 804.8791
324.8009, 804.8557
325.2830, 803.9787
325.7651, 803.1280
326.2473, 802.8809
326.7294, 804.4039
327.2115, 805.2822
327.6936, 804.8585
328.1757, 803.4755
328.6578, 802.7691
329.1400, 802.7711
329.6221, 803.4708
330.1042, 804.9883
330.5863, 808.7903
331.0684, 810.9611
331.5505, 810.5522
332.0327, 808.6637
332.5148, 807.6830
332.9969, 807.5956
333.4790, 808.4086
333.9611, 810.4005
334.4432, 814.1335
334.9254, 816.6017
335.4075, 817.2073
335.8896, 816.9821
336.3717, 817.4096
336.8538, 818.8730
337.3359, 819.9946
337.8180, 820.1799
338.3001, 819.4576
338.7823, 819.7092
339.2644, 821.2629
339.7465, 823.1747
340.2286, 824.5917
340.7107, 825.4874
341.1928, 826.0446
341.6750, 826.1363
342.1571, 825.9793
342.6392, 826.4676
343.1213, 827.7122
343.6034, 829.0787
344.0855, 830.1869
344.5677, 831.0336
345.0498, 831.5654
345.5319, 831.5775
346.0140, 831.5942
346.4961, 832.8644
346.9782, 835.3295
347.4604, 837.6926
347.9425, 838.8661
348.4246, 839.2816
348.9067, 840.5635
349.3888, 842.8995
349.8709, 845.5945
350.3531, 847.8998
350.8352, 849.8707
351.3173, 851.7062
351.7994, 853.3121
352.2815, 854.9036
352.7636, 856.7158
353.2458, 858.7416
353.7279, 861.3170
354.2100, 865.4965
354.6921, 870.2950
355.1742, 873.9332
355.6563, 875.1761
356.1385, 875.8073
356.6206, 877.4021
357.1027, 879.8593
357.5848, 882.6261
358.0669, 885.9554
358.5490, 889.1757
359.0312, 891.5162
359.5133, 892.4492
359.9954, 893.4387
360.4775, 895.4431
360.9596, 898.1451
361.4417, 900.8251
361.9239, 903.0205
362.4060, 905.2894
362.8881, 908.0519
363.3702, 911.4885
363.8523, 914.6989
364.3344, 917.1981
364.8166, 919.3873
365.2987, 921.7430
365.7808, 923.7784
366.2629, 926.5297
366.7450, 930.7847
367.2271, 936.5244
367.7093, 941.2926
368.1914, 943.9442
368.6735, 946.0644
369.1556, 948.6981
369.6377, 952.0022
370.1198, 955.5887
370.6020, 959.6525
371.0841, 964.0046
371.5662, 967.9794
372.0483, 971.2472
372.5304, 974.4600
373.0125, 977.8779
373.4947, 981.5107
373.9768, 985.1710
374.4589, 988.5794
374.9410, 992.2793
375.4231, 997.4895
375.9052, 1005.311
376.3874, 1011.646
376.8695, 1014.663
377.3516, 1014.525
377.8337, 1016.045
378.3158, 1019.356
378.7979, 1024.033
379.2801, 1030.144
379.7622, 1037.859
380.2443, 1044.540
380.7264, 1049.378
381.2085, 1053.200
381.6906, 1058.164
382.1728, 1064.241
382.6549, 1071.096
383.1370, 1078.630
383.6191, 1086.750
384.1012, 1094.812
384.5833, 1102.784
385.0655, 1110.788
385.5476, 1118.690
386.0297, 1126.693
386.5118, 1135.148
386.9939, 1144.477
387.4760, 1154.359
387.9582, 1164.277
388.4403, 1174.307
388.9224, 1184.854
389.4045, 1196.263
389.8866, 1208.288
390.3687, 1220.706
390.8509, 1233.641
391.3330, 1246.567
391.8151, 1259.182
392.2972, 1271.543
392.7793, 1284.064
393.2614, 1296.805
393.7436, 1309.801
394.2257, 1323.383
394.7078, 1337.631
395.1899, 1352.124
395.6720, 1366.859
396.1541, 1381.699
396.6363, 1396.435
397.1184, 1411.340
397.6005, 1425.810
398.0826, 1439.372
398.5647, 1451.828
399.0468, 1464.897
399.5290, 1480.069
400.0111, 1495.163
400.4932, 1508.465
400.9753, 1519.348
401.4574, 1529.321
401.9395, 1538.519
402.4217, 1546.899
402.9038, 1553.949
403.3859, 1559.172
403.8680, 1563.811
404.3501, 1568.770
404.8322, 1574.813
405.3144, 1578.337
405.7965, 1579.089
406.2786, 1577.582
406.7607, 1574.338
407.2428, 1569.158
407.7249, 1563.301
408.2071, 1557.367
408.6892, 1551.168
409.1713, 1543.749
409.6534, 1535.084
410.1355, 1525.045
410.6176, 1513.017
411.0998, 1499.263
411.5819, 1485.729
412.0640, 1472.988
412.5461, 1460.249
413.0282, 1445.926
413.5103, 1430.194
413.9925, 1413.833
414.4746, 1396.854
414.9567, 1379.486
415.4388, 1362.177
415.9209, 1344.750
416.4030, 1327.918
416.8852, 1312.727
417.3673, 1298.276
417.8494, 1283.057
418.3315, 1265.184
418.8136, 1247.329
419.2957, 1231.145
419.7779, 1216.563
420.2600, 1201.984
420.7421, 1186.435
421.2242, 1170.861
421.7063, 1156.421
422.1884, 1143.702
422.6706, 1130.920
423.1527, 1116.891
423.6348, 1102.506
424.1169, 1089.376
424.5990, 1078.230
425.0811, 1067.706
425.5633, 1057.343
426.0454, 1047.018
426.5275, 1037.489
427.0096, 1029.102
427.4917, 1021.100
427.9738, 1012.801
428.4560, 1003.911
428.9381, 995.3468
429.4202, 987.2984
429.9023, 979.7280
430.3844, 971.8946
430.8665, 963.4493
431.3487, 955.8752
431.8308, 950.3281
432.3129, 946.9720
432.7950, 942.6916
433.2771, 937.2784
433.7592, 931.4821
434.2414, 926.0250
434.7235, 920.9242
435.2056, 916.3607
435.6877, 912.6568
436.1698, 909.3734
436.6519, 905.2932
437.1341, 900.4816
437.6162, 896.0261
438.0983, 892.4481
438.5804, 889.7870
439.0625, 888.3159
439.5446, 888.3577
440.0268, 888.6453
440.5089, 888.1631
440.9910, 887.0833
441.4731, 885.7736
441.9552, 884.1193
442.4373, 882.4871
442.9195, 880.8992
443.4016, 879.3752
443.8837, 878.5131
444.3658, 879.0825
444.8479, 880.1014
445.3300, 880.7822
445.8122, 880.4346
446.2943, 880.4238
446.7764, 881.1586
447.2585, 882.3930
447.7406, 883.5046
448.2227, 883.9625
448.7049, 884.7838
449.1870, 886.2613
449.6691, 888.4135
450.1512, 891.1130
450.6333, 894.5826
451.1154, 898.3421
451.5976, 901.9535
452.0797, 905.3517
452.5618, 908.7556
453.0439, 912.2117
453.5260, 915.6951
454.0081, 919.2553
454.4903, 922.8784
454.9724, 926.7997
455.4545, 931.0658
455.9366, 935.6962
456.4187, 941.3282
456.9008, 948.0502
457.3830, 955.1097
457.8651, 961.2727
458.3472, 966.9003
458.8293, 972.9324
459.3114, 980.1190
459.7935, 987.4443
460.2757, 993.6014
460.7578, 998.7509
461.2399, 1003.894
461.7220, 1009.631
462.2041, 1015.670
462.6862, 1021.757
463.1684, 1027.911
463.6505, 1033.818
464.1326, 1039.594
464.6147, 1044.889
465.0968, 1049.335
465.5789, 1052.186
466.0611, 1054.720
466.5432, 1057.283
467.0253, 1059.880
467.5074, 1062.466
467.9895, 1064.649
468.4716, 1067.157
468.9538, 1070.348
469.4359, 1074.469
469.9180, 1078.636
470.4001, 1082.871
470.8822, 1087.159
471.3643, 1091.548
471.8465, 1096.123
472.3286, 1100.448
472.8107, 1104.125
473.2928, 1107.383
473.7749, 1112.171
474.2570, 1118.705
474.7392, 1125.473
475.2213, 1131.447
475.7034, 1136.685
476.1855, 1141.466
476.6676, 1145.708
477.1497, 1149.936
477.6319, 1155.406
478.1140, 1161.553
478.5961, 1166.421
479.0782, 1168.729
479.5603, 1169.593
480.0424, 1170.630
480.5246, 1171.639
481.0067, 1171.016
481.4888, 1166.665
481.9709, 1160.845
482.4530, 1155.676
482.9352, 1152.087
483.4173, 1147.818
483.8994, 1141.986
484.3815, 1134.871
484.8636, 1126.968
485.3457, 1118.848
485.8279, 1109.516
486.3100, 1098.432
486.7921, 1085.537
487.2742, 1072.568
487.7563, 1059.844
488.2384, 1046.607
488.7206, 1032.260
489.2027, 1015.739
489.6848, 1001.274
490.1669, 989.3790
490.6490, 979.0697
491.1311, 968.6038
491.6133, 958.0178
492.0954, 947.6605
492.5775, 937.6525
493.0596, 927.9427
493.5417, 917.9382
494.0238, 907.6484
494.5060, 898.0966
494.9881, 890.5208
495.4702, 884.2809
495.9523, 877.3817
496.4344, 869.3783
496.9165, 861.7264
497.3987, 855.8219
497.8808, 851.2891
498.3629, 847.5450
498.8450, 845.4411
499.3271, 843.1198
499.8092, 839.1334
500.2914, 833.7269
500.7735, 828.5817
501.2556, 823.9672
501.7377, 820.0031
502.2198, 816.8795
502.7019, 814.9728
503.1841, 812.9137
503.6662, 810.5402
504.1483, 807.9280
504.6304, 805.1428
505.1125, 801.7266
505.5946, 798.9487
506.0768, 797.1227
506.5589, 796.0839
507.0410, 794.9982
507.5231, 793.8549
508.0052, 792.6740
508.4873, 791.2996
508.9695, 789.7380
509.4516, 788.8453
509.9337, 788.7185
510.4158, 788.8419
510.8979, 788.6715
511.3800, 788.2452
511.8622, 787.7785
512.3443, 787.4196
512.8264, 786.9080
513.3085, 785.6815
513.7906, 783.9438
514.2728, 782.4182
514.7549, 781.7971
515.2370, 781.3900
515.7191, 780.6323
516.2012, 779.4741
516.6833, 778.1351
517.1655, 775.3818
517.6476, 773.2003
518.1297, 773.3324
518.6118, 779.4549
519.0939, 783.7839
519.5760, 784.6818
520.0582, 782.9649
520.5403, 780.6150
521.0224, 776.3238
521.5045, 773.2886
521.9866, 772.7783
522.4688, 774.7839
522.9509, 775.7142
523.4330, 775.1679
523.9151, 774.4702
524.3972, 774.8431
524.8793, 776.3139
525.3615, 776.9665
525.8436, 776.4543
526.3257, 775.5570
526.8078, 775.4808
527.2899, 776.0685
527.7720, 776.6139
528.2542, 777.0140
528.7363, 777.0752
529.2184, 776.1484
529.7005, 774.4694
530.1826, 773.2795
530.6647, 774.0629
531.1469, 775.2405
531.6290, 775.3390
532.1111, 773.9294
532.5932, 772.5999
533.0753, 771.9534
533.5574, 771.7246
534.0396, 771.6464
534.5217, 771.9336
535.0038, 772.0787
535.4859, 771.9912
535.9680, 771.7195
536.4501, 771.3943
536.9323, 771.0019
537.4144, 770.5770
537.8965, 770.0673
538.3786, 769.4605
538.8607, 769.2255
539.3428, 769.4349
539.8250, 769.7684
540.3071, 769.9592
540.7892, 770.0062
541.2713, 769.9312
541.7534, 769.6935
542.2355, 769.4393
542.7177, 769.4714
543.1998, 769.6769
543.6819, 769.6955
544.1640, 769.1454
544.6461, 768.4895
545.1282, 767.9635
545.6104, 767.6379
546.0925, 767.8976
546.5746, 769.7034
547.0567, 771.6300
547.5388, 772.5690
548.0209, 771.9098
548.5031, 771.8195
548.9852, 773.5537
549.4673, 775.6888
549.9494, 776.7031
550.4315, 775.7947
550.9136, 774.9374
551.3958, 774.1180
551.8779, 773.5208
552.3600, 773.8908
552.8421, 775.5730
553.3242, 777.0093
553.8063, 777.5879
554.2885, 777.3571
554.7706, 776.4948
555.2527, 774.9357
555.7348, 773.4629
556.2169, 772.6400
556.6990, 772.4451
557.1812, 773.0159
557.6633, 774.6259
558.1454, 776.0411
558.6275, 775.6482
559.1096, 774.2947
559.5917, 773.4614
560.0739, 774.2363
560.5560, 775.2254
561.0381, 775.9044
561.5202, 776.2518
562.0023, 776.2393
562.4844, 775.2021
562.9666, 774.3555
563.4487, 774.3439
563.9308, 775.3719
564.4129, 776.2043
564.8950, 776.9528
565.3771, 777.3695
565.8593, 777.0951
566.3414, 775.8282
566.8235, 775.1423
567.3056, 775.2294
567.7877, 775.8870
568.2698, 777.0632
568.7520, 778.7070
569.2341, 779.6988
569.7162, 779.2526
570.1983, 778.1640
570.6804, 778.0052
571.1625, 778.6506
571.6447, 779.1547
572.1268, 778.4271
572.6089, 777.5477
573.0910, 777.7394
573.5731, 779.2930
574.0552, 780.7258
574.5374, 781.0388
575.0195, 781.0823
575.5016, 781.6494
575.9837, 783.2972
576.4658, 784.9467
576.9479, 786.7343
577.4301, 788.3904
577.9122, 789.2426
578.3943, 788.3942
578.8764, 788.6016
579.3585, 791.2823
579.8406, 795.7862
580.3228, 797.2499
580.8049, 795.3028
581.2870, 792.7013
581.7691, 790.8403
582.2512, 789.8027
582.7333, 790.2084
583.2155, 792.2496
583.6975, 794.3316
584.1796, 794.9574
584.6617, 794.6527
585.1439, 794.2487
585.6260, 793.8593
586.1081, 793.6586
586.5902, 793.8060
587.0723, 794.2174
587.5544, 794.7192
588.0366, 795.1962
588.5187, 795.8144
589.0008, 796.4697
589.4829, 797.1953
589.9650, 798.6575
590.4471, 801.8757
590.9293, 804.4554
591.4114, 804.9323
591.8935, 802.8471
592.3756, 802.0108
592.8577, 802.7126
593.3398, 803.8694
593.8220, 804.3675
594.3041, 804.2916
594.7862, 804.2624
595.2683, 804.3795
595.7504, 804.6471
596.2325, 805.2693
596.7147, 806.0731
597.1968, 806.5831
597.6789, 806.0869
598.1610, 805.6666
598.6431, 806.3341
599.1252, 807.8478
599.6074, 809.0621
600.0895, 808.9793
600.5716, 809.0072
601.0537, 809.9430
601.5358, 812.0950
602.0179, 813.8917
602.5001, 815.1452
602.9822, 816.2107
603.4643, 817.3477
603.9464, 818.5990
604.4285, 819.7180
604.9106, 820.5403
605.3928, 821.5191
605.8749, 823.6807
606.3570, 826.9092
606.8391, 829.5092
607.3212, 830.6207
607.8033, 831.2662
608.2855, 833.1707
608.7676, 836.0093
609.2497, 838.6737
609.7318, 839.9216
610.2139, 841.1731
610.6960, 843.7639
611.1782, 847.6939
611.6603, 851.2889
612.1424, 853.9747
612.6245, 856.1710
613.1066, 858.0685
613.5887, 859.4150
614.0709, 861.1999
614.5530, 863.8572
615.0351, 866.6080
615.5172, 868.5881
615.9993, 869.6082
616.4814, 870.8192
616.9636, 872.3735
617.4457, 874.2095
617.9278, 876.4453
618.4099, 879.0056
618.8920, 881.1426
619.3741, 882.2048
619.8563, 882.9216
620.3384, 885.0227
620.8205, 888.0107
621.3026, 889.4289
621.7847, 886.0953
622.2668, 881.9083
622.7490, 880.1077
623.2311, 881.2232
623.7132, 881.7182
624.1953, 880.5056
624.6774, 878.4734
625.1595, 876.2038
625.6417, 873.4216
626.1238, 871.0865
626.6059, 869.5631
627.0880, 868.1516
627.5701, 865.7605
628.0522, 862.2523
628.5344, 859.1818
629.0165, 856.9550
629.4986, 855.2158
629.9807, 853.4111
630.4628, 851.5052
630.9449, 849.3954
631.4271, 846.1722
631.9092, 843.2285
632.3913, 842.7820
632.8734, 844.3499
633.3555, 844.9626
633.8376, 842.3113
634.3198, 838.8781
634.8019, 836.1502
635.2840, 834.4373
635.7661, 832.4904
636.2482, 829.3402
636.7303, 826.5893
637.2125, 825.5574
637.6946, 827.2724
638.1767, 827.6613
638.6588, 826.3044
639.1409, 824.0851
639.6230, 822.1775
640.1052, 820.5638
640.5873, 819.0239
641.0694, 817.5381
641.5515, 816.0789
642.0336, 814.5837
642.5157, 813.0995
642.9979, 811.7352
643.4800, 810.5653
643.9621, 809.5267
644.4442, 808.5277
644.9263, 807.5991
645.4084, 806.9622
645.8906, 807.2658
646.3727, 807.3828
646.8548, 806.5438
647.3369, 804.5112
647.8190, 803.5013
648.3011, 804.1761
648.7833, 804.8978
649.2654, 804.1873
649.7475, 801.8419
650.2296, 800.6766
650.7117, 801.0692
651.1938, 801.7708
651.6760, 800.6723
652.1581, 798.5495
652.6402, 798.1241
653.1223, 801.0281
653.6044, 803.8658
654.0865, 803.1041
654.5687, 800.1464
655.0508, 797.7103
655.5329, 796.6838
656.0150, 796.4573
656.4971, 797.4199
656.9792, 799.1942
657.4614, 799.8455
657.9435, 798.4990
658.4256, 797.1520
658.9077, 796.3951
659.3898, 796.2148
659.8719, 796.4529
660.3541, 797.2345
660.8362, 797.8386
661.3183, 797.4938
661.8004, 796.5189
662.2825, 796.3260
662.7646, 797.0413
663.2468, 797.6794
663.7289, 797.0879
664.2110, 796.0128
664.6931, 795.4520
665.1752, 795.7745
665.6573, 796.2474
666.1395, 796.8568
666.6216, 797.3339
667.1037, 797.3437
667.5858, 796.2498
668.0679, 795.4531
668.5500, 795.2024
669.0322, 795.2476
669.5143, 795.0231
669.9964, 794.4545
670.4785, 793.9491
670.9606, 793.5926
671.4427, 793.4001
671.9249, 793.4046
672.4070, 793.6055
672.8891, 794.0388
673.3712, 794.9923
673.8533, 796.0268
674.3354, 796.6086
674.8176, 796.7546
675.2997, 796.7594
675.7818, 796.5042
676.2639, 796.3617
676.7460, 796.6868
677.2281, 797.7684
677.7103, 798.2637
678.1924, 797.7000
678.6745, 796.9775
679.1566, 796.8094
679.6387, 797.3716
680.1208, 797.4795
680.6030, 796.8104
681.0851, 796.3660
681.5672, 798.0182
682.0493, 801.1329
682.5314, 803.0089
683.0135, 802.7657
683.4957, 801.5588
683.9778, 800.0970
684.4599, 798.5953
684.9420, 797.5121
685.4241, 796.8937
685.9063, 796.8271
686.3884, 797.9180
686.8705, 799.6730
687.3526, 800.3514
687.8347, 798.9856
688.3168, 797.8792
688.7990, 797.7903
689.2811, 798.5204
689.7632, 798.6143
690.2453, 797.9543
690.7274, 797.4999
691.2095, 797.8967
691.6917, 798.9188
692.1738, 799.9145
692.6559, 800.8683
693.1380, 801.9532
693.6201, 803.7377
694.1022, 805.4274
694.5844, 806.0812
695.0665, 805.3831
695.5486, 804.8948
696.0307, 805.1730
696.5128, 805.8463
696.9949, 806.6921
697.4771, 808.2302
697.9592, 808.7538
698.4413, 807.8422
698.9234, 806.4713
699.4055, 805.9251
699.8876, 806.2363
700.3698, 806.1939
700.8519, 805.5482
701.3340, 804.6496
701.8161, 803.9158
702.2982, 803.3282
702.7803, 802.8078
703.2625, 802.1061
703.7446, 801.7440
704.2267, 802.4180
704.7088, 803.6694
705.1909, 804.4863
705.6730, 803.7828
706.1552, 803.5079
706.6373, 804.1163
707.1194, 805.4955
707.6015, 807.3539
708.0836, 810.0201
708.5657, 812.0425
709.0479, 812.5908
709.5300, 812.0390
710.0121, 812.0302
710.4942, 812.5372
710.9763, 813.0473
711.4584, 813.3297
711.9406, 813.3575
712.4227, 812.9907
712.9048, 812.2443
713.3869, 811.5979
713.8690, 811.4241
714.3511, 811.3477
714.8333, 811.0721
715.3154, 810.4066
715.7975, 810.2093
716.2796, 810.9139
716.7617, 811.5963
717.2438, 811.3546
717.7260, 810.0517
718.2081, 809.5397
718.6902, 810.0408
719.1723, 810.9196
719.6544, 811.4661
720.1365, 811.8002
720.6187, 812.2454
721.1008, 812.9355
721.5829, 813.5457
722.0650, 813.8107
722.5471, 813.8450
723.0292, 813.8090
723.5114, 813.8388
723.9935, 813.6528
724.4756, 812.8088
724.9577, 811.8469
725.4398, 811.7309
725.9219, 812.6983
726.4041, 813.8147
726.8862, 815.0106
727.3683, 816.0853
727.8504, 816.4310
728.3325, 816.1282
728.8146, 815.7117
729.2968, 815.4545
729.7789, 815.1788
