##NAMES=Clinoferroholmquistite
##RRUFFID=R110165
##IDEAL CHEMISTRY=[box]Li_2_[Fe^2+^_3_Al_2_]Si_8_O_22_(OH)_2_
##LOCALITY=Quebec Lithium Corporation mine, La Corne, Abitibi RCM, Abitibi-Témiscamingue, Québec, Canada
##OWNER=RRUFF
##SOURCE=Donald V Doell
##DESCRIPTION=Parallel aggregates of fine acicular dark purple crystals
##STATUS=The identification of this mineral has been confirmed only by single crystal X-ray diffraction.
##URL=rruff.info/R110165
157.6535, 143.6868
158.1356, 143.9096
158.6177, 144.1494
159.0999, 144.4858
159.5820, 144.9865
160.0641, 145.6773
160.5462, 146.5228
161.0283, 147.7164
161.5104, 148.9221
161.9926, 149.8403
162.4747, 150.4339
162.9568, 150.9639
163.4389, 151.6807
163.9210, 152.5797
164.4031, 153.5629
164.8853, 154.3824
165.3674, 155.3464
165.8495, 156.9693
166.3316, 159.4636
166.8137, 162.2696
167.2958, 164.9121
167.7780, 167.4284
168.2601, 169.9226
168.7422, 172.3254
169.2243, 174.7167
169.7064, 177.3949
170.1885, 180.5302
170.6707, 183.8003
171.1528, 186.9543
171.6349, 190.0288
172.1170, 193.2114
172.5991, 196.7940
173.0812, 200.8143
173.5634, 204.4189
174.0455, 207.0790
174.5276, 209.7013
175.0097, 212.4826
175.4918, 215.5197
175.9739, 218.9536
176.4561, 223.0176
176.9382, 228.0154
177.4203, 232.7165
177.9024, 236.9203
178.3845, 241.0119
178.8666, 244.9426
179.3488, 248.8142
179.8309, 253.0450
180.3130, 258.1993
180.7951, 264.8153
181.2772, 271.1848
181.7593, 277.0452
182.2415, 282.8442
182.7236, 288.8255
183.2057, 295.0669
183.6878, 301.5570
184.1699, 308.2701
184.6520, 315.1669
185.1342, 322.4725
185.6163, 331.0887
186.0984, 339.7235
186.5805, 347.1025
187.0626, 352.8600
187.5447, 357.2132
188.0269, 360.2882
188.5090, 362.0941
188.9911, 363.0836
189.4732, 364.0748
189.9553, 364.1918
190.4374, 361.7796
190.9196, 356.0845
191.4017, 348.1574
191.8838, 339.3648
192.3659, 329.8394
192.8480, 319.4968
193.3301, 308.0771
193.8123, 295.7583
194.2944, 282.9532
194.7765, 269.1493
195.2586, 255.7380
195.7407, 244.0068
196.2228, 234.0000
196.7050, 224.7781
197.1871, 215.5125
197.6692, 206.2533
198.1513, 198.1428
198.6334, 191.8433
199.1155, 186.5323
199.5977, 181.7078
200.0798, 177.3138
200.5619, 173.3741
201.0440, 169.8932
201.5261, 166.8548
202.0082, 164.2739
202.4904, 162.4458
202.9725, 160.8798
203.4546, 159.3132
203.9367, 157.7291
204.4188, 156.3098
204.9009, 155.3022
205.3831, 154.7938
205.8652, 154.4554
206.3473, 154.2614
206.8294, 154.2199
207.3115, 154.3351
207.7936, 154.6102
208.2758, 155.0579
208.7579, 155.7114
209.2400, 156.6688
209.7221, 157.6298
210.2042, 158.7220
210.6863, 159.7286
211.1685, 160.5003
211.6506, 161.0109
212.1327, 161.3512
212.6148, 161.6758
213.0969, 162.1814
213.5790, 162.1668
214.0612, 161.3327
214.5433, 160.2099
215.0254, 159.2236
215.5075, 158.4743
215.9896, 157.7338
216.4717, 156.6745
216.9539, 155.1020
217.4360, 153.6342
217.9181, 152.5399
218.4002, 151.4235
218.8823, 149.7408
219.3644, 147.3600
219.8466, 144.8788
220.3287, 143.1639
220.8108, 142.3425
221.2929, 141.4867
221.7750, 140.3527
222.2571, 139.1673
222.7393, 138.2734
223.2214, 137.7809
223.7035, 137.3551
224.1856, 136.4847
224.6677, 135.2082
225.1498, 134.1450
225.6320, 133.5140
226.1141, 133.1795
226.5962, 132.9622
227.0783, 132.8756
227.5604, 132.7831
228.0425, 132.4856
228.5247, 132.0400
229.0068, 131.6864
229.4889, 131.6432
229.9710, 131.7480
230.4531, 131.6109
230.9352, 131.1128
231.4174, 130.5396
231.8995, 130.0116
232.3816, 129.5645
232.8637, 129.3331
233.3458, 129.4972
233.8279, 129.9381
234.3101, 130.2597
234.7922, 130.3727
235.2743, 130.4980
235.7564, 130.7387
236.2385, 131.0788
236.7206, 131.5014
237.2028, 132.0765
237.6849, 132.7302
238.1670, 133.1679
238.6491, 133.4169
239.1312, 133.3632
239.6133, 132.6737
240.0955, 131.7316
240.5776, 131.2366
241.0597, 131.8152
241.5418, 133.1156
242.0239, 133.3276
242.5060, 131.2974
242.9882, 129.7441
243.4703, 129.6604
243.9524, 130.4671
244.4345, 131.3540
244.9166, 131.8962
245.3987, 132.1163
245.8809, 132.0939
246.3630, 131.6086
246.8451, 131.1481
247.3272, 130.8810
247.8093, 130.6779
248.2914, 130.3451
248.7736, 129.7653
249.2557, 129.0269
249.7378, 128.4983
250.2199, 128.3752
250.7020, 128.2343
251.1841, 128.0985
251.6663, 127.8918
252.1484, 127.5141
252.6305, 126.9129
253.1126, 126.1535
253.5947, 125.4209
254.0768, 124.6564
254.5590, 124.0124
255.0411, 123.5550
255.5232, 123.1979
256.0053, 122.8476
256.4874, 122.4662
256.9695, 122.0692
257.4517, 121.6940
257.9338, 121.2270
258.4159, 120.9335
258.8980, 121.2301
259.3801, 121.5212
259.8622, 121.0400
260.3444, 119.5386
260.8265, 117.5947
261.3086, 116.3005
261.7907, 116.1636
262.2728, 115.9218
262.7549, 115.4099
263.2371, 114.8566
263.7192, 114.5963
264.2013, 114.7012
264.6834, 114.7893
265.1655, 114.2443
265.6476, 112.6299
266.1298, 111.4400
266.6119, 111.0142
267.0940, 110.8483
267.5761, 110.4892
268.0582, 109.8453
268.5403, 109.0848
269.0225, 108.3524
269.5046, 107.6106
269.9867, 107.2086
270.4688, 107.4618
270.9509, 107.8696
271.4330, 108.0793
271.9152, 108.0345
272.3973, 107.6883
272.8794, 106.8245
273.3615, 105.4098
273.8436, 104.7368
274.3257, 105.3407
274.8079, 106.3257
275.2900, 107.1239
275.7721, 107.6800
276.2542, 107.9298
276.7363, 107.7394
277.2184, 107.1491
277.7006, 106.7005
278.1827, 106.4506
278.6648, 106.3008
279.1469, 106.1643
279.6290, 106.0524
280.1111, 106.0669
280.5933, 106.2891
281.0754, 106.6928
281.5575, 107.1349
282.0396, 107.7269
282.5217, 108.2235
283.0038, 108.4626
283.4860, 108.4692
283.9681, 108.3524
284.4502, 108.0777
284.9323, 107.7821
285.4144, 107.7093
285.8965, 107.8471
286.3787, 108.2088
286.8608, 108.9959
287.3429, 110.0588
287.8250, 110.8358
288.3071, 111.0535
288.7892, 111.0223
289.2714, 111.1463
289.7535, 111.4031
290.2356, 111.8831
290.7177, 112.8451
291.1998, 114.0703
291.6819, 114.9725
292.1641, 115.3717
292.6462, 115.5129
293.1283, 115.6267
293.6104, 115.7165
294.0925, 115.8116
294.5746, 115.9415
295.0568, 116.0812
295.5389, 116.1839
296.0210, 116.2459
296.5031, 116.2658
296.9852, 116.1684
297.4673, 116.0131
297.9495, 115.9857
298.4316, 116.2198
298.9137, 116.5877
299.3958, 116.9184
299.8779, 117.2126
300.3600, 117.4485
300.8422, 117.6693
301.3243, 117.8092
301.8064, 117.7169
302.2885, 117.2517
302.7706, 116.6433
303.2527, 116.1516
303.7349, 115.7834
304.2170, 115.4051
304.6991, 114.8792
305.1812, 114.3486
305.6633, 114.0494
306.1454, 114.1178
306.6276, 114.1549
307.1097, 113.7718
307.5918, 112.9918
308.0739, 112.1796
308.5560, 111.3813
309.0381, 110.6809
309.5203, 110.1644
310.0024, 109.8408
310.4845, 109.6032
310.9666, 109.4864
311.4487, 109.4313
311.9308, 109.0749
312.4130, 108.0851
312.8951, 107.1716
313.3772, 107.1415
313.8593, 107.8530
314.3414, 108.3844
314.8235, 108.1648
315.3057, 107.4324
315.7878, 106.7895
316.2699, 106.3038
316.7520, 105.8680
317.2341, 105.3849
317.7162, 104.8912
318.1984, 104.4743
318.6805, 104.2347
319.1626, 104.0606
319.6447, 103.6887
320.1268, 103.0318
320.6089, 102.6218
321.0911, 103.1175
321.5732, 103.9525
322.0553, 104.3104
322.5374, 103.8689
323.0195, 103.1730
323.5016, 102.8432
323.9838, 102.8821
324.4659, 102.6953
324.9480, 101.8003
325.4301, 100.7510
325.9122, 100.2484
326.3943, 100.3960
326.8765, 100.7120
327.3586, 100.8732
327.8407, 100.9084
328.3228, 100.9677
328.8049, 101.0661
329.2870, 101.2293
329.7692, 101.4482
330.2513, 101.7235
330.7334, 102.1287
331.2155, 102.9039
331.6976, 103.8150
332.1797, 104.3003
332.6619, 104.2489
333.1440, 103.9169
333.6261, 103.1182
334.1082, 102.1550
334.5903, 101.8601
335.0724, 103.0070
335.5546, 104.6963
336.0367, 105.7770
336.5188, 106.2014
337.0009, 106.4312
337.4830, 106.6821
337.9651, 106.9155
338.4473, 107.0718
338.9294, 107.1790
339.4115, 107.1538
339.8936, 106.7831
340.3757, 106.1359
340.8578, 105.7619
341.3400, 105.9414
341.8221, 106.4266
342.3042, 106.8618
342.7863, 107.2754
343.2684, 107.5198
343.7505, 107.5182
344.2327, 107.2948
344.7148, 106.8109
345.1969, 105.9318
345.6790, 105.1324
346.1611, 105.2070
346.6432, 105.9988
347.1254, 106.4373
347.6075, 105.9206
348.0896, 105.0593
348.5717, 104.5940
349.0538, 104.5910
349.5359, 104.7988
350.0181, 105.1745
350.5002, 105.6170
350.9823, 105.7221
351.4644, 105.0611
351.9465, 104.4045
352.4286, 104.4137
352.9108, 104.9403
353.3929, 105.2446
353.8750, 104.9015
354.3571, 104.1800
354.8392, 103.7608
355.3214, 103.7360
355.8035, 103.7486
356.2856, 103.6806
356.7677, 103.5636
357.2498, 103.4349
357.7319, 103.2956
358.2141, 103.1999
358.6962, 103.2331
359.1783, 103.4100
359.6604, 103.6192
360.1425, 104.0079
360.6246, 104.3268
361.1068, 104.2360
361.5889, 103.7403
362.0710, 103.2759
362.5531, 103.2036
363.0352, 103.5320
363.5173, 103.9030
363.9995, 104.5985
364.4816, 105.0607
364.9637, 104.7805
365.4458, 104.0366
365.9279, 103.5738
366.4100, 103.8115
366.8922, 104.5145
367.3743, 104.9119
367.8564, 104.5681
368.3385, 104.5533
368.8206, 105.1126
369.3027, 106.0247
369.7849, 107.1855
370.2670, 108.5301
370.7491, 109.7189
371.2312, 110.2109
371.7133, 109.5754
372.1954, 109.5653
372.6776, 110.6174
373.1597, 111.8739
373.6418, 112.8511
374.1239, 113.5366
374.6060, 114.1376
375.0881, 114.8111
375.5703, 115.5564
376.0524, 116.4172
376.5345, 117.3164
377.0166, 118.4185
377.4987, 119.9707
377.9808, 121.7013
378.4630, 123.1642
378.9451, 124.1514
379.4272, 124.9423
379.9093, 126.2244
380.3914, 128.4588
380.8735, 130.4378
381.3557, 132.1608
381.8378, 133.6152
382.3199, 134.6797
382.8020, 135.4100
383.2841, 136.1034
383.7662, 137.1256
384.2484, 138.5607
384.7305, 139.7569
385.2126, 140.9258
385.6947, 141.6261
386.1768, 141.5617
386.6589, 140.9152
387.1411, 140.0799
387.6232, 139.3205
388.1053, 138.4929
388.5874, 137.0387
389.0695, 134.6075
389.5516, 132.1954
390.0338, 130.0486
390.5159, 128.0016
390.9980, 125.8730
391.4801, 123.6112
391.9622, 121.4182
392.4443, 119.5412
392.9265, 118.0063
393.4086, 116.5614
393.8907, 115.0992
394.3728, 113.8205
394.8549, 112.9045
395.3370, 112.2890
395.8192, 111.7375
396.3013, 111.0820
396.7834, 110.3746
397.2655, 109.7852
397.7476, 109.3133
398.2297, 108.9652
398.7119, 108.8904
399.1940, 108.8961
399.6761, 108.6981
400.1582, 108.1360
400.6403, 107.5511
401.1224, 107.3498
401.6046, 107.5043
402.0867, 107.5651
402.5688, 107.3522
403.0509, 107.0377
403.5330, 106.7759
404.0151, 106.5593
404.4973, 106.5343
404.9794, 106.8670
405.4615, 107.4038
405.9436, 107.9065
406.4257, 108.3517
406.9078, 108.7148
407.3900, 108.9821
407.8721, 109.1410
408.3542, 109.1673
408.8363, 108.7909
409.3184, 108.5226
409.8005, 108.8253
410.2827, 109.5439
410.7648, 110.0253
411.2469, 109.8412
411.7290, 109.5387
412.2111, 110.6251
412.6932, 114.1243
413.1754, 116.2751
413.6575, 115.3054
414.1396, 113.2809
414.6217, 112.3549
415.1038, 112.8835
415.5859, 113.9564
416.0681, 114.7388
416.5502, 115.2206
417.0323, 115.4234
417.5144, 115.3058
417.9965, 115.0057
418.4786, 114.4097
418.9608, 113.6910
419.4429, 113.2399
419.9250, 113.2820
420.4071, 113.5088
420.8892, 113.0498
421.3713, 111.3959
421.8535, 109.7854
422.3356, 108.2500
422.8177, 106.7679
423.2998, 105.3590
423.7819, 104.0017
424.2640, 102.6332
424.7462, 101.1896
425.2283, 99.66224
425.7104, 98.09690
426.1925, 96.35522
426.6746, 94.73141
427.1567, 93.26993
427.6389, 91.98717
428.1210, 90.94963
428.6031, 90.21683
429.0852, 89.62370
429.5673, 88.80924
430.0494, 87.67510
430.5316, 86.67094
431.0137, 85.91185
431.4958, 85.32567
431.9779, 84.98019
432.4600, 84.84118
432.9421, 84.62788
433.4243, 83.99493
433.9064, 83.08250
434.3885, 82.50816
434.8706, 82.36124
435.3527, 82.40898
435.8348, 82.63179
436.3170, 82.92542
436.7991, 83.11716
437.2812, 83.17121
437.7633, 83.09981
438.2454, 82.79878
438.7275, 82.32274
439.2097, 82.09856
439.6918, 82.37148
440.1739, 82.81380
440.6560, 82.87222
441.1381, 82.50859
441.6202, 82.32133
442.1024, 82.53881
442.5845, 82.98385
443.0666, 83.60827
443.5487, 84.36408
444.0308, 84.78905
444.5129, 84.39555
444.9951, 83.33012
445.4772, 82.98235
445.9593, 83.92114
446.4414, 84.80267
446.9235, 85.14889
447.4056, 85.20426
447.8878, 85.35990
448.3699, 85.74751
448.8520, 86.20026
449.3341, 86.45741
449.8162, 86.42381
450.2983, 86.45641
450.7805, 86.71928
451.2626, 86.88879
451.7447, 86.71887
452.2268, 86.30621
452.7089, 85.94865
453.1910, 85.86842
453.6732, 85.95372
454.1553, 85.71856
454.6374, 84.95992
455.1195, 84.21233
455.6016, 83.51945
456.0837, 82.90002
456.5659, 82.35735
457.0480, 81.89428
457.5301, 81.55633
458.0122, 81.49037
458.4943, 81.68580
458.9764, 81.58462
459.4586, 81.03015
459.9407, 80.37670
460.4228, 79.78916
460.9049, 79.24680
461.3870, 78.70273
461.8691, 78.10652
462.3513, 77.55917
462.8334, 77.17907
463.3155, 76.96486
463.7976, 76.89951
464.2797, 77.05809
464.7618, 77.27025
465.2440, 77.28842
465.7261, 77.10811
466.2082, 77.00460
466.6903, 76.96641
467.1724, 77.10897
467.6545, 77.83540
468.1367, 79.10410
468.6188, 79.90471
469.1009, 79.42470
469.5830, 77.95701
470.0651, 76.98627
470.5472, 76.89584
471.0294, 76.74956
471.5115, 76.08865
471.9936, 75.33401
472.4757, 75.08790
472.9578, 75.48104
473.4399, 76.10258
473.9221, 76.50977
474.4042, 76.74832
474.8863, 76.47156
475.3684, 74.98075
475.8505, 73.77242
476.3326, 73.58567
476.8148, 74.02498
477.2969, 74.37777
477.7790, 74.29459
478.2611, 73.99722
478.7432, 74.00120
479.2253, 74.50861
479.7075, 74.74068
480.1896, 74.23514
480.6717, 73.74464
481.1538, 73.70106
481.6359, 74.06973
482.1180, 74.55135
482.6002, 75.02380
483.0823, 75.43739
483.5644, 75.56652
484.0465, 75.27081
484.5286, 75.22015
485.0107, 76.09101
485.4929, 77.16729
485.9750, 77.55432
486.4571, 77.06084
486.9392, 76.39405
487.4213, 75.82754
487.9034, 75.41647
488.3856, 75.30821
488.8677, 75.53820
489.3498, 75.97749
489.8319, 76.60564
490.3140, 77.38693
490.7961, 77.91023
491.2783, 78.09997
491.7604, 78.12003
492.2425, 77.84393
492.7246, 77.48814
493.2067, 77.50311
493.6888, 78.04648
494.1710, 78.80348
494.6531, 79.28875
495.1352, 79.42630
495.6173, 79.51161
496.0994, 79.48895
496.5815, 79.47591
497.0637, 79.61874
497.5458, 79.80943
498.0279, 79.76004
498.5100, 79.27487
498.9921, 78.62659
499.4742, 78.58952
499.9564, 79.56227
500.4385, 80.12879
500.9206, 79.70866
501.4027, 79.12870
501.8848, 78.81599
502.3669, 78.80839
502.8491, 79.00912
503.3312, 79.49740
503.8133, 80.11272
504.2954, 80.39378
504.7775, 80.29058
505.2596, 80.08747
505.7418, 79.93309
506.2239, 79.73545
506.7060, 79.27517
507.1881, 78.40636
507.6702, 77.85636
508.1523, 78.25770
508.6345, 79.12670
509.1166, 79.66414
509.5987, 79.75244
510.0808, 79.64821
510.5629, 79.49926
511.0450, 79.32854
511.5272, 79.37164
512.0093, 79.80195
512.4914, 80.20918
512.9735, 80.54337
513.4556, 80.75872
513.9377, 80.68510
514.4199, 80.32058
514.9020, 80.03646
515.3841, 80.33860
515.8662, 81.33223
516.3483, 82.18201
516.8304, 82.81088
517.3126, 83.36915
517.7947, 83.91553
518.2768, 84.40813
518.7589, 84.71439
519.2410, 84.76615
519.7231, 84.85592
520.2053, 85.50230
520.6874, 86.75642
521.1695, 87.78987
521.6516, 88.39446
522.1337, 88.87699
522.6158, 89.48244
523.0980, 90.14833
523.5801, 90.68676
524.0622, 90.90400
524.5443, 91.08957
525.0264, 91.53326
525.5085, 92.21699
525.9907, 93.08676
526.4728, 94.24886
526.9549, 95.32006
527.4370, 95.60550
527.9191, 94.93829
528.4012, 94.62898
528.8834, 95.05006
529.3655, 95.66005
529.8476, 96.20119
530.3297, 96.61674
530.8118, 96.77927
531.2939, 96.59465
531.7761, 96.28151
532.2582, 96.42641
532.7403, 97.43437
533.2224, 98.15421
533.7045, 98.18196
534.1866, 98.28513
534.6688, 99.09583
535.1509, 100.4131
535.6330, 101.5424
536.1151, 102.0215
536.5972, 102.0190
537.0793, 101.8712
537.5615, 101.4329
538.0436, 101.4657
538.5257, 102.6457
539.0078, 104.0426
539.4899, 104.8612
539.9720, 105.0921
540.4542, 105.1395
540.9363, 105.1799
541.4184, 105.1618
541.9005, 104.8715
542.3826, 104.3364
542.8647, 104.1494
543.3469, 104.7036
543.8290, 105.7176
544.3111, 106.4703
544.7932, 106.8513
545.2753, 107.2676
545.7574, 107.9059
546.2396, 108.5107
546.7217, 108.8924
547.2038, 109.0294
547.6859, 108.8904
548.1680, 108.3948
548.6501, 107.7216
549.1323, 107.7510
549.6144, 109.3716
550.0965, 110.1270
550.5786, 109.1909
551.0607, 107.8481
551.5428, 107.0050
552.0250, 106.7044
552.5071, 106.4649
552.9892, 105.8821
553.4713, 105.1178
553.9534, 104.7303
554.4355, 104.8446
554.9177, 104.6871
555.3998, 103.7878
555.8819, 102.5650
556.3640, 101.5924
556.8461, 100.9032
557.3282, 100.2519
557.8104, 99.51291
558.2925, 98.77451
558.7746, 98.15554
559.2567, 97.64964
559.7388, 97.20098
560.2209, 96.79965
560.7031, 96.38661
561.1852, 95.77122
561.6673, 94.58922
562.1494, 93.71370
562.6315, 93.56800
563.1136, 93.41025
563.5958, 92.55814
564.0779, 91.14468
564.5600, 89.83584
565.0421, 89.09145
565.5242, 88.80825
566.0063, 88.71187
566.4885, 88.95022
566.9706, 88.94360
567.4527, 88.27791
567.9348, 87.52478
568.4169, 87.12022
568.8990, 87.03748
569.3812, 86.89244
569.8633, 86.35455
570.3454, 85.70956
570.8275, 85.44915
571.3096, 85.54358
571.7917, 85.48460
572.2739, 84.99344
572.7560, 84.33842
573.2381, 84.02672
573.7202, 84.16634
574.2023, 84.19373
574.6844, 84.04214
575.1666, 83.77571
575.6487, 83.39771
576.1308, 82.94244
576.6129, 82.45598
577.0950, 81.95484
577.5771, 81.49671
578.0593, 81.23925
578.5414, 81.31541
579.0235, 81.22718
579.5056, 80.81406
579.9877, 80.35563
580.4698, 79.94941
580.9520, 79.59710
581.4341, 79.27177
581.9162, 78.95085
582.3983, 78.67407
582.8804, 78.45657
583.3625, 78.30973
583.8447, 78.42599
584.3268, 78.97651
584.8089, 79.51366
585.2910, 79.55578
585.7731, 79.13908
586.2552, 78.62344
586.7374, 77.76763
587.2195, 77.10472
587.7016, 77.06242
588.1837, 77.36485
588.6658, 77.54981
589.1479, 77.47423
589.6301, 77.25585
590.1122, 77.04207
590.5943, 76.84658
591.0764, 76.51569
591.5585, 75.77016
592.0406, 75.21853
592.5228, 74.96230
593.0049, 74.99470
593.4870, 75.46369
593.9691, 76.38280
594.4512, 77.12893
594.9333, 76.87281
595.4155, 75.90276
595.8976, 75.55574
596.3797, 76.03052
596.8618, 76.57609
597.3439, 76.86464
597.8260, 76.87259
598.3082, 76.55322
598.7903, 75.68747
599.2724, 75.04998
599.7545, 75.01968
600.2366, 75.25991
600.7188, 75.48001
601.2009, 75.62370
601.6830, 75.64715
602.1651, 75.49717
602.6472, 75.26273
603.1293, 75.29586
603.6115, 75.85350
604.0936, 76.20325
604.5757, 76.21677
605.0578, 76.10168
605.5399, 75.89035
606.0220, 75.65411
606.5042, 75.56332
606.9863, 75.77473
607.4684, 76.08875
607.9505, 76.16119
608.4326, 75.99852
608.9147, 75.87353
609.3969, 75.89831
609.8790, 75.90845
610.3611, 75.74837
610.8432, 75.42200
611.3253, 74.91695
611.8074, 74.03696
612.2896, 73.18106
612.7717, 72.48009
613.2538, 71.96745
613.7359, 71.78413
614.2180, 71.94099
614.7001, 72.10322
615.1823, 71.86805
615.6644, 71.21801
616.1465, 70.52003
616.6286, 69.66301
617.1107, 68.91991
617.5928, 68.47061
618.0750, 68.10121
618.5571, 67.54525
619.0392, 66.76519
619.5213, 66.05479
620.0034, 65.65616
620.4855, 65.48148
620.9677, 65.33916
621.4498, 65.22131
621.9319, 65.16203
622.4140, 65.18167
622.8961, 65.26610
623.3782, 65.36878
623.8604, 65.42326
624.3425, 65.69601
624.8246, 66.35268
625.3067, 67.11411
625.7888, 68.02235
626.2709, 68.86377
626.7531, 69.19466
627.2352, 68.78979
627.7173, 67.91140
628.1994, 66.89199
628.6815, 65.58428
629.1636, 64.96284
629.6458, 65.49078
630.1279, 66.20194
630.6100, 66.56911
631.0921, 66.78123
631.5742, 67.24059
632.0563, 68.20617
632.5385, 68.94599
633.0206, 68.67287
633.5027, 67.86680
633.9848, 67.46809
634.4669, 67.61430
634.9490, 68.03645
635.4312, 68.61048
635.9133, 69.25733
636.3954, 69.60329
636.8775, 69.42612
637.3596, 69.22903
637.8417, 68.95589
638.3239, 68.72586
638.8060, 68.46000
639.2881, 68.30172
639.7702, 68.71197
640.2523, 70.12601
640.7344, 71.84428
641.2166, 72.42398
641.6987, 71.81863
642.1808, 71.13311
642.6629, 70.42467
643.1450, 69.93874
643.6271, 70.00219
644.1093, 70.49181
644.5914, 71.00008
645.0735, 71.67406
645.5556, 72.12252
646.0377, 72.02211
646.5198, 71.64307
647.0020, 71.26289
647.4841, 70.98779
647.9662, 71.02299
648.4483, 71.60716
648.9304, 72.63537
649.4125, 73.37550
649.8947, 73.65877
650.3768, 73.95803
650.8589, 74.42712
651.3410, 74.88014
651.8231, 75.15055
652.3052, 75.26745
652.7874, 75.42199
