##NAMES=Clintonite
##RRUFFID=R070197
##IDEAL CHEMISTRY=CaAlMg_2_(SiAl_3_)O_10_(OH)_2_
##LOCALITY=Crestmore Quarry, Riverside County, California, USA
##OWNER=RRUFF
##SOURCE=California Institute of Technology
##DESCRIPTION=Transparent green micaceous
##STATUS=The identification of this mineral is confirmed by single-crystal X-ray diffraction and chemical analysis.
##URL=rruff.info/R070197
##MEASURED CHEMISTRY=Ca_1.00_(Mg_2.19_Al_0.66_Fe^3+^_0.15_)_Σ=3_(Al_2.81_Si_1.19_)_Σ=4_O_10_(OH)_2_
170.9675, 50844.89
171.4496, 51042.65
171.9317, 51152.92
172.4138, 51204.34
172.8959, 51268.89
173.3781, 51356.52
173.8602, 51437.10
174.3423, 51500.72
174.8244, 51549.85
175.3065, 51583.19
175.7886, 51589.70
176.2708, 51586.59
176.7529, 51627.07
177.2350, 51739.56
177.7171, 51844.03
178.1992, 51908.61
178.6813, 51948.08
179.1634, 51979.44
179.6456, 52006.61
180.1277, 52035.52
180.6098, 52087.04
181.0919, 52179.04
181.5740, 52262.09
182.0561, 52309.69
182.5383, 52344.07
183.0204, 52391.65
183.5025, 52465.09
183.9846, 52560.09
184.4667, 52669.59
184.9488, 52816.28
185.4310, 52934.45
185.9131, 52989.29
186.3952, 53016.83
186.8773, 53062.80
187.3594, 53152.38
187.8415, 53261.04
188.3237, 53320.64
188.8058, 53291.90
189.2879, 53280.10
189.7700, 53301.55
190.2521, 53350.70
190.7342, 53426.50
191.2164, 53529.71
191.6985, 53649.75
192.1806, 53760.76
192.6627, 53857.81
193.1448, 53954.87
193.6269, 54069.90
194.1091, 54179.56
194.5912, 54251.51
195.0733, 54272.05
195.5554, 54275.93
196.0375, 54344.68
196.5196, 54536.53
197.0018, 54684.70
197.4839, 54755.02
197.9660, 54787.79
198.4481, 54809.94
198.9302, 54831.79
199.4123, 54859.46
199.8945, 54904.71
200.3766, 54972.10
200.8587, 55050.24
201.3408, 55165.83
201.8229, 55273.40
202.3050, 55332.89
202.7872, 55334.95
203.2693, 55304.57
203.7514, 55282.23
204.2335, 55278.16
204.7156, 55258.37
205.1977, 55188.90
205.6799, 55127.57
206.1620, 55124.52
206.6441, 55184.66
207.1262, 55263.35
207.6083, 55298.43
208.0904, 55270.46
208.5726, 55246.25
209.0547, 55240.62
209.5368, 55227.64
210.0189, 55183.16
210.5010, 55109.77
210.9831, 55035.50
211.4653, 54992.33
211.9474, 54984.78
212.4295, 54994.25
212.9116, 55013.92
213.3937, 55054.46
213.8758, 55144.90
214.3580, 55269.97
214.8401, 55373.88
215.3222, 55386.40
215.8043, 55280.66
216.2864, 55264.57
216.7685, 55412.20
217.2507, 55579.30
217.7328, 55727.31
218.2149, 55849.97
218.6970, 55952.54
219.1791, 56039.75
219.6612, 56111.79
220.1434, 56160.67
220.6255, 56134.91
221.1076, 56135.86
221.5897, 56208.68
222.0718, 56329.80
222.5539, 56451.91
223.0361, 56543.41
223.5182, 56605.86
224.0003, 56648.60
224.4824, 56656.56
224.9645, 56659.32
225.4466, 56663.95
225.9288, 56667.18
226.4109, 56662.67
226.8930, 56646.05
227.3751, 56620.57
227.8572, 56601.47
228.3393, 56611.79
228.8215, 56595.13
229.3036, 56511.22
229.7857, 56408.46
230.2678, 56342.27
230.7499, 56337.96
231.2320, 56377.89
231.7142, 56422.78
232.1963, 56490.35
232.6784, 56529.66
233.1605, 56505.91
233.6426, 56470.85
234.1247, 56479.45
234.6069, 56547.96
235.0890, 56632.63
235.5711, 56650.74
236.0532, 56559.55
236.5353, 56503.49
237.0174, 56500.77
237.4996, 56527.45
237.9817, 56579.43
238.4638, 56651.10
238.9459, 56721.56
239.4280, 56766.54
239.9101, 56784.19
240.3923, 56782.06
240.8744, 56710.34
241.3565, 56659.79
241.8386, 56695.59
242.3207, 56806.55
242.8028, 56918.84
243.2850, 56954.30
243.7671, 56904.41
244.2492, 56880.73
244.7313, 56925.00
245.2134, 56956.28
245.6955, 56938.17
246.1777, 56881.25
246.6598, 56817.89
247.1419, 56772.76
247.6240, 56742.19
248.1061, 56691.72
248.5882, 56578.80
249.0704, 56505.56
249.5525, 56531.54
250.0346, 56612.22
250.5167, 56674.28
250.9988, 56674.16
251.4809, 56635.08
251.9631, 56629.43
252.4452, 56686.11
252.9273, 56716.34
253.4094, 56667.85
253.8915, 56591.14
254.3736, 56538.33
254.8558, 56528.06
255.3379, 56548.64
255.8200, 56589.37
256.3021, 56659.34
256.7842, 56714.31
257.2664, 56724.74
257.7485, 56724.75
258.2306, 56739.79
258.7127, 56775.46
259.1948, 56816.68
259.6769, 56843.52
260.1591, 56854.75
260.6412, 56883.55
261.1233, 56956.43
261.6054, 57031.31
262.0875, 57076.95
262.5696, 57093.21
263.0518, 57102.45
263.5339, 57127.83
264.0160, 57163.00
264.4981, 57167.60
264.9802, 57122.50
265.4623, 57068.68
265.9445, 57032.36
266.4266, 57011.36
266.9087, 57000.54
267.3908, 57001.63
267.8729, 57010.47
268.3550, 57022.79
268.8372, 57044.12
269.3193, 57050.55
269.8014, 56997.52
270.2835, 56920.27
270.7656, 56882.47
271.2477, 56921.93
271.7299, 56989.94
272.2120, 57037.95
272.6941, 57065.89
273.1762, 57076.13
273.6583, 57063.87
274.1404, 57036.04
274.6226, 57009.86
275.1047, 56994.30
275.5868, 56965.21
276.0689, 56883.94
276.5510, 56768.78
277.0331, 56694.25
277.5153, 56687.67
277.9974, 56734.20
278.4795, 56820.16
278.9616, 56958.26
279.4437, 57070.09
279.9258, 57110.45
280.4080, 57109.72
280.8901, 57119.66
281.3722, 57152.53
281.8543, 57191.20
282.3364, 57212.29
282.8185, 57213.12
283.3007, 57229.73
283.7828, 57269.09
284.2649, 57324.12
284.7470, 57408.99
285.2291, 57518.07
285.7112, 57590.40
286.1934, 57565.33
286.6755, 57444.32
287.1576, 57367.71
287.6397, 57346.56
288.1218, 57354.14
288.6039, 57394.39
289.0861, 57454.56
289.5682, 57506.35
290.0503, 57535.54
290.5324, 57542.32
291.0145, 57525.43
291.4966, 57463.12
291.9788, 57405.78
292.4609, 57359.07
292.9430, 57322.04
293.4251, 57296.13
293.9072, 57281.54
294.3893, 57271.55
294.8715, 57255.79
295.3536, 57244.32
295.8357, 57204.50
296.3178, 57102.21
296.7999, 56998.56
297.2820, 56933.12
297.7642, 56911.77
298.2463, 56922.71
298.7284, 56956.70
299.2105, 57017.48
299.6926, 57076.21
300.1747, 57129.06
300.6569, 57183.67
301.1390, 57262.80
301.6211, 57345.69
302.1032, 57382.83
302.5853, 57331.51
303.0674, 57219.25
303.5495, 57192.01
304.0316, 57325.30
304.5138, 57435.01
304.9959, 57476.28
305.4780, 57480.27
305.9601, 57479.27
306.4422, 57485.12
306.9243, 57491.34
307.4065, 57483.71
307.8886, 57454.82
308.3707, 57439.83
308.8528, 57447.06
309.3349, 57469.33
309.8170, 57512.86
310.2992, 57574.69
310.7813, 57628.79
311.2634, 57648.50
311.7455, 57636.98
312.2276, 57630.53
312.7097, 57642.99
313.1919, 57643.15
313.6740, 57603.53
314.1561, 57537.22
314.6382, 57479.03
315.1203, 57455.19
315.6024, 57444.38
316.0846, 57403.39
316.5667, 57325.94
317.0488, 57255.61
317.5309, 57220.61
318.0130, 57207.09
318.4951, 57189.21
318.9773, 57150.79
319.4594, 57131.14
319.9415, 57179.71
320.4236, 57278.94
320.9057, 57349.18
321.3878, 57358.54
321.8700, 57334.54
322.3521, 57315.88
322.8342, 57300.56
323.3163, 57297.61
323.7984, 57304.05
324.2805, 57326.61
324.7627, 57384.58
325.2448, 57481.11
325.7269, 57575.75
326.2090, 57628.61
326.6911, 57634.60
327.1732, 57644.19
327.6554, 57661.65
328.1375, 57678.68
328.6196, 57694.00
329.1017, 57705.43
329.5838, 57702.55
330.0659, 57674.93
330.5481, 57635.76
331.0302, 57646.15
331.5123, 57772.62
331.9944, 57866.44
332.4765, 57908.90
332.9586, 57913.05
333.4408, 57880.57
333.9229, 57815.89
334.4050, 57748.52
334.8871, 57729.79
335.3692, 57800.58
335.8513, 57807.13
336.3335, 57689.38
336.8156, 57568.45
337.2977, 57501.38
337.7798, 57487.57
338.2619, 57501.53
338.7440, 57528.61
339.2262, 57566.40
339.7083, 57595.76
340.1904, 57633.80
340.6725, 57634.35
341.1546, 57564.22
341.6367, 57460.94
342.1189, 57362.08
342.6010, 57275.43
343.0831, 57226.02
343.5652, 57274.48
344.0473, 57440.72
344.5294, 57562.95
345.0116, 57578.63
345.4937, 57553.57
345.9758, 57539.50
346.4579, 57538.84
346.9400, 57530.67
347.4221, 57486.62
347.9043, 57425.17
348.3864, 57402.87
348.8685, 57435.09
349.3506, 57475.58
349.8327, 57480.54
350.3148, 57463.70
350.7970, 57466.71
351.2791, 57525.84
351.7612, 57584.50
352.2433, 57592.41
352.7254, 57556.71
353.2076, 57512.19
353.6897, 57468.82
354.1718, 57434.05
354.6539, 57434.28
355.1360, 57494.66
355.6181, 57530.09
356.1003, 57509.54
356.5824, 57459.58
357.0645, 57403.09
357.5466, 57346.91
358.0287, 57306.01
358.5108, 57302.29
358.9930, 57349.41
359.4751, 57355.12
359.9572, 57294.95
360.4393, 57224.50
360.9214, 57163.79
361.4035, 57112.55
361.8857, 57067.64
362.3678, 57028.40
362.8499, 56988.98
363.3320, 56923.72
363.8141, 56788.29
364.2962, 56700.75
364.7784, 56686.29
365.2605, 56712.01
365.7426, 56764.19
366.2247, 56834.33
366.7068, 56896.27
367.1889, 56920.70
367.6711, 56906.63
368.1532, 56869.28
368.6353, 56765.75
369.1174, 56692.81
369.5995, 56717.29
370.0816, 56807.30
370.5638, 56885.14
371.0459, 56907.00
371.5280, 56902.14
372.0101, 56917.62
372.4922, 56954.51
372.9743, 57003.85
373.4565, 57086.04
373.9386, 57162.17
374.4207, 57166.75
374.9028, 57073.86
375.3849, 56995.88
375.8670, 57015.86
376.3492, 57088.02
376.8313, 57112.32
377.3134, 57063.19
377.7955, 57009.22
378.2776, 57036.47
378.7597, 57156.78
379.2419, 57186.09
379.7240, 57020.29
380.2061, 56854.55
380.6882, 56820.78
381.1703, 56885.91
381.6524, 56941.94
382.1346, 56928.62
382.6167, 56872.46
383.0988, 56854.11
383.5809, 56928.47
384.0630, 56969.41
384.5451, 56962.44
385.0273, 56929.31
385.5094, 56873.71
385.9915, 56804.34
386.4736, 56749.20
386.9557, 56741.57
387.4378, 56784.24
387.9200, 56821.08
388.4021, 56857.54
388.8842, 56880.68
389.3663, 56865.56
389.8484, 56839.71
390.3305, 56849.85
390.8127, 56922.63
391.2948, 57020.00
391.7769, 57079.96
392.2590, 57097.90
392.7411, 57120.61
393.2232, 57165.02
393.7054, 57214.35
394.1875, 57258.46
394.6696, 57296.89
395.1517, 57314.20
395.6338, 57281.77
396.1159, 57230.64
396.5981, 57212.82
397.0802, 57233.59
397.5623, 57274.58
398.0444, 57333.41
398.5265, 57402.04
399.0086, 57442.57
399.4908, 57457.79
399.9729, 57442.70
400.4550, 57373.67
400.9371, 57278.03
401.4192, 57202.46
401.9013, 57162.01
402.3835, 57137.19
402.8656, 57099.05
403.3477, 57043.30
403.8298, 56986.79
404.3119, 56927.05
404.7940, 56868.36
405.2762, 56814.67
405.7583, 56763.71
406.2404, 56710.11
406.7225, 56650.11
407.2046, 56585.64
407.6867, 56522.68
408.1689, 56453.77
408.6510, 56402.73
409.1331, 56377.17
409.6152, 56367.27
410.0973, 56371.78
410.5794, 56388.62
411.0616, 56401.62
411.5437, 56402.05
412.0258, 56388.22
412.5079, 56343.71
412.9900, 56251.07
413.4721, 56167.52
413.9543, 56136.70
414.4364, 56143.15
414.9185, 56163.69
415.4006, 56213.59
415.8827, 56252.56
416.3648, 56246.52
416.8470, 56205.03
417.3291, 56152.70
417.8112, 56094.16
418.2933, 56041.92
418.7754, 56014.67
419.2575, 56016.62
419.7397, 56033.68
420.2218, 56085.06
420.7039, 56135.40
421.1860, 56165.90
421.6681, 56174.60
422.1502, 56164.67
422.6324, 56138.39
423.1145, 56094.10
423.5966, 56021.75
424.0787, 55873.64
424.5608, 55773.44
425.0429, 55770.51
425.5251, 55791.13
426.0072, 55772.82
426.4893, 55708.48
426.9714, 55637.75
427.4535, 55613.03
427.9356, 55626.18
428.4178, 55568.93
428.8999, 55386.42
429.3820, 55239.75
429.8641, 55246.34
430.3462, 55330.86
430.8283, 55382.35
431.3105, 55362.22
431.7926, 55331.36
432.2747, 55358.45
432.7568, 55419.85
433.2389, 55419.02
433.7210, 55317.18
434.2032, 55195.01
434.6853, 55146.96
435.1674, 55180.50
435.6495, 55225.11
436.1316, 55298.56
436.6137, 55363.04
437.0959, 55403.71
437.5780, 55416.54
438.0601, 55389.22
438.5422, 55312.62
439.0243, 55210.48
439.5064, 55143.91
439.9886, 55132.89
440.4707, 55123.78
440.9528, 55120.32
441.4349, 55113.92
441.9170, 55093.92
442.3991, 55064.44
442.8813, 55042.54
443.3634, 55046.66
443.8455, 55066.30
444.3276, 55060.70
444.8097, 55026.41
445.2918, 54976.20
445.7740, 54880.90
446.2561, 54789.53
446.7382, 54756.67
447.2203, 54794.34
447.7024, 54848.74
448.1845, 54906.83
448.6667, 54954.51
449.1488, 54954.00
449.6309, 54897.58
450.1130, 54830.42
450.5951, 54785.11
451.0772, 54760.43
451.5594, 54738.11
452.0415, 54697.46
452.5236, 54682.66
453.0057, 54737.23
453.4878, 54816.00
453.9699, 54855.82
454.4521, 54838.76
454.9342, 54790.18
455.4163, 54741.63
455.8984, 54694.77
456.3805, 54638.85
456.8626, 54544.66
457.3448, 54472.38
457.8269, 54449.08
458.3090, 54458.06
458.7911, 54476.69
459.2732, 54499.00
459.7553, 54510.35
460.2375, 54483.63
460.7196, 54418.33
461.2017, 54356.79
461.6838, 54303.63
462.1659, 54261.38
462.6480, 54222.63
463.1302, 54191.62
463.6123, 54197.12
464.0944, 54283.65
464.5765, 54381.19
465.0586, 54435.62
465.5407, 54448.05
466.0229, 54418.01
466.5050, 54336.65
466.9871, 54244.04
467.4692, 54224.30
467.9513, 54349.32
468.4334, 54393.41
468.9156, 54270.64
469.3977, 54143.06
469.8798, 54129.42
470.3619, 54202.11
470.8440, 54259.68
471.3261, 54237.27
471.8083, 54159.27
472.2904, 54094.55
472.7725, 54046.92
473.2546, 54003.39
473.7367, 53956.99
474.2188, 53917.55
474.7010, 53893.09
475.1831, 53883.32
475.6652, 53880.40
476.1473, 53885.39
476.6294, 53892.19
477.1115, 53895.98
477.5937, 53896.70
478.0758, 53871.13
478.5579, 53797.42
479.0400, 53698.55
479.5221, 53629.77
480.0042, 53596.81
480.4864, 53574.20
480.9685, 53558.44
481.4506, 53550.13
481.9327, 53561.15
482.4148, 53584.30
482.8969, 53584.16
483.3791, 53528.38
483.8612, 53433.55
484.3433, 53394.82
484.8254, 53464.75
485.3075, 53504.59
485.7896, 53456.37
486.2718, 53400.71
486.7539, 53411.46
487.2360, 53490.68
487.7181, 53573.00
488.2002, 53614.21
488.6823, 53619.05
489.1645, 53596.79
489.6466, 53543.78
490.1287, 53482.82
490.6108, 53404.34
491.0929, 53337.73
491.5750, 53349.64
492.0572, 53483.09
492.5393, 53570.07
493.0214, 53513.48
493.5035, 53403.12
493.9856, 53332.63
494.4677, 53313.91
494.9499, 53325.98
495.4320, 53358.07
495.9141, 53403.84
496.3962, 53423.04
496.8783, 53415.23
497.3604, 53378.11
497.8426, 53282.89
498.3247, 53179.31
498.8068, 53109.02
499.2889, 53075.71
499.7710, 53055.59
500.2531, 53034.65
500.7353, 53010.95
501.2174, 52973.32
501.6995, 52915.98
502.1816, 52869.60
502.6637, 52854.22
503.1458, 52853.81
503.6280, 52833.20
504.1101, 52776.28
504.5922, 52765.84
505.0743, 52891.08
505.5564, 53045.80
506.0385, 53096.01
506.5207, 53041.33
507.0028, 52969.09
507.4849, 52935.86
507.9670, 52933.78
508.4491, 52929.08
508.9312, 52922.09
509.4134, 52911.56
509.8955, 52912.92
510.3776, 52899.25
510.8597, 52827.73
511.3418, 52714.63
511.8239, 52634.88
512.3061, 52654.87
512.7882, 52738.72
513.2703, 52792.56
513.7524, 52814.63
514.2346, 52814.06
514.7167, 52786.70
515.1988, 52743.31
515.6809, 52690.25
516.1630, 52624.20
516.6451, 52587.98
517.1273, 52637.92
517.6094, 52691.27
518.0915, 52649.73
518.5736, 52534.79
519.0557, 52455.95
519.5378, 52476.95
520.0200, 52543.67
520.5021, 52520.86
520.9842, 52320.71
521.4663, 52199.18
521.9484, 52196.55
522.4305, 52224.89
522.9127, 52265.38
523.3948, 52297.26
523.8769, 52277.25
524.3590, 52166.29
524.8411, 52028.84
525.3232, 51979.39
525.8054, 52017.31
526.2875, 52043.18
526.7696, 52033.71
527.2517, 52004.77
527.7338, 51960.57
528.2159, 51904.53
528.6981, 51877.13
529.1802, 51898.65
529.6623, 51935.96
530.1444, 51972.04
530.6265, 52009.29
531.1086, 52063.38
531.5908, 52138.43
532.0729, 52198.71
532.5550, 52191.55
533.0371, 52105.91
533.5192, 52020.54
534.0013, 51915.42
534.4835, 51834.49
534.9656, 51797.13
535.4477, 51789.07
535.9298, 51795.91
536.4119, 51815.78
536.8940, 51828.94
537.3762, 51812.39
537.8583, 51774.23
538.3404, 51735.77
538.8225, 51697.25
539.3046, 51677.93
539.7867, 51700.52
540.2689, 51753.40
540.7510, 51778.38
541.2331, 51779.74
541.7152, 51751.43
542.1973, 51676.27
542.6794, 51581.30
543.1616, 51475.50
543.6437, 51371.02
544.1258, 51303.03
544.6079, 51305.33
545.0900, 51360.74
545.5721, 51392.45
546.0543, 51389.75
546.5364, 51392.77
547.0185, 51422.69
547.5006, 51453.57
547.9827, 51474.48
548.4648, 51482.24
548.9469, 51456.00
549.4290, 51364.96
549.9111, 51250.69
550.3932, 51136.98
550.8754, 51035.43
551.3575, 51004.51
551.8396, 51076.32
552.3217, 51182.13
552.8038, 51209.55
553.2859, 51132.86
553.7681, 51063.04
554.2502, 50999.43
554.7323, 50941.97
555.2144, 50865.79
555.6965, 50803.35
556.1786, 50822.65
556.6608, 50951.41
557.1429, 51087.20
557.6250, 51085.17
558.1071, 50966.06
558.5892, 50907.36
559.0714, 50943.04
559.5535, 50982.99
560.0356, 50971.64
560.5177, 50917.64
560.9998, 50852.60
561.4819, 50747.58
561.9641, 50682.36
562.4462, 50725.93
562.9283, 50794.82
563.4104, 50798.60
563.8925, 50732.55
564.3746, 50639.93
564.8568, 50544.95
565.3389, 50459.55
565.8210, 50439.25
566.3031, 50527.04
566.7852, 50571.20
567.2673, 50507.98
567.7495, 50422.57
568.2316, 50357.02
568.7137, 50314.41
569.1958, 50294.06
569.6779, 50313.11
570.1600, 50338.49
570.6422, 50339.48
571.1243, 50318.88
571.6064, 50281.77
572.0885, 50228.21
572.5706, 50172.62
573.0527, 50129.86
573.5349, 50098.13
574.0170, 50096.12
574.4991, 50162.14
574.9812, 50210.56
575.4633, 50227.86
575.9454, 50212.38
576.4276, 50142.80
576.9097, 50022.58
577.3918, 49924.18
577.8739, 49930.23
578.3560, 50010.36
578.8381, 50065.23
579.3203, 50092.55
579.8024, 50100.85
580.2845, 50086.54
580.7666, 50061.86
581.2487, 50052.36
581.7308, 50063.08
582.2130, 50065.16
582.6951, 50052.22
583.1772, 50031.72
583.6593, 50010.67
584.1414, 49985.86
584.6235, 49945.07
585.1057, 49882.71
585.5878, 49817.06
586.0699, 49785.33
586.5520, 49793.38
587.0341, 49760.03
587.5162, 49641.07
587.9984, 49546.66
588.4805, 49572.01
588.9626, 49654.30
589.4447, 49689.93
589.9268, 49650.94
590.4089, 49602.97
590.8911, 49582.31
591.3732, 49567.80
591.8553, 49531.56
592.3374, 49473.02
592.8195, 49404.55
593.3016, 49331.69
593.7838, 49263.33
594.2659, 49228.62
594.7480, 49243.15
595.2301, 49254.63
595.7122, 49261.15
596.1943, 49261.45
596.6765, 49252.16
597.1586, 49236.06
597.6407, 49218.50
598.1228, 49196.97
598.6049, 49183.64
599.0870, 49196.95
599.5692, 49226.43
600.0513, 49247.15
600.5334, 49254.36
601.0155, 49246.45
601.4976, 49217.23
601.9797, 49171.96
602.4619, 49154.27
602.9440, 49207.82
603.4261, 49228.88
603.9082, 49182.49
604.3903, 49122.88
604.8724, 49095.66
605.3546, 49095.38
605.8367, 49082.63
606.3188, 49030.27
606.8009, 48959.25
607.2830, 48888.42
607.7651, 48821.86
608.2473, 48802.30
608.7294, 48851.59
609.2115, 48905.17
609.6936, 48892.80
610.1757, 48814.07
610.6578, 48767.97
611.1400, 48795.58
611.6221, 48800.85
612.1042, 48749.36
612.5863, 48672.60
613.0684, 48593.27
613.5505, 48520.16
614.0327, 48466.88
614.5148, 48456.09
614.9969, 48462.19
615.4790, 48399.20
615.9611, 48260.94
616.4432, 48203.49
616.9254, 48301.79
617.4075, 48443.57
617.8896, 48509.33
618.3717, 48497.27
618.8538, 48460.44
619.3359, 48360.77
619.8181, 48282.95
620.3002, 48272.32
620.7823, 48295.73
621.2644, 48321.76
621.7465, 48338.16
622.2286, 48328.22
622.7108, 48261.19
623.1929, 48162.46
623.6750, 48141.86
624.1571, 48213.47
624.6392, 48284.23
625.1213, 48341.13
625.6035, 48368.41
626.0856, 48323.61
626.5677, 48211.71
627.0498, 48148.11
627.5319, 48193.78
628.0140, 48242.60
628.4962, 48247.18
628.9783, 48218.72
629.4604, 48166.05
629.9425, 48096.72
630.4246, 48034.29
630.9067, 47999.69
631.3889, 47992.32
631.8710, 48019.22
632.3531, 48099.42
632.8352, 48136.46
633.3173, 48068.57
633.7994, 47976.41
634.2816, 47958.02
634.7637, 48008.77
635.2458, 48038.98
635.7279, 47999.42
636.2100, 47968.09
636.6921, 48009.93
637.1743, 48080.88
637.6564, 48102.46
638.1385, 48060.97
638.6206, 48016.11
639.1027, 48032.16
639.5848, 48095.77
640.0670, 48121.05
640.5491, 48095.77
641.0312, 48076.20
641.5133, 48084.27
641.9954, 48098.78
642.4775, 48081.65
642.9597, 48038.75
643.4418, 48051.32
643.9239, 48196.33
644.4060, 48336.52
644.8881, 48381.18
645.3702, 48378.39
645.8524, 48404.23
646.3345, 48473.36
646.8166, 48547.14
647.2987, 48588.63
647.7808, 48605.09
648.2629, 48632.50
648.7451, 48675.70
649.2272, 48709.13
649.7093, 48720.45
650.1914, 48725.97
650.6735, 48744.96
651.1556, 48774.38
651.6378, 48791.97
652.1199, 48780.82
652.6020, 48772.18
653.0841, 48786.17
653.5662, 48808.74
654.0483, 48830.74
654.5305, 48844.48
655.0126, 48828.77
655.4947, 48765.31
655.9768, 48661.03
656.4589, 48531.50
656.9410, 48369.49
657.4232, 48226.95
657.9053, 48118.66
658.3874, 48027.97
658.8695, 47944.36
659.3516, 47866.97
659.8337, 47794.07
660.3159, 47750.51
660.7980, 47680.01
661.2801, 47535.09
661.7622, 47371.94
662.2443, 47246.93
662.7264, 47164.51
663.2086, 47098.23
663.6907, 47029.12
664.1728, 46969.99
664.6549, 46964.60
665.1370, 47016.13
