##NAMES=Clinoatacamite
##RRUFFID=R090062
##IDEAL CHEMISTRY=Cu^2+^_2_Cl(OH)_3_
##LOCALITY=Copper Queen Mine, Bisbee, Arizona
##OWNER=RRUFF
##SOURCE=William W. Pinch
##DESCRIPTION=Dark green blocky crystals associated with green acicular atacamite, blue claringbullite, R090016, and cuprite. Some crystals are tabular, and these are untwinned.
##STATUS=The identification of this mineral is confirmed by single-crystal X-ray diffraction and chemical analysis.
##URL=rruff.info/R090062
##MEASURED CHEMISTRY=Cu_2.01_Cl_0.98_(OH)_3_
187.9407, 1088.678
188.4228, 1090.008
188.9050, 1092.780
189.3871, 1096.185
189.8692, 1100.661
190.3513, 1105.678
190.8334, 1108.311
191.3155, 1108.006
191.7977, 1106.374
192.2798, 1105.694
192.7619, 1105.969
193.2440, 1106.900
193.7261, 1108.751
194.2082, 1111.399
194.6904, 1113.219
195.1725, 1113.903
195.6546, 1114.211
196.1367, 1115.976
196.6188, 1119.393
197.1009, 1121.890
197.5831, 1121.462
198.0652, 1118.121
198.5473, 1115.979
199.0294, 1115.388
199.5115, 1115.881
199.9937, 1116.413
200.4758, 1116.836
200.9579, 1118.036
201.4400, 1121.104
201.9221, 1126.287
202.4042, 1129.447
202.8864, 1129.578
203.3685, 1128.322
203.8506, 1130.250
204.3327, 1136.363
204.8148, 1141.501
205.2969, 1142.272
205.7791, 1137.948
206.2612, 1134.500
206.7433, 1132.157
207.2254, 1130.953
207.7075, 1131.336
208.1896, 1133.891
208.6718, 1136.339
209.1539, 1137.138
209.6360, 1135.729
210.1181, 1135.732
210.6002, 1138.101
211.0823, 1141.608
211.5645, 1142.392
212.0466, 1139.319
212.5287, 1136.284
213.0108, 1135.591
213.4929, 1137.948
213.9750, 1139.973
214.4572, 1141.734
214.9393, 1142.959
215.4214, 1142.361
215.9035, 1138.496
216.3856, 1135.726
216.8678, 1137.070
217.3499, 1144.506
217.8320, 1149.392
218.3141, 1150.460
218.7962, 1148.912
219.2783, 1148.609
219.7605, 1150.253
220.2426, 1151.793
220.7247, 1151.982
221.2068, 1150.130
221.6889, 1148.896
222.1710, 1148.659
222.6532, 1149.059
223.1353, 1148.936
223.6174, 1148.013
224.0995, 1147.068
224.5816, 1146.490
225.0637, 1146.352
225.5459, 1146.372
226.0280, 1146.286
226.5101, 1146.418
226.9922, 1147.858
227.4743, 1151.329
227.9564, 1154.986
228.4386, 1158.181
228.9207, 1161.409
229.4028, 1162.762
229.8849, 1161.721
230.3670, 1158.910
230.8492, 1155.702
231.3313, 1150.722
231.8134, 1147.454
232.2955, 1148.058
232.7776, 1155.610
233.2597, 1159.683
233.7419, 1158.474
234.2240, 1154.268
234.7061, 1153.308
235.1882, 1157.933
235.6703, 1162.285
236.1524, 1163.681
236.6346, 1160.280
237.1167, 1158.139
237.5988, 1157.425
238.0809, 1157.884
238.5630, 1159.060
239.0451, 1161.490
239.5273, 1163.786
240.0094, 1165.357
240.4915, 1165.936
240.9736, 1166.357
241.4557, 1166.344
241.9378, 1166.256
242.4200, 1166.941
242.9021, 1169.001
243.3842, 1170.871
243.8663, 1171.947
244.3484, 1172.008
244.8306, 1171.853
245.3127, 1171.198
245.7948, 1170.475
246.2769, 1170.469
246.7590, 1171.216
247.2411, 1172.647
247.7233, 1175.110
248.2054, 1179.411
248.6875, 1181.683
249.1696, 1181.155
249.6517, 1179.125
250.1338, 1177.579
250.6160, 1176.407
251.0981, 1175.942
251.5802, 1176.465
252.0623, 1178.251
252.5444, 1179.568
253.0265, 1179.990
253.5087, 1180.295
253.9908, 1181.870
254.4729, 1186.078
254.9550, 1188.796
255.4371, 1188.313
255.9192, 1184.033
256.4014, 1181.526
256.8835, 1181.367
257.3656, 1182.412
257.8477, 1183.306
258.3298, 1183.959
258.8120, 1184.667
259.2941, 1185.586
259.7762, 1186.751
260.2583, 1187.333
260.7404, 1186.704
261.2225, 1186.238
261.7047, 1187.654
262.1868, 1191.881
262.6689, 1195.500
263.1510, 1197.732
263.6331, 1198.582
264.1152, 1199.209
264.5974, 1199.565
265.0795, 1199.759
265.5616, 1199.999
266.0437, 1200.531
266.5258, 1200.252
267.0079, 1198.414
267.4901, 1195.396
267.9722, 1194.979
268.4543, 1198.234
268.9364, 1202.003
269.4185, 1203.545
269.9006, 1202.287
270.3828, 1201.400
270.8649, 1201.508
271.3470, 1202.329
271.8291, 1202.507
272.3112, 1201.901
272.7933, 1200.947
273.2755, 1199.565
273.7576, 1197.434
274.2397, 1197.056
274.7218, 1199.422
275.2039, 1203.295
275.6860, 1204.545
276.1682, 1202.490
276.6503, 1200.420
277.1324, 1200.963
277.6145, 1204.455
278.0966, 1206.110
278.5787, 1205.188
279.0609, 1202.769
279.5430, 1200.775
280.0251, 1199.109
280.5072, 1198.772
280.9893, 1201.389
281.4715, 1206.927
281.9536, 1209.363
282.4357, 1207.625
282.9178, 1204.302
283.3999, 1203.899
283.8820, 1206.526
284.3642, 1209.701
284.8463, 1212.858
285.3284, 1215.834
285.8105, 1216.490
286.2926, 1214.295
286.7747, 1211.350
287.2569, 1210.562
287.7390, 1211.854
288.2211, 1213.587
288.7032, 1215.327
289.1853, 1217.001
289.6674, 1218.195
290.1496, 1218.850
290.6317, 1219.522
291.1138, 1221.609
291.5959, 1224.716
292.0780, 1225.792
292.5602, 1222.223
293.0423, 1216.582
293.5244, 1216.292
294.0065, 1221.578
294.4886, 1227.401
294.9707, 1228.630
295.4529, 1226.477
295.9350, 1225.371
296.4171, 1226.956
296.8992, 1229.743
297.3813, 1231.051
297.8634, 1230.979
298.3456, 1230.680
298.8277, 1231.247
299.3098, 1232.220
299.7919, 1232.506
300.2740, 1231.651
300.7561, 1230.424
301.2383, 1229.502
301.7204, 1228.963
302.2025, 1229.246
302.6846, 1231.572
303.1667, 1234.620
303.6488, 1236.306
304.1310, 1236.032
304.6131, 1235.198
305.0952, 1234.726
305.5773, 1234.732
306.0594, 1235.529
306.5415, 1238.190
307.0237, 1241.268
307.5058, 1243.337
307.9879, 1244.228
308.4700, 1244.202
308.9521, 1242.602
309.4343, 1240.299
309.9164, 1238.786
310.3985, 1239.198
310.8806, 1240.293
311.3627, 1241.209
311.8448, 1241.914
312.3270, 1242.519
312.8091, 1242.818
313.2912, 1243.147
313.7733, 1243.903
314.2554, 1245.233
314.7375, 1247.024
315.2197, 1249.740
315.7018, 1253.201
316.1839, 1255.738
316.6660, 1255.982
317.1481, 1255.311
317.6302, 1254.855
318.1124, 1255.203
318.5945, 1255.405
319.0766, 1254.843
319.5587, 1253.805
320.0408, 1253.286
320.5229, 1253.225
321.0051, 1254.020
321.4872, 1256.170
321.9693, 1261.235
322.4514, 1264.798
322.9335, 1264.705
323.4156, 1262.607
323.8978, 1261.695
324.3799, 1264.233
324.8620, 1266.554
325.3441, 1267.089
325.8262, 1264.854
326.3083, 1263.599
326.7905, 1264.011
327.2726, 1265.427
327.7547, 1267.021
328.2368, 1268.876
328.7189, 1270.798
329.2010, 1272.746
329.6832, 1274.696
330.1653, 1276.807
330.6474, 1279.871
331.1295, 1282.528
331.6116, 1283.644
332.0938, 1282.272
332.5759, 1280.861
333.0580, 1279.836
333.5401, 1279.068
334.0222, 1277.504
334.5043, 1273.918
334.9865, 1271.191
335.4686, 1271.260
335.9507, 1275.324
336.4328, 1278.984
336.9149, 1282.102
337.3970, 1284.668
337.8792, 1286.438
338.3613, 1287.178
338.8434, 1287.869
339.3255, 1289.108
339.8076, 1291.072
340.2898, 1292.259
340.7719, 1292.500
341.2540, 1292.317
341.7361, 1292.308
342.2182, 1292.431
342.7003, 1293.220
343.1825, 1295.026
343.6646, 1297.714
344.1467, 1300.406
344.6288, 1303.189
345.1109, 1305.632
345.5930, 1307.045
346.0752, 1307.531
346.5573, 1308.402
347.0394, 1310.019
347.5215, 1312.152
348.0036, 1314.677
348.4857, 1317.549
348.9679, 1319.818
349.4500, 1319.962
349.9321, 1318.903
350.4142, 1319.447
350.8963, 1322.311
351.3784, 1326.149
351.8606, 1329.741
352.3427, 1332.933
352.8248, 1335.199
353.3069, 1334.453
353.7890, 1333.269
354.2711, 1336.029
354.7533, 1343.521
355.2354, 1350.719
355.7175, 1352.447
356.1996, 1350.970
356.6817, 1350.231
357.1638, 1352.080
357.6460, 1355.146
358.1281, 1358.825
358.6102, 1363.006
359.0923, 1366.840
359.5744, 1369.830
360.0565, 1372.205
360.5387, 1374.168
361.0208, 1375.522
361.5029, 1376.805
361.9850, 1378.281
362.4671, 1379.877
362.9492, 1381.354
363.4314, 1383.196
363.9135, 1384.491
364.3956, 1384.574
364.8777, 1382.720
365.3598, 1381.199
365.8419, 1380.584
366.3241, 1380.573
366.8062, 1380.719
367.2883, 1381.227
367.7704, 1381.623
368.2526, 1381.701
368.7347, 1381.358
369.2168, 1381.249
369.6989, 1382.093
370.1810, 1382.732
370.6631, 1382.134
371.1453, 1378.770
371.6274, 1376.530
372.1095, 1376.896
372.5916, 1379.114
373.0737, 1377.979
373.5558, 1371.767
374.0380, 1364.748
374.5201, 1358.951
375.0022, 1354.270
375.4843, 1351.558
375.9664, 1351.659
376.4485, 1353.030
376.9307, 1352.365
377.4128, 1349.144
377.8949, 1346.112
378.3770, 1344.432
378.8591, 1344.042
379.3412, 1343.888
379.8234, 1344.136
380.3055, 1344.025
380.7876, 1342.272
381.2697, 1338.991
381.7518, 1336.449
382.2339, 1335.418
382.7161, 1335.384
383.1982, 1335.427
383.6803, 1335.531
384.1624, 1335.153
384.6445, 1333.079
385.1266, 1330.236
385.6088, 1329.209
386.0909, 1330.810
386.5730, 1332.966
387.0551, 1332.926
387.5372, 1331.403
388.0193, 1330.441
388.5015, 1332.068
388.9836, 1334.286
389.4657, 1334.661
389.9478, 1333.004
390.4299, 1331.402
390.9120, 1331.351
391.3942, 1332.148
391.8763, 1332.936
392.3584, 1333.438
392.8405, 1333.839
393.3226, 1334.272
393.8047, 1334.703
394.2869, 1334.971
394.7690, 1335.326
395.2511, 1335.292
395.7332, 1334.316
396.2154, 1331.100
396.6975, 1329.506
397.1796, 1331.801
397.6617, 1336.003
398.1438, 1338.690
398.6259, 1336.807
399.1081, 1335.914
399.5902, 1338.104
400.0723, 1344.031
400.5544, 1348.464
401.0365, 1350.776
401.5186, 1352.028
402.0008, 1353.062
402.4829, 1354.057
402.9650, 1354.388
403.4471, 1353.452
403.9292, 1351.791
404.4113, 1352.026
404.8935, 1355.176
405.3756, 1357.884
405.8577, 1358.125
406.3398, 1355.498
406.8219, 1353.493
407.3040, 1352.241
407.7862, 1351.471
408.2683, 1350.557
408.7504, 1349.479
409.2325, 1349.489
409.7146, 1351.715
410.1967, 1355.219
410.6789, 1356.888
411.1610, 1356.699
411.6431, 1355.715
412.1252, 1353.833
412.6073, 1351.814
413.0894, 1352.312
413.5716, 1356.747
414.0537, 1361.809
414.5358, 1362.984
415.0179, 1361.226
415.5000, 1359.712
415.9821, 1360.445
416.4643, 1362.121
416.9464, 1363.151
417.4285, 1363.308
417.9106, 1364.225
418.3927, 1368.245
418.8748, 1373.174
419.3570, 1376.340
419.8391, 1375.986
420.3212, 1374.568
420.8033, 1372.081
421.2854, 1369.054
421.7675, 1367.845
422.2497, 1370.859
422.7318, 1374.652
423.2139, 1377.481
423.6960, 1379.111
424.1781, 1379.914
424.6602, 1379.375
425.1424, 1378.195
425.6245, 1377.367
426.1066, 1376.745
426.5887, 1376.697
427.0709, 1377.449
427.5530, 1378.993
428.0351, 1380.395
428.5172, 1381.637
428.9993, 1382.755
429.4814, 1383.853
429.9636, 1385.073
430.4457, 1385.603
430.9278, 1385.151
431.4099, 1384.184
431.8920, 1383.679
432.3741, 1383.656
432.8563, 1383.909
433.3384, 1384.195
433.8205, 1384.624
434.3026, 1386.005
434.7847, 1388.406
435.2668, 1391.242
435.7490, 1394.438
436.2311, 1397.690
436.7132, 1399.728
437.1953, 1399.885
437.6774, 1399.153
438.1595, 1398.490
438.6417, 1397.993
439.1238, 1398.064
439.6059, 1399.961
440.0880, 1402.039
440.5701, 1402.049
441.0522, 1399.376
441.5344, 1397.373
442.0165, 1398.539
442.4986, 1401.461
442.9807, 1404.406
443.4628, 1407.525
443.9449, 1409.852
444.4271, 1410.548
444.9092, 1409.913
445.3913, 1409.663
445.8734, 1411.219
446.3555, 1412.489
446.8376, 1412.227
447.3198, 1408.789
447.8019, 1406.928
448.2840, 1407.816
448.7661, 1409.877
449.2482, 1411.078
449.7303, 1412.002
450.2125, 1410.884
450.6946, 1405.979
451.1767, 1397.831
451.6588, 1395.328
452.1409, 1400.469
452.6230, 1406.582
453.1052, 1408.765
453.5873, 1406.742
454.0694, 1404.513
454.5515, 1402.131
455.0337, 1400.188
455.5158, 1400.239
455.9979, 1402.115
456.4800, 1403.375
456.9621, 1402.883
457.4442, 1401.085
457.9264, 1398.537
458.4085, 1395.300
458.8906, 1392.734
459.3727, 1392.792
459.8548, 1394.081
460.3369, 1394.094
460.8191, 1391.536
461.3012, 1389.451
461.7833, 1391.236
462.2654, 1395.290
462.7475, 1398.263
463.2296, 1398.207
463.7118, 1397.113
464.1939, 1395.509
464.6760, 1393.393
465.1581, 1392.610
465.6402, 1394.079
466.1223, 1396.846
466.6045, 1400.236
467.0866, 1406.224
467.5687, 1410.199
468.0508, 1411.136
468.5329, 1409.978
469.0150, 1408.720
469.4972, 1406.929
469.9793, 1405.734
470.4614, 1405.741
470.9435, 1407.056
471.4256, 1407.491
471.9077, 1406.652
472.3899, 1405.768
472.8720, 1405.889
473.3541, 1407.068
473.8362, 1409.041
474.3183, 1412.186
474.8004, 1415.480
475.2826, 1416.858
475.7647, 1416.391
476.2468, 1415.169
476.7289, 1412.636
477.2110, 1409.933
477.6931, 1410.054
478.1753, 1412.996
478.6574, 1416.455
479.1395, 1418.913
479.6216, 1420.567
480.1037, 1421.647
480.5858, 1421.979
481.0680, 1422.206
481.5501, 1423.146
482.0322, 1424.315
482.5143, 1424.672
482.9964, 1422.080
483.4786, 1420.110
483.9607, 1420.928
484.4428, 1424.886
484.9249, 1428.308
485.4070, 1430.815
485.8892, 1432.333
486.3713, 1432.695
486.8534, 1429.454
487.3355, 1428.766
487.8176, 1432.021
488.2997, 1437.483
488.7819, 1441.596
489.2640, 1444.123
489.7461, 1445.743
490.2282, 1446.157
490.7103, 1445.525
491.1924, 1446.854
491.6746, 1450.377
492.1567, 1454.855
492.6388, 1459.520
493.1209, 1464.340
493.6030, 1468.583
494.0851, 1472.233
494.5673, 1475.206
495.0494, 1477.135
495.5315, 1478.212
496.0136, 1479.064
496.4957, 1479.898
496.9778, 1480.735
497.4600, 1481.308
497.9421, 1481.729
498.4242, 1483.006
498.9063, 1486.490
499.3884, 1490.686
499.8705, 1494.234
500.3527, 1496.349
500.8348, 1499.044
501.3169, 1504.275
501.7990, 1510.128
502.2811, 1513.922
502.7632, 1513.091
503.2454, 1512.364
503.7275, 1512.678
504.2096, 1513.994
504.6917, 1515.842
505.1738, 1518.376
505.6559, 1521.233
506.1381, 1524.256
506.6202, 1527.515
507.1023, 1530.635
507.5844, 1533.409
508.0665, 1536.441
508.5486, 1540.878
509.0308, 1546.786
509.5129, 1551.816
509.9950, 1555.196
510.4771, 1557.490
510.9592, 1559.871
511.4413, 1562.287
511.9235, 1564.569
512.4056, 1567.179
512.8877, 1569.333
513.3698, 1569.696
513.8519, 1568.080
514.3340, 1565.850
514.8162, 1564.380
515.2983, 1562.736
515.7804, 1559.762
516.2625, 1554.262
516.7446, 1548.484
517.2267, 1543.438
517.7089, 1538.846
518.1910, 1534.050
518.6731, 1528.530
519.1552, 1523.164
519.6373, 1518.241
520.1194, 1513.712
520.6016, 1509.747
521.0837, 1506.173
521.5658, 1503.376
522.0479, 1502.191
522.5300, 1503.875
523.0121, 1502.178
523.4943, 1495.508
523.9764, 1486.834
524.4585, 1481.673
524.9406, 1480.183
525.4227, 1478.672
525.9048, 1475.335
526.3870, 1471.333
526.8691, 1470.285
527.3513, 1471.949
527.8334, 1472.710
528.3155, 1468.290
528.7976, 1461.956
529.2797, 1459.042
529.7618, 1460.776
530.2440, 1462.206
530.7261, 1458.010
531.2082, 1451.994
531.6903, 1449.102
532.1724, 1454.288
532.6545, 1459.240
533.1367, 1461.510
533.6188, 1461.453
534.1009, 1460.481
534.5830, 1457.273
535.0651, 1454.663
535.5472, 1453.773
536.0294, 1454.891
536.5115, 1455.725
536.9936, 1456.472
537.4757, 1456.677
537.9578, 1455.719
538.4399, 1453.307
538.9221, 1451.578
539.4042, 1450.833
539.8863, 1450.682
540.3684, 1450.522
540.8505, 1450.346
541.3326, 1450.126
541.8148, 1450.148
542.2969, 1449.941
542.7790, 1447.966
543.2611, 1444.548
543.7432, 1442.163
544.2253, 1443.442
544.7075, 1446.102
545.1896, 1447.761
545.6717, 1447.948
546.1538, 1447.979
546.6359, 1448.214
547.1180, 1448.756
547.6002, 1449.715
548.0823, 1452.479
548.5644, 1454.092
549.0465, 1453.058
549.5286, 1450.441
550.0107, 1449.361
550.4929, 1450.710
550.9750, 1452.231
551.4571, 1453.139
551.9392, 1453.424
552.4213, 1454.205
552.9034, 1455.487
553.3856, 1457.227
553.8677, 1460.130
554.3498, 1463.937
554.8319, 1465.338
555.3140, 1463.816
555.7961, 1460.538
556.2783, 1455.284
556.7604, 1449.357
557.2425, 1446.671
557.7246, 1450.569
558.2067, 1456.373
558.6888, 1460.328
559.1710, 1462.531
559.6531, 1463.195
560.1352, 1460.923
560.6173, 1458.334
561.0994, 1456.915
561.5815, 1456.845
562.0637, 1457.400
562.5458, 1459.497
563.0279, 1461.470
563.5100, 1462.052
563.9921, 1459.704
564.4742, 1458.676
564.9564, 1459.421
565.4385, 1461.203
565.9206, 1462.845
566.4027, 1464.279
566.8848, 1465.797
567.3669, 1467.607
567.8491, 1469.471
568.3312, 1470.317
568.8133, 1470.187
569.2954, 1470.367
569.7775, 1473.054
570.2596, 1476.233
570.7418, 1475.318
571.2239, 1469.913
571.7060, 1464.837
572.1881, 1464.604
572.6702, 1466.324
573.1523, 1466.526
573.6345, 1462.500
574.1166, 1460.248
574.5987, 1464.129
575.0808, 1470.811
575.5629, 1474.819
576.0450, 1471.975
576.5272, 1470.008
577.0093, 1471.063
577.4914, 1474.472
577.9735, 1475.597
578.4556, 1473.282
578.9377, 1471.088
579.4199, 1471.160
579.9020, 1473.576
580.3841, 1474.197
580.8662, 1472.795
581.3483, 1470.932
581.8304, 1469.974
582.3126, 1469.843
582.7947, 1470.519
583.2768, 1472.398
583.7589, 1473.846
584.2410, 1472.002
584.7231, 1468.524
585.2053, 1466.694
585.6874, 1470.195
586.1696, 1473.536
586.6517, 1472.796
587.1338, 1469.014
587.6159, 1466.988
588.0980, 1469.927
588.5801, 1473.070
589.0623, 1474.156
589.5444, 1472.723
590.0265, 1472.254
590.5086, 1473.695
590.9907, 1474.910
591.4728, 1474.046
591.9550, 1470.774
592.4371, 1467.664
592.9192, 1464.800
593.4013, 1462.558
593.8834, 1461.803
594.3655, 1462.348
594.8477, 1462.885
595.3298, 1462.980
595.8119, 1462.918
596.2940, 1463.139
596.7761, 1463.539
597.2582, 1463.777
597.7404, 1463.123
598.2225, 1462.626
598.7046, 1463.228
599.1867, 1464.939
599.6688, 1466.324
600.1509, 1467.290
600.6331, 1467.521
601.1152, 1466.486
601.5973, 1462.537
602.0794, 1461.418
602.5615, 1465.140
603.0436, 1469.776
603.5258, 1470.619
604.0079, 1466.980
604.4900, 1463.165
604.9721, 1459.484
605.4542, 1456.624
605.9363, 1456.617
606.4185, 1459.166
606.9006, 1461.473
607.3827, 1462.135
607.8648, 1461.896
608.3469, 1461.516
608.8290, 1461.070
609.3112, 1460.992
609.7933, 1462.231
610.2754, 1463.433
610.7575, 1463.194
611.2396, 1461.054
611.7217, 1459.912
612.2039, 1461.910
612.6860, 1464.339
613.1681, 1465.071
613.6502, 1462.481
614.1323, 1460.910
614.6144, 1460.769
615.0966, 1461.325
615.5787, 1461.240
616.0608, 1460.199
616.5429, 1460.882
617.0250, 1464.753
617.5071, 1469.778
617.9893, 1471.036
618.4714, 1468.880
618.9535, 1465.989
619.4356, 1462.325
619.9177, 1459.495
620.3998, 1460.727
620.8820, 1465.493
621.3641, 1468.882
621.8462, 1466.748
622.3283, 1463.174
622.8104, 1461.117
623.2925, 1461.209
623.7747, 1461.633
624.2568, 1462.096
624.7389, 1462.715
625.2210, 1463.590
625.7031, 1464.834
626.1852, 1466.161
626.6674, 1467.921
627.1495, 1469.309
627.6316, 1468.281
628.1137, 1464.673
628.5958, 1462.865
629.0779, 1464.830
629.5601, 1468.527
630.0422, 1470.009
630.5243, 1469.609
631.0064, 1468.903
631.4885, 1469.224
631.9706, 1469.358
632.4528, 1467.373
632.9349, 1463.563
633.4170, 1461.321
633.8991, 1464.153
634.3812, 1467.506
634.8633, 1468.316
635.3455, 1464.883
635.8276, 1463.454
636.3097, 1465.506
636.7918, 1468.376
637.2739, 1469.605
637.7560, 1468.416
638.2382, 1468.779
638.7203, 1471.427
639.2024, 1474.840
639.6845, 1477.028
640.1666, 1477.984
640.6487, 1477.601
641.1309, 1475.078
641.6130, 1472.243
642.0951, 1471.851
642.5772, 1473.271
643.0594, 1474.778
643.5415, 1475.624
644.0236, 1476.221
644.5057, 1477.265
644.9879, 1478.583
645.4700, 1478.457
645.9521, 1474.928
646.4342, 1471.345
646.9163, 1469.312
647.3984, 1469.170
647.8806, 1468.369
648.3627, 1466.647
648.8448, 1464.846
649.3269, 1463.136
649.8090, 1461.555
650.2911, 1462.941
650.7733, 1468.167
651.2554, 1473.549
651.7375, 1474.055
652.2196, 1471.340
652.7017, 1469.481
653.1838, 1469.809
653.6660, 1470.877
654.1481, 1471.818
654.6302, 1472.649
655.1123, 1473.428
655.5944, 1474.437
656.0765, 1475.044
656.5587, 1474.658
657.0408, 1473.560
657.5229, 1473.154
658.0050, 1473.707
658.4871, 1474.459
658.9692, 1475.223
659.4514, 1475.971
659.9335, 1476.427
660.4156, 1476.573
660.8977, 1476.588
661.3798, 1476.834
661.8619, 1477.036
662.3441, 1476.297
662.8262, 1474.558
663.3083, 1472.652
663.7904, 1470.761
664.2725, 1469.315
664.7546, 1469.096
665.2368, 1471.166
665.7189, 1472.034
666.2010, 1468.604
666.6831, 1464.257
667.1652, 1463.021
667.6473, 1467.777
668.1295, 1471.063
668.6116, 1471.948
669.0937, 1471.449
669.5758, 1471.553
670.0579, 1472.350
670.5400, 1472.783
671.0222, 1472.234
671.5043, 1471.430
671.9864, 1472.245
672.4685, 1474.313
672.9506, 1475.907
673.4327, 1476.129
673.9149, 1475.342
674.3970, 1473.208
674.8791, 1470.010
675.3612, 1467.795
675.8433, 1468.578
676.3254, 1469.512
676.8076, 1468.811
677.2897, 1465.937
677.7718, 1464.499
678.2539, 1464.735
678.7360, 1466.152
679.2181, 1469.061
679.7003, 1473.815
680.1824, 1476.055
680.6645, 1475.268
681.1466, 1473.625
