##NAMES=Clinobisvanite
##RRUFFID=R070401
##IDEAL CHEMISTRY=Bi^3+^V^5+^O_4_
##LOCALITY=Linka mine (Garnetite mine), Spencer Hot Springs District, Lander County, Nevada, USA
##OWNER=RRUFF
##SOURCE=Michael Scott
##DESCRIPTION=Orange platy crust on quartz associated with bismutite
##STATUS=The identification of this mineral has been confirmed by single-crystal X-ray diffraction.
##URL=rruff.info/R070401
128.9308, 4305.421
129.4129, 4521.317
129.8950, 4749.041
130.3772, 4963.975
130.8593, 5157.421
131.3414, 5333.986
131.8235, 5506.897
132.3056, 5672.651
132.7877, 5842.760
133.2699, 6033.799
133.7520, 6247.508
134.2341, 6462.150
134.7162, 6668.920
135.1983, 6868.724
135.6804, 7068.570
136.1626, 7268.224
136.6447, 7465.056
137.1268, 7656.328
137.6089, 7843.700
138.0910, 8014.457
138.5731, 8154.573
139.0553, 8259.584
139.5374, 8363.793
140.0195, 8471.351
140.5016, 8578.942
140.9837, 8667.455
141.4658, 8729.163
141.9480, 8785.308
142.4301, 8851.323
142.9122, 8937.170
143.3943, 9011.206
143.8764, 9067.611
144.3585, 9106.293
144.8407, 9147.111
145.3228, 9198.849
145.8049, 9245.730
146.2870, 9270.792
146.7691, 9245.675
147.2512, 9235.484
147.7334, 9254.695
148.2155, 9310.112
148.6976, 9365.432
149.1797, 9419.826
149.6618, 9474.515
150.1439, 9530.567
150.6261, 9580.562
151.1082, 9637.948
151.5903, 9706.876
152.0724, 9792.334
152.5545, 9877.885
153.0366, 9963.993
153.5188, 10048.97
154.0009, 10129.16
154.4830, 10205.45
154.9651, 10276.61
155.4472, 10343.23
155.9293, 10408.48
156.4115, 10464.28
156.8936, 10510.62
157.3757, 10546.81
157.8578, 10571.41
158.3399, 10570.50
158.8221, 10565.59
159.3042, 10570.66
159.7863, 10589.70
160.2684, 10618.54
160.7505, 10664.24
161.2326, 10723.89
161.7148, 10771.92
162.1969, 10789.84
162.6790, 10794.05
163.1611, 10800.21
163.6432, 10812.41
164.1253, 10828.81
164.6075, 10847.56
165.0896, 10868.56
165.5717, 10895.69
166.0538, 10939.08
166.5359, 10988.62
167.0180, 11029.95
167.5002, 11041.82
167.9823, 11053.16
168.4644, 11089.70
168.9465, 11156.53
169.4286, 11226.34
169.9107, 11272.70
170.3929, 11306.82
170.8750, 11353.49
171.3571, 11447.46
171.8392, 11550.33
172.3213, 11613.62
172.8034, 11619.81
173.2856, 11622.12
173.7677, 11672.22
174.2498, 11760.95
174.7319, 11855.61
175.2140, 11947.37
175.6961, 12030.26
176.1783, 12090.05
176.6604, 12112.82
177.1425, 12130.96
177.6246, 12185.63
178.1067, 12272.79
178.5888, 12370.09
179.0710, 12464.43
179.5531, 12555.72
180.0352, 12641.57
180.5173, 12717.70
180.9994, 12791.00
181.4815, 12868.40
181.9637, 12950.71
182.4458, 13040.92
182.9279, 13146.48
183.4100, 13263.97
183.8921, 13381.91
184.3742, 13495.17
184.8564, 13607.87
185.3385, 13726.97
185.8206, 13853.83
186.3027, 13983.09
186.7848, 14110.02
187.2669, 14235.05
187.7491, 14365.51
188.2312, 14503.92
188.7133, 14649.10
189.1954, 14800.77
189.6775, 14958.56
190.1596, 15120.37
190.6418, 15291.19
191.1239, 15469.81
191.6060, 15638.02
192.0881, 15780.11
192.5702, 15900.58
193.0524, 16043.15
193.5345, 16213.13
194.0166, 16390.40
194.4987, 16532.88
194.9808, 16637.32
195.4629, 16756.52
195.9451, 16929.77
196.4272, 17157.46
196.9093, 17334.80
197.3914, 17446.94
197.8735, 17526.96
198.3556, 17639.84
198.8378, 17790.54
199.3199, 17939.87
199.8020, 18068.94
200.2841, 18176.54
200.7662, 18262.78
201.2483, 18320.97
201.7305, 18363.85
202.2126, 18433.48
202.6947, 18544.32
203.1768, 18627.91
203.6589, 18632.11
204.1410, 18544.61
204.6232, 18465.61
205.1053, 18407.44
205.5874, 18361.83
206.0695, 18303.81
206.5516, 18235.39
207.0337, 18149.27
207.5159, 18036.98
207.9980, 17896.87
208.4801, 17749.61
208.9622, 17600.92
209.4443, 17447.05
209.9264, 17269.01
210.4086, 17064.15
210.8907, 16839.44
211.3728, 16601.81
211.8549, 16348.05
212.3370, 16085.20
212.8191, 15811.11
213.3013, 15528.41
213.7834, 15236.64
214.2655, 14931.68
214.7476, 14622.99
215.2297, 14320.46
215.7118, 14018.49
216.1940, 13730.13
216.6761, 13459.83
217.1582, 13205.95
217.6403, 12960.68
218.1224, 12734.77
218.6045, 12507.00
219.0867, 12252.01
219.5688, 11953.40
220.0509, 11670.48
220.5330, 11421.79
221.0151, 11204.55
221.4972, 11001.70
221.9794, 10820.29
222.4615, 10643.45
222.9436, 10447.12
223.4257, 10212.98
223.9078, 9995.036
224.3899, 9812.334
224.8721, 9665.669
225.3542, 9510.419
225.8363, 9335.502
226.3184, 9161.218
226.8005, 9009.014
227.2827, 8885.856
227.7648, 8773.983
228.2469, 8672.275
228.7290, 8583.479
229.2111, 8485.411
229.6932, 8371.630
230.1754, 8254.967
230.6575, 8150.584
231.1396, 8061.691
231.6217, 7980.852
232.1038, 7906.818
232.5859, 7840.276
233.0681, 7777.451
233.5502, 7721.264
234.0323, 7666.955
234.5144, 7606.018
234.9965, 7533.554
235.4786, 7463.324
235.9608, 7398.153
236.4429, 7337.952
236.9250, 7287.596
237.4071, 7252.787
237.8892, 7224.654
238.3713, 7188.491
238.8535, 7138.255
239.3356, 7090.101
239.8177, 7049.457
240.2998, 7017.991
240.7819, 6987.690
241.2640, 6959.655
241.7462, 6931.657
242.2283, 6899.494
242.7104, 6861.562
243.1925, 6821.980
243.6746, 6780.315
244.1567, 6732.402
244.6389, 6696.456
245.1210, 6674.652
245.6031, 6663.488
246.0852, 6659.301
246.5673, 6671.383
247.0494, 6674.381
247.5316, 6655.042
248.0137, 6600.461
248.4958, 6568.630
248.9779, 6570.256
249.4600, 6588.821
249.9421, 6593.978
250.4243, 6582.030
250.9064, 6563.314
251.3885, 6538.894
251.8706, 6502.864
252.3527, 6482.256
252.8348, 6485.504
253.3170, 6498.954
253.7991, 6494.844
254.2812, 6462.765
254.7633, 6433.234
255.2454, 6419.840
255.7275, 6429.890
256.2097, 6428.210
256.6918, 6408.333
257.1739, 6381.196
257.6560, 6368.091
258.1381, 6375.655
258.6202, 6383.527
259.1024, 6382.966
259.5845, 6370.579
260.0666, 6364.802
260.5487, 6369.960
261.0308, 6378.449
261.5129, 6374.092
261.9951, 6349.494
262.4772, 6329.895
262.9593, 6328.236
263.4414, 6350.650
263.9235, 6360.251
264.4056, 6351.139
264.8878, 6334.810
265.3699, 6333.021
265.8520, 6351.435
266.3341, 6368.190
266.8162, 6374.486
267.2983, 6368.708
267.7805, 6361.430
268.2626, 6350.238
268.7447, 6340.336
269.2268, 6342.561
269.7089, 6360.492
270.1910, 6377.698
270.6732, 6388.184
271.1553, 6391.458
271.6374, 6391.389
272.1195, 6386.675
272.6016, 6380.522
273.0837, 6377.783
273.5659, 6378.426
274.0480, 6382.491
274.5301, 6391.618
275.0122, 6406.068
275.4943, 6417.141
275.9764, 6425.289
276.4586, 6429.209
276.9407, 6423.496
277.4228, 6406.368
277.9049, 6395.582
278.3870, 6400.612
278.8691, 6420.637
279.3513, 6436.372
279.8334, 6446.861
280.3155, 6455.515
280.7976, 6467.854
281.2798, 6484.038
281.7619, 6497.814
282.2440, 6506.248
282.7261, 6509.945
283.2082, 6512.221
283.6903, 6512.058
284.1725, 6514.226
284.6546, 6525.490
285.1367, 6545.511
285.6188, 6568.223
286.1009, 6594.956
286.5830, 6622.969
287.0652, 6638.388
287.5473, 6639.568
288.0294, 6637.136
288.5115, 6640.714
288.9936, 6650.342
289.4757, 6666.110
289.9579, 6691.239
290.4400, 6721.781
290.9221, 6747.669
291.4042, 6768.750
291.8863, 6787.103
292.3684, 6803.282
292.8506, 6817.994
293.3327, 6834.590
293.8148, 6855.147
294.2969, 6877.748
294.7790, 6893.897
295.2611, 6903.689
295.7433, 6925.214
296.2254, 6992.701
296.7075, 7087.169
297.1896, 7150.711
297.6717, 7149.375
298.1538, 7125.313
298.6360, 7143.830
299.1181, 7202.321
299.6002, 7267.898
300.0823, 7320.380
300.5644, 7362.034
301.0465, 7396.534
301.5287, 7419.670
302.0108, 7442.506
302.4929, 7477.501
302.9750, 7523.652
303.4571, 7573.191
303.9392, 7620.349
304.4214, 7668.202
304.9035, 7722.085
305.3856, 7782.479
305.8677, 7848.568
306.3498, 7923.717
306.8319, 8004.365
307.3141, 8079.616
307.7962, 8140.922
308.2783, 8193.585
308.7604, 8239.928
309.2425, 8270.205
309.7246, 8314.667
310.2068, 8409.362
310.6889, 8535.697
311.1710, 8646.396
311.6531, 8695.141
312.1352, 8734.018
312.6173, 8803.624
313.0995, 8918.882
313.5816, 9037.874
314.0637, 9147.803
314.5458, 9247.956
315.0279, 9338.000
315.5100, 9402.921
315.9922, 9468.915
316.4743, 9553.093
316.9564, 9663.131
317.4385, 9767.611
317.9206, 9842.248
318.4027, 9908.274
318.8849, 9995.361
319.3670, 10134.29
319.8491, 10275.56
320.3312, 10401.47
320.8133, 10509.64
321.2954, 10611.06
321.7776, 10699.75
322.2597, 10786.61
322.7418, 10883.26
323.2239, 11021.00
323.7060, 11139.13
324.1881, 11211.30
324.6703, 11231.32
325.1524, 11277.15
325.6345, 11388.11
326.1166, 11508.36
326.5987, 11593.69
327.0808, 11600.88
327.5630, 11623.99
328.0451, 11689.47
328.5272, 11793.58
329.0093, 11854.23
329.4914, 11844.56
329.9735, 11814.65
330.4557, 11795.76
330.9378, 11790.88
331.4199, 11792.45
331.9020, 11804.63
332.3841, 11823.59
332.8662, 11829.67
333.3484, 11815.75
333.8305, 11799.61
334.3126, 11793.44
334.7947, 11805.91
335.2768, 11801.29
335.7589, 11774.89
336.2411, 11732.04
336.7232, 11681.70
337.2053, 11619.05
337.6874, 11564.13
338.1695, 11526.83
338.6516, 11508.86
339.1338, 11497.24
339.6159, 11493.45
340.0980, 11493.42
340.5801, 11493.35
341.0622, 11494.26
341.5443, 11484.72
342.0265, 11448.16
342.5086, 11390.74
342.9907, 11373.41
343.4728, 11402.78
343.9549, 11446.91
344.4370, 11464.45
344.9192, 11458.31
345.4013, 11456.89
345.8834, 11469.92
346.3655, 11494.83
346.8476, 11525.51
347.3297, 11561.86
347.8119, 11602.58
348.2940, 11648.89
348.7761, 11698.81
349.2582, 11745.08
349.7403, 11784.92
350.2225, 11822.14
350.7046, 11865.03
351.1867, 11912.58
351.6688, 11954.05
352.1509, 11971.03
352.6331, 11979.84
353.1152, 12007.18
353.5973, 12066.88
354.0794, 12131.58
354.5615, 12181.29
355.0436, 12216.87
355.5258, 12240.91
356.0079, 12242.35
356.4900, 12239.79
356.9721, 12250.88
357.4542, 12281.90
357.9363, 12314.45
358.4185, 12344.21
358.9006, 12367.90
359.3827, 12379.84
359.8648, 12373.10
360.3469, 12357.79
360.8290, 12335.45
361.3112, 12304.19
361.7933, 12280.88
362.2754, 12287.23
362.7575, 12297.98
363.2396, 12285.61
363.7217, 12235.02
364.2039, 12169.75
364.6860, 12087.72
365.1681, 11988.65
365.6502, 11903.59
366.1323, 11856.27
366.6144, 11811.19
367.0966, 11743.53
367.5787, 11636.75
368.0608, 11527.36
368.5429, 11411.53
369.0250, 11292.49
369.5071, 11191.39
369.9893, 11129.91
370.4714, 11061.70
370.9535, 10961.16
371.4356, 10807.64
371.9177, 10672.12
372.3998, 10563.16
372.8820, 10468.29
373.3641, 10361.54
373.8462, 10240.90
374.3283, 10114.40
374.8104, 9986.376
375.2925, 9855.838
375.7747, 9721.500
376.2568, 9580.868
376.7389, 9439.131
377.2210, 9306.336
377.7031, 9183.297
378.1852, 9057.494
378.6674, 8919.617
379.1495, 8775.983
379.6316, 8649.285
380.1137, 8541.683
380.5958, 8441.071
381.0779, 8342.165
381.5601, 8242.311
382.0422, 8134.932
382.5243, 8011.930
383.0064, 7885.966
383.4885, 7778.452
383.9706, 7686.984
384.4528, 7601.347
384.9349, 7508.910
385.4170, 7418.426
385.8991, 7345.302
386.3812, 7295.754
386.8633, 7248.572
387.3455, 7178.194
387.8276, 7094.824
388.3097, 7020.616
388.7918, 6971.051
389.2739, 6933.262
389.7560, 6900.764
390.2382, 6874.025
390.7203, 6840.646
391.2024, 6785.982
391.6845, 6723.888
392.1666, 6669.623
392.6487, 6631.431
393.1309, 6599.463
393.6130, 6572.305
394.0951, 6549.307
394.5772, 6525.865
395.0593, 6503.136
395.5414, 6478.086
396.0236, 6448.998
396.5057, 6406.281
396.9878, 6370.476
397.4699, 6346.944
397.9520, 6332.319
398.4341, 6316.223
398.9163, 6297.716
399.3984, 6278.727
399.8805, 6259.952
400.3626, 6241.611
400.8447, 6223.038
401.3268, 6205.427
401.8090, 6186.716
402.2911, 6163.095
402.7732, 6132.996
403.2553, 6102.117
403.7374, 6068.370
404.2195, 6032.851
404.7017, 6020.441
405.1838, 6039.401
405.6659, 6059.070
406.1480, 6045.690
406.6301, 5998.552
407.1122, 5964.420
407.5944, 5954.295
408.0765, 5959.264
408.5586, 5960.879
409.0407, 5959.148
409.5228, 5952.646
410.0049, 5942.930
410.4871, 5927.883
410.9692, 5895.816
411.4513, 5840.257
411.9334, 5788.792
412.4155, 5778.616
412.8976, 5798.668
413.3798, 5817.080
413.8619, 5820.442
414.3440, 5814.383
414.8261, 5803.452
415.3082, 5787.761
415.7903, 5770.000
416.2725, 5740.696
416.7546, 5714.360
417.2367, 5707.771
417.7188, 5750.594
418.2009, 5787.580
418.6830, 5790.084
419.1652, 5764.914
419.6473, 5736.901
420.1294, 5707.289
420.6115, 5682.082
421.0937, 5664.502
421.5758, 5657.647
422.0579, 5653.519
422.5400, 5652.516
423.0221, 5653.309
423.5042, 5653.743
423.9864, 5655.722
424.4685, 5655.127
424.9506, 5650.698
425.4327, 5642.283
425.9148, 5632.327
426.3969, 5618.719
426.8791, 5605.981
427.3612, 5598.699
427.8433, 5598.849
428.3254, 5598.445
428.8075, 5596.885
429.2896, 5593.832
429.7718, 5588.449
430.2539, 5580.870
430.7360, 5570.384
431.2181, 5552.743
431.7002, 5529.134
432.1823, 5519.469
432.6645, 5527.603
433.1466, 5540.112
433.6287, 5538.348
434.1108, 5524.444
434.5929, 5508.603
435.0750, 5492.624
435.5572, 5478.483
436.0393, 5471.250
436.5214, 5470.617
437.0035, 5469.983
437.4856, 5463.566
437.9677, 5454.151
438.4499, 5445.692
438.9320, 5439.762
439.4141, 5434.056
439.8962, 5426.328
440.3783, 5417.521
440.8604, 5409.831
441.3426, 5407.190
441.8247, 5403.811
442.3068, 5393.349
442.7889, 5371.286
443.2710, 5360.793
443.7531, 5382.558
444.2353, 5413.385
444.7174, 5427.999
445.1995, 5416.042
445.6816, 5394.778
446.1637, 5357.199
446.6458, 5306.923
447.1280, 5280.940
447.6101, 5294.780
448.0922, 5315.839
448.5743, 5327.656
449.0564, 5331.379
449.5385, 5321.356
450.0207, 5291.788
450.5028, 5253.689
450.9849, 5227.189
451.4670, 5213.280
451.9491, 5207.342
452.4312, 5210.671
452.9134, 5221.594
453.3955, 5226.950
453.8776, 5226.368
454.3597, 5222.852
454.8418, 5219.962
455.3239, 5216.800
455.8061, 5210.013
456.2882, 5199.294
456.7703, 5183.752
457.2524, 5156.476
457.7345, 5121.372
458.2166, 5093.851
458.6988, 5088.873
459.1809, 5093.665
459.6630, 5096.198
460.1451, 5095.644
460.6272, 5089.798
461.1093, 5069.499
461.5915, 5045.510
462.0736, 5031.667
462.5557, 5049.239
463.0378, 5061.339
463.5199, 5047.271
464.0020, 5011.512
464.4842, 4988.061
464.9663, 4996.840
465.4484, 5010.423
465.9305, 5014.197
466.4126, 5000.749
466.8947, 4989.552
467.3769, 4981.275
467.8590, 4974.982
468.3411, 4968.659
468.8232, 4960.305
469.3053, 4956.362
469.7874, 4960.871
470.2696, 4972.967
470.7517, 4976.008
471.2338, 4968.479
471.7159, 4956.614
472.1980, 4948.113
472.6801, 4942.574
473.1623, 4922.276
473.6444, 4877.864
474.1265, 4830.837
474.6086, 4823.255
475.0907, 4849.918
475.5728, 4877.172
476.0550, 4888.939
476.5371, 4889.383
477.0192, 4881.963
477.5013, 4866.647
477.9834, 4853.476
478.4655, 4856.236
478.9477, 4863.897
479.4298, 4861.399
479.9119, 4834.367
480.3940, 4808.633
480.8761, 4801.632
481.3582, 4807.182
481.8404, 4807.625
482.3225, 4788.421
482.8046, 4770.065
483.2867, 4763.589
483.7688, 4775.147
484.2509, 4780.427
484.7331, 4771.577
485.2152, 4758.537
485.6973, 4750.785
486.1794, 4754.462
486.6615, 4752.500
487.1436, 4739.571
487.6258, 4719.023
488.1079, 4707.895
488.5900, 4709.644
489.0721, 4711.441
489.5542, 4705.289
490.0363, 4691.083
490.5185, 4679.034
491.0006, 4669.166
491.4827, 4662.597
491.9648, 4662.685
492.4470, 4668.240
492.9291, 4672.734
493.4112, 4673.064
493.8933, 4671.813
494.3754, 4675.160
494.8575, 4681.804
495.3397, 4683.380
495.8218, 4666.187
496.3039, 4644.990
496.7860, 4638.534
497.2681, 4654.024
497.7502, 4666.102
498.2324, 4656.823
498.7145, 4637.312
499.1966, 4622.510
499.6787, 4621.779
500.1608, 4621.534
500.6429, 4616.926
501.1251, 4608.269
501.6072, 4602.114
502.0893, 4600.006
502.5714, 4599.456
503.0535, 4600.267
503.5356, 4606.969
504.0178, 4602.957
504.4999, 4581.411
504.9820, 4555.412
505.4641, 4546.010
505.9462, 4556.368
506.4283, 4567.054
506.9105, 4572.990
507.3926, 4574.868
507.8747, 4572.666
508.3568, 4565.870
508.8389, 4564.808
509.3210, 4586.694
509.8032, 4620.230
510.2853, 4631.609
510.7674, 4613.038
511.2495, 4587.623
511.7316, 4579.609
512.2137, 4582.204
512.6959, 4581.701
513.1780, 4565.735
513.6601, 4550.238
514.1422, 4547.789
514.6243, 4556.513
515.1064, 4562.966
515.5886, 4559.521
516.0707, 4553.831
516.5528, 4550.637
517.0349, 4551.919
517.5170, 4552.748
517.9991, 4551.383
518.4813, 4549.814
518.9634, 4550.625
519.4455, 4554.800
519.9276, 4559.952
520.4097, 4567.496
520.8918, 4576.014
521.3740, 4575.438
521.8561, 4563.249
522.3382, 4550.308
522.8203, 4541.308
523.3024, 4536.618
523.7845, 4544.720
524.2667, 4569.378
524.7488, 4594.440
525.2309, 4599.466
525.7130, 4588.399
526.1951, 4574.646
526.6772, 4560.029
527.1594, 4547.565
527.6415, 4541.092
528.1236, 4540.088
528.6057, 4542.185
529.0878, 4545.821
529.5699, 4552.214
530.0521, 4565.775
530.5342, 4591.676
531.0163, 4604.096
531.4984, 4580.771
531.9805, 4545.896
532.4626, 4525.118
532.9448, 4534.430
533.4269, 4543.078
533.9090, 4548.225
534.3911, 4550.285
534.8732, 4550.238
535.3553, 4546.222
535.8375, 4543.570
536.3196, 4544.479
536.8017, 4549.011
537.2838, 4556.540
537.7659, 4568.018
538.2480, 4579.583
538.7302, 4588.906
539.2123, 4595.472
539.6944, 4593.307
540.1765, 4576.542
540.6586, 4558.908
541.1407, 4560.954
541.6229, 4578.920
542.1050, 4599.180
542.5871, 4620.318
543.0692, 4636.642
543.5513, 4639.553
544.0334, 4628.762
544.5156, 4620.382
544.9977, 4629.418
545.4798, 4639.675
545.9619, 4637.542
546.4440, 4605.704
546.9261, 4583.392
547.4083, 4578.733
547.8904, 4586.496
548.3725, 4597.651
548.8546, 4615.350
549.3367, 4631.625
549.8188, 4646.083
550.3010, 4658.154
550.7831, 4658.627
551.2652, 4643.607
551.7473, 4629.969
552.2294, 4631.745
552.7115, 4647.274
553.1937, 4659.872
553.6758, 4667.792
554.1579, 4674.556
554.6400, 4686.855
555.1221, 4701.817
555.6042, 4710.774
556.0864, 4706.546
556.5685, 4699.277
557.0506, 4696.456
557.5327, 4698.275
558.0148, 4705.628
558.4969, 4727.631
558.9791, 4748.805
559.4612, 4756.956
559.9433, 4746.937
560.4254, 4744.279
560.9075, 4766.327
561.3896, 4790.449
561.8718, 4796.510
562.3539, 4769.865
562.8360, 4749.828
563.3181, 4739.686
563.8002, 4737.831
564.2823, 4740.788
564.7645, 4748.758
565.2466, 4761.022
565.7287, 4781.854
566.2108, 4807.057
566.6929, 4810.309
567.1750, 4790.544
567.6572, 4772.399
568.1393, 4779.216
568.6214, 4802.217
569.1035, 4825.101
569.5856, 4846.489
570.0677, 4863.545
570.5499, 4870.022
571.0320, 4871.626
571.5141, 4877.432
571.9962, 4903.921
572.4783, 4922.155
572.9604, 4913.366
573.4426, 4883.486
573.9247, 4863.364
574.4068, 4862.805
574.8889, 4868.844
575.3710, 4877.394
575.8531, 4888.754
576.3353, 4900.497
576.8174, 4912.666
577.2995, 4924.983
577.7816, 4937.928
578.2637, 4951.740
578.7458, 4962.750
579.2280, 4970.033
579.7101, 4975.015
580.1922, 4980.764
580.6743, 4986.772
581.1564, 4990.175
581.6385, 4982.978
582.1207, 4975.991
582.6028, 4986.831
583.0849, 5013.258
583.5670, 5038.428
584.0491, 5051.117
584.5313, 5059.367
585.0134, 5069.934
585.4955, 5085.609
585.9776, 5097.692
586.4597, 5102.140
586.9418, 5102.529
587.4240, 5102.831
587.9061, 5103.730
588.3882, 5103.477
588.8703, 5099.576
589.3524, 5095.027
589.8345, 5100.795
590.3167, 5120.609
590.7988, 5136.246
591.2809, 5136.462
591.7630, 5125.389
592.2451, 5125.586
592.7272, 5137.452
593.2094, 5150.888
593.6915, 5158.628
594.1736, 5161.732
594.6557, 5160.033
595.1378, 5151.198
595.6199, 5147.672
596.1021, 5168.019
596.5842, 5197.161
597.0663, 5213.651
597.5485, 5189.828
598.0306, 5173.660
598.5127, 5188.191
598.9948, 5225.147
599.4769, 5247.983
599.9590, 5244.643
600.4412, 5239.123
600.9233, 5237.601
601.4054, 5239.837
601.8875, 5251.985
602.3696, 5279.264
602.8517, 5303.392
603.3339, 5301.503
603.8160, 5276.663
604.2981, 5271.751
604.7802, 5294.300
605.2623, 5327.933
605.7444, 5361.072
606.2266, 5388.971
606.7087, 5396.634
607.1908, 5358.191
607.6729, 5319.097
608.1550, 5323.092
608.6371, 5357.649
609.1193, 5382.172
609.6014, 5369.296
610.0835, 5351.955
610.5656, 5346.830
611.0477, 5357.115
611.5298, 5362.300
612.0120, 5354.150
612.4941, 5348.167
612.9762, 5356.887
613.4583, 5387.510
613.9404, 5405.519
614.4225, 5406.050
614.9047, 5399.655
615.3868, 5400.924
615.8689, 5409.453
616.3510, 5420.733
616.8331, 5437.206
617.3152, 5450.833
617.7974, 5442.237
618.2795, 5418.005
618.7616, 5403.227
619.2437, 5418.355
619.7258, 5443.248
620.2079, 5465.509
620.6901, 5484.184
621.1722, 5497.811
621.6543, 5500.192
622.1364, 5501.370
622.6185, 5508.719
623.1006, 5529.661
623.5828, 5540.406
624.0649, 5533.285
624.5470, 5523.005
625.0291, 5529.201
625.5112, 5555.840
