##NAMES=Clintonite
##RRUFFID=R070196
##IDEAL CHEMISTRY=CaAlMg_2_(SiAl_3_)O_10_(OH)_2_
##LOCALITY=Crestmore, Riverside County, California, USA
##OWNER=RRUFF
##SOURCE=California Institute of Technology
##DESCRIPTION=Transparent green micaceous single crystal
##STATUS=The identification of this mineral is confirmed by single-crystal X-ray diffraction and chemical analysis.
##URL=rruff.info/R070196
##MEASURED CHEMISTRY=(Ca_0.97_[box]_0.03_)_Σ=1_(Al_0.90_Fe^3+^_0.10_)_Σ=1_Mg_2.00_(Si_1.18_Al_2.82_)_Σ=3_O_10_((OH)_1.88_O_0.12_)_Σ=2_; OH estimated by charge balance
143.9141, 2010.508
144.3962, 2036.040
144.8784, 2095.513
145.3605, 2134.611
145.8426, 2139.716
146.3247, 2125.264
146.8068, 2130.843
147.2889, 2172.876
147.7711, 2219.240
148.2532, 2255.831
148.7353, 2269.573
149.2174, 2290.672
149.6995, 2323.664
150.1816, 2366.852
150.6638, 2405.719
151.1459, 2437.887
151.6280, 2467.095
152.1101, 2495.536
152.5922, 2524.801
153.0743, 2551.769
153.5565, 2573.073
154.0386, 2588.510
154.5207, 2610.251
155.0028, 2656.623
155.4849, 2703.145
155.9670, 2728.172
156.4492, 2699.528
156.9313, 2674.249
157.4134, 2673.501
157.8955, 2703.721
158.3776, 2727.955
158.8597, 2731.507
159.3419, 2723.894
159.8240, 2718.363
160.3061, 2721.215
160.7882, 2725.472
161.2703, 2726.875
161.7524, 2722.919
162.2346, 2722.121
162.7167, 2729.240
163.1988, 2742.250
163.6809, 2756.575
164.1630, 2771.417
164.6451, 2786.273
165.1273, 2801.148
165.6094, 2817.419
166.0915, 2831.289
166.5736, 2839.878
167.0557, 2843.918
167.5379, 2846.357
168.0200, 2846.971
168.5021, 2847.470
168.9842, 2849.776
169.4663, 2856.139
169.9484, 2862.716
170.4306, 2864.832
170.9127, 2863.212
171.3948, 2864.058
171.8769, 2877.254
172.3590, 2894.737
172.8411, 2904.371
173.3233, 2894.634
173.8054, 2878.879
174.2875, 2870.915
174.7696, 2870.793
175.2517, 2874.728
175.7338, 2881.796
176.2160, 2890.573
176.6981, 2897.884
177.1802, 2903.502
177.6623, 2906.429
178.1444, 2902.502
178.6265, 2890.446
179.1087, 2880.245
179.5908, 2887.256
180.0729, 2906.767
180.5550, 2921.896
181.0371, 2921.696
181.5192, 2911.001
182.0014, 2899.837
182.4835, 2888.299
182.9656, 2878.112
183.4477, 2870.585
183.9298, 2865.923
184.4119, 2865.341
184.8941, 2872.351
185.3762, 2884.591
185.8583, 2893.171
186.3404, 2896.482
186.8225, 2897.075
187.3046, 2898.079
187.7868, 2899.522
188.2689, 2904.185
188.7510, 2919.823
189.2331, 2943.136
189.7152, 2952.573
190.1973, 2942.357
190.6795, 2918.411
191.1616, 2889.681
191.6437, 2855.125
192.1258, 2827.625
192.6079, 2823.686
193.0900, 2841.961
193.5722, 2851.383
194.0543, 2843.774
194.5364, 2823.341
195.0185, 2804.935
195.5006, 2788.599
195.9827, 2774.029
196.4649, 2760.619
196.9470, 2748.073
197.4291, 2739.329
197.9112, 2736.405
198.3933, 2738.238
198.8754, 2736.455
199.3576, 2729.503
199.8397, 2723.341
200.3218, 2727.256
200.8039, 2743.236
201.2860, 2754.452
201.7681, 2754.222
202.2503, 2742.998
202.7324, 2735.026
203.2145, 2730.045
203.6966, 2728.801
204.1787, 2733.731
204.6608, 2746.421
205.1430, 2758.080
205.6251, 2766.449
206.1072, 2771.659
206.5893, 2769.979
207.0714, 2756.917
207.5535, 2742.540
208.0357, 2745.021
208.5178, 2769.022
208.9999, 2795.425
209.4820, 2816.894
209.9641, 2832.078
210.4462, 2849.582
210.9284, 2868.884
211.4105, 2891.042
211.8926, 2919.797
212.3747, 2960.235
212.8568, 2995.568
213.3389, 3015.164
213.8211, 3010.241
214.3032, 3021.833
214.7853, 3054.448
215.2674, 3101.879
215.7495, 3148.179
216.2316, 3193.587
216.7138, 3238.363
217.1959, 3281.426
217.6780, 3320.130
218.1601, 3366.173
218.6422, 3420.626
219.1243, 3482.209
219.6065, 3547.157
220.0886, 3616.582
220.5707, 3686.885
221.0528, 3754.177
221.5349, 3817.890
222.0170, 3882.089
222.4992, 3944.905
222.9813, 4008.404
223.4634, 4084.106
223.9455, 4175.792
224.4276, 4275.354
224.9097, 4376.883
225.3919, 4481.793
225.8740, 4588.867
226.3561, 4699.451
226.8382, 4812.262
227.3203, 4927.101
227.8024, 5047.016
228.2846, 5163.366
228.7667, 5270.889
229.2488, 5360.928
229.7309, 5457.802
230.2130, 5573.145
230.6951, 5700.631
231.1773, 5792.475
231.6594, 5839.203
232.1415, 5860.339
232.6236, 5869.539
233.1057, 5868.827
233.5878, 5852.986
234.0700, 5827.580
234.5521, 5790.555
235.0342, 5708.429
235.5163, 5563.549
235.9984, 5393.397
236.4805, 5225.778
236.9627, 5066.324
237.4448, 4902.144
237.9269, 4729.644
238.4090, 4549.386
238.8911, 4377.507
239.3732, 4213.096
239.8554, 4058.031
240.3375, 3914.256
240.8196, 3783.438
241.3017, 3660.905
241.7838, 3544.821
242.2659, 3435.697
242.7481, 3329.945
243.2302, 3224.030
243.7123, 3125.075
244.1944, 3040.037
244.6765, 2972.845
245.1586, 2911.673
245.6408, 2853.801
246.1229, 2798.902
246.6050, 2755.543
247.0871, 2729.583
247.5692, 2709.071
248.0513, 2681.789
248.5335, 2640.593
249.0156, 2606.641
249.4977, 2585.975
249.9798, 2578.726
250.4619, 2569.434
250.9440, 2557.376
251.4262, 2543.987
251.9083, 2529.927
252.3904, 2512.388
252.8725, 2500.105
253.3546, 2496.870
253.8367, 2502.931
254.3189, 2502.804
254.8010, 2493.538
255.2831, 2481.467
255.7652, 2472.725
256.2473, 2467.911
256.7295, 2465.428
257.2116, 2466.190
257.6937, 2470.270
258.1758, 2470.250
258.6579, 2465.018
259.1400, 2457.027
259.6222, 2447.654
260.1043, 2434.540
260.5864, 2426.081
261.0685, 2423.377
261.5506, 2426.449
262.0327, 2439.584
262.5149, 2468.028
262.9970, 2499.058
263.4791, 2519.363
263.9612, 2527.523
264.4433, 2529.118
264.9254, 2522.909
265.4076, 2509.341
265.8897, 2501.857
266.3718, 2501.402
266.8539, 2505.354
267.3360, 2512.561
267.8181, 2525.090
268.3003, 2532.927
268.7824, 2531.628
269.2645, 2522.135
269.7466, 2519.628
270.2287, 2525.248
270.7108, 2535.534
271.1930, 2548.320
271.6751, 2564.533
272.1572, 2578.521
272.6393, 2588.119
273.1214, 2594.088
273.6035, 2602.716
274.0857, 2614.592
274.5678, 2627.659
275.0499, 2640.231
275.5320, 2652.201
276.0141, 2664.349
276.4962, 2678.488
276.9784, 2693.195
277.4605, 2697.579
277.9426, 2689.276
278.4247, 2679.289
278.9068, 2677.824
279.3889, 2685.251
279.8711, 2695.657
280.3532, 2707.997
280.8353, 2722.302
281.3174, 2741.391
281.7995, 2766.969
282.2816, 2787.809
282.7638, 2789.107
283.2459, 2771.288
283.7280, 2761.366
284.2101, 2765.285
284.6922, 2780.830
285.1743, 2805.212
285.6565, 2839.565
286.1386, 2870.309
286.6207, 2880.161
287.1028, 2872.052
287.5849, 2876.897
288.0670, 2906.763
288.5492, 2947.636
289.0313, 2963.193
289.5134, 2952.793
289.9955, 2940.239
290.4776, 2944.463
290.9597, 2962.576
291.4419, 2981.032
291.9240, 2996.553
292.4061, 3012.280
292.8882, 3037.982
293.3703, 3072.787
293.8524, 3101.948
294.3346, 3111.723
294.8167, 3107.402
295.2988, 3104.891
295.7809, 3107.655
296.2630, 3111.793
296.7451, 3108.560
297.2273, 3099.623
297.7094, 3096.328
298.1915, 3111.807
298.6736, 3137.573
299.1557, 3155.206
299.6378, 3160.193
300.1200, 3161.195
300.6021, 3166.460
301.0842, 3176.026
301.5663, 3190.015
302.0484, 3212.691
302.5305, 3238.581
303.0127, 3259.368
303.4948, 3273.737
303.9769, 3284.414
304.4590, 3292.958
304.9411, 3299.834
305.4232, 3306.421
305.9054, 3311.434
306.3875, 3317.515
306.8696, 3326.273
307.3517, 3337.045
307.8338, 3354.460
308.3159, 3388.080
308.7981, 3430.626
309.2802, 3468.040
309.7623, 3488.342
310.2444, 3504.371
310.7265, 3525.889
311.2086, 3553.985
311.6908, 3584.807
312.1729, 3621.149
312.6550, 3657.933
313.1371, 3687.374
313.6192, 3694.659
314.1013, 3702.614
314.5835, 3725.974
315.0656, 3766.442
315.5477, 3806.144
316.0298, 3834.688
316.5119, 3859.228
316.9940, 3887.747
317.4762, 3925.074
317.9583, 3964.281
318.4404, 4001.539
318.9225, 4036.823
319.4046, 4075.832
319.8867, 4124.448
320.3689, 4175.437
320.8510, 4222.793
321.3331, 4254.286
321.8152, 4293.371
322.2973, 4349.335
322.7794, 4420.656
323.2616, 4489.463
323.7437, 4554.468
324.2258, 4615.141
324.7079, 4671.151
325.1900, 4720.842
325.6721, 4767.735
326.1543, 4808.527
326.6364, 4845.108
327.1185, 4890.390
327.6006, 4938.410
328.0827, 4999.998
328.5648, 5080.979
329.0470, 5209.546
329.5291, 5317.607
330.0112, 5395.525
330.4933, 5453.229
330.9754, 5517.566
331.4576, 5589.196
331.9397, 5666.787
332.4218, 5751.747
332.9039, 5849.567
333.3860, 5941.202
333.8681, 6022.622
334.3503, 6098.570
334.8324, 6177.059
335.3145, 6258.593
335.7966, 6339.834
336.2787, 6420.303
336.7608, 6499.638
337.2430, 6577.829
337.7251, 6657.414
338.2072, 6729.763
338.6893, 6776.977
339.1714, 6792.048
339.6535, 6814.454
340.1357, 6860.274
340.6178, 6927.341
341.0999, 6981.161
341.5820, 7021.984
342.0641, 7050.487
342.5462, 7063.735
343.0284, 7061.667
343.5105, 7064.748
343.9926, 7082.801
344.4747, 7108.185
344.9568, 7114.300
345.4389, 7100.292
345.9211, 7078.325
346.4032, 7065.387
346.8853, 7055.684
347.3674, 7019.572
347.8495, 6941.482
348.3316, 6846.237
348.8138, 6783.310
349.2959, 6748.965
349.7780, 6709.787
350.2601, 6631.454
350.7422, 6532.920
351.2243, 6452.751
351.7065, 6399.323
352.1886, 6357.442
352.6707, 6313.390
353.1528, 6267.102
353.6349, 6219.602
354.1170, 6173.317
354.5992, 6124.229
355.0813, 6064.106
355.5634, 5989.269
356.0455, 5919.784
356.5276, 5874.172
357.0097, 5843.392
357.4919, 5812.521
357.9740, 5778.956
358.4561, 5739.686
358.9382, 5690.805
359.4203, 5631.832
359.9024, 5571.941
360.3846, 5509.761
360.8667, 5451.045
361.3488, 5401.645
361.8309, 5370.195
362.3130, 5342.418
362.7951, 5316.752
363.2773, 5292.355
363.7594, 5261.129
364.2415, 5209.754
364.7236, 5158.067
365.2057, 5118.929
365.6878, 5108.588
366.1700, 5094.980
366.6521, 5070.550
367.1342, 5039.001
367.6163, 5015.396
368.0984, 5005.549
368.5805, 4999.691
369.0627, 4994.174
369.5448, 4988.613
370.0269, 4984.308
370.5090, 4982.188
370.9911, 4981.036
371.4732, 4978.438
371.9554, 4973.494
372.4375, 4968.615
372.9196, 4964.233
373.4017, 4960.061
373.8838, 4957.223
374.3659, 4952.705
374.8481, 4953.448
375.3302, 4970.170
375.8123, 5007.055
376.2944, 5042.710
376.7765, 5071.201
377.2586, 5094.021
377.7408, 5118.070
378.2229, 5141.741
378.7050, 5174.545
379.1871, 5229.056
379.6692, 5303.857
380.1513, 5379.311
380.6335, 5451.011
381.1156, 5521.264
381.5977, 5590.068
382.0798, 5657.833
382.5619, 5734.215
383.0440, 5832.751
383.5262, 5945.464
384.0083, 6048.929
384.4904, 6138.251
384.9725, 6228.809
385.4546, 6338.565
385.9367, 6465.059
386.4189, 6600.031
386.9010, 6750.192
387.3831, 6902.699
387.8652, 7037.605
388.3473, 7151.888
388.8294, 7275.540
389.3116, 7431.218
389.7937, 7606.765
390.2758, 7787.186
390.7579, 7969.372
391.2400, 8150.711
391.7221, 8331.268
392.2043, 8509.778
392.6864, 8683.586
393.1685, 8851.738
393.6506, 9012.478
394.1327, 9166.317
394.6148, 9314.112
395.0970, 9453.807
395.5791, 9580.461
396.0612, 9698.666
396.5433, 9818.120
397.0254, 9972.683
397.5075, 10101.99
397.9897, 10179.44
398.4718, 10180.41
398.9539, 10181.57
399.4360, 10188.46
399.9181, 10193.89
400.4002, 10187.28
400.8824, 10162.00
401.3645, 10134.99
401.8466, 10116.80
402.3287, 10109.08
402.8108, 10063.75
403.2929, 9970.873
403.7751, 9856.254
404.2572, 9739.113
404.7393, 9616.640
405.2214, 9506.313
405.7035, 9420.704
406.1856, 9344.952
406.6678, 9229.650
407.1499, 9070.531
407.6320, 8898.198
408.1141, 8728.381
408.5962, 8560.586
409.0783, 8396.365
409.5605, 8235.284
410.0426, 8081.105
410.5247, 7945.813
411.0068, 7826.781
411.4889, 7702.229
411.9710, 7550.753
412.4532, 7390.643
412.9353, 7253.700
413.4174, 7141.728
413.8995, 7037.625
414.3816, 6923.991
414.8637, 6808.523
415.3459, 6701.971
415.8280, 6610.686
416.3101, 6526.936
416.7922, 6446.337
417.2743, 6369.038
417.7564, 6288.542
418.2386, 6196.481
418.7207, 6103.878
419.2028, 6021.126
419.6849, 5953.440
420.1670, 5886.366
420.6491, 5812.265
421.1313, 5735.343
421.6134, 5662.704
422.0955, 5590.817
422.5776, 5528.436
423.0597, 5481.027
423.5418, 5453.315
424.0240, 5419.333
424.5061, 5366.986
424.9882, 5314.694
425.4703, 5279.514
425.9524, 5280.371
426.4345, 5266.926
426.9167, 5226.836
427.3988, 5165.645
427.8809, 5118.404
428.3630, 5089.299
428.8451, 5065.897
429.3272, 5041.674
429.8094, 5015.950
430.2915, 4993.567
430.7736, 4975.798
431.2557, 4959.815
431.7378, 4942.935
432.2199, 4925.365
432.7021, 4900.741
433.1842, 4861.567
433.6663, 4813.225
434.1484, 4776.018
434.6305, 4750.709
435.1126, 4726.862
435.5948, 4686.595
436.0769, 4639.714
436.5590, 4614.762
437.0411, 4632.357
437.5232, 4657.937
438.0053, 4648.377
438.4875, 4610.940
438.9696, 4574.879
439.4517, 4563.584
439.9338, 4558.507
440.4159, 4540.018
440.8980, 4501.036
441.3802, 4465.727
441.8623, 4453.945
442.3444, 4451.437
442.8265, 4437.866
443.3086, 4389.997
443.7907, 4345.943
444.2729, 4320.506
444.7550, 4314.541
445.2371, 4311.571
445.7192, 4316.259
446.2013, 4318.514
446.6834, 4311.459
447.1656, 4287.323
447.6477, 4265.295
448.1298, 4248.118
448.6119, 4232.999
449.0940, 4211.450
449.5761, 4175.537
450.0583, 4147.911
450.5404, 4141.524
451.0225, 4159.655
451.5046, 4162.633
451.9867, 4145.773
452.4688, 4123.639
452.9510, 4114.929
453.4331, 4120.128
453.9152, 4122.798
454.3973, 4119.313
454.8794, 4110.247
455.3615, 4094.100
455.8437, 4071.093
456.3258, 4051.598
456.8079, 4046.293
457.2900, 4049.261
457.7721, 4048.336
458.2542, 4042.174
458.7364, 4031.053
459.2185, 4008.934
459.7006, 3982.119
460.1827, 3964.363
460.6648, 3973.699
461.1469, 3985.217
461.6291, 3979.116
462.1112, 3955.656
462.5933, 3932.772
463.0754, 3915.502
463.5575, 3903.749
464.0396, 3898.213
464.5218, 3911.018
465.0039, 3913.982
465.4860, 3889.231
465.9681, 3850.260
466.4502, 3832.392
466.9323, 3863.938
467.4145, 3890.152
467.8966, 3895.001
468.3787, 3875.694
468.8608, 3848.533
469.3429, 3806.403
469.8250, 3764.421
470.3072, 3740.513
470.7893, 3741.076
471.2714, 3733.834
471.7535, 3709.988
472.2356, 3676.095
472.7177, 3657.373
473.1999, 3655.696
473.6820, 3651.982
474.1641, 3630.605
474.6462, 3596.304
475.1284, 3570.560
475.6105, 3555.067
476.0926, 3546.057
476.5747, 3540.494
477.0568, 3538.123
477.5389, 3538.589
478.0211, 3546.952
478.5032, 3554.060
478.9853, 3547.236
479.4674, 3528.773
479.9495, 3513.641
480.4316, 3513.106
480.9138, 3517.869
481.3959, 3520.953
481.8780, 3521.385
482.3601, 3519.337
482.8422, 3510.966
483.3243, 3500.983
483.8065, 3496.627
484.2886, 3501.550
484.7707, 3509.893
485.2528, 3522.078
485.7349, 3538.013
486.2170, 3550.268
486.6992, 3557.432
487.1813, 3562.408
487.6634, 3567.033
488.1455, 3571.377
488.6276, 3574.521
489.1097, 3574.312
489.5919, 3574.976
490.0740, 3588.628
490.5561, 3617.655
491.0382, 3639.001
491.5203, 3637.603
492.0024, 3620.219
492.4846, 3619.573
492.9667, 3636.440
493.4488, 3655.462
493.9309, 3659.192
494.4130, 3654.527
494.8951, 3659.576
495.3773, 3683.696
495.8594, 3707.422
496.3415, 3702.810
496.8236, 3681.548
497.3057, 3673.314
497.7878, 3710.577
498.2700, 3751.935
498.7521, 3763.801
499.2342, 3741.487
499.7163, 3733.788
500.1984, 3777.806
500.6805, 3833.246
501.1627, 3867.983
501.6448, 3859.899
502.1269, 3850.638
502.6090, 3845.012
503.0911, 3840.896
503.5732, 3831.994
504.0554, 3813.240
504.5375, 3797.569
505.0196, 3791.552
505.5017, 3796.688
505.9838, 3791.018
506.4659, 3770.486
506.9481, 3748.542
507.4302, 3739.530
507.9123, 3743.491
508.3944, 3750.399
508.8765, 3760.401
509.3586, 3769.374
509.8408, 3770.737
510.3229, 3764.516
510.8050, 3751.249
511.2871, 3720.113
511.7692, 3686.435
512.2513, 3677.943
512.7335, 3696.299
513.2156, 3714.338
513.6977, 3711.507
514.1798, 3698.023
514.6619, 3685.613
515.1440, 3678.326
515.6262, 3671.761
516.1083, 3662.412
516.5904, 3652.392
517.0725, 3647.251
517.5546, 3652.350
518.0367, 3658.737
518.5189, 3663.526
519.0010, 3666.710
519.4831, 3667.895
519.9652, 3662.836
520.4473, 3660.018
520.9294, 3668.750
521.4116, 3694.694
521.8937, 3712.364
522.3758, 3717.656
522.8579, 3714.105
523.3400, 3708.304
523.8221, 3699.986
524.3043, 3694.135
524.7864, 3691.773
525.2685, 3693.703
525.7506, 3705.428
526.2327, 3727.350
526.7148, 3747.721
527.1970, 3754.443
527.6791, 3753.305
528.1612, 3753.757
528.6433, 3757.266
529.1254, 3764.426
529.6075, 3776.256
530.0897, 3792.049
530.5718, 3810.034
531.0539, 3841.357
531.5360, 3864.360
532.0181, 3861.211
532.5002, 3829.731
532.9824, 3817.331
533.4645, 3843.773
533.9466, 3882.566
534.4287, 3918.043
534.9108, 3952.962
535.3929, 3979.553
535.8751, 3994.547
536.3572, 4003.455
536.8393, 4016.236
537.3214, 4033.944
537.8035, 4051.208
538.2856, 4066.160
538.7678, 4079.450
539.2499, 4094.706
539.7320, 4112.026
540.2141, 4129.021
540.6962, 4145.463
541.1783, 4160.006
541.6605, 4168.041
542.1426, 4167.207
542.6247, 4167.492
543.1068, 4179.969
543.5889, 4199.703
544.0710, 4218.273
544.5532, 4230.280
545.0353, 4242.193
545.5174, 4259.897
545.9995, 4281.564
546.4816, 4296.642
546.9637, 4295.079
547.4459, 4291.938
547.9280, 4294.505
548.4101, 4304.539
548.8922, 4316.852
549.3743, 4338.064
549.8564, 4356.018
550.3386, 4358.175
550.8207, 4343.243
551.3028, 4314.757
551.7849, 4267.790
552.2670, 4212.138
552.7491, 4177.594
553.2313, 4164.940
553.7134, 4152.098
554.1955, 4126.937
554.6776, 4092.635
555.1597, 4055.440
555.6418, 4015.650
556.1240, 3980.103
556.6061, 3961.174
557.0882, 3948.129
557.5703, 3924.763
558.0524, 3881.903
558.5345, 3838.292
559.0167, 3803.574
559.4988, 3775.985
559.9809, 3753.043
560.4630, 3740.382
560.9451, 3725.659
561.4272, 3703.297
561.9094, 3673.165
562.3915, 3646.337
562.8736, 3624.906
563.3557, 3604.507
563.8378, 3583.509
564.3199, 3563.141
564.8021, 3536.608
565.2842, 3502.150
565.7663, 3464.791
566.2484, 3429.569
566.7305, 3396.332
567.2126, 3374.164
567.6948, 3369.790
568.1769, 3373.160
568.6590, 3362.762
569.1411, 3341.339
569.6232, 3325.122
570.1053, 3332.854
570.5875, 3345.864
571.0696, 3341.831
571.5517, 3318.444
572.0338, 3294.303
572.5159, 3277.535
572.9980, 3265.660
573.4802, 3256.750
573.9623, 3252.938
574.4444, 3248.651
574.9265, 3240.583
575.4086, 3231.940
575.8907, 3229.808
576.3729, 3240.355
576.8550, 3247.016
577.3371, 3244.475
577.8192, 3233.744
578.3013, 3224.343
578.7834, 3216.331
579.2656, 3209.989
579.7477, 3205.624
580.2298, 3203.137
580.7119, 3203.093
581.1940, 3206.178
581.6761, 3208.053
582.1583, 3198.755
582.6404, 3185.015
583.1225, 3182.008
583.6046, 3204.044
584.0867, 3226.671
584.5688, 3228.084
585.0510, 3215.302
585.5331, 3207.946
586.0152, 3217.530
586.4973, 3230.483
586.9794, 3242.101
587.4615, 3252.303
587.9437, 3258.635
588.4258, 3258.674
588.9079, 3257.145
589.3900, 3256.548
589.8721, 3255.922
590.3542, 3259.400
590.8364, 3267.807
591.3185, 3279.319
591.8006, 3295.158
592.2827, 3315.103
592.7648, 3320.291
593.2469, 3296.439
593.7291, 3262.612
594.2112, 3258.889
594.6933, 3280.541
595.1754, 3302.981
595.6575, 3305.476
596.1396, 3304.644
596.6218, 3320.681
597.1039, 3356.220
597.5860, 3384.476
598.0681, 3383.948
598.5502, 3375.171
599.0323, 3374.826
599.5145, 3396.437
599.9966, 3411.236
600.4787, 3415.410
600.9608, 3412.625
601.4429, 3407.013
601.9250, 3392.831
602.4072, 3390.075
602.8893, 3406.971
603.3714, 3438.165
603.8535, 3462.364
604.3356, 3479.948
604.8177, 3487.530
605.2999, 3475.772
605.7820, 3452.667
606.2641, 3442.852
606.7462, 3447.743
607.2283, 3453.259
607.7104, 3444.224
608.1926, 3430.119
608.6747, 3423.147
609.1568, 3428.375
609.6389, 3437.358
610.1210, 3445.291
610.6031, 3454.673
611.0853, 3469.446
611.5674, 3498.659
612.0495, 3523.964
612.5316, 3541.646
613.0137, 3552.379
613.4958, 3559.476
613.9780, 3562.527
614.4601, 3562.705
614.9422, 3559.007
615.4243, 3551.614
615.9064, 3547.440
616.3885, 3545.838
616.8707, 3551.419
617.3528, 3574.634
617.8349, 3608.169
618.3170, 3633.827
618.7991, 3646.286
619.2813, 3654.811
619.7634, 3666.287
620.2455, 3679.702
620.7276, 3693.531
621.2097, 3700.657
621.6918, 3714.558
622.1740, 3747.295
622.6561, 3793.856
623.1382, 3827.684
623.6203, 3832.016
624.1024, 3839.068
624.5845, 3860.168
625.0667, 3896.591
625.5488, 3933.488
626.0309, 3971.729
626.5130, 4008.729
626.9951, 4038.332
627.4772, 4062.178
627.9594, 4100.665
628.4415, 4157.942
628.9236, 4222.107
629.4057, 4270.609
629.8878, 4314.720
630.3699, 4380.474
630.8521, 4493.315
631.3342, 4611.811
631.8163, 4701.571
632.2984, 4772.903
632.7805, 4852.444
633.2626, 4947.940
633.7448, 5053.691
634.2269, 5169.987
634.7090, 5297.562
635.1911, 5419.059
635.6732, 5524.545
636.1553, 5638.177
