##NAMES=Clinoferrosilite
##RRUFFID=R141085
##IDEAL CHEMISTRY=Fe^2+^SiO_3_
##LOCALITY=Caspar quarry, Bellerberg volcano, Ettringen, Mayen, Eifel, Rhineland-Palatinate, Germany
##OWNER=RRUFF
##SOURCE=Ch. and H. Sch√§fer
##DESCRIPTION=Brown prismatic crystals, associated with pyroxferroite, R141080
##STATUS=The identification of this mineral has been confirmed by single-crystal X-ray diffraction.
##URL=rruff.info/R141085
8.806445e+001, 1.264292e+003
8.854657e+001, 1.249230e+003
8.902869e+001, 1.244057e+003
8.951080e+001, 1.255011e+003
8.999292e+001, 1.273073e+003
9.047504e+001, 1.289883e+003
9.095715e+001, 1.303714e+003
9.143927e+001, 1.314559e+003
9.192139e+001, 1.321120e+003
9.240350e+001, 1.323380e+003
9.288562e+001, 1.326644e+003
9.336774e+001, 1.325154e+003
9.384985e+001, 1.310223e+003
9.433197e+001, 1.279896e+003
9.481409e+001, 1.251656e+003
9.529620e+001, 1.222131e+003
9.577832e+001, 1.195733e+003
9.626044e+001, 1.173124e+003
9.674255e+001, 1.153640e+003
9.722467e+001, 1.136569e+003
9.770679e+001, 1.122124e+003
9.818890e+001, 1.108316e+003
9.867102e+001, 1.094503e+003
9.915314e+001, 1.080861e+003
9.963525e+001, 1.067162e+003
1.001174e+002, 1.053189e+003
1.005995e+002, 1.039314e+003
1.010816e+002, 1.026990e+003
1.015637e+002, 1.016182e+003
1.020458e+002, 1.006855e+003
1.025280e+002, 9.990336e+002
1.030101e+002, 9.923945e+002
1.034922e+002, 9.865042e+002
1.039743e+002, 9.810968e+002
1.044564e+002, 9.761188e+002
1.049385e+002, 9.719363e+002
1.054207e+002, 9.706233e+002
1.059028e+002, 9.680562e+002
1.063849e+002, 9.617068e+002
1.068670e+002, 9.516130e+002
1.073491e+002, 9.397613e+002
1.078312e+002, 9.270860e+002
1.083134e+002, 9.137794e+002
1.087955e+002, 9.030444e+002
1.092776e+002, 8.965202e+002
1.097597e+002, 8.924096e+002
1.102418e+002, 8.881592e+002
1.107239e+002, 8.832795e+002
1.112061e+002, 8.785912e+002
1.116882e+002, 8.748622e+002
1.121703e+002, 8.719114e+002
1.126524e+002, 8.692928e+002
1.131345e+002, 8.670000e+002
1.136166e+002, 8.649766e+002
1.140988e+002, 8.623699e+002
1.145809e+002, 8.587880e+002
1.150630e+002, 8.547476e+002
1.155451e+002, 8.503463e+002
1.160272e+002, 8.456461e+002
1.165093e+002, 8.409962e+002
1.169915e+002, 8.367402e+002
1.174736e+002, 8.327805e+002
1.179557e+002, 8.295439e+002
1.184378e+002, 8.277911e+002
1.189199e+002, 8.261807e+002
1.194020e+002, 8.233937e+002
1.198842e+002, 8.190863e+002
1.203663e+002, 8.143402e+002
1.208484e+002, 8.116179e+002
1.213305e+002, 8.141709e+002
1.218126e+002, 8.151880e+002
1.222947e+002, 8.141320e+002
1.227769e+002, 8.115231e+002
1.232590e+002, 8.077095e+002
1.237411e+002, 8.026552e+002
1.242232e+002, 7.969088e+002
1.247053e+002, 7.929922e+002
1.251874e+002, 7.919020e+002
1.256696e+002, 7.910887e+002
1.261517e+002, 7.895411e+002
1.266338e+002, 7.874468e+002
1.271159e+002, 7.856229e+002
1.275980e+002, 7.848897e+002
1.280801e+002, 7.847350e+002
1.285623e+002, 7.835001e+002
1.290444e+002, 7.804882e+002
1.295265e+002, 7.768287e+002
1.300086e+002, 7.736640e+002
1.304907e+002, 7.711368e+002
1.309728e+002, 7.684297e+002
1.314550e+002, 7.645066e+002
1.319371e+002, 7.601332e+002
1.324192e+002, 7.564196e+002
1.329013e+002, 7.539498e+002
1.333834e+002, 7.524286e+002
1.338655e+002, 7.510352e+002
1.343477e+002, 7.499315e+002
1.348298e+002, 7.487081e+002
1.353119e+002, 7.469711e+002
1.357940e+002, 7.450140e+002
1.362761e+002, 7.434083e+002
1.367582e+002, 7.427171e+002
1.372404e+002, 7.429857e+002
1.377225e+002, 7.426810e+002
1.382046e+002, 7.421102e+002
1.386867e+002, 7.406561e+002
1.391688e+002, 7.376429e+002
1.396509e+002, 7.333942e+002
1.401331e+002, 7.288604e+002
1.406152e+002, 7.249246e+002
1.410973e+002, 7.216611e+002
1.415794e+002, 7.189788e+002
1.420615e+002, 7.171161e+002
1.425436e+002, 7.155226e+002
1.430258e+002, 7.137666e+002
1.435079e+002, 7.118107e+002
1.439900e+002, 7.100237e+002
1.444721e+002, 7.089574e+002
1.449542e+002, 7.090266e+002
1.454363e+002, 7.087811e+002
1.459185e+002, 7.082164e+002
1.464006e+002, 7.072908e+002
1.468827e+002, 7.058132e+002
1.473648e+002, 7.036453e+002
1.478469e+002, 7.012694e+002
1.483290e+002, 6.996025e+002
1.488112e+002, 6.987037e+002
1.492933e+002, 6.976402e+002
1.497754e+002, 6.958400e+002
1.502575e+002, 6.935804e+002
1.507396e+002, 6.916342e+002
1.512217e+002, 6.902011e+002
1.517039e+002, 6.892794e+002
1.521860e+002, 6.888109e+002
1.526681e+002, 6.888344e+002
1.531502e+002, 6.889977e+002
1.536323e+002, 6.894249e+002
1.541144e+002, 6.901652e+002
1.545966e+002, 6.897079e+002
1.550787e+002, 6.862568e+002
1.555608e+002, 6.822333e+002
1.560429e+002, 6.792491e+002
1.565250e+002, 6.776272e+002
1.570071e+002, 6.767805e+002
1.574893e+002, 6.759958e+002
1.579714e+002, 6.753856e+002
1.584535e+002, 6.745125e+002
1.589356e+002, 6.730056e+002
1.594177e+002, 6.713953e+002
1.598998e+002, 6.700617e+002
1.603820e+002, 6.691537e+002
1.608641e+002, 6.686033e+002
1.613462e+002, 6.683004e+002
1.618283e+002, 6.687156e+002
1.623104e+002, 6.686877e+002
1.627925e+002, 6.680214e+002
1.632747e+002, 6.669290e+002
1.637568e+002, 6.655673e+002
1.642389e+002, 6.640138e+002
1.647210e+002, 6.623455e+002
1.652031e+002, 6.608972e+002
1.656852e+002, 6.599618e+002
1.661674e+002, 6.589196e+002
1.666495e+002, 6.576009e+002
1.671316e+002, 6.561151e+002
1.676137e+002, 6.546089e+002
1.680958e+002, 6.531077e+002
1.685779e+002, 6.517008e+002
1.690601e+002, 6.509171e+002
1.695422e+002, 6.515215e+002
1.700243e+002, 6.518430e+002
1.705064e+002, 6.510645e+002
1.709885e+002, 6.493713e+002
1.714706e+002, 6.474612e+002
1.719528e+002, 6.455329e+002
1.724349e+002, 6.438297e+002
1.729170e+002, 6.430110e+002
1.733991e+002, 6.440117e+002
1.738812e+002, 6.451411e+002
1.743633e+002, 6.449244e+002
1.748455e+002, 6.433271e+002
1.753276e+002, 6.417315e+002
1.758097e+002, 6.409855e+002
1.762918e+002, 6.408332e+002
1.767739e+002, 6.408610e+002
1.772560e+002, 6.411703e+002
1.777382e+002, 6.414984e+002
1.782203e+002, 6.414882e+002
1.787024e+002, 6.411200e+002
1.791845e+002, 6.404766e+002
1.796666e+002, 6.394107e+002
1.801487e+002, 6.381612e+002
1.806309e+002, 6.370392e+002
1.811130e+002, 6.362236e+002
1.815951e+002, 6.355883e+002
1.820772e+002, 6.347122e+002
1.825593e+002, 6.332234e+002
1.830414e+002, 6.321497e+002
1.835236e+002, 6.319319e+002
1.840057e+002, 6.322564e+002
1.844878e+002, 6.327428e+002
1.849699e+002, 6.332598e+002
1.854520e+002, 6.337272e+002
1.859341e+002, 6.336171e+002
1.864163e+002, 6.323252e+002
1.868984e+002, 6.310768e+002
1.873805e+002, 6.301214e+002
1.878626e+002, 6.294060e+002
1.883447e+002, 6.287875e+002
1.888268e+002, 6.281430e+002
1.893090e+002, 6.274861e+002
1.897911e+002, 6.271955e+002
1.902732e+002, 6.277389e+002
1.907553e+002, 6.281804e+002
1.912374e+002, 6.279770e+002
1.917195e+002, 6.274464e+002
1.922017e+002, 6.274229e+002
1.926838e+002, 6.286794e+002
1.931659e+002, 6.313397e+002
1.936480e+002, 6.323557e+002
1.941301e+002, 6.304814e+002
1.946122e+002, 6.285687e+002
1.950944e+002, 6.278381e+002
1.955765e+002, 6.281813e+002
1.960586e+002, 6.288301e+002
1.965407e+002, 6.291631e+002
1.970228e+002, 6.291681e+002
1.975049e+002, 6.295303e+002
1.979871e+002, 6.301316e+002
1.984692e+002, 6.311249e+002
1.989513e+002, 6.327867e+002
1.994334e+002, 6.350490e+002
1.999155e+002, 6.373859e+002
2.003976e+002, 6.394525e+002
2.008798e+002, 6.412011e+002
2.013619e+002, 6.426166e+002
2.018440e+002, 6.431645e+002
2.023261e+002, 6.437086e+002
2.028082e+002, 6.450984e+002
2.032903e+002, 6.473975e+002
2.037725e+002, 6.499352e+002
2.042546e+002, 6.521742e+002
2.047367e+002, 6.542355e+002
2.052188e+002, 6.564538e+002
2.057009e+002, 6.587239e+002
2.061830e+002, 6.612711e+002
2.066652e+002, 6.642418e+002
2.071473e+002, 6.675189e+002
2.076294e+002, 6.717169e+002
2.081115e+002, 6.775199e+002
2.085936e+002, 6.844654e+002
2.090757e+002, 6.920879e+002
2.095579e+002, 7.000931e+002
2.100400e+002, 7.086851e+002
2.105221e+002, 7.183271e+002
2.110042e+002, 7.290049e+002
2.114863e+002, 7.408701e+002
2.119685e+002, 7.533983e+002
2.124506e+002, 7.671075e+002
2.129327e+002, 7.829803e+002
2.134148e+002, 8.021248e+002
2.138969e+002, 8.235466e+002
2.143790e+002, 8.441374e+002
2.148612e+002, 8.642086e+002
2.153433e+002, 8.828713e+002
2.158254e+002, 9.005786e+002
2.163075e+002, 9.167393e+002
2.167896e+002, 9.310727e+002
2.172717e+002, 9.439592e+002
2.177539e+002, 9.544036e+002
2.182360e+002, 9.575599e+002
2.187181e+002, 9.505684e+002
2.192002e+002, 9.389929e+002
2.196823e+002, 9.234378e+002
2.201644e+002, 9.047739e+002
2.206466e+002, 8.837537e+002
2.211287e+002, 8.606689e+002
2.216108e+002, 8.359783e+002
2.220929e+002, 8.125235e+002
2.225750e+002, 7.899537e+002
2.230571e+002, 7.692662e+002
2.235393e+002, 7.510319e+002
2.240214e+002, 7.348223e+002
2.245035e+002, 7.200157e+002
2.249856e+002, 7.062936e+002
2.254677e+002, 6.937553e+002
2.259498e+002, 6.832979e+002
2.264320e+002, 6.763157e+002
2.269141e+002, 6.699831e+002
2.273962e+002, 6.638359e+002
2.278783e+002, 6.580440e+002
2.283604e+002, 6.529110e+002
2.288425e+002, 6.486281e+002
2.293247e+002, 6.451120e+002
2.298068e+002, 6.418690e+002
2.302889e+002, 6.386950e+002
2.307710e+002, 6.359928e+002
2.312531e+002, 6.339905e+002
2.317352e+002, 6.325078e+002
2.322174e+002, 6.312260e+002
2.326995e+002, 6.299749e+002
2.331816e+002, 6.287949e+002
2.336637e+002, 6.278967e+002
2.341458e+002, 6.278405e+002
2.346279e+002, 6.273727e+002
2.351101e+002, 6.259490e+002
2.355922e+002, 6.238992e+002
2.360743e+002, 6.218839e+002
2.365564e+002, 6.202560e+002
2.370385e+002, 6.188330e+002
2.375206e+002, 6.170421e+002
2.380028e+002, 6.146127e+002
2.384849e+002, 6.123138e+002
2.389670e+002, 6.105579e+002
2.394491e+002, 6.091409e+002
2.399312e+002, 6.075148e+002
2.404133e+002, 6.053683e+002
2.408955e+002, 6.030485e+002
2.413776e+002, 6.013524e+002
2.418597e+002, 6.004941e+002
2.423418e+002, 5.996141e+002
2.428239e+002, 5.981123e+002
2.433060e+002, 5.962896e+002
2.437882e+002, 5.950655e+002
2.442703e+002, 5.950006e+002
2.447524e+002, 5.953502e+002
2.452345e+002, 5.948040e+002
2.457166e+002, 5.931847e+002
2.461987e+002, 5.917061e+002
2.466809e+002, 5.911451e+002
2.471630e+002, 5.912350e+002
2.476451e+002, 5.909992e+002
2.481272e+002, 5.898975e+002
2.486093e+002, 5.887853e+002
2.490914e+002, 5.888105e+002
2.495736e+002, 5.899910e+002
2.500557e+002, 5.910897e+002
2.505378e+002, 5.913261e+002
2.510199e+002, 5.908856e+002
2.515020e+002, 5.904951e+002
2.519841e+002, 5.901768e+002
2.524663e+002, 5.901249e+002
2.529484e+002, 5.905911e+002
2.534305e+002, 5.915137e+002
2.539126e+002, 5.923729e+002
2.543947e+002, 5.926976e+002
2.548768e+002, 5.926490e+002
2.553590e+002, 5.929667e+002
2.558411e+002, 5.937313e+002
2.563232e+002, 5.949338e+002
2.568053e+002, 5.967878e+002
2.572874e+002, 5.990827e+002
2.577695e+002, 6.010574e+002
2.582516e+002, 6.017404e+002
2.587338e+002, 6.015299e+002
2.592159e+002, 6.026402e+002
2.596980e+002, 6.058509e+002
2.601801e+002, 6.094119e+002
2.606622e+002, 6.124735e+002
2.611443e+002, 6.151252e+002
2.616265e+002, 6.175562e+002
2.621086e+002, 6.196764e+002
2.625907e+002, 6.216459e+002
2.630728e+002, 6.242122e+002
2.635549e+002, 6.277802e+002
2.640370e+002, 6.313577e+002
2.645192e+002, 6.343367e+002
2.650013e+002, 6.370727e+002
2.654834e+002, 6.401485e+002
2.659655e+002, 6.439210e+002
2.664476e+002, 6.482453e+002
2.669297e+002, 6.526553e+002
2.674119e+002, 6.569609e+002
2.678940e+002, 6.616895e+002
2.683761e+002, 6.670839e+002
2.688582e+002, 6.728760e+002
2.693403e+002, 6.787018e+002
2.698224e+002, 6.843013e+002
2.703046e+002, 6.899788e+002
2.707867e+002, 6.966252e+002
2.712688e+002, 7.047229e+002
2.717509e+002, 7.129919e+002
2.722330e+002, 7.207488e+002
2.727151e+002, 7.286934e+002
2.731973e+002, 7.376032e+002
2.736794e+002, 7.478087e+002
2.741615e+002, 7.589639e+002
2.746436e+002, 7.705081e+002
2.751257e+002, 7.826156e+002
2.756078e+002, 7.948075e+002
2.760900e+002, 8.070289e+002
2.765721e+002, 8.192465e+002
2.770542e+002, 8.314495e+002
2.775363e+002, 8.436429e+002
2.780184e+002, 8.556194e+002
2.785005e+002, 8.671629e+002
2.789827e+002, 8.789944e+002
2.794648e+002, 8.885709e+002
2.799469e+002, 8.957423e+002
2.804290e+002, 9.011105e+002
2.809111e+002, 9.050961e+002
2.813932e+002, 9.077386e+002
2.818754e+002, 9.086795e+002
2.823575e+002, 9.073094e+002
2.828396e+002, 9.030749e+002
2.833217e+002, 8.980097e+002
2.838038e+002, 8.924277e+002
2.842859e+002, 8.859092e+002
2.847681e+002, 8.779383e+002
2.852502e+002, 8.686818e+002
2.857323e+002, 8.589336e+002
2.862144e+002, 8.495314e+002
2.866965e+002, 8.406041e+002
2.871786e+002, 8.311694e+002
2.876608e+002, 8.205770e+002
2.881429e+002, 8.100872e+002
2.886250e+002, 8.003689e+002
2.891071e+002, 7.912344e+002
2.895892e+002, 7.819348e+002
2.900714e+002, 7.716816e+002
2.905535e+002, 7.604818e+002
2.910356e+002, 7.506143e+002
2.915177e+002, 7.437420e+002
2.919998e+002, 7.364973e+002
2.924819e+002, 7.274361e+002
2.929641e+002, 7.173367e+002
2.934462e+002, 7.077953e+002
2.939283e+002, 6.998278e+002
2.944104e+002, 6.931929e+002
2.948925e+002, 6.858989e+002
2.953746e+002, 6.765908e+002
2.958568e+002, 6.681244e+002
2.963389e+002, 6.612236e+002
2.968210e+002, 6.552764e+002
2.973031e+002, 6.494935e+002
2.977852e+002, 6.434720e+002
2.982673e+002, 6.373008e+002
2.987495e+002, 6.313084e+002
2.992316e+002, 6.252228e+002
2.997137e+002, 6.196393e+002
3.001958e+002, 6.147395e+002
3.006779e+002, 6.102444e+002
3.011600e+002, 6.059430e+002
3.016422e+002, 6.017369e+002
3.021243e+002, 5.975447e+002
3.026064e+002, 5.932033e+002
3.030885e+002, 5.882371e+002
3.035706e+002, 5.840394e+002
3.040527e+002, 5.811357e+002
3.045349e+002, 5.785886e+002
3.050170e+002, 5.756813e+002
3.054991e+002, 5.723094e+002
3.059812e+002, 5.688956e+002
3.064633e+002, 5.659963e+002
3.069454e+002, 5.638759e+002
3.074276e+002, 5.613598e+002
3.079097e+002, 5.580869e+002
3.083918e+002, 5.548251e+002
3.088739e+002, 5.518937e+002
3.093560e+002, 5.493516e+002
3.098381e+002, 5.472234e+002
3.103203e+002, 5.455514e+002
3.108024e+002, 5.443885e+002
3.112845e+002, 5.430347e+002
3.117666e+002, 5.416304e+002
3.122487e+002, 5.399288e+002
3.127308e+002, 5.374819e+002
3.132130e+002, 5.346563e+002
3.136951e+002, 5.322010e+002
3.141772e+002, 5.305977e+002
3.146593e+002, 5.297631e+002
3.151414e+002, 5.291903e+002
3.156235e+002, 5.294753e+002
3.161057e+002, 5.293207e+002
3.165878e+002, 5.282833e+002
3.170699e+002, 5.267419e+002
3.175520e+002, 5.251663e+002
3.180341e+002, 5.237686e+002
3.185162e+002, 5.225226e+002
3.189984e+002, 5.213792e+002
3.194805e+002, 5.203306e+002
3.199626e+002, 5.194180e+002
3.204447e+002, 5.188666e+002
3.209268e+002, 5.183297e+002
3.214089e+002, 5.173755e+002
3.218911e+002, 5.159305e+002
3.223732e+002, 5.144267e+002
3.228553e+002, 5.135015e+002
3.233374e+002, 5.134245e+002
3.238195e+002, 5.133248e+002
3.243016e+002, 5.131746e+002
3.247838e+002, 5.130284e+002
3.252659e+002, 5.129620e+002
3.257480e+002, 5.129516e+002
3.262301e+002, 5.128790e+002
3.267122e+002, 5.126172e+002
3.271943e+002, 5.121400e+002
3.276765e+002, 5.116807e+002
3.281586e+002, 5.112137e+002
3.286407e+002, 5.107812e+002
3.291228e+002, 5.104357e+002
3.296049e+002, 5.101341e+002
3.300870e+002, 5.097900e+002
3.305692e+002, 5.093482e+002
3.310513e+002, 5.088090e+002
3.315334e+002, 5.081896e+002
3.320155e+002, 5.071855e+002
3.324976e+002, 5.064446e+002
3.329797e+002, 5.063120e+002
3.334619e+002, 5.064215e+002
3.339440e+002, 5.062948e+002
3.344261e+002, 5.057183e+002
3.349082e+002, 5.048633e+002
3.353904e+002, 5.041036e+002
3.358725e+002, 5.032729e+002
3.363546e+002, 5.028605e+002
3.368367e+002, 5.034376e+002
3.373188e+002, 5.040623e+002
3.378009e+002, 5.037988e+002
3.382831e+002, 5.025349e+002
3.387652e+002, 5.010423e+002
3.392473e+002, 5.003803e+002
3.397294e+002, 5.008422e+002
3.402115e+002, 5.012350e+002
3.406936e+002, 5.017515e+002
3.411758e+002, 5.020408e+002
3.416579e+002, 5.017712e+002
3.421400e+002, 5.010712e+002
3.426221e+002, 5.003859e+002
3.431042e+002, 5.001158e+002
3.435863e+002, 5.002579e+002
3.440685e+002, 5.002223e+002
3.445506e+002, 4.996032e+002
3.450327e+002, 4.992149e+002
3.455148e+002, 4.995060e+002
3.459969e+002, 5.000981e+002
3.464790e+002, 5.003729e+002
3.469612e+002, 4.999770e+002
3.474433e+002, 4.991188e+002
3.479254e+002, 4.984290e+002
3.484075e+002, 4.978528e+002
3.488896e+002, 4.975816e+002
3.493717e+002, 4.978564e+002
3.498539e+002, 4.982850e+002
3.503360e+002, 4.985534e+002
3.508181e+002, 4.985595e+002
3.513002e+002, 4.983706e+002
3.517823e+002, 4.980163e+002
3.522644e+002, 4.973584e+002
3.527466e+002, 4.970005e+002
3.532287e+002, 4.972346e+002
3.537108e+002, 4.975589e+002
3.541929e+002, 4.978458e+002
3.546750e+002, 4.980157e+002
3.551571e+002, 4.979047e+002
3.556393e+002, 4.971808e+002
3.561214e+002, 4.958508e+002
3.566035e+002, 4.952728e+002
3.570856e+002, 4.960087e+002
3.575677e+002, 4.968850e+002
3.580498e+002, 4.976270e+002
3.585320e+002, 4.981904e+002
3.590141e+002, 4.985457e+002
3.594962e+002, 4.986869e+002
3.599783e+002, 4.985906e+002
3.604604e+002, 4.980404e+002
3.609425e+002, 4.965531e+002
3.614247e+002, 4.957603e+002
3.619068e+002, 4.967579e+002
3.623889e+002, 4.982809e+002
3.628710e+002, 4.991679e+002
3.633531e+002, 4.990919e+002
3.638352e+002, 4.986780e+002
3.643174e+002, 4.985943e+002
3.647995e+002, 4.988480e+002
3.652816e+002, 4.993721e+002
3.657637e+002, 5.003864e+002
3.662458e+002, 5.014756e+002
3.667279e+002, 5.024351e+002
3.672101e+002, 5.032420e+002
3.676922e+002, 5.038701e+002
3.681743e+002, 5.043148e+002
3.686564e+002, 5.045702e+002
3.691385e+002, 5.044969e+002
3.696206e+002, 5.037514e+002
3.701028e+002, 5.033502e+002
3.705849e+002, 5.041045e+002
3.710670e+002, 5.055669e+002
3.715491e+002, 5.069624e+002
3.720312e+002, 5.079710e+002
3.725133e+002, 5.088442e+002
3.729955e+002, 5.100840e+002
3.734776e+002, 5.117650e+002
3.739597e+002, 5.130402e+002
3.744418e+002, 5.133130e+002
3.749239e+002, 5.131109e+002
3.754060e+002, 5.130049e+002
3.758882e+002, 5.129679e+002
3.763703e+002, 5.133318e+002
3.768524e+002, 5.147000e+002
3.773345e+002, 5.167591e+002
3.778166e+002, 5.181155e+002
3.782987e+002, 5.181646e+002
3.787809e+002, 5.179663e+002
3.792630e+002, 5.186978e+002
3.797451e+002, 5.202502e+002
3.802272e+002, 5.220121e+002
3.807093e+002, 5.240676e+002
3.811914e+002, 5.260883e+002
3.816736e+002, 5.274357e+002
3.821557e+002, 5.280208e+002
3.826378e+002, 5.288394e+002
3.831199e+002, 5.307271e+002
3.836020e+002, 5.334689e+002
3.840841e+002, 5.359118e+002
3.845663e+002, 5.378932e+002
3.850484e+002, 5.397184e+002
3.855305e+002, 5.414794e+002
3.860126e+002, 5.432122e+002
3.864947e+002, 5.450287e+002
3.869768e+002, 5.469557e+002
3.874590e+002, 5.490207e+002
3.879411e+002, 5.513954e+002
3.884232e+002, 5.543585e+002
3.889053e+002, 5.567747e+002
3.893874e+002, 5.580643e+002
3.898695e+002, 5.588588e+002
3.903517e+002, 5.597658e+002
3.908338e+002, 5.609257e+002
3.913159e+002, 5.624301e+002
3.917980e+002, 5.645642e+002
3.922801e+002, 5.674994e+002
3.927622e+002, 5.691520e+002
3.932444e+002, 5.683482e+002
3.937265e+002, 5.674974e+002
3.942086e+002, 5.681279e+002
3.946907e+002, 5.697512e+002
3.951728e+002, 5.709549e+002
3.956549e+002, 5.709094e+002
3.961371e+002, 5.698396e+002
3.966192e+002, 5.686375e+002
3.971013e+002, 5.669762e+002
3.975834e+002, 5.655917e+002
3.980655e+002, 5.649748e+002
3.985476e+002, 5.644422e+002
3.990298e+002, 5.632922e+002
3.995119e+002, 5.613511e+002
3.999940e+002, 5.589465e+002
4.004761e+002, 5.565119e+002
4.009582e+002, 5.541061e+002
4.014403e+002, 5.514608e+002
4.019225e+002, 5.482275e+002
4.024046e+002, 5.451196e+002
4.028867e+002, 5.426710e+002
4.033688e+002, 5.406417e+002
4.038509e+002, 5.383508e+002
4.043330e+002, 5.352738e+002
4.048152e+002, 5.315759e+002
4.052973e+002, 5.282272e+002
4.057794e+002, 5.254754e+002
4.062615e+002, 5.227007e+002
4.067436e+002, 5.198111e+002
4.072257e+002, 5.168276e+002
4.077079e+002, 5.137481e+002
4.081900e+002, 5.105635e+002
4.086721e+002, 5.074002e+002
4.091542e+002, 5.043473e+002
4.096363e+002, 5.013069e+002
4.101184e+002, 4.988088e+002
4.106006e+002, 4.976468e+002
4.110827e+002, 4.963819e+002
4.115648e+002, 4.941580e+002
4.120469e+002, 4.911570e+002
4.125290e+002, 4.881506e+002
4.130111e+002, 4.855721e+002
