##NAMES=Clinohumite
##RRUFFID=R040122
##IDEAL CHEMISTRY=Mg_9_(SiO_4_)_4_F_2_
##LOCALITY=Anzahamazonono,  Madagascar
##OWNER=RRUFF
##SOURCE=University of Arizona Mineral Museum
##DESCRIPTION=Orange-brown blebs embedded in calcite matrix
##STATUS=The identification of this mineral has been confirmed by X-ray diffraction and chemical analysis
##URL=rruff.info/R040122
##MEASURED CHEMISTRY=(Mg_0.96_Fe_0.02_Ti_0.01_Ca_0.01_)_9_(SiO_4_)_4_(F_0.59_(OH)_0.41_)_2_
160.2684, 2163.812
160.7505, 2177.346
161.2326, 2192.885
161.7147, 2204.439
162.1969, 2205.496
162.6790, 2202.919
163.1611, 2203.324
163.6432, 2208.688
164.1253, 2217.729
164.6074, 2232.207
165.0896, 2252.269
165.5717, 2269.205
166.0538, 2274.259
166.5359, 2273.800
167.0180, 2276.948
167.5002, 2289.411
167.9823, 2305.709
168.4644, 2322.808
168.9465, 2340.904
169.4286, 2356.900
169.9107, 2367.532
170.3929, 2374.292
170.8750, 2380.602
171.3571, 2388.106
171.8392, 2396.005
172.3213, 2403.441
172.8034, 2410.196
173.2856, 2416.606
173.7677, 2421.742
174.2498, 2426.427
174.7319, 2433.348
175.2140, 2444.283
175.6961, 2458.424
176.1783, 2475.514
176.6604, 2497.405
177.1425, 2518.448
177.6246, 2529.988
178.1067, 2533.150
178.5888, 2536.004
179.0710, 2543.850
179.5531, 2555.586
180.0352, 2568.774
180.5173, 2582.645
180.9994, 2597.771
181.4815, 2616.136
181.9637, 2637.752
182.4458, 2657.878
182.9279, 2671.388
183.4100, 2679.838
183.8921, 2689.802
184.3742, 2706.496
184.8564, 2724.472
185.3385, 2729.025
185.8206, 2719.473
186.3027, 2705.239
186.7848, 2693.465
187.2669, 2684.418
187.7491, 2679.721
188.2312, 2682.140
188.7133, 2689.429
189.1954, 2693.142
189.6775, 2692.832
190.1596, 2690.810
190.6418, 2688.452
191.1239, 2685.872
191.6060, 2686.621
192.0881, 2693.211
192.5702, 2705.016
193.0523, 2717.229
193.5345, 2730.408
194.0166, 2742.490
194.4987, 2750.195
194.9808, 2753.442
195.4629, 2753.556
195.9450, 2746.436
196.4272, 2732.368
196.9093, 2735.112
197.3914, 2759.605
197.8735, 2794.321
198.3556, 2819.643
198.8377, 2835.547
199.3199, 2842.033
199.8020, 2833.678
200.2841, 2808.782
200.7662, 2796.845
201.2483, 2803.073
201.7304, 2819.960
202.2126, 2828.404
202.6947, 2826.266
203.1768, 2823.663
203.6589, 2827.926
204.1410, 2840.542
204.6231, 2848.897
205.1053, 2850.769
205.5874, 2848.152
206.0695, 2847.800
206.5516, 2850.426
207.0337, 2853.443
207.5159, 2854.993
207.9980, 2854.695
208.4801, 2854.647
208.9622, 2855.218
209.4443, 2856.230
209.9264, 2856.802
210.4086, 2856.823
210.8907, 2856.617
211.3728, 2856.731
211.8549, 2857.754
212.3370, 2857.179
212.8191, 2855.078
213.3013, 2851.241
213.7834, 2841.674
214.2655, 2820.609
214.7476, 2803.070
215.2297, 2803.535
215.7118, 2828.016
216.1940, 2854.490
216.6761, 2881.816
217.1582, 2909.597
217.6403, 2923.941
218.1224, 2918.328
218.6045, 2907.790
219.0867, 2906.962
219.5688, 2919.356
220.0509, 2933.666
220.5330, 2949.977
221.0151, 2968.803
221.4972, 2973.887
221.9794, 2957.361
222.4615, 2935.939
222.9436, 2927.840
223.4257, 2938.706
223.9078, 2951.377
224.3899, 2961.262
224.8721, 2967.893
225.3542, 2980.398
225.8363, 3003.695
226.3184, 3028.309
226.8005, 3043.045
227.2826, 3044.313
227.7648, 3042.074
228.2469, 3036.962
228.7290, 3027.685
229.2111, 3026.269
229.6932, 3037.242
230.1753, 3052.420
230.6575, 3060.935
231.1396, 3059.181
231.6217, 3056.915
232.1038, 3055.889
232.5859, 3055.365
233.0680, 3061.300
233.5502, 3080.696
234.0323, 3101.516
234.5144, 3104.503
234.9965, 3076.526
235.4786, 3052.902
235.9607, 3045.544
236.4429, 3058.751
236.9250, 3068.489
237.4071, 3073.525
237.8892, 3075.776
238.3713, 3076.888
238.8534, 3070.483
239.3356, 3073.969
239.8177, 3097.994
240.2998, 3154.478
240.7819, 3184.656
241.2640, 3179.419
241.7461, 3153.677
242.2283, 3131.477
242.7104, 3109.159
243.1925, 3096.519
243.6746, 3098.627
244.1567, 3120.826
244.6388, 3139.997
245.1210, 3156.466
245.6031, 3169.709
246.0852, 3178.337
246.5673, 3180.749
247.0494, 3181.216
247.5316, 3180.288
248.0137, 3175.990
248.4958, 3177.550
248.9779, 3188.267
249.4600, 3202.986
249.9421, 3211.564
250.4243, 3210.996
250.9064, 3209.833
251.3885, 3212.185
251.8706, 3221.268
252.3527, 3221.755
252.8348, 3206.944
253.3170, 3187.685
253.7991, 3186.942
254.2812, 3215.784
254.7633, 3241.914
255.2454, 3251.995
255.7275, 3240.580
256.2097, 3232.417
256.6918, 3226.159
257.1739, 3224.157
257.6560, 3232.806
258.1381, 3259.099
258.6202, 3281.628
259.1024, 3291.184
259.5845, 3283.799
260.0666, 3279.355
260.5487, 3277.861
261.0308, 3279.327
261.5129, 3284.709
261.9951, 3296.268
262.4772, 3306.248
262.9593, 3311.802
263.4414, 3312.833
263.9235, 3309.419
264.4056, 3299.285
264.8878, 3286.784
265.3699, 3279.160
265.8520, 3276.881
266.3341, 3277.983
266.8162, 3282.313
267.2983, 3290.337
267.7805, 3298.636
268.2626, 3307.798
268.7447, 3316.497
269.2268, 3321.316
269.7089, 3320.400
270.1910, 3322.212
270.6732, 3330.072
271.1553, 3344.259
271.6374, 3364.239
272.1195, 3395.188
272.6016, 3424.360
273.0837, 3426.498
273.5659, 3396.284
274.0480, 3366.387
274.5301, 3347.376
275.0122, 3339.425
275.4943, 3344.540
275.9764, 3367.801
276.4586, 3394.572
276.9407, 3400.705
277.4228, 3383.831
277.9049, 3366.347
278.3870, 3353.912
278.8691, 3346.853
279.3513, 3356.445
279.8334, 3387.605
280.3155, 3422.772
280.7976, 3436.083
281.2797, 3426.510
281.7618, 3416.511
282.2440, 3413.104
282.7261, 3416.103
283.2082, 3425.600
283.6903, 3442.906
284.1724, 3461.886
284.6545, 3475.887
285.1367, 3484.835
285.6188, 3489.844
286.1009, 3491.361
286.5830, 3489.245
287.0651, 3481.242
287.5472, 3466.516
288.0294, 3451.347
288.5115, 3441.508
288.9936, 3436.979
289.4757, 3437.954
289.9578, 3447.402
290.4399, 3461.662
290.9221, 3471.289
291.4042, 3476.206
291.8863, 3477.446
292.3684, 3471.246
292.8505, 3460.673
293.3326, 3459.558
293.8148, 3479.107
294.2969, 3506.835
294.7790, 3517.241
295.2611, 3510.301
295.7432, 3498.884
296.2253, 3489.981
296.7075, 3484.973
297.1896, 3488.407
297.6717, 3505.803
298.1538, 3528.646
298.6359, 3544.152
299.1180, 3552.841
299.6002, 3559.191
300.0823, 3567.481
300.5644, 3575.869
301.0465, 3580.203
301.5286, 3575.694
302.0107, 3571.340
302.4929, 3579.022
302.9750, 3597.083
303.4571, 3615.575
303.9392, 3628.139
304.4213, 3637.094
304.9034, 3644.689
305.3856, 3647.245
305.8677, 3655.142
306.3498, 3686.260
306.8319, 3732.899
307.3140, 3768.463
307.7961, 3768.994
308.2783, 3754.225
308.7604, 3743.626
309.2425, 3743.351
309.7246, 3743.184
310.2068, 3733.134
310.6889, 3717.646
311.1710, 3708.121
311.6531, 3712.411
312.1352, 3723.317
312.6173, 3735.409
313.0995, 3746.813
313.5816, 3761.903
314.0637, 3787.684
314.5458, 3818.374
315.0279, 3843.309
315.5100, 3851.288
315.9922, 3857.796
316.4743, 3870.852
316.9564, 3892.037
317.4385, 3917.068
317.9206, 3955.285
318.4027, 3994.070
318.8849, 4015.792
319.3670, 4002.550
319.8491, 3983.022
320.3312, 3968.045
320.8133, 3959.719
321.2954, 3947.727
321.7776, 3920.985
322.2597, 3892.971
322.7418, 3878.052
323.2239, 3899.267
323.7060, 3912.828
324.1881, 3902.889
324.6703, 3866.209
325.1524, 3842.347
325.6345, 3849.296
326.1166, 3862.247
326.5987, 3861.203
327.0808, 3829.851
327.5630, 3803.504
328.0451, 3784.774
328.5272, 3773.742
329.0093, 3772.916
329.4914, 3792.173
329.9735, 3812.673
330.4557, 3822.233
330.9378, 3817.273
331.4199, 3806.874
331.9020, 3786.635
332.3841, 3760.606
332.8662, 3749.276
333.3484, 3757.994
333.8305, 3773.467
334.3126, 3790.600
334.7947, 3812.987
335.2768, 3824.864
335.7589, 3822.658
336.2411, 3811.028
336.7232, 3801.027
337.2053, 3792.707
337.6874, 3786.083
338.1695, 3781.360
338.6516, 3778.748
339.1338, 3776.283
339.6159, 3773.435
340.0980, 3771.561
340.5801, 3773.734
341.0622, 3780.456
341.5443, 3786.850
342.0265, 3789.796
342.5086, 3790.009
342.9907, 3794.944
343.4728, 3805.124
343.9549, 3817.816
344.4370, 3831.153
344.9192, 3844.716
345.4013, 3854.999
345.8834, 3860.647
346.3655, 3862.026
346.8476, 3857.949
347.3297, 3848.218
347.8119, 3839.152
348.2940, 3834.146
348.7761, 3834.305
349.2582, 3843.793
349.7403, 3869.222
350.2224, 3899.113
350.7046, 3918.467
351.1867, 3927.868
351.6688, 3930.443
352.1509, 3926.124
352.6330, 3917.063
353.1151, 3905.153
353.5973, 3887.058
354.0794, 3873.313
354.5615, 3878.455
355.0436, 3896.791
355.5257, 3910.988
356.0078, 3908.170
356.4900, 3898.906
356.9721, 3892.999
357.4542, 3893.637
357.9363, 3891.919
358.4184, 3878.372
358.9005, 3859.562
359.3827, 3846.847
359.8648, 3850.392
360.3469, 3856.629
360.8290, 3857.767
361.3111, 3852.131
361.7932, 3848.858
362.2754, 3853.718
362.7575, 3861.338
363.2396, 3865.896
363.7217, 3859.259
364.2038, 3856.193
364.6859, 3864.291
365.1681, 3883.793
365.6502, 3894.665
366.1323, 3880.862
366.6144, 3866.122
367.0965, 3866.947
367.5786, 3903.556
368.0608, 3931.555
368.5429, 3946.810
369.0250, 3950.864
369.5071, 3950.905
369.9892, 3942.294
370.4713, 3935.056
370.9535, 3934.437
371.4356, 3943.897
371.9177, 3952.113
372.3998, 3958.627
372.8819, 3964.011
373.3640, 3969.450
373.8462, 3975.049
374.3283, 3980.476
374.8104, 3986.956
375.2925, 3995.288
375.7746, 3993.344
376.2567, 3976.459
376.7389, 3958.508
377.2210, 3962.339
377.7031, 3989.895
378.1852, 4010.977
378.6673, 4014.325
379.1494, 4003.961
379.6316, 3996.463
380.1137, 3991.974
380.5958, 3989.634
381.0779, 3988.200
381.5600, 3988.092
382.0421, 3992.272
382.5243, 4004.276
383.0064, 4017.254
383.4885, 4018.542
383.9706, 4009.366
384.4527, 3998.687
384.9348, 3991.136
385.4170, 3986.385
385.8991, 3983.080
386.3812, 3980.176
386.8633, 3981.385
387.3454, 3992.124
387.8275, 4009.650
388.3097, 4027.927
388.7918, 4047.903
389.2739, 4064.659
389.7560, 4073.853
390.2381, 4074.876
390.7202, 4071.653
391.2024, 4062.506
391.6845, 4051.584
392.1666, 4043.555
392.6487, 4043.386
393.1309, 4043.265
393.6130, 4038.996
394.0951, 4031.075
394.5772, 4025.908
395.0593, 4026.165
395.5414, 4029.023
396.0236, 4032.748
396.5057, 4044.260
396.9878, 4048.129
397.4699, 4038.727
397.9520, 4020.034
398.4341, 4004.415
398.9163, 3986.545
399.3984, 3977.394
399.8805, 3983.451
400.3626, 4013.833
400.8447, 4031.150
401.3268, 4025.663
401.8090, 4014.295
402.2911, 4025.328
402.7732, 4073.787
403.2553, 4104.094
403.7374, 4093.862
404.2195, 4046.407
404.7017, 4023.874
405.1838, 4031.202
405.6659, 4050.202
406.1480, 4066.744
406.6301, 4080.938
407.1122, 4090.800
407.5944, 4094.966
408.0765, 4095.645
408.5586, 4096.592
409.0407, 4097.856
409.5228, 4102.579
410.0049, 4117.300
410.4871, 4137.127
410.9692, 4146.641
411.4513, 4142.262
411.9334, 4135.813
412.4155, 4141.545
412.8976, 4156.409
413.3798, 4171.251
413.8619, 4185.808
414.3440, 4196.231
414.8261, 4196.283
415.3082, 4185.926
415.7903, 4175.808
416.2725, 4170.148
416.7546, 4169.544
417.2367, 4174.789
417.7188, 4190.385
418.2009, 4207.110
418.6830, 4220.816
419.1652, 4232.200
419.6473, 4243.277
420.1294, 4254.985
420.6115, 4266.481
421.0936, 4277.234
421.5757, 4285.801
422.0579, 4296.155
422.5400, 4307.458
423.0221, 4321.128
423.5042, 4339.893
423.9863, 4370.269
424.4684, 4398.307
424.9506, 4421.788
425.4327, 4440.429
425.9148, 4453.059
426.3969, 4453.288
426.8790, 4454.771
427.3611, 4471.220
427.8433, 4509.222
428.3254, 4541.444
428.8075, 4563.963
429.2896, 4578.071
429.7717, 4586.997
430.2538, 4590.245
430.7360, 4591.172
431.2181, 4593.009
431.7002, 4595.266
432.1823, 4588.759
432.6644, 4570.845
433.1465, 4551.422
433.6287, 4544.909
434.1108, 4549.399
434.5929, 4555.704
435.0750, 4561.513
435.5571, 4566.116
436.0392, 4568.669
436.5214, 4569.129
437.0035, 4566.586
437.4856, 4558.845
437.9677, 4548.125
438.4498, 4535.877
438.9319, 4515.583
439.4141, 4505.609
439.8962, 4530.540
440.3783, 4577.043
440.8604, 4611.481
441.3425, 4616.383
441.8246, 4606.545
442.3068, 4586.050
442.7889, 4551.491
443.2710, 4525.152
443.7531, 4519.356
444.2352, 4522.371
444.7173, 4521.120
445.1995, 4512.700
445.6816, 4501.107
446.1637, 4484.298
446.6458, 4463.330
447.1279, 4448.454
447.6100, 4445.624
448.0922, 4442.280
448.5743, 4430.295
449.0564, 4402.848
449.5385, 4386.119
450.0206, 4386.837
450.5027, 4393.084
450.9849, 4377.263
451.4670, 4332.808
451.9491, 4300.672
452.4312, 4302.189
452.9133, 4332.045
453.3954, 4348.011
453.8776, 4348.898
454.3597, 4344.249
454.8418, 4342.338
455.3239, 4342.547
455.8060, 4342.286
456.2881, 4340.594
456.7703, 4338.746
457.2524, 4338.909
457.7345, 4340.633
458.2166, 4342.084
458.6987, 4337.480
459.1808, 4334.393
459.6630, 4343.875
460.1451, 4369.129
460.6272, 4391.968
461.1093, 4400.344
461.5914, 4399.722
462.0735, 4396.654
462.5557, 4388.006
463.0378, 4382.492
463.5199, 4387.097
464.0020, 4399.810
464.4841, 4405.667
464.9662, 4391.801
465.4484, 4377.456
465.9305, 4373.375
466.4126, 4390.349
466.8947, 4398.931
467.3768, 4392.953
467.8589, 4381.279
468.3411, 4378.828
468.8232, 4390.264
469.3053, 4401.614
469.7874, 4408.171
470.2695, 4410.483
470.7516, 4419.298
471.2338, 4435.819
471.7159, 4455.014
472.1980, 4476.817
472.6801, 4500.859
473.1622, 4507.245
473.6443, 4488.586
474.1265, 4460.309
474.6086, 4448.752
475.0907, 4451.999
475.5728, 4457.665
476.0550, 4457.817
476.5371, 4456.715
477.0192, 4462.413
477.5013, 4475.273
477.9834, 4488.326
478.4655, 4493.882
478.9477, 4497.155
479.4298, 4505.252
479.9119, 4526.006
480.3940, 4544.967
480.8761, 4551.166
481.3582, 4549.084
481.8404, 4551.538
482.3225, 4570.345
482.8046, 4588.322
483.2867, 4597.657
483.7688, 4596.112
484.2509, 4591.359
484.7331, 4579.709
485.2152, 4567.383
485.6973, 4560.006
486.1794, 4559.501
486.6615, 4560.577
487.1436, 4561.731
487.6258, 4563.854
488.1079, 4572.256
488.5900, 4589.238
489.0721, 4606.015
489.5542, 4617.663
490.0363, 4624.212
490.5185, 4629.212
491.0006, 4632.206
491.4827, 4635.337
491.9648, 4642.312
492.4469, 4652.296
492.9290, 4660.640
493.4112, 4665.542
493.8933, 4667.961
494.3754, 4668.125
494.8575, 4666.464
495.3396, 4665.685
495.8217, 4668.721
496.3039, 4673.014
496.7860, 4675.318
497.2681, 4674.406
497.7502, 4674.590
498.2323, 4680.323
498.7144, 4687.929
499.1966, 4692.518
499.6787, 4688.456
500.1608, 4685.333
500.6429, 4686.170
501.1250, 4690.853
501.6071, 4696.370
502.0893, 4701.323
502.5714, 4708.185
503.0535, 4719.117
503.5356, 4739.415
504.0177, 4750.466
504.4998, 4748.442
504.9820, 4740.530
505.4641, 4738.518
505.9462, 4744.236
506.4283, 4745.987
506.9104, 4738.276
507.3925, 4724.517
507.8747, 4719.337
508.3568, 4723.141
508.8389, 4727.928
509.3210, 4724.907
509.8031, 4718.301
510.2852, 4723.235
510.7674, 4745.255
511.2495, 4763.097
511.7316, 4742.997
512.2137, 4703.141
512.6958, 4680.753
513.1779, 4710.575
513.6600, 4746.782
514.1422, 4757.532
514.6243, 4746.124
515.1064, 4737.350
515.5886, 4739.596
516.0707, 4748.418
516.5528, 4762.619
517.0349, 4789.630
517.5170, 4806.344
517.9991, 4803.087
518.4813, 4791.152
518.9634, 4784.112
519.4455, 4781.513
519.9276, 4785.060
520.4097, 4798.347
520.8918, 4818.740
521.3740, 4827.324
521.8561, 4818.917
522.3382, 4815.870
522.8203, 4841.229
523.3024, 4891.931
523.7845, 4913.517
524.2667, 4897.318
524.7488, 4873.958
525.2309, 4884.313
525.7130, 4919.853
526.1951, 4950.583
526.6772, 4964.374
527.1594, 4970.308
527.6415, 4975.553
528.1236, 4980.994
528.6057, 4990.748
529.0878, 5015.322
529.5699, 5039.672
530.0521, 5050.261
530.5342, 5041.974
531.0163, 5035.958
531.4984, 5039.472
531.9805, 5048.427
532.4626, 5058.462
532.9448, 5066.350
533.4269, 5078.632
533.9090, 5097.561
534.3911, 5121.577
534.8732, 5144.874
535.3553, 5171.298
535.8375, 5190.079
536.3196, 5193.273
536.8017, 5179.763
537.2838, 5177.051
537.7659, 5187.859
538.2480, 5200.412
538.7302, 5199.646
539.2123, 5187.895
539.6944, 5180.897
540.1765, 5181.456
540.6586, 5189.341
541.1407, 5211.535
541.6229, 5242.710
542.1050, 5264.149
542.5871, 5256.515
543.0692, 5240.750
543.5513, 5234.821
544.0334, 5239.738
544.5156, 5248.645
544.9977, 5262.696
545.4798, 5276.917
545.9619, 5287.516
546.4440, 5296.935
546.9261, 5298.018
547.4083, 5285.301
547.8904, 5264.364
548.3725, 5244.984
548.8546, 5224.104
549.3367, 5209.987
549.8188, 5208.002
550.3010, 5216.354
550.7831, 5213.445
551.2652, 5197.577
551.7473, 5176.024
552.2294, 5150.728
552.7115, 5122.661
553.1937, 5104.018
553.6758, 5097.001
554.1579, 5094.266
554.6400, 5086.733
555.1221, 5076.070
555.6042, 5067.018
556.0864, 5059.344
556.5685, 5055.816
557.0506, 5061.704
557.5327, 5074.744
558.0148, 5086.461
558.4969, 5090.604
558.9791, 5093.782
559.4612, 5102.048
559.9433, 5118.694
560.4254, 5126.307
560.9075, 5110.265
561.3896, 5090.287
561.8718, 5083.469
562.3539, 5095.459
562.8360, 5112.107
563.3181, 5137.728
563.8002, 5164.695
564.2823, 5173.316
564.7645, 5160.435
565.2466, 5142.422
565.7287, 5119.954
566.2108, 5097.237
566.6929, 5103.697
567.1750, 5140.795
567.6572, 5172.740
568.1393, 5155.174
568.6214, 5112.904
569.1035, 5099.206
569.5856, 5127.656
570.0677, 5162.962
570.5499, 5178.260
571.0320, 5180.786
571.5141, 5182.172
571.9962, 5186.363
572.4783, 5190.532
572.9604, 5190.637
573.4426, 5188.607
573.9247, 5194.459
574.4068, 5211.931
574.8889, 5235.977
575.3710, 5268.150
575.8531, 5312.925
576.3353, 5339.002
576.8174, 5338.610
577.2995, 5330.668
577.7816, 5332.798
578.2637, 5345.764
578.7458, 5361.114
579.2280, 5378.162
579.7101, 5396.104
580.1922, 5413.134
580.6743, 5429.579
581.1564, 5447.272
581.6385, 5473.789
582.1207, 5498.481
582.6028, 5503.545
583.0849, 5491.162
583.5670, 5478.760
584.0491, 5477.359
584.5313, 5479.571
585.0134, 5478.516
585.4955, 5470.114
585.9776, 5468.466
586.4597, 5484.951
586.9418, 5506.799
587.4240, 5519.576
587.9061, 5523.310
588.3882, 5516.687
588.8703, 5491.899
589.3524, 5458.737
589.8345, 5449.514
590.3167, 5471.327
590.7988, 5489.750
591.2809, 5487.874
591.7630, 5469.894
592.2451, 5452.689
592.7272, 5435.763
593.2094, 5431.794
593.6915, 5464.718
594.1736, 5515.396
594.6557, 5544.029
595.1378, 5538.592
595.6199, 5532.756
596.1021, 5552.054
596.5842, 5586.684
597.0663, 5622.816
597.5484, 5655.297
598.0305, 5688.610
598.5126, 5721.327
598.9948, 5755.236
599.4769, 5798.817
599.9590, 5867.641
600.4411, 5928.209
600.9232, 5964.124
601.4053, 5972.656
601.8875, 6006.947
602.3696, 6077.910
602.8517, 6147.263
603.3338, 6173.401
603.8159, 6160.834
604.2980, 6169.298
604.7802, 6210.188
605.2623, 6256.066
605.7444, 6268.261
606.2265, 6256.524
606.7086, 6246.768
607.1907, 6254.835
607.6729, 6261.990
608.1550, 6254.646
608.6371, 6234.330
609.1192, 6205.759
609.6013, 6165.238
610.0834, 6121.721
610.5656, 6083.850
611.0477, 6055.147
611.5298, 6005.838
612.0119, 5915.071
612.4940, 5824.030
612.9761, 5762.676
613.4583, 5741.048
613.9404, 5713.291
614.4225, 5676.639
614.9046, 5635.471
615.3867, 5593.548
615.8688, 5550.939
616.3510, 5512.620
616.8331, 5477.780
617.3152, 5450.909
617.7973, 5446.977
618.2794, 5459.299
618.7615, 5461.742
619.2437, 5428.802
619.7258, 5388.857
620.2079, 5362.938
620.6900, 5352.288
621.1721, 5343.627
621.6542, 5333.556
622.1364, 5323.089
622.6185, 5312.294
623.1006, 5296.976
623.5827, 5291.002
624.0648, 5299.327
624.5469, 5312.457
625.0291, 5320.065
625.5112, 5322.332
625.9933, 5316.814
626.4754, 5299.998
626.9575, 5279.431
627.4396, 5270.628
627.9218, 5272.789
628.4039, 5279.803
628.8860, 5297.924
629.3681, 5314.323
629.8502, 5303.667
630.3323, 5270.294
630.8145, 5247.170
631.2966, 5264.774
631.7787, 5291.870
632.2608, 5306.569
632.7429, 5303.735
633.2250, 5297.624
633.7072, 5287.909
634.1893, 5277.869
634.6714, 5270.313
635.1535, 5266.845
635.6356, 5261.928
636.1177, 5253.794
636.5999, 5245.535
637.0820, 5243.696
637.5641, 5248.555
638.0462, 5253.620
638.5283, 5257.831
639.0104, 5260.082
639.4926, 5256.119
639.9747, 5247.199
640.4568, 5240.706
640.9389, 5243.329
641.4210, 5248.927
641.9031, 5251.563
642.3853, 5250.808
642.8674, 5250.792
643.3495, 5254.411
643.8316, 5258.503
644.3137, 5261.086
644.7958, 5262.725
645.2780, 5260.478
645.7601, 5248.541
646.2422, 5237.796
646.7243, 5244.366
647.2064, 5273.508
647.6885, 5290.878
648.1707, 5286.018
648.6528, 5272.524
649.1349, 5282.546
649.6170, 5312.024
650.0991, 5332.587
650.5812, 5322.980
651.0634, 5302.212
651.5455, 5295.813
652.0276, 5300.491
652.5097, 5298.852
652.9918, 5266.696
653.4739, 5236.891
653.9561, 5232.566
654.4382, 5260.489
654.9203, 5286.227
655.4024, 5309.547
