##NAMES=Clinozoisite
##RRUFFID=R060284
##IDEAL CHEMISTRY=Ca_2_Al_3_(Si_2_O_7_)(SiO_4_)O(OH)
##LOCALITY=near Zagi Mountain, Khaffor Dehri, North-West Frontier Province, Pakistan
##OWNER=RRUFF
##SOURCE=Herb Obodda
##DESCRIPTION=Greenish-brown fragment of a prismatic crystal
##STATUS=The identification of this mineral has been confirmed by X-ray diffraction and chemical analysis
##URL=rruff.info/R060284
##MEASURED CHEMISTRY=Ca_2.00_(Al_0.90_Fe^3+^_0.10_)_3_(Si_1.00_O_4_)(Si_2.00_O_7_)O(OH)
126.8146, 267.8842
127.2967, 275.4175
127.7788, 280.1505
128.2609, 283.4634
128.7430, 290.9624
129.2252, 307.1967
129.7073, 322.2553
130.1894, 333.8768
130.6715, 343.3188
131.1536, 351.9477
131.6357, 360.3734
132.1179, 368.9532
132.6000, 380.5246
133.0821, 396.9121
133.5642, 414.6986
134.0463, 434.5265
134.5284, 455.2355
135.0106, 474.9172
135.4927, 492.0214
135.9748, 506.7322
136.4569, 523.1297
136.9390, 541.0032
137.4211, 560.5125
137.9033, 583.9036
138.3854, 609.2226
138.8675, 632.0744
139.3496, 648.6975
139.8317, 659.0068
140.3138, 673.9448
140.7960, 692.8121
141.2781, 715.6545
141.7602, 746.3445
142.2423, 782.1268
142.7244, 813.6315
143.2065, 832.5906
143.6887, 838.6024
144.1708, 852.4501
144.6529, 877.4491
145.1350, 906.3550
145.6171, 936.7488
146.0992, 967.9277
146.5814, 997.8736
147.0635, 1024.666
147.5456, 1048.177
148.0277, 1072.724
148.5098, 1096.620
148.9919, 1122.693
149.4741, 1155.016
149.9562, 1193.561
150.4383, 1231.038
150.9204, 1261.489
151.4025, 1285.088
151.8846, 1308.773
152.3668, 1336.922
152.8489, 1362.850
153.3310, 1378.546
153.8131, 1383.107
154.2952, 1386.847
154.7773, 1399.464
155.2595, 1418.554
155.7416, 1433.542
156.2237, 1442.380
156.7058, 1446.514
157.1879, 1445.638
157.6700, 1438.777
158.1522, 1433.417
158.6343, 1438.183
159.1164, 1449.201
159.5985, 1457.135
160.0806, 1454.842
160.5627, 1449.920
161.0449, 1453.264
161.5270, 1465.858
162.0091, 1483.914
162.4912, 1509.822
162.9733, 1539.163
163.4554, 1563.853
163.9376, 1577.371
164.4197, 1585.409
164.9018, 1597.547
165.3839, 1613.784
165.8660, 1634.231
166.3481, 1661.896
166.8303, 1693.387
167.3124, 1723.151
167.7945, 1749.322
168.2766, 1772.344
168.7587, 1793.450
169.2408, 1813.252
169.7230, 1829.690
170.2051, 1840.851
170.6872, 1848.451
171.1693, 1855.150
171.6514, 1863.674
172.1335, 1871.447
172.6157, 1871.283
173.0978, 1860.117
173.5799, 1846.776
174.0620, 1837.266
174.5441, 1828.005
175.0262, 1813.866
175.5084, 1792.272
175.9905, 1764.197
176.4726, 1730.941
176.9547, 1688.516
177.4368, 1648.245
177.9189, 1616.225
178.4010, 1588.307
178.8832, 1558.710
179.3653, 1523.461
179.8474, 1485.348
180.3295, 1452.332
180.8116, 1426.293
181.2937, 1402.482
181.7759, 1379.542
182.2580, 1357.386
182.7401, 1335.488
183.2222, 1312.837
183.7043, 1291.441
184.1864, 1277.884
184.6686, 1277.614
185.1507, 1276.053
185.6328, 1269.530
186.1149, 1259.771
186.5970, 1247.826
187.0791, 1233.517
187.5613, 1219.192
188.0434, 1211.184
188.5255, 1212.783
189.0076, 1215.632
189.4897, 1218.636
189.9718, 1221.400
190.4540, 1223.731
190.9361, 1225.580
191.4182, 1226.587
191.9003, 1225.409
192.3824, 1219.143
192.8645, 1216.042
193.3467, 1218.833
193.8288, 1224.230
194.3109, 1229.150
194.7930, 1232.369
195.2751, 1234.745
195.7572, 1238.263
196.2394, 1244.282
196.7215, 1248.868
197.2036, 1248.595
197.6857, 1248.458
198.1678, 1253.058
198.6499, 1263.905
199.1321, 1278.601
199.6142, 1293.315
200.0963, 1310.093
200.5784, 1322.422
201.0605, 1326.579
201.5426, 1328.932
202.0248, 1334.455
202.5069, 1344.492
202.9890, 1356.540
203.4711, 1365.948
203.9532, 1369.011
204.4353, 1378.070
204.9175, 1398.056
205.3996, 1420.203
205.8817, 1439.113
206.3638, 1453.522
206.8459, 1465.072
207.3280, 1475.288
207.8102, 1481.866
208.2923, 1493.082
208.7744, 1512.930
209.2565, 1533.786
209.7386, 1551.854
210.2207, 1566.320
210.7029, 1578.171
211.1850, 1588.292
211.6671, 1596.267
212.1492, 1603.771
212.6313, 1609.272
213.1134, 1615.579
213.5956, 1623.892
214.0777, 1634.293
214.5598, 1646.385
215.0419, 1659.996
215.5240, 1675.340
216.0061, 1690.582
216.4883, 1707.268
216.9704, 1722.502
217.4525, 1733.270
217.9346, 1741.285
218.4167, 1751.497
218.8988, 1768.867
219.3810, 1793.727
219.8631, 1813.631
220.3452, 1823.387
220.8273, 1832.973
221.3094, 1845.917
221.7915, 1860.747
222.2737, 1873.902
222.7558, 1882.419
223.2379, 1887.005
223.7200, 1894.448
224.2021, 1903.823
224.6842, 1917.711
225.1664, 1939.369
225.6485, 1965.339
226.1306, 1990.225
226.6127, 2010.489
227.0948, 2028.126
227.5770, 2051.459
228.0591, 2082.675
228.5412, 2117.613
229.0233, 2155.859
229.5054, 2196.895
229.9875, 2240.042
230.4697, 2284.968
230.9518, 2332.109
231.4339, 2382.819
231.9160, 2436.330
232.3981, 2495.224
232.8802, 2566.127
233.3624, 2638.076
233.8445, 2700.778
234.3266, 2750.869
234.8087, 2795.941
235.2908, 2850.913
235.7729, 2926.995
236.2551, 2985.951
236.7372, 3021.146
237.2193, 3043.551
237.7014, 3059.038
238.1835, 3069.229
238.6656, 3074.267
239.1478, 3073.395
239.6299, 3064.880
240.1120, 3056.771
240.5941, 3049.207
241.0762, 3042.220
241.5583, 3038.002
242.0405, 3035.272
242.5226, 3028.899
243.0047, 3011.530
243.4868, 2981.567
243.9689, 2959.253
244.4510, 2936.524
244.9332, 2930.741
245.4153, 2956.083
245.8974, 3004.756
246.3795, 3056.576
246.8616, 3096.554
247.3437, 3126.797
247.8259, 3163.897
248.3080, 3209.931
248.7901, 3261.139
249.2722, 3318.312
249.7543, 3379.043
250.2364, 3439.307
250.7186, 3497.385
251.2007, 3553.698
251.6828, 3609.312
252.1649, 3663.167
252.6470, 3719.013
253.1291, 3787.137
253.6113, 3853.997
254.0934, 3904.771
254.5755, 3933.739
255.0576, 3946.198
255.5397, 3951.834
256.0219, 3953.311
256.5040, 3937.325
256.9861, 3888.198
257.4682, 3826.517
257.9503, 3764.678
258.4324, 3705.251
258.9146, 3646.274
259.3967, 3583.162
259.8788, 3515.304
260.3609, 3455.723
260.8430, 3413.526
261.3251, 3374.198
261.8073, 3325.084
262.2894, 3266.599
262.7715, 3210.634
263.2536, 3161.750
263.7357, 3121.040
264.2178, 3096.751
264.7000, 3095.888
265.1821, 3102.866
265.6642, 3106.013
266.1463, 3106.803
266.6284, 3110.265
267.1105, 3116.539
267.5927, 3127.483
268.0748, 3148.790
268.5569, 3183.168
269.0390, 3219.338
269.5211, 3247.128
270.0032, 3271.438
270.4854, 3301.426
270.9675, 3342.027
271.4496, 3387.135
271.9317, 3431.096
272.4138, 3474.022
272.8959, 3514.482
273.3781, 3551.708
273.8602, 3585.742
274.3423, 3617.870
274.8244, 3650.706
275.3065, 3677.003
275.7886, 3696.752
276.2708, 3707.375
276.7529, 3696.632
277.2350, 3656.175
277.7171, 3597.037
278.1992, 3536.797
278.6813, 3475.854
279.1635, 3413.156
279.6456, 3350.053
280.1277, 3284.647
280.6098, 3211.363
281.0919, 3127.275
281.5740, 3044.620
282.0562, 2979.953
282.5383, 2935.426
283.0204, 2885.599
283.5025, 2818.401
283.9846, 2750.639
284.4667, 2698.502
284.9489, 2662.674
285.4310, 2631.849
285.9131, 2597.478
286.3952, 2559.720
286.8773, 2524.038
287.3594, 2487.739
287.8416, 2455.807
288.3237, 2433.345
288.8058, 2417.409
289.2879, 2400.696
289.7700, 2379.227
290.2521, 2353.796
290.7343, 2328.009
291.2164, 2294.959
291.6985, 2269.940
292.1806, 2260.049
292.6627, 2257.757
293.1448, 2254.406
293.6270, 2246.895
294.1091, 2236.467
294.5912, 2225.401
295.0733, 2214.332
295.5554, 2201.085
296.0375, 2179.525
296.5197, 2160.397
297.0018, 2154.063
297.4839, 2159.898
297.9660, 2167.315
298.4481, 2164.475
298.9302, 2148.787
299.4124, 2140.999
299.8945, 2154.738
300.3766, 2162.573
300.8587, 2148.292
301.3408, 2120.669
301.8229, 2099.914
302.3050, 2100.660
302.7871, 2117.516
303.2693, 2122.430
303.7514, 2106.390
304.2335, 2091.075
304.7156, 2075.826
305.1977, 2065.686
305.6798, 2068.325
306.1620, 2086.957
306.6441, 2111.605
307.1262, 2123.929
307.6083, 2118.381
308.0904, 2121.064
308.5725, 2143.246
309.0547, 2170.618
309.5368, 2195.915
310.0189, 2218.210
310.5010, 2238.959
310.9831, 2256.549
311.4652, 2271.977
311.9474, 2297.758
312.4295, 2343.781
312.9116, 2386.935
313.3937, 2412.467
313.8758, 2424.428
314.3579, 2432.666
314.8401, 2440.578
315.3222, 2447.946
315.8043, 2456.106
316.2864, 2466.339
316.7685, 2469.633
317.2506, 2456.323
317.7328, 2434.269
318.2149, 2416.045
318.6970, 2402.475
319.1791, 2394.206
319.6612, 2393.395
320.1433, 2398.926
320.6255, 2405.466
321.1076, 2410.481
321.5897, 2416.909
322.0718, 2430.182
322.5539, 2450.549
323.0360, 2472.731
323.5182, 2495.888
324.0003, 2519.850
324.4824, 2543.972
324.9645, 2568.258
325.4466, 2594.465
325.9287, 2625.421
326.4109, 2661.781
326.8930, 2692.181
327.3751, 2710.191
327.8572, 2728.504
328.3393, 2752.051
328.8214, 2781.716
329.3036, 2819.052
329.7857, 2865.796
330.2678, 2919.850
330.7499, 2970.213
331.2320, 3006.154
331.7141, 3052.083
332.1963, 3119.489
332.6784, 3194.185
333.1605, 3260.496
333.6426, 3313.721
334.1247, 3361.064
334.6068, 3412.591
335.0890, 3466.142
335.5711, 3529.941
336.0532, 3612.569
336.5353, 3696.437
337.0174, 3771.027
337.4995, 3837.939
337.9817, 3906.384
338.4638, 3984.756
338.9459, 4071.080
339.4280, 4146.690
339.9101, 4200.634
340.3922, 4259.295
340.8744, 4335.162
341.3565, 4418.189
341.8386, 4495.446
342.3207, 4562.104
342.8028, 4622.758
343.2849, 4684.623
343.7671, 4748.581
344.2492, 4807.733
344.7313, 4853.799
345.2134, 4900.114
345.6955, 4958.198
346.1776, 5028.527
346.6598, 5101.694
347.1419, 5173.874
347.6240, 5244.276
348.1061, 5308.393
348.5882, 5361.878
349.0703, 5421.760
349.5525, 5509.884
350.0346, 5616.408
350.5167, 5711.571
350.9988, 5785.273
351.4809, 5850.064
351.9630, 5927.933
352.4452, 6011.308
352.9273, 6062.105
353.4094, 6064.285
353.8915, 6020.654
354.3736, 5931.552
354.8557, 5792.989
355.3379, 5631.922
355.8200, 5446.784
356.3021, 5245.707
356.7842, 5041.581
357.2663, 4835.940
357.7484, 4621.165
358.2306, 4384.247
358.7127, 4114.068
359.1948, 3884.195
359.6769, 3712.516
360.1590, 3557.489
360.6411, 3404.601
361.1233, 3253.612
361.6054, 3106.515
362.0875, 2962.799
362.5696, 2826.850
363.0517, 2714.262
363.5338, 2635.376
364.0160, 2565.258
364.4981, 2506.882
364.9802, 2451.198
365.4623, 2387.316
365.9444, 2314.548
366.4265, 2245.679
366.9087, 2197.276
367.3908, 2170.136
367.8729, 2144.299
368.3550, 2119.802
368.8371, 2095.583
369.3192, 2070.179
369.8014, 2044.472
370.2835, 2020.882
370.7656, 2001.892
371.2477, 1984.521
371.7298, 1962.218
372.2119, 1934.012
372.6941, 1910.994
373.1762, 1902.593
373.6583, 1899.310
374.1404, 1884.754
374.6225, 1853.790
375.1046, 1828.396
375.5868, 1824.098
376.0689, 1832.864
376.5510, 1840.399
377.0331, 1844.318
377.5152, 1842.793
377.9973, 1832.220
378.4795, 1811.407
378.9616, 1795.089
379.4437, 1785.032
379.9258, 1778.120
380.4079, 1772.561
380.8900, 1768.682
381.3722, 1767.532
381.8543, 1769.571
382.3364, 1775.048
382.8185, 1784.922
383.3006, 1801.406
383.7827, 1819.809
384.2649, 1840.780
384.7470, 1863.045
385.2291, 1884.846
385.7112, 1906.360
386.1933, 1930.648
386.6754, 1963.244
387.1576, 2005.104
387.6397, 2034.194
388.1218, 2041.457
388.6039, 2045.746
389.0860, 2056.128
389.5681, 2067.035
390.0503, 2068.194
390.5324, 2053.462
391.0145, 2032.448
391.4966, 2023.391
391.9787, 2028.777
392.4608, 2022.288
392.9430, 1991.557
393.4251, 1950.577
393.9072, 1910.397
394.3893, 1871.272
394.8714, 1839.067
395.3535, 1822.579
395.8357, 1812.832
396.3178, 1793.697
396.7999, 1763.404
397.2820, 1731.685
397.7641, 1704.863
398.2462, 1682.423
398.7284, 1659.960
399.2105, 1633.448
399.6926, 1611.587
400.1747, 1605.170
400.6568, 1603.954
401.1389, 1589.167
401.6211, 1554.452
402.1032, 1510.895
402.5853, 1474.142
403.0674, 1446.102
403.5495, 1420.142
404.0316, 1394.979
404.5138, 1372.499
404.9959, 1356.565
405.4780, 1344.120
405.9601, 1327.765
406.4422, 1302.230
406.9243, 1270.678
407.4065, 1244.372
407.8886, 1223.419
408.3707, 1207.903
408.8528, 1200.263
409.3349, 1195.871
409.8170, 1189.193
410.2992, 1180.024
410.7813, 1176.773
411.2634, 1193.132
411.7455, 1223.640
412.2276, 1236.672
412.7097, 1222.310
413.1919, 1209.355
413.6740, 1222.352
414.1561, 1250.720
414.6382, 1273.999
415.1203, 1285.494
415.6024, 1294.626
416.0846, 1305.514
416.5667, 1319.328
417.0488, 1341.244
417.5309, 1374.306
418.0130, 1411.012
418.4951, 1438.940
418.9773, 1452.490
419.4594, 1476.988
419.9415, 1521.012
420.4236, 1569.739
420.9057, 1614.434
421.3878, 1655.072
421.8700, 1694.625
422.3521, 1735.046
422.8342, 1776.449
423.3163, 1818.667
423.7984, 1856.118
424.2805, 1904.068
424.7627, 1973.855
425.2448, 2047.239
425.7269, 2108.533
426.2090, 2156.178
426.6911, 2199.638
427.1732, 2250.109
427.6554, 2306.525
428.1375, 2351.362
428.6196, 2383.166
429.1017, 2405.773
429.5838, 2422.129
430.0659, 2430.843
430.5481, 2428.309
431.0302, 2412.004
431.5123, 2387.941
431.9944, 2355.070
432.4765, 2317.536
432.9586, 2291.432
433.4408, 2282.441
433.9229, 2280.478
434.4050, 2273.081
434.8871, 2259.202
435.3692, 2252.901
435.8513, 2258.248
436.3335, 2268.438
436.8156, 2276.721
437.2977, 2286.335
437.7798, 2308.412
438.2619, 2349.633
438.7440, 2400.212
439.2262, 2433.331
439.7083, 2425.253
440.1904, 2442.686
440.6725, 2496.245
441.1546, 2564.735
441.6367, 2636.917
442.1189, 2711.267
442.6010, 2790.542
443.0831, 2876.266
443.5652, 2968.307
444.0473, 3066.587
444.5294, 3172.239
445.0116, 3281.119
445.4937, 3392.413
445.9758, 3506.961
446.4579, 3626.687
446.9400, 3751.734
447.4221, 3878.780
447.9043, 4002.585
448.3864, 4127.700
448.8685, 4265.843
449.3506, 4420.179
449.8327, 4573.139
450.3148, 4711.799
450.7970, 4837.128
451.2791, 4961.059
451.7612, 5101.996
452.2433, 5220.438
452.7254, 5299.547
453.2076, 5349.411
453.6897, 5385.525
454.1718, 5411.823
454.6539, 5417.268
455.1360, 5386.263
455.6181, 5314.877
456.1003, 5229.681
456.5824, 5133.669
457.0645, 5020.184
457.5466, 4873.818
458.0287, 4711.512
458.5108, 4560.798
458.9930, 4434.447
459.4751, 4316.903
459.9572, 4179.693
460.4393, 4022.769
460.9214, 3885.333
461.4035, 3780.359
461.8857, 3690.000
462.3678, 3595.590
462.8499, 3499.604
463.3320, 3416.238
463.8141, 3351.145
464.2962, 3298.376
464.7784, 3256.018
465.2605, 3222.312
465.7426, 3191.521
466.2247, 3161.479
466.7068, 3131.954
467.1889, 3102.609
467.6711, 3070.233
468.1532, 3045.447
468.6353, 3025.502
469.1174, 3015.242
469.5995, 3025.474
470.0816, 3048.713
470.5638, 3064.249
471.0459, 3057.719
471.5280, 3038.379
472.0101, 3034.831
472.4922, 3054.758
472.9743, 3069.573
473.4565, 3072.855
473.9386, 3069.049
474.4207, 3056.201
474.9028, 3036.226
475.3849, 3021.886
475.8670, 3028.576
476.3492, 3042.365
476.8313, 3035.000
477.3134, 3005.676
477.7955, 2983.332
478.2776, 2985.622
478.7597, 3001.400
479.2419, 3002.937
479.7240, 2985.195
480.2061, 2968.526
480.6882, 2953.202
481.1703, 2942.994
481.6524, 2947.480
482.1346, 2962.879
482.6167, 2969.959
483.0988, 2952.980
483.5809, 2917.170
484.0630, 2892.050
484.5451, 2890.013
485.0273, 2878.021
485.5094, 2847.709
485.9915, 2809.538
486.4736, 2774.298
486.9557, 2741.698
487.4378, 2700.111
487.9200, 2634.479
488.4021, 2553.104
488.8842, 2481.171
489.3663, 2419.904
489.8484, 2362.793
490.3305, 2307.514
490.8127, 2254.366
491.2948, 2204.362
491.7769, 2159.233
492.2590, 2112.016
492.7411, 2053.956
493.2232, 1996.597
493.7054, 1954.899
494.1875, 1929.207
494.6696, 1907.577
495.1517, 1880.549
495.6338, 1850.132
496.1159, 1828.881
496.5981, 1824.795
497.0802, 1819.169
497.5623, 1806.897
498.0444, 1794.604
498.5265, 1785.311
499.0086, 1780.802
499.4908, 1785.544
499.9729, 1809.027
500.4550, 1844.524
500.9371, 1863.577
501.4192, 1861.432
501.9013, 1862.898
502.3835, 1878.330
502.8656, 1904.351
503.3477, 1935.025
503.8298, 1970.822
504.3119, 2008.430
504.7940, 2051.516
505.2762, 2092.862
505.7583, 2121.066
506.2404, 2137.089
506.7225, 2152.686
507.2046, 2176.030
507.6867, 2205.006
508.1689, 2230.534
508.6510, 2260.975
509.1331, 2274.666
509.6152, 2255.903
510.0973, 2232.099
510.5794, 2227.966
511.0616, 2240.358
511.5437, 2244.559
512.0258, 2219.736
512.5079, 2176.008
512.9901, 2140.559
513.4722, 2114.815
513.9543, 2089.799
514.4364, 2060.223
514.9185, 2032.029
515.4006, 2012.974
515.8828, 2003.500
516.3649, 1996.196
516.8470, 1991.535
517.3291, 1986.040
517.8112, 1973.596
518.2933, 1956.609
518.7755, 1945.073
519.2576, 1944.699
519.7397, 1951.300
520.2218, 1955.458
520.7039, 1960.032
521.1860, 1956.246
521.6682, 1940.422
522.1503, 1920.810
522.6324, 1900.801
523.1145, 1880.626
523.5966, 1859.438
524.0787, 1835.595
524.5609, 1812.882
525.0430, 1799.321
525.5251, 1794.838
526.0072, 1787.209
526.4893, 1772.877
526.9714, 1755.588
527.4536, 1738.794
527.9357, 1722.411
528.4178, 1706.276
528.8999, 1691.678
529.3820, 1675.995
529.8641, 1656.284
530.3463, 1634.592
530.8284, 1616.834
531.3105, 1604.682
531.7926, 1590.757
532.2747, 1563.859
532.7568, 1521.147
533.2390, 1482.555
533.7211, 1452.045
534.2032, 1421.008
534.6853, 1387.032
535.1674, 1350.960
535.6495, 1312.842
536.1317, 1272.096
536.6138, 1233.576
537.0959, 1202.234
537.5780, 1176.808
538.0601, 1153.042
538.5422, 1130.285
539.0244, 1111.454
539.5065, 1099.585
539.9886, 1093.523
540.4707, 1087.474
540.9528, 1081.103
541.4349, 1075.121
541.9171, 1069.799
542.3992, 1064.850
542.8813, 1059.957
543.3634, 1055.105
543.8455, 1050.329
544.3276, 1045.316
544.8098, 1040.722
545.2919, 1039.134
545.7740, 1040.007
546.2561, 1045.492
546.7382, 1063.161
547.2203, 1080.366
547.7024, 1084.845
548.1845, 1077.568
548.6666, 1073.851
549.1487, 1081.200
549.6309, 1094.829
550.1130, 1111.836
550.5951, 1131.032
551.0772, 1146.667
551.5593, 1155.880
552.0414, 1164.332
552.5236, 1181.505
553.0057, 1210.343
553.4878, 1238.362
553.9699, 1261.856
554.4520, 1288.717
554.9341, 1321.383
555.4163, 1359.748
555.8984, 1403.566
556.3805, 1452.989
556.8626, 1506.440
557.3447, 1561.424
557.8268, 1618.437
558.3090, 1681.648
558.7911, 1751.759
559.2732, 1827.027
559.7553, 1906.108
560.2374, 1990.080
560.7195, 2080.250
561.2017, 2180.785
561.6838, 2280.659
562.1659, 2368.900
562.6480, 2459.296
563.1301, 2571.371
563.6122, 2703.315
564.0944, 2833.549
564.5765, 2945.104
565.0586, 3047.891
565.5407, 3182.668
566.0228, 3354.983
566.5049, 3545.007
566.9871, 3764.895
567.4692, 3990.609
567.9513, 4194.709
568.4334, 4387.388
568.9155, 4616.089
569.3976, 4926.089
569.8798, 5259.545
570.3619, 5571.270
570.8440, 5860.146
571.3261, 6132.231
571.8082, 6392.898
572.2903, 6603.087
572.7725, 6717.439
573.2546, 6735.220
573.7367, 6663.011
574.2188, 6498.106
574.7009, 6250.273
575.1830, 5879.916
575.6652, 5449.864
576.1473, 5015.075
576.6294, 4591.398
577.1115, 4188.026
577.5936, 3804.013
578.0757, 3446.440
578.5579, 3141.012
579.0400, 2890.159
579.5221, 2677.786
580.0042, 2503.217
580.4863, 2358.388
580.9684, 2231.316
581.4506, 2120.733
581.9327, 2025.612
582.4148, 1947.748
582.8969, 1884.606
583.3790, 1837.401
583.8611, 1803.498
584.3433, 1777.370
584.8254, 1756.777
585.3075, 1742.818
585.7896, 1738.178
586.2717, 1743.487
586.7538, 1750.880
587.2360, 1759.307
587.7181, 1771.090
588.2002, 1787.332
588.6823, 1807.851
589.1644, 1833.177
589.6465, 1864.722
590.1287, 1897.790
590.6108, 1929.550
591.0929, 1961.962
591.5750, 1998.801
592.0571, 2039.309
592.5392, 2077.580
593.0214, 2109.220
593.5035, 2136.792
593.9856, 2169.440
594.4677, 2211.605
594.9498, 2247.902
595.4319, 2267.828
595.9141, 2289.830
596.3962, 2328.226
596.8783, 2375.865
597.3604, 2413.383
597.8425, 2429.961
598.3246, 2441.138
598.8068, 2457.996
599.2889, 2480.728
599.7710, 2510.051
600.2531, 2546.230
600.7352, 2588.327
601.2173, 2636.280
601.6995, 2689.444
602.1816, 2742.736
602.6637, 2808.259
603.1458, 2856.518
603.6279, 2870.358
604.1100, 2878.217
604.5922, 2907.055
605.0743, 2951.633
605.5564, 2982.606
606.0385, 2979.939
606.5206, 2959.183
607.0027, 2946.839
607.4849, 2939.902
607.9670, 2913.595
608.4491, 2859.804
608.9312, 2792.059
609.4133, 2722.324
609.8954, 2650.475
610.3776, 2577.404
610.8597, 2503.530
611.3418, 2428.390
611.8239, 2352.382
612.3060, 2274.547
612.7881, 2194.060
613.2703, 2111.153
613.7524, 2027.677
614.2345, 1942.522
614.7166, 1859.860
615.1987, 1791.531
615.6808, 1738.058
616.1630, 1687.138
616.6451, 1635.420
617.1272, 1585.177
617.6093, 1538.526
618.0914, 1495.446
618.5735, 1457.655
619.0557, 1428.190
619.5378, 1400.655
620.0199, 1376.380
620.5020, 1350.764
620.9841, 1317.121
