##NAMES=Clinoatacamite
##RRUFFID=R141083
##IDEAL CHEMISTRY=Cu^2+^_2_Cl(OH)_3_
##LOCALITY=Lily mine, Ica Region, Peru
##OWNER=RRUFF
##SOURCE=Marcus Origlieri
##DESCRIPTION=Dark green crystals
##STATUS=The identification of this mineral has been confirmed by single-crystal X-ray diffraction.
##URL=rruff.info/R141083
88.46484, 980.2247
88.94696, 984.4766
89.42908, 984.0475
89.91119, 978.3207
90.39331, 971.5236
90.87543, 967.4063
91.35754, 964.8912
91.83966, 952.1702
92.32178, 922.9440
92.80389, 893.2479
93.28601, 864.1533
93.76813, 836.1345
94.25024, 809.2615
94.73236, 783.1667
95.21448, 757.3900
95.69659, 731.0858
96.17871, 705.1149
96.66083, 681.4680
97.14294, 661.7878
97.62506, 646.8332
98.10718, 636.2623
98.58929, 628.6744
99.07141, 628.5561
99.55353, 626.1801
100.0356, 617.1485
100.5178, 602.1375
100.9999, 584.9993
101.4820, 568.3473
101.9641, 552.1203
102.4462, 539.6894
102.9283, 532.7310
103.4105, 528.4936
103.8926, 524.1808
104.3747, 519.1891
104.8568, 514.7517
105.3389, 512.9720
105.8210, 513.3284
106.3032, 513.1168
106.7853, 512.5079
107.2674, 510.8425
107.7495, 504.4550
108.2316, 489.0049
108.7137, 471.9147
109.1959, 457.5620
109.6780, 446.2909
110.1601, 437.9295
110.6422, 433.0790
111.1243, 432.9856
111.6064, 431.9340
112.0886, 428.0046
112.5707, 423.6841
113.0528, 420.6299
113.5349, 419.3613
114.0170, 419.2658
114.4991, 418.9659
114.9813, 418.3434
115.4634, 417.6334
115.9455, 416.9732
116.4276, 416.2084
116.9097, 415.3385
117.3918, 414.4248
117.8740, 413.2499
118.3561, 410.1953
118.8382, 403.9727
119.3203, 397.6538
119.8024, 392.2442
120.2845, 387.5814
120.7667, 382.9259
121.2488, 377.5039
121.7309, 371.6661
122.2130, 367.2297
122.6951, 366.0975
123.1772, 365.2138
123.6594, 361.4635
124.1415, 354.3189
124.6236, 346.9182
125.1057, 341.4870
125.5878, 337.4727
126.0699, 334.2961
126.5521, 331.9722
127.0342, 330.3304
127.5163, 328.8487
127.9984, 327.6538
128.4805, 326.4517
128.9626, 325.0397
129.4448, 323.4917
129.9269, 322.0165
130.4090, 321.0995
130.8911, 320.9085
131.3732, 319.2370
131.8553, 314.0966
132.3375, 309.0406
132.8196, 305.2198
133.3017, 302.7712
133.7838, 301.3153
134.2659, 300.4951
134.7480, 300.6573
135.2302, 300.5997
135.7123, 300.1823
136.1944, 299.6803
136.6765, 298.9756
137.1586, 298.1300
137.6407, 297.7589
138.1229, 299.0638
138.6050, 303.9295
139.0871, 307.0468
139.5692, 307.4373
140.0513, 306.1144
140.5334, 304.4485
141.0156, 302.9838
141.4977, 301.1876
141.9798, 297.7144
142.4619, 292.2905
142.9440, 286.5611
143.4261, 280.9428
143.9083, 275.4832
144.3904, 270.3188
144.8725, 265.4984
145.3546, 261.0646
145.8367, 256.9755
146.3188, 253.2347
146.8010, 249.7786
147.2831, 246.6586
147.7652, 243.9291
148.2473, 241.0890
148.7294, 237.7831
149.2115, 234.3388
149.6937, 230.9129
150.1758, 227.4783
150.6579, 224.2988
151.1400, 221.9411
151.6221, 220.9500
152.1042, 219.7259
152.5864, 217.5039
153.0685, 215.0250
153.5506, 213.1525
154.0327, 212.3628
154.5148, 212.3519
154.9969, 211.7829
155.4791, 210.2139
155.9612, 208.4998
156.4433, 206.6822
156.9254, 204.8185
157.4075, 202.9419
157.8896, 201.0470
158.3718, 199.1544
158.8539, 197.7518
159.3360, 197.3769
159.8181, 196.8748
160.3002, 195.6972
160.7823, 194.0341
161.2645, 192.4859
161.7466, 191.5406
162.2287, 191.2207
162.7108, 190.7484
163.1929, 190.2616
163.6750, 189.5407
164.1572, 188.2661
164.6393, 186.4720
165.1214, 184.7361
165.6035, 183.6015
166.0856, 183.0070
166.5677, 182.3768
167.0499, 181.6367
167.5320, 180.8362
168.0141, 180.0643
168.4962, 179.3498
168.9783, 178.5518
169.4604, 177.4489
169.9426, 176.1611
170.4247, 174.9557
170.9068, 174.0055
171.3889, 173.2113
171.8710, 172.2811
172.3531, 171.1130
172.8353, 169.9606
173.3174, 168.9380
173.7995, 168.0336
174.2816, 167.2429
174.7637, 166.5381
175.2458, 165.9238
175.7280, 165.5038
176.2101, 165.5059
176.6922, 165.4806
177.1743, 165.3414
177.6564, 165.0429
178.1385, 164.5017
178.6207, 163.5709
179.1028, 162.1737
179.5849, 161.0099
180.0670, 160.2901
180.5491, 159.6230
181.0313, 158.7624
181.5134, 157.7683
181.9955, 156.9327
182.4776, 156.5996
182.9597, 156.9684
183.4418, 157.1337
183.9240, 157.0620
184.4061, 156.8647
184.8882, 156.5911
185.3703, 156.2539
185.8524, 155.8553
186.3345, 155.4059
186.8167, 154.9297
187.2988, 154.2788
187.7809, 153.2533
188.2630, 152.1797
188.7451, 151.3299
189.2272, 150.7542
189.7094, 150.3297
190.1915, 149.8964
190.6736, 149.4301
191.1557, 149.0855
191.6378, 149.1492
192.1199, 149.2395
192.6021, 148.8086
193.0842, 147.6838
193.5663, 146.3272
194.0484, 145.3192
194.5305, 144.6122
195.0126, 144.1011
195.4948, 143.9497
195.9769, 143.9537
196.4590, 143.6606
196.9411, 142.8913
197.4232, 141.9826
197.9053, 141.2573
198.3875, 140.6960
198.8696, 140.2195
199.3517, 139.8828
199.8338, 139.6295
200.3159, 139.1504
200.7980, 138.1272
201.2802, 137.2287
201.7623, 137.0505
202.2444, 137.4800
202.7265, 137.8666
203.2086, 137.6498
203.6907, 136.8515
204.1729, 136.1977
204.6550, 135.8954
205.1371, 135.6236
205.6192, 135.2021
206.1013, 134.6504
206.5834, 134.1005
207.0656, 133.7647
207.5477, 133.7268
208.0298, 133.3238
208.5119, 131.9147
208.9940, 130.6485
209.4761, 130.1245
209.9583, 130.2653
210.4404, 130.5137
210.9225, 130.2494
211.4046, 129.2933
211.8867, 128.5829
212.3689, 128.2525
212.8510, 128.0250
213.3331, 127.8212
213.8152, 127.6088
214.2973, 127.3569
214.7794, 127.0167
215.2616, 126.5226
215.7437, 126.1868
216.2258, 126.1180
216.7079, 126.0855
217.1900, 125.9855
217.6721, 125.7970
218.1543, 125.5252
218.6364, 125.1564
219.1185, 124.6255
219.6006, 124.2825
220.0827, 124.3756
220.5648, 124.4541
221.0470, 124.2028
221.5291, 123.5971
222.0112, 122.8075
222.4933, 121.9437
222.9754, 120.9325
223.4575, 120.4323
223.9397, 120.9756
224.4218, 121.6727
224.9039, 121.7544
225.3860, 121.1455
225.8681, 120.4043
226.3502, 120.1034
226.8324, 120.2765
227.3145, 120.2913
227.7966, 119.9113
228.2787, 119.4729
228.7608, 119.3542
229.2429, 119.6085
229.7251, 119.8699
230.2072, 119.7385
230.6893, 119.2932
231.1714, 119.0196
231.6535, 119.2144
232.1356, 119.5100
232.6178, 119.3264
233.0999, 118.5270
233.5820, 117.9274
234.0641, 118.5265
234.5462, 119.8332
235.0283, 120.7193
235.5105, 120.5807
235.9926, 119.9924
236.4747, 119.7937
236.9568, 120.0702
237.4389, 120.4185
237.9210, 120.6590
238.4032, 120.7863
238.8853, 120.7587
239.3674, 120.5428
239.8495, 120.1783
240.3316, 119.7119
240.8137, 119.1287
241.2959, 118.4908
241.7780, 117.7210
242.2601, 116.9441
242.7422, 116.3343
243.2243, 116.0215
243.7064, 115.8315
244.1886, 115.4071
244.6707, 114.6387
245.1528, 113.9179
245.6349, 113.4695
246.1170, 113.1075
246.5991, 112.6094
247.0813, 111.8594
247.5634, 111.0347
248.0455, 110.5473
248.5276, 110.6793
249.0097, 110.4916
249.4918, 109.4325
249.9740, 108.1468
250.4561, 107.2132
250.9382, 106.8554
251.4203, 106.8247
251.9024, 106.6295
252.3845, 106.1258
252.8667, 105.7778
253.3488, 105.8656
253.8309, 105.9926
254.3130, 105.8213
254.7951, 105.2508
255.2772, 104.4455
255.7594, 103.6582
256.2415, 102.7625
256.7236, 102.1701
257.2057, 102.1108
257.6878, 102.1730
258.1699, 102.0355
258.6520, 101.6291
259.1342, 101.1295
259.6163, 100.8187
260.0984, 100.7873
260.5805, 100.7644
261.0626, 100.7400
261.5447, 100.7258
262.0269, 100.8322
262.5090, 101.0247
262.9911, 101.0625
263.4732, 100.5931
263.9553, 99.36662
264.4374, 98.29649
264.9196, 97.30430
265.4017, 96.49060
265.8838, 95.99451
266.3659, 95.77738
266.8480, 95.63127
267.3301, 95.32124
267.8123, 94.78940
268.2944, 94.33859
268.7765, 94.06212
269.2586, 93.77031
269.7407, 93.30328
270.2228, 92.70181
270.7050, 92.17465
271.1871, 91.94661
271.6692, 92.08482
272.1513, 91.86513
272.6334, 90.91036
273.1155, 90.03315
273.5977, 89.63719
274.0798, 89.65194
274.5619, 89.78725
275.0440, 89.84995
275.5261, 89.83891
276.0082, 89.65067
276.4904, 89.07974
276.9725, 88.58720
277.4546, 88.35609
277.9367, 88.33945
278.4188, 88.44817
278.9009, 88.66599
279.3831, 88.93433
279.8652, 88.84537
280.3473, 87.98714
280.8294, 87.31277
281.3115, 87.28612
281.7936, 87.61132
282.2758, 87.70276
282.7579, 87.25473
283.2400, 86.45994
283.7221, 85.90855
284.2042, 85.67781
284.6863, 85.53250
285.1685, 85.51627
285.6506, 85.53728
286.1327, 85.43384
286.6148, 85.13530
287.0969, 84.75426
287.5790, 84.52063
288.0612, 84.48790
288.5433, 84.44923
289.0254, 84.37615
289.5075, 84.27956
289.9896, 84.15628
290.4717, 84.00237
290.9539, 83.87246
291.4360, 83.88856
291.9181, 84.13342
292.4002, 84.10517
292.8823, 83.51176
293.3644, 82.75390
293.8466, 82.20963
294.3287, 81.93835
294.8108, 81.84558
295.2929, 81.87631
295.7750, 82.04358
296.2571, 82.13693
296.7393, 82.02549
297.2214, 81.92440
297.7035, 82.10452
298.1856, 82.54358
298.6677, 82.84447
299.1498, 82.65669
299.6320, 82.01868
300.1141, 81.56630
300.5962, 81.31697
301.0783, 81.22851
301.5604, 81.42948
302.0425, 81.82898
302.5247, 82.01474
303.0068, 81.72185
303.4889, 81.05079
303.9710, 80.38589
304.4531, 79.59164
304.9352, 78.98152
305.4174, 78.77922
305.8995, 78.87869
306.3816, 79.02261
306.8637, 79.13663
307.3458, 79.18924
307.8279, 79.09241
308.3101, 78.81151
308.7922, 78.52891
309.2743, 78.30015
309.7564, 78.10679
310.2385, 77.93153
310.7206, 77.77629
311.2028, 77.60001
311.6849, 77.30006
312.1670, 76.85072
312.6491, 76.53240
313.1312, 76.48912
313.6133, 76.56345
314.0955, 76.55666
314.5776, 76.43494
315.0597, 76.31369
315.5418, 76.35242
316.0239, 76.53934
316.5060, 76.52604
316.9882, 76.04929
317.4703, 75.52754
317.9524, 75.34180
318.4345, 75.48824
318.9166, 75.69695
319.3987, 75.83952
319.8809, 75.87602
320.3630, 75.69497
320.8451, 75.00912
321.3272, 74.38455
321.8093, 74.18377
322.2914, 74.31950
322.7736, 74.48463
323.2557, 74.55380
323.7378, 74.53418
324.2199, 74.44924
324.7020, 74.31158
325.1841, 74.10453
325.6663, 73.78114
326.1484, 73.38955
326.6305, 72.98885
327.1126, 72.57096
327.5947, 72.24468
328.0768, 72.21850
328.5590, 72.51868
329.0411, 72.89640
329.5232, 73.58166
330.0053, 74.19857
330.4874, 74.20801
330.9695, 73.51118
331.4517, 72.61694
331.9338, 72.03676
332.4159, 71.80540
332.8980, 71.53598
333.3801, 71.06348
333.8622, 70.66544
334.3444, 70.61758
334.8265, 70.88695
335.3086, 71.15845
335.7907, 71.20351
336.2729, 71.05526
336.7550, 71.00692
337.2371, 71.24590
337.7192, 71.37899
338.2013, 71.17231
338.6834, 70.73024
339.1656, 70.27128
339.6477, 69.87634
340.1298, 69.57999
340.6119, 69.51152
341.0940, 69.80143
341.5761, 70.04720
342.0583, 70.16735
342.5404, 70.20616
343.0225, 70.25829
343.5046, 70.35151
343.9867, 70.33421
344.4688, 69.93754
344.9510, 68.87381
345.4331, 68.31617
345.9152, 68.80754
346.3973, 69.43254
346.8794, 69.36613
347.3615, 68.61577
347.8437, 67.87139
348.3258, 67.75496
348.8079, 68.30832
349.2900, 68.65376
349.7721, 68.69412
350.2542, 68.66302
350.7364, 68.68465
351.2185, 68.71256
351.7006, 68.60400
352.1827, 68.26105
352.6648, 67.76038
353.1469, 67.42052
353.6291, 67.25237
354.1112, 67.22764
354.5933, 67.59270
355.0754, 68.00002
355.5575, 67.96188
356.0396, 67.33640
356.5218, 66.49837
357.0039, 66.08493
357.4860, 66.34096
357.9681, 66.53510
358.4502, 66.67767
358.9323, 66.75746
359.4145, 66.74204
359.8966, 66.64519
360.3787, 66.53599
360.8608, 66.49542
361.3429, 66.54264
361.8250, 66.41839
362.3072, 65.80434
362.7893, 65.36189
363.2714, 65.40688
363.7535, 65.77057
364.2356, 66.15487
364.7177, 66.39880
365.1999, 66.49143
365.6820, 66.37808
366.1641, 65.86536
366.6462, 65.40449
367.1283, 64.95119
367.6104, 64.61546
368.0926, 64.59399
368.5747, 64.91418
369.0568, 65.28365
369.5389, 65.22440
370.0210, 64.54691
370.5031, 63.96840
370.9853, 63.37785
371.4674, 62.98837
371.9495, 63.04984
372.4316, 63.46041
372.9137, 63.85102
373.3958, 63.90481
373.8780, 63.63631
374.3601, 63.36341
374.8422, 63.02936
375.3243, 62.76762
375.8064, 62.69217
376.2885, 62.69188
376.7707, 62.56707
377.2528, 62.18538
377.7349, 61.75521
378.2170, 61.75056
378.6991, 62.31139
379.1812, 62.89180
379.6634, 63.47856
380.1455, 63.95994
380.6276, 64.17638
381.1097, 64.11289
381.5918, 64.03732
382.0739, 64.37859
382.5561, 65.11135
383.0382, 65.24790
383.5203, 64.35770
384.0024, 63.21806
384.4845, 62.19275
384.9666, 61.32023
385.4488, 60.70897
385.9309, 60.52755
386.4130, 60.61066
386.8951, 60.58807
387.3772, 60.42960
387.8593, 60.28168
388.3415, 60.28618
388.8236, 60.32368
389.3057, 60.22909
389.7878, 59.93940
390.2699, 59.59212
390.7520, 59.18907
391.2342, 58.77325
391.7163, 58.74789
392.1984, 59.44547
392.6805, 60.28723
393.1626, 60.50503
393.6447, 60.10564
394.1269, 59.70512
394.6090, 59.58556
395.0911, 59.59239
395.5732, 59.42751
396.0553, 59.03571
396.5374, 58.75307
397.0196, 58.94270
397.5017, 59.51851
397.9838, 59.86324
398.4659, 59.75483
398.9480, 59.58504
399.4301, 59.62218
399.9123, 59.80582
400.3944, 59.90807
400.8765, 59.80491
401.3586, 59.59850
401.8407, 59.55548
402.3228, 59.80669
402.8050, 59.90836
403.2871, 59.56120
403.7692, 59.13624
404.2513, 59.06604
404.7334, 59.42345
405.2155, 59.96361
405.6977, 60.44527
406.1798, 60.87179
406.6619, 61.19235
407.1440, 61.53960
407.6261, 61.67077
408.1082, 61.30383
408.5904, 60.63364
409.0725, 60.10458
409.5546, 59.97994
410.0367, 60.13732
410.5188, 60.13701
411.0009, 59.72945
411.4831, 59.49787
411.9652, 59.64225
412.4473, 59.86643
412.9294, 59.84368
413.4115, 59.54164
413.8936, 59.26345
414.3758, 59.43639
414.8579, 60.20323
415.3400, 60.63010
415.8221, 60.38735
416.3042, 60.11164
416.7863, 59.92921
417.2685, 59.88500
417.7506, 60.06920
418.2327, 60.59721
418.7148, 61.27472
419.1969, 61.46878
419.6790, 60.92959
420.1612, 60.48372
420.6433, 60.38623
421.1254, 60.42769
421.6075, 60.48761
422.0896, 60.53513
422.5717, 60.50013
423.0539, 60.22772
423.5360, 59.74364
424.0181, 59.48902
424.5002, 59.61505
424.9823, 59.82264
425.4644, 59.94777
425.9466, 59.99660
426.4287, 59.97845
426.9108, 59.87073
427.3929, 59.71767
427.8750, 59.61724
428.3571, 59.57748
428.8393, 59.37221
429.3214, 58.64718
429.8035, 57.88604
430.2856, 57.97462
430.7677, 59.20858
431.2498, 60.22945
431.7320, 60.17841
432.2141, 59.50079
432.6962, 59.08226
433.1783, 59.11697
433.6604, 59.22108
434.1425, 58.96053
434.6247, 58.33024
435.1068, 57.97956
435.5889, 58.09343
436.0710, 58.34571
436.5531, 58.61929
437.0352, 58.87318
437.5174, 59.00981
437.9995, 58.96846
438.4816, 58.81266
438.9637, 58.71224
439.4458, 58.73322
439.9279, 58.71158
440.4101, 58.64459
440.8922, 58.52984
441.3743, 58.31431
441.8564, 58.01959
442.3385, 57.78816
442.8206, 57.78349
443.3028, 58.02747
443.7849, 58.10333
444.2670, 57.82737
444.7491, 57.58144
445.2312, 57.42628
445.7133, 57.36744
446.1955, 57.41467
446.6776, 57.57289
447.1597, 57.79747
447.6418, 58.02504
448.1239, 58.29048
448.6060, 58.44521
449.0882, 58.41210
449.5703, 58.31023
450.0524, 58.20382
450.5345, 58.08727
451.0166, 57.90943
451.4987, 57.58447
451.9809, 57.17347
452.4630, 56.91773
452.9451, 56.87500
453.4272, 56.83228
453.9093, 56.61539
454.3914, 56.37159
454.8736, 56.30936
455.3557, 56.52906
455.8378, 56.69813
456.3199, 56.46949
456.8020, 55.94624
457.2841, 55.53682
457.7663, 55.31271
458.2484, 55.25171
458.7305, 55.42759
459.2126, 55.79727
459.6947, 56.04130
460.1768, 56.05560
460.6590, 55.96260
461.1411, 55.83836
461.6232, 55.69121
462.1053, 55.52660
462.5874, 55.33589
463.0695, 55.14747
463.5517, 55.04198
464.0338, 55.05064
464.5159, 55.07758
464.9980, 55.16616
465.4801, 55.23525
465.9622, 55.26773
466.4444, 55.22876
466.9265, 54.96378
467.4086, 54.26694
467.8907, 53.13425
468.3728, 52.50062
468.8549, 52.84704
469.3371, 53.16057
469.8192, 53.25023
470.3013, 53.19397
470.7834, 53.09205
471.2655, 52.98247
471.7477, 52.85437
472.2298, 52.68404
472.7119, 52.45979
473.1940, 52.24844
473.6761, 51.96606
474.1582, 51.79174
474.6404, 51.91473
475.1225, 52.21510
475.6046, 52.38418
476.0867, 52.19706
476.5688, 51.84686
477.0509, 51.73100
477.5331, 51.88536
478.0152, 52.00800
478.4973, 51.95061
478.9794, 51.84338
479.4615, 51.82098
479.9436, 51.88812
480.4258, 52.03814
480.9079, 52.33323
481.3900, 52.68855
481.8721, 52.95449
482.3542, 53.11287
482.8363, 53.23510
483.3185, 53.38423
483.8006, 53.53860
484.2827, 53.59071
484.7648, 53.48991
485.2469, 53.35279
485.7290, 53.15519
486.2112, 52.96610
486.6933, 52.89638
487.1754, 52.97681
487.6575, 53.15044
488.1396, 53.35894
488.6217, 53.62750
489.1039, 53.80697
489.5860, 53.86576
490.0681, 53.88602
490.5502, 53.85870
491.0323, 53.82438
491.5144, 53.84303
491.9966, 53.94402
492.4787, 54.11237
492.9608, 54.32460
493.4429, 54.60126
493.9250, 54.86049
494.4071, 55.06654
494.8893, 55.27729
495.3714, 55.57161
495.8535, 55.90955
496.3356, 56.14447
496.8177, 56.13331
497.2998, 55.98507
497.7820, 55.94080
498.2641, 55.99510
498.7462, 56.19629
499.2283, 56.73353
499.7104, 57.31800
500.1925, 57.55040
500.6747, 57.36168
501.1568, 57.16252
501.6389, 57.17041
502.1210, 57.29040
502.6031, 57.39176
503.0852, 57.45789
503.5674, 57.43488
504.0495, 57.21360
504.5316, 56.86040
505.0137, 56.85305
505.4958, 57.48796
505.9779, 58.06599
506.4601, 58.30518
506.9422, 58.41302
507.4243, 58.70927
507.9064, 59.25512
508.3885, 59.78616
508.8706, 59.98269
509.3528, 59.80622
509.8349, 59.59019
510.3170, 59.14375
510.7991, 58.86943
511.2812, 59.05517
511.7633, 59.42830
512.2454, 59.60861
512.7275, 59.44179
513.2097, 59.07713
513.6918, 58.71349
514.1739, 58.34916
514.6560, 58.01317
515.1381, 57.75290
515.6202, 57.46828
516.1024, 57.10237
516.5845, 56.66820
517.0666, 56.19292
517.5487, 55.63375
518.0308, 55.09428
518.5129, 54.71163
518.9951, 54.47324
519.4772, 54.28086
519.9593, 54.13875
520.4414, 53.96411
520.9235, 53.58541
521.4056, 52.98185
521.8878, 52.48133
522.3699, 52.15521
522.8520, 51.93450
523.3341, 51.83255
523.8162, 51.80111
524.2983, 51.67895
524.7805, 51.36061
525.2626, 50.94954
525.7447, 50.74131
526.2268, 51.07475
526.7089, 51.08095
527.1910, 50.50728
527.6732, 49.83484
528.1553, 49.36713
528.6374, 49.10078
529.1195, 48.86966
529.6016, 48.54033
530.0837, 48.16817
530.5659, 47.96761
531.0480, 47.98721
531.5301, 48.05128
532.0122, 48.21136
532.4943, 48.33089
532.9764, 48.25767
533.4586, 47.99308
533.9407, 47.76313
534.4228, 47.79849
534.9049, 47.93929
535.3870, 47.79086
535.8691, 47.31128
536.3513, 46.98655
536.8334, 47.18313
537.3155, 47.66362
537.7976, 47.78962
538.2797, 47.40781
538.7618, 47.07819
539.2440, 47.02186
539.7261, 47.05929
540.2082, 46.97062
540.6903, 46.74981
541.1724, 46.57664
541.6545, 46.61336
542.1367, 46.81599
542.6188, 46.82019
543.1009, 46.25954
543.5830, 45.98122
544.0651, 46.29300
544.5472, 46.76817
545.0294, 47.05148
545.5115, 47.08579
545.9936, 47.01014
546.4757, 46.92875
546.9578, 46.84481
547.4399, 46.77462
547.9221, 46.71070
548.4042, 46.67921
548.8863, 46.71131
549.3684, 46.77290
549.8505, 46.83032
550.3326, 46.87748
550.8148, 46.93335
551.2969, 47.00531
551.7790, 47.09486
552.2611, 47.23624
552.7432, 47.43468
553.2253, 47.55157
553.7075, 47.46245
554.1896, 47.21723
554.6717, 47.07819
555.1538, 47.06944
555.6359, 47.11289
556.1180, 47.17469
556.6002, 47.29313
557.0823, 47.59679
557.5644, 48.04317
558.0465, 48.36277
558.5286, 48.30265
559.0107, 47.89957
559.4929, 47.49286
559.9750, 47.01267
560.4571, 46.64670
560.9392, 46.46419
561.4213, 46.37429
561.9034, 46.32137
562.3856, 46.28843
562.8677, 46.23781
563.3498, 46.09674
563.8319, 45.91637
564.3140, 45.87749
564.7961, 46.00997
565.2783, 46.13104
565.7604, 46.15055
566.2425, 46.09789
566.7246, 46.04351
567.2067, 45.99865
567.6888, 45.91359
568.1710, 45.63749
568.6531, 45.39252
569.1352, 45.52228
569.6173, 45.98522
570.0994, 46.36753
570.5815, 46.37526
571.0637, 46.10183
571.5458, 45.93101
572.0279, 45.86266
572.5100, 45.90891
572.9921, 46.25637
573.4742, 46.56569
573.9564, 46.56787
574.4385, 46.29152
574.9206, 45.93295
575.4027, 45.58685
575.8848, 45.30223
576.3669, 45.29641
576.8491, 45.66949
577.3312, 45.79856
577.8133, 45.29433
578.2954, 44.65184
578.7775, 44.33267
579.2596, 44.33298
579.7418, 44.51047
580.2239, 45.10036
580.7060, 45.63918
581.1881, 45.49949
581.6702, 44.82206
582.1523, 44.32340
582.6345, 44.33871
583.1166, 44.60164
583.5988, 44.61492
584.0809, 44.21669
584.5630, 44.00542
585.0451, 44.07959
585.5272, 44.22823
586.0093, 44.40810
586.4915, 44.57047
586.9736, 44.64119
587.4557, 44.58429
