##NAMES=Clinohumite
##RRUFFID=R040122
##IDEAL CHEMISTRY=Mg_9_(SiO_4_)_4_F_2_
##LOCALITY=Anzahamazonono,  Madagascar
##OWNER=RRUFF
##SOURCE=University of Arizona Mineral Museum
##DESCRIPTION=Orange-brown blebs embedded in calcite matrix
##STATUS=The identification of this mineral has been confirmed by X-ray diffraction and chemical analysis
##URL=rruff.info/R040122
##MEASURED CHEMISTRY=(Mg_0.96_Fe_0.02_Ti_0.01_Ca_0.01_)_9_(SiO_4_)_4_(F_0.59_(OH)_0.41_)_2_
146.5716, 801.2299
147.0537, 823.0355
147.5358, 841.9917
148.0179, 867.5177
148.5001, 907.4562
148.9822, 948.0387
149.4643, 979.5266
149.9464, 1001.652
150.4285, 1019.333
150.9106, 1036.525
151.3928, 1052.646
151.8749, 1064.859
152.3570, 1071.837
152.8391, 1075.514
153.3212, 1078.321
153.8033, 1080.499
154.2855, 1078.975
154.7676, 1070.108
155.2497, 1054.961
155.7318, 1038.339
156.2139, 1016.773
156.6960, 996.1332
157.1782, 984.2660
157.6603, 982.4589
158.1424, 983.1517
158.6245, 978.5781
159.1066, 971.8848
159.5887, 971.5817
160.0709, 983.2484
160.5530, 1001.237
161.0351, 1017.767
161.5172, 1032.396
161.9993, 1046.302
162.4814, 1061.646
162.9636, 1076.852
163.4457, 1088.688
163.9278, 1093.833
164.4099, 1095.441
164.8920, 1099.470
165.3741, 1106.950
165.8563, 1113.916
166.3384, 1115.872
166.8205, 1115.775
167.3026, 1118.998
167.7847, 1130.500
168.2668, 1145.835
168.7490, 1154.594
169.2311, 1153.944
169.7132, 1153.141
170.1953, 1157.787
170.6774, 1165.419
171.1595, 1172.111
171.6417, 1174.790
172.1238, 1175.910
172.6059, 1182.686
173.0880, 1199.213
173.5701, 1213.083
174.0522, 1217.961
174.5344, 1217.292
175.0165, 1215.271
175.4986, 1212.426
175.9807, 1210.459
176.4628, 1215.087
176.9449, 1231.095
177.4271, 1244.898
177.9092, 1248.091
178.3913, 1246.969
178.8734, 1250.106
179.3555, 1262.209
179.8376, 1280.865
180.3197, 1299.561
180.8019, 1319.668
181.2840, 1337.111
181.7661, 1350.284
182.2482, 1360.718
182.7303, 1369.638
183.2124, 1376.980
183.6946, 1384.259
184.1767, 1397.104
184.6588, 1422.681
185.1409, 1440.678
185.6230, 1445.901
186.1051, 1441.968
186.5873, 1432.305
187.0694, 1417.944
187.5515, 1400.283
188.0336, 1382.394
188.5157, 1363.502
188.9978, 1346.099
189.4800, 1329.002
189.9621, 1314.152
190.4442, 1303.936
190.9263, 1299.740
191.4084, 1299.408
191.8905, 1297.894
192.3727, 1295.037
192.8548, 1291.095
193.3369, 1281.083
193.8190, 1272.437
194.3011, 1274.144
194.7832, 1289.939
195.2654, 1312.408
195.7475, 1324.805
196.2296, 1319.818
196.7117, 1318.397
197.1938, 1325.734
197.6759, 1335.848
198.1581, 1343.324
198.6402, 1346.393
199.1223, 1347.534
199.6044, 1352.039
200.0865, 1364.454
200.5686, 1370.784
201.0508, 1367.282
201.5329, 1360.051
202.0150, 1353.257
202.4971, 1348.170
202.9792, 1344.067
203.4613, 1339.117
203.9435, 1330.326
204.4256, 1327.903
204.9077, 1336.610
205.3898, 1347.758
205.8719, 1355.212
206.3540, 1357.906
206.8362, 1359.299
207.3183, 1364.708
207.8004, 1377.094
208.2825, 1385.732
208.7646, 1391.219
209.2467, 1393.057
209.7289, 1389.027
210.2110, 1379.910
210.6931, 1370.032
211.1752, 1365.252
211.6573, 1368.490
212.1395, 1366.011
212.6216, 1351.847
213.1037, 1337.493
213.5858, 1327.139
214.0679, 1321.693
214.5500, 1320.973
215.0322, 1325.498
215.5143, 1336.145
215.9964, 1346.216
216.4785, 1362.241
216.9606, 1371.745
217.4427, 1364.289
217.9249, 1344.997
218.4070, 1328.372
218.8891, 1327.376
219.3712, 1342.551
219.8533, 1353.710
220.3354, 1357.423
220.8176, 1360.202
221.2997, 1363.157
221.7818, 1366.507
222.2639, 1370.626
222.7460, 1376.221
223.2281, 1382.821
223.7103, 1384.749
224.1924, 1373.085
224.6745, 1366.516
225.1566, 1373.167
225.6387, 1386.494
226.1208, 1396.532
226.6030, 1397.284
227.0851, 1390.993
227.5672, 1387.038
228.0493, 1386.749
228.5314, 1387.240
229.0135, 1388.792
229.4957, 1390.516
229.9778, 1391.064
230.4599, 1389.761
230.9420, 1387.890
231.4241, 1388.760
231.9062, 1394.013
232.3884, 1399.369
232.8705, 1408.242
233.3526, 1414.888
233.8347, 1412.507
234.3168, 1399.187
234.7989, 1381.772
235.2811, 1371.934
235.7632, 1371.591
236.2453, 1374.706
236.7274, 1381.089
237.2095, 1390.006
237.6916, 1403.768
238.1738, 1421.626
238.6559, 1437.022
239.1380, 1440.480
239.6201, 1428.094
240.1022, 1418.148
240.5843, 1412.591
241.0665, 1408.519
241.5486, 1403.367
242.0307, 1397.825
242.5128, 1395.659
242.9949, 1403.483
243.4770, 1423.077
243.9592, 1431.051
244.4413, 1414.980
244.9234, 1398.365
245.4055, 1388.035
245.8876, 1384.183
246.3697, 1385.671
246.8519, 1393.618
247.3340, 1406.841
247.8161, 1414.102
248.2982, 1412.228
248.7803, 1408.123
249.2624, 1403.619
249.7446, 1398.844
250.2267, 1393.271
250.7088, 1385.313
251.1909, 1377.750
251.6730, 1379.852
252.1551, 1397.660
252.6373, 1412.934
253.1194, 1419.643
253.6015, 1421.202
254.0836, 1420.804
254.5657, 1419.431
255.0478, 1417.157
255.5300, 1413.437
256.0121, 1407.351
256.4942, 1403.385
256.9763, 1402.466
257.4584, 1404.453
257.9406, 1411.088
258.4227, 1422.948
258.9048, 1434.122
259.3869, 1438.091
259.8690, 1434.593
260.3511, 1429.731
260.8333, 1422.349
261.3154, 1415.977
261.7975, 1413.119
262.2796, 1413.791
262.7617, 1416.159
263.2438, 1419.366
263.7260, 1423.320
264.2081, 1427.998
264.6902, 1435.559
265.1723, 1440.264
265.6544, 1435.197
266.1365, 1423.460
266.6187, 1415.568
267.1008, 1418.661
267.5829, 1428.546
268.0650, 1436.699
268.5471, 1442.779
269.0292, 1447.559
269.5114, 1453.223
269.9935, 1457.786
270.4756, 1456.776
270.9577, 1444.584
271.4398, 1429.996
271.9219, 1424.095
272.4041, 1427.157
272.8862, 1428.800
273.3683, 1420.986
273.8504, 1410.034
274.3325, 1408.405
274.8146, 1421.421
275.2968, 1435.152
275.7789, 1438.854
276.2610, 1434.965
276.7431, 1433.326
277.2252, 1437.043
277.7073, 1445.188
278.1895, 1458.228
278.6716, 1478.682
279.1537, 1492.235
279.6358, 1489.029
280.1179, 1476.570
280.6000, 1467.287
281.0822, 1463.867
281.5643, 1463.910
282.0464, 1465.435
282.5285, 1468.631
283.0106, 1470.797
283.4927, 1469.853
283.9749, 1468.877
284.4570, 1472.066
284.9391, 1479.250
285.4212, 1484.731
285.9033, 1483.518
286.3854, 1475.592
286.8676, 1468.677
287.3497, 1460.601
287.8318, 1455.483
288.3139, 1457.372
288.7960, 1464.047
289.2781, 1469.927
289.7603, 1472.113
290.2424, 1470.877
290.7245, 1467.127
291.2066, 1454.528
291.6887, 1447.342
292.1708, 1452.322
292.6530, 1462.249
293.1351, 1467.493
293.6172, 1464.752
294.0993, 1458.793
294.5814, 1458.202
295.0635, 1467.300
295.5457, 1473.802
296.0278, 1477.604
296.5099, 1479.092
296.9920, 1476.755
297.4741, 1471.485
297.9562, 1467.254
298.4384, 1467.926
298.9205, 1473.618
299.4026, 1483.842
299.8847, 1505.699
300.3668, 1524.865
300.8489, 1533.217
301.3311, 1535.067
301.8131, 1540.150
302.2953, 1555.355
302.7774, 1578.457
303.2595, 1597.855
303.7416, 1609.707
304.2237, 1623.482
304.7058, 1643.461
305.1880, 1665.131
305.6701, 1683.848
306.1522, 1697.896
306.6343, 1708.421
307.1164, 1718.093
307.5985, 1728.422
308.0807, 1732.046
308.5628, 1723.827
309.0449, 1710.889
309.5270, 1694.772
310.0091, 1676.481
310.4912, 1660.976
310.9734, 1654.536
311.4555, 1656.104
311.9376, 1653.315
312.4197, 1640.264
312.9018, 1630.372
313.3839, 1632.313
313.8661, 1643.474
314.3482, 1657.375
314.8303, 1673.012
315.3124, 1688.774
315.7945, 1701.771
316.2766, 1711.787
316.7588, 1720.007
317.2409, 1723.297
317.7230, 1726.483
318.2051, 1738.321
318.6872, 1764.174
319.1693, 1791.064
319.6515, 1811.904
320.1336, 1826.218
320.6157, 1831.458
321.0978, 1825.034
321.5799, 1811.687
322.0620, 1798.775
322.5442, 1787.065
323.0263, 1772.299
323.5084, 1751.056
323.9905, 1726.964
324.4726, 1702.929
324.9547, 1679.395
325.4369, 1660.994
325.9190, 1653.708
326.4011, 1658.971
326.8832, 1658.324
327.3653, 1647.816
327.8474, 1635.287
328.3296, 1625.185
328.8117, 1616.779
329.2938, 1607.030
329.7759, 1593.957
330.2580, 1578.406
330.7401, 1564.640
331.2223, 1548.704
331.7044, 1539.463
332.1865, 1543.844
332.6686, 1552.611
333.1507, 1555.049
333.6328, 1548.185
334.1150, 1538.115
334.5971, 1534.376
335.0792, 1540.956
335.5613, 1543.049
336.0434, 1536.556
336.5255, 1529.756
337.0077, 1527.729
337.4898, 1529.465
337.9719, 1530.150
338.4540, 1524.989
338.9361, 1515.218
339.4182, 1512.030
339.9004, 1517.483
340.3825, 1527.127
340.8646, 1545.546
341.3467, 1564.804
341.8288, 1573.479
342.3109, 1566.064
342.7931, 1552.818
343.2752, 1549.596
343.7573, 1557.951
344.2394, 1565.304
344.7215, 1567.704
345.2036, 1568.829
345.6858, 1571.981
346.1679, 1577.254
346.6500, 1581.777
347.1321, 1582.489
347.6142, 1581.083
348.0963, 1582.289
348.5785, 1586.816
349.0606, 1593.222
349.5427, 1601.240
350.0248, 1610.361
350.5069, 1619.070
350.9890, 1627.177
351.4712, 1634.759
351.9533, 1644.417
352.4354, 1654.697
352.9175, 1657.247
353.3996, 1646.449
353.8817, 1627.435
354.3639, 1614.179
354.8460, 1611.759
355.3281, 1603.515
355.8102, 1579.624
356.2923, 1550.741
356.7744, 1530.200
357.2566, 1520.569
357.7387, 1515.470
358.2208, 1508.147
358.7029, 1498.431
359.1850, 1486.954
359.6671, 1470.302
360.1493, 1455.555
360.6314, 1447.491
361.1135, 1443.765
361.5956, 1438.697
362.0777, 1428.653
362.5598, 1415.670
363.0420, 1407.151
363.5241, 1404.916
364.0062, 1404.625
364.4883, 1408.878
364.9704, 1412.695
365.4525, 1410.556
365.9347, 1401.871
366.4168, 1392.556
366.8989, 1389.188
367.3810, 1391.996
367.8631, 1396.925
368.3452, 1407.119
368.8274, 1415.407
369.3095, 1416.864
369.7916, 1413.800
370.2737, 1411.780
370.7558, 1413.588
371.2379, 1417.775
371.7201, 1423.126
372.2022, 1430.123
372.6843, 1433.398
373.1664, 1428.250
373.6485, 1419.409
374.1306, 1413.862
374.6128, 1411.986
375.0949, 1412.790
375.5770, 1416.063
376.0591, 1421.617
376.5412, 1430.279
377.0233, 1442.752
377.5055, 1454.246
377.9876, 1460.118
378.4697, 1459.699
378.9518, 1455.941
379.4339, 1447.770
379.9160, 1437.249
380.3982, 1422.737
380.8803, 1406.660
381.3624, 1395.469
381.8445, 1392.865
382.3266, 1396.706
382.8087, 1400.630
383.2909, 1408.916
383.7730, 1411.178
384.2551, 1400.735
384.7372, 1388.483
385.2193, 1383.778
385.7014, 1387.729
386.1836, 1394.625
386.6657, 1398.235
387.1478, 1398.196
387.6299, 1401.763
388.1120, 1414.791
388.5941, 1424.598
389.0763, 1425.747
389.5584, 1421.413
390.0405, 1416.008
390.5226, 1410.647
391.0047, 1407.194
391.4868, 1410.604
391.9690, 1422.106
392.4511, 1428.320
392.9332, 1422.143
393.4153, 1412.369
393.8974, 1407.636
394.3795, 1408.005
394.8617, 1408.424
395.3438, 1406.862
395.8259, 1403.634
396.3080, 1398.878
396.7901, 1392.540
397.2722, 1385.861
397.7544, 1379.274
398.2365, 1373.118
398.7186, 1368.586
399.2007, 1367.147
399.6828, 1365.692
400.1649, 1363.525
400.6471, 1360.445
401.1292, 1354.968
401.6113, 1346.552
402.0934, 1339.054
402.5755, 1338.339
403.0576, 1346.842
403.5398, 1355.157
404.0219, 1366.063
404.5040, 1374.352
404.9861, 1375.048
405.4682, 1370.834
405.9503, 1368.728
406.4325, 1373.606
406.9146, 1382.878
407.3967, 1386.481
407.8788, 1379.172
408.3609, 1377.091
408.8430, 1390.382
409.3252, 1405.073
409.8073, 1407.161
410.2894, 1395.525
410.7715, 1386.040
411.2536, 1397.516
411.7357, 1424.505
412.2179, 1437.014
412.7000, 1428.252
413.1821, 1416.612
413.6642, 1413.875
414.1463, 1417.382
414.6284, 1423.040
415.1106, 1433.678
415.5927, 1441.914
416.0748, 1439.675
416.5569, 1430.308
417.0390, 1424.352
417.5211, 1425.623
418.0033, 1430.775
418.4854, 1435.090
418.9675, 1438.333
419.4496, 1441.424
419.9317, 1442.733
420.4138, 1445.247
420.8960, 1452.494
421.3781, 1463.010
421.8602, 1471.792
422.3423, 1475.435
422.8244, 1475.313
423.3065, 1477.414
423.7887, 1483.609
424.2708, 1489.192
424.7529, 1491.019
425.2350, 1493.845
425.7171, 1502.410
426.1992, 1516.918
426.6814, 1532.712
427.1635, 1545.422
427.6456, 1555.389
428.1277, 1565.550
428.6098, 1576.068
429.0919, 1586.437
429.5741, 1599.142
430.0562, 1610.912
430.5383, 1616.145
431.0204, 1612.243
431.5025, 1604.356
431.9846, 1593.794
432.4668, 1582.278
432.9489, 1577.785
433.4310, 1584.404
433.9131, 1591.444
434.3952, 1584.802
434.8773, 1562.724
435.3595, 1545.493
435.8416, 1536.901
436.3237, 1531.033
436.8058, 1524.142
437.2879, 1516.944
437.7701, 1511.656
438.2522, 1509.406
438.7343, 1509.881
439.2164, 1512.562
439.6985, 1519.977
440.1806, 1525.031
440.6628, 1528.593
441.1449, 1529.319
441.6270, 1526.451
442.1091, 1519.966
442.5912, 1509.664
443.0733, 1493.427
443.5555, 1474.060
444.0376, 1464.352
444.5197, 1469.531
445.0018, 1469.657
445.4839, 1450.033
445.9660, 1425.140
446.4482, 1410.453
446.9303, 1409.332
447.4124, 1407.045
447.8945, 1391.400
448.3766, 1368.812
448.8587, 1354.296
449.3409, 1350.386
449.8230, 1345.754
450.3051, 1330.949
450.7872, 1306.935
451.2693, 1285.593
451.7514, 1260.062
452.2336, 1244.828
452.7157, 1253.275
453.1978, 1271.840
453.6799, 1281.690
454.1620, 1277.451
454.6441, 1266.304
455.1263, 1256.537
455.6084, 1247.412
456.0905, 1243.911
456.5726, 1254.820
457.0547, 1262.479
457.5368, 1258.639
458.0190, 1248.681
458.5011, 1241.833
458.9832, 1242.372
459.4653, 1245.421
459.9474, 1242.703
460.4295, 1234.076
460.9117, 1230.607
461.3938, 1237.224
461.8759, 1245.779
462.3580, 1248.193
462.8401, 1245.750
463.3222, 1245.252
463.8044, 1252.778
464.2865, 1259.704
464.7686, 1256.799
465.2507, 1246.147
465.7328, 1235.963
466.2149, 1229.526
466.6971, 1226.477
467.1792, 1226.599
467.6613, 1233.502
468.1434, 1235.754
468.6255, 1230.253
469.1076, 1222.902
469.5898, 1214.667
470.0719, 1207.678
470.5540, 1206.702
471.0361, 1215.435
471.5182, 1230.282
472.0003, 1241.521
472.4825, 1249.515
472.9646, 1252.660
473.4467, 1245.549
473.9288, 1236.967
474.4109, 1232.516
474.8930, 1232.320
475.3752, 1233.064
475.8573, 1232.939
476.3394, 1232.515
476.8215, 1233.338
477.3036, 1235.455
477.7857, 1235.770
478.2679, 1231.716
478.7500, 1225.723
479.2321, 1224.478
479.7142, 1231.583
480.1963, 1233.882
480.6784, 1220.425
481.1606, 1206.769
481.6427, 1211.271
482.1248, 1231.815
482.6069, 1249.765
483.0890, 1250.994
483.5711, 1238.269
484.0533, 1226.366
484.5354, 1211.229
485.0175, 1204.103
485.4996, 1211.515
485.9817, 1222.993
486.4638, 1230.967
486.9460, 1234.356
487.4281, 1235.431
487.9102, 1237.030
488.3923, 1237.643
488.8744, 1231.046
489.3565, 1215.665
489.8387, 1201.984
490.3208, 1195.135
490.8029, 1193.631
491.2850, 1193.745
491.7671, 1195.592
492.2492, 1198.650
492.7314, 1203.182
493.2135, 1208.573
493.6956, 1215.378
494.1777, 1222.938
494.6598, 1227.503
495.1419, 1225.659
495.6241, 1218.729
496.1062, 1215.482
496.5883, 1223.068
497.0704, 1224.095
497.5525, 1209.295
498.0346, 1192.767
498.5168, 1185.954
498.9989, 1190.095
499.4810, 1199.630
499.9631, 1214.264
500.4452, 1230.491
500.9273, 1232.182
501.4095, 1215.210
501.8916, 1200.842
502.3737, 1195.947
502.8558, 1200.865
503.3379, 1218.782
503.8200, 1255.751
504.3022, 1279.897
504.7843, 1270.265
505.2664, 1246.642
505.7485, 1229.798
506.2306, 1221.775
506.7127, 1218.570
507.1949, 1217.920
507.6770, 1219.288
508.1591, 1220.428
508.6412, 1223.446
509.1233, 1222.924
509.6054, 1214.853
510.0876, 1206.192
510.5697, 1202.381
511.0518, 1203.224
511.5339, 1204.925
512.0161, 1205.261
512.4982, 1204.181
512.9803, 1200.578
513.4624, 1193.633
513.9445, 1189.523
514.4266, 1192.418
514.9088, 1197.486
515.3909, 1197.880
515.8730, 1193.153
516.3551, 1189.777
516.8372, 1189.282
517.3193, 1191.292
517.8015, 1197.110
518.2836, 1205.481
518.7657, 1212.442
519.2478, 1216.050
519.7299, 1216.130
520.2120, 1211.657
520.6942, 1196.842
521.1763, 1188.656
521.6584, 1189.196
522.1405, 1193.528
522.6226, 1202.129
523.1047, 1212.305
523.5869, 1217.721
524.0690, 1213.485
524.5511, 1206.433
525.0332, 1209.228
525.5153, 1221.789
525.9974, 1230.794
526.4796, 1232.161
526.9617, 1230.536
527.4438, 1229.166
527.9259, 1228.273
528.4080, 1231.773
528.8901, 1246.199
529.3723, 1259.266
529.8544, 1261.973
530.3365, 1258.418
530.8186, 1255.916
531.3007, 1257.079
531.7828, 1262.029
532.2650, 1272.034
532.7471, 1288.992
533.2292, 1299.191
533.7113, 1292.367
534.1934, 1290.660
534.6755, 1304.146
535.1577, 1325.324
535.6398, 1344.690
536.1219, 1359.777
536.6040, 1371.130
537.0861, 1376.264
537.5682, 1377.951
538.0504, 1385.298
538.5325, 1399.538
539.0146, 1418.095
539.4967, 1441.252
539.9788, 1467.023
540.4609, 1485.185
540.9431, 1486.742
541.4252, 1494.089
541.9073, 1515.742
542.3894, 1542.576
542.8715, 1565.366
543.3536, 1583.868
543.8358, 1604.663
544.3179, 1634.096
544.8000, 1669.031
545.2821, 1694.407
545.7642, 1705.226
546.2463, 1720.253
546.7285, 1753.345
547.2106, 1785.312
547.6927, 1801.988
548.1748, 1803.228
548.6569, 1796.089
549.1390, 1782.712
549.6211, 1763.058
550.1032, 1735.974
550.5853, 1702.267
551.0674, 1663.906
551.5496, 1620.106
552.0317, 1578.415
552.5138, 1552.322
552.9959, 1550.096
553.4780, 1535.016
553.9601, 1496.127
554.4423, 1457.954
554.9244, 1429.677
555.4065, 1408.795
555.8886, 1391.445
556.3707, 1376.252
556.8528, 1360.728
557.3350, 1338.130
557.8171, 1310.597
558.2992, 1296.650
558.7813, 1300.249
559.2634, 1310.571
559.7455, 1324.100
560.2277, 1338.534
560.7098, 1347.165
561.1919, 1349.848
561.6740, 1346.971
562.1561, 1331.274
562.6382, 1314.562
563.1204, 1312.821
563.6025, 1324.670
564.0846, 1333.496
564.5667, 1326.443
565.0488, 1308.291
565.5309, 1297.651
566.0131, 1295.948
566.4952, 1298.187
566.9773, 1310.730
567.4594, 1321.114
567.9415, 1318.818
568.4236, 1306.367
568.9058, 1296.677
569.3879, 1296.116
569.8700, 1299.811
570.3521, 1303.813
570.8342, 1307.996
571.3163, 1311.967
571.7985, 1315.615
572.2806, 1318.926
572.7627, 1321.793
573.2448, 1324.145
573.7269, 1326.826
574.2090, 1326.562
574.6912, 1330.546
575.1733, 1344.305
575.6554, 1361.289
576.1375, 1373.675
576.6196, 1380.031
577.1017, 1385.922
577.5839, 1396.547
578.0660, 1410.752
578.5481, 1425.413
579.0302, 1440.787
579.5123, 1453.357
579.9944, 1459.730
580.4766, 1463.882
580.9587, 1474.741
581.4408, 1495.088
581.9229, 1509.620
582.4050, 1511.852
582.8871, 1511.505
583.3693, 1515.345
583.8514, 1521.696
584.3335, 1525.953
584.8156, 1525.977
585.2977, 1523.303
585.7798, 1520.225
586.2620, 1516.795
586.7441, 1512.181
587.2262, 1505.094
587.7083, 1498.821
588.1904, 1495.194
588.6725, 1493.599
589.1547, 1494.075
589.6368, 1499.114
590.1189, 1499.581
590.6010, 1484.823
591.0831, 1466.398
591.5652, 1458.936
592.0474, 1463.204
592.5295, 1473.877
593.0116, 1488.440
593.4937, 1503.989
593.9758, 1509.973
594.4579, 1496.908
594.9401, 1496.789
595.4222, 1521.703
595.9043, 1551.761
596.3864, 1579.954
596.8685, 1605.356
597.3506, 1626.877
597.8328, 1642.792
598.3149, 1657.098
598.7970, 1669.373
599.2791, 1683.255
599.7612, 1711.013
600.2433, 1755.172
600.7255, 1800.297
601.2076, 1832.752
601.6897, 1854.593
602.1718, 1882.648
602.6539, 1923.140
603.1360, 1961.518
603.6182, 1997.939
604.1003, 2030.909
604.5824, 2057.830
605.0645, 2079.990
605.5466, 2102.415
606.0287, 2129.752
606.5109, 2156.736
606.9930, 2177.937
607.4751, 2192.710
607.9572, 2195.751
608.4393, 2185.580
608.9214, 2164.001
609.4036, 2132.730
609.8857, 2091.592
610.3678, 2039.825
610.8499, 1962.839
611.3320, 1894.965
611.8141, 1851.491
612.2963, 1816.149
612.7784, 1773.904
613.2605, 1722.639
613.7426, 1668.012
614.2247, 1611.698
614.7068, 1557.192
615.1890, 1515.198
615.6711, 1486.329
616.1532, 1455.439
616.6353, 1416.317
617.1174, 1377.308
617.5995, 1348.457
618.0817, 1329.953
618.5638, 1311.673
619.0459, 1293.410
619.5280, 1275.147
620.0101, 1255.111
620.4922, 1235.947
620.9744, 1221.479
621.4565, 1212.013
621.9386, 1204.047
622.4207, 1194.304
622.9028, 1183.586
623.3849, 1174.877
623.8671, 1168.016
624.3492, 1164.953
624.8313, 1170.862
625.3134, 1175.596
625.7955, 1162.780
626.2776, 1133.612
626.7598, 1114.263
627.2419, 1117.907
627.7240, 1121.860
628.2061, 1112.527
628.6882, 1097.210
629.1703, 1086.160
629.6525, 1082.136
630.1346, 1083.522
630.6167, 1091.103
631.0988, 1102.377
631.5809, 1101.711
632.0630, 1085.353
632.5452, 1071.672
633.0273, 1066.570
633.5094, 1066.145
633.9915, 1067.986
634.4736, 1071.815
634.9557, 1070.463
635.4379, 1056.381
635.9200, 1043.221
636.4021, 1040.274
636.8842, 1042.675
637.3663, 1042.813
637.8484, 1038.812
638.3306, 1033.184
638.8127, 1028.050
639.2948, 1023.542
639.7769, 1020.802
640.2590, 1020.305
640.7411, 1019.875
641.2233, 1018.956
641.7054, 1017.803
