##NAMES=Clinoptilolite-Ca
##RRUFFID=R060662
##IDEAL CHEMISTRY=Ca_3_(Si_30_Al_6_)O_72_&#183;20H_2_O
##LOCALITY=Succor Creek, Malheur County, Oregon, USA
##OWNER=RRUFF
##SOURCE=Michael Scott
##DESCRIPTION=Group of colorless platy prismatic crystals
##STATUS=The identification of this mineral has been confirmed by X-ray diffraction and chemical analysis
##URL=rruff.info/R060662
##MEASURED CHEMISTRY=(Ca_1.02_Na_0.97_K_0.59_)_Σ=2.58_(Si_14.40_Al_3.60_)_Σ=18_O_36_·10.96H_2_O
112.368, 1723.652
112.850, 2001.730
113.332, 2387.258
113.814, 2884.536
114.296, 3462.899
114.778, 4106.918
115.260, 4845.311
115.743, 5542.214
116.225, 6285.500
116.707, 6920.199
117.189, 7339.887
117.671, 7515.903
118.153, 7474.262
118.635, 7235.205
119.117, 6704.252
119.600, 6160.548
120.082, 5589.621
120.564, 5054.038
121.046, 4602.173
121.528, 4253.842
122.010, 4006.803
122.492, 3852.071
122.974, 3783.560
123.456, 3840.454
123.939, 4020.709
124.421, 4317.942
124.903, 4723.964
125.385, 5230.036
125.867, 5845.172
126.349, 6603.496
126.831, 7571.499
127.313, 8630.460
127.796, 9762.970
128.278, 10975.140
128.760, 12277.270
129.242, 13659.410
129.724, 15138.050
130.206, 16863.330
130.688, 19023.051
131.170, 21215.439
131.652, 23533.359
132.135, 25821.051
132.617, 27784.820
133.099, 29270.070
133.581, 30264.070
134.063, 30188.859
134.545, 28710.660
135.027, 26718.109
135.509, 24356.330
135.992, 21769.881
136.474, 19310.670
136.956, 17250.820
137.438, 15641.490
137.920, 14368.750
138.402, 13562.830
138.884, 12959.990
139.366, 12444.370
139.848, 11994.900
140.331, 11541.460
140.813, 10976.340
141.295, 10289.310
141.777, 9909.979
142.259, 9965.980
142.741, 10264.860
143.223, 10676.690
143.705, 11186.070
144.188, 11745.340
144.670, 12309.140
145.152, 12878.490
145.634, 13510.930
146.116, 14259.250
146.598, 15055.350
147.080, 15858.390
147.562, 16685.711
148.044, 17409.859
148.527, 17888.631
149.009, 18152.750
149.491, 18232.850
149.973, 18129.051
150.455, 17849.301
150.937, 17392.260
151.419, 16735.471
151.901, 15957.540
152.383, 15074.070
152.866, 14106.130
153.348, 13193.000
153.830, 12377.140
154.312, 11657.930
154.794, 11032.120
155.276, 10509.110
155.758, 10073.380
156.240, 9714.975
156.723, 9427.109
157.205, 9184.586
157.687, 8973.050
158.169, 8797.573
158.651, 8671.484
159.133, 8587.271
159.615, 8576.539
160.097, 8666.197
160.579, 8847.944
161.062, 9060.225
161.544, 9285.151
162.026, 9515.626
162.508, 9718.028
162.990, 9893.188
163.472, 10026.070
163.954, 10125.170
164.436, 10186.930
164.919, 10185.520
165.401, 10093.310
165.883, 9914.349
166.365, 9693.672
166.847, 9409.565
167.329, 9110.613
167.811, 8819.594
168.293, 8540.830
168.775, 8289.264
169.258, 8086.209
169.740, 7931.158
170.222, 7780.287
170.704, 7633.289
171.186, 7485.924
171.668, 7330.030
172.150, 7167.828
172.632, 7014.613
173.115, 6886.981
173.597, 6785.919
174.079, 6685.163
174.561, 6569.484
175.043, 6464.057
175.525, 6394.205
176.007, 6355.494
176.489, 6310.954
176.971, 6218.521
177.454, 6072.462
177.936, 5940.974
178.418, 5848.041
178.900, 5757.688
179.382, 5652.927
179.864, 5532.634
180.346, 5405.374
180.828, 5276.868
181.311, 5146.436
181.793, 5021.326
182.275, 4901.373
182.757, 4788.411
183.239, 4684.684
183.721, 4589.866
184.203, 4502.436
184.685, 4419.995
185.167, 4342.200
185.650, 4272.399
186.132, 4218.681
186.614, 4167.594
187.096, 4108.770
187.578, 4044.254
188.060, 3987.910
188.542, 3959.543
189.024, 3967.227
189.507, 3955.083
189.989, 3893.554
190.471, 3834.087
190.953, 3799.752
191.435, 3789.973
191.917, 3788.719
192.399, 3778.353
192.881, 3755.280
193.363, 3746.409
193.846, 3764.953
194.328, 3787.735
194.810, 3806.244
195.292, 3820.450
195.774, 3834.649
196.256, 3851.228
196.738, 3869.386
197.220, 3897.081
197.702, 3941.448
198.185, 3990.171
198.667, 4044.558
199.149, 4101.227
199.631, 4150.459
200.113, 4180.589
200.595, 4189.136
201.077, 4207.930
201.559, 4255.257
202.042, 4297.575
202.524, 4325.567
203.006, 4338.814
203.488, 4340.011
203.970, 4332.558
204.452, 4316.737
204.934, 4282.258
205.416, 4208.169
205.898, 4133.531
206.380, 4076.681
206.863, 4030.018
207.345, 3973.829
207.827, 3889.619
208.309, 3778.402
208.791, 3678.082
209.273, 3590.124
209.755, 3513.199
210.238, 3451.738
210.720, 3401.333
211.202, 3353.822
211.684, 3303.228
212.166, 3250.526
212.648, 3205.467
213.130, 3177.448
213.612, 3146.901
214.094, 3102.708
214.577, 3053.154
215.059, 3012.130
215.541, 2990.410
216.023, 2983.823
216.505, 2969.735
216.987, 2940.787
217.469, 2914.200
217.951, 2896.036
218.434, 2882.542
218.916, 2868.558
219.398, 2851.610
219.880, 2831.859
220.362, 2809.487
220.844, 2782.194
221.326, 2755.774
221.808, 2726.798
222.290, 2700.888
222.773, 2685.615
223.255, 2685.026
223.737, 2694.438
224.219, 2703.039
224.701, 2712.566
225.183, 2717.435
225.665, 2712.691
226.147, 2705.069
226.629, 2700.056
227.112, 2699.437
227.594, 2704.161
228.076, 2716.590
228.558, 2738.414
229.040, 2763.606
229.522, 2795.435
230.004, 2827.205
230.486, 2852.758
230.969, 2870.263
231.451, 2884.126
231.933, 2900.348
232.415, 2919.419
232.897, 2938.781
233.379, 2954.124
233.861, 2972.016
234.343, 2998.992
234.825, 3035.943
235.307, 3074.090
235.790, 3102.842
236.272, 3120.873
236.754, 3142.072
237.236, 3173.357
237.718, 3204.854
238.200, 3229.337
238.682, 3246.860
239.165, 3265.313
239.647, 3297.069
240.129, 3341.446
240.611, 3367.029
241.093, 3359.379
241.575, 3343.177
242.057, 3335.042
242.539, 3333.453
243.021, 3328.574
243.503, 3311.333
243.986, 3284.261
244.468, 3261.114
244.950, 3244.439
245.432, 3229.190
245.914, 3214.366
246.396, 3198.800
246.878, 3178.707
247.361, 3150.004
247.843, 3115.555
248.325, 3081.167
248.807, 3044.322
249.289, 3013.934
249.771, 2998.725
250.253, 2993.213
250.735, 2988.270
251.217, 2984.975
251.699, 2978.156
252.182, 2955.205
252.664, 2912.063
253.146, 2876.024
253.628, 2869.332
254.110, 2878.502
254.592, 2882.311
255.074, 2874.230
255.556, 2862.778
256.039, 2855.594
256.521, 2852.630
257.003, 2851.708
257.485, 2851.025
257.967, 2852.657
258.449, 2860.494
258.931, 2878.948
259.413, 2895.190
259.896, 2895.338
260.378, 2884.441
260.860, 2885.792
261.342, 2912.074
261.824, 2949.160
262.306, 2973.557
262.788, 2983.851
263.270, 2989.650
263.752, 2994.147
264.234, 2996.885
264.717, 2995.159
265.199, 2986.634
265.681, 2979.133
266.163, 2985.272
266.645, 3006.136
267.127, 3027.458
267.609, 3049.932
268.091, 3069.938
268.574, 3083.297
269.056, 3089.302
269.538, 3089.426
270.020, 3083.531
270.502, 3070.026
270.984, 3062.414
271.466, 3066.752
271.948, 3072.510
272.431, 3072.879
272.913, 3067.474
273.395, 3058.466
273.877, 3047.125
274.359, 3033.465
274.841, 3019.103
275.323, 2993.404
275.805, 2989.440
276.287, 2980.199
276.770, 2965.964
277.252, 2931.786
277.734, 2923.364
278.216, 2904.619
278.698, 2885.453
279.180, 2880.654
279.662, 2849.375
280.144, 2842.939
280.626, 2804.251
281.109, 2773.364
281.591, 2733.040
282.073, 2689.442
282.555, 2657.110
283.037, 2651.408
283.519, 2632.794
284.001, 2587.516
284.483, 2538.408
284.966, 2504.824
285.448, 2490.170
285.930, 2482.448
286.412, 2467.300
286.894, 2444.698
287.376, 2414.001
287.858, 2361.754
288.340, 2313.582
288.823, 2282.681
289.305, 2268.231
289.787, 2262.153
290.269, 2259.846
290.751, 2261.197
291.233, 2254.965
291.715, 2229.110
292.197, 2209.667
292.679, 2207.660
293.161, 2217.617
293.644, 2229.062
294.126, 2235.091
294.608, 2239.598
295.090, 2255.336
295.572, 2288.192
296.054, 2319.299
296.536, 2319.687
297.018, 2324.108
297.501, 2339.615
297.983, 2381.107
298.465, 2416.292
298.947, 2445.507
299.429, 2450.875
299.911, 2487.043
300.393, 2510.865
300.875, 2534.179
301.358, 2574.677
301.840, 2594.966
302.322, 2622.267
302.804, 2656.697
303.286, 2694.898
303.768, 2722.363
304.250, 2733.303
304.732, 2738.967
305.214, 2751.274
305.697, 2769.226
306.179, 2784.964
306.661, 2794.688
307.143, 2801.503
307.625, 2811.484
308.107, 2825.528
308.589, 2834.667
309.071, 2830.395
309.553, 2813.851
310.036, 2799.502
310.518, 2789.089
311.000, 2779.702
311.482, 2771.042
311.964, 2762.231
312.446, 2750.609
312.928, 2734.997
313.410, 2715.401
313.892, 2691.253
314.375, 2649.708
314.857, 2620.552
315.339, 2622.798
315.821, 2636.666
316.303, 2634.094
316.785, 2606.054
317.267, 2566.620
317.750, 2538.403
318.232, 2530.464
318.714, 2515.147
319.196, 2482.829
319.678, 2451.076
320.160, 2434.947
320.642, 2433.289
321.124, 2431.210
321.606, 2413.499
322.089, 2378.387
322.571, 2350.056
323.053, 2329.765
323.535, 2315.046
324.017, 2306.920
324.499, 2303.827
324.981, 2303.975
325.463, 2306.969
325.945, 2311.124
326.428, 2310.379
326.910, 2301.351
327.392, 2293.853
327.874, 2288.367
328.356, 2286.087
328.838, 2289.797
329.320, 2300.450
329.802, 2311.872
330.284, 2315.319
330.767, 2310.101
331.249, 2306.324
331.731, 2310.872
332.213, 2339.760
332.695, 2362.737
333.177, 2380.124
333.659, 2375.173
334.141, 2399.066
334.624, 2411.404
335.106, 2423.264
335.588, 2451.217
336.070, 2449.515
336.552, 2475.635
337.034, 2512.450
337.516, 2545.925
337.998, 2557.015
338.480, 2566.014
338.963, 2594.230
339.445, 2637.943
339.927, 2673.528
340.409, 2687.611
340.891, 2687.575
341.373, 2694.180
341.855, 2709.095
342.337, 2726.139
342.819, 2746.654
343.302, 2767.325
343.784, 2782.101
344.266, 2789.521
344.748, 2795.576
345.230, 2809.616
345.712, 2838.202
346.194, 2852.587
346.677, 2836.549
347.159, 2821.224
347.641, 2830.567
348.123, 2859.088
348.605, 2882.245
349.087, 2880.002
349.569, 2855.148
350.051, 2841.392
350.533, 2845.088
351.016, 2853.560
351.498, 2873.218
351.980, 2893.151
352.462, 2897.540
352.944, 2879.700
353.426, 2854.146
353.908, 2848.227
354.390, 2868.921
354.872, 2883.036
355.355, 2879.026
355.837, 2871.124
356.319, 2866.362
356.801, 2865.390
357.283, 2866.172
357.765, 2867.908
358.247, 2870.295
358.729, 2872.507
359.211, 2875.541
359.694, 2876.038
360.176, 2867.138
360.658, 2854.175
361.140, 2848.749
361.622, 2860.291
362.104, 2874.924
362.586, 2877.971
363.069, 2870.912
363.551, 2864.783
364.033, 2862.712
364.515, 2866.364
364.997, 2880.271
365.479, 2906.963
365.961, 2935.469
366.443, 2963.136
366.925, 2990.720
367.408, 3019.091
367.890, 3048.413
368.372, 3077.991
368.854, 3106.555
369.336, 3133.528
369.818, 3162.601
370.300, 3191.777
370.782, 3224.402
371.264, 3268.312
371.747, 3316.776
372.229, 3353.088
372.711, 3365.531
373.193, 3364.043
373.675, 3386.448
374.157, 3451.292
374.639, 3510.767
375.121, 3556.831
375.603, 3596.635
376.086, 3636.025
376.568, 3676.312
377.050, 3716.027
377.532, 3753.093
378.014, 3787.516
378.496, 3821.147
378.978, 3850.313
379.460, 3883.866
379.943, 3931.456
380.425, 3987.464
380.907, 4035.739
381.389, 4068.924
381.871, 4091.138
382.353, 4104.509
382.835, 4108.387
383.317, 4119.582
383.799, 4148.135
384.282, 4188.205
384.764, 4225.181
385.246, 4255.736
385.728, 4291.020
386.210, 4336.547
386.692, 4389.645
387.174, 4447.872
387.656, 4510.876
388.138, 4571.504
388.621, 4618.572
389.103, 4645.652
389.585, 4697.610
390.067, 4796.068
390.549, 4896.935
391.031, 4976.957
391.513, 5041.232
391.996, 5104.561
392.478, 5174.691
392.960, 5252.410
393.442, 5340.495
393.924, 5449.430
394.406, 5551.216
394.888, 5637.888
395.370, 5719.559
395.852, 5804.234
396.335, 5893.155
396.817, 5982.776
397.299, 6069.002
397.781, 6151.888
398.263, 6237.147
398.745, 6330.117
399.227, 6417.489
399.709, 6493.875
400.191, 6560.198
400.674, 6618.001
401.156, 6664.415
401.638, 6705.803
402.120, 6752.316
402.602, 6802.781
403.084, 6841.939
403.566, 6862.687
404.048, 6870.222
404.530, 6873.695
405.013, 6874.851
405.495, 6867.570
405.977, 6845.909
406.459, 6817.553
406.941, 6792.708
407.423, 6771.753
407.905, 6745.679
408.387, 6706.755
408.870, 6655.079
409.352, 6598.645
409.834, 6550.136
410.316, 6482.893
410.798, 6370.636
411.280, 6242.610
411.762, 6139.982
412.244, 6078.196
412.727, 6035.778
413.209, 5978.451
413.691, 5903.683
414.173, 5822.188
414.655, 5729.089
415.137, 5633.361
415.619, 5537.415
416.101, 5441.899
416.583, 5345.806
417.065, 5248.874
417.548, 5151.261
418.030, 5051.451
418.512, 4946.949
418.994, 4851.821
419.476, 4784.065
419.958, 4723.118
420.440, 4632.021
420.922, 4496.654
421.405, 4367.370
421.887, 4273.491
422.369, 4199.647
422.851, 4122.289
423.333, 4037.275
423.815, 3943.903
424.297, 3838.318
424.779, 3718.530
425.262, 3620.956
425.744, 3560.495
426.226, 3503.537
426.708, 3436.307
427.190, 3363.610
427.672, 3295.338
428.154, 3236.315
428.636, 3180.884
429.118, 3116.390
429.601, 3037.062
430.083, 2963.263
430.565, 2896.973
431.047, 2835.908
431.529, 2778.682
432.011, 2725.522
432.493, 2677.483
432.975, 2638.267
433.457, 2603.719
433.940, 2562.018
434.422, 2511.859
434.904, 2460.888
435.386, 2410.456
435.868, 2362.836
436.350, 2321.620
436.832, 2289.204
437.314, 2257.414
437.797, 2217.549
438.279, 2177.253
438.761, 2153.771
439.243, 2150.035
439.725, 2145.344
440.207, 2117.261
440.689, 2063.530
441.171, 2032.225
441.654, 2040.367
442.136, 2048.262
442.618, 2039.784
443.100, 2023.108
443.582, 2011.905
444.064, 2011.492
444.546, 2015.887
445.028, 2014.356
445.510, 2003.984
445.992, 1998.012
446.475, 1998.284
446.957, 2002.282
447.439, 2009.157
447.921, 2018.910
448.403, 2032.084
448.885, 2051.895
449.367, 2072.750
449.849, 2082.345
450.332, 2079.860
450.814, 2085.144
451.296, 2108.822
451.778, 2141.446
452.260, 2168.478
452.742, 2189.224
453.224, 2208.250
453.706, 2220.468
454.189, 2235.449
454.671, 2266.277
455.153, 2312.287
455.635, 2360.483
456.117, 2401.416
456.599, 2436.055
457.081, 2471.749
457.563, 2508.924
458.045, 2547.056
458.527, 2588.192
459.010, 2628.889
459.492, 2664.210
459.974, 2693.866
460.456, 2724.116
460.938, 2763.855
461.420, 2812.967
461.902, 2852.639
462.384, 2875.795
462.867, 2901.688
463.349, 2943.877
463.831, 2993.903
464.313, 3038.393
464.795, 3073.372
465.277, 3103.715
465.759, 3131.490
466.241, 3157.543
466.724, 3184.954
467.206, 3214.883
467.688, 3244.342
468.170, 3270.370
468.652, 3292.545
469.134, 3312.276
469.616, 3323.343
470.098, 3338.136
470.580, 3359.497
471.063, 3389.402
471.545, 3432.753
472.027, 3491.618
472.509, 3559.175
472.991, 3621.317
473.473, 3675.073
473.955, 3733.781
474.437, 3791.284
474.919, 3860.939
475.402, 3955.723
475.884, 4069.003
476.366, 4181.229
476.848, 4286.212
477.330, 4381.882
477.812, 4457.464
478.294, 4513.608
478.776, 4588.992
479.259, 4708.164
479.741, 4839.073
480.223, 4929.960
480.705, 4979.334
481.187, 5020.435
481.669, 5060.252
482.151, 5093.848
482.633, 5120.841
483.116, 5138.466
483.598, 5138.322
484.080, 5114.278
484.562, 5071.271
485.044, 5026.943
485.526, 4990.551
486.008, 4935.695
486.490, 4859.919
486.972, 4768.343
487.454, 4659.105
487.937, 4535.665
488.419, 4410.851
488.901, 4297.979
489.383, 4189.705
489.865, 4061.548
490.347, 3909.013
490.829, 3763.836
491.311, 3644.567
491.794, 3537.260
492.276, 3415.573
492.758, 3273.433
493.240, 3141.192
493.722, 3033.512
494.204, 2936.905
494.686, 2836.237
495.168, 2730.538
495.651, 2628.538
496.133, 2536.834
496.615, 2453.354
497.097, 2370.727
497.579, 2284.175
498.061, 2205.192
498.543, 2133.382
499.025, 2070.032
499.507, 2019.315
499.990, 1979.931
500.472, 1943.183
500.954, 1901.056
501.436, 1855.931
501.918, 1816.509
502.400, 1783.584
502.882, 1753.523
503.364, 1724.900
503.846, 1698.333
504.329, 1675.155
504.811, 1657.562
505.293, 1636.115
505.775, 1602.225
506.257, 1565.262
506.739, 1536.143
507.221, 1515.865
507.703, 1500.762
508.185, 1489.709
508.668, 1480.464
509.150, 1459.573
509.632, 1410.522
510.114, 1373.117
510.596, 1356.668
511.078, 1348.758
511.560, 1341.784
512.042, 1333.605
512.525, 1322.606
513.007, 1305.342
513.489, 1284.535
513.971, 1269.506
514.453, 1261.039
514.935, 1253.835
515.417, 1243.777
515.899, 1235.042
516.381, 1224.758
516.864, 1219.036
517.346, 1219.076
517.828, 1217.718
518.310, 1215.036
518.792, 1207.066
519.274, 1205.925
519.756, 1202.047
520.239, 1198.056
520.721, 1197.876
521.203, 1190.675
521.685, 1190.434
522.167, 1186.907
522.649, 1184.871
523.131, 1184.448
523.613, 1178.897
524.095, 1168.480
524.578, 1157.674
525.060, 1146.330
525.542, 1138.161
526.024, 1145.567
526.506, 1168.994
526.988, 1180.752
527.470, 1164.990
527.952, 1138.178
528.434, 1129.163
528.917, 1141.280
529.399, 1149.962
529.881, 1148.113
530.363, 1144.933
530.845, 1148.755
531.327, 1156.950
531.809, 1160.565
532.291, 1154.585
532.773, 1144.291
533.256, 1142.763
533.738, 1154.653
534.220, 1159.997
534.702, 1154.269
535.184, 1144.010
535.666, 1127.847
536.148, 1109.712
536.630, 1100.272
537.112, 1107.546
537.595, 1120.508
538.077, 1129.862
538.559, 1135.438
539.041, 1135.443
539.523, 1128.576
540.005, 1120.084
540.487, 1115.916
540.969, 1116.551
541.452, 1118.996
541.934, 1127.913
542.416, 1133.245
542.898, 1129.480
543.380, 1120.679
543.862, 1112.470
544.344, 1106.737
544.826, 1101.916
545.308, 1094.620
545.791, 1085.146
546.273, 1083.935
546.755, 1096.447
547.237, 1105.986
547.719, 1096.806
548.201, 1079.773
548.683, 1076.201
549.166, 1097.367
549.648, 1111.794
550.130, 1096.335
550.612, 1070.058
551.094, 1059.118
551.576, 1066.125
552.058, 1077.749
552.540, 1083.895
553.022, 1085.366
553.505, 1086.876
553.987, 1087.910
554.469, 1089.865
554.951, 1095.196
555.433, 1099.688
555.915, 1100.117
556.397, 1096.456
556.879, 1090.837
557.362, 1080.983
557.844, 1071.865
558.326, 1074.993
558.808, 1089.407
559.290, 1098.529
559.772, 1095.458
560.254, 1085.474
560.736, 1075.928
561.218, 1066.043
561.701, 1059.843
562.183, 1054.292
562.665, 1055.526
563.147, 1073.969
563.629, 1099.943
564.111, 1115.643
564.593, 1113.718
565.075, 1102.798
565.557, 1093.678
566.040, 1086.261
566.522, 1083.674
567.004, 1088.384
567.486, 1093.799
567.968, 1096.296
568.450, 1096.431
568.932, 1094.985
569.414, 1091.989
569.896, 1087.549
570.379, 1075.577
570.861, 1065.062
571.343, 1072.850
571.825, 1098.443
572.307, 1121.577
572.789, 1125.294
573.271, 1113.413
573.753, 1107.786
574.235, 1113.677
574.718, 1115.972
575.200, 1107.144
575.682, 1098.109
576.164, 1096.357
576.646, 1101.904
577.128, 1110.247
577.610, 1121.052
578.093, 1132.033
578.575, 1140.227
579.057, 1146.005
579.539, 1150.890
580.021, 1155.153
580.503, 1160.059
580.985, 1168.311
581.467, 1182.478
581.949, 1187.017
582.432, 1172.805
582.914, 1160.624
583.396, 1157.831
583.878, 1161.061
584.360, 1165.437
584.842, 1169.512
585.324, 1175.124
585.806, 1185.708
586.289, 1199.662
586.771, 1209.659
587.253, 1214.653
587.735, 1219.670
588.217, 1227.094
588.699, 1236.573
589.181, 1247.966
589.663, 1264.100
590.145, 1275.208
590.628, 1272.432
591.110, 1270.130
591.592, 1280.759
592.074, 1301.572
592.556, 1322.489
593.038, 1338.062
593.520, 1350.262
594.002, 1362.359
594.484, 1374.219
594.967, 1388.196
595.449, 1405.835
595.931, 1423.827
596.413, 1439.441
596.895, 1453.456
597.377, 1467.667
597.859, 1479.923
598.341, 1495.669
598.823, 1523.505
599.306, 1553.540
599.788, 1570.982
600.270, 1574.630
600.752, 1574.072
601.234, 1576.180
601.716, 1581.685
602.198, 1595.918
602.680, 1625.045
603.162, 1647.780
603.645, 1654.360
604.127, 1657.263
604.609, 1666.279
605.091, 1680.363
605.573, 1690.672
606.055, 1692.922
606.537, 1690.889
607.019, 1683.514
607.502, 1674.620
607.984, 1675.497
608.466, 1689.323
608.948, 1705.479
609.430, 1711.200
609.912, 1705.929
610.394, 1706.279
610.876, 1716.094
611.359, 1726.141
611.841, 1734.905
612.323, 1742.526
612.805, 1750.472
613.287, 1758.551
613.769, 1761.540
614.251, 1751.925
614.733, 1738.108
615.216, 1735.580
615.698, 1741.133
616.180, 1733.494
616.662, 1702.383
617.144, 1665.681
617.626, 1653.393
618.108, 1675.008
618.590, 1678.770
619.072, 1651.422
619.555, 1621.269
620.037, 1592.857
620.519, 1567.824
621.001, 1547.826
621.483, 1533.308
621.965, 1522.136
622.447, 1518.909
622.929, 1516.002
623.411, 1492.979
623.894, 1450.410
624.376, 1415.278
624.858, 1402.057
625.340, 1401.081
625.822, 1392.952
626.304, 1376.035
626.786, 1355.794
627.268, 1325.209
627.750, 1299.086
628.233, 1284.786
628.715, 1278.935
629.197, 1263.777
629.679, 1229.830
630.161, 1210.563
630.643, 1206.493
631.125, 1198.734
631.607, 1187.483
632.089, 1162.286
632.572, 1155.095
633.054, 1140.691
