##NAMES=Clinoptilolite-Na
##RRUFFID=R061099
##IDEAL CHEMISTRY=Na_6_(Si_30_Al_6_)O_72_&#183;20H_2_O
##LOCALITY=Richardson Ranch, Madras, Jefferson County, Oregon, USA
##OWNER=RRUFF
##SOURCE=Michael Scott
##DESCRIPTION=Red-brown to salmon, somewhat coffin shaped tabular crystals in a fragmented geode
##STATUS=The identification of this mineral has been confirmed by X-ray diffraction and chemical analysis
##URL=rruff.info/R061099
##MEASURED CHEMISTRY=(Na_2.70_Ca_1.46_K_0.89_Fe_0.08_Mg_0.02_)_Σ=5.15_(Si_29.29_Al_6.71_)O_72_·18.51H_2_O
113.9155, 1536.276
114.3976, 1598.145
114.8797, 1674.922
115.3619, 1746.253
115.8440, 1798.868
116.3261, 1849.013
116.8082, 1905.551
117.2903, 1970.818
117.7724, 2048.508
118.2546, 2145.976
118.7367, 2264.031
119.2188, 2402.785
119.7009, 2550.585
120.1830, 2718.543
120.6651, 2914.448
121.1473, 3141.016
121.6294, 3401.742
122.1115, 3712.102
122.5936, 4101.426
123.0757, 4508.287
123.5578, 4927.329
124.0400, 5353.310
124.5221, 5788.301
125.0042, 6231.979
125.4863, 6678.471
125.9684, 7083.870
126.4505, 7413.982
126.9327, 7732.579
127.4148, 8070.308
127.8969, 8403.602
128.3790, 8688.194
128.8611, 8892.064
129.3432, 9017.647
129.8254, 9125.104
130.3075, 9257.509
130.7896, 9333.615
131.2717, 9295.047
131.7538, 9171.196
132.2359, 9038.334
132.7181, 8955.855
133.2002, 8927.475
133.6823, 8894.522
134.1644, 8840.443
134.6465, 8796.919
135.1286, 8770.306
135.6108, 8765.471
136.0929, 8792.299
136.5750, 8856.465
137.0571, 8961.006
137.5392, 9131.454
138.0213, 9372.350
138.5035, 9669.558
138.9856, 10055.35
139.4677, 10520.44
139.9498, 10952.13
140.4319, 11238.66
140.9140, 11352.01
141.3961, 11435.28
141.8783, 11467.05
142.3604, 11482.74
142.8425, 11519.29
143.3246, 11582.57
143.8067, 11643.39
144.2888, 11661.00
144.7710, 11631.81
145.2531, 11632.19
145.7352, 11652.92
146.2173, 11562.94
146.6994, 11336.86
147.1815, 11099.85
147.6637, 10882.89
148.1458, 10737.17
148.6279, 10653.27
149.1100, 10547.15
149.5921, 10397.19
150.0742, 10211.56
150.5564, 9994.052
151.0385, 9731.272
151.5206, 9467.201
152.0027, 9256.494
152.4848, 9090.122
152.9669, 8923.452
153.4491, 8742.660
153.9312, 8546.497
154.4133, 8329.399
154.8954, 8074.842
155.3775, 7824.156
155.8596, 7618.034
156.3418, 7452.891
156.8239, 7308.027
157.3060, 7172.594
157.7881, 7048.149
158.2702, 6944.291
158.7523, 6876.846
159.2345, 6810.628
159.7166, 6708.930
160.1987, 6574.317
160.6808, 6443.960
161.1629, 6343.772
161.6451, 6269.214
162.1272, 6193.520
162.6093, 6110.481
163.0914, 6028.687
163.5735, 5954.066
164.0556, 5886.794
164.5378, 5828.264
165.0199, 5786.707
165.5020, 5759.981
165.9841, 5718.883
166.4662, 5643.756
166.9483, 5568.706
167.4305, 5520.707
167.9126, 5499.534
168.3947, 5481.749
168.8768, 5448.501
169.3589, 5400.022
169.8410, 5351.089
170.3232, 5308.758
170.8053, 5261.460
171.2874, 5195.316
171.7695, 5111.252
172.2516, 5031.787
172.7337, 4986.213
173.2159, 4977.067
173.6980, 4943.085
174.1801, 4842.763
174.6622, 4739.281
175.1443, 4675.801
175.6264, 4653.159
176.1085, 4634.977
176.5907, 4581.791
177.0728, 4488.298
177.5549, 4406.962
178.0370, 4351.132
178.5191, 4304.799
179.0012, 4261.984
179.4834, 4221.383
179.9655, 4182.733
180.4476, 4146.023
180.9297, 4111.688
181.4118, 4076.780
181.8939, 4038.101
182.3761, 4001.039
182.8582, 3967.718
183.3403, 3938.663
183.8224, 3914.385
184.3045, 3898.618
184.7866, 3894.200
185.2688, 3880.555
185.7509, 3839.633
186.2330, 3801.189
186.7151, 3786.442
187.1972, 3793.511
187.6793, 3797.632
188.1615, 3763.514
188.6436, 3678.599
189.1257, 3628.782
189.6078, 3669.133
190.0899, 3707.598
190.5720, 3698.151
191.0542, 3641.119
191.5363, 3570.591
192.0184, 3519.067
192.5005, 3488.127
192.9826, 3466.343
193.4647, 3465.264
193.9469, 3464.091
194.4290, 3453.533
194.9111, 3433.608
195.3932, 3410.414
195.8753, 3389.638
196.3574, 3371.683
196.8396, 3353.135
197.3217, 3332.429
197.8038, 3312.376
198.2859, 3294.718
198.7680, 3279.033
199.2501, 3263.684
199.7323, 3248.002
200.2144, 3232.354
200.6965, 3212.624
201.1786, 3178.349
201.6607, 3148.624
202.1428, 3132.645
202.6250, 3128.446
203.1071, 3127.318
203.5892, 3122.609
204.0713, 3114.245
204.5534, 3102.540
205.0355, 3082.138
205.5177, 3063.015
205.9998, 3048.998
206.4819, 3039.273
206.9640, 3031.053
207.4461, 3022.136
207.9282, 3012.498
208.4104, 3003.960
208.8925, 3005.728
209.3746, 2998.575
209.8567, 2965.861
210.3388, 2918.556
210.8209, 2881.432
211.3030, 2876.399
211.7852, 2900.263
212.2673, 2909.660
212.7494, 2892.082
213.2315, 2873.062
213.7136, 2859.783
214.1957, 2851.123
214.6779, 2843.996
215.1600, 2835.936
215.6421, 2827.791
216.1242, 2825.745
216.6063, 2837.155
217.0884, 2845.026
217.5706, 2841.226
218.0527, 2831.511
218.5348, 2825.679
219.0169, 2831.049
219.4990, 2842.976
219.9811, 2842.112
220.4633, 2817.137
220.9454, 2797.097
221.4275, 2793.504
221.9096, 2797.911
222.3917, 2799.425
222.8738, 2792.428
223.3560, 2780.157
223.8381, 2771.122
224.3202, 2766.725
224.8023, 2762.972
225.2844, 2753.471
225.7665, 2745.896
226.2487, 2751.160
226.7308, 2775.458
227.2129, 2806.321
227.6950, 2818.156
228.1771, 2803.350
228.6592, 2789.034
229.1414, 2778.272
229.6235, 2772.836
230.1056, 2775.665
230.5877, 2787.976
231.0698, 2805.161
231.5519, 2822.062
232.0341, 2839.732
232.5162, 2852.765
232.9983, 2856.901
233.4804, 2857.787
233.9625, 2858.897
234.4446, 2860.975
234.9268, 2862.857
235.4089, 2859.607
235.8910, 2849.128
236.3731, 2852.637
236.8552, 2888.997
237.3373, 2930.122
237.8195, 2957.629
238.3016, 2970.057
238.7837, 2978.768
239.2658, 2991.827
239.7479, 3009.245
240.2300, 3032.383
240.7122, 3070.214
241.1943, 3104.353
241.6764, 3120.634
242.1585, 3120.885
242.6406, 3119.229
243.1227, 3124.580
243.6049, 3136.100
244.0870, 3149.194
244.5691, 3163.382
245.0512, 3179.515
245.5333, 3199.796
246.0154, 3222.731
246.4975, 3242.893
246.9797, 3254.903
247.4618, 3262.315
247.9439, 3275.941
248.4260, 3299.942
248.9081, 3320.876
249.3902, 3327.927
249.8724, 3325.473
250.3545, 3321.508
250.8366, 3319.872
251.3187, 3317.860
251.8008, 3310.348
252.2829, 3296.340
252.7651, 3282.114
253.2472, 3266.739
253.7293, 3254.691
254.2114, 3255.855
254.6935, 3284.619
255.1756, 3314.928
255.6578, 3317.116
256.1399, 3291.634
256.6220, 3267.039
257.1041, 3256.849
257.5862, 3256.973
258.0684, 3257.904
258.5505, 3262.249
259.0326, 3262.691
259.5147, 3251.167
259.9968, 3230.529
260.4789, 3214.331
260.9611, 3210.081
261.4432, 3209.918
261.9253, 3198.382
262.4074, 3172.544
262.8895, 3146.455
263.3716, 3125.368
263.8537, 3107.996
264.3358, 3092.325
264.8180, 3078.525
265.3001, 3064.036
265.7822, 3044.110
266.2643, 3017.657
266.7464, 2992.444
267.2285, 2965.103
267.7107, 2941.876
268.1928, 2934.546
268.6749, 2945.229
269.1570, 2956.233
269.6391, 2946.163
270.1212, 2908.202
270.6034, 2884.489
271.0855, 2891.737
271.5676, 2901.115
272.0497, 2886.799
272.5318, 2850.417
273.0139, 2816.716
273.4961, 2807.890
273.9782, 2824.769
274.4603, 2822.068
274.9424, 2781.614
275.4245, 2743.010
275.9066, 2722.047
276.3888, 2716.303
276.8709, 2718.972
277.3530, 2727.385
277.8351, 2739.001
278.3172, 2738.625
278.7993, 2714.530
279.2815, 2692.553
279.7636, 2674.642
280.2457, 2661.827
280.7278, 2657.152
281.2099, 2661.994
281.6920, 2670.442
282.1742, 2667.933
282.6563, 2639.397
283.1384, 2623.004
283.6205, 2632.518
284.1026, 2646.047
284.5847, 2645.229
285.0669, 2626.206
285.5490, 2597.995
286.0311, 2570.865
286.5132, 2540.240
286.9953, 2524.566
287.4774, 2536.263
287.9596, 2551.187
288.4417, 2557.665
288.9238, 2555.593
289.4059, 2551.319
289.8880, 2550.808
290.3701, 2554.125
290.8523, 2553.758
291.3344, 2546.308
291.8165, 2538.645
292.2986, 2531.536
292.7807, 2526.081
293.2628, 2524.383
293.7450, 2529.063
294.2271, 2537.355
294.7092, 2540.262
295.1913, 2535.335
295.6734, 2530.256
296.1555, 2525.843
296.6377, 2523.559
297.1198, 2526.052
297.6019, 2535.241
298.0840, 2546.230
298.5661, 2552.126
299.0482, 2552.366
299.5304, 2553.408
300.0125, 2555.775
300.4946, 2561.104
300.9767, 2574.456
301.4588, 2598.073
301.9409, 2613.696
302.4231, 2600.187
302.9052, 2566.184
303.3873, 2546.740
303.8694, 2551.169
304.3515, 2567.446
304.8336, 2587.758
305.3158, 2611.449
305.7979, 2626.223
306.2800, 2620.407
306.7621, 2606.703
307.2442, 2604.034
307.7263, 2614.828
308.2085, 2625.861
308.6906, 2626.262
309.1727, 2616.578
309.6548, 2608.275
310.1369, 2600.840
310.6190, 2595.594
311.1012, 2594.718
311.5833, 2597.111
312.0654, 2597.962
312.5475, 2593.510
313.0296, 2586.535
313.5117, 2589.108
313.9939, 2613.789
314.4760, 2630.973
314.9581, 2628.087
315.4402, 2616.165
315.9223, 2610.485
316.4044, 2616.295
316.8866, 2627.797
317.3687, 2635.464
317.8508, 2639.871
318.3329, 2638.209
318.8150, 2625.237
319.2971, 2610.550
319.7793, 2599.209
320.2614, 2592.527
320.7435, 2590.471
321.2256, 2593.520
321.7077, 2602.152
322.1898, 2610.880
322.6720, 2621.897
323.1541, 2630.915
323.6362, 2637.900
324.1183, 2641.821
324.6004, 2639.520
325.0826, 2627.201
325.5647, 2610.552
326.0468, 2610.856
326.5289, 2638.781
327.0110, 2663.489
327.4931, 2677.497
327.9753, 2685.279
328.4574, 2690.160
328.9395, 2693.039
329.4216, 2694.692
329.9037, 2695.248
330.3858, 2694.486
330.8680, 2696.608
331.3501, 2707.793
331.8322, 2716.790
332.3143, 2712.150
332.7964, 2694.923
333.2785, 2680.534
333.7606, 2678.102
334.2427, 2685.130
334.7249, 2696.335
335.2070, 2712.533
335.6891, 2728.808
336.1712, 2740.732
336.6533, 2749.624
337.1354, 2759.493
337.6176, 2775.886
338.0997, 2789.809
338.5818, 2789.969
339.0639, 2778.686
339.5460, 2772.042
340.0281, 2779.765
340.5103, 2796.196
340.9924, 2803.902
341.4745, 2796.789
341.9566, 2792.354
342.4387, 2796.937
342.9208, 2806.443
343.4030, 2815.732
343.8851, 2823.378
344.3672, 2829.337
344.8493, 2832.804
345.3314, 2830.375
345.8135, 2836.390
346.2957, 2862.502
346.7778, 2886.649
347.2599, 2890.713
347.7420, 2879.044
348.2241, 2870.941
348.7062, 2882.389
349.1884, 2911.681
349.6705, 2933.828
350.1526, 2941.145
350.6347, 2949.820
351.1168, 2963.413
351.5989, 2979.878
352.0811, 2996.012
352.5632, 3010.405
353.0453, 3025.539
353.5274, 3048.574
354.0095, 3084.703
354.4916, 3109.184
354.9738, 3097.710
355.4559, 3087.194
355.9380, 3104.358
356.4201, 3148.682
356.9022, 3193.531
357.3843, 3212.671
357.8665, 3213.709
358.3486, 3231.978
358.8307, 3275.024
359.3128, 3323.060
359.7949, 3366.341
360.2770, 3404.598
360.7592, 3436.314
361.2413, 3456.893
361.7234, 3474.154
362.2055, 3497.435
362.6876, 3525.575
363.1697, 3547.067
363.6519, 3553.388
364.1340, 3553.165
364.6161, 3567.625
365.0982, 3602.224
365.5803, 3636.113
366.0624, 3663.318
366.5446, 3686.705
367.0267, 3708.107
367.5088, 3728.170
367.9909, 3752.294
368.4730, 3787.412
368.9551, 3837.172
369.4373, 3879.972
369.9194, 3905.026
370.4015, 3934.513
370.8836, 3986.326
371.3657, 4050.788
371.8478, 4105.007
372.3300, 4134.916
372.8121, 4145.322
373.2942, 4154.017
373.7763, 4150.625
374.2584, 4163.266
374.7405, 4206.878
375.2227, 4259.283
375.7048, 4300.494
376.1869, 4326.266
376.6690, 4349.714
377.1511, 4388.283
377.6332, 4442.541
378.1154, 4487.018
378.5975, 4510.260
379.0796, 4535.672
379.5617, 4581.586
380.0438, 4641.159
380.5259, 4694.622
381.0081, 4723.103
381.4902, 4746.022
381.9723, 4797.391
382.4544, 4878.590
382.9365, 4958.196
383.4186, 5019.958
383.9008, 5070.872
384.3829, 5126.531
384.8650, 5185.682
385.3471, 5251.380
385.8292, 5327.623
386.3113, 5410.877
386.7935, 5493.538
387.2756, 5573.849
387.7577, 5658.909
388.2398, 5758.522
388.7219, 5878.306
389.2040, 5986.968
389.6862, 6067.113
390.1683, 6153.907
390.6504, 6273.620
391.1325, 6415.539
391.6146, 6546.059
392.0967, 6644.059
392.5789, 6723.447
393.0610, 6835.854
393.5431, 7005.451
394.0252, 7171.260
394.5073, 7326.403
394.9894, 7474.915
395.4716, 7621.095
395.9537, 7765.269
396.4358, 7904.958
396.9179, 8036.305
397.4000, 8159.223
397.8821, 8286.407
398.3643, 8423.300
398.8464, 8556.594
399.3285, 8685.100
399.8106, 8805.617
400.2927, 8911.033
400.7748, 8995.135
401.2570, 9066.875
401.7391, 9139.877
402.2212, 9212.884
402.7033, 9270.448
403.1854, 9307.412
403.6675, 9323.946
404.1497, 9318.148
404.6317, 9288.240
405.1139, 9249.825
405.5960, 9204.324
406.0781, 9153.846
406.5602, 9104.759
407.0423, 9056.232
407.5244, 8993.218
408.0066, 8901.019
408.4887, 8779.639
408.9708, 8661.865
409.4529, 8557.062
409.9350, 8444.808
410.4171, 8313.199
410.8993, 8173.458
411.3814, 8044.215
411.8635, 7931.927
412.3456, 7823.413
412.8277, 7693.757
413.3098, 7533.929
413.7920, 7385.284
414.2741, 7265.060
414.7562, 7145.599
415.2383, 7010.967
415.7204, 6864.801
416.2025, 6723.695
416.6847, 6603.338
417.1668, 6492.182
417.6489, 6359.559
418.1310, 6200.205
418.6131, 6050.580
419.0952, 5933.657
419.5774, 5833.649
420.0595, 5722.094
420.5416, 5592.665
421.0237, 5465.792
421.5058, 5353.063
421.9879, 5248.543
422.4701, 5141.909
422.9522, 5031.045
423.4343, 4921.094
423.9164, 4818.035
424.3985, 4722.782
424.8806, 4621.769
425.3628, 4500.475
425.8449, 4389.005
426.3270, 4305.662
426.8091, 4239.281
427.2912, 4169.613
427.7733, 4087.697
428.2555, 3998.944
428.7376, 3911.479
429.2197, 3822.307
429.7018, 3743.659
430.1839, 3684.466
430.6660, 3628.935
431.1482, 3566.631
431.6303, 3499.714
432.1124, 3438.719
432.5945, 3392.619
433.0766, 3357.059
433.5587, 3321.981
434.0409, 3288.142
434.5230, 3251.558
435.0051, 3209.715
435.4872, 3164.309
435.9693, 3116.984
436.4514, 3066.377
436.9336, 3018.388
437.4157, 2972.235
437.8978, 2931.510
438.3799, 2904.851
438.8620, 2893.823
439.3441, 2885.410
439.8263, 2867.335
440.3084, 2839.078
440.7905, 2811.345
441.2726, 2778.931
441.7547, 2752.525
442.2368, 2738.861
442.7190, 2732.775
443.2011, 2725.861
443.6832, 2714.893
444.1653, 2704.263
444.6474, 2702.896
445.1295, 2714.857
445.6117, 2721.552
446.0938, 2719.881
446.5759, 2714.465
447.0580, 2703.363
447.5401, 2689.845
448.0222, 2682.136
448.5044, 2685.626
448.9865, 2696.431
449.4686, 2707.771
449.9507, 2719.490
450.4328, 2735.943
450.9149, 2759.621
451.3971, 2788.204
451.8792, 2818.443
452.3613, 2850.801
452.8434, 2881.816
453.3255, 2910.106
453.8076, 2936.826
454.2898, 2962.084
454.7719, 2986.493
455.2540, 3012.802
455.7361, 3042.306
456.2182, 3075.705
456.7003, 3119.149
457.1825, 3184.649
457.6646, 3246.281
458.1467, 3296.040
458.6288, 3343.783
459.1109, 3402.400
459.5930, 3473.302
460.0752, 3542.252
460.5573, 3591.116
461.0394, 3620.246
461.5215, 3660.326
462.0036, 3717.083
462.4857, 3775.407
462.9679, 3832.350
463.4500, 3884.939
463.9321, 3927.372
464.4142, 3955.263
464.8963, 3979.370
465.3784, 4008.717
465.8606, 4041.216
466.3427, 4069.619
466.8248, 4091.546
467.3069, 4112.285
467.7890, 4137.913
468.2711, 4169.243
468.7533, 4199.723
469.2354, 4224.692
469.7175, 4253.441
470.1996, 4289.416
470.6817, 4332.824
471.1638, 4383.374
471.6460, 4441.196
472.1281, 4505.532
472.6102, 4575.813
473.0923, 4652.922
473.5744, 4733.509
474.0565, 4819.727
474.5387, 4907.845
475.0208, 4996.830
475.5029, 5086.800
475.9850, 5177.762
476.4671, 5269.446
476.9492, 5362.465
477.4313, 5463.359
477.9135, 5572.174
478.3956, 5661.387
478.8777, 5715.706
479.3598, 5753.134
479.8419, 5805.389
480.3240, 5878.055
480.8062, 5925.139
481.2883, 5922.086
481.7704, 5901.886
482.2525, 5897.022
482.7346, 5901.752
483.2167, 5886.208
483.6989, 5831.350
484.1810, 5746.904
484.6631, 5666.158
485.1452, 5601.103
485.6273, 5517.584
486.1094, 5407.291
486.5916, 5285.860
487.0737, 5163.689
487.5558, 5040.983
488.0379, 4909.526
488.5200, 4759.402
489.0021, 4598.404
489.4843, 4446.637
489.9664, 4304.097
490.4485, 4171.802
490.9306, 4057.323
491.4127, 3947.993
491.8948, 3818.862
492.3770, 3662.869
492.8591, 3518.088
493.3412, 3403.700
493.8233, 3303.038
494.3054, 3196.820
494.7875, 3084.514
495.2697, 2980.331
495.7518, 2894.751
496.2339, 2823.767
496.7160, 2747.531
497.1981, 2657.860
497.6802, 2574.008
498.1624, 2492.443
498.6445, 2420.606
499.1266, 2367.273
499.6087, 2331.547
500.0908, 2301.950
500.5729, 2269.318
501.0551, 2235.381
501.5372, 2208.639
502.0193, 2192.666
502.5014, 2168.971
502.9835, 2121.193
503.4656, 2065.456
503.9478, 2029.348
504.4299, 2019.229
504.9120, 2006.715
505.3941, 1974.244
505.8762, 1937.522
506.3583, 1918.525
506.8405, 1916.901
507.3226, 1912.898
507.8047, 1891.716
508.2868, 1857.022
508.7689, 1829.224
509.2510, 1814.432
509.7332, 1797.950
510.2153, 1773.806
510.6974, 1750.988
511.1795, 1738.816
511.6616, 1736.561
512.1437, 1734.002
512.6259, 1720.384
513.1080, 1700.686
513.5901, 1692.805
514.0722, 1699.021
514.5543, 1703.920
515.0364, 1700.328
515.5186, 1691.822
516.0007, 1684.231
516.4828, 1677.222
516.9649, 1672.354
517.4470, 1673.601
517.9291, 1674.924
518.4113, 1669.773
518.8934, 1658.401
519.3755, 1644.813
519.8576, 1631.352
520.3397, 1618.204
520.8218, 1605.261
521.3040, 1586.086
521.7861, 1579.248
522.2682, 1598.987
522.7503, 1619.762
523.2324, 1623.587
523.7145, 1611.539
524.1967, 1596.294
524.6788, 1584.055
525.1609, 1574.896
525.6430, 1570.585
526.1251, 1571.257
526.6072, 1568.963
527.0894, 1559.543
527.5715, 1547.150
528.0536, 1538.805
528.5357, 1535.365
529.0178, 1529.892
529.4999, 1518.395
529.9821, 1507.130
530.4642, 1502.119
530.9463, 1501.116
531.4284, 1497.472
531.9105, 1487.688
532.3926, 1474.594
532.8748, 1463.507
533.3569, 1453.226
533.8390, 1449.092
534.3211, 1456.888
534.8032, 1465.854
535.2853, 1472.078
535.7675, 1475.101
536.2496, 1474.103
536.7317, 1466.686
537.2138, 1457.960
537.6959, 1452.164
538.1780, 1449.454
538.6602, 1451.960
539.1423, 1461.236
539.6244, 1470.465
540.1065, 1471.519
540.5886, 1463.209
541.0707, 1455.735
541.5529, 1450.091
542.0350, 1444.084
542.5171, 1435.608
542.9992, 1426.819
543.4813, 1420.020
543.9634, 1416.058
544.4456, 1415.759
544.9277, 1422.540
545.4098, 1435.976
545.8919, 1442.038
546.3740, 1437.379
546.8561, 1431.916
547.3383, 1430.962
547.8204, 1432.801
548.3025, 1435.243
548.7846, 1439.663
549.2667, 1440.754
549.7488, 1433.236
550.2310, 1422.393
550.7131, 1416.244
551.1952, 1415.094
551.6773, 1412.233
552.1594, 1401.725
552.6415, 1386.163
553.1237, 1380.235
553.6058, 1392.329
554.0879, 1400.107
554.5700, 1397.627
555.0521, 1393.109
555.5342, 1392.088
556.0164, 1394.846
556.4985, 1398.939
556.9806, 1403.513
557.4627, 1408.143
557.9448, 1412.708
558.4269, 1417.090
558.9091, 1419.140
559.3912, 1417.900
559.8733, 1414.203
560.3554, 1407.919
560.8375, 1396.255
561.3196, 1394.068
561.8018, 1414.161
562.2839, 1430.989
562.7660, 1428.314
563.2481, 1414.108
563.7302, 1404.251
564.2123, 1404.995
564.6945, 1408.520
565.1766, 1401.775
565.6587, 1384.238
566.1408, 1375.790
566.6229, 1383.333
567.1050, 1389.180
567.5872, 1374.458
568.0693, 1352.204
568.5514, 1348.084
569.0335, 1373.961
569.5156, 1400.185
569.9977, 1413.349
570.4799, 1418.538
570.9620, 1422.839
571.4441, 1426.704
571.9262, 1423.635
572.4083, 1406.350
572.8904, 1380.733
573.3726, 1377.780
573.8547, 1415.573
574.3368, 1441.569
574.8189, 1438.049
575.3010, 1429.196
575.7831, 1432.816
576.2653, 1447.249
576.7474, 1457.247
577.2295, 1450.174
577.7116, 1438.498
578.1937, 1439.757
578.6758, 1451.134
579.1580, 1457.399
579.6401, 1452.615
580.1222, 1445.857
580.6042, 1449.693
581.0864, 1467.042
581.5685, 1477.832
582.0506, 1479.358
582.5327, 1478.396
583.0148, 1473.205
583.4969, 1468.492
583.9791, 1473.173
584.4612, 1488.882
584.9433, 1501.179
585.4254, 1489.322
585.9075, 1461.060
586.3896, 1450.102
586.8718, 1459.717
587.3539, 1475.617
587.8360, 1493.580
588.3181, 1511.108
588.8002, 1522.491
589.2823, 1526.845
589.7645, 1528.377
590.2466, 1521.556
590.7287, 1517.327
591.2108, 1527.607
591.6929, 1547.498
592.1750, 1562.882
592.6572, 1566.164
593.1393, 1562.567
593.6214, 1560.026
594.1035, 1557.949
594.5856, 1563.523
595.0677, 1581.249
595.5499, 1600.870
596.0320, 1615.679
596.5141, 1627.010
596.9962, 1637.178
597.4783, 1645.569
597.9604, 1654.341
598.4426, 1664.041
598.9247, 1674.897
599.4068, 1689.017
599.8889, 1705.509
600.3710, 1717.229
600.8531, 1716.420
601.3353, 1708.814
601.8174, 1723.339
602.2995, 1773.554
602.7816, 1811.860
603.2637, 1817.292
603.7458, 1818.312
604.2280, 1831.489
604.7101, 1856.781
605.1922, 1889.666
605.6743, 1937.033
606.1564, 1983.525
606.6385, 2016.970
607.1207, 2039.429
