##NAMES=Clinoatacamite
##RRUFFID=R061066
##IDEAL CHEMISTRY=Cu^2+^_2_Cl(OH)_3_
##LOCALITY=Esperanza mine, Diego de Almagro, Chile
##OWNER=RRUFF
##SOURCE=Bob Jenkins
##DESCRIPTION=Aggregates of dark green pseudo-octahedral crystals associated with malachite
##STATUS=The identification of this mineral is confirmed by single-crystal X-ray diffraction and chemical analysis.
##URL=rruff.info/R061066
##MEASURED CHEMISTRY=Cu_2.00_Cl_1.00_(OH)_3_
118.1473, 6738.599
118.6294, 7224.188
119.1115, 7578.126
119.5937, 7853.801
120.0758, 8092.373
120.5579, 8270.128
121.0400, 8450.354
121.5221, 8671.225
122.0042, 8931.237
122.4864, 9215.167
122.9685, 9515.560
123.4506, 9833.074
123.9327, 10168.70
124.4148, 10515.81
124.8969, 10884.33
125.3791, 11286.53
125.8612, 11719.10
126.3433, 12183.82
126.8254, 12692.35
127.3075, 13193.75
127.7896, 13519.46
128.2718, 13709.37
128.7539, 13907.97
129.2360, 14103.92
129.7181, 14287.07
130.2002, 14486.54
130.6823, 14752.14
131.1645, 15079.58
131.6466, 15430.26
132.1287, 15757.87
132.6108, 16073.69
133.0929, 16462.48
133.5750, 16959.99
134.0572, 17529.27
134.5393, 18046.64
135.0214, 18502.99
135.5035, 18935.40
135.9856, 19364.31
136.4677, 19785.70
136.9498, 20234.92
137.4320, 20718.06
137.9141, 21237.53
138.3962, 21805.66
138.8783, 22439.12
139.3604, 23104.27
139.8425, 23789.64
140.3247, 24584.26
140.8068, 25171.60
141.2889, 25507.57
141.7710, 25724.66
142.2531, 25276.99
142.7352, 23999.08
143.2174, 22148.30
143.6995, 20360.70
144.1816, 18551.84
144.6637, 16934.41
145.1458, 15645.79
145.6279, 14741.90
146.1101, 14018.22
146.5922, 13495.28
147.0743, 13161.16
147.5564, 12838.50
148.0385, 12525.18
148.5206, 12224.52
149.0028, 11942.73
149.4849, 11693.35
149.9670, 11443.47
150.4491, 11170.74
150.9312, 10850.52
151.4133, 10623.12
151.8955, 10552.62
152.3776, 10555.11
152.8597, 10529.85
153.3418, 10415.96
153.8239, 10320.91
154.3060, 10278.08
154.7882, 10313.90
155.2703, 10347.64
155.7524, 10360.58
156.2345, 10364.46
156.7166, 10383.73
157.1987, 10414.37
157.6808, 10468.00
158.1630, 10552.20
158.6451, 10688.16
159.1272, 10827.20
159.6093, 10946.11
160.0914, 11053.75
160.5735, 11187.31
161.0557, 11387.06
161.5378, 11603.91
162.0199, 11801.42
162.5020, 11948.34
162.9841, 12090.45
163.4662, 12249.31
163.9484, 12424.01
164.4305, 12590.80
164.9126, 12734.17
165.3947, 12864.43
165.8768, 12993.71
166.3589, 13165.60
166.8411, 13310.43
167.3232, 13395.21
167.8053, 13420.58
168.2874, 13368.46
168.7695, 13223.40
169.2516, 12993.93
169.7338, 12695.33
170.2159, 12290.49
170.6980, 11841.37
171.1801, 11396.79
171.6622, 10949.71
172.1443, 10539.12
172.6265, 10203.85
173.1086, 9932.219
173.5907, 9693.478
174.0728, 9454.181
174.5549, 9236.436
175.0370, 9080.074
175.5192, 9014.836
176.0013, 8978.362
176.4834, 8895.705
176.9655, 8773.876
177.4476, 8666.570
177.9297, 8624.307
178.4118, 8623.709
178.8940, 8614.364
179.3761, 8567.304
179.8582, 8514.688
180.3403, 8517.383
180.8224, 8575.165
181.3046, 8635.788
181.7867, 8655.088
182.2688, 8639.362
182.7509, 8609.605
183.2330, 8566.433
183.7151, 8515.965
184.1973, 8471.047
184.6794, 8432.742
185.1615, 8394.489
185.6436, 8345.086
186.1257, 8286.466
186.6078, 8235.766
187.0900, 8206.653
187.5721, 8192.811
188.0542, 8166.210
188.5363, 8122.790
189.0184, 8075.302
189.5005, 8042.605
189.9827, 8024.718
190.4648, 8010.602
190.9469, 7993.866
191.4290, 7975.604
191.9111, 7961.875
192.3932, 7954.650
192.8754, 7950.309
193.3575, 7938.990
193.8396, 7919.744
194.3217, 7904.401
194.8038, 7904.607
195.2859, 7919.756
195.7681, 7927.732
196.2502, 7924.032
196.7323, 7911.670
197.2144, 7899.023
197.6965, 7885.616
198.1786, 7872.842
198.6607, 7867.971
199.1429, 7872.829
199.6250, 7853.765
200.1071, 7793.016
200.5892, 7702.866
201.0713, 7652.357
201.5534, 7649.700
202.0356, 7662.686
202.5177, 7664.256
202.9998, 7655.654
203.4819, 7628.058
203.9640, 7572.952
204.4461, 7492.576
204.9283, 7428.816
205.4104, 7384.669
205.8925, 7351.988
206.3746, 7323.483
206.8567, 7301.804
207.3388, 7273.934
207.8210, 7232.292
208.3031, 7174.927
208.7852, 7134.732
209.2673, 7116.623
209.7494, 7109.493
210.2315, 7097.164
210.7137, 7079.438
211.1958, 7056.571
211.6779, 7026.526
212.1600, 6985.827
212.6421, 6955.439
213.1242, 6938.248
213.6064, 6928.932
214.0885, 6918.324
214.5706, 6908.623
215.0527, 6892.241
215.5348, 6862.487
216.0169, 6812.487
216.4991, 6774.779
216.9812, 6753.911
217.4633, 6744.094
217.9454, 6729.395
218.4275, 6708.494
218.9096, 6685.076
219.3917, 6659.037
219.8739, 6625.852
220.3560, 6604.643
220.8381, 6603.353
221.3202, 6614.333
221.8023, 6606.208
222.2844, 6570.399
222.7666, 6528.540
223.2487, 6491.266
223.7308, 6454.908
224.2129, 6433.341
224.6950, 6432.498
225.1771, 6448.863
225.6593, 6460.807
226.1414, 6475.000
226.6235, 6476.135
227.1056, 6446.015
227.5877, 6350.490
228.0698, 6297.526
228.5520, 6316.381
229.0341, 6399.899
229.5162, 6444.955
229.9983, 6432.046
230.4804, 6401.809
230.9625, 6388.136
231.4447, 6402.678
231.9268, 6411.413
232.4089, 6407.766
232.8910, 6391.655
233.3731, 6377.122
233.8552, 6366.021
234.3374, 6354.876
234.8195, 6339.410
235.3016, 6313.402
235.7837, 6295.135
236.2658, 6291.246
236.7479, 6303.326
237.2301, 6306.103
237.7122, 6293.646
238.1943, 6277.350
238.6764, 6270.021
239.1585, 6277.280
239.6406, 6283.955
240.1227, 6285.340
240.6049, 6279.969
241.0870, 6282.229
241.5691, 6297.669
242.0512, 6316.421
242.5333, 6325.070
243.0154, 6316.070
243.4976, 6309.479
243.9797, 6308.185
244.4618, 6310.124
244.9439, 6330.408
245.4260, 6382.428
245.9081, 6443.038
246.3903, 6478.114
246.8724, 6474.659
247.3545, 6467.324
247.8366, 6464.971
248.3187, 6467.737
248.8008, 6475.080
249.2830, 6490.031
249.7651, 6507.639
250.2472, 6518.708
250.7293, 6517.071
251.2114, 6520.280
251.6935, 6535.224
252.1757, 6565.203
252.6578, 6593.974
253.1399, 6620.854
253.6220, 6646.989
254.1041, 6675.009
254.5862, 6709.159
255.0684, 6737.878
255.5505, 6755.907
256.0326, 6759.013
256.5147, 6766.897
256.9968, 6782.387
257.4789, 6800.888
257.9611, 6813.392
258.4432, 6818.867
258.9253, 6820.199
259.4074, 6818.098
259.8895, 6811.913
260.3716, 6804.001
260.8538, 6794.131
261.3359, 6782.636
261.8180, 6770.035
262.3001, 6755.123
262.7822, 6741.567
263.2643, 6731.696
263.7465, 6727.867
264.2286, 6719.610
264.7107, 6707.644
265.1928, 6690.833
265.6749, 6664.796
266.1570, 6623.399
266.6392, 6587.078
267.1213, 6566.669
267.6034, 6567.733
268.0855, 6562.028
268.5676, 6549.794
269.0497, 6530.258
269.5318, 6498.435
270.0139, 6448.954
270.4961, 6403.175
270.9782, 6372.555
271.4603, 6360.938
271.9424, 6343.174
272.4245, 6315.429
272.9066, 6284.868
273.3888, 6269.491
273.8709, 6274.601
274.3530, 6275.183
274.8351, 6255.232
275.3172, 6211.420
275.7993, 6179.561
276.2815, 6163.994
276.7636, 6156.936
277.2457, 6142.180
277.7278, 6118.170
278.2099, 6094.992
278.6920, 6078.076
279.1742, 6067.616
279.6563, 6058.667
280.1384, 6053.209
280.6205, 6045.411
281.1026, 6020.396
281.5847, 5975.768
282.0669, 5933.688
282.5490, 5905.583
283.0311, 5891.081
283.5132, 5882.198
283.9953, 5881.417
284.4774, 5880.592
284.9596, 5861.970
285.4417, 5824.896
285.9238, 5790.945
286.4059, 5772.826
286.8880, 5768.945
287.3701, 5764.889
287.8523, 5760.082
288.3344, 5755.515
288.8165, 5752.844
289.2986, 5752.064
289.7807, 5752.104
290.2628, 5754.019
290.7450, 5756.657
291.2271, 5753.042
291.7092, 5740.811
292.1913, 5728.508
292.6734, 5728.945
293.1555, 5740.941
293.6377, 5755.618
294.1198, 5772.152
294.6019, 5788.077
295.0840, 5793.246
295.5661, 5784.875
296.0482, 5776.812
296.5304, 5793.835
297.0125, 5828.961
297.4946, 5853.226
297.9767, 5843.064
298.4588, 5814.563
298.9409, 5796.195
299.4231, 5789.171
299.9052, 5794.500
300.3873, 5825.948
300.8694, 5872.830
301.3515, 5904.891
301.8336, 5894.765
302.3158, 5866.041
302.7979, 5850.691
303.2800, 5849.990
303.7621, 5858.432
304.2442, 5874.875
304.7263, 5896.539
305.2085, 5918.499
305.6906, 5945.596
306.1727, 5967.572
306.6548, 5971.220
307.1369, 5955.497
307.6190, 5935.748
308.1012, 5918.672
308.5833, 5906.183
309.0654, 5900.781
309.5475, 5913.587
310.0296, 5927.023
310.5117, 5926.317
310.9938, 5911.268
311.4760, 5894.696
311.9581, 5880.306
312.4402, 5869.861
312.9223, 5865.551
313.4044, 5868.084
313.8865, 5876.901
314.3687, 5895.247
314.8508, 5922.342
315.3329, 5946.229
315.8150, 5965.310
316.2971, 5976.999
316.7792, 5978.461
317.2614, 5955.025
317.7435, 5934.672
318.2256, 5930.864
318.7077, 5941.635
319.1898, 5949.889
319.6719, 5942.438
320.1541, 5934.624
320.6362, 5937.719
321.1183, 5967.339
321.6004, 5994.036
322.0825, 6007.863
322.5646, 6011.682
323.0468, 6020.864
323.5289, 6041.470
324.0110, 6066.207
324.4931, 6091.067
324.9752, 6116.543
325.4573, 6140.305
325.9395, 6157.944
326.4216, 6172.306
326.9037, 6195.317
327.3858, 6231.659
327.8679, 6273.428
328.3500, 6318.507
328.8322, 6382.212
329.3143, 6424.852
329.7964, 6430.392
330.2785, 6415.692
330.7606, 6422.785
331.2427, 6464.645
331.7249, 6513.879
332.2070, 6562.172
332.6891, 6615.776
333.1712, 6653.713
333.6533, 6670.003
334.1354, 6674.331
334.6176, 6683.009
335.0997, 6692.750
335.5818, 6713.435
336.0639, 6749.964
336.5460, 6805.261
337.0281, 6863.249
337.5103, 6927.098
337.9924, 6990.962
338.4745, 7043.371
338.9566, 7080.455
339.4387, 7121.639
339.9208, 7175.535
340.4030, 7241.307
340.8851, 7297.094
341.3672, 7338.429
341.8493, 7381.763
342.3314, 7448.784
342.8135, 7539.918
343.2957, 7635.447
343.7778, 7729.019
344.2599, 7821.792
344.7420, 7922.097
345.2241, 8028.793
345.7062, 8139.303
346.1884, 8244.347
346.6705, 8347.618
347.1526, 8467.296
347.6347, 8608.241
348.1168, 8767.974
348.5989, 8943.196
349.0811, 9131.249
349.5632, 9323.657
350.0453, 9502.426
350.5274, 9677.638
351.0095, 9878.272
351.4916, 10112.05
351.9737, 10366.58
352.4558, 10625.00
352.9380, 10889.49
353.4201, 11170.58
353.9022, 11486.78
354.3843, 11818.94
354.8664, 12140.66
355.3485, 12443.37
355.8307, 12746.97
356.3128, 13061.92
356.7949, 13386.18
357.2770, 13722.22
357.7591, 14096.50
358.2412, 14466.97
358.7234, 14799.93
359.2055, 15089.40
359.6876, 15359.28
360.1697, 15615.63
360.6518, 15860.07
361.1339, 16102.41
361.6161, 16374.09
362.0982, 16618.22
362.5803, 16802.14
363.0624, 16923.29
363.5445, 17017.31
364.0266, 17104.42
364.5088, 17164.43
364.9909, 17177.87
365.4730, 17128.12
365.9551, 17045.00
366.4372, 16927.39
366.9193, 16776.61
367.4015, 16616.06
367.8836, 16460.79
368.3657, 16289.63
368.8478, 16091.83
369.3299, 15870.73
369.8120, 15617.65
370.2942, 15332.51
370.7763, 15016.63
371.2584, 14680.21
371.7405, 14337.21
372.2226, 13957.10
372.7047, 13514.65
373.1869, 12980.24
373.6690, 12463.09
374.1511, 11968.56
374.6332, 11492.30
375.1153, 11028.41
375.5974, 10580.66
376.0796, 10146.00
376.5617, 9716.304
377.0438, 9296.768
377.5259, 8908.615
378.0080, 8555.295
378.4901, 8232.660
378.9723, 7945.533
379.4544, 7693.370
379.9365, 7458.862
380.4186, 7238.912
380.9007, 7031.784
381.3828, 6843.825
381.8650, 6672.449
382.3471, 6521.038
382.8292, 6401.601
383.3113, 6306.686
383.7934, 6207.959
384.2755, 6094.134
384.7577, 5975.815
385.2398, 5864.645
385.7219, 5761.666
386.2040, 5675.765
386.6861, 5621.217
387.1682, 5585.152
387.6504, 5545.316
388.1325, 5494.122
388.6146, 5445.829
389.0967, 5412.230
389.5788, 5390.869
390.0609, 5376.379
390.5431, 5369.640
391.0252, 5366.168
391.5073, 5360.276
391.9894, 5349.478
392.4715, 5347.129
392.9536, 5373.298
393.4357, 5408.521
393.9178, 5427.496
394.4000, 5390.618
394.8821, 5363.842
395.3642, 5380.556
395.8463, 5442.775
396.3284, 5498.783
396.8105, 5529.187
397.2927, 5552.386
397.7748, 5582.141
398.2569, 5621.827
398.7390, 5666.230
399.2211, 5713.460
399.7032, 5764.403
400.1854, 5824.141
400.6675, 5904.969
401.1496, 5982.790
401.6317, 6046.171
402.1138, 6083.519
402.5959, 6129.343
403.0781, 6187.229
403.5602, 6251.768
404.0423, 6311.076
404.5244, 6362.344
405.0065, 6415.815
405.4886, 6478.705
405.9708, 6552.156
406.4529, 6607.852
406.9350, 6637.950
407.4171, 6667.160
407.8992, 6722.119
408.3813, 6803.297
408.8635, 6911.659
409.3456, 7066.633
409.8277, 7241.009
410.3098, 7341.793
410.7919, 7367.074
411.2740, 7373.737
411.7562, 7405.709
412.2383, 7456.666
412.7204, 7503.294
413.2025, 7536.078
413.6846, 7574.521
414.1667, 7650.279
414.6489, 7755.125
415.1310, 7857.902
415.6131, 7941.242
416.0952, 8012.177
416.5773, 8076.793
417.0594, 8137.668
417.5416, 8188.573
418.0237, 8217.339
418.5058, 8236.000
418.9879, 8262.402
419.4700, 8324.779
419.9521, 8378.473
420.4343, 8400.077
420.9164, 8388.371
421.3985, 8366.943
421.8806, 8335.375
422.3627, 8300.538
422.8448, 8267.058
423.3270, 8256.023
423.8091, 8222.804
424.2912, 8147.243
424.7733, 8041.347
425.2554, 7950.949
425.7375, 7882.101
426.2197, 7824.160
426.7018, 7772.811
427.1839, 7728.386
427.6660, 7691.843
428.1481, 7665.057
428.6302, 7645.065
429.1124, 7627.585
429.5945, 7614.458
430.0766, 7598.689
430.5587, 7572.787
431.0408, 7539.284
431.5229, 7534.996
432.0051, 7563.594
432.4872, 7608.016
432.9693, 7655.314
433.4514, 7705.292
433.9335, 7754.527
434.4156, 7798.980
434.8977, 7846.326
435.3799, 7915.034
435.8620, 8003.189
436.3441, 8093.927
436.8262, 8175.141
437.3083, 8251.055
437.7904, 8327.148
438.2726, 8403.029
438.7547, 8484.044
439.2368, 8584.941
439.7189, 8693.898
440.2010, 8788.694
440.6831, 8846.338
441.1653, 8895.644
441.6474, 8960.443
442.1295, 9040.020
442.6116, 9107.271
443.0937, 9142.658
443.5758, 9164.555
444.0580, 9188.830
444.5401, 9245.669
445.0222, 9271.798
445.5043, 9241.233
445.9864, 9168.369
446.4685, 9095.753
446.9507, 9037.363
447.4328, 8971.390
447.9149, 8890.753
448.3970, 8797.743
448.8791, 8682.410
449.3612, 8533.011
449.8434, 8370.838
450.3255, 8222.407
450.8076, 8094.231
451.2897, 7967.132
451.7718, 7838.994
452.2539, 7709.065
452.7361, 7565.870
453.2182, 7404.414
453.7003, 7244.694
454.1824, 7102.623
454.6645, 6978.245
455.1466, 6846.391
455.6288, 6700.115
456.1109, 6553.384
456.5930, 6427.823
457.0751, 6322.241
457.5572, 6225.718
458.0393, 6141.712
458.5215, 6060.996
459.0036, 5962.800
459.4857, 5844.847
459.9678, 5739.970
460.4499, 5685.935
460.9320, 5658.673
461.4142, 5626.802
461.8963, 5580.054
462.3784, 5525.474
462.8605, 5458.705
463.3426, 5384.888
463.8247, 5324.959
464.3069, 5294.703
464.7890, 5274.838
465.2711, 5255.626
465.7532, 5236.905
466.2353, 5216.294
466.7174, 5192.309
467.1996, 5166.814
467.6817, 5142.077
468.1638, 5107.917
468.6459, 5087.398
469.1280, 5087.605
469.6101, 5107.565
470.0923, 5127.700
470.5744, 5149.153
471.0565, 5168.756
471.5386, 5182.699
472.0207, 5188.931
472.5028, 5202.097
472.9850, 5226.237
473.4671, 5253.636
473.9492, 5265.130
474.4313, 5260.408
474.9134, 5263.920
475.3955, 5289.903
475.8776, 5333.201
476.3597, 5377.390
476.8419, 5422.695
477.3240, 5467.520
477.8061, 5504.726
478.2882, 5541.008
478.7703, 5590.418
479.2524, 5662.541
479.7346, 5741.431
480.2167, 5816.847
480.6988, 5888.498
481.1809, 5954.374
481.6630, 5997.542
482.1451, 6046.139
482.6273, 6120.433
483.1094, 6227.439
483.5915, 6339.984
484.0736, 6457.231
484.5557, 6572.871
485.0378, 6679.754
485.5200, 6754.123
486.0021, 6845.606
486.4842, 6967.349
486.9663, 7114.843
487.4484, 7258.152
487.9305, 7390.393
488.4127, 7525.532
488.8948, 7671.635
489.3769, 7828.008
489.8590, 7991.927
490.3411, 8163.629
490.8232, 8342.867
491.3054, 8534.608
491.7875, 8738.566
492.2696, 8944.621
492.7517, 9147.374
493.2338, 9352.298
493.7159, 9584.560
494.1981, 9841.983
494.6802, 10108.69
495.1623, 10374.35
495.6444, 10638.01
496.1265, 10890.77
496.6086, 11125.27
497.0908, 11376.40
497.5729, 11686.69
498.0550, 12035.50
498.5371, 12390.99
499.0192, 12732.81
499.5013, 13080.17
499.9835, 13432.62
500.4656, 13790.54
500.9477, 14168.63
501.4298, 14575.27
501.9119, 14995.68
502.3940, 15425.03
502.8762, 15869.77
503.3583, 16308.50
503.8404, 16722.50
504.3225, 17134.79
504.8046, 17594.34
505.2867, 18128.07
505.7689, 18656.85
506.2510, 19148.25
506.7331, 19603.09
507.2152, 20081.68
507.6973, 20591.25
508.1794, 21102.49
508.6616, 21606.94
509.1437, 22100.66
509.6258, 22525.92
510.1079, 22873.51
510.5900, 23149.82
511.0721, 23360.33
511.5543, 23506.81
512.0364, 23597.56
512.5185, 23659.44
513.0006, 23656.64
513.4827, 23547.83
513.9648, 23331.94
514.4470, 23017.43
514.9291, 22580.89
515.4112, 22063.12
515.8933, 21498.55
516.3754, 20890.77
516.8575, 20245.95
517.3397, 19546.14
517.8218, 18813.96
518.3039, 18085.03
518.7860, 17353.05
519.2681, 16635.06
519.7502, 15939.66
520.2324, 15263.43
520.7145, 14611.56
521.1966, 13976.12
521.6787, 13373.75
522.1608, 12811.76
522.6429, 12292.65
523.1251, 11800.26
523.6072, 11334.78
524.0893, 10899.29
524.5714, 10498.98
525.0535, 10132.34
525.5356, 9783.861
526.0178, 9440.816
526.4999, 9108.216
526.9820, 8795.648
527.4641, 8508.228
527.9462, 8244.784
528.4283, 8011.000
528.9105, 7801.410
529.3926, 7604.374
529.8747, 7421.569
530.3568, 7246.795
530.8389, 7075.260
531.3210, 6910.831
531.8032, 6753.379
532.2853, 6608.650
532.7674, 6467.812
533.2495, 6326.372
533.7316, 6182.341
534.2137, 6053.666
534.6959, 5947.765
535.1780, 5852.113
535.6601, 5756.905
536.1422, 5657.218
536.6243, 5571.530
537.1064, 5503.461
537.5885, 5446.275
538.0706, 5386.468
538.5527, 5323.635
539.0349, 5262.357
539.5170, 5203.349
539.9991, 5147.192
540.4812, 5096.085
540.9633, 5049.560
541.4454, 5008.104
541.9276, 4973.228
542.4097, 4943.281
542.8918, 4915.905
543.3739, 4891.549
543.8560, 4866.208
544.3381, 4835.288
544.8203, 4801.145
545.3024, 4768.246
545.7845, 4730.060
546.2666, 4701.268
546.7487, 4694.697
547.2308, 4706.865
547.7130, 4712.202
548.1951, 4693.978
548.6772, 4676.838
549.1593, 4673.848
549.6414, 4691.961
550.1235, 4704.899
550.6057, 4711.641
551.0878, 4714.194
551.5699, 4715.295
552.0520, 4715.690
552.5341, 4709.624
553.0162, 4690.088
553.4984, 4667.724
553.9805, 4675.900
554.4626, 4714.675
554.9447, 4759.548
555.4268, 4799.067
555.9089, 4833.287
556.3911, 4859.144
556.8732, 4876.077
557.3553, 4895.365
557.8374, 4930.793
558.3195, 4973.218
558.8016, 5009.846
559.2838, 5036.224
559.7659, 5058.428
560.2480, 5071.805
560.7301, 5083.355
561.2122, 5107.988
561.6943, 5155.992
562.1765, 5211.692
562.6586, 5272.178
563.1407, 5337.937
563.6228, 5400.506
564.1049, 5457.237
564.5870, 5513.135
565.0692, 5572.256
565.5513, 5635.643
566.0334, 5693.269
566.5155, 5741.314
566.9976, 5789.351
567.4797, 5863.075
567.9619, 5959.062
568.4440, 6034.655
568.9261, 6062.198
569.4082, 6069.740
569.8903, 6110.806
570.3724, 6180.059
570.8546, 6247.982
571.3367, 6293.986
571.8188, 6329.321
572.3009, 6364.461
572.7830, 6401.624
573.2651, 6434.390
573.7473, 6461.498
574.2294, 6482.153
574.7115, 6494.874
575.1936, 6494.194
575.6757, 6492.381
576.1578, 6496.886
576.6400, 6501.188
577.1221, 6486.760
577.6042, 6445.583
578.0863, 6400.979
578.5684, 6363.336
579.0505, 6331.828
579.5327, 6289.381
580.0148, 6236.921
580.4969, 6170.008
580.9790, 6078.278
581.4611, 5966.494
581.9432, 5860.535
582.4254, 5764.910
582.9075, 5675.285
583.3896, 5592.596
583.8717, 5512.059
584.3538, 5425.398
584.8359, 5326.136
585.3181, 5222.234
585.8002, 5113.526
586.2823, 5003.505
586.7644, 4902.865
587.2465, 4824.456
587.7286, 4748.643
588.2108, 4663.482
588.6929, 4561.114
589.1750, 4476.778
589.6571, 4414.375
590.1392, 4366.259
590.6213, 4332.733
591.1035, 4327.009
591.5856, 4278.934
592.0677, 4167.927
592.5498, 4028.082
593.0319, 3925.159
593.5140, 3858.029
593.9962, 3802.131
594.4783, 3751.012
594.9604, 3702.918
595.4425, 3655.796
595.9246, 3609.815
596.4067, 3562.913
596.8889, 3512.961
597.3710, 3461.808
597.8531, 3409.608
598.3352, 3354.406
598.8173, 3308.652
599.2994, 3285.971
599.7816, 3271.133
600.2637, 3248.545
600.7458, 3207.195
601.2279, 3168.260
601.7100, 3132.345
602.1921, 3100.503
602.6743, 3078.140
603.1564, 3070.343
603.6385, 3058.339
604.1206, 3035.481
604.6027, 3002.837
605.0848, 2961.449
605.5670, 2910.273
606.0491, 2867.183
606.5312, 2850.008
607.0133, 2850.500
607.4954, 2851.555
607.9775, 2852.148
608.4597, 2847.166
608.9418, 2826.737
609.4239, 2799.661
609.9060, 2778.285
610.3881, 2776.349
610.8702, 2769.878
611.3524, 2744.928
611.8345, 2708.537
612.3166, 2681.500
612.7987, 2669.389
613.2808, 2663.802
613.7629, 2666.014
