##NAMES=Clinochlore
##RRUFFID=R060725
##IDEAL CHEMISTRY=Mg_5_Al(AlSi_3_O_10_)(OH)_8_
##LOCALITY=Crestmore Quarry, Riverside, California, USA
##OWNER=RRUFF
##SOURCE=Bob Jenkins
##DESCRIPTION=Green transparent books of mica
##STATUS=The identification of this mineral has been confirmed by X-ray diffraction and chemical analysis
##URL=rruff.info/R060725
##MEASURED CHEMISTRY=(Mg_4.65_Al_1.12_Fe^2+^_0.17_[box]_0.06_)_Σ=6_(Si_3.00_Al_1.00_)_Σ=4_O_10_(OH)_8_
119.600, 1034.532
120.082, 1047.072
120.564, 1083.197
121.046, 1132.769
121.528, 1212.267
122.010, 1284.501
122.492, 1349.861
122.974, 1387.772
123.456, 1461.130
123.939, 1520.279
124.421, 1578.844
124.903, 1657.194
125.385, 1699.087
125.867, 1777.137
126.349, 1840.744
126.831, 1910.956
127.313, 1966.869
127.796, 2027.198
128.278, 2101.831
128.760, 2168.556
129.242, 2222.823
129.724, 2293.455
130.206, 2334.848
130.688, 2401.898
131.170, 2480.019
131.652, 2535.016
132.135, 2605.909
132.617, 2670.744
133.099, 2708.046
133.581, 2793.230
134.063, 2857.707
134.545, 2900.934
135.027, 2984.477
135.509, 3030.623
135.992, 3090.118
136.474, 3159.658
136.956, 3218.726
137.438, 3294.317
137.920, 3353.989
138.402, 3412.241
138.884, 3473.725
139.366, 3536.916
139.848, 3627.462
140.331, 3734.531
140.813, 3852.802
141.295, 3982.516
141.777, 4108.498
142.259, 4233.283
142.741, 4351.995
143.223, 4458.096
143.705, 4551.016
144.188, 4638.929
144.670, 4734.444
145.152, 4833.493
145.634, 4908.008
146.116, 4942.879
146.598, 4956.583
147.080, 4973.150
147.562, 4997.344
148.044, 5008.651
148.527, 4978.592
149.009, 4917.046
149.491, 4857.794
149.973, 4810.568
150.455, 4770.231
150.937, 4729.995
151.419, 4690.348
151.901, 4647.189
152.383, 4594.165
152.866, 4533.969
153.348, 4474.548
153.830, 4417.131
154.312, 4363.026
154.794, 4318.437
155.276, 4292.554
155.758, 4258.531
156.240, 4188.766
156.723, 4091.932
157.205, 3997.869
157.687, 3917.041
158.169, 3850.177
158.651, 3800.354
159.133, 3772.283
159.615, 3756.460
160.097, 3749.000
160.579, 3747.558
161.062, 3742.702
161.544, 3727.729
162.026, 3704.020
162.508, 3678.358
162.990, 3647.679
163.472, 3619.800
163.954, 3602.015
164.436, 3592.096
164.919, 3579.762
165.401, 3554.063
165.883, 3516.830
166.365, 3489.689
166.847, 3482.860
167.329, 3477.352
167.811, 3463.915
168.293, 3442.645
168.775, 3415.822
169.258, 3382.947
169.740, 3344.235
170.222, 3309.247
170.704, 3286.165
171.186, 3259.200
171.668, 3217.979
172.150, 3164.689
172.632, 3110.026
173.115, 3062.827
173.597, 3023.290
174.079, 2984.637
174.561, 2944.038
175.043, 2906.615
175.525, 2873.352
176.007, 2844.903
176.489, 2823.343
176.971, 2813.508
177.454, 2816.861
177.936, 2814.341
178.418, 2802.235
178.900, 2786.432
179.382, 2768.006
179.864, 2747.581
180.346, 2726.587
180.828, 2706.671
181.311, 2688.185
181.793, 2667.688
182.275, 2642.123
182.757, 2616.928
183.239, 2596.380
183.721, 2579.011
184.203, 2559.064
184.685, 2529.348
185.167, 2488.139
185.650, 2451.813
186.132, 2418.169
186.614, 2392.079
187.096, 2377.006
187.578, 2371.907
188.060, 2372.754
188.542, 2376.924
189.024, 2384.875
189.507, 2392.012
189.989, 2395.524
190.471, 2400.637
190.953, 2410.245
191.435, 2423.543
191.917, 2437.326
192.399, 2448.096
192.881, 2455.143
193.363, 2466.644
193.846, 2486.242
194.328, 2507.547
194.810, 2532.481
195.292, 2558.108
195.774, 2576.876
196.256, 2578.241
196.738, 2559.832
197.220, 2561.241
197.702, 2605.975
198.185, 2650.633
198.667, 2674.726
199.149, 2686.299
199.631, 2707.924
200.113, 2760.188
200.595, 2844.088
201.077, 2923.755
201.559, 2995.801
202.042, 3066.863
202.524, 3143.195
203.006, 3220.294
203.488, 3288.424
203.970, 3341.550
204.452, 3379.685
204.934, 3398.342
205.416, 3391.669
205.898, 3368.127
206.380, 3327.275
206.863, 3270.984
207.345, 3201.619
207.827, 3119.081
208.309, 3024.559
208.791, 2931.584
209.273, 2833.870
209.755, 2745.364
210.238, 2673.672
210.720, 2613.465
211.202, 2556.099
211.684, 2496.335
212.166, 2435.231
212.648, 2378.778
213.130, 2326.776
213.612, 2281.269
214.094, 2243.672
214.577, 2212.542
215.059, 2185.366
215.541, 2160.893
216.023, 2139.856
216.505, 2125.825
216.987, 2128.269
217.469, 2124.309
217.951, 2107.559
218.434, 2083.065
218.916, 2056.146
219.398, 2029.016
219.880, 2002.461
220.362, 1978.609
220.844, 1957.226
221.326, 1939.287
221.808, 1927.609
222.290, 1917.725
222.773, 1904.302
223.255, 1884.861
223.737, 1863.492
224.219, 1849.417
224.701, 1846.269
225.183, 1842.994
225.665, 1837.514
226.147, 1831.197
226.629, 1824.586
227.112, 1817.882
227.594, 1812.279
228.076, 1810.142
228.558, 1812.963
229.040, 1815.098
229.522, 1817.430
230.004, 1817.742
230.486, 1812.569
230.969, 1801.585
231.451, 1790.680
231.933, 1789.412
232.415, 1801.798
232.897, 1806.759
233.379, 1792.550
233.861, 1776.794
234.343, 1767.845
234.825, 1767.055
235.307, 1771.962
235.790, 1782.996
236.272, 1801.516
236.754, 1812.498
237.236, 1808.102
237.718, 1801.246
238.200, 1795.723
238.682, 1792.830
239.165, 1795.326
239.647, 1809.158
240.129, 1833.742
240.611, 1850.437
241.093, 1854.979
241.575, 1855.171
242.057, 1856.090
242.539, 1856.634
243.021, 1853.090
243.503, 1838.350
243.986, 1816.293
244.468, 1807.522
244.950, 1820.371
245.432, 1833.125
245.914, 1833.461
246.396, 1825.668
246.878, 1818.070
247.361, 1815.126
247.843, 1814.828
248.325, 1812.239
248.807, 1806.365
249.289, 1800.785
249.771, 1799.030
250.253, 1798.306
250.735, 1794.084
251.217, 1782.246
251.699, 1769.153
252.182, 1764.873
252.664, 1770.849
253.146, 1776.614
253.628, 1776.459
254.110, 1773.673
254.592, 1772.560
255.074, 1774.974
255.556, 1776.828
256.039, 1772.728
256.521, 1762.902
257.003, 1755.575
257.485, 1753.791
257.967, 1756.259
258.449, 1761.909
258.931, 1772.761
259.413, 1779.666
259.896, 1771.381
260.378, 1752.795
260.860, 1745.433
261.342, 1759.970
261.824, 1780.894
262.306, 1785.343
262.788, 1771.583
263.270, 1762.736
263.752, 1772.374
264.234, 1792.225
264.717, 1806.402
265.199, 1811.357
265.681, 1812.209
266.163, 1812.346
266.645, 1811.573
267.127, 1817.733
267.609, 1838.191
268.091, 1863.292
268.574, 1884.009
269.056, 1899.226
269.538, 1907.735
270.020, 1904.537
270.502, 1889.646
270.984, 1890.151
271.466, 1919.225
271.948, 1953.241
272.431, 1975.771
272.913, 1988.037
273.395, 2000.447
273.877, 2019.602
274.359, 2045.065
274.841, 2072.935
275.323, 2110.292
275.805, 2142.211
276.287, 2160.220
276.770, 2169.004
277.252, 2177.855
277.734, 2191.392
278.216, 2208.145
278.698, 2223.547
279.180, 2247.603
279.662, 2257.771
280.144, 2242.019
280.626, 2215.157
281.109, 2194.647
281.591, 2186.220
282.073, 2182.818
282.555, 2172.136
283.037, 2147.676
283.519, 2127.470
284.001, 2112.480
284.483, 2100.638
284.966, 2092.817
285.448, 2087.831
285.930, 2080.510
286.412, 2064.624
286.894, 2038.080
287.376, 2012.549
287.858, 1986.437
288.340, 1962.709
288.823, 1942.693
289.305, 1926.361
289.787, 1913.667
290.269, 1905.596
290.751, 1901.447
291.233, 1891.601
291.715, 1864.309
292.197, 1846.163
292.679, 1852.540
293.161, 1869.773
293.644, 1877.328
294.126, 1863.405
294.608, 1837.824
295.090, 1825.297
295.572, 1830.881
296.054, 1837.697
296.536, 1839.599
297.018, 1841.617
297.501, 1849.426
297.983, 1864.878
298.465, 1881.306
298.947, 1890.744
299.429, 1892.844
299.911, 1892.117
300.393, 1884.134
300.875, 1878.342
301.358, 1883.637
301.840, 1899.881
302.322, 1916.044
302.804, 1924.082
303.286, 1925.912
303.768, 1928.673
304.250, 1933.285
304.732, 1938.656
305.214, 1943.452
305.697, 1948.113
306.179, 1954.403
306.661, 1967.460
307.143, 1980.298
307.625, 1981.641
308.107, 1970.576
308.589, 1959.933
309.071, 1958.532
309.553, 1964.162
310.036, 1967.287
310.518, 1964.543
311.000, 1962.409
311.482, 1964.948
311.964, 1971.233
312.446, 1978.692
312.928, 1986.595
313.410, 1994.331
313.892, 2000.230
314.375, 2004.009
314.857, 2007.061
315.339, 2009.697
315.821, 2011.757
316.303, 2011.684
316.785, 2009.264
317.267, 2008.686
317.750, 2015.875
318.232, 2034.227
318.714, 2050.636
319.196, 2068.071
319.678, 2081.278
320.160, 2083.463
320.642, 2077.200
321.124, 2073.060
321.606, 2080.407
322.089, 2099.082
322.571, 2112.550
323.053, 2114.939
323.535, 2118.288
324.017, 2125.861
324.499, 2135.899
324.981, 2145.622
325.463, 2153.615
325.945, 2160.472
326.428, 2168.359
326.910, 2181.255
327.392, 2186.515
327.874, 2175.977
328.356, 2162.004
328.838, 2154.261
329.320, 2154.709
329.802, 2158.641
330.284, 2161.944
330.767, 2164.722
331.249, 2164.582
331.731, 2156.416
332.213, 2150.765
332.695, 2158.158
333.177, 2174.554
333.659, 2184.534
334.141, 2170.834
334.624, 2145.524
335.106, 2139.231
335.588, 2155.661
336.070, 2178.371
336.552, 2199.584
337.034, 2220.060
337.516, 2241.360
337.998, 2265.315
338.480, 2288.261
338.963, 2306.209
339.445, 2320.102
339.927, 2333.748
340.409, 2345.511
340.891, 2361.951
341.373, 2399.793
341.855, 2467.131
342.337, 2526.349
342.819, 2555.390
343.302, 2575.514
343.784, 2614.702
344.266, 2678.964
344.748, 2754.400
345.230, 2826.201
345.712, 2891.736
346.194, 2968.332
346.677, 3061.878
347.159, 3159.862
347.641, 3252.229
348.123, 3343.243
348.605, 3447.168
349.087, 3574.337
349.569, 3720.191
350.051, 3856.487
350.533, 3972.237
351.016, 4091.521
351.498, 4223.516
351.980, 4357.259
352.462, 4481.960
352.944, 4593.960
353.426, 4694.468
353.908, 4785.516
354.390, 4868.862
354.872, 4936.524
355.355, 4992.561
355.837, 5026.718
356.319, 5030.006
356.801, 5004.769
357.283, 4961.401
357.765, 4907.029
358.247, 4840.534
358.729, 4756.175
359.211, 4653.353
359.694, 4534.566
360.176, 4387.897
360.658, 4229.069
361.140, 4079.174
361.622, 3945.942
362.104, 3819.873
362.586, 3690.709
363.069, 3559.490
363.551, 3437.589
364.033, 3330.719
364.515, 3233.590
364.997, 3136.391
365.479, 3035.646
365.961, 2947.599
366.443, 2884.098
366.925, 2832.347
367.408, 2777.928
367.890, 2718.742
368.372, 2659.398
368.854, 2603.200
369.336, 2549.984
369.818, 2510.657
370.300, 2494.268
370.782, 2480.382
371.264, 2462.841
371.747, 2441.692
372.229, 2416.690
372.711, 2387.341
373.193, 2357.418
373.675, 2337.535
374.157, 2337.991
374.639, 2331.065
375.121, 2307.474
375.603, 2282.220
376.086, 2265.749
376.568, 2259.647
377.050, 2259.278
377.532, 2264.213
378.014, 2274.587
378.496, 2268.579
378.978, 2229.517
379.460, 2196.706
379.943, 2193.589
380.425, 2208.002
380.907, 2216.837
381.389, 2208.431
381.871, 2193.362
382.353, 2185.563
382.835, 2185.105
383.317, 2189.325
383.799, 2199.658
384.282, 2212.335
384.764, 2220.948
385.246, 2224.288
385.728, 2229.514
386.210, 2238.193
386.692, 2251.074
387.174, 2271.441
387.656, 2299.969
388.138, 2328.001
388.621, 2346.262
389.103, 2353.914
389.585, 2369.534
390.067, 2405.268
390.549, 2436.048
391.031, 2453.003
391.513, 2456.485
391.996, 2447.379
392.478, 2425.847
392.960, 2394.870
393.442, 2361.710
393.924, 2323.715
394.406, 2288.249
394.888, 2255.347
395.370, 2225.138
395.852, 2197.392
396.335, 2172.328
396.817, 2150.565
397.299, 2131.889
397.781, 2116.590
398.263, 2110.323
398.745, 2122.057
399.227, 2127.975
399.709, 2112.956
400.191, 2087.646
400.674, 2067.595
401.156, 2058.513
401.638, 2054.688
402.120, 2049.199
402.602, 2042.644
403.084, 2042.590
403.566, 2054.418
404.048, 2069.121
404.530, 2075.054
405.013, 2072.602
405.495, 2065.832
405.977, 2050.139
406.459, 2034.147
406.941, 2026.069
407.423, 2026.493
407.905, 2034.216
408.387, 2050.380
408.870, 2072.956
409.352, 2084.473
409.834, 2073.742
410.316, 2066.769
410.798, 2071.019
411.280, 2080.485
411.762, 2088.509
412.244, 2093.001
412.727, 2095.596
413.209, 2099.401
413.691, 2106.343
414.173, 2106.290
414.655, 2084.856
415.137, 2069.871
415.619, 2076.493
416.101, 2097.657
416.583, 2116.246
417.065, 2121.518
417.548, 2120.841
418.030, 2130.848
418.512, 2154.220
418.994, 2169.421
419.476, 2161.796
419.958, 2147.438
420.440, 2146.209
420.922, 2159.863
421.405, 2177.663
421.887, 2199.146
422.369, 2220.068
422.851, 2232.403
423.333, 2235.067
423.815, 2235.438
424.297, 2238.882
424.779, 2245.417
425.262, 2254.058
425.744, 2266.414
426.226, 2278.759
426.708, 2291.453
427.190, 2302.874
427.672, 2310.924
428.154, 2314.805
428.636, 2315.161
429.118, 2312.897
429.601, 2307.763
430.083, 2300.599
430.565, 2288.160
431.047, 2276.768
431.529, 2270.714
432.011, 2268.048
432.493, 2263.453
432.975, 2253.500
433.457, 2240.120
433.940, 2225.955
434.422, 2209.825
434.904, 2199.760
435.386, 2203.228
435.868, 2211.008
436.350, 2212.588
436.832, 2207.045
437.314, 2199.131
437.797, 2189.625
438.279, 2179.725
438.761, 2170.239
439.243, 2161.265
439.725, 2156.918
440.207, 2161.968
440.689, 2175.272
441.171, 2181.383
441.654, 2181.118
442.136, 2174.024
442.618, 2154.522
443.100, 2130.223
443.582, 2111.605
444.064, 2101.573
444.546, 2093.996
445.028, 2079.407
445.510, 2054.628
445.992, 2037.403
446.475, 2032.213
446.957, 2030.686
447.439, 2033.432
447.921, 2037.291
448.403, 2036.415
448.885, 2027.116
449.367, 2013.887
449.849, 2002.685
450.332, 1993.591
450.814, 1986.067
451.296, 1978.338
451.778, 1974.302
452.260, 1980.669
452.742, 1997.684
453.224, 2010.901
453.706, 2010.504
454.189, 2008.118
454.671, 2016.688
455.153, 2035.363
455.635, 2054.519
456.117, 2068.599
456.599, 2078.430
457.081, 2087.124
457.563, 2090.305
458.045, 2098.156
458.527, 2118.446
459.010, 2138.661
459.492, 2145.745
459.974, 2139.942
460.456, 2133.907
460.938, 2141.186
461.420, 2159.846
461.902, 2167.891
462.384, 2161.002
462.867, 2151.200
463.349, 2142.332
463.831, 2133.592
464.313, 2124.633
464.795, 2115.903
465.277, 2104.544
465.759, 2086.550
466.241, 2064.216
466.724, 2044.324
467.206, 2028.302
467.688, 2013.320
468.170, 1996.675
468.652, 1978.467
469.134, 1961.672
469.616, 1947.057
470.098, 1933.125
470.580, 1917.876
471.063, 1903.245
471.545, 1892.592
472.027, 1887.071
472.509, 1884.229
472.991, 1880.787
473.473, 1877.031
473.955, 1871.420
474.437, 1859.699
474.919, 1850.192
475.402, 1847.404
475.884, 1848.863
476.366, 1849.835
476.848, 1848.512
477.330, 1845.069
477.812, 1837.936
478.294, 1827.292
478.776, 1822.082
479.259, 1827.529
479.741, 1834.925
480.223, 1832.099
480.705, 1819.750
481.187, 1811.802
481.669, 1814.830
482.151, 1820.111
482.633, 1821.210
483.116, 1818.838
483.598, 1815.093
484.080, 1810.531
484.562, 1808.161
485.044, 1816.022
485.526, 1845.465
486.008, 1863.920
486.490, 1863.871
486.972, 1860.643
487.454, 1862.459
487.937, 1868.979
488.419, 1876.186
488.901, 1881.442
489.383, 1885.802
489.865, 1891.410
490.347, 1898.145
490.829, 1907.147
491.311, 1921.051
491.794, 1935.331
492.276, 1944.347
492.758, 1947.840
493.240, 1950.735
493.722, 1952.636
494.204, 1956.098
494.686, 1965.508
495.168, 1979.785
495.651, 1992.096
496.133, 1998.148
496.615, 2000.304
497.097, 2005.720
497.579, 2015.435
498.061, 2027.262
498.543, 2045.852
499.025, 2062.726
499.507, 2069.271
499.990, 2067.665
500.472, 2068.260
500.954, 2078.735
501.436, 2096.483
501.918, 2115.540
502.400, 2137.271
502.882, 2153.718
503.364, 2160.650
503.846, 2161.781
504.329, 2159.548
504.811, 2152.911
505.293, 2154.075
505.775, 2176.620
506.257, 2203.648
506.739, 2213.674
507.221, 2208.188
507.703, 2204.317
508.185, 2211.873
508.668, 2229.210
509.150, 2251.354
509.632, 2292.521
510.114, 2316.607
510.596, 2309.307
511.078, 2296.503
511.560, 2294.123
512.042, 2303.007
512.525, 2317.263
513.007, 2334.465
513.489, 2352.657
513.971, 2365.492
514.453, 2371.658
514.935, 2380.771
515.417, 2398.321
515.899, 2418.194
516.381, 2431.463
516.864, 2437.311
517.346, 2446.776
517.828, 2470.787
518.310, 2494.379
518.792, 2499.355
519.274, 2489.558
519.756, 2483.594
520.239, 2491.683
520.721, 2509.185
521.203, 2524.056
521.685, 2534.271
522.167, 2545.568
522.649, 2558.092
523.131, 2571.495
523.613, 2585.102
524.095, 2599.352
524.578, 2616.765
525.060, 2642.635
525.542, 2666.770
526.024, 2665.494
526.506, 2638.800
526.988, 2623.172
527.470, 2631.475
527.952, 2651.156
528.434, 2669.818
528.917, 2687.745
529.399, 2699.326
529.881, 2700.379
530.363, 2698.062
530.845, 2696.468
531.327, 2695.181
531.809, 2692.306
532.291, 2687.046
532.773, 2681.083
533.256, 2676.478
533.738, 2671.606
534.220, 2674.076
534.702, 2691.821
535.184, 2708.677
535.666, 2715.345
536.148, 2716.873
536.630, 2722.382
537.112, 2733.988
537.595, 2753.177
538.077, 2784.675
538.559, 2825.510
539.041, 2862.684
539.523, 2892.383
540.005, 2925.777
540.487, 2972.637
540.969, 3033.027
541.452, 3106.811
541.934, 3202.298
542.416, 3299.039
542.898, 3391.280
543.380, 3482.446
543.862, 3575.516
544.344, 3672.024
544.826, 3774.958
545.308, 3885.307
545.791, 4004.210
546.273, 4142.138
546.755, 4305.751
547.237, 4472.715
547.719, 4635.153
548.201, 4794.903
548.683, 4956.499
549.166, 5123.823
549.648, 5273.098
550.130, 5403.729
550.612, 5504.759
551.094, 5572.505
551.576, 5601.102
552.058, 5563.735
552.540, 5440.330
553.022, 5245.552
553.505, 5026.767
553.987, 4766.263
554.469, 4514.088
554.951, 4269.573
555.433, 4035.006
555.915, 3805.804
556.397, 3586.339
556.879, 3387.598
557.362, 3215.490
557.844, 3067.425
558.326, 2944.024
558.808, 2843.412
559.290, 2750.320
559.772, 2659.793
560.254, 2575.981
560.736, 2505.379
561.218, 2449.866
561.701, 2392.409
562.183, 2325.928
562.665, 2265.090
563.147, 2219.783
563.629, 2183.177
564.111, 2145.709
564.593, 2104.100
565.075, 2061.954
565.557, 2022.998
566.040, 1987.077
566.522, 1955.745
567.004, 1929.827
567.486, 1906.591
567.968, 1887.217
568.450, 1868.758
568.932, 1847.448
569.414, 1822.649
569.896, 1795.775
570.379, 1761.658
570.861, 1728.928
571.343, 1712.064
571.825, 1709.599
572.307, 1704.989
572.789, 1687.033
573.271, 1660.499
573.753, 1640.845
574.235, 1632.332
574.718, 1622.527
575.200, 1609.667
575.682, 1596.243
576.164, 1582.895
576.646, 1570.072
577.128, 1558.488
577.610, 1548.255
578.093, 1539.718
578.575, 1535.305
579.057, 1533.453
579.539, 1526.263
580.021, 1511.134
580.503, 1493.738
580.985, 1480.028
581.467, 1470.210
581.949, 1459.702
582.432, 1445.171
582.914, 1434.058
583.396, 1431.179
583.878, 1431.064
584.360, 1427.757
584.842, 1420.072
585.324, 1410.811
585.806, 1402.240
586.289, 1394.164
586.771, 1385.409
587.253, 1375.690
587.735, 1366.887
588.217, 1359.163
588.699, 1353.347
589.181, 1351.766
589.663, 1355.549
590.145, 1356.967
590.628, 1351.335
591.110, 1346.135
591.592, 1347.318
592.074, 1352.816
592.556, 1358.217
593.038, 1361.592
593.520, 1361.875
594.002, 1355.500
594.484, 1341.308
594.967, 1333.683
595.449, 1335.549
595.931, 1340.088
596.413, 1345.400
596.895, 1350.304
597.377, 1352.061
597.859, 1348.054
598.341, 1346.485
598.823, 1356.402
599.306, 1367.844
599.788, 1366.437
600.270, 1352.815
600.752, 1338.544
601.234, 1330.925
601.716, 1329.413
602.198, 1332.760
602.680, 1342.516
603.162, 1353.209
603.645, 1369.389
604.127, 1381.490
604.609, 1381.813
605.091, 1373.534
605.573, 1366.584
606.055, 1366.134
606.537, 1365.507
607.019, 1357.404
607.502, 1345.366
607.984, 1337.782
608.466, 1336.301
608.948, 1336.059
609.430, 1331.969
609.912, 1324.866
610.394, 1325.413
610.876, 1342.082
611.359, 1353.361
611.841, 1353.877
612.323, 1350.221
612.805, 1346.306
613.287, 1342.926
613.769, 1340.743
614.251, 1340.385
614.733, 1341.202
615.216, 1340.932
615.698, 1340.719
616.180, 1347.653
616.662, 1364.849
617.144, 1381.750
617.626, 1384.673
618.108, 1371.980
618.590, 1366.107
619.072, 1377.031
619.555, 1382.591
620.037, 1370.621
620.519, 1355.695
621.001, 1353.849
621.483, 1366.834
621.965, 1382.944
622.447, 1396.746
622.929, 1406.569
623.411, 1407.757
623.894, 1400.840
624.376, 1392.668
624.858, 1385.402
625.340, 1379.082
625.822, 1373.182
626.304, 1366.508
626.786, 1366.199
627.268, 1378.724
627.750, 1389.465
628.233, 1392.411
628.715, 1391.283
629.197, 1391.208
629.679, 1393.390
630.161, 1394.927
630.643, 1390.814
631.125, 1384.641
631.607, 1386.738
632.089, 1397.380
632.572, 1408.191
633.054, 1416.133
633.536, 1420.973
634.018, 1421.762
634.500, 1416.313
634.982, 1413.828
635.464, 1416.847
635.946, 1419.943
636.429, 1419.513
636.911, 1418.205
637.393, 1420.181
637.875, 1426.653
638.357, 1434.905
638.839, 1443.474
639.321, 1451.629
639.803, 1455.618
640.286, 1455.008
640.768, 1458.670
641.250, 1472.497
641.732, 1490.385
642.214, 1499.797
