##NAMES=Clinophosinaite
##RRUFFID=R070202
##IDEAL CHEMISTRY=Na_3_Ca(SiO_3_)(PO_4_)
##LOCALITY=Tsentrainly mine, Rasvumchorr Mt, Khibiny Massif, Kola Peninsula, Murmanskaja Oblast', Northern Region, Russia
##OWNER=RRUFF
##SOURCE=Michael Scott
##DESCRIPTION=Pale pink massive, associated with red platy lamprophyllite and eudialyte. Note that our a-cell parameter is doubled that reported, and our crystal is twinned by a 2-fold around [100]
##STATUS=The identification of this mineral has been confirmed by single-crystal X-ray diffraction.
##URL=rruff.info/R070202
181.4815, 19391.85
181.9637, 19449.81
182.4458, 19518.82
182.9279, 19589.51
183.4100, 19658.46
183.8921, 19713.96
184.3742, 19750.71
184.8564, 19772.84
185.3385, 19779.15
185.8206, 19767.32
186.3027, 19768.68
186.7848, 19826.05
187.2669, 19932.25
187.7491, 20034.63
188.2312, 20120.33
188.7133, 20187.95
189.1954, 20228.77
189.6775, 20239.09
190.1596, 20237.96
190.6418, 20245.88
191.1239, 20262.76
191.6060, 20285.59
192.0881, 20313.79
192.5702, 20347.21
193.0524, 20385.08
193.5345, 20428.10
194.0166, 20473.47
194.4987, 20518.77
194.9808, 20564.52
195.4629, 20602.47
195.9451, 20621.26
196.4272, 20621.80
196.9093, 20641.64
197.3914, 20685.35
197.8735, 20743.03
198.3556, 20799.67
198.8378, 20856.24
199.3199, 20904.62
199.8020, 20938.89
200.2841, 20958.11
200.7662, 20970.33
201.2483, 20970.53
201.7305, 20968.97
202.2126, 20995.12
202.6947, 21055.69
203.1768, 21118.98
203.6589, 21166.79
204.1410, 21197.42
204.6232, 21220.06
205.1053, 21230.81
205.5874, 21236.11
206.0695, 21259.41
206.5516, 21305.80
207.0337, 21356.84
207.5159, 21399.15
207.9980, 21428.91
208.4801, 21465.18
208.9622, 21513.67
209.4443, 21570.34
209.9264, 21614.99
210.4086, 21645.33
210.8907, 21668.31
211.3728, 21688.43
211.8549, 21705.60
212.3370, 21720.37
212.8191, 21731.15
213.3013, 21738.95
213.7834, 21752.06
214.2655, 21767.69
214.7476, 21793.25
215.2297, 21840.00
215.7118, 21922.58
216.1940, 21985.63
216.6761, 22011.29
217.1582, 22002.26
217.6403, 22020.14
218.1224, 22081.14
218.6045, 22147.11
219.0867, 22178.32
219.5688, 22157.95
220.0509, 22141.34
220.5330, 22137.02
221.0151, 22144.79
221.4972, 22174.01
221.9794, 22238.41
222.4615, 22309.21
222.9436, 22353.92
223.4257, 22357.04
223.9078, 22366.81
224.3899, 22398.43
224.8721, 22455.43
225.3542, 22490.66
225.8363, 22490.00
226.3184, 22481.27
226.8005, 22499.79
227.2827, 22561.04
227.7648, 22620.03
228.2469, 22666.37
228.7290, 22699.17
229.2111, 22724.46
229.6932, 22738.14
230.1754, 22747.31
230.6575, 22760.57
231.1396, 22775.66
231.6217, 22799.31
232.1038, 22839.28
232.5859, 22903.83
233.0681, 22938.59
233.5502, 22931.07
234.0323, 22902.78
234.5144, 22880.26
234.9965, 22847.95
235.4786, 22849.42
235.9608, 22912.43
236.4429, 23061.85
236.9250, 23150.11
237.4071, 23145.74
237.8892, 23098.99
238.3713, 23090.90
238.8535, 23144.24
239.3356, 23198.01
239.8177, 23230.04
240.2998, 23230.13
240.7819, 23250.67
241.2640, 23310.73
241.7462, 23380.49
242.2283, 23403.55
242.7104, 23342.88
243.1925, 23296.73
243.6746, 23303.55
244.1567, 23386.41
244.6389, 23442.39
245.1210, 23458.47
245.6031, 23455.41
246.0852, 23470.81
246.5673, 23516.45
247.0494, 23560.41
247.5316, 23589.10
248.0137, 23593.84
248.4958, 23615.48
248.9779, 23669.72
249.4600, 23731.88
249.9421, 23749.51
250.4243, 23691.65
250.9064, 23644.92
251.3885, 23643.74
251.8706, 23702.93
252.3527, 23759.95
252.8348, 23817.05
253.3170, 23870.52
253.7991, 23912.25
254.2812, 23938.08
254.7633, 23959.23
255.2454, 23978.49
255.7275, 23993.62
256.2097, 24016.55
256.6918, 24056.00
257.1739, 24097.05
257.6560, 24106.14
258.1381, 24059.95
258.6202, 24030.22
259.1024, 24051.24
259.5845, 24141.02
260.0666, 24204.36
260.5487, 24231.91
261.0308, 24239.96
261.5129, 24262.12
261.9951, 24308.19
262.4772, 24344.33
262.9593, 24353.21
263.4414, 24326.82
263.9235, 24308.13
264.4056, 24287.42
264.8878, 24283.51
265.3699, 24342.42
265.8520, 24495.25
266.3341, 24623.42
266.8162, 24673.23
267.2983, 24629.32
267.7805, 24601.43
268.2626, 24589.75
268.7447, 24594.28
269.2268, 24620.47
269.7089, 24676.03
270.1910, 24725.55
270.6732, 24756.69
271.1553, 24768.64
271.6374, 24763.56
272.1195, 24732.65
272.6016, 24697.62
273.0837, 24694.95
273.5659, 24727.99
274.0480, 24775.80
274.5301, 24841.51
275.0122, 24926.58
275.4943, 24969.15
275.9764, 24955.87
276.4586, 24925.22
276.9407, 24944.40
277.4228, 25021.19
277.9049, 25077.97
278.3870, 25066.48
278.8691, 24991.82
279.3513, 24977.25
279.8334, 25033.61
280.3155, 25122.22
280.7976, 25202.63
281.2798, 25275.03
281.7619, 25318.55
282.2440, 25310.57
282.7261, 25260.44
283.2082, 25240.58
283.6903, 25254.01
284.1725, 25286.59
284.6546, 25330.09
285.1367, 25383.27
285.6188, 25421.38
286.1009, 25423.80
286.5830, 25402.89
287.0652, 25420.25
287.5473, 25481.84
288.0294, 25545.24
288.5115, 25549.48
288.9936, 25503.59
289.4757, 25482.70
289.9579, 25527.17
290.4400, 25610.78
290.9221, 25660.56
291.4042, 25674.69
291.8863, 25677.53
292.3684, 25696.39
292.8506, 25725.93
293.3327, 25742.37
293.8148, 25728.45
294.2969, 25702.54
294.7790, 25700.12
295.2611, 25721.31
295.7433, 25754.69
296.2254, 25792.14
296.7075, 25834.66
297.1896, 25885.63
297.6717, 25961.88
298.1538, 26034.68
298.6360, 26049.15
299.1181, 26009.78
299.6002, 25968.24
300.0823, 25964.51
300.5644, 25986.44
301.0465, 26011.19
301.5287, 26032.93
302.0108, 26054.85
302.4929, 26081.62
302.9750, 26112.46
303.4571, 26141.46
303.9392, 26170.38
304.4214, 26193.57
304.9035, 26200.65
305.3856, 26176.25
305.8677, 26155.74
306.3498, 26174.32
306.8319, 26224.22
307.3141, 26278.75
307.7962, 26338.40
308.2783, 26386.84
308.7604, 26401.86
309.2425, 26359.70
309.7246, 26325.35
310.2068, 26348.81
310.6889, 26413.64
311.1710, 26477.16
311.6531, 26519.83
312.1352, 26552.74
312.6173, 26585.23
313.0995, 26622.36
313.5816, 26647.63
314.0637, 26638.88
314.5458, 26613.78
315.0279, 26605.55
315.5100, 26641.63
315.9922, 26686.83
316.4743, 26723.31
316.9564, 26747.98
317.4385, 26768.14
317.9206, 26782.66
318.4027, 26794.90
318.8849, 26809.61
319.3670, 26820.59
319.8491, 26840.81
320.3312, 26883.21
320.8133, 26956.13
321.2954, 27005.85
321.7776, 26994.46
322.2597, 26965.69
322.7418, 26966.16
323.2239, 27048.35
323.7060, 27114.67
324.1881, 27134.75
324.6703, 27103.27
325.1524, 27082.88
325.6345, 27062.46
326.1166, 27063.16
326.5987, 27102.33
327.0808, 27229.68
327.5630, 27337.08
328.0451, 27411.81
328.5272, 27454.58
329.0093, 27480.74
329.4914, 27490.11
329.9735, 27482.66
330.4557, 27454.27
330.9378, 27372.63
331.4199, 27327.58
331.9020, 27338.20
332.3841, 27392.59
332.8662, 27432.77
333.3484, 27452.42
333.8305, 27466.82
334.3126, 27486.97
334.7947, 27520.91
335.2768, 27532.33
335.7589, 27507.24
336.2411, 27465.35
336.7232, 27459.56
337.2053, 27500.88
337.6874, 27546.33
338.1695, 27574.90
338.6516, 27583.92
339.1338, 27596.89
339.6159, 27613.44
340.0980, 27635.09
340.5801, 27672.17
341.0622, 27729.03
341.5443, 27763.82
342.0265, 27742.46
342.5086, 27674.78
342.9907, 27656.09
343.4728, 27692.68
343.9549, 27754.34
344.4370, 27814.28
344.9192, 27870.71
345.4013, 27907.66
345.8834, 27910.13
346.3655, 27891.15
346.8476, 27884.57
347.3297, 27890.68
347.8119, 27900.82
348.2940, 27898.41
348.7761, 27892.42
349.2582, 27912.84
349.7403, 27988.16
350.2225, 28073.66
350.7046, 28089.78
351.1867, 28046.36
351.6688, 28018.23
352.1509, 28088.89
352.6331, 28201.67
353.1152, 28266.53
353.5973, 28243.80
354.0794, 28205.66
354.5615, 28218.98
355.0436, 28270.43
355.5258, 28319.44
356.0079, 28348.24
356.4900, 28362.37
356.9721, 28360.93
357.4542, 28335.42
357.9363, 28322.84
358.4185, 28354.16
358.9006, 28411.39
359.3827, 28463.42
359.8648, 28496.34
360.3469, 28522.34
360.8290, 28549.13
361.3112, 28578.83
361.7933, 28598.98
362.2754, 28587.52
362.7575, 28571.42
363.2396, 28580.02
363.7217, 28649.79
364.2039, 28714.97
364.6860, 28761.95
365.1681, 28790.26
365.6502, 28799.98
366.1323, 28770.55
366.6144, 28735.15
367.0966, 28716.58
367.5787, 28724.80
368.0608, 28738.78
368.5429, 28756.56
369.0250, 28778.99
369.5071, 28810.35
369.9893, 28856.27
370.4714, 28904.36
370.9535, 28950.58
371.4356, 29001.59
371.9177, 29033.50
372.3998, 29039.66
372.8820, 29029.81
373.3641, 29023.89
373.8462, 29020.52
374.3283, 29024.77
374.8104, 29040.60
375.2925, 29069.36
375.7747, 29096.70
376.2568, 29124.90
376.7389, 29147.59
377.2210, 29147.59
377.7031, 29121.98
378.1852, 29117.50
378.6674, 29159.74
379.1495, 29233.95
379.6316, 29271.20
380.1137, 29267.00
380.5958, 29263.85
381.0779, 29319.81
381.5601, 29418.40
382.0422, 29471.13
382.5243, 29446.15
383.0064, 29383.11
383.4885, 29334.88
383.9706, 29302.55
384.4528, 29297.13
384.9349, 29345.41
385.4170, 29420.55
385.8991, 29482.26
386.3812, 29527.68
386.8633, 29550.78
387.3455, 29524.55
387.8276, 29470.83
388.3097, 29439.27
388.7918, 29478.55
389.2739, 29535.33
389.7560, 29565.50
390.2382, 29563.76
390.7203, 29558.64
391.2024, 29563.24
391.6845, 29573.67
392.1666, 29585.54
392.6487, 29587.39
393.1309, 29599.87
393.6130, 29642.79
394.0951, 29712.08
394.5772, 29759.47
395.0593, 29747.23
395.5414, 29725.35
396.0236, 29725.21
396.5057, 29771.54
396.9878, 29815.62
397.4699, 29850.87
397.9520, 29880.30
398.4341, 29913.51
398.9163, 29963.39
399.3984, 30003.47
399.8805, 30019.73
400.3626, 29995.33
400.8447, 29998.59
401.3268, 30042.49
401.8090, 30104.50
402.2911, 30155.99
402.7732, 30198.53
403.2553, 30224.25
403.7374, 30224.52
404.2195, 30201.56
404.7017, 30195.42
405.1838, 30206.60
405.6659, 30233.66
406.1480, 30283.50
406.6301, 30356.93
407.1122, 30413.81
407.5944, 30444.94
408.0765, 30457.51
408.5586, 30462.35
409.0407, 30459.72
409.5228, 30464.32
410.0049, 30488.91
410.4871, 30528.18
410.9692, 30571.81
411.4513, 30622.36
411.9334, 30662.93
412.4155, 30655.88
412.8976, 30620.66
413.3798, 30613.02
413.8619, 30691.26
414.3440, 30790.60
414.8261, 30841.51
415.3082, 30842.64
415.7903, 30833.62
416.2725, 30829.27
416.7546, 30833.43
417.2367, 30850.87
417.7188, 30893.42
418.2009, 30937.83
418.6830, 30970.07
419.1652, 30994.47
419.6473, 31025.55
420.1294, 31085.52
420.6115, 31140.99
421.0937, 31172.08
421.5758, 31160.79
422.0579, 31157.04
422.5400, 31170.67
423.0221, 31194.95
423.5042, 31219.15
423.9864, 31237.13
424.4685, 31261.42
424.9506, 31301.32
425.4327, 31359.36
425.9148, 31392.51
426.3969, 31389.75
426.8791, 31374.70
427.3612, 31364.77
427.8433, 31356.21
428.3254, 31366.37
428.8075, 31405.43
429.2896, 31461.94
429.7718, 31495.90
430.2539, 31505.18
430.7360, 31504.30
431.2181, 31491.02
431.7002, 31468.09
432.1823, 31483.19
432.6645, 31546.78
433.1466, 31621.54
433.6287, 31656.65
434.1108, 31657.17
434.5929, 31647.14
435.0750, 31628.30
435.5572, 31608.56
436.0393, 31595.30
436.5214, 31589.29
437.0035, 31607.20
437.4856, 31700.54
437.9677, 31814.44
438.4499, 31866.83
438.9320, 31808.74
439.4141, 31732.30
439.8962, 31689.72
440.3783, 31678.80
440.8604, 31692.63
441.3426, 31750.27
441.8247, 31815.01
442.3068, 31864.98
442.7889, 31894.42
443.2710, 31925.47
443.7531, 31977.39
444.2353, 32028.59
444.7174, 32056.06
445.1995, 32033.63
445.6816, 32011.79
446.1637, 31993.02
446.6458, 31978.79
447.1280, 31985.91
447.6101, 32031.39
448.0922, 32079.64
448.5743, 32109.52
449.0564, 32111.54
449.5385, 32122.96
450.0207, 32151.85
450.5028, 32184.05
450.9849, 32183.61
451.4670, 32139.59
451.9491, 32119.72
452.4312, 32167.51
452.9134, 32268.85
453.3955, 32307.57
453.8776, 32277.37
454.3597, 32229.60
454.8418, 32208.34
455.3239, 32210.81
455.8061, 32227.67
456.2882, 32260.75
456.7703, 32301.37
457.2524, 32342.25
457.7345, 32381.47
458.2166, 32411.97
458.6988, 32426.99
459.1809, 32431.99
459.6630, 32430.53
460.1451, 32421.99
460.6272, 32414.39
461.1093, 32405.63
461.5915, 32402.96
462.0736, 32415.70
462.5557, 32455.01
463.0378, 32502.31
463.5199, 32558.47
464.0020, 32620.20
464.4842, 32666.50
464.9663, 32678.00
465.4484, 32683.50
465.9305, 32698.71
466.4126, 32734.37
466.8947, 32762.21
467.3769, 32779.83
467.8590, 32790.63
468.3411, 32797.52
468.8232, 32788.73
469.3053, 32801.34
469.7874, 32856.94
470.2696, 32951.18
470.7517, 33001.39
471.2338, 33001.61
471.7159, 32976.21
472.1980, 32927.34
472.6801, 32856.60
473.1623, 32843.79
473.6444, 32915.10
474.1265, 33019.20
474.6086, 33070.71
475.0907, 33074.92
475.5728, 33066.07
476.0550, 33055.10
476.5371, 33045.04
477.0192, 33038.64
477.5013, 33035.83
477.9834, 33043.66
478.4655, 33074.77
478.9477, 33117.72
479.4298, 33156.38
479.9119, 33175.34
480.3940, 33202.92
480.8761, 33278.73
481.3582, 33378.22
481.8404, 33429.47
482.3225, 33359.75
482.8046, 33277.08
483.2867, 33226.46
483.7688, 33212.57
484.2509, 33228.06
484.7331, 33306.44
485.2152, 33396.28
485.6973, 33450.12
486.1794, 33446.82
486.6615, 33443.32
487.1436, 33446.55
487.6258, 33455.61
488.1079, 33466.85
488.5900, 33480.87
489.0721, 33495.18
489.5542, 33509.83
490.0363, 33524.95
490.5185, 33529.87
491.0006, 33520.05
491.4827, 33514.05
491.9648, 33538.04
492.4470, 33588.33
492.9291, 33648.05
493.4112, 33730.80
493.8933, 33801.86
494.3754, 33781.80
494.8575, 33685.63
495.3397, 33608.89
495.8218, 33640.15
496.3039, 33710.66
496.7860, 33737.00
497.2681, 33691.03
497.7502, 33664.86
498.2324, 33727.75
498.7145, 33834.07
499.1966, 33923.07
499.6787, 33975.09
500.1608, 34008.05
500.6429, 34022.98
501.1251, 34020.89
501.6072, 34014.33
502.0893, 33987.75
502.5714, 33971.33
503.0535, 33981.73
503.5356, 34036.22
504.0178, 34075.27
504.4999, 34091.91
504.9820, 34099.09
505.4641, 34123.93
505.9462, 34175.67
506.4283, 34193.14
506.9105, 34138.83
507.3926, 34041.20
507.8747, 34024.30
508.3568, 34092.07
508.8389, 34168.90
509.3210, 34189.35
509.8032, 34176.14
510.2853, 34200.89
510.7674, 34282.41
511.2495, 34359.62
511.7316, 34354.91
512.2137, 34300.34
512.6959, 34261.31
513.1780, 34281.04
513.6601, 34311.89
514.1422, 34319.13
514.6243, 34306.96
515.1064, 34306.34
515.5886, 34338.86
516.0707, 34380.10
516.5528, 34416.44
517.0349, 34451.00
517.5170, 34471.13
517.9991, 34456.43
518.4813, 34433.96
518.9634, 34439.66
519.4455, 34495.21
519.9276, 34542.05
520.4097, 34569.48
520.8918, 34578.40
521.3740, 34571.25
521.8561, 34539.47
522.3382, 34519.94
522.8203, 34546.89
523.3024, 34616.37
523.7845, 34665.59
524.2667, 34691.70
524.7488, 34695.56
525.2309, 34665.26
525.7130, 34611.29
526.1951, 34569.47
526.6772, 34541.37
527.1594, 34541.30
527.6415, 34607.58
528.1236, 34724.42
528.6057, 34824.20
529.0878, 34875.09
529.5699, 34888.64
530.0521, 34862.29
530.5342, 34783.23
531.0163, 34721.31
531.4984, 34693.36
531.9805, 34695.61
532.4626, 34723.71
532.9448, 34805.66
533.4269, 34879.96
533.9090, 34945.44
534.3911, 34998.92
534.8732, 35022.23
535.3553, 34998.43
535.8375, 34976.58
536.3196, 34980.89
536.8017, 35013.16
537.2838, 35031.67
537.7659, 35032.38
538.2480, 35033.30
538.7302, 35062.90
539.2123, 35115.00
539.6944, 35140.52
540.1765, 35116.87
540.6586, 35084.04
541.1407, 35107.16
541.6229, 35171.68
542.1050, 35225.60
542.5871, 35229.86
543.0692, 35218.36
543.5513, 35213.80
544.0334, 35217.81
544.5156, 35244.79
544.9977, 35330.83
545.4798, 35425.82
545.9619, 35488.39
546.4440, 35484.99
546.9261, 35487.40
547.4083, 35508.92
547.8904, 35541.70
548.3725, 35572.48
548.8546, 35609.73
549.3367, 35631.05
549.8188, 35627.64
550.3010, 35601.58
550.7831, 35576.68
551.2652, 35553.04
551.7473, 35530.05
552.2294, 35494.59
552.7115, 35451.85
553.1937, 35464.96
553.6758, 35547.11
554.1579, 35651.08
554.6400, 35726.31
555.1221, 35776.95
555.6042, 35813.88
556.0864, 35842.61
556.5685, 35858.39
557.0506, 35846.97
557.5327, 35815.93
558.0148, 35793.63
558.4969, 35795.09
558.9791, 35808.69
559.4612, 35825.64
559.9433, 35842.34
560.4254, 35875.92
560.9075, 35954.43
561.3896, 36036.96
561.8718, 36087.07
562.3539, 36072.12
562.8360, 36082.09
563.3181, 36137.36
563.8002, 36214.74
564.2823, 36257.63
564.7645, 36260.14
565.2466, 36251.64
565.7287, 36232.07
566.2108, 36209.99
566.6929, 36237.16
567.1750, 36315.17
567.6572, 36401.42
568.1393, 36455.70
568.6214, 36492.27
569.1035, 36540.84
569.5856, 36610.98
570.0677, 36675.14
570.5499, 36706.02
571.0320, 36717.39
571.5141, 36731.37
571.9962, 36750.68
572.4783, 36779.45
572.9604, 36831.49
573.4426, 36898.77
573.9247, 36941.71
574.4068, 36921.96
574.8889, 36905.52
575.3710, 36919.01
575.8531, 36968.50
576.3353, 37017.36
576.8174, 37073.08
577.2995, 37116.32
577.7816, 37118.71
578.2637, 37073.96
578.7458, 37058.89
579.2280, 37091.96
579.7101, 37145.87
580.1922, 37168.80
580.6743, 37166.61
581.1564, 37172.43
581.6385, 37213.68
582.1207, 37265.20
582.6028, 37290.66
583.0849, 37292.92
583.5670, 37295.98
584.0491, 37310.28
584.5313, 37333.37
585.0134, 37367.93
585.4955, 37423.41
585.9776, 37460.19
586.4597, 37462.18
586.9418, 37442.34
587.4240, 37413.30
587.9061, 37342.85
588.3882, 37315.02
588.8703, 37350.90
589.3524, 37431.83
589.8345, 37506.48
590.3167, 37576.22
590.7988, 37634.77
591.2809, 37678.48
591.7630, 37708.25
592.2451, 37719.99
592.7272, 37712.77
593.2094, 37710.38
593.6915, 37736.15
594.1736, 37780.13
594.6557, 37821.57
595.1378, 37853.40
595.6199, 37895.28
596.1021, 37984.14
596.5842, 38086.33
597.0663, 38154.08
597.5485, 38125.56
598.0306, 38107.61
598.5127, 38134.81
598.9948, 38200.89
599.4769, 38278.37
599.9590, 38397.92
600.4412, 38489.57
600.9233, 38516.70
601.4054, 38472.25
601.8875, 38485.25
602.3696, 38576.94
602.8517, 38673.86
603.3339, 38709.82
603.8160, 38689.29
604.2981, 38654.88
604.7802, 38602.96
605.2623, 38568.76
605.7444, 38628.87
606.2266, 38746.06
606.7087, 38816.07
607.1908, 38755.84
607.6729, 38681.98
608.1550, 38700.23
608.6371, 38783.96
609.1193, 38847.27
609.6014, 38845.34
610.0835, 38823.30
610.5656, 38793.43
611.0477, 38752.22
611.5298, 38741.00
612.0120, 38782.10
612.4941, 38832.10
612.9762, 38862.91
613.4583, 38871.15
613.9404, 38873.00
614.4225, 38870.79
614.9047, 38859.07
615.3868, 38828.18
615.8689, 38778.75
616.3510, 38721.41
616.8331, 38655.00
617.3152, 38588.01
617.7974, 38531.21
618.2795, 38484.65
618.7616, 38445.37
619.2437, 38413.80
619.7258, 38387.61
620.2079, 38362.91
620.6901, 38339.79
621.1722, 38327.12
621.6543, 38328.16
622.1364, 38340.54
622.6185, 38365.75
623.1006, 38421.18
623.5828, 38449.87
624.0649, 38440.69
624.5470, 38415.00
625.0291, 38394.90
625.5112, 38378.63
625.9933, 38379.97
626.4755, 38407.83
626.9576, 38445.91
627.4397, 38461.05
627.9218, 38454.88
628.4039, 38439.74
628.8860, 38398.14
629.3682, 38363.42
629.8503, 38401.63
630.3324, 38501.38
630.8145, 38576.19
631.2966, 38536.45
631.7787, 38480.32
632.2609, 38485.78
632.7430, 38584.94
633.2251, 38657.77
633.7072, 38655.50
634.1893, 38632.65
634.6714, 38637.44
635.1536, 38699.31
635.6357, 38718.65
636.1178, 38667.50
636.5999, 38592.34
637.0820, 38588.40
637.5641, 38659.16
638.0463, 38714.41
638.5284, 38711.78
639.0105, 38687.51
639.4926, 38724.98
639.9747, 38813.53
640.4568, 38890.07
640.9390, 38909.08
641.4211, 38904.05
641.9032, 38902.27
642.3853, 38905.73
642.8674, 38915.07
643.3495, 38946.94
643.8317, 38973.73
644.3138, 38973.54
644.7959, 38911.88
645.2780, 38886.46
645.7601, 38913.90
646.2422, 38962.96
646.7244, 39001.33
647.2065, 39030.25
647.6886, 39036.85
648.1707, 39009.89
648.6528, 38972.02
649.1349, 38970.69
649.6171, 39002.02
650.0992, 39037.96
650.5813, 39063.41
651.0634, 39087.58
651.5455, 39127.12
652.0276, 39178.28
652.5098, 39218.86
652.9919, 39226.37
653.4740, 39228.00
653.9561, 39241.37
654.4382, 39270.50
654.9203, 39297.23
655.4025, 39325.21
655.8846, 39345.40
656.3667, 39348.87
656.8488, 39325.87
657.3309, 39317.54
657.8130, 39330.69
658.2952, 39348.85
658.7773, 39344.89
659.2594, 39321.17
659.7415, 39307.09
660.2236, 39313.69
660.7057, 39327.80
661.1879, 39326.41
661.6700, 39316.56
662.1521, 39318.06
662.6342, 39358.07
663.1163, 39397.32
663.5984, 39406.74
664.0806, 39389.86
664.5627, 39379.93
665.0448, 39386.09
665.5269, 39400.52
666.0090, 39422.65
666.4911, 39454.86
666.9733, 39475.04
667.4554, 39479.98
667.9375, 39479.25
668.4196, 39477.96
668.9017, 39476.38
669.3839, 39484.56
669.8660, 39504.89
670.3481, 39527.78
670.8302, 39545.77
671.3123, 39557.57
671.7944, 39558.61
672.2766, 39536.77
672.7587, 39521.23
673.2408, 39537.80
673.7229, 39573.49
