##NAMES=Clinohumite
##RRUFFID=R070561
##IDEAL CHEMISTRY=Mg_9_(SiO_4_)_4_F_2_
##LOCALITY=Unknown
##OWNER=RRUFF
##SOURCE=www.multicolour.com
##DESCRIPTION=Brownish orange transparent fragments
##STATUS=The identification of this mineral has been confirmed by X-ray diffraction and chemical analysis
##URL=rruff.info/R070561
##MEASURED CHEMISTRY=(Mg_8.47_Fe_0.23_Ti_0.15_[box]_0.14_Mn_0.01_)_Σ=9_((Si_3.98_Al_0.02_)_Σ=1_O_4_)_4_(F_1.01_(OH)_0.99_)_Σ=2_ ; OH estimated by difference and charge balance
155.7619, 2451.896
156.2440, 2543.411
156.7261, 2589.721
157.2082, 2567.433
157.6903, 2499.212
158.1724, 2442.231
158.6546, 2399.909
159.1367, 2365.154
159.6188, 2348.232
160.1009, 2334.639
160.5830, 2298.361
161.0651, 2225.357
161.5473, 2138.839
162.0294, 2118.968
162.5115, 2265.640
162.9936, 2366.526
163.4757, 2371.650
163.9578, 2326.728
164.4400, 2297.045
164.9221, 2317.740
165.4042, 2373.728
165.8863, 2397.547
166.3684, 2341.503
166.8505, 2307.613
167.3327, 2331.930
167.8148, 2386.527
168.2969, 2421.704
168.7790, 2406.634
169.2611, 2355.375
169.7432, 2356.558
170.2254, 2501.691
170.7075, 2593.275
171.1896, 2542.619
171.6717, 2410.109
172.1538, 2306.848
172.6359, 2299.847
173.1181, 2376.614
173.6002, 2439.963
174.0823, 2487.393
174.5644, 2527.330
175.0465, 2575.202
175.5286, 2617.567
176.0108, 2615.894
176.4929, 2535.938
176.9750, 2393.741
177.4571, 2357.936
177.9392, 2508.776
178.4213, 2657.802
178.9035, 2756.391
179.3856, 2806.871
179.8677, 2818.555
180.3498, 2793.112
180.8319, 2734.081
181.3140, 2688.160
181.7962, 2666.998
182.2783, 2643.556
182.7604, 2595.094
183.2425, 2534.781
183.7246, 2495.846
184.2067, 2500.596
184.6889, 2546.942
185.1710, 2606.555
185.6531, 2734.231
186.1352, 2818.512
186.6173, 2787.142
187.0994, 2673.053
187.5816, 2566.634
188.0637, 2526.583
188.5458, 2549.337
189.0279, 2572.339
189.5100, 2622.196
189.9921, 2646.477
190.4743, 2595.823
190.9564, 2498.117
191.4385, 2432.564
191.9206, 2458.901
192.4027, 2568.850
192.8848, 2622.184
193.3670, 2572.309
193.8491, 2525.518
194.3312, 2534.845
194.8133, 2583.596
195.2954, 2618.923
195.7775, 2602.239
196.2597, 2539.374
196.7418, 2513.941
197.2239, 2555.995
197.7060, 2596.319
198.1881, 2606.440
198.6702, 2593.119
199.1524, 2572.268
199.6345, 2548.860
200.1166, 2526.507
200.5987, 2556.497
201.0808, 2690.052
201.5629, 2809.582
202.0451, 2878.587
202.5272, 2900.922
203.0093, 2883.494
203.4914, 2823.326
203.9735, 2729.350
204.4556, 2684.295
204.9378, 2722.015
205.4199, 2761.340
205.9020, 2765.224
206.3841, 2750.870
206.8662, 2760.725
207.3483, 2824.082
207.8305, 2929.854
208.3126, 3000.341
208.7947, 3052.481
209.2768, 3058.589
209.7589, 2973.936
210.2410, 2839.862
210.7232, 2730.786
211.2053, 2688.279
211.6874, 2703.237
212.1695, 2728.788
212.6516, 2802.912
213.1337, 2844.266
213.6159, 2821.818
214.0980, 2756.794
214.5801, 2676.303
215.0622, 2591.586
215.5443, 2511.676
216.0264, 2477.928
216.5086, 2523.191
216.9907, 2575.102
217.4728, 2651.035
217.9549, 2721.021
218.4370, 2734.077
218.9191, 2663.022
219.4013, 2538.654
219.8834, 2461.667
220.3655, 2483.875
220.8476, 2496.061
221.3297, 2473.099
221.8118, 2441.283
222.2940, 2435.478
222.7761, 2470.754
223.2582, 2531.468
223.7403, 2578.006
224.2224, 2597.817
224.7046, 2617.672
225.1867, 2617.630
225.6688, 2627.126
226.1509, 2692.945
226.6330, 2830.146
227.1151, 2987.982
227.5973, 3060.013
228.0794, 2983.246
228.5615, 2908.103
229.0436, 2813.916
229.5257, 2735.943
230.0078, 2707.210
230.4900, 2736.342
230.9721, 2803.824
231.4542, 2881.590
231.9363, 2994.082
232.4184, 3069.568
232.9005, 3119.744
233.3827, 3131.386
233.8648, 3066.647
234.3469, 2930.011
234.8290, 2793.738
235.3111, 2771.735
235.7932, 2935.964
236.2754, 3035.872
236.7575, 3056.977
237.2396, 3035.239
237.7217, 2970.277
238.2038, 2873.155
238.6859, 2780.762
239.1681, 2732.651
239.6502, 2732.631
240.1323, 2763.330
240.6144, 2908.114
241.0965, 3012.982
241.5786, 2983.612
242.0608, 2835.983
242.5429, 2664.994
243.0250, 2541.846
243.5071, 2463.224
243.9892, 2474.983
244.4713, 2703.767
244.9535, 2907.458
245.4356, 2985.480
245.9177, 2957.919
246.3998, 2899.792
246.8819, 2863.354
247.3640, 2846.273
247.8462, 2818.078
248.3283, 2759.439
248.8104, 2715.008
249.2925, 2700.975
249.7746, 2712.756
250.2567, 2742.309
250.7389, 2798.028
251.2210, 2865.453
251.7031, 2881.142
252.1852, 2796.514
252.6673, 2752.013
253.1494, 2868.036
253.6316, 3047.682
254.1137, 3133.144
254.5958, 3007.149
255.0779, 2793.776
255.5600, 2761.598
256.0421, 2984.411
256.5243, 3146.834
257.0064, 3024.017
257.4885, 2783.022
257.9706, 2606.567
258.4527, 2545.689
258.9348, 2560.367
259.4170, 2625.482
259.8991, 2747.063
260.3812, 2843.023
260.8633, 2872.988
261.3454, 2860.667
261.8275, 2833.438
262.3097, 2784.333
262.7918, 2743.671
263.2739, 2729.111
263.7560, 2741.241
264.2381, 2792.708
264.7202, 2919.658
265.2024, 3055.340
265.6845, 3097.250
266.1666, 3027.117
266.6487, 2944.072
267.1308, 2878.633
267.6129, 2836.365
268.0951, 2846.314
268.5772, 2936.785
269.0593, 3034.794
269.5414, 3010.567
270.0235, 2852.574
270.5056, 2729.391
270.9878, 2713.541
271.4699, 2746.434
271.9520, 2741.502
272.4341, 2679.107
272.9162, 2617.572
273.3983, 2630.325
273.8805, 2735.856
274.3626, 2805.044
274.8447, 2801.062
275.3268, 2779.140
275.8089, 2776.884
276.2910, 2800.062
276.7732, 2854.506
277.2553, 2963.531
277.7374, 3137.217
278.2195, 3180.266
278.7016, 2983.639
279.1837, 2775.499
279.6659, 2664.790
280.1480, 2638.660
280.6301, 2627.668
281.1122, 2579.234
281.5943, 2503.873
282.0764, 2522.616
282.5586, 2769.022
283.0407, 2954.965
283.5228, 2991.478
284.0049, 2930.454
284.4870, 2847.255
284.9691, 2778.480
285.4513, 2725.544
285.9334, 2693.264
286.4155, 2661.128
286.8976, 2684.923
287.3797, 2853.993
287.8618, 3035.244
288.3440, 3077.532
288.8261, 2936.714
289.3082, 2729.552
289.7903, 2665.757
290.2724, 2831.157
290.7545, 2914.982
291.2367, 2818.792
291.7188, 2695.452
292.2009, 2630.836
292.6830, 2638.431
293.1651, 2685.372
293.6472, 2756.014
294.1294, 2855.669
294.6115, 2908.491
295.0936, 2868.953
295.5757, 2822.590
296.0578, 2819.788
296.5399, 2850.480
297.0221, 2871.939
297.5042, 2842.477
297.9863, 2778.221
298.4684, 2747.203
298.9505, 2759.077
299.4326, 2785.518
299.9148, 2810.066
300.3969, 2836.374
300.8790, 2873.484
301.3611, 2945.395
301.8432, 3015.830
302.3253, 3012.937
302.8075, 2926.933
303.2896, 2883.955
303.7717, 3000.963
304.2538, 3185.450
304.7359, 3246.137
305.2180, 3104.463
305.7002, 2933.508
306.1823, 2813.580
306.6644, 2751.791
307.1465, 2796.368
307.6286, 3001.454
308.1107, 3272.123
308.5929, 3407.677
309.0750, 3388.888
309.5571, 3332.289
310.0392, 3219.209
310.5213, 3103.143
311.0034, 3074.134
311.4856, 3155.447
311.9677, 3268.390
312.4498, 3307.706
312.9319, 3230.836
313.4140, 3209.025
313.8961, 3298.581
314.3783, 3399.572
314.8604, 3440.965
315.3425, 3421.892
315.8246, 3380.398
316.3067, 3344.115
316.7888, 3311.224
317.2710, 3323.891
317.7531, 3446.457
318.2352, 3543.721
318.7173, 3557.222
319.1994, 3517.221
319.6815, 3481.740
320.1637, 3486.076
320.6458, 3515.896
321.1279, 3513.740
321.6100, 3437.990
322.0921, 3397.711
322.5742, 3432.103
323.0564, 3494.917
323.5385, 3550.847
324.0206, 3588.189
324.5027, 3595.272
324.9848, 3541.570
325.4669, 3409.958
325.9491, 3306.717
326.4312, 3262.642
326.9133, 3243.335
327.3954, 3236.022
327.8775, 3237.469
328.3596, 3234.371
328.8418, 3208.631
329.3239, 3167.963
329.8060, 3151.320
330.2881, 3175.764
330.7702, 3197.254
331.2523, 3186.375
331.7345, 3147.202
332.2166, 3085.215
332.6987, 2953.258
333.1808, 2826.406
333.6629, 2814.010
334.1451, 2916.875
334.6272, 3026.573
335.1093, 3090.333
335.5914, 3106.573
336.0735, 3086.141
336.5556, 2985.412
337.0378, 2899.321
337.5199, 2888.724
338.0020, 2922.301
338.4841, 2929.769
338.9662, 2880.946
339.4483, 2805.793
339.9305, 2763.783
340.4126, 2764.782
340.8947, 2784.251
341.3768, 2848.485
341.8589, 2914.463
342.3410, 2934.411
342.8232, 2906.286
343.3053, 2876.428
343.7874, 2899.615
344.2695, 2990.885
344.7516, 3048.344
345.2337, 3065.111
345.7159, 3056.944
346.1980, 3015.669
346.6801, 2953.747
347.1622, 2893.754
347.6443, 2848.830
348.1265, 2818.255
348.6086, 2801.547
349.0907, 2806.878
349.5728, 2811.388
350.0549, 2798.695
350.5370, 2786.732
351.0192, 2804.163
351.5013, 2865.026
351.9834, 2917.821
352.4655, 2882.448
352.9476, 2756.541
353.4297, 2670.382
353.9119, 2679.633
354.3940, 2712.256
354.8761, 2692.507
355.3582, 2620.551
355.8403, 2556.917
356.3224, 2535.115
356.8046, 2539.169
357.2867, 2545.235
357.7688, 2552.367
358.2509, 2546.130
358.7330, 2499.264
359.2151, 2419.703
359.6973, 2394.588
360.1794, 2471.899
360.6615, 2564.374
361.1436, 2633.296
361.6257, 2675.577
362.1078, 2685.902
362.5900, 2658.868
363.0721, 2603.873
363.5542, 2550.843
364.0363, 2472.600
364.5184, 2431.690
365.0005, 2459.811
365.4827, 2512.050
365.9648, 2548.139
366.4469, 2557.301
366.9290, 2547.823
367.4111, 2526.439
367.8932, 2486.086
368.3754, 2462.428
368.8575, 2460.058
369.3396, 2470.531
369.8217, 2499.803
370.3038, 2540.198
370.7859, 2576.018
371.2681, 2603.130
371.7502, 2615.149
372.2323, 2581.057
372.7144, 2474.410
373.1965, 2388.174
373.6786, 2380.431
374.1608, 2405.607
374.6429, 2414.299
375.1250, 2391.347
375.6071, 2364.653
376.0892, 2352.261
376.5714, 2355.236
377.0535, 2389.458
377.5356, 2480.390
378.0177, 2566.674
378.4998, 2547.145
378.9819, 2419.194
379.4641, 2317.557
379.9462, 2266.131
380.4283, 2258.649
380.9104, 2314.977
381.3925, 2425.857
381.8746, 2514.416
382.3568, 2519.291
382.8389, 2444.036
383.3210, 2370.715
383.8031, 2277.777
384.2852, 2210.094
384.7673, 2194.763
385.2495, 2208.001
385.7316, 2206.898
386.2137, 2174.141
386.6958, 2145.208
387.1779, 2202.240
387.6600, 2412.748
388.1422, 2546.609
388.6243, 2544.626
389.1064, 2506.198
389.5885, 2484.663
390.0706, 2482.617
390.5527, 2473.614
391.0349, 2422.162
391.5170, 2437.641
391.9991, 2350.467
392.4812, 2392.235
392.9633, 2401.305
393.4454, 2279.737
393.9276, 2326.859
394.4097, 2306.379
394.8918, 2283.126
395.3739, 2353.991
395.8560, 2251.424
396.3381, 2320.797
396.8203, 2321.534
397.3024, 2353.685
397.7845, 2330.517
398.2666, 2352.185
398.7487, 2386.028
399.2308, 2382.594
399.7130, 2301.270
400.1951, 2200.205
400.6772, 2127.558
401.1593, 2089.217
401.6414, 2073.697
402.1235, 2071.746
402.6057, 2083.469
403.0878, 2113.405
403.5699, 2184.353
404.0520, 2247.738
404.5341, 2308.111
405.0162, 2350.082
405.4984, 2347.577
405.9805, 2289.617
406.4626, 2210.068
406.9447, 2166.938
407.4268, 2169.580
407.9089, 2161.823
408.3911, 2093.247
408.8732, 2051.863
409.3553, 2120.763
409.8374, 2281.335
410.3195, 2411.592
410.8016, 2422.111
411.2838, 2360.402
411.7659, 2312.226
412.2480, 2278.416
412.7301, 2274.105
413.2122, 2324.528
413.6943, 2409.427
414.1765, 2461.078
414.6586, 2471.588
415.1407, 2459.136
415.6228, 2400.099
416.1049, 2330.140
416.5870, 2323.467
417.0692, 2403.026
417.5513, 2502.430
418.0334, 2529.047
418.5155, 2456.017
418.9976, 2392.756
419.4797, 2298.240
419.9619, 2249.406
420.4440, 2332.539
420.9261, 2494.322
421.4082, 2599.381
421.8903, 2549.792
422.3724, 2403.924
422.8546, 2363.790
423.3367, 2479.941
423.8188, 2584.025
424.3009, 2617.835
424.7830, 2631.549
425.2651, 2665.883
425.7473, 2727.795
426.2294, 2795.230
426.7115, 2858.285
427.1936, 2913.660
427.6757, 2951.415
428.1578, 2970.431
428.6400, 2970.521
429.1221, 2936.698
429.6042, 2877.991
430.0863, 2855.862
430.5684, 2905.512
431.0505, 2962.630
431.5327, 3011.144
432.0148, 3038.638
432.4969, 3008.080
432.9790, 2900.930
433.4611, 2760.563
433.9432, 2673.525
434.4254, 2665.896
434.9075, 2665.828
435.3896, 2690.129
435.8717, 2707.245
436.3538, 2697.762
436.8359, 2662.415
437.3181, 2611.398
437.8002, 2547.470
438.2823, 2475.844
438.7644, 2413.683
439.2465, 2351.394
439.7286, 2322.346
440.2108, 2352.414
440.6929, 2415.915
441.1750, 2501.242
441.6571, 2616.191
442.1392, 2702.313
442.6213, 2702.377
443.1035, 2642.086
443.5856, 2584.143
444.0677, 2537.358
444.5498, 2507.642
445.0319, 2508.214
445.5140, 2541.091
445.9962, 2546.323
446.4783, 2510.825
446.9604, 2461.436
447.4425, 2394.710
447.9246, 2325.910
448.4067, 2283.467
448.8889, 2280.561
449.3710, 2302.016
449.8531, 2318.885
450.3352, 2334.531
450.8173, 2337.538
451.2994, 2329.289
451.7816, 2307.719
452.2637, 2261.854
452.7458, 2199.161
453.2279, 2143.207
453.7100, 2102.061
454.1921, 2081.580
454.6743, 2114.006
455.1564, 2215.697
455.6385, 2274.248
456.1206, 2207.650
456.6027, 2086.716
457.0848, 2034.723
457.5670, 2073.117
458.0491, 2120.511
458.5312, 2164.956
459.0133, 2189.598
459.4954, 2157.011
459.9775, 2065.123
460.4597, 1968.549
460.9418, 1914.650
461.4239, 1903.849
461.9060, 1905.215
462.3881, 1931.378
462.8702, 1954.444
463.3524, 1958.717
463.8345, 1959.892
464.3166, 1989.066
464.7987, 2055.463
465.2808, 2112.643
465.7629, 2076.762
466.2451, 1936.529
466.7272, 1860.179
467.2093, 1891.967
467.6914, 1951.738
468.1735, 1988.568
468.6556, 2010.596
469.1378, 2041.537
469.6199, 2105.977
470.1020, 2167.711
470.5841, 2191.010
471.0662, 2180.640
471.5483, 2156.674
472.0305, 2126.280
472.5126, 2086.440
472.9947, 2028.377
473.4768, 1930.152
473.9589, 1868.998
474.4410, 1851.338
474.9232, 1865.381
475.4053, 1927.210
475.8874, 2016.264
476.3695, 2078.909
476.8516, 2076.006
477.3337, 2031.305
477.8159, 2025.149
478.2980, 2075.806
478.7801, 2119.609
479.2622, 2151.958
479.7443, 2165.290
480.2264, 2142.844
480.7086, 2085.497
481.1907, 2035.968
481.6728, 2029.979
482.1549, 2045.721
482.6370, 2043.918
483.1191, 2021.922
483.6013, 1989.797
484.0834, 1943.317
484.5655, 1894.598
485.0476, 1896.365
485.5297, 2013.805
486.0118, 2084.994
486.4940, 2051.007
486.9761, 1973.196
487.4582, 1894.958
487.9403, 1833.800
488.4224, 1815.181
488.9045, 1873.375
489.3867, 2005.332
489.8688, 2117.852
490.3509, 2231.271
490.8330, 2290.044
491.3151, 2251.996
491.7972, 2167.197
492.2794, 2088.393
492.7615, 2026.721
493.2436, 1983.477
493.7257, 1971.917
494.2078, 1980.293
494.6899, 1968.916
495.1721, 1928.146
495.6542, 1889.800
496.1363, 1877.225
496.6184, 1891.678
497.1005, 1928.357
497.5826, 2037.973
498.0648, 2110.500
498.5469, 2082.254
499.0290, 2004.203
499.5111, 1948.963
499.9932, 1937.823
500.4753, 1938.153
500.9575, 1898.241
501.4396, 1805.644
501.9217, 1768.190
502.4038, 1808.316
502.8859, 1877.559
503.3680, 1984.839
503.8502, 2098.061
504.3323, 2159.383
504.8144, 2136.349
505.2965, 2088.834
505.7786, 2078.981
506.2607, 2090.873
506.7429, 2056.759
507.2250, 1950.975
507.7071, 1848.245
508.1892, 1837.269
508.6713, 1934.357
509.1534, 1975.380
509.6356, 1876.571
510.1177, 1815.151
510.5998, 1898.364
511.0819, 2055.462
511.5641, 2184.808
512.0461, 2246.423
512.5283, 2242.580
513.0104, 2145.054
513.4925, 1932.934
513.9746, 1823.319
514.4567, 1898.185
514.9388, 1988.320
515.4210, 1985.381
515.9031, 1923.895
516.3852, 1884.031
516.8673, 1907.367
517.3494, 1933.925
517.8315, 1909.808
518.3137, 1851.012
518.7958, 1793.169
519.2779, 1744.347
519.7600, 1722.789
520.2421, 1759.788
520.7242, 1875.970
521.2064, 1929.092
521.6885, 1870.196
522.1706, 1811.589
522.6527, 1773.694
523.1348, 1767.813
523.6169, 1819.739
524.0991, 1940.993
524.5812, 2070.634
525.0633, 2116.859
525.5454, 2081.904
526.0275, 2071.295
526.5096, 2105.190
526.9918, 2148.128
527.4739, 2173.411
527.9560, 2186.077
528.4381, 2199.716
528.9202, 2251.359
529.4023, 2267.285
529.8845, 2152.513
530.3666, 1989.717
530.8487, 1943.657
531.3308, 2054.506
531.8129, 2199.710
532.2950, 2229.521
532.7772, 2126.861
533.2593, 2069.694
533.7414, 2087.158
534.2235, 2118.577
534.7056, 2164.885
535.1877, 2208.531
535.6699, 2225.127
536.1520, 2205.846
536.6341, 2176.743
537.1162, 2153.074
537.5983, 2138.521
538.0804, 2144.369
538.5626, 2171.199
539.0447, 2228.261
539.5268, 2344.779
540.0089, 2503.208
540.4910, 2567.385
540.9731, 2452.834
541.4553, 2361.463
541.9374, 2351.075
542.4195, 2380.675
542.9016, 2407.735
543.3837, 2424.139
543.8658, 2445.937
544.3480, 2490.884
544.8301, 2555.746
545.3122, 2614.230
545.7943, 2671.529
546.2764, 2709.692
546.7585, 2705.767
547.2407, 2686.803
547.7228, 2682.264
548.2049, 2695.630
548.6870, 2716.637
549.1691, 2750.698
549.6512, 2784.228
550.1334, 2808.020
550.6155, 2817.479
551.0976, 2793.522
551.5797, 2721.179
552.0618, 2612.132
552.5439, 2503.674
553.0261, 2372.157
553.5082, 2283.962
553.9903, 2254.769
554.4724, 2254.654
554.9545, 2286.990
555.4366, 2335.303
555.9188, 2348.222
556.4009, 2271.257
556.8830, 2163.098
557.3651, 2127.764
557.8472, 2159.281
558.3293, 2169.258
558.8115, 2119.612
559.2936, 2053.333
559.7757, 2026.403
560.2578, 2042.537
560.7399, 2092.332
561.2220, 2245.664
561.7042, 2362.714
562.1863, 2329.519
562.6684, 2219.424
563.1505, 2177.716
563.6326, 2266.435
564.1147, 2392.453
564.5969, 2401.501
565.0790, 2288.336
565.5611, 2246.007
566.0432, 2320.729
566.5253, 2413.642
567.0074, 2481.161
567.4896, 2516.218
567.9717, 2492.873
568.4538, 2366.902
568.9359, 2241.898
569.4180, 2149.458
569.9001, 2094.740
570.3823, 2104.944
570.8644, 2174.922
571.3465, 2232.060
571.8286, 2199.176
572.3107, 2091.338
572.7928, 2078.808
573.2750, 2242.718
573.7571, 2357.889
574.2392, 2341.827
574.7213, 2277.931
575.2034, 2222.125
575.6855, 2182.991
576.1677, 2180.597
576.6498, 2262.174
577.1319, 2366.515
577.6140, 2411.069
578.0961, 2398.320
578.5782, 2361.224
579.0604, 2310.738
579.5425, 2259.702
580.0246, 2232.750
580.5067, 2225.073
580.9888, 2254.787
581.4709, 2375.345
581.9531, 2475.482
582.4352, 2485.759
582.9173, 2438.301
583.3994, 2395.264
583.8815, 2377.212
584.3636, 2395.493
584.8458, 2496.208
585.3279, 2654.374
585.8100, 2739.705
586.2921, 2719.655
586.7742, 2667.153
587.2563, 2631.204
587.7385, 2613.796
588.2206, 2637.223
588.7027, 2751.861
589.1848, 2838.734
589.6669, 2864.387
590.1490, 2855.222
590.6312, 2820.766
591.1133, 2773.085
591.5954, 2749.581
592.0775, 2788.545
592.5597, 2872.760
593.0418, 2951.626
593.5239, 3028.138
594.0060, 3076.787
594.4882, 3078.521
594.9703, 3057.832
595.4524, 3036.727
595.9345, 3005.898
596.4166, 3037.992
596.8987, 3183.850
597.3809, 3358.178
597.8630, 3522.947
598.3451, 3672.355
598.8272, 3805.730
599.3093, 3922.344
599.7914, 4015.629
600.2736, 4057.949
600.7557, 4043.795
601.2378, 4094.688
601.7199, 4240.225
602.2020, 4405.645
602.6841, 4557.787
603.1663, 4697.490
603.6484, 4829.807
604.1305, 4973.744
604.6126, 5069.119
605.0947, 5064.021
605.5768, 5015.478
606.0590, 4988.391
606.5411, 4984.809
607.0232, 4969.987
607.5053, 4920.963
607.9874, 4841.074
608.4695, 4737.180
608.9517, 4602.923
609.4338, 4465.230
609.9159, 4333.148
610.3980, 4193.557
610.8801, 4040.923
611.3622, 3874.364
611.8444, 3692.877
612.3265, 3456.452
612.8086, 3245.121
613.2907, 3135.696
613.7728, 3081.164
614.2549, 2988.948
614.7371, 2837.685
615.2192, 2675.718
615.7013, 2549.294
616.1834, 2457.469
616.6655, 2395.124
617.1476, 2381.518
617.6298, 2361.941
618.1119, 2304.795
618.5940, 2245.760
619.0761, 2222.061
619.5582, 2236.047
620.0403, 2246.492
620.5225, 2249.973
621.0046, 2230.204
621.4867, 2151.737
621.9688, 2033.569
622.4509, 1936.154
622.9330, 1883.948
623.4152, 1860.577
623.8973, 1843.990
624.3794, 1837.373
624.8615, 1817.882
625.3436, 1744.203
625.8257, 1713.493
626.3079, 1806.535
626.7900, 1940.625
627.2721, 1998.352
627.7542, 1948.839
628.2363, 1877.964
628.7184, 1821.247
629.2006, 1778.564
629.6827, 1754.828
630.1648, 1746.636
630.6469, 1739.455
631.1290, 1726.494
631.6111, 1703.763
632.0933, 1653.849
632.5754, 1546.505
633.0575, 1498.079
633.5396, 1556.742
634.0217, 1629.552
634.5038, 1687.102
634.9860, 1725.241
635.4681, 1736.318
635.9502, 1712.630
636.4323, 1676.218
636.9144, 1640.378
637.3965, 1601.953
637.8787, 1540.247
638.3608, 1460.616
638.8429, 1422.901
639.3250, 1477.005
639.8071, 1590.246
640.2892, 1635.555
640.7714, 1571.022
641.2535, 1543.714
641.7356, 1644.382
642.2177, 1717.586
642.6998, 1628.824
643.1819, 1432.427
643.6641, 1312.263
644.1462, 1354.048
644.6283, 1445.344
645.1104, 1536.802
645.5925, 1615.883
646.0746, 1661.618
646.5568, 1670.138
647.0389, 1644.023
647.5210, 1578.426
648.0031, 1485.540
648.4852, 1434.919
648.9673, 1438.683
649.4495, 1453.572
649.9316, 1476.150
