##NAMES=Clinoptilolite-Na
##RRUFFID=R061099
##IDEAL CHEMISTRY=Na_6_(Si_30_Al_6_)O_72_&#183;20H_2_O
##LOCALITY=Richardson Ranch, Madras, Jefferson County, Oregon, USA
##OWNER=RRUFF
##SOURCE=Michael Scott
##DESCRIPTION=Red-brown to salmon, somewhat coffin shaped tabular crystals in a fragmented geode
##STATUS=The identification of this mineral has been confirmed by X-ray diffraction and chemical analysis
##URL=rruff.info/R061099
##MEASURED CHEMISTRY=(Na_2.70_Ca_1.46_K_0.89_Fe_0.08_Mg_0.02_)_Σ=5.15_(Si_29.29_Al_6.71_)O_72_·18.51H_2_O
116.2615, 2481.024
116.7436, 2703.058
117.2257, 2904.412
117.7079, 3099.463
118.1900, 3313.110
118.6721, 3573.292
119.1542, 3845.636
119.6363, 4105.279
120.1184, 4331.245
120.6006, 4565.199
121.0827, 4833.050
121.5648, 5132.394
122.0469, 5447.062
122.5290, 5773.818
123.0111, 6108.216
123.4933, 6444.181
123.9754, 6785.731
124.4575, 7124.575
124.9396, 7460.044
125.4217, 7790.253
125.9038, 8095.113
126.3860, 8292.191
126.8681, 8333.308
127.3502, 8309.517
127.8323, 8307.517
128.3144, 8317.795
128.7965, 8323.210
129.2787, 8325.491
129.7608, 8315.178
130.2429, 8272.393
130.7250, 8198.868
131.2071, 8120.246
131.6892, 8042.715
132.1714, 7967.193
132.6535, 7914.486
133.1356, 7890.950
133.6177, 7885.285
134.0998, 7866.601
134.5819, 7832.096
135.0640, 7794.948
135.5462, 7761.151
136.0283, 7728.176
136.5104, 7717.050
136.9925, 7739.231
137.4746, 7792.522
137.9567, 7831.198
138.4389, 7855.868
138.9210, 7867.943
139.4031, 7870.189
139.8852, 7865.340
140.3673, 7846.669
140.8494, 7811.163
141.3316, 7756.213
141.8137, 7698.492
142.2958, 7638.332
142.7779, 7576.358
143.2600, 7509.791
143.7421, 7432.844
144.2243, 7361.874
144.7064, 7308.516
145.1885, 7292.838
145.6706, 7256.665
146.1527, 7189.388
146.6348, 7095.188
147.1170, 7009.369
147.5991, 6931.886
148.0812, 6862.229
148.5633, 6801.152
149.0454, 6765.398
149.5275, 6717.557
150.0097, 6644.745
150.4918, 6538.769
150.9739, 6456.206
151.4560, 6417.193
151.9381, 6394.664
152.4202, 6358.245
152.9024, 6284.829
153.3845, 6216.373
153.8666, 6166.462
154.3487, 6149.002
154.8308, 6119.676
155.3129, 6069.103
155.7950, 6003.067
156.2772, 5933.804
156.7593, 5850.364
157.2414, 5773.996
157.7235, 5714.966
158.2056, 5682.745
158.6877, 5658.087
159.1699, 5646.455
159.6520, 5642.329
160.1341, 5622.717
160.6162, 5566.832
161.0983, 5499.682
161.5804, 5439.694
162.0626, 5397.155
162.5447, 5359.047
163.0268, 5320.324
163.5089, 5281.119
163.9910, 5244.493
164.4731, 5216.775
164.9553, 5190.975
165.4374, 5158.905
165.9195, 5114.984
166.4016, 5065.406
166.8837, 5008.927
167.3658, 4943.278
167.8480, 4887.544
168.3301, 4860.219
168.8122, 4850.992
169.2943, 4840.759
169.7764, 4821.809
170.2585, 4796.522
170.7407, 4766.268
171.2228, 4729.797
171.7049, 4692.059
172.1870, 4658.145
172.6691, 4626.505
173.1512, 4592.865
173.6334, 4550.813
174.1155, 4505.710
174.5976, 4466.105
175.0797, 4436.404
175.5618, 4409.163
176.0439, 4374.734
176.5260, 4334.125
177.0082, 4296.120
177.4903, 4267.798
177.9724, 4246.391
178.4545, 4226.974
178.9366, 4209.875
179.4187, 4192.529
179.9009, 4171.265
180.3830, 4145.997
180.8651, 4118.123
181.3472, 4085.251
181.8293, 4049.577
182.3114, 4019.392
182.7936, 3998.844
183.2757, 3985.812
183.7578, 3975.429
184.2399, 3968.205
184.7220, 3960.572
185.2041, 3945.625
185.6863, 3924.552
186.1684, 3907.881
186.6505, 3905.839
187.1326, 3913.262
187.6147, 3907.682
188.0968, 3884.893
188.5790, 3856.573
189.0611, 3843.039
189.5432, 3844.098
190.0253, 3842.760
190.5074, 3825.825
190.9895, 3795.828
191.4717, 3771.246
191.9538, 3754.352
192.4359, 3743.261
192.9180, 3734.939
193.4001, 3729.792
193.8822, 3724.125
194.3644, 3715.898
194.8465, 3705.209
195.3286, 3691.325
195.8107, 3673.550
196.2928, 3652.863
196.7749, 3630.041
197.2570, 3603.389
197.7392, 3582.369
198.2213, 3580.858
198.7034, 3601.148
199.1855, 3611.057
199.6676, 3600.194
200.1497, 3572.084
200.6319, 3550.833
201.1140, 3536.484
201.5961, 3528.606
202.0782, 3530.142
202.5603, 3543.759
203.0424, 3551.289
203.5246, 3545.207
204.0067, 3525.729
204.4888, 3511.746
204.9709, 3504.383
205.4530, 3500.702
205.9352, 3497.481
206.4173, 3495.470
206.8994, 3491.184
207.3815, 3482.769
207.8636, 3469.562
208.3457, 3456.959
208.8279, 3442.713
209.3100, 3431.435
209.7921, 3434.973
210.2742, 3461.074
210.7563, 3481.379
211.2384, 3480.139
211.7206, 3449.987
212.2027, 3430.400
212.6848, 3424.332
213.1669, 3427.459
213.6490, 3428.848
214.1311, 3426.875
214.6133, 3426.527
215.0954, 3431.961
215.5775, 3447.046
216.0596, 3454.790
216.5417, 3453.440
217.0238, 3444.254
217.5059, 3430.038
217.9881, 3405.931
218.4702, 3384.973
218.9523, 3376.041
219.4344, 3384.331
219.9165, 3391.638
220.3986, 3397.610
220.8808, 3401.666
221.3629, 3397.729
221.8450, 3375.543
222.3271, 3359.547
222.8092, 3372.081
223.2913, 3434.954
223.7735, 3476.004
224.2556, 3477.444
224.7377, 3442.471
225.2198, 3426.557
225.7019, 3438.648
226.1840, 3459.056
226.6662, 3471.298
227.1483, 3472.490
227.6304, 3470.595
228.1125, 3466.270
228.5946, 3459.459
229.0767, 3451.653
229.5589, 3437.971
230.0410, 3428.100
230.5231, 3433.526
231.0052, 3464.644
231.4873, 3491.886
231.9694, 3506.860
232.4516, 3507.189
232.9337, 3520.553
233.4158, 3558.908
233.8979, 3600.571
234.3800, 3616.251
234.8621, 3587.472
235.3443, 3565.013
235.8264, 3562.534
236.3085, 3583.342
236.7906, 3606.026
237.2727, 3632.742
237.7548, 3659.757
238.2369, 3682.013
238.7191, 3697.838
239.2012, 3711.216
239.6833, 3722.066
240.1654, 3728.475
240.6475, 3740.629
241.1296, 3763.049
241.6118, 3788.563
242.0939, 3803.718
242.5760, 3798.249
243.0581, 3798.879
243.5402, 3817.642
244.0223, 3864.622
244.5045, 3896.002
244.9866, 3904.568
245.4687, 3901.010
245.9508, 3906.249
246.4329, 3924.283
246.9150, 3945.022
247.3972, 3966.039
247.8793, 3990.517
248.3614, 4005.568
248.8435, 4005.979
249.3256, 3998.828
249.8077, 4001.215
250.2899, 4018.554
250.7720, 4036.739
251.2541, 4050.510
251.7362, 4060.844
252.2183, 4063.133
252.7004, 4053.552
253.1826, 4036.936
253.6647, 4026.677
254.1468, 4027.001
254.6289, 4026.707
255.1110, 4020.109
255.5931, 4004.159
256.0753, 3988.970
256.5574, 3973.872
257.0395, 3959.650
257.5216, 3949.568
258.0037, 3946.051
258.4858, 3942.281
258.9680, 3935.823
259.4501, 3928.639
259.9322, 3911.929
260.4143, 3880.104
260.8964, 3839.941
261.3785, 3815.915
261.8607, 3816.140
262.3428, 3816.784
262.8249, 3802.800
263.3070, 3767.458
263.7891, 3740.686
264.2712, 3727.248
264.7534, 3723.146
265.2355, 3716.235
265.7176, 3706.407
266.1997, 3694.011
266.6818, 3679.087
267.1639, 3661.712
267.6461, 3640.795
268.1282, 3613.140
268.6103, 3582.903
269.0924, 3565.458
269.5745, 3565.180
270.0566, 3566.919
270.5387, 3561.134
271.0208, 3546.564
271.5030, 3529.430
271.9851, 3507.718
272.4672, 3484.840
272.9493, 3474.926
273.4314, 3482.552
273.9135, 3488.684
274.3957, 3476.393
274.8778, 3441.564
275.3599, 3421.995
275.8420, 3428.658
276.3241, 3449.347
276.8062, 3440.723
277.2884, 3395.252
277.7705, 3351.801
278.2526, 3342.129
278.7347, 3368.979
279.2168, 3383.460
279.6989, 3377.127
280.1811, 3356.843
280.6632, 3341.311
281.1453, 3331.177
281.6274, 3321.506
282.1095, 3305.935
282.5916, 3284.537
283.0738, 3274.522
283.5559, 3282.056
284.0380, 3298.161
284.5201, 3299.413
285.0022, 3284.867
285.4843, 3267.062
285.9665, 3253.137
286.4486, 3243.100
286.9307, 3236.846
287.4128, 3234.505
287.8949, 3236.001
288.3770, 3244.484
288.8592, 3260.142
289.3413, 3271.276
289.8234, 3267.494
290.3055, 3251.288
290.7876, 3234.924
291.2697, 3218.291
291.7519, 3205.082
292.2340, 3204.678
292.7161, 3216.456
293.1982, 3228.500
293.6803, 3231.385
294.1624, 3228.018
294.6446, 3228.209
295.1267, 3234.124
295.6088, 3242.072
296.0909, 3245.824
296.5730, 3245.940
297.0551, 3247.134
297.5373, 3251.929
298.0194, 3259.917
298.5015, 3272.061
298.9836, 3291.004
299.4657, 3307.599
299.9478, 3307.704
300.4300, 3294.341
300.9121, 3279.154
301.3942, 3264.498
301.8763, 3253.817
302.3584, 3255.219
302.8405, 3273.186
303.3227, 3292.623
303.8048, 3297.572
304.2869, 3291.372
304.7690, 3284.308
305.2511, 3280.657
305.7332, 3279.895
306.2154, 3282.485
306.6975, 3289.625
307.1796, 3295.620
307.6617, 3291.119
308.1438, 3281.605
308.6259, 3279.139
309.1081, 3298.360
309.5901, 3322.314
310.0723, 3336.658
310.5544, 3338.631
311.0365, 3335.591
311.5186, 3327.546
312.0007, 3318.007
312.4828, 3313.371
312.9650, 3315.155
313.4471, 3323.521
313.9292, 3342.807
314.4113, 3376.603
314.8934, 3402.023
315.3755, 3401.531
315.8577, 3387.377
316.3398, 3377.039
316.8219, 3380.751
317.3040, 3386.237
317.7861, 3385.585
318.2682, 3376.632
318.7504, 3374.802
319.2325, 3391.873
319.7146, 3416.582
320.1967, 3435.604
320.6788, 3438.830
321.1609, 3442.297
321.6431, 3453.123
322.1252, 3472.634
322.6073, 3486.629
323.0894, 3484.459
323.5715, 3479.036
324.0536, 3482.345
324.5358, 3505.084
325.0179, 3527.317
325.5000, 3547.097
325.9821, 3564.279
326.4642, 3574.096
326.9464, 3569.731
327.4285, 3561.578
327.9106, 3557.252
328.3927, 3556.029
328.8748, 3559.857
329.3569, 3574.323
329.8391, 3597.856
330.3212, 3606.392
330.8033, 3586.749
331.2854, 3564.246
331.7675, 3555.970
332.2496, 3571.522
332.7318, 3583.935
333.2139, 3588.478
333.6960, 3587.884
334.1781, 3596.941
334.6602, 3622.089
335.1423, 3647.213
335.6245, 3662.283
336.1066, 3662.913
336.5887, 3666.674
337.0708, 3674.702
337.5529, 3686.410
338.0350, 3700.042
338.5172, 3715.693
338.9993, 3733.032
339.4814, 3754.512
339.9635, 3781.539
340.4456, 3798.082
340.9277, 3801.812
341.4099, 3797.169
341.8920, 3788.125
342.3741, 3772.978
342.8562, 3769.305
343.3383, 3792.953
343.8204, 3840.656
344.3026, 3875.179
344.7847, 3893.529
345.2668, 3903.363
345.7489, 3911.983
346.2310, 3919.822
346.7131, 3931.074
347.1953, 3949.469
347.6774, 3972.886
348.1595, 3995.070
348.6416, 4016.007
349.1237, 4034.151
349.6058, 4042.644
350.0880, 4045.778
350.5700, 4057.095
351.0522, 4083.896
351.5343, 4120.995
352.0164, 4165.807
352.4985, 4217.919
352.9806, 4262.546
353.4627, 4281.193
353.9449, 4285.402
354.4270, 4294.344
354.9091, 4317.173
355.3912, 4343.783
355.8733, 4361.870
356.3554, 4373.360
356.8376, 4391.622
357.3197, 4425.798
357.8018, 4469.997
358.2839, 4519.993
358.7660, 4583.832
359.2481, 4639.323
359.7303, 4667.158
360.2124, 4675.597
360.6945, 4690.307
361.1766, 4728.507
361.6587, 4772.211
362.1408, 4810.124
362.6230, 4840.290
363.1051, 4866.234
363.5872, 4882.067
364.0693, 4895.154
364.5514, 4919.321
365.0335, 4972.847
365.5157, 5025.053
365.9978, 5061.995
366.4799, 5074.841
366.9620, 5097.218
367.4441, 5131.593
367.9262, 5177.044
368.4084, 5232.128
368.8905, 5313.916
369.3726, 5386.153
369.8547, 5438.690
370.3368, 5469.518
370.8189, 5499.733
371.3011, 5524.753
371.7832, 5552.818
372.2653, 5593.761
372.7474, 5657.126
373.2295, 5712.719
373.7116, 5754.009
374.1938, 5782.909
374.6759, 5809.936
375.1580, 5830.363
375.6401, 5858.712
376.1222, 5909.929
376.6043, 5987.871
377.0865, 6059.573
377.5686, 6119.816
378.0507, 6172.504
378.5328, 6223.765
379.0149, 6273.062
379.4970, 6327.396
379.9792, 6388.586
380.4613, 6457.810
380.9434, 6540.984
381.4255, 6643.294
381.9076, 6749.575
382.3897, 6831.748
382.8719, 6894.309
383.3540, 6965.427
383.8361, 7065.826
384.3182, 7184.058
384.8003, 7295.625
385.2824, 7399.313
385.7646, 7500.704
386.2467, 7603.381
386.7288, 7708.530
387.2109, 7819.199
387.6930, 7937.682
388.1751, 8062.754
388.6573, 8197.400
389.1394, 8341.950
389.6215, 8486.544
390.1036, 8620.109
390.5857, 8752.074
391.0678, 8895.154
391.5499, 9063.582
392.0320, 9229.630
392.5142, 9367.192
392.9963, 9486.759
393.4784, 9624.029
393.9605, 9811.949
394.4426, 10007.38
394.9247, 10184.78
395.4069, 10334.78
395.8890, 10478.49
396.3711, 10615.53
396.8532, 10749.01
397.3353, 10883.47
397.8174, 11032.31
398.2996, 11170.43
398.7817, 11286.44
399.2638, 11373.79
399.7459, 11464.21
400.2280, 11564.60
400.7101, 11663.67
401.1923, 11753.83
401.6744, 11849.26
402.1565, 11908.03
402.6386, 11910.98
403.1207, 11862.82
403.6028, 11838.76
404.0850, 11855.50
404.5671, 11866.46
405.0492, 11832.78
405.5313, 11746.58
406.0134, 11661.40
406.4955, 11588.26
406.9777, 11516.95
407.4598, 11422.09
407.9419, 11302.29
408.4240, 11166.27
408.9061, 11012.69
409.3882, 10844.41
409.8704, 10685.73
410.3525, 10540.46
410.8346, 10394.55
411.3167, 10219.22
411.7988, 10019.98
412.2809, 9833.577
412.7631, 9686.827
413.2452, 9555.051
413.7273, 9400.078
414.2094, 9221.043
414.6915, 9032.328
415.1736, 8831.540
415.6558, 8631.842
416.1379, 8462.405
416.6200, 8360.169
417.1021, 8255.595
417.5842, 8088.038
418.0663, 7870.202
418.5485, 7662.787
419.0306, 7493.754
419.5127, 7344.916
419.9948, 7201.455
420.4769, 7064.999
420.9590, 6931.113
421.4412, 6797.243
421.9233, 6665.087
422.4054, 6534.617
422.8875, 6408.892
423.3696, 6283.218
423.8517, 6157.383
424.3339, 6034.145
424.8160, 5905.068
425.2981, 5758.852
425.7802, 5615.418
426.2623, 5492.614
426.7444, 5402.640
427.2266, 5314.352
427.7087, 5221.874
428.1908, 5127.167
428.6729, 5034.530
429.1550, 4942.759
429.6371, 4856.145
430.1193, 4778.417
430.6014, 4709.896
431.0835, 4647.815
431.5656, 4592.181
432.0477, 4542.428
432.5298, 4500.407
433.0119, 4466.194
433.4940, 4428.555
433.9762, 4378.914
434.4583, 4320.958
434.9404, 4267.423
435.4225, 4218.276
435.9046, 4174.510
436.3867, 4141.822
436.8689, 4115.818
437.3510, 4085.726
437.8331, 4043.835
438.3152, 3999.969
438.7973, 3962.250
439.2794, 3931.095
439.7616, 3908.729
440.2437, 3904.629
440.7258, 3906.105
441.2079, 3901.273
441.6900, 3886.041
442.1721, 3868.254
442.6543, 3845.929
443.1364, 3824.037
443.6185, 3811.988
444.1006, 3825.554
444.5827, 3838.327
445.0648, 3837.235
445.5470, 3817.471
446.0291, 3807.497
446.5112, 3813.536
446.9933, 3829.182
447.4754, 3849.282
447.9576, 3882.469
448.4397, 3906.722
448.9218, 3913.367
449.4039, 3907.441
449.8860, 3917.942
450.3681, 3950.036
450.8503, 3988.505
451.3324, 4025.898
451.8145, 4061.933
452.2966, 4096.063
452.7787, 4126.746
453.2608, 4158.535
453.7430, 4199.809
454.2251, 4250.314
454.7072, 4305.468
455.1893, 4365.015
455.6714, 4427.842
456.1535, 4493.617
456.6357, 4562.472
457.1178, 4625.835
457.5999, 4671.922
458.0820, 4706.572
458.5641, 4739.455
459.0462, 4767.205
459.5284, 4804.411
460.0105, 4874.400
460.4926, 4967.938
460.9747, 5053.983
461.4568, 5110.206
461.9389, 5157.216
462.4211, 5211.864
462.9032, 5278.868
463.3853, 5340.626
463.8674, 5385.379
464.3495, 5422.375
464.8316, 5462.563
465.3138, 5518.100
465.7959, 5566.871
466.2780, 5601.606
466.7601, 5622.820
467.2422, 5642.120
467.7243, 5651.298
468.2065, 5666.916
468.6886, 5698.208
469.1707, 5750.713
469.6528, 5807.791
470.1349, 5872.291
470.6170, 5939.062
471.0992, 5996.147
471.5813, 6039.981
472.0634, 6088.823
472.5455, 6150.253
473.0276, 6223.086
473.5097, 6294.877
473.9918, 6364.774
474.4739, 6442.044
474.9561, 6544.673
475.4382, 6666.022
475.9203, 6770.528
476.4024, 6847.591
476.8845, 6911.113
477.3666, 6981.769
477.8488, 7056.504
478.3309, 7122.998
478.8130, 7173.751
479.2951, 7212.778
479.7772, 7244.610
480.2593, 7270.055
480.7415, 7286.370
481.2236, 7296.741
481.7057, 7295.383
482.1878, 7275.475
482.6699, 7235.307
483.1520, 7175.362
483.6342, 7088.427
484.1163, 6978.314
484.5984, 6869.941
485.0805, 6784.046
485.5626, 6686.549
486.0447, 6560.170
486.5269, 6391.725
487.0090, 6222.624
487.4911, 6052.013
487.9732, 5883.391
488.4553, 5717.825
488.9374, 5553.502
489.4196, 5403.620
489.9017, 5277.114
490.3838, 5169.649
490.8659, 5042.703
491.3480, 4893.723
491.8301, 4743.723
492.3123, 4608.817
492.7944, 4487.331
493.2765, 4361.163
493.7586, 4226.479
494.2407, 4094.278
494.7228, 3980.145
495.2050, 3882.286
495.6871, 3795.393
496.1692, 3722.163
496.6513, 3654.752
497.1334, 3584.638
497.6155, 3512.298
498.0977, 3439.129
498.5798, 3361.455
499.0619, 3285.968
499.5440, 3220.156
500.0261, 3162.580
500.5082, 3118.512
500.9904, 3104.589
501.4725, 3105.330
501.9546, 3085.899
502.4367, 3012.881
502.9188, 2947.082
503.4009, 2909.244
503.8831, 2904.047
504.3652, 2888.980
504.8473, 2859.939
505.3294, 2825.763
505.8115, 2793.550
506.2936, 2762.896
506.7758, 2735.568
507.2579, 2711.528
507.7400, 2691.172
508.2221, 2677.957
508.7042, 2672.260
509.1863, 2663.295
509.6685, 2641.877
510.1506, 2612.927
510.6327, 2591.588
511.1148, 2578.443
511.5969, 2569.306
512.0790, 2565.441
512.5612, 2562.120
513.0433, 2549.719
513.5254, 2517.081
514.0075, 2486.463
514.4896, 2447.451
514.9717, 2475.080
515.4539, 2490.015
515.9360, 2492.939
516.4181, 2447.878
516.9002, 2464.781
517.3823, 2456.851
517.8644, 2447.903
518.3466, 2473.526
518.8287, 2440.728
519.3108, 2426.542
519.7929, 2421.184
520.2750, 2413.122
520.7571, 2397.637
521.2393, 2379.429
521.7214, 2375.388
522.2035, 2391.552
522.6856, 2404.543
523.1677, 2399.412
523.6498, 2377.248
524.1320, 2372.565
524.6141, 2388.926
525.0962, 2405.804
525.5783, 2398.197
526.0604, 2371.866
526.5425, 2349.306
527.0247, 2337.257
527.5068, 2330.540
527.9889, 2323.150
528.4710, 2315.955
528.9531, 2311.582
529.4352, 2314.351
529.9174, 2318.628
530.3995, 2321.633
530.8816, 2323.447
531.3637, 2318.834
531.8458, 2295.600
532.3279, 2270.169
532.8101, 2257.131
533.2922, 2271.546
533.7743, 2283.310
534.2564, 2289.918
534.7385, 2291.568
535.2206, 2288.307
535.7027, 2276.987
536.1848, 2265.956
536.6669, 2258.571
537.1490, 2255.105
537.6312, 2247.432
538.1133, 2233.618
538.5954, 2221.162
539.0775, 2217.855
539.5596, 2223.074
540.0417, 2230.487
540.5239, 2240.564
541.0060, 2249.375
541.4881, 2247.946
541.9702, 2239.220
542.4523, 2234.332
542.9344, 2248.104
543.4166, 2262.910
543.8987, 2256.844
544.3808, 2230.465
544.8629, 2207.136
545.3450, 2202.808
545.8271, 2205.260
546.3093, 2203.860
546.7914, 2189.895
547.2735, 2183.323
547.7556, 2196.839
548.2377, 2218.825
548.7198, 2227.811
549.2020, 2209.209
549.6841, 2196.780
550.1662, 2199.128
550.6483, 2215.255
551.1304, 2232.949
551.6125, 2255.817
552.0947, 2270.918
552.5768, 2264.660
553.0589, 2237.347
553.5410, 2220.165
554.0231, 2216.852
554.5052, 2218.524
554.9874, 2211.271
555.4695, 2198.369
555.9516, 2192.204
556.4337, 2203.293
556.9158, 2217.789
557.3979, 2218.984
557.8801, 2209.325
558.3622, 2199.884
558.8443, 2194.317
559.3264, 2192.784
559.8085, 2196.705
560.2906, 2207.895
560.7728, 2217.115
561.2549, 2223.644
561.7370, 2226.361
562.2191, 2223.842
562.7012, 2209.197
563.1833, 2199.350
563.6655, 2196.528
564.1476, 2199.352
564.6297, 2205.466
565.1118, 2217.907
565.5939, 2224.241
566.0760, 2215.430
566.5582, 2193.772
567.0403, 2182.745
567.5224, 2182.879
568.0045, 2190.033
568.4866, 2206.433
568.9688, 2226.978
569.4509, 2236.049
569.9330, 2227.465
570.4151, 2214.920
570.8972, 2208.964
571.3793, 2209.170
571.8615, 2214.794
572.3436, 2231.517
572.8257, 2248.254
573.3078, 2260.190
573.7899, 2267.252
574.2720, 2269.390
574.7542, 2263.461
575.2363, 2255.091
575.7184, 2246.000
576.2005, 2231.453
576.6826, 2228.917
577.1647, 2242.931
577.6469, 2264.582
578.1290, 2284.425
578.6111, 2303.662
579.0932, 2314.253
579.5753, 2311.717
580.0574, 2302.199
580.5396, 2300.214
581.0217, 2305.571
581.5038, 2314.927
581.9859, 2332.634
582.4680, 2350.822
582.9501, 2352.216
583.4323, 2336.413
583.9144, 2322.811
584.3965, 2325.816
584.8786, 2338.010
585.3607, 2352.222
585.8428, 2368.265
586.3250, 2383.028
586.8071, 2399.430
587.2892, 2413.171
587.7713, 2416.902
588.2534, 2396.445
588.7355, 2381.469
589.2177, 2378.223
589.6998, 2385.492
590.1819, 2393.153
590.6640, 2400.118
591.1461, 2410.219
591.6282, 2427.620
592.1104, 2452.175
592.5925, 2471.181
593.0746, 2483.883
593.5567, 2493.464
594.0388, 2499.138
594.5209, 2504.106
595.0031, 2518.706
595.4852, 2549.590
595.9673, 2583.343
596.4494, 2609.444
596.9315, 2628.539
597.4136, 2641.922
597.8958, 2641.096
598.3779, 2642.976
598.8600, 2656.958
599.3421, 2683.413
599.8242, 2710.560
600.3063, 2736.965
600.7885, 2763.859
601.2706, 2791.727
601.7527, 2822.672
602.2348, 2849.500
602.7169, 2870.450
603.1990, 2889.319
603.6812, 2909.918
604.1633, 2931.899
604.6454, 2958.292
605.1275, 2991.159
605.6096, 3026.224
606.0917, 3056.395
606.5739, 3081.766
607.0560, 3104.665
607.5381, 3123.471
608.0202, 3141.858
608.5023, 3164.574
608.9844, 3191.506
609.4666, 3216.985
