##NAMES=Clinocervantite
##RRUFFID=R070385
##IDEAL CHEMISTRY=Sb^3+^Sb^5+^O_4_
##LOCALITY=Le Cetine di Cotorniano Mine (Le Cetine Mine; Cetine Mine; Rosia), Chiusdino, Siena Province, Tuscany, Italy
##OWNER=RRUFF
##SOURCE=Michael Scott
##DESCRIPTION=White acicular crystals in vug associated with valentinite, tripuhyite, R070383, and rosiaite, R070384. Co-type specimen
##STATUS=The identification of this mineral is confirmed by single-crystal X-ray diffraction and chemical analysis.
##URL=rruff.info/R070385
##MEASURED CHEMISTRY=Sb^3+^_1.00_(Sb^5+^_0.99_As^5+^_0.01_)_Î£=1_O_4_; Sb^5+^ and Sb^3+^ splitted by charge balance
111.3535, -202.2328
111.8356, -192.3817
112.3177, -183.9311
112.7998, -179.5364
113.2819, -179.4771
113.7640, -178.3473
114.2462, -174.9741
114.7283, -170.3618
115.2104, -165.4838
115.6925, -159.2585
116.1746, -153.9148
116.6567, -150.7188
117.1389, -150.5753
117.6210, -149.7081
118.1031, -145.9500
118.5852, -140.5399
119.0673, -135.9237
119.5494, -135.7554
120.0316, -135.2757
120.5137, -130.9247
120.9958, -120.6404
121.4779, -108.2723
121.9600, -95.92820
122.4421, -83.45638
122.9243, -70.13928
123.4064, -53.28977
123.8885, -35.93584
124.3706, -21.83764
124.8527, -18.09606
125.3348, -14.62984
125.8170, -0.4849714
126.2991, 24.44251
126.7812, 53.72046
127.2633, 80.33961
127.7454, 106.7475
128.2276, 138.8796
128.7097, 180.0423
129.1918, 228.8761
129.6739, 283.4391
130.1560, 344.1475
130.6381, 408.7523
131.1203, 473.2682
131.6024, 537.6720
132.0845, 607.7546
132.5666, 690.5296
133.0487, 783.1403
133.5308, 868.9315
134.0130, 944.2111
134.4951, 1012.938
134.9772, 1085.771
135.4593, 1162.916
135.9414, 1242.934
136.4235, 1322.814
136.9057, 1402.001
137.3878, 1487.005
137.8699, 1579.226
138.3520, 1677.921
138.8341, 1783.436
139.3162, 1895.527
139.7984, 2015.542
140.2805, 2148.820
140.7626, 2294.646
141.2447, 2446.241
141.7268, 2598.639
142.2089, 2747.402
142.6911, 2921.794
143.1732, 3126.329
143.6553, 3351.310
144.1374, 3581.991
144.6195, 3829.987
145.1016, 4061.476
145.5838, 4263.012
146.0659, 4436.046
146.5480, 4581.093
147.0301, 4710.812
147.5122, 4814.205
147.9943, 4852.572
148.4765, 4828.076
148.9586, 4736.021
149.4407, 4569.876
149.9228, 4284.251
150.4049, 3984.989
150.8870, 3670.393
151.3692, 3341.969
151.8513, 3034.251
152.3334, 2738.778
152.8155, 2471.860
153.2976, 2239.140
153.7797, 2046.508
154.2619, 1885.756
154.7440, 1758.748
155.2261, 1669.918
155.7082, 1592.329
156.1903, 1524.191
156.6724, 1464.888
157.1546, 1415.594
157.6367, 1382.936
158.1188, 1354.239
158.6009, 1324.128
159.0830, 1288.477
159.5652, 1260.845
160.0473, 1248.860
160.5294, 1246.986
161.0115, 1244.635
161.4936, 1235.900
161.9757, 1227.576
162.4579, 1223.037
162.9400, 1221.893
163.4221, 1226.280
163.9042, 1237.964
164.3863, 1256.121
164.8684, 1278.091
165.3506, 1308.523
165.8327, 1339.253
166.3148, 1363.008
166.7969, 1366.241
167.2790, 1373.607
167.7611, 1401.943
168.2433, 1449.339
168.7254, 1497.914
169.2075, 1527.876
169.6896, 1555.923
170.1717, 1601.561
170.6538, 1684.989
171.1360, 1780.294
171.6181, 1863.614
172.1002, 1934.268
172.5823, 2015.252
173.0644, 2113.914
173.5465, 2235.334
174.0287, 2390.422
174.5108, 2585.906
174.9929, 2816.263
175.4750, 3082.134
175.9571, 3385.863
176.4392, 3712.734
176.9214, 4055.285
177.4035, 4407.727
177.8856, 4759.532
178.3677, 5111.186
178.8498, 5455.292
179.3319, 5783.900
179.8141, 6093.360
180.2962, 6395.885
180.7783, 6705.653
181.2604, 7019.581
181.7425, 7351.754
182.2246, 7700.765
182.7068, 8072.070
183.1889, 8486.329
183.6710, 8938.008
184.1531, 9441.636
184.6352, 10000.52
185.1173, 10620.64
185.5995, 11320.93
186.0816, 12122.01
186.5637, 13014.20
187.0458, 13984.73
187.5279, 15022.83
188.0100, 16135.36
188.4922, 17295.79
188.9743, 18511.38
189.4564, 19821.04
189.9385, 21291.87
190.4206, 22909.86
190.9027, 24575.70
191.3849, 26401.40
191.8670, 28255.35
192.3491, 29740.67
192.8312, 30898.62
193.3133, 31549.34
193.7955, 31370.18
194.2776, 30372.73
194.7597, 29125.22
195.2418, 27657.60
195.7239, 26044.89
196.2060, 24837.70
196.6882, 24059.91
197.1703, 23653.14
197.6524, 23555.77
198.1345, 23770.02
198.6166, 24244.86
199.0987, 24979.89
199.5809, 25975.23
200.0630, 27135.43
200.5451, 28449.76
201.0272, 29936.44
201.5093, 31661.60
201.9914, 33636.83
202.4736, 35790.09
202.9557, 38142.93
203.4378, 40711.44
203.9199, 43282.94
204.4020, 45831.88
204.8841, 48391.06
205.3663, 51089.85
205.8484, 54006.40
206.3305, 56822.71
206.8126, 59527.73
207.2947, 62236.16
207.7768, 64185.36
208.2590, 65495.61
208.7411, 65935.63
209.2232, 64587.67
209.7053, 61157.97
210.1874, 56589.29
210.6695, 51175.54
211.1517, 44610.14
211.6338, 38485.23
212.1159, 32936.18
212.5980, 27982.51
213.0801, 23751.67
213.5622, 20353.12
214.0444, 17541.67
214.5265, 15215.03
215.0086, 13421.84
215.4907, 11898.55
215.9728, 10620.07
216.4549, 9578.554
216.9371, 8674.737
217.4192, 7937.103
217.9013, 7307.051
218.3834, 6744.322
218.8655, 6256.296
219.3476, 5821.065
219.8298, 5437.253
220.3119, 5108.196
220.7940, 4813.910
221.2761, 4560.390
221.7582, 4334.710
222.2403, 4118.059
222.7225, 3912.523
223.2046, 3720.395
223.6867, 3543.848
224.1688, 3381.201
224.6509, 3237.637
225.1330, 3117.324
225.6152, 3010.428
226.0973, 2905.681
226.5794, 2804.928
227.0615, 2705.022
227.5436, 2604.255
228.0257, 2499.269
228.5079, 2409.571
228.9900, 2340.734
229.4721, 2282.058
229.9542, 2216.106
230.4363, 2134.088
230.9185, 2061.149
231.4006, 2005.763
231.8827, 1972.472
232.3648, 1939.585
232.8469, 1907.680
233.3290, 1875.529
233.8112, 1839.698
234.2933, 1794.568
234.7754, 1755.198
235.2575, 1728.149
235.7396, 1718.615
236.2217, 1704.453
236.7039, 1682.864
237.1860, 1657.802
237.6681, 1636.434
238.1502, 1617.224
238.6323, 1604.195
239.1144, 1599.760
239.5966, 1608.325
240.0787, 1613.668
240.5608, 1614.783
241.0429, 1613.045
241.5250, 1610.913
242.0071, 1605.706
242.4893, 1604.195
242.9714, 1609.993
243.4535, 1627.893
243.9356, 1641.960
244.4177, 1650.692
244.8998, 1655.966
245.3820, 1661.579
245.8641, 1662.443
246.3462, 1671.221
246.8283, 1696.753
247.3104, 1753.741
247.7925, 1791.728
248.2747, 1804.980
248.7568, 1799.941
249.2389, 1794.819
249.7210, 1791.708
250.2031, 1785.340
250.6852, 1771.488
251.1674, 1743.036
251.6495, 1724.316
252.1316, 1716.588
252.6137, 1718.995
253.0958, 1730.793
253.5779, 1758.971
254.0601, 1785.768
254.5422, 1804.583
255.0243, 1822.598
255.5064, 1814.415
255.9885, 1778.510
256.4706, 1715.866
256.9528, 1622.747
257.4349, 1477.845
257.9170, 1337.378
258.3991, 1230.100
258.8812, 1164.328
259.3633, 1111.199
259.8455, 1069.186
260.3276, 1038.313
260.8097, 1021.176
261.2918, 1023.855
261.7739, 1028.866
262.2560, 1024.724
262.7382, 1005.167
263.2203, 995.8703
263.7024, 1001.200
264.1845, 1017.041
264.6666, 1029.494
265.1487, 1037.571
265.6309, 1044.082
266.1130, 1050.169
266.5951, 1055.417
267.0772, 1062.206
267.5593, 1071.332
268.0414, 1081.960
268.5236, 1090.021
269.0057, 1093.468
269.4878, 1099.450
269.9699, 1112.708
270.4520, 1134.257
270.9341, 1158.869
271.4163, 1187.943
271.8984, 1218.929
272.3805, 1243.401
272.8626, 1260.189
273.3447, 1274.607
273.8268, 1289.895
274.3090, 1306.257
274.7911, 1321.701
275.2732, 1335.599
275.7553, 1348.504
276.2374, 1363.194
276.7195, 1381.505
277.2017, 1394.965
277.6838, 1398.866
278.1659, 1393.107
278.6480, 1379.267
279.1301, 1357.988
279.6122, 1328.351
280.0944, 1284.113
280.5765, 1223.311
281.0586, 1160.113
281.5407, 1102.122
282.0229, 1049.352
282.5050, 1000.004
282.9871, 953.4218
283.4692, 910.7915
283.9513, 873.7177
284.4334, 842.2849
284.9156, 815.4279
285.3977, 790.6625
285.8798, 768.5790
286.3619, 759.2892
286.8440, 767.4641
287.3261, 782.3599
287.8083, 781.3658
288.2904, 764.3122
288.7725, 749.7003
289.2546, 753.0798
289.7367, 770.3389
290.2188, 776.1045
290.7010, 765.4074
291.1831, 749.0669
291.6652, 746.2799
292.1473, 756.0898
292.6294, 765.4393
293.1115, 765.2443
293.5937, 758.4162
294.0758, 755.2240
294.5579, 756.9391
295.0400, 761.0195
295.5221, 765.2385
296.0042, 769.2906
296.4864, 771.1367
296.9685, 768.3071
297.4506, 762.5882
297.9327, 758.6952
298.4148, 757.4054
298.8969, 755.8098
299.3791, 748.8394
299.8612, 738.1653
300.3433, 729.7527
300.8254, 726.2800
301.3075, 727.1901
301.7896, 733.2555
302.2718, 745.4113
302.7539, 757.0301
303.2360, 760.0154
303.7181, 757.2165
304.2002, 755.5770
304.6823, 759.2375
305.1645, 765.4639
305.6466, 770.0031
306.1287, 772.3386
306.6108, 777.4257
307.0929, 792.6840
307.5750, 813.2842
308.0572, 831.0123
308.5393, 840.8130
309.0214, 846.8462
309.5035, 851.6929
309.9856, 855.3776
310.4677, 860.4613
310.9499, 867.9570
311.4320, 878.0917
311.9141, 891.2417
312.3962, 909.3579
312.8783, 929.3099
313.3604, 952.2516
313.8426, 977.6494
314.3247, 995.7529
314.8068, 997.3517
315.2889, 990.1913
315.7710, 982.4821
316.2531, 978.8854
316.7353, 973.3911
317.2174, 960.8678
317.6995, 942.2676
318.1816, 927.3716
318.6637, 922.0053
319.1458, 920.9137
319.6280, 919.8782
320.1101, 921.6970
320.5922, 919.4981
321.0743, 912.7700
321.5564, 900.9810
322.0385, 881.2145
322.5207, 844.4459
323.0028, 804.5303
323.4849, 770.3981
323.9670, 745.4137
324.4491, 723.5270
324.9312, 703.6199
325.4134, 686.0651
325.8955, 672.2639
326.3776, 661.8588
326.8597, 655.6365
327.3418, 654.4230
327.8239, 668.0480
328.3061, 672.8115
328.7882, 659.4637
329.2703, 636.6148
329.7524, 626.5164
330.2345, 639.8502
330.7166, 655.5209
331.1988, 666.9833
331.6809, 676.0386
332.1630, 675.7137
332.6451, 658.7352
333.1272, 634.9453
333.6093, 623.2856
334.0915, 629.8182
334.5736, 638.9093
335.0557, 646.2831
335.5378, 652.1770
336.0199, 655.0236
336.5020, 654.9205
336.9842, 651.7151
337.4663, 643.4785
337.9484, 626.1357
338.4305, 615.0792
338.9126, 616.7400
339.3947, 631.2306
339.8769, 639.7169
340.3590, 640.1578
340.8411, 638.8914
341.3232, 644.6177
341.8053, 658.8215
342.2874, 668.0140
342.7696, 667.5692
343.2517, 659.2061
343.7338, 651.8784
344.2159, 645.5873
344.6980, 639.7828
345.1801, 632.1112
345.6623, 623.1170
346.1444, 620.3859
346.6265, 627.1512
347.1086, 639.7094
347.5907, 651.4517
348.0728, 662.1686
348.5550, 668.8848
349.0371, 664.7943
349.5192, 654.1489
350.0013, 651.8088
350.4834, 662.8386
350.9655, 678.1526
351.4477, 683.5653
351.9298, 680.9497
352.4119, 679.1700
352.8940, 685.0013
353.3762, 694.8467
353.8583, 702.9427
354.3404, 708.4983
354.8225, 712.5815
355.3046, 715.9655
355.7867, 718.6502
356.2689, 720.6357
356.7510, 718.2959
357.2331, 717.3524
357.7152, 724.7095
358.1973, 741.7001
358.6794, 758.4404
359.1616, 768.1555
359.6437, 773.7877
360.1258, 779.4532
360.6079, 788.0226
361.0900, 795.9884
361.5721, 798.5928
362.0543, 795.9682
362.5364, 800.4262
363.0185, 824.3377
363.5006, 854.3019
363.9827, 878.0104
364.4648, 888.2579
364.9470, 896.4281
365.4291, 903.4249
365.9112, 909.9150
366.3933, 920.6583
366.8754, 941.0486
367.3575, 963.0002
367.8397, 981.7215
368.3218, 994.1629
368.8039, 1006.791
369.2860, 1017.237
369.7681, 1027.757
370.2502, 1045.602
370.7324, 1079.346
371.2145, 1111.921
371.6966, 1135.771
372.1787, 1144.605
372.6608, 1160.451
373.1429, 1186.645
373.6251, 1217.999
374.1072, 1245.575
374.5893, 1264.998
375.0714, 1289.693
375.5535, 1325.206
376.0356, 1372.260
376.5178, 1415.966
376.9999, 1453.914
377.4820, 1492.020
377.9641, 1535.086
378.4462, 1582.740
378.9283, 1638.813
379.4105, 1702.407
379.8926, 1775.068
380.3747, 1863.487
380.8568, 1968.656
381.3389, 2088.065
381.8210, 2218.315
382.3032, 2359.739
382.7853, 2524.105
383.2674, 2709.012
383.7495, 2923.145
384.2316, 3174.469
384.7137, 3465.400
385.1959, 3789.540
385.6780, 4143.457
386.1601, 4529.314
386.6422, 4945.041
387.1243, 5399.173
387.6064, 5872.030
388.0886, 6344.104
388.5707, 6826.203
389.0528, 7334.123
389.5349, 7866.571
390.0170, 8432.444
390.4991, 9044.624
390.9813, 9700.969
391.4634, 10408.35
391.9455, 11185.87
392.4276, 12012.86
392.9097, 12863.05
393.3918, 13756.46
393.8740, 14640.83
394.3561, 15498.77
394.8382, 16328.60
395.3203, 17155.42
395.8024, 17971.04
396.2845, 18788.51
396.7667, 19614.81
397.2488, 20463.14
397.7309, 21304.54
398.2130, 22185.52
398.6951, 23060.72
399.1772, 23789.97
399.6594, 24456.05
400.1415, 24877.79
400.6236, 25008.30
401.1057, 24890.84
401.5878, 24372.08
402.0699, 23359.74
402.5521, 21990.96
403.0342, 20438.20
403.5163, 18573.14
403.9984, 16742.90
404.4805, 14991.22
404.9626, 13330.96
405.4448, 11843.69
405.9269, 10532.81
406.4090, 9388.759
406.8911, 8415.186
407.3732, 7618.514
407.8553, 6933.747
408.3375, 6365.182
408.8196, 5890.785
409.3017, 5451.750
409.7838, 5046.824
410.2659, 4690.159
410.7480, 4408.756
411.2302, 4190.845
411.7123, 3983.019
412.1944, 3778.955
412.6765, 3589.882
413.1586, 3430.884
413.6407, 3298.716
414.1229, 3182.710
414.6050, 3080.623
415.0871, 2988.161
415.5692, 2901.578
416.0513, 2819.453
416.5334, 2744.533
417.0156, 2676.960
417.4977, 2617.288
417.9798, 2567.225
418.4619, 2530.548
418.9440, 2500.295
419.4261, 2470.960
419.9083, 2443.773
420.3904, 2422.650
420.8725, 2416.392
421.3546, 2412.832
421.8367, 2402.505
422.3188, 2375.372
422.8010, 2355.690
423.2831, 2352.185
423.7652, 2360.078
424.2473, 2368.766
424.7295, 2373.641
425.2116, 2382.002
425.6937, 2397.051
426.1758, 2420.507
426.6579, 2443.604
427.1400, 2464.942
427.6222, 2487.063
428.1043, 2512.364
428.5864, 2538.512
429.0685, 2572.839
429.5506, 2619.516
430.0327, 2676.065
430.5149, 2725.950
430.9970, 2767.865
431.4791, 2805.606
431.9612, 2841.526
432.4433, 2875.818
432.9254, 2904.766
433.4076, 2925.476
433.8897, 2944.507
434.3718, 2978.872
434.8539, 3027.897
435.3360, 3068.112
435.8181, 3081.958
436.3003, 3078.052
436.7824, 3084.278
437.2645, 3102.768
437.7466, 3111.999
438.2287, 3086.635
438.7108, 3036.238
439.1930, 2981.342
439.6751, 2927.330
440.1572, 2874.089
440.6393, 2819.080
441.1214, 2763.804
441.6035, 2715.667
442.0857, 2679.971
442.5678, 2652.768
443.0499, 2628.938
443.5320, 2603.877
444.0141, 2592.049
444.4962, 2601.539
444.9784, 2627.671
445.4605, 2662.618
445.9426, 2706.697
446.4247, 2757.142
446.9068, 2812.212
447.3889, 2870.421
447.8711, 2940.795
448.3532, 3031.659
448.8353, 3129.737
449.3174, 3225.917
449.7995, 3314.186
450.2816, 3411.190
450.7638, 3519.010
451.2459, 3636.711
451.7280, 3756.661
452.2101, 3877.724
452.6922, 4002.474
453.1743, 4133.465
453.6565, 4270.229
454.1386, 4405.934
454.6207, 4540.350
455.1028, 4675.286
455.5849, 4814.531
456.0670, 4957.292
456.5492, 5101.544
457.0313, 5247.674
457.5134, 5393.341
457.9955, 5526.802
458.4776, 5649.537
458.9597, 5770.870
459.4419, 5904.777
459.9240, 6040.747
460.4061, 6165.574
460.8882, 6280.472
461.3703, 6371.038
461.8524, 6426.996
462.3346, 6448.411
462.8167, 6433.807
463.2988, 6380.116
463.7809, 6292.417
464.2630, 6174.120
464.7451, 6026.265
465.2273, 5845.675
465.7094, 5623.485
466.1915, 5373.999
466.6736, 5107.192
467.1557, 4797.692
467.6378, 4504.010
468.1200, 4235.489
468.6021, 3987.372
469.0842, 3750.631
469.5663, 3522.652
470.0484, 3309.917
470.5305, 3112.674
471.0127, 2930.581
471.4948, 2767.350
471.9769, 2621.785
472.4590, 2494.854
472.9411, 2392.616
473.4232, 2319.373
473.9054, 2244.450
474.3875, 2156.247
474.8696, 2060.746
475.3517, 1985.980
475.8338, 1932.351
476.3159, 1884.788
476.7981, 1828.414
477.2802, 1768.486
477.7623, 1722.540
478.2444, 1695.404
478.7265, 1675.463
479.2086, 1649.776
479.6908, 1620.863
480.1729, 1595.333
480.6550, 1580.606
481.1371, 1567.632
481.6192, 1549.923
482.1013, 1527.196
482.5835, 1499.989
483.0656, 1462.192
483.5477, 1423.721
484.0298, 1393.435
484.5119, 1383.724
484.9940, 1368.331
485.4762, 1336.714
485.9583, 1295.042
486.4404, 1259.206
486.9225, 1236.936
487.4046, 1214.436
487.8867, 1184.758
488.3689, 1144.000
488.8510, 1120.715
489.3331, 1124.294
489.8152, 1133.794
490.2973, 1127.544
490.7794, 1101.274
491.2616, 1077.443
491.7437, 1059.347
492.2258, 1046.087
492.7079, 1037.418
493.1900, 1033.776
493.6722, 1027.490
494.1543, 1009.835
494.6364, 985.6357
495.1185, 972.3514
495.6006, 971.6750
496.0828, 975.8898
496.5649, 979.7448
497.0470, 982.6913
497.5291, 983.4102
498.0112, 979.9820
498.4933, 975.6889
498.9755, 972.0251
499.4576, 969.4594
499.9397, 970.0344
500.4218, 982.1708
500.9039, 992.4324
501.3860, 991.2374
501.8682, 973.7709
502.3503, 956.4192
502.8324, 940.1450
503.3145, 926.9476
503.7966, 919.3134
504.2787, 919.6620
504.7609, 922.7169
505.2430, 928.8583
505.7251, 937.4879
506.2072, 943.1947
506.6893, 939.8610
507.1714, 944.6179
507.6536, 970.6268
508.1357, 1021.467
508.6178, 1068.107
509.0999, 1116.715
509.5820, 1144.308
510.0641, 1101.876
510.5463, 995.7323
511.0284, 908.5541
511.5105, 869.9420
511.9926, 862.4108
512.4747, 855.7712
512.9568, 850.1912
513.4390, 847.0756
513.9211, 852.2318
514.4032, 858.3687
514.8853, 853.8333
515.3674, 833.3657
515.8495, 817.5403
516.3317, 823.9874
516.8138, 841.4160
517.2959, 854.2111
517.7780, 858.9333
518.2601, 856.7448
518.7422, 842.5855
519.2244, 818.4842
519.7065, 804.1779
520.1886, 810.0993
520.6707, 819.2612
521.1528, 823.8714
521.6349, 819.9548
522.1171, 822.7203
522.5992, 837.5490
523.0813, 853.6635
523.5634, 853.7732
524.0455, 833.4886
524.5276, 821.5839
525.0098, 829.6621
525.4919, 849.5065
525.9740, 850.3646
526.4561, 831.6506
526.9382, 814.8549
527.4203, 816.8505
527.9025, 831.2213
528.3846, 844.4215
528.8667, 855.9236
529.3488, 861.7310
529.8309, 853.3304
530.3130, 837.5299
530.7952, 825.2495
531.2773, 819.8102
531.7594, 819.9800
532.2415, 831.0494
532.7236, 849.2017
533.2057, 857.5554
533.6879, 838.1648
534.1700, 817.8559
534.6521, 810.6459
535.1342, 823.0908
535.6163, 833.6707
536.0984, 843.9781
536.5806, 850.8544
537.0627, 850.6218
537.5448, 841.5162
538.0269, 828.7303
538.5090, 810.5020
538.9911, 790.3093
539.4733, 781.5025
539.9554, 785.2053
540.4375, 791.5713
540.9196, 797.4153
541.4017, 801.8805
541.8839, 798.4933
542.3660, 786.2108
542.8481, 775.2128
543.3302, 777.5609
543.8123, 787.8091
544.2944, 794.8138
544.7766, 793.1022
545.2587, 791.0624
545.7408, 795.4698
546.2229, 804.6778
546.7050, 814.7006
547.1871, 828.0644
547.6693, 838.3041
548.1514, 840.2537
548.6335, 832.5447
549.1156, 828.3954
549.5977, 834.2569
550.0798, 841.2896
550.5620, 843.1454
551.0441, 835.2360
551.5262, 831.4569
552.0083, 834.1221
552.4904, 839.9209
552.9725, 842.4718
553.4547, 841.4129
553.9368, 838.6458
554.4189, 832.5364
554.9010, 825.5724
555.3831, 830.7021
555.8652, 848.1938
556.3474, 863.9926
556.8295, 864.4183
557.3116, 855.6294
557.7937, 849.9603
558.2758, 849.2125
558.7579, 851.2817
559.2401, 856.0289
559.7222, 862.0665
560.2043, 867.2194
560.6864, 873.0578
561.1685, 875.5355
561.6506, 869.2878
562.1328, 856.7090
562.6149, 850.4248
563.0970, 862.1423
563.5791, 872.3468
564.0612, 871.9698
564.5433, 856.7826
565.0255, 847.4568
565.5076, 846.7900
565.9897, 848.7780
566.4718, 847.3095
566.9539, 841.8920
567.4360, 836.2253
567.9182, 831.0448
568.4003, 825.8464
568.8824, 817.8040
569.3645, 807.5204
569.8466, 801.5649
570.3287, 807.0314
570.8109, 817.7850
571.2930, 823.1796
571.7751, 823.3132
572.2572, 822.9127
572.7393, 828.2787
573.2214, 833.3301
573.7036, 830.1890
574.1857, 810.9026
574.6678, 798.1556
575.1499, 808.6360
575.6320, 828.5842
576.1141, 837.9722
576.5963, 819.3094
577.0784, 806.1296
577.5605, 807.0181
578.0426, 819.3185
578.5247, 825.6682
579.0068, 823.0419
579.4890, 820.5508
579.9711, 823.2884
580.4532, 831.5916
580.9353, 839.4501
581.4174, 847.3035
581.8995, 852.8720
582.3817, 853.8249
582.8638, 850.3923
583.3459, 842.1513
583.8280, 825.6100
584.3101, 810.8251
584.7922, 812.6306
585.2744, 825.7211
585.7565, 836.4736
586.2386, 833.6180
586.7207, 830.4951
587.2028, 835.9786
587.6849, 850.0798
588.1671, 863.3881
588.6492, 873.1223
589.1313, 881.4681
589.6134, 889.3113
590.0955, 894.9028
590.5776, 904.6129
591.0598, 922.8137
591.5419, 941.2060
592.0240, 946.6302
592.5061, 935.3820
592.9882, 929.6500
593.4703, 934.1082
593.9525, 947.0786
594.4346, 968.8312
594.9167, 998.4089
595.3988, 1022.365
595.8809, 1030.240
596.3630, 1028.583
596.8452, 1025.932
597.3273, 1022.761
597.8094, 1023.073
598.2915, 1031.959
598.7736, 1044.433
599.2557, 1055.530
599.7379, 1062.547
600.2200, 1071.247
600.7021, 1086.820
601.1843, 1104.210
601.6664, 1115.049
