##NAMES=Clinoatacamite
##RRUFFID=R100198
##IDEAL CHEMISTRY=Cu^2+^_2_Cl(OH)_3_
##LOCALITY=La Vendida mine, Caracoles, Sierra Gorda District, Tocopilla Province, Antofagasta Region, Chile
##OWNER=RRUFF
##SOURCE=Bob Jenkins
##DESCRIPTION=Lighter green thin tabular crystals forming v-twins perched on darker green blocky atacamite, associated with black paratacamite. Twinned by 120 deg rotation around [2 0 1]
##STATUS=The identification of this mineral is confirmed by single-crystal X-ray diffraction and chemical analysis.
##URL=rruff.info/R100198
##MEASURED CHEMISTRY=(Cu_1.95_Ni_0.02_Co_0.01_)Cl_1.04_(OH)_3_
180.7090, 78.81767
181.1911, 78.46171
181.6732, 78.22648
182.1553, 78.29601
182.6374, 78.46855
183.1195, 78.30064
183.6017, 77.75967
184.0838, 77.00756
184.5659, 76.01362
185.0480, 74.87453
185.5301, 74.04379
186.0123, 74.02325
186.4944, 74.50866
186.9765, 74.46373
187.4586, 73.75563
187.9407, 72.87914
188.4228, 72.56157
188.9050, 72.75504
189.3871, 72.96622
189.8692, 72.95953
190.3513, 72.76228
190.8334, 72.49025
191.3155, 72.13776
191.7977, 71.74631
192.2798, 71.29670
192.7619, 70.78870
193.2440, 70.50025
193.7261, 70.89352
194.2082, 71.84929
194.6904, 71.79476
195.1725, 70.38071
195.6546, 68.46123
196.1367, 67.78876
196.6188, 68.44552
197.1009, 69.15278
197.5831, 69.13156
198.0652, 68.38621
198.5473, 67.91914
199.0294, 67.81235
199.5115, 67.96573
199.9937, 68.31885
200.4758, 68.94788
200.9579, 69.27855
201.4400, 68.84068
201.9221, 67.56169
202.4042, 66.54186
202.8864, 65.87725
203.3685, 65.46639
203.8506, 65.06434
204.3327, 64.64906
204.8148, 64.34223
205.2969, 64.30637
205.7791, 64.62238
206.2612, 64.58605
206.7433, 64.04679
207.2254, 63.21751
207.7075, 62.62060
208.1896, 62.26784
208.6718, 62.10756
209.1539, 62.21331
209.6360, 62.70763
210.1181, 62.82034
210.6002, 62.40837
211.0823, 61.64979
211.5645, 61.01637
212.0466, 60.49591
212.5287, 60.12708
213.0108, 59.97444
213.4929, 60.11885
213.9750, 60.16264
214.4572, 60.07932
214.9393, 59.88525
215.4214, 59.58143
215.9035, 59.05684
216.3856, 58.64515
216.8678, 58.60964
217.3499, 59.16636
217.8320, 59.37139
218.3141, 59.08756
218.7962, 58.44996
219.2783, 57.81044
219.7605, 56.99369
220.2426, 56.49920
220.7247, 56.72372
221.2068, 58.09255
221.6889, 58.94722
222.1710, 59.09878
222.6532, 58.71781
223.1353, 58.32660
223.6174, 57.95507
224.0995, 57.51844
224.5816, 56.91815
225.0637, 55.93065
225.5459, 55.34361
226.0280, 55.25375
226.5101, 55.56145
226.9922, 56.00567
227.4743, 56.74056
227.9564, 57.37646
228.4386, 57.77092
228.9207, 58.01963
229.4028, 57.72465
229.8849, 56.52259
230.3670, 54.86074
230.8492, 54.02239
231.3313, 54.46846
231.8134, 55.04986
232.2955, 55.23417
232.7776, 54.79288
233.2597, 54.47441
233.7419, 54.27811
234.2240, 54.20974
234.7061, 54.30194
235.1882, 54.62776
235.6703, 55.00283
236.1524, 55.32256
236.6346, 55.42416
237.1167, 55.91473
237.5988, 57.24143
238.0809, 58.80247
238.5630, 59.09204
239.0451, 57.30718
239.5273, 55.44963
240.0094, 54.32615
240.4915, 54.16725
240.9736, 54.16248
241.4557, 54.43555
241.9378, 54.80631
242.4200, 54.86565
242.9021, 54.35896
243.3842, 53.93764
243.8663, 53.88758
244.3484, 54.40139
244.8306, 54.69897
245.3127, 54.67764
245.7948, 54.49258
246.2769, 54.45165
246.7590, 54.71336
247.2411, 54.85150
247.7233, 54.69747
248.2054, 54.16972
248.6875, 53.62524
249.1696, 52.92806
249.6517, 52.30952
250.1338, 52.20883
250.6160, 52.95485
251.0981, 53.62649
251.5802, 53.88554
252.0623, 53.61586
252.5444, 53.54549
253.0265, 53.71839
253.5087, 54.05551
253.9908, 54.47796
254.4729, 55.11255
254.9550, 55.58325
255.4371, 55.77279
255.9192, 55.65763
256.4014, 55.42180
256.8835, 54.95843
257.3656, 54.48031
257.8477, 54.23767
258.3298, 54.28496
258.8120, 54.45438
259.2941, 54.76870
259.7762, 55.25061
260.2583, 55.44023
260.7404, 55.10860
261.2225, 54.76904
261.7047, 55.10170
262.1868, 56.55956
262.6689, 57.47936
263.1510, 57.34789
263.6331, 56.20314
264.1152, 55.38111
264.5974, 54.89079
265.0795, 54.72023
265.5616, 54.98670
266.0437, 55.93884
266.5258, 56.50799
267.0079, 56.41652
267.4901, 55.74237
267.9722, 55.13162
268.4543, 54.50386
268.9364, 54.09016
269.4185, 54.20448
269.9006, 55.05022
270.3828, 55.51148
270.8649, 55.29154
271.3470, 54.57178
271.8291, 54.21434
272.3112, 54.28113
272.7933, 54.53609
273.2755, 54.85904
273.7576, 55.27760
274.2397, 55.55894
274.7218, 55.63301
275.2039, 55.57295
275.6860, 55.64158
276.1682, 55.89892
276.6503, 56.06182
277.1324, 55.88801
277.6145, 55.34544
278.0966, 54.93285
278.5787, 54.70172
279.0609, 54.60881
279.5430, 54.55116
280.0251, 54.52180
280.5072, 54.58417
280.9893, 54.89240
281.4715, 55.44204
281.9536, 55.56652
282.4357, 55.12002
282.9178, 54.46893
283.3999, 54.28530
283.8820, 54.59401
284.3642, 54.90219
284.8463, 55.04644
285.3284, 55.01604
285.8105, 54.58366
286.2926, 53.61524
286.7747, 52.66148
287.2569, 52.56470
287.7390, 53.29667
288.2211, 54.13373
288.7032, 54.99786
289.1853, 55.76046
289.6674, 55.70616
290.1496, 54.73579
290.6317, 53.60865
291.1138, 53.27577
291.5959, 53.61779
292.0780, 53.80040
292.5602, 53.43840
293.0423, 52.77446
293.5244, 52.45965
294.0065, 52.50857
294.4886, 52.61905
294.9707, 52.44420
295.4529, 52.08454
295.9350, 51.91407
296.4171, 52.08076
296.8992, 52.43903
297.3813, 52.81287
297.8634, 53.18840
298.3456, 53.41727
298.8277, 53.22990
299.3098, 52.81716
299.7919, 52.62447
300.2740, 52.81933
300.7561, 53.13721
301.2383, 53.25027
301.7204, 53.18608
302.2025, 53.06000
302.6846, 52.84184
303.1667, 52.63707
303.6488, 52.64597
304.1310, 52.96490
304.6131, 53.29295
305.0952, 53.19838
305.5773, 52.85035
306.0594, 52.70638
306.5415, 53.40710
307.0237, 54.23583
307.5058, 54.27198
307.9879, 53.30530
308.4700, 52.41198
308.9521, 52.51723
309.4343, 53.24704
309.9164, 53.93827
310.3985, 54.39144
310.8806, 54.64404
311.3627, 54.66014
311.8448, 54.43672
312.3270, 54.21795
312.8091, 54.20264
313.2912, 54.25757
313.7733, 54.22539
314.2554, 53.85832
314.7375, 53.55609
315.2197, 53.64098
315.7018, 54.05519
316.1839, 54.29992
316.6660, 53.81635
317.1481, 53.24107
317.6302, 53.10939
318.1124, 53.87283
318.5945, 54.68835
319.0766, 55.43229
319.5587, 56.04090
320.0408, 56.31030
320.5229, 55.68821
321.0051, 55.05151
321.4872, 54.92480
321.9693, 55.70403
322.4514, 56.40284
322.9335, 56.82822
323.4156, 57.04065
323.8978, 57.15650
324.3799, 57.09956
324.8620, 57.03324
325.3441, 57.02177
325.8262, 57.09618
326.3083, 57.14203
326.7905, 57.09066
327.2726, 57.02562
327.7547, 57.04993
328.2368, 57.37200
328.7189, 57.56814
329.2010, 57.41706
329.6832, 56.84425
330.1653, 56.78067
330.6474, 57.76080
331.1295, 58.86504
331.6116, 59.30883
332.0938, 58.37828
332.5759, 57.93555
333.0580, 58.38379
333.5401, 59.58757
334.0222, 60.52301
334.5043, 61.21128
334.9865, 61.61452
335.4686, 61.65510
335.9507, 61.13148
336.4328, 60.75888
336.9149, 60.46063
337.3970, 60.39061
337.8792, 61.11915
338.3613, 63.03679
338.8434, 64.68082
339.3255, 65.27180
339.8076, 64.63317
340.2898, 64.29952
340.7719, 64.28521
341.2540, 64.54570
341.7361, 65.09933
342.2182, 65.97175
342.7003, 66.79939
343.1825, 67.38301
343.6646, 67.79202
344.1467, 68.56065
344.6288, 69.78577
345.1109, 70.91380
345.5930, 71.09278
346.0752, 70.46325
346.5573, 70.51516
347.0394, 71.81264
347.5215, 73.83099
348.0036, 75.60954
348.4857, 77.13364
348.9679, 78.22601
349.4500, 78.47859
349.9321, 78.18328
350.4142, 78.12724
350.8963, 78.36423
351.3784, 79.04140
351.8606, 80.57034
352.3427, 82.76341
352.8248, 84.96851
353.3069, 86.92136
353.7890, 88.60263
354.2711, 89.86036
354.7533, 90.61164
355.2354, 91.54590
355.7175, 93.57292
356.1996, 96.14355
356.6817, 98.29975
357.1638, 99.16533
357.6460, 99.80615
358.1281, 101.0912
358.6102, 102.9791
359.0923, 104.9002
359.5744, 106.7528
360.0565, 108.3663
360.5387, 109.5369
361.0208, 109.6631
361.5029, 110.0232
361.9850, 111.5667
362.4671, 113.8651
362.9492, 115.5780
363.4314, 115.8560
363.9135, 115.7037
364.3956, 115.6740
364.8777, 115.9494
365.3598, 116.0955
365.8419, 116.1254
366.3241, 115.9513
366.8062, 115.4376
367.2883, 114.2716
367.7704, 113.0477
368.2526, 112.0114
368.7347, 111.2692
369.2168, 110.0819
369.6989, 108.1448
370.1810, 105.9395
370.6631, 103.8341
371.1453, 101.8691
371.6274, 99.95190
372.1095, 98.18269
372.5916, 96.47664
373.0737, 94.31510
373.5558, 91.46165
374.0380, 88.47721
374.5201, 85.52538
375.0022, 82.42447
375.4843, 80.14091
375.9664, 79.03757
376.4485, 78.47749
376.9307, 77.13421
377.4128, 74.88234
377.8949, 72.40907
378.3770, 69.76897
378.8591, 67.01945
379.3412, 65.15801
379.8234, 64.22189
380.3055, 64.09598
380.7876, 65.11031
381.2697, 67.17757
381.7518, 68.61538
382.2339, 69.05867
382.7161, 68.54202
383.1982, 66.71683
383.6803, 63.64516
384.1624, 60.66744
384.6445, 58.90973
385.1266, 58.02537
385.6088, 57.13042
386.0909, 56.04229
386.5730, 55.08244
387.0551, 54.74524
387.5372, 54.87349
388.0193, 55.01280
388.5015, 54.93501
388.9836, 54.74310
389.4657, 54.59148
389.9478, 54.49426
390.4299, 54.22720
390.9120, 53.23197
391.3942, 52.10197
391.8763, 51.59064
392.3584, 52.60291
392.8405, 53.67690
393.3226, 54.01635
393.8047, 53.75587
394.2869, 53.51078
394.7690, 53.39075
395.2511, 53.44904
395.7332, 53.78515
396.2154, 54.71405
396.6975, 55.29033
397.1796, 54.93449
397.6617, 54.16461
398.1438, 53.87077
398.6259, 54.55885
399.1081, 55.35133
399.5902, 56.05886
400.0723, 56.68999
400.5544, 57.15019
401.0365, 57.27064
401.5186, 57.34536
402.0008, 57.61882
402.4829, 58.20290
402.9650, 58.77051
403.4471, 59.25562
403.9292, 59.69919
404.4113, 60.30509
404.8935, 61.20446
405.3756, 61.97430
405.8577, 62.32739
406.3398, 62.18219
406.8219, 62.22269
407.3040, 62.49238
407.7862, 62.88142
408.2683, 63.15965
408.7504, 63.31531
409.2325, 63.79441
409.7146, 64.98928
410.1967, 66.56422
410.6789, 67.36710
411.1610, 67.37531
411.6431, 67.23653
412.1252, 67.51016
412.6073, 68.08070
413.0894, 68.62690
413.5716, 69.07853
414.0537, 69.47713
414.5358, 69.77560
415.0179, 70.03484
415.5000, 70.46619
415.9821, 71.49369
416.4643, 72.57697
416.9464, 73.08471
417.4285, 72.93614
417.9106, 72.67918
418.3927, 72.65984
418.8748, 72.73434
419.3570, 72.73282
419.8391, 72.47184
420.3212, 72.24533
420.8033, 72.15383
421.2854, 72.19494
421.7675, 72.34827
422.2497, 72.74499
422.7318, 73.15172
423.2139, 73.44699
423.6960, 73.60866
424.1781, 73.68063
424.6602, 73.83439
425.1424, 73.85474
425.6245, 73.40203
426.1066, 71.86965
426.5887, 70.64680
427.0709, 70.09554
427.5530, 70.21488
428.0351, 70.30943
428.5172, 70.33257
428.9993, 70.39476
429.4814, 70.63231
429.9636, 71.16378
430.4457, 71.36256
430.9278, 71.03347
431.4099, 70.48643
431.8920, 70.51255
432.3741, 71.20977
432.8563, 71.71292
433.3384, 71.39848
433.8205, 70.45826
434.3026, 70.27642
434.7847, 70.90923
435.2668, 71.82648
435.7490, 72.64294
436.2311, 73.32703
436.7132, 73.68472
437.1953, 73.47337
437.6774, 73.18626
438.1595, 73.60408
438.6417, 74.57626
439.1238, 75.47923
439.6059, 75.78139
440.0880, 75.90318
440.5701, 76.32702
441.0522, 77.14829
441.5344, 77.98237
442.0165, 78.74386
442.4986, 79.33069
442.9807, 79.61156
443.4628, 79.11776
443.9449, 78.72655
444.4271, 78.98843
444.9092, 79.74525
445.3913, 80.08330
445.8734, 79.29586
446.3555, 78.39595
446.8376, 77.92993
447.3198, 78.36015
447.8019, 78.37387
448.2840, 77.70012
448.7661, 76.70219
449.2482, 75.89655
449.7303, 75.50434
450.2125, 74.92622
450.6946, 73.90847
451.1767, 72.50445
451.6588, 71.64038
452.1409, 71.53667
452.6230, 71.44656
453.1052, 70.74950
453.5873, 69.37352
454.0694, 68.30878
454.5515, 67.70829
455.0337, 67.29101
455.5158, 66.55344
455.9979, 65.51701
456.4800, 64.60120
456.9621, 64.05811
457.4442, 63.72984
457.9264, 63.22694
458.4085, 62.55787
458.8906, 61.87620
459.3727, 61.29863
459.8548, 60.79824
460.3369, 60.34027
460.8191, 59.90206
461.3012, 59.52899
461.7833, 59.29400
462.2654, 59.14934
462.7475, 58.99600
463.2296, 58.82595
463.7118, 58.60444
464.1939, 58.24300
464.6760, 57.73021
465.1581, 57.39023
465.6402, 57.39870
466.1223, 57.57213
466.6045, 57.78314
467.0866, 58.19404
467.5687, 58.41549
468.0508, 58.26752
468.5329, 57.93245
469.0150, 57.83710
469.4972, 58.24392
469.9793, 58.48619
470.4614, 58.25603
470.9435, 57.51041
471.4256, 57.18132
471.9077, 57.34328
472.3899, 57.77424
472.8720, 58.38105
473.3541, 59.20856
473.8362, 59.74610
474.3183, 59.89272
474.8004, 59.77455
475.2826, 59.51061
475.7647, 59.12458
476.2468, 58.95670
476.7289, 59.27770
477.2110, 59.92159
477.6931, 60.56412
478.1753, 61.20351
478.6574, 61.76442
479.1395, 62.04118
479.6216, 62.23944
480.1037, 62.68784
480.5858, 63.59058
481.0680, 64.54108
481.5501, 65.31597
482.0322, 65.93529
482.5143, 66.43150
482.9964, 66.56438
483.4786, 66.79687
483.9607, 67.44204
484.4428, 68.55027
484.9249, 69.49389
485.4070, 69.66869
485.8892, 69.93073
486.3713, 70.91619
486.8534, 73.36276
487.3355, 75.43555
487.8176, 77.05957
488.2997, 78.29141
488.7819, 79.16513
489.2640, 79.30105
489.7461, 79.97031
490.2282, 81.73832
490.7103, 84.53946
491.1924, 86.97495
491.6746, 89.01397
492.1567, 90.87498
492.6388, 92.68497
493.1209, 94.46967
493.6030, 96.19521
494.0851, 97.82314
494.5673, 99.55531
495.0494, 101.5517
495.5315, 103.8663
496.0136, 106.6153
496.4957, 110.3503
496.9778, 114.2691
497.4600, 117.6603
497.9421, 120.5132
498.4242, 122.9356
498.9063, 124.5971
499.3884, 126.1024
499.8705, 128.0156
500.3527, 130.5234
500.8348, 133.2141
501.3169, 135.9442
501.7990, 138.7207
502.2811, 141.5771
502.7632, 144.5805
503.2454, 147.5592
503.7275, 150.5262
504.2096, 153.4646
504.6917, 156.3300
505.1738, 159.0236
505.6559, 161.7354
506.1381, 164.6111
506.6202, 167.8159
507.1023, 170.4742
507.5844, 172.4432
508.0665, 174.1224
508.5486, 176.1148
509.0308, 178.4441
509.5129, 180.3440
509.9950, 181.6034
510.4771, 182.3409
510.9592, 182.7375
511.4413, 182.8065
511.9235, 182.7285
512.4056, 182.9250
512.8877, 182.9267
513.3698, 182.0613
513.8519, 180.2717
514.3340, 177.6994
514.8162, 174.0220
515.2983, 169.7783
515.7804, 165.5826
516.2625, 161.1976
516.7446, 157.4215
517.2267, 155.7697
517.7089, 155.0298
518.1910, 152.2210
518.6731, 144.5430
519.1552, 136.7115
519.6373, 130.3487
520.1194, 125.4964
520.6016, 121.2742
521.0837, 118.1887
521.5658, 115.2200
522.0479, 111.5274
522.5300, 106.7982
523.0121, 102.6182
523.4943, 99.15844
523.9764, 96.20484
524.4585, 93.43172
524.9406, 90.88798
525.4227, 88.36495
525.9048, 85.68028
526.3870, 83.03356
526.8691, 80.97996
527.3513, 79.47482
527.8334, 77.97678
528.3155, 75.97353
528.7976, 73.75634
529.2797, 71.67235
529.7618, 69.71635
530.2440, 68.11739
530.7261, 67.34624
531.2082, 66.94112
531.6903, 66.32577
532.1724, 65.18493
532.6545, 63.93269
533.1367, 62.53795
533.6188, 61.10247
534.1009, 59.93267
534.5830, 59.18013
535.0651, 58.61898
535.5472, 58.25459
536.0294, 58.14485
536.5115, 57.77574
536.9936, 57.04416
537.4757, 56.19820
537.9578, 55.40078
538.4399, 54.61881
538.9221, 54.10255
539.4042, 53.97132
539.8863, 53.94240
540.3684, 53.45789
540.8505, 52.55473
541.3326, 51.67346
541.8148, 50.98890
542.2969, 50.44180
542.7790, 49.95887
543.2611, 49.53125
543.7432, 49.07246
544.2253, 48.23697
544.7075, 47.49288
545.1896, 47.48042
545.6717, 48.44864
546.1538, 49.21494
546.6359, 48.97715
547.1180, 48.32978
547.6002, 47.90675
548.0823, 48.20246
548.5644, 48.33332
549.0465, 48.08604
549.5286, 47.55637
550.0107, 46.98793
550.4929, 46.07932
550.9750, 45.60829
551.4571, 46.05558
551.9392, 47.43043
552.4213, 47.81668
552.9034, 46.98307
553.3856, 45.89686
553.8677, 45.22766
554.3498, 44.97108
554.8319, 45.18573
555.3140, 45.98594
555.7961, 46.85524
556.2783, 47.09575
556.7604, 46.85334
557.2425, 46.51884
557.7246, 46.11235
558.2067, 45.80607
558.6888, 45.84820
559.1710, 46.15203
559.6531, 46.42433
560.1352, 46.44181
560.6173, 46.44751
561.0994, 46.64022
561.5815, 47.07872
562.0637, 47.32483
562.5458, 47.05737
563.0279, 46.72004
563.5100, 46.64436
563.9921, 47.08275
564.4742, 47.33102
564.9564, 47.29782
565.4385, 47.12628
565.9206, 47.02827
566.4027, 46.98867
566.8848, 47.13694
567.3669, 47.66571
567.8491, 48.32659
568.3312, 48.05748
568.8133, 46.90426
569.2954, 46.06027
569.7775, 46.69712
570.2596, 48.05756
570.7418, 48.68814
571.2239, 48.49131
571.7060, 48.18026
572.1881, 48.25867
572.6702, 48.53597
573.1523, 48.81615
573.6345, 49.09808
574.1166, 49.28601
574.5987, 49.29076
575.0808, 49.18719
575.5629, 49.09917
576.0450, 49.06233
576.5272, 49.03082
577.0093, 49.07680
577.4914, 49.15166
577.9735, 48.87769
578.4556, 48.07202
578.9377, 47.29838
579.4199, 46.77324
579.9020, 46.50245
580.3841, 46.72859
580.8662, 47.56581
581.3483, 48.29113
581.8304, 48.01066
582.3126, 46.98743
582.7947, 46.11355
583.2768, 45.54180
583.7589, 45.19677
584.2410, 45.09428
584.7231, 45.15132
585.2053, 45.20387
585.6874, 45.48009
586.1696, 45.45568
586.6517, 44.44383
587.1338, 42.75902
587.6159, 41.79606
588.0980, 42.76643
588.5801, 43.77679
589.0623, 43.93562
589.5444, 43.07287
590.0265, 42.48354
590.5086, 42.32694
590.9907, 42.24099
591.4728, 41.91704
591.9550, 41.30396
592.4371, 40.81501
592.9192, 40.50687
593.4013, 40.28093
593.8834, 39.98226
594.3655, 39.63050
594.8477, 39.34713
595.3298, 39.18525
595.8119, 39.09805
596.2940, 39.02339
596.7761, 38.97089
597.2582, 38.97024
597.7404, 39.22055
598.2225, 39.38625
598.7046, 39.12502
599.1867, 38.42756
599.6688, 37.90518
600.1509, 37.88674
600.6331, 37.98840
601.1152, 37.96588
601.5973, 37.70984
602.0794, 37.56807
602.5615, 37.59654
603.0436, 37.68686
603.5258, 37.76217
604.0079, 37.86650
604.4900, 37.69569
604.9721, 37.13063
605.4542, 36.37556
605.9363, 35.78825
606.4185, 35.37303
606.9006, 35.12122
607.3827, 35.03339
607.8648, 35.11082
608.3469, 35.46510
608.8290, 36.04102
609.3112, 36.50804
609.7933, 36.65136
610.2754, 36.62849
610.7575, 36.53109
611.2396, 36.35979
611.7217, 36.20523
612.2039, 36.22395
612.6860, 36.18690
613.1681, 35.89851
613.6502, 35.03872
614.1323, 34.50040
614.6144, 34.44603
615.0966, 34.58568
615.5787, 34.43243
616.0608, 33.90047
616.5429, 33.67727
617.0250, 34.06004
617.5071, 34.68787
617.9893, 34.60899
618.4714, 33.92054
618.9535, 33.38387
619.4356, 33.62313
619.9177, 34.10835
620.3998, 34.07328
620.8820, 33.57484
621.3641, 33.20078
621.8462, 33.42592
622.3283, 33.79681
622.8104, 33.98168
623.2925, 33.90296
623.7747, 33.78854
624.2568, 33.63787
624.7389, 33.49281
625.2210, 33.37659
625.7031, 33.23534
626.1852, 33.27840
626.6674, 33.65310
627.1495, 34.05959
627.6316, 33.88388
628.1137, 33.09351
628.5958, 32.53244
629.0779, 32.49998
629.5601, 32.77199
630.0422, 32.92799
630.5243, 32.99541
631.0064, 33.10936
631.4885, 33.55336
631.9706, 33.93734
632.4528, 33.71909
632.9349, 32.96133
633.4170, 32.47944
633.8991, 33.03704
634.3812, 33.67409
634.8633, 33.76229
635.3455, 32.99130
635.8276, 32.44898
636.3097, 32.10180
636.7918, 32.04740
637.2739, 32.51682
637.7560, 33.80159
638.2382, 34.33519
638.7203, 33.79491
639.2024, 32.83717
639.6845, 31.79029
640.1666, 30.89593
640.6487, 31.69520
641.1309, 33.29436
641.6130, 33.48686
642.0951, 33.60112
642.5772, 33.64135
643.0594, 33.38581
643.5415, 33.51220
644.0236, 33.48553
644.5057, 33.45258
644.9879, 33.63272
645.4700, 33.42020
645.9521, 33.59697
646.4342, 33.33449
646.9163, 32.81529
647.3984, 31.60411
647.8806, 31.07856
648.3627, 31.47092
648.8448, 32.10504
649.3269, 32.46473
649.8090, 32.54947
650.2911, 32.58338
650.7733, 32.57676
651.2554, 32.55790
651.7375, 32.58062
652.2196, 32.61667
652.7017, 32.54555
653.1838, 32.14446
653.6660, 32.00150
654.1481, 30.43976
654.6302, 29.53828
655.1123, 30.07359
655.5944, 30.53066
656.0765, 30.91366
656.5587, 31.00102
657.0408, 31.47016
657.5229, 31.78629
658.0050, 32.09614
658.4871, 32.61908
658.9692, 32.13457
659.4514, 31.77405
659.9335, 31.65499
660.4156, 31.81385
660.8977, 31.91808
661.3798, 31.55149
661.8619, 30.96348
662.3441, 30.89438
662.8262, 31.39835
663.3083, 31.96370
663.7904, 32.26151
664.2725, 32.36352
664.7546, 32.29277
665.2368, 31.90978
665.7189, 31.75707
666.2010, 32.29873
666.6831, 33.03862
667.1652, 33.39765
667.6473, 33.12829
668.1295, 32.83756
668.6116, 32.44631
669.0937, 32.14336
669.5758, 32.47646
670.0579, 33.56165
670.5400, 34.13604
671.0222, 33.64335
671.5043, 32.61375
671.9864, 32.20106
