##NAMES=Clinozoisite
##RRUFFID=R040085
##IDEAL CHEMISTRY=Ca_2_Al_3_(Si_2_O_7_)(SiO_4_)O(OH)
##LOCALITY=Alamos, Sonora, Mexico
##OWNER=RRUFF
##SOURCE=University of Arizona Mineral Museum
##DESCRIPTION=Divergent aggregate of red thin prismatic crystals
##STATUS=The identification of this mineral has been confirmed by X-ray diffraction and chemical analysis
##URL=rruff.info/R040085
##MEASURED CHEMISTRY=Ca_2.03_(Al_0.90_Fe_0.13_)_3_(Si_1.00_O_4_)(Si_2.00_O_7_)O(OH)
122.8982, 30722.18
123.3804, 30822.41
123.8625, 30901.41
124.3446, 30961.43
124.8267, 31012.88
125.3088, 31064.95
125.7909, 31118.45
126.2731, 31162.30
126.7552, 31162.30
127.2373, 31175.07
127.7194, 31236.56
128.2015, 31351.00
128.6837, 31486.92
129.1658, 31594.91
129.6479, 31645.63
130.1300, 31727.21
130.6121, 31851.26
131.0942, 31999.81
131.5764, 32167.93
132.0585, 32352.44
132.5406, 32540.80
133.0227, 32685.43
133.5048, 32744.28
133.9869, 32801.82
134.4691, 32840.85
134.9512, 32886.75
135.4333, 32985.74
135.9154, 33174.91
136.3975, 33447.11
136.8796, 33665.25
137.3618, 33820.44
137.8439, 33943.87
138.3260, 34044.97
138.8081, 34126.09
139.2902, 34192.01
139.7723, 34246.08
140.2545, 34287.04
140.7366, 34316.91
141.2187, 34359.21
141.7008, 34379.93
142.1829, 34336.26
142.6650, 34216.50
143.1472, 34059.00
143.6293, 33870.48
144.1114, 33661.18
144.5935, 33496.17
145.0756, 33435.36
145.5577, 33445.76
146.0399, 33424.68
146.5220, 33382.42
147.0041, 33260.49
147.4862, 32999.16
147.9683, 32605.82
148.4504, 32200.38
148.9326, 31882.45
149.4147, 31655.49
149.8968, 31456.63
150.3789, 31263.82
150.8610, 31105.68
151.3431, 30996.98
151.8252, 30941.66
152.3074, 30942.38
152.7895, 31022.24
153.2716, 31255.61
153.7537, 31404.68
154.2358, 31421.92
154.7179, 31370.71
155.2001, 31306.90
155.6822, 31254.29
156.1643, 31195.47
156.6464, 31075.04
157.1285, 30773.47
157.6106, 30544.39
158.0928, 30427.58
158.5749, 30394.60
159.0570, 30414.41
159.5391, 30473.08
160.0212, 30564.32
160.5033, 30612.98
160.9855, 30595.33
161.4676, 30566.70
161.9497, 30542.90
162.4318, 30522.24
162.9139, 30492.61
163.3960, 30438.67
163.8782, 30360.70
164.3603, 30334.56
164.8424, 30389.23
165.3245, 30466.91
165.8066, 30538.98
166.2887, 30601.87
166.7709, 30649.43
167.2530, 30670.60
167.7351, 30665.55
168.2172, 30665.46
168.6993, 30661.43
169.1814, 30668.79
169.6636, 30721.14
170.1457, 30836.50
170.6278, 30944.38
171.1099, 30956.39
171.5920, 30890.53
172.0741, 30822.00
172.5563, 30778.55
173.0384, 30754.48
173.5205, 30735.46
174.0026, 30724.53
174.4847, 30710.25
174.9668, 30687.37
175.4490, 30655.63
175.9311, 30609.63
176.4132, 30534.07
176.8953, 30429.84
177.3774, 30347.78
177.8595, 30312.29
178.3417, 30290.12
178.8238, 30262.65
179.3059, 30227.62
179.7880, 30189.10
180.2701, 30148.96
180.7522, 30103.88
181.2344, 30070.58
181.7165, 30055.71
182.1986, 30050.17
182.6807, 30055.30
183.1628, 30070.37
183.6449, 30082.05
184.1271, 30061.51
184.6092, 29973.26
185.0913, 29925.40
185.5734, 29940.04
186.0555, 29986.14
186.5376, 30039.37
187.0198, 30089.88
187.5019, 30140.95
187.9840, 30203.85
188.4661, 30316.63
188.9482, 30390.33
189.4303, 30392.80
189.9125, 30361.96
190.3946, 30343.79
190.8767, 30362.51
191.3588, 30407.02
191.8409, 30425.12
192.3230, 30384.36
192.8052, 30353.13
193.2873, 30353.14
193.7694, 30370.22
194.2515, 30379.05
194.7336, 30364.11
195.2157, 30327.72
195.6979, 30290.90
196.1800, 30263.20
196.6621, 30225.86
197.1442, 30164.91
197.6263, 30086.82
198.1084, 30010.49
198.5906, 29946.60
199.0727, 29896.54
199.5548, 29859.68
200.0369, 29857.10
200.5190, 29849.01
201.0011, 29800.10
201.4833, 29714.96
201.9654, 29642.39
202.4475, 29625.24
202.9296, 29658.24
203.4117, 29669.54
203.8938, 29633.32
204.3760, 29589.61
204.8581, 29579.27
205.3402, 29606.13
205.8223, 29633.93
206.3044, 29629.50
206.7865, 29601.47
207.2687, 29580.47
207.7508, 29570.92
208.2329, 29572.10
208.7150, 29579.82
209.1971, 29590.51
209.6792, 29620.36
210.1614, 29713.50
210.6435, 29839.83
211.1256, 29923.78
211.6077, 29910.89
212.0898, 29839.68
212.5719, 29793.63
213.0541, 29782.18
213.5362, 29784.88
214.0183, 29796.76
214.5004, 29812.02
214.9825, 29814.73
215.4646, 29779.35
215.9468, 29720.17
216.4289, 29699.71
216.9110, 29736.54
217.3931, 29791.93
217.8752, 29852.06
218.3573, 29912.41
218.8395, 29959.92
219.3216, 29983.72
219.8037, 29985.21
220.2858, 29979.49
220.7679, 29953.80
221.2500, 29935.53
221.7322, 29937.11
222.2143, 29956.57
222.6964, 29985.97
223.1785, 30024.44
223.6606, 30072.99
224.1427, 30106.65
224.6249, 30095.02
225.1070, 30095.09
225.5891, 30144.71
226.0712, 30231.16
226.5533, 30307.77
227.0354, 30321.45
227.5176, 30257.98
227.9997, 30229.29
228.4818, 30255.18
228.9639, 30300.07
229.4460, 30363.41
229.9281, 30437.09
230.4103, 30502.62
230.8924, 30535.21
231.3745, 30521.52
231.8566, 30535.99
232.3387, 30605.05
232.8208, 30677.91
233.3030, 30731.07
233.7851, 30764.24
234.2672, 30791.28
234.7493, 30828.83
235.2314, 30884.08
235.7135, 30923.66
236.1957, 30946.98
236.6778, 30958.89
237.1599, 30950.96
237.6420, 30928.93
238.1241, 30915.10
238.6062, 30938.07
239.0884, 31015.49
239.5705, 31072.19
240.0526, 31079.83
240.5347, 31092.10
241.0168, 31143.55
241.4989, 31235.98
241.9811, 31345.55
242.4632, 31445.30
242.9453, 31529.45
243.4274, 31622.08
243.9095, 31725.20
244.3916, 31833.24
244.8738, 31938.36
245.3559, 32041.61
245.8380, 32156.60
246.3201, 32298.37
246.8022, 32469.71
247.2843, 32667.97
247.7665, 32931.11
248.2486, 33193.35
248.7307, 33391.36
249.2128, 33524.55
249.6949, 33656.07
250.1770, 33860.49
250.6592, 34167.57
251.1413, 34451.45
251.6234, 34700.94
252.1055, 34936.08
252.5876, 35175.48
253.0697, 35419.31
253.5519, 35657.35
254.0340, 35878.38
254.5161, 36083.04
254.9982, 36249.02
255.4803, 36376.07
255.9624, 36465.38
256.4445, 36519.43
256.9267, 36537.82
257.4088, 36514.37
257.8909, 36439.13
258.3730, 36300.07
258.8551, 36148.22
259.3372, 35988.31
259.8194, 35813.21
260.3015, 35611.06
260.7836, 35382.05
261.2657, 35145.48
261.7478, 34916.60
262.2299, 34695.98
262.7121, 34495.12
263.1942, 34325.77
263.6763, 34169.66
264.1584, 34018.15
264.6405, 33869.23
265.1227, 33711.36
265.6048, 33528.04
266.0869, 33316.66
266.5690, 33138.55
267.0511, 33018.24
267.5332, 32915.19
268.0154, 32799.81
268.4975, 32669.54
268.9796, 32530.55
269.4617, 32380.91
269.9438, 32221.87
270.4259, 32095.36
270.9081, 32008.32
271.3902, 31949.79
271.8723, 31924.87
272.3544, 31930.61
272.8365, 31929.94
273.3186, 31895.18
273.8008, 31825.85
274.2829, 31750.55
274.7650, 31673.32
275.2471, 31587.77
275.7292, 31484.94
276.2113, 31366.49
276.6935, 31246.77
277.1756, 31136.59
277.6577, 31034.02
278.1398, 30929.32
278.6219, 30830.07
279.1040, 30722.27
279.5862, 30590.28
280.0683, 30436.84
280.5504, 30285.58
281.0325, 30152.47
281.5146, 30033.65
281.9967, 29909.33
282.4789, 29762.64
282.9610, 29624.87
283.4431, 29522.99
283.9252, 29451.09
284.4073, 29375.57
284.8894, 29272.76
285.3716, 29156.97
285.8537, 29070.54
286.3358, 29032.57
286.8179, 28998.62
287.3000, 28942.25
287.7821, 28868.36
288.2643, 28796.96
288.7464, 28734.66
289.2285, 28682.44
289.7106, 28640.57
290.1927, 28610.70
290.6748, 28587.06
291.1570, 28572.43
291.6391, 28562.97
292.1212, 28546.34
292.6033, 28516.66
293.0854, 28478.87
293.5675, 28443.22
294.0497, 28410.46
294.5318, 28377.08
295.0139, 28332.19
295.4960, 28285.73
295.9781, 28266.15
296.4602, 28290.68
296.9424, 28328.90
297.4245, 28323.10
297.9066, 28266.63
298.3887, 28213.60
298.8708, 28180.74
299.3529, 28162.21
299.8351, 28155.04
300.3172, 28163.90
300.7993, 28163.53
301.2814, 28101.60
301.7635, 27969.60
302.2456, 27872.02
302.7278, 27864.05
303.2099, 27892.97
303.6920, 27887.04
304.1741, 27830.82
304.6562, 27753.63
305.1383, 27678.49
305.6205, 27604.00
306.1026, 27559.98
306.5847, 27586.23
307.0668, 27625.78
307.5489, 27610.63
308.0310, 27532.41
308.5132, 27449.37
308.9953, 27417.68
309.4774, 27440.35
309.9595, 27451.42
310.4416, 27440.75
310.9237, 27398.31
311.4059, 27422.32
311.8880, 27434.67
312.3701, 27435.98
312.8522, 27393.20
313.3343, 27407.35
313.8164, 27398.69
314.2986, 27389.09
314.7807, 27411.25
315.2628, 27374.89
315.7449, 27396.55
316.2270, 27395.05
316.7091, 27404.15
317.1913, 27390.29
317.6734, 27383.52
318.1555, 27399.72
318.6376, 27403.20
319.1197, 27386.70
319.6018, 27396.48
320.0840, 27359.30
320.5661, 27363.33
321.0482, 27385.12
321.5303, 27369.78
322.0124, 27379.97
322.4945, 27380.44
322.9767, 27323.71
323.4588, 27257.13
323.9409, 27206.52
324.4230, 27188.93
324.9051, 27196.49
325.3872, 27215.12
325.8694, 27254.31
326.3515, 27287.73
326.8336, 27317.06
327.3157, 27337.83
327.7978, 27344.07
328.2799, 27334.50
328.7621, 27314.74
329.2442, 27290.98
329.7263, 27258.11
330.2084, 27235.70
330.6905, 27235.28
331.1726, 27236.61
331.6548, 27220.91
332.1369, 27188.48
332.6190, 27156.83
333.1011, 27143.53
333.5832, 27150.56
334.0653, 27167.35
334.5475, 27201.58
335.0296, 27236.57
335.5117, 27268.20
335.9938, 27294.06
336.4759, 27309.75
336.9580, 27310.35
337.4402, 27296.23
337.9223, 27291.03
338.4044, 27298.75
338.8865, 27310.65
339.3686, 27327.74
339.8507, 27347.14
340.3329, 27365.67
340.8150, 27382.15
341.2971, 27394.83
341.7792, 27395.66
342.2613, 27367.10
342.7434, 27348.78
343.2256, 27364.74
343.7077, 27384.81
344.1898, 27364.96
344.6719, 27288.91
345.1540, 27197.72
345.6361, 27180.28
346.1183, 27293.34
346.6004, 27371.47
347.0825, 27385.75
347.5646, 27378.90
348.0467, 27375.75
348.5288, 27383.71
349.0110, 27402.74
349.4931, 27437.77
349.9752, 27497.55
350.4573, 27538.47
350.9394, 27554.84
351.4215, 27555.80
351.9037, 27545.78
352.3858, 27524.03
352.8679, 27484.95
353.3500, 27409.95
353.8321, 27301.54
354.3142, 27247.88
354.7964, 27317.91
355.2785, 27359.23
355.7606, 27285.08
356.2427, 27141.62
356.7248, 27024.74
357.2069, 27006.04
357.6891, 27040.44
358.1712, 26988.43
358.6533, 26801.78
359.1354, 26636.54
359.6175, 26566.85
360.0996, 26546.72
360.5818, 26528.67
361.0639, 26498.57
361.5460, 26463.16
362.0281, 26431.78
362.5102, 26404.92
362.9923, 26376.85
363.4745, 26351.16
363.9566, 26319.16
364.4387, 26263.80
364.9208, 26177.95
365.4029, 26110.19
365.8850, 26110.29
366.3672, 26165.57
366.8493, 26207.80
367.3314, 26224.13
367.8135, 26220.08
368.2956, 26197.25
368.7777, 26157.35
369.2599, 26118.85
369.7420, 26095.79
370.2241, 26077.42
370.7062, 26032.90
371.1883, 25950.04
371.6704, 25893.79
372.1526, 25948.86
372.6347, 26090.17
373.1168, 26170.82
373.5989, 26139.86
374.0810, 26066.05
374.5631, 25991.31
375.0453, 25919.42
375.5274, 25864.42
376.0095, 25835.46
376.4916, 25830.04
376.9737, 25833.59
377.4558, 25867.36
377.9380, 25884.95
378.4201, 25847.28
378.9022, 25783.79
379.3843, 25755.96
379.8664, 25790.68
380.3485, 25859.07
380.8307, 25900.58
381.3128, 25895.12
381.7949, 25900.23
382.2770, 25938.54
382.7591, 25978.59
383.2412, 25976.44
383.7234, 25929.50
384.2055, 25890.06
384.6876, 25925.82
385.1697, 26068.34
385.6518, 26149.75
386.1339, 26119.61
386.6161, 26086.31
387.0982, 26110.39
387.5803, 26179.05
388.0624, 26244.21
388.5445, 26271.17
389.0266, 26262.92
389.5088, 26251.12
389.9909, 26217.21
390.4730, 26202.08
390.9551, 26228.29
391.4372, 26271.80
391.9193, 26300.88
392.4015, 26301.34
392.8836, 26288.09
393.3657, 26293.66
393.8478, 26329.91
394.3299, 26355.17
394.8120, 26363.48
395.2942, 26359.79
395.7763, 26345.98
396.2584, 26322.64
396.7405, 26290.99
397.2226, 26247.50
397.7047, 26192.20
398.1869, 26147.54
398.6690, 26122.02
399.1511, 26099.46
399.6332, 26062.13
400.1153, 26018.96
400.5974, 25996.66
401.0796, 26042.39
401.5617, 26109.18
402.0438, 26072.38
402.5259, 25900.84
403.0080, 25749.70
403.4901, 25733.24
403.9723, 25782.83
404.4544, 25796.83
404.9365, 25747.75
405.4186, 25677.23
405.9007, 25610.92
406.3828, 25550.09
406.8650, 25502.16
407.3471, 25470.14
407.8292, 25452.33
408.3113, 25449.86
408.7934, 25467.08
409.2755, 25475.02
409.7577, 25456.72
410.2398, 25426.79
410.7219, 25404.28
411.2040, 25392.56
411.6861, 25386.49
412.1682, 25380.00
412.6504, 25372.37
413.1325, 25377.14
413.6146, 25407.54
414.0967, 25437.83
414.5788, 25447.54
415.0609, 25444.04
415.5431, 25454.84
416.0252, 25500.57
416.5073, 25568.01
416.9894, 25594.54
417.4715, 25502.72
417.9536, 25464.20
418.4358, 25528.50
418.9179, 25639.20
419.4000, 25742.27
419.8821, 25819.52
420.3642, 25878.15
420.8463, 25924.41
421.3285, 25944.74
421.8106, 25990.38
422.2927, 26084.27
422.7748, 26181.57
423.2569, 26262.33
423.7390, 26326.53
424.2212, 26382.96
424.7033, 26433.88
425.1854, 26482.01
425.6675, 26549.56
426.1496, 26652.07
426.6317, 26746.32
427.1139, 26798.10
427.5960, 26838.79
428.0781, 26917.02
428.5602, 27061.54
429.0423, 27212.05
429.5244, 27289.06
430.0066, 27291.27
430.4887, 27281.75
430.9708, 27278.98
431.4529, 27269.40
431.9350, 27233.47
432.4171, 27169.18
432.8993, 27116.29
433.3814, 27108.54
433.8635, 27121.30
434.3456, 27102.19
434.8277, 27040.25
435.3098, 26982.43
435.7920, 26971.18
436.2741, 27004.22
436.7562, 27030.43
437.2383, 27026.19
437.7204, 27034.76
438.2025, 27093.57
438.6847, 27187.59
439.1668, 27267.00
439.6489, 27302.71
440.1310, 27321.65
440.6131, 27397.88
441.0952, 27597.34
441.5774, 27762.72
442.0595, 27852.49
442.5416, 27925.98
443.0237, 28037.13
443.5058, 28194.77
443.9879, 28371.42
444.4701, 28533.89
444.9522, 28674.14
445.4343, 28853.57
445.9164, 29121.10
446.3985, 29378.28
446.8806, 29601.51
447.3628, 29789.18
447.8449, 29939.02
448.3270, 30045.31
448.8091, 30126.23
449.2912, 30234.09
449.7733, 30387.91
450.2555, 30514.25
450.7376, 30588.35
451.2197, 30631.01
451.7018, 30653.34
452.1839, 30657.04
452.6660, 30645.29
453.1482, 30617.08
453.6303, 30574.63
454.1124, 30536.06
454.5945, 30519.95
455.0766, 30470.96
455.5587, 30335.16
456.0409, 30129.19
456.5230, 29887.68
457.0051, 29586.08
457.4872, 29274.17
457.9693, 28991.77
458.4514, 28736.41
458.9336, 28498.01
459.4156, 28273.16
459.8978, 28060.44
460.3799, 27861.14
460.8620, 27698.11
461.3441, 27504.27
461.8262, 27229.01
462.3083, 26937.33
462.7905, 26699.81
463.2726, 26527.98
463.7547, 26390.33
464.2368, 26253.99
464.7189, 26117.68
465.2010, 25995.25
465.6832, 25886.47
466.1653, 25791.54
466.6474, 25710.30
467.1295, 25643.48
467.6116, 25592.88
468.0938, 25560.80
468.5759, 25540.60
469.0580, 25521.67
469.5401, 25511.94
470.0222, 25480.53
470.5043, 25379.52
470.9865, 25286.47
471.4686, 25264.70
471.9507, 25312.43
472.4328, 25358.38
472.9149, 25339.04
473.3970, 25273.95
473.8792, 25235.62
474.3613, 25233.65
474.8434, 25238.76
475.3255, 25223.39
475.8076, 25202.83
476.2897, 25212.81
476.7719, 25292.11
477.2540, 25360.43
477.7361, 25343.93
478.2182, 25269.70
478.7003, 25221.89
479.1824, 25232.39
479.6646, 25269.75
480.1467, 25286.00
480.6288, 25274.50
481.1109, 25262.47
481.5930, 25245.58
482.0751, 25232.99
482.5573, 25234.66
483.0394, 25247.81
483.5215, 25259.25
484.0036, 25258.47
484.4857, 25248.60
484.9678, 25251.73
485.4500, 25295.68
485.9321, 25314.29
486.4142, 25281.18
486.8963, 25229.37
487.3784, 25185.48
487.8605, 25157.91
488.3427, 25147.63
488.8248, 25173.73
489.3069, 25240.09
489.7890, 25239.86
490.2711, 25112.98
490.7532, 24992.05
491.2354, 24976.90
491.7175, 25022.13
492.1996, 25017.52
492.6817, 24887.28
493.1638, 24723.68
493.6459, 24640.69
494.1281, 24632.84
494.6102, 24623.45
495.0923, 24578.44
495.5744, 24523.30
496.0565, 24512.11
496.5386, 24560.77
497.0208, 24575.06
497.5029, 24500.89
497.9850, 24401.39
498.4671, 24337.03
498.9492, 24313.44
499.4313, 24308.30
499.9135, 24303.66
500.3956, 24300.94
500.8777, 24320.62
501.3598, 24424.72
501.8419, 24476.26
502.3240, 24396.19
502.8062, 24278.31
503.2883, 24232.99
503.7704, 24290.92
504.2525, 24389.06
504.7346, 24447.96
505.2167, 24461.82
505.6989, 24476.11
506.1810, 24482.46
506.6631, 24501.53
507.1452, 24552.08
507.6273, 24621.47
508.1094, 24680.96
508.5916, 24713.21
509.0737, 24736.30
509.5558, 24784.44
510.0379, 24855.57
510.5200, 24890.63
511.0021, 24849.31
511.4843, 24785.72
511.9664, 24791.01
512.4485, 24875.31
512.9306, 24938.10
513.4127, 24927.00
513.8948, 24899.77
514.3770, 24925.16
514.8591, 24998.96
515.3412, 25055.49
515.8233, 25045.27
516.3054, 24980.77
516.7875, 24942.33
517.2697, 24961.33
517.7518, 24968.04
518.2339, 24955.85
518.7160, 24928.42
519.1981, 24882.97
519.6802, 24822.12
520.1624, 24763.43
520.6445, 24734.79
521.1266, 24737.87
521.6087, 24699.79
522.0908, 24591.17
522.5729, 24484.66
523.0551, 24430.86
523.5372, 24395.17
524.0193, 24319.09
524.5014, 24171.54
524.9835, 24010.10
525.4656, 23886.73
525.9478, 23798.44
526.4299, 23732.23
526.9120, 23693.13
527.3941, 23655.27
527.8762, 23582.04
528.3583, 23471.52
528.8405, 23379.67
529.3226, 23326.53
529.8047, 23280.12
530.2868, 23218.91
530.7689, 23146.59
531.2510, 23078.31
531.7332, 23022.66
532.2153, 22970.00
532.6974, 22893.27
533.1795, 22754.80
533.6616, 22662.71
534.1437, 22633.82
534.6259, 22632.79
535.1080, 22655.89
535.5901, 22690.04
536.0722, 22703.81
536.5543, 22670.45
537.0364, 22602.90
537.5186, 22537.19
538.0007, 22468.96
538.4828, 22418.51
538.9649, 22396.08
539.4470, 22395.17
539.9291, 22414.09
540.4113, 22456.74
540.8934, 22490.08
541.3755, 22497.92
541.8576, 22485.98
542.3397, 22456.82
542.8218, 22411.67
543.3040, 22368.81
543.7861, 22340.45
544.2682, 22326.18
544.7503, 22324.02
545.2324, 22347.96
545.7145, 22364.81
546.1967, 22357.50
546.6788, 22345.44
547.1609, 22351.18
547.6430, 22378.74
548.1251, 22414.35
548.6072, 22444.48
549.0894, 22469.32
549.5715, 22488.14
550.0536, 22502.90
550.5357, 22508.58
551.0178, 22492.45
551.4999, 22471.32
551.9821, 22468.09
552.4642, 22490.26
552.9463, 22527.30
553.4284, 22582.91
553.9105, 22647.84
554.3926, 22674.47
554.8748, 22641.99
555.3569, 22614.77
555.8390, 22656.17
556.3211, 22766.99
556.8032, 22873.23
557.2853, 22983.60
557.7675, 23078.84
558.2496, 23128.44
558.7317, 23161.52
559.2138, 23231.23
559.6959, 23355.64
560.1780, 23503.77
560.6602, 23627.53
561.1423, 23718.70
561.6244, 23817.61
562.1065, 23913.66
562.5886, 24028.60
563.0707, 24176.50
563.5529, 24348.20
564.0350, 24531.14
564.5171, 24723.48
564.9992, 24912.73
565.4813, 25072.02
565.9634, 25204.59
566.4456, 25363.79
566.9277, 25565.32
567.4098, 25791.54
567.8919, 26026.00
568.3740, 26267.88
568.8561, 26526.57
569.3383, 26826.64
569.8204, 27123.70
570.3025, 27412.76
570.7846, 27676.59
571.2667, 27877.08
571.7488, 27998.23
572.2310, 28053.46
572.7131, 28067.96
573.1952, 28061.21
573.6773, 27957.08
574.1594, 27739.43
574.6415, 27447.34
575.1237, 27071.59
575.6058, 26635.70
576.0879, 26174.06
576.5700, 25693.46
577.0521, 25222.23
577.5342, 24794.68
578.0164, 24411.66
578.4985, 24088.12
578.9806, 23850.66
579.4627, 23642.69
579.9448, 23397.23
580.4269, 23120.32
580.9091, 22873.90
581.3912, 22656.11
581.8733, 22483.92
582.3554, 22390.28
582.8375, 22350.22
583.3196, 22294.12
583.8018, 22192.16
584.2839, 22084.65
584.7660, 22047.71
585.2481, 22120.52
585.7302, 22152.37
586.2123, 22120.63
586.6945, 22073.21
587.1766, 22018.60
587.6587, 21964.52
588.1408, 21917.39
588.6229, 21874.97
589.1050, 21857.31
589.5872, 21919.34
590.0693, 22056.41
590.5514, 22124.84
591.0335, 22070.53
591.5156, 21985.10
591.9977, 21957.86
592.4799, 21981.55
592.9620, 22010.07
593.4441, 22034.58
593.9262, 22064.99
594.4083, 22114.40
594.8904, 22172.67
595.3726, 22214.95
595.8547, 22232.85
596.3368, 22247.29
596.8189, 22290.54
597.3010, 22370.72
597.7831, 22439.91
598.2653, 22489.63
598.7474, 22536.23
599.2295, 22576.63
599.7116, 22619.22
600.1937, 22679.15
600.6758, 22763.90
601.1580, 22853.54
601.6401, 22929.55
602.1222, 22992.67
602.6043, 23045.45
603.0864, 23087.44
603.5685, 23123.20
604.0507, 23159.23
604.5328, 23193.06
605.0149, 23208.50
605.4970, 23195.41
605.9791, 23176.20
606.4612, 23163.83
606.9434, 23147.45
607.4255, 23111.26
607.9076, 23052.76
608.3897, 22982.57
608.8718, 22910.86
609.3539, 22837.64
609.8361, 22768.27
610.3182, 22716.13
610.8003, 22644.23
611.2824, 22523.95
611.7645, 22388.30
612.2466, 22270.18
612.7288, 22175.71
613.2109, 22094.48
613.6930, 22021.60
614.1751, 21957.29
614.6572, 21909.51
615.1393, 21877.72
615.6215, 21827.06
616.1036, 21727.96
616.5857, 21599.00
617.0678, 21505.75
617.5499, 21479.13
618.0320, 21445.89
