##NAMES=Clinoclase
##RRUFFID=R050659
##IDEAL CHEMISTRY=Cu^2+^_3_As^5+^O_4_(OH)_3_
##LOCALITY=Carissa mine, Tintic District, Utah, USA
##OWNER=RRUFF
##SOURCE=University of Arizona Mineral Museum
##DESCRIPTION=Dark blue prismatic single crystal associated with cornwallite
##STATUS=The identification of this mineral has been confirmed by single-crystal X-ray diffraction.
##URL=rruff.info/R050659
89.78156, 0.0000000E+00
90.26367, 12.97028
90.74579, 11.60401
91.22791, 12.24766
91.71002, 14.66775
92.19214, 16.80869
92.67426, 16.69483
93.15638, 14.95476
93.63850, 13.21693
94.12061, 11.62874
94.60273, 10.48679
95.08485, 10.77564
95.56696, 12.64328
96.04908, 14.92164
96.53120, 16.55929
97.01331, 17.51529
97.49543, 17.51516
97.97755, 15.70861
98.45966, 12.27693
98.94178, 10.55308
99.42390, 10.99751
99.90602, 12.51855
100.3881, 13.15661
100.8703, 12.85165
101.3524, 11.85606
101.8345, 9.776742
102.3166, 5.928282
102.7987, 4.177792
103.2808, 5.515124
103.7630, 9.129201
104.2451, 11.29275
104.7272, 11.18668
105.2093, 10.73960
105.6914, 11.43531
106.1735, 14.95764
106.6557, 16.67076
107.1378, 15.25380
107.6199, 10.55821
108.1020, 7.367299
108.5841, 6.103198
109.0662, 6.108634
109.5484, 6.776061
110.0305, 9.190309
110.5126, 11.19734
110.9947, 12.40093
111.4768, 12.70894
111.9590, 12.67203
112.4411, 11.38282
112.9232, 10.00361
113.4053, 10.06578
113.8874, 13.98176
114.3695, 17.64307
114.8517, 19.19397
115.3338, 17.40231
115.8159, 16.09818
116.2980, 16.73079
116.7801, 18.65412
117.2622, 20.43912
117.7444, 20.83666
118.2265, 21.35061
118.7086, 23.00635
119.1907, 26.39652
119.6728, 30.42530
120.1549, 34.27032
120.6371, 38.15592
121.1192, 43.01352
121.6013, 50.17315
122.0834, 58.28454
122.5655, 65.81877
123.0476, 72.16749
123.5298, 77.88331
124.0119, 83.18057
124.4940, 88.10295
124.9761, 93.28983
125.4582, 99.48219
125.9404, 106.2640
126.4225, 112.7670
126.9046, 118.3601
127.3867, 123.5575
127.8688, 128.7844
128.3509, 133.9339
128.8331, 140.1565
129.3152, 149.0896
129.7973, 160.4268
130.2794, 172.3705
130.7615, 183.8215
131.2436, 195.1952
131.7258, 207.4046
132.2079, 220.1807
132.6900, 234.6819
133.1721, 253.3371
133.6542, 276.1136
134.1364, 299.9932
134.6185, 323.0315
135.1006, 345.4591
135.5827, 370.8663
136.0648, 400.7696
136.5469, 432.6364
137.0291, 460.5511
137.5112, 484.0075
137.9933, 504.8279
138.4754, 526.5721
138.9575, 551.0575
139.4396, 563.8934
139.9218, 562.7001
140.4039, 548.6367
140.8860, 525.7541
141.3681, 491.5963
141.8502, 453.1687
142.3323, 415.9022
142.8145, 377.8473
143.2966, 344.5840
143.7787, 317.3616
144.2608, 295.9339
144.7429, 279.0575
145.2250, 268.2243
145.7072, 260.4193
146.1893, 252.6733
146.6714, 243.6959
147.1535, 236.7165
147.6356, 232.5487
148.1178, 231.4271
148.5999, 231.5645
149.0820, 233.5181
149.5641, 236.5022
150.0462, 239.5904
150.5283, 243.0753
151.0105, 246.3340
151.4926, 246.7447
151.9747, 245.6461
152.4568, 245.8120
152.9389, 248.1060
153.4210, 251.4668
153.9032, 254.4589
154.3853, 256.5196
154.8674, 258.5330
155.3495, 260.6105
155.8316, 262.3153
156.3137, 265.1508
156.7959, 269.5233
157.2780, 275.1294
157.7601, 281.3890
158.2422, 289.0883
158.7243, 296.7847
159.2065, 303.8906
159.6886, 310.3239
160.1707, 316.1643
160.6528, 322.8049
161.1349, 329.0861
161.6170, 331.8825
162.0992, 327.9889
162.5813, 321.5727
163.0634, 315.3523
163.5455, 310.2455
164.0276, 305.0008
164.5097, 298.6478
164.9919, 291.5449
165.4740, 285.0990
165.9561, 279.8473
166.4382, 275.6277
166.9203, 272.1985
167.4024, 269.0159
167.8846, 267.0786
168.3667, 267.7587
168.8488, 270.6526
169.3309, 273.1618
169.8130, 273.1573
170.2952, 272.0241
170.7773, 271.4801
171.2594, 272.4544
171.7415, 273.9537
172.2236, 275.1232
172.7057, 275.9904
173.1879, 277.0074
173.6700, 278.6505
174.1521, 280.6500
174.6342, 282.5551
175.1163, 283.9556
175.5984, 285.3062
176.0806, 287.3882
176.5627, 290.2207
177.0448, 292.7078
177.5269, 293.7392
178.0090, 293.6700
178.4911, 293.3671
178.9733, 293.4144
179.4554, 293.3945
179.9375, 292.3355
180.4196, 290.1248
180.9017, 288.0227
181.3838, 286.9080
181.8660, 286.8868
182.3481, 288.3255
182.8302, 292.4716
183.3123, 298.1007
183.7944, 302.3649
184.2766, 305.1459
184.7587, 307.0673
185.2408, 308.5534
185.7229, 309.7042
186.2050, 311.2182
186.6871, 313.7230
187.1693, 316.9291
187.6514, 319.9763
188.1335, 323.1736
188.6156, 325.2465
189.0977, 323.7201
189.5798, 318.7586
190.0620, 313.5474
190.5441, 310.3330
191.0262, 308.5724
191.5083, 304.7679
191.9904, 298.6091
192.4725, 290.5124
192.9547, 280.7941
193.4368, 269.3364
193.9189, 257.4165
194.4010, 244.4857
194.8831, 230.8258
195.3652, 221.3001
195.8474, 216.8048
196.3295, 215.6219
196.8116, 214.9634
197.2937, 214.9429
197.7758, 214.4339
198.2579, 212.2795
198.7401, 208.4155
199.2222, 205.9195
199.7043, 205.2603
200.1864, 205.8199
200.6685, 206.3578
201.1507, 206.9090
201.6328, 207.2479
202.1149, 207.1716
202.5970, 206.6360
203.0791, 206.0544
203.5612, 205.2817
204.0434, 204.6206
204.5255, 205.1236
205.0076, 207.1207
205.4897, 209.1487
205.9718, 210.3094
206.4539, 210.5022
206.9361, 210.4258
207.4182, 210.0664
207.9003, 209.5152
208.3824, 208.9651
208.8645, 208.2872
209.3466, 207.9473
209.8288, 208.2109
210.3109, 209.0984
210.7930, 210.5595
211.2751, 212.8361
211.7572, 215.6159
212.2393, 217.7869
212.7215, 219.1325
213.2036, 220.2969
213.6857, 221.7016
214.1678, 223.4641
214.6499, 225.0604
215.1320, 226.3771
215.6142, 227.5102
216.0963, 228.9357
216.5784, 230.9182
217.0605, 232.6822
217.5426, 233.5343
218.0247, 232.8750
218.5069, 233.1360
218.9890, 235.0101
219.4711, 237.9929
219.9532, 239.4716
220.4353, 238.3731
220.9175, 237.5547
221.3996, 239.0676
221.8817, 244.0839
222.3638, 248.3115
222.8459, 251.1087
223.3280, 252.7961
223.8102, 254.8052
224.2923, 257.3791
224.7744, 259.9517
225.2565, 262.0588
225.7386, 263.2734
226.2207, 265.0803
226.7029, 267.8869
227.1850, 271.4315
227.6671, 274.1810
228.1492, 275.7492
228.6313, 277.0709
229.1134, 278.7556
229.5956, 281.1800
230.0777, 283.1215
230.5598, 284.2475
231.0419, 284.7947
231.5240, 286.0779
232.0062, 288.8771
232.4883, 291.3604
232.9704, 292.3058
233.4525, 290.8405
233.9346, 289.7838
234.4167, 289.5176
234.8989, 289.8418
235.3810, 289.8634
235.8631, 289.7256
236.3452, 289.0881
236.8273, 287.5297
237.3094, 283.9361
237.7916, 281.8593
238.2737, 281.8512
238.7558, 283.5172
239.2379, 285.2467
239.7200, 287.1336
240.2021, 288.9533
240.6843, 290.5475
241.1664, 291.6295
241.6485, 293.0785
242.1306, 294.7495
242.6127, 296.8265
243.0948, 300.0921
243.5770, 305.4741
244.0591, 310.7877
244.5412, 314.7641
245.0233, 316.5708
245.5054, 319.0569
245.9876, 322.9134
246.4697, 327.4259
246.9518, 330.4247
247.4339, 331.5627
247.9160, 331.7131
248.3981, 331.1659
248.8803, 329.5083
249.3624, 328.1398
249.8445, 327.2171
250.3266, 326.5575
250.8087, 325.5861
251.2908, 323.9014
251.7730, 322.5519
252.2551, 321.8452
252.7372, 321.2643
253.2193, 322.7640
253.7014, 327.1330
254.1835, 333.2140
254.6657, 338.3191
255.1478, 342.0379
255.6299, 345.5178
256.1120, 349.3789
256.5941, 353.9881
257.0763, 357.8824
257.5584, 361.6728
258.0405, 364.4139
258.5226, 364.0399
259.0047, 359.7630
259.4868, 354.0087
259.9690, 347.7000
260.4511, 340.9663
260.9332, 332.9659
261.4153, 323.0239
261.8974, 312.3063
262.3795, 302.9129
262.8617, 295.0024
263.3438, 287.8368
263.8259, 281.1422
264.3080, 274.9720
264.7901, 269.0494
265.2722, 263.1671
265.7544, 257.7735
266.2365, 253.7342
266.7186, 251.3899
267.2007, 249.3872
267.6828, 247.4308
268.1649, 245.5081
268.6471, 243.3371
269.1292, 240.6862
269.6113, 238.0893
270.0934, 236.2271
270.5755, 235.1974
271.0576, 234.4869
271.5398, 234.1098
272.0219, 234.0405
272.5040, 233.3043
272.9861, 231.5816
273.4682, 229.9006
273.9503, 229.3842
274.4325, 230.1813
274.9146, 231.3785
275.3967, 232.9299
275.8788, 234.7524
276.3610, 235.9829
276.8431, 236.4556
277.3252, 236.8060
277.8073, 237.6977
278.2894, 239.1957
278.7715, 240.4645
279.2537, 241.2220
279.7358, 241.6623
280.2179, 242.4652
280.7000, 243.5572
281.1821, 245.3812
281.6642, 248.7513
282.1464, 253.6817
282.6285, 257.8301
283.1106, 260.6042
283.5927, 262.5374
284.0748, 265.0949
284.5569, 268.3440
285.0391, 271.6859
285.5212, 274.4699
286.0033, 276.8021
286.4854, 280.1333
286.9675, 284.9492
287.4496, 290.3693
287.9318, 294.3736
288.4139, 296.9688
288.8960, 299.8073
289.3781, 304.4286
289.8602, 310.3709
290.3423, 314.9994
290.8245, 317.6884
291.3066, 320.0668
291.7887, 325.1547
292.2708, 332.6683
292.7529, 339.7579
293.2350, 344.2057
293.7172, 346.9675
294.1993, 350.7402
294.6814, 355.6845
295.1635, 361.6135
295.6456, 368.6356
296.1277, 376.5403
296.6099, 384.3752
297.0920, 391.3950
297.5741, 397.9889
298.0562, 404.8095
298.5383, 411.8123
299.0204, 418.9281
299.5026, 426.4997
299.9847, 434.1250
300.4668, 440.9898
300.9489, 446.5501
301.4311, 451.1636
301.9132, 455.3246
302.3953, 459.0482
302.8774, 461.6923
303.3595, 463.1122
303.8416, 463.0878
304.3238, 461.2248
304.8059, 457.2759
305.2880, 451.5927
305.7701, 444.4196
306.2522, 435.7549
306.7343, 426.0272
307.2165, 414.9317
307.6986, 403.0187
308.1807, 390.9294
308.6628, 378.5203
309.1449, 366.1812
309.6270, 353.9727
310.1092, 341.8469
310.5913, 330.0437
311.0734, 318.1233
311.5555, 306.8331
312.0376, 297.1523
312.5197, 289.6627
313.0019, 282.6266
313.4840, 274.5509
313.9661, 266.1220
314.4482, 258.6661
314.9303, 253.4533
315.4124, 248.8808
315.8946, 243.9065
316.3767, 238.1916
316.8588, 233.1079
317.3409, 229.7287
317.8230, 227.1380
318.3051, 224.1402
318.7873, 219.9891
319.2694, 215.6531
319.7515, 211.1553
320.2336, 206.4184
320.7157, 202.8944
321.1978, 201.9896
321.6800, 202.0518
322.1621, 201.5972
322.6442, 199.5877
323.1263, 197.7977
323.6084, 196.9639
324.0905, 196.9895
324.5727, 196.2824
325.0548, 193.4301
325.5369, 190.5457
326.0190, 188.9140
326.5012, 190.0354
326.9833, 190.7800
327.4654, 190.5823
327.9475, 189.7415
328.4296, 189.4659
328.9117, 190.2774
329.3939, 191.1953
329.8760, 191.8622
330.3581, 192.4008
330.8402, 192.4240
331.3223, 191.5067
331.8044, 190.1857
332.2866, 189.5520
332.7687, 189.8215
333.2508, 190.4774
333.7329, 191.5495
334.2150, 193.3128
334.6971, 194.0294
335.1793, 193.0253
335.6614, 191.6331
336.1435, 191.7162
336.6256, 193.8815
337.1077, 195.9228
337.5898, 197.1914
338.0720, 197.7594
338.5541, 198.6573
339.0362, 199.9386
339.5183, 201.4599
340.0004, 203.3722
340.4825, 205.9121
340.9647, 207.1871
341.4468, 206.4587
341.9289, 204.4750
342.4110, 203.5936
342.8931, 203.8744
343.3752, 204.8929
343.8574, 206.8688
344.3395, 209.6878
344.8216, 211.2335
345.3037, 211.0772
345.7858, 209.9939
346.2679, 209.1149
346.7501, 208.4386
347.2322, 208.0931
347.7143, 208.2536
348.1964, 208.8022
348.6785, 209.4233
349.1607, 210.1419
349.6428, 210.7521
350.1249, 211.1865
350.6070, 211.3642
351.0891, 211.0101
351.5713, 209.4762
352.0534, 207.6148
352.5355, 206.8253
353.0176, 207.0830
353.4997, 207.4172
353.9818, 207.1181
354.4640, 206.3945
354.9461, 205.5853
355.4282, 204.9716
355.9103, 204.0762
356.3924, 202.0137
356.8745, 199.1423
357.3567, 196.9233
357.8388, 196.5597
358.3209, 196.9721
358.8030, 197.2435
359.2851, 197.1658
359.7672, 197.0498
360.2494, 197.1368
360.7315, 197.2958
361.2136, 197.2843
361.6957, 196.7508
362.1778, 196.2359
362.6599, 196.1403
363.1421, 196.5893
363.6242, 196.6758
364.1063, 195.6323
364.5884, 194.2881
365.0705, 193.5000
365.5526, 194.3408
366.0348, 194.8104
366.5169, 194.0849
366.9990, 192.2661
367.4811, 191.2065
367.9632, 191.7498
368.4453, 192.6383
368.9275, 193.1383
369.4096, 192.1895
369.8917, 192.3113
370.3738, 194.2377
370.8559, 197.2456
371.3380, 199.2892
371.8202, 200.0399
372.3023, 200.2954
372.7844, 200.2681
373.2665, 199.8438
373.7487, 199.5274
374.2308, 199.0159
374.7129, 198.9194
375.1950, 200.2898
375.6771, 203.6970
376.1592, 206.7616
376.6414, 208.7661
377.1235, 209.8338
377.6056, 211.3669
378.0877, 213.5310
378.5698, 215.6658
379.0519, 216.9211
379.5341, 217.2753
380.0162, 218.6706
380.4983, 221.7890
380.9804, 225.6949
381.4625, 228.0897
381.9446, 229.0297
382.4268, 229.5613
382.9089, 230.1502
383.3910, 230.8320
383.8731, 231.7556
384.3552, 232.9375
384.8373, 234.3136
385.3195, 236.1635
385.8016, 238.2011
386.2837, 239.6092
386.7658, 240.0108
387.2479, 239.5736
387.7300, 238.1125
388.2122, 235.6889
388.6943, 233.5287
389.1764, 233.0795
389.6585, 233.2620
390.1406, 232.7412
390.6227, 231.1118
391.1049, 228.7361
391.5870, 225.1780
392.0691, 220.9484
392.5512, 217.5875
393.0333, 216.5846
393.5154, 216.1316
393.9976, 215.0504
394.4797, 212.9990
394.9618, 210.9429
395.4439, 209.0968
395.9260, 207.4486
396.4081, 205.9886
396.8903, 205.0435
397.3724, 203.9416
397.8545, 202.2377
398.3366, 199.8810
398.8188, 198.2501
399.3009, 198.4094
399.7830, 198.6785
400.2651, 197.9499
400.7472, 194.8829
401.2293, 192.8609
401.7115, 192.5492
402.1936, 193.3346
402.6757, 193.3031
403.1578, 191.9577
403.6399, 190.6402
404.1220, 189.8725
404.6042, 189.6667
405.0863, 190.0192
405.5684, 191.2066
406.0505, 192.5005
406.5326, 192.7922
407.0147, 191.9208
407.4969, 191.2984
407.9790, 191.4045
408.4611, 192.0264
408.9432, 192.0638
409.4253, 191.4144
409.9074, 191.2786
410.3896, 193.2594
410.8717, 196.7483
411.3538, 198.8140
411.8359, 198.6391
412.3180, 197.8410
412.8001, 198.7601
413.2823, 201.0536
413.7644, 203.4129
414.2465, 205.1734
414.7286, 206.5834
415.2107, 207.9848
415.6928, 209.3810
416.1750, 210.7323
416.6571, 211.4962
417.1392, 212.3315
417.6213, 214.1951
418.1034, 218.2614
418.5855, 222.5016
419.0677, 225.5894
419.5498, 227.8239
420.0319, 230.2006
420.5140, 233.2423
420.9961, 236.5033
421.4782, 239.8050
421.9604, 243.2961
422.4425, 246.3329
422.9246, 247.9737
423.4067, 249.2716
423.8889, 251.6992
424.3710, 255.8645
424.8531, 260.7332
425.3352, 266.3773
425.8173, 272.8004
426.2994, 278.4564
426.7816, 282.7151
427.2637, 286.7969
427.7458, 291.5236
428.2279, 297.3467
428.7100, 302.8466
429.1921, 307.7998
429.6743, 312.4266
430.1564, 316.9727
430.6385, 321.3297
431.1206, 326.0378
431.6027, 331.5462
432.0848, 337.8364
432.5670, 343.1665
433.0491, 347.3581
433.5312, 351.3941
434.0133, 356.5391
434.4954, 362.6195
434.9775, 368.4166
435.4597, 373.4688
435.9418, 378.2881
436.4239, 384.2278
436.9060, 390.9416
437.3881, 396.5392
437.8702, 398.8033
438.3524, 399.5573
438.8345, 401.5917
439.3166, 405.3834
439.7987, 409.1743
440.2808, 411.3421
440.7629, 412.6400
441.2451, 414.2217
441.7272, 417.6219
442.2093, 420.4537
442.6914, 420.5503
443.1735, 418.4568
443.6556, 417.8338
444.1378, 421.7141
444.6199, 426.3481
445.1020, 429.0139
445.5841, 426.7258
446.0662, 427.5229
446.5483, 435.7343
447.0305, 447.0099
447.5126, 454.0688
447.9947, 452.6782
448.4768, 451.9731
448.9590, 454.0023
449.4411, 458.8091
449.9232, 463.8170
450.4053, 468.5200
450.8874, 474.2125
451.3695, 482.2476
451.8517, 493.5221
452.3338, 503.3116
452.8159, 510.9420
453.2980, 517.0352
453.7801, 522.8270
454.2622, 528.2606
454.7444, 533.4920
455.2265, 538.8028
455.7086, 543.9851
456.1907, 548.1555
456.6728, 551.4062
457.1549, 553.0410
457.6371, 552.2714
458.1192, 549.4612
458.6013, 545.2856
459.0834, 539.4985
459.5655, 533.2350
460.0476, 528.1277
460.5298, 523.6265
461.0119, 518.3898
461.4940, 511.7844
461.9761, 503.9922
462.4582, 494.6493
462.9403, 483.5025
463.4225, 473.0453
463.9046, 464.0778
464.3867, 456.4265
464.8688, 450.1402
465.3509, 446.9688
465.8330, 443.1109
466.3152, 436.7868
466.7973, 428.9882
467.2794, 423.3326
467.7615, 421.9012
468.2436, 420.7332
468.7257, 418.2926
469.2079, 414.0201
469.6900, 411.2988
470.1721, 410.9886
470.6542, 411.3105
471.1363, 410.2470
471.6184, 407.3146
472.1006, 404.9014
472.5827, 403.4384
473.0648, 402.7542
473.5469, 402.5412
474.0291, 402.8628
474.5112, 402.9275
474.9933, 402.2694
475.4754, 400.9731
475.9575, 399.2659
476.4396, 397.1015
476.9218, 394.9504
477.4039, 393.4731
477.8860, 392.4055
478.3681, 391.1330
478.8502, 389.3191
479.3323, 387.3898
479.8145, 386.0889
480.2966, 385.1036
480.7787, 383.3761
481.2608, 379.8899
481.7429, 375.7598
482.2250, 371.6783
482.7072, 367.7116
483.1893, 363.8770
483.6714, 360.7691
484.1535, 357.5313
484.6356, 353.3086
485.1177, 346.6875
485.5999, 340.5099
486.0820, 335.5269
486.5641, 331.4071
487.0462, 326.7230
487.5283, 320.8585
488.0104, 315.2472
488.4926, 310.2818
488.9747, 305.9511
489.4568, 302.7686
489.9389, 301.1866
490.4210, 299.9858
490.9031, 297.4725
491.3853, 293.4760
491.8674, 290.9766
492.3495, 291.1334
492.8316, 292.4830
493.3137, 291.4173
493.7958, 288.1708
494.2780, 285.4484
494.7601, 285.4634
495.2422, 286.9308
495.7243, 287.3025
496.2064, 286.4258
496.6885, 285.5444
497.1707, 285.5488
497.6528, 286.1909
498.1349, 287.2079
498.6170, 289.1362
499.0992, 290.5311
499.5813, 290.0053
500.0634, 288.3304
500.5455, 287.3983
501.0276, 288.1817
501.5097, 289.5107
501.9919, 291.1685
502.4740, 293.2729
502.9561, 294.6461
503.4382, 294.6395
503.9203, 294.2914
504.4024, 294.2988
504.8846, 294.8062
505.3667, 295.4105
505.8488, 296.2721
506.3309, 297.1023
506.8130, 297.1180
507.2951, 296.0849
507.7773, 295.3272
508.2594, 295.6588
508.7415, 296.7305
509.2236, 296.4009
509.7057, 294.5954
510.1878, 292.3614
510.6700, 290.5930
511.1521, 289.0782
511.6342, 287.0225
512.1163, 284.1516
512.5984, 281.3527
513.0806, 279.8501
513.5627, 279.1123
514.0448, 278.0289
514.5269, 275.2340
515.0090, 272.6494
515.4911, 272.2755
515.9733, 273.6550
516.4554, 273.7267
516.9375, 270.1436
517.4196, 265.7430
517.9017, 262.2170
518.3839, 260.1792
518.8660, 257.9834
519.3481, 255.5983
519.8302, 252.9123
520.3123, 249.7723
520.7944, 245.5733
521.2766, 241.9860
521.7587, 239.2725
522.2408, 237.3675
522.7229, 236.1835
523.2050, 236.0742
523.6871, 235.3946
524.1693, 232.5640
524.6514, 227.9356
525.1335, 225.8719
525.6156, 226.6830
526.0977, 228.0108
526.5798, 227.4476
527.0620, 225.4582
527.5441, 223.3423
528.0262, 221.2065
528.5083, 219.4598
528.9904, 218.6633
529.4725, 218.6217
529.9547, 218.8786
530.4368, 219.6232
530.9189, 220.2604
531.4010, 220.3167
531.8831, 219.7862
532.3652, 219.2588
532.8474, 218.9734
533.3295, 218.7149
533.8116, 218.3176
534.2937, 217.4435
534.7758, 217.0130
535.2579, 217.5330
535.7401, 218.2701
536.2222, 217.9628
536.7043, 215.6310
537.1864, 214.6591
537.6685, 216.3494
538.1506, 219.8918
538.6328, 221.2488
539.1149, 220.1382
539.5970, 218.6978
540.0791, 218.1303
540.5612, 218.3163
541.0433, 218.9424
541.5255, 220.0631
542.0076, 220.9537
542.4897, 220.3523
542.9718, 219.0663
543.4539, 218.8692
543.9360, 220.9804
544.4182, 223.0132
544.9003, 222.9953
545.3824, 221.4675
545.8645, 219.6350
546.3466, 217.2287
546.8287, 215.3000
547.3109, 214.6213
547.7930, 215.2468
548.2751, 215.5087
548.7572, 215.3962
549.2393, 214.6579
549.7214, 213.1076
550.2036, 210.3241
550.6857, 207.6434
551.1678, 204.9254
551.6499, 202.4497
552.1320, 200.7535
552.6141, 199.9636
553.0963, 199.1192
553.5784, 198.1152
554.0605, 196.8183
554.5426, 194.5616
555.0247, 191.4147
555.5068, 188.6285
555.9890, 187.3585
556.4711, 186.8329
556.9532, 185.5971
557.4353, 183.5971
557.9174, 181.6776
558.3995, 180.6356
558.8817, 179.9583
559.3638, 179.0164
559.8459, 177.3088
560.3281, 176.0684
560.8102, 176.4162
561.2923, 177.4168
561.7744, 177.5976
562.2565, 175.6768
562.7386, 174.0354
563.2208, 173.4607
563.7029, 173.7167
564.1850, 172.9892
564.6671, 170.6981
565.1492, 168.4719
565.6313, 167.1684
566.1135, 166.8771
566.5956, 166.3588
567.0777, 165.5068
567.5598, 164.8162
568.0419, 164.9927
568.5240, 165.8502
569.0062, 166.4571
569.4883, 166.6294
569.9704, 166.4727
570.4525, 165.9756
570.9346, 165.2400
571.4167, 164.5540
571.8989, 163.9278
572.3810, 163.4832
572.8631, 163.2887
573.3452, 163.3451
573.8273, 163.6323
574.3094, 164.4808
574.7916, 165.2943
575.2737, 165.7848
575.7558, 165.9433
576.2379, 165.6841
576.7200, 164.6625
577.2021, 163.5151
577.6843, 162.8164
578.1664, 162.7337
578.6485, 162.6335
579.1306, 162.5007
579.6127, 162.2549
580.0948, 161.6793
580.5770, 160.7759
581.0591, 159.7958
581.5412, 158.4798
582.0233, 157.3622
582.5054, 158.1674
582.9875, 160.6045
583.4697, 162.5377
583.9518, 161.8600
584.4339, 160.2518
584.9160, 159.5533
585.3981, 160.0405
585.8802, 160.7162
586.3624, 161.0788
