##NAMES=Clinoatacamite
##RRUFFID=R141083
##IDEAL CHEMISTRY=Cu^2+^_2_Cl(OH)_3_
##LOCALITY=Lily mine, Ica Region, Peru
##OWNER=RRUFF
##SOURCE=Marcus Origlieri
##DESCRIPTION=Dark green crystals
##STATUS=The identification of this mineral has been confirmed by single-crystal X-ray diffraction.
##URL=rruff.info/R141083
89.01367, 1890.431
89.49579, 1902.273
89.97791, 1905.706
90.46002, 1897.325
90.94214, 1888.113
91.42426, 1891.134
91.90637, 1905.612
92.38849, 1918.735
92.87061, 1916.662
93.35272, 1905.420
93.83484, 1901.024
94.31696, 1906.729
94.79907, 1921.064
95.28119, 1943.937
95.76331, 1976.853
96.24542, 2015.896
96.72754, 2065.985
97.20966, 2126.750
97.69177, 2165.363
98.17389, 2169.928
98.65601, 2142.996
99.13812, 2106.652
99.62024, 2056.380
100.1024, 2005.274
100.5845, 1971.925
101.0666, 1957.336
101.5487, 1952.574
102.0308, 1955.108
102.5129, 1965.934
102.9951, 1978.917
103.4772, 1994.077
103.9593, 2011.278
104.4414, 2029.776
104.9235, 2047.706
105.4056, 2069.705
105.8878, 2098.198
106.3699, 2135.127
106.8520, 2174.753
107.3341, 2220.166
107.8162, 2269.406
108.2983, 2310.960
108.7805, 2338.094
109.2626, 2363.016
109.7447, 2392.022
110.2268, 2422.615
110.7089, 2459.886
111.1910, 2503.015
111.6732, 2552.017
112.1553, 2610.708
112.6374, 2676.249
113.1195, 2752.590
113.6016, 2843.810
114.0837, 2942.325
114.5659, 3062.308
115.0480, 3208.480
115.5301, 3383.417
116.0122, 3577.066
116.4943, 3807.907
116.9764, 4051.690
117.4586, 4277.567
117.9407, 4511.882
118.4228, 4700.295
118.9049, 4812.687
119.3870, 4848.026
119.8691, 4800.541
120.3513, 4632.114
120.8334, 4377.561
121.3155, 4107.931
121.7976, 3826.933
122.2797, 3562.495
122.7618, 3344.601
123.2440, 3182.198
123.7261, 3055.224
124.2082, 2954.163
124.6903, 2875.839
125.1724, 2810.611
125.6545, 2753.954
126.1367, 2705.855
126.6188, 2666.656
127.1009, 2637.307
127.5830, 2615.662
128.0651, 2598.931
128.5472, 2587.073
129.0294, 2580.256
129.5115, 2579.286
129.9936, 2583.614
130.4757, 2591.066
130.9578, 2601.555
131.4399, 2614.634
131.9221, 2628.798
132.4042, 2644.052
132.8863, 2661.504
133.3684, 2680.881
133.8505, 2702.293
134.3326, 2731.956
134.8148, 2771.638
135.2969, 2821.079
135.7790, 2876.806
136.2611, 2938.642
136.7432, 3008.143
137.2253, 3088.260
137.7075, 3178.986
138.1896, 3282.441
138.6717, 3402.999
139.1538, 3540.774
139.6359, 3680.874
140.1180, 3828.771
140.6002, 3973.742
141.0823, 4107.061
141.5644, 4246.417
142.0465, 4333.942
142.5286, 4351.425
143.0107, 4301.410
143.4929, 4166.354
143.9750, 3910.862
144.4571, 3580.684
144.9392, 3289.666
145.4213, 3029.572
145.9034, 2812.642
146.3856, 2643.095
146.8677, 2541.341
147.3498, 2455.766
147.8319, 2391.813
148.3140, 2344.837
148.7961, 2296.278
149.2783, 2245.361
149.7604, 2194.586
150.2425, 2144.663
150.7246, 2093.823
151.2067, 2046.457
151.6888, 2002.324
152.1710, 1961.543
152.6531, 1923.680
153.1352, 1887.358
153.6173, 1854.800
154.0994, 1827.217
154.5815, 1806.682
155.0637, 1789.049
155.5458, 1775.285
156.0279, 1764.854
156.5100, 1753.492
156.9921, 1738.803
157.4742, 1723.667
157.9564, 1710.165
158.4385, 1698.554
158.9206, 1688.882
159.4027, 1681.531
159.8848, 1676.445
160.3669, 1672.345
160.8491, 1669.172
161.3312, 1666.638
161.8133, 1664.398
162.2954, 1661.923
162.7775, 1660.072
163.2596, 1659.702
163.7418, 1660.823
164.2239, 1661.404
164.7060, 1660.701
165.1881, 1658.774
165.6702, 1655.729
166.1523, 1651.988
166.6345, 1646.813
167.1166, 1639.978
167.5987, 1631.484
168.0808, 1620.777
168.5629, 1607.927
169.0450, 1592.530
169.5272, 1574.176
170.0093, 1549.607
170.4914, 1523.497
170.9735, 1500.307
171.4556, 1480.332
171.9377, 1462.020
172.4199, 1443.342
172.9020, 1425.200
173.3841, 1410.198
173.8662, 1400.143
174.3483, 1393.323
174.8304, 1387.875
175.3126, 1383.764
175.7947, 1380.665
176.2768, 1378.688
176.7589, 1377.572
177.2410, 1376.552
177.7231, 1374.632
178.2053, 1372.667
178.6874, 1372.459
179.1695, 1374.517
179.6516, 1377.049
180.1337, 1377.509
180.6158, 1376.391
181.0980, 1375.995
181.5801, 1378.037
182.0622, 1381.750
182.5443, 1385.518
183.0264, 1389.213
183.5085, 1392.721
183.9907, 1395.848
184.4728, 1398.613
184.9549, 1400.970
185.4370, 1402.453
185.9191, 1403.413
186.4012, 1405.419
186.8834, 1408.935
187.3655, 1412.881
187.8476, 1415.210
188.3297, 1415.972
188.8118, 1416.493
189.2939, 1417.757
189.7761, 1419.626
190.2582, 1420.996
190.7403, 1421.713
191.2224, 1421.962
191.7045, 1421.899
192.1866, 1421.499
192.6688, 1421.365
193.1509, 1422.014
193.6330, 1423.403
194.1151, 1424.742
194.5972, 1425.862
195.0793, 1426.962
195.5615, 1428.745
196.0436, 1431.336
196.5257, 1433.615
197.0078, 1434.906
197.4899, 1435.189
197.9720, 1434.631
198.4542, 1433.039
198.9363, 1430.807
199.4184, 1429.232
199.9005, 1428.539
200.3826, 1427.473
200.8647, 1425.051
201.3469, 1421.157
201.8290, 1417.186
202.3111, 1413.486
202.7932, 1409.759
203.2753, 1405.113
203.7574, 1399.500
204.2396, 1393.099
204.7217, 1385.830
205.2038, 1377.512
205.6859, 1369.343
206.1680, 1361.388
206.6501, 1353.719
207.1323, 1346.451
207.6144, 1339.815
208.0965, 1332.981
208.5786, 1325.182
209.0607, 1315.940
209.5428, 1307.866
210.0250, 1301.626
210.5071, 1296.749
210.9892, 1290.916
211.4713, 1283.682
211.9534, 1276.408
212.4355, 1270.023
212.9176, 1264.857
213.3998, 1259.388
213.8819, 1253.611
214.3640, 1247.370
214.8461, 1240.167
215.3282, 1231.491
215.8103, 1222.611
216.2925, 1214.244
216.7746, 1206.446
217.2567, 1198.933
217.7388, 1191.800
218.2209, 1184.839
218.7030, 1177.387
219.1852, 1169.057
219.6673, 1160.726
220.1494, 1153.066
220.6315, 1146.201
221.1136, 1139.555
221.5957, 1132.921
222.0779, 1126.484
222.5600, 1120.755
223.0421, 1116.059
223.5242, 1111.771
224.0063, 1107.588
224.4884, 1103.656
224.9706, 1099.494
225.4527, 1094.811
225.9348, 1089.853
226.4169, 1085.470
226.8990, 1081.841
227.3811, 1078.626
227.8633, 1075.673
228.3454, 1072.935
228.8275, 1070.620
229.3096, 1069.010
229.7917, 1067.845
230.2738, 1066.020
230.7560, 1062.930
231.2381, 1060.142
231.7202, 1058.682
232.2023, 1059.486
232.6844, 1059.501
233.1665, 1058.128
233.6487, 1055.932
234.1308, 1054.973
234.6129, 1056.153
235.0950, 1057.283
235.5771, 1057.163
236.0592, 1054.902
236.5414, 1053.313
237.0235, 1052.389
237.5056, 1052.166
237.9877, 1052.911
238.4698, 1055.260
238.9520, 1057.615
239.4341, 1059.276
239.9162, 1060.030
240.3983, 1060.485
240.8804, 1060.457
241.3625, 1060.168
241.8447, 1060.143
242.3268, 1060.137
242.8089, 1060.772
243.2910, 1062.534
243.7731, 1066.424
244.2552, 1068.833
244.7374, 1069.056
245.2195, 1068.100
245.7016, 1068.268
246.1837, 1070.407
246.6658, 1072.294
247.1479, 1072.821
247.6301, 1071.100
248.1122, 1071.078
248.5943, 1073.605
249.0764, 1077.374
249.5585, 1079.898
250.0406, 1080.477
250.5228, 1081.065
251.0049, 1082.365
251.4870, 1084.542
251.9691, 1086.749
252.4512, 1089.157
252.9333, 1091.470
253.4155, 1093.174
253.8976, 1093.875
254.3797, 1094.726
254.8618, 1096.202
255.3439, 1098.475
255.8260, 1100.053
256.3082, 1100.819
256.7903, 1100.943
257.2724, 1100.618
257.7545, 1099.790
258.2366, 1098.606
258.7188, 1097.107
259.2009, 1095.328
259.6830, 1093.065
260.1651, 1090.327
260.6472, 1087.135
261.1293, 1083.547
261.6115, 1079.691
262.0936, 1075.195
262.5757, 1069.884
263.0578, 1063.708
263.5399, 1057.886
264.0220, 1052.585
264.5042, 1047.278
264.9863, 1041.205
265.4684, 1034.013
265.9505, 1027.446
266.4326, 1022.116
266.9147, 1017.820
267.3969, 1012.206
267.8790, 1004.836
268.3611, 997.0607
268.8432, 990.0558
269.3253, 983.9270
269.8074, 978.1141
270.2896, 972.5670
270.7717, 967.2958
271.2538, 962.2311
271.7359, 957.4312
272.2180, 952.8541
272.7001, 948.5356
273.1823, 944.4626
273.6644, 940.4715
274.1465, 936.5970
274.6286, 932.7805
275.1107, 928.5793
275.5928, 923.8709
276.0750, 919.5451
276.5571, 916.4199
277.0392, 914.6117
277.5213, 912.3136
278.0034, 909.2783
278.4855, 905.8141
278.9677, 902.7285
279.4498, 900.0800
279.9319, 897.3845
280.4140, 894.2426
280.8961, 890.6663
281.3782, 887.3702
281.8604, 884.3398
282.3425, 881.6857
282.8246, 879.8937
283.3067, 879.0180
283.7888, 877.7319
284.2709, 875.0792
284.7531, 871.2590
285.2352, 868.0754
285.7173, 865.5397
286.1994, 863.6331
286.6815, 862.7041
287.1636, 862.6841
287.6458, 862.2105
288.1279, 860.6495
288.6100, 858.2080
289.0921, 855.4598
289.5742, 852.3073
290.0563, 849.5099
290.5385, 848.2077
291.0206, 848.1666
291.5027, 847.9220
291.9848, 847.0323
292.4669, 845.6210
292.9490, 843.5413
293.4312, 840.7891
293.9133, 838.7285
294.3954, 839.6981
294.8775, 842.5665
295.3596, 843.4415
295.8417, 840.4807
296.3239, 835.9503
296.8060, 833.4031
297.2881, 832.7054
297.7702, 832.4971
298.2523, 832.2073
298.7344, 831.6426
299.2166, 830.2624
299.6987, 827.6865
300.1808, 824.8626
300.6629, 822.7684
301.1450, 821.3738
301.6271, 820.4444
302.1093, 820.2174
302.5914, 820.2675
303.0735, 820.0411
303.5556, 819.4999
304.0377, 818.5370
304.5198, 816.5439
305.0020, 813.9951
305.4841, 811.9977
305.9662, 811.7281
306.4483, 811.9785
306.9304, 811.4919
307.4125, 810.1102
307.8947, 808.4669
308.3768, 806.7411
308.8589, 805.0980
309.3410, 803.7789
309.8231, 803.3971
310.3052, 803.0217
310.7874, 801.8484
311.2695, 799.8693
311.7516, 797.9672
312.2337, 796.6429
312.7158, 795.6475
313.1979, 794.7362
313.6801, 794.0282
314.1622, 793.2274
314.6443, 792.0629
315.1264, 790.6247
315.6085, 789.3851
316.0906, 788.8242
316.5728, 788.4082
317.0549, 787.7396
317.5370, 786.5427
318.0191, 785.3597
318.5012, 784.2113
318.9833, 783.1932
319.4655, 782.5750
319.9476, 782.9469
320.4297, 783.3490
320.9118, 783.2625
321.3939, 782.3642
321.8760, 781.5335
322.3582, 780.9240
322.8403, 780.4745
323.3224, 780.0875
323.8045, 779.4133
324.2866, 779.1002
324.7687, 779.6205
325.2509, 781.4410
325.7330, 782.2581
326.2151, 780.6580
326.6972, 778.5145
327.1793, 777.8104
327.6614, 780.4745
328.1436, 782.4567
328.6257, 782.8874
329.1078, 781.7244
329.5899, 781.0654
330.0720, 781.1277
330.5541, 781.5214
331.0363, 781.9877
331.5184, 782.5936
332.0005, 783.1533
332.4826, 783.6467
332.9647, 784.0782
333.4468, 784.4666
333.9290, 784.7058
334.4111, 785.0414
334.8932, 785.6223
335.3753, 786.5178
335.8574, 787.3684
336.3395, 788.0034
336.8216, 788.6992
337.3037, 790.2937
337.7859, 793.2457
338.2680, 795.5675
338.7501, 796.1941
339.2322, 794.9998
339.7143, 794.4045
340.1964, 794.4686
340.6786, 795.0224
341.1607, 796.0792
341.6428, 797.7148
342.1249, 798.8775
342.6070, 799.1770
343.0891, 798.7568
343.5713, 798.2031
344.0534, 797.4871
344.5355, 796.8375
345.0176, 796.4766
345.4997, 796.3782
345.9818, 796.3582
346.4640, 796.3679
346.9461, 796.4646
347.4282, 796.6771
347.9103, 797.0287
348.3924, 797.7366
348.8745, 799.2703
349.3567, 801.2596
349.8388, 802.7214
350.3209, 803.4389
350.8030, 804.0568
351.2851, 805.2483
351.7672, 806.9459
352.2494, 808.9473
352.7315, 811.1977
353.2136, 813.6683
353.6957, 816.3363
354.1778, 819.2234
354.6599, 822.2391
355.1421, 825.5026
355.6242, 828.8269
356.1063, 831.8867
356.5884, 834.4384
357.0705, 836.8235
357.5526, 839.0081
358.0348, 841.1172
358.5169, 843.7803
358.9990, 848.0763
359.4811, 852.7014
359.9632, 856.4638
360.4453, 858.7742
360.9275, 860.7918
361.4096, 863.3977
361.8917, 866.0519
362.3738, 867.5229
362.8559, 866.1608
363.3380, 864.5160
363.8202, 863.9437
364.3023, 865.1063
364.7844, 865.5629
365.2665, 864.4160
365.7486, 862.4974
366.2307, 860.8059
366.7129, 859.8868
367.1950, 858.7770
367.6771, 857.4763
368.1592, 856.0413
368.6413, 853.6474
369.1234, 850.2110
369.6056, 845.9093
370.0877, 840.7806
370.5698, 834.3345
371.0519, 828.0187
371.5340, 822.0730
372.0161, 816.3238
372.4983, 810.0886
372.9804, 803.2224
373.4625, 796.0032
373.9446, 788.6412
374.4267, 781.1436
374.9088, 773.1915
375.3910, 764.7015
375.8731, 755.8951
376.3552, 747.2589
376.8373, 738.6087
377.3194, 730.6418
377.8015, 723.6834
378.2837, 717.6301
378.7658, 712.2979
379.2479, 707.7150
379.7300, 703.4820
380.2121, 699.1237
380.6942, 694.7197
381.1764, 690.7276
381.6585, 687.2239
382.1406, 684.2587
382.6227, 682.1302
383.1048, 680.7717
383.5869, 679.7286
384.0691, 679.0356
384.5512, 678.3968
385.0333, 677.0011
385.5154, 674.5744
385.9975, 672.3594
386.4796, 671.8123
386.9618, 672.4499
387.4439, 673.1902
387.9260, 673.4789
388.4081, 673.6882
388.8902, 674.1213
389.3723, 674.7884
389.8545, 675.6678
390.3366, 676.7336
390.8187, 678.0333
391.3008, 679.6154
391.7829, 681.4871
392.2650, 683.6650
392.7472, 686.2254
393.2293, 689.1320
393.7114, 692.3018
394.1935, 695.7865
394.6756, 699.4661
395.1577, 703.2139
395.6399, 706.8656
396.1220, 711.0635
396.6041, 715.8223
397.0862, 721.2152
397.5683, 727.3311
398.0504, 734.9490
398.5326, 742.4510
399.0147, 749.3688
399.4968, 755.6951
399.9789, 762.5668
400.4610, 770.0660
400.9431, 777.9235
401.4253, 785.8857
401.9074, 793.5643
402.3895, 802.2373
402.8716, 812.3978
403.3537, 823.3748
403.8358, 833.7169
404.3180, 843.0510
404.8001, 852.5568
405.2822, 862.7913
405.7643, 873.7866
406.2464, 884.6386
406.7285, 895.2523
407.2107, 905.7363
407.6928, 916.1070
408.1749, 926.4222
408.6570, 936.7859
409.1391, 946.9576
409.6212, 957.4171
410.1034, 969.4402
410.5855, 983.0526
411.0676, 996.9266
411.5497, 1009.971
412.0318, 1022.719
412.5139, 1036.434
412.9961, 1051.346
413.4782, 1067.342
413.9603, 1084.605
414.4424, 1102.828
414.9245, 1120.790
415.4066, 1138.524
415.8888, 1155.551
416.3709, 1171.347
416.8530, 1186.035
417.3351, 1199.968
417.8172, 1214.262
418.2993, 1227.570
418.7815, 1238.843
419.2636, 1247.598
419.7457, 1254.369
420.2278, 1259.301
420.7099, 1262.345
421.1920, 1263.134
421.6742, 1261.836
422.1563, 1258.104
422.6384, 1251.674
423.1205, 1242.170
423.6026, 1231.200
424.0847, 1218.120
424.5669, 1204.026
425.0490, 1190.036
425.5311, 1175.980
426.0132, 1162.053
426.4953, 1148.226
426.9774, 1134.580
427.4596, 1121.072
427.9417, 1107.244
428.4238, 1094.500
428.9059, 1083.521
429.3880, 1074.650
429.8701, 1066.007
430.3523, 1057.442
430.8344, 1049.262
431.3165, 1041.752
431.7986, 1034.910
432.2807, 1029.019
432.7628, 1024.251
433.2450, 1020.452
433.7271, 1017.089
434.2092, 1014.168
434.6913, 1011.765
435.1734, 1009.868
435.6555, 1008.525
436.1377, 1007.952
436.6198, 1008.361
437.1019, 1009.088
437.5840, 1009.363
438.0661, 1009.333
438.5482, 1009.407
439.0304, 1010.037
439.5125, 1010.698
439.9946, 1010.880
440.4767, 1010.544
440.9588, 1010.010
441.4409, 1009.817
441.9231, 1009.319
442.4052, 1007.899
442.8873, 1005.219
443.3694, 1001.764
443.8515, 997.6161
444.3336, 992.7912
444.8158, 987.4684
445.2979, 982.0165
445.7800, 975.7607
446.2621, 968.6447
446.7442, 960.9749
447.2263, 951.2451
447.7085, 938.3942
448.1906, 924.2139
448.6727, 910.1277
449.1548, 896.0818
449.6369, 882.6168
450.1190, 869.9977
450.6012, 858.0642
451.0833, 845.5457
451.5654, 832.1019
452.0475, 818.8486
452.5296, 805.9836
453.0117, 793.4396
453.4939, 781.8419
453.9760, 771.1125
454.4581, 761.2432
454.9402, 752.1324
455.4223, 743.8085
455.9044, 735.8832
456.3866, 728.3546
456.8687, 721.2427
457.3508, 714.9275
457.8329, 709.3006
458.3150, 703.9811
458.7971, 698.4191
459.2793, 693.0678
459.7614, 688.5497
460.2435, 685.0634
460.7256, 681.9769
461.2077, 679.0587
461.6898, 676.2641
462.1720, 673.4848
462.6541, 670.1787
463.1362, 667.3889
463.6183, 665.8262
464.1004, 665.3728
464.5826, 664.6819
465.0647, 663.0741
465.5468, 661.3787
466.0289, 659.9973
466.5110, 658.6916
466.9931, 658.2380
467.4753, 659.3998
467.9574, 661.0927
468.4395, 661.6875
468.9216, 660.1865
469.4037, 659.4384
469.8858, 660.3077
470.3680, 662.5978
470.8501, 664.3400
471.3322, 665.3209
471.8143, 666.3505
472.2964, 668.0727
472.7785, 670.4887
473.2607, 672.7708
473.7428, 674.7281
474.2249, 676.9039
474.7070, 680.3620
475.1891, 684.9130
475.6712, 689.3021
476.1534, 692.6436
476.6355, 695.7250
477.1176, 699.7629
477.5997, 704.7295
478.0818, 710.3139
478.5639, 716.5106
479.0461, 723.1437
479.5282, 729.8776
480.0103, 736.5076
480.4924, 743.6437
480.9745, 751.8542
481.4566, 760.7244
481.9388, 769.6447
482.4209, 777.3455
482.9030, 786.1146
483.3851, 797.2479
483.8672, 810.5156
484.3493, 823.3568
484.8315, 835.1360
485.3136, 846.6417
485.7957, 858.0332
486.2778, 868.6157
486.7599, 880.7891
487.2420, 894.9844
487.7242, 910.3058
488.2063, 925.5975
488.6884, 940.6707
489.1705, 956.4049
489.6526, 973.0982
490.1347, 990.6403
490.6169, 1009.398
491.0990, 1029.545
491.5811, 1050.253
492.0632, 1071.032
492.5453, 1091.852
493.0274, 1113.069
493.5096, 1134.805
493.9917, 1156.810
494.4738, 1179.344
494.9559, 1202.193
495.4380, 1225.004
495.9201, 1247.084
496.4023, 1269.651
496.8844, 1294.188
497.3665, 1320.059
497.8486, 1345.374
498.3307, 1369.164
498.8128, 1391.873
499.2950, 1412.954
499.7771, 1432.345
500.2592, 1451.778
500.7413, 1471.193
501.2234, 1491.196
501.7055, 1512.153
502.1877, 1534.351
502.6698, 1557.202
503.1519, 1580.600
503.6340, 1604.374
504.1161, 1628.443
504.5982, 1652.242
505.0804, 1677.789
505.5625, 1706.156
506.0446, 1737.496
506.5267, 1769.507
507.0088, 1802.781
507.4909, 1836.242
507.9731, 1869.592
508.4552, 1902.788
508.9373, 1935.501
509.4194, 1968.111
509.9015, 1999.259
510.3836, 2026.613
510.8658, 2050.203
511.3479, 2069.611
511.8300, 2085.354
512.3121, 2096.654
512.7943, 2103.623
513.2764, 2106.064
513.7585, 2100.670
514.2406, 2084.339
514.7227, 2059.632
515.2048, 2029.053
515.6870, 1992.618
516.1691, 1951.129
516.6512, 1903.501
517.1333, 1851.271
517.6154, 1796.948
518.0975, 1739.674
518.5797, 1681.621
519.0618, 1621.632
519.5439, 1560.502
520.0260, 1502.276
520.5081, 1447.454
520.9902, 1394.551
521.4724, 1343.142
521.9545, 1292.714
522.4366, 1244.990
522.9187, 1199.715
523.4008, 1157.382
523.8829, 1119.020
524.3651, 1084.326
524.8472, 1050.931
525.3293, 1018.328
525.8114, 987.0471
526.2935, 958.3227
526.7756, 932.1296
527.2578, 907.6546
527.7399, 883.9941
528.2220, 861.8260
528.7041, 841.7992
529.1862, 823.9214
529.6683, 807.2238
530.1505, 790.7982
530.6326, 775.1821
531.1147, 760.8457
531.5968, 748.2274
532.0789, 736.4272
532.5610, 725.4366
533.0432, 715.1246
533.5253, 705.5225
534.0074, 696.9275
534.4895, 688.5392
534.9716, 680.0821
535.4537, 671.6136
535.9359, 663.8024
536.4180, 656.7997
536.9001, 650.3148
537.3822, 644.0591
537.8643, 638.0645
538.3464, 632.6780
538.8286, 627.9865
539.3107, 623.8091
539.7928, 619.7641
540.2749, 615.9056
540.7570, 612.4340
541.2391, 609.4081
541.7213, 606.7957
542.2034, 604.9619
542.6855, 603.6671
543.1676, 601.9082
543.6497, 598.3470
544.1318, 594.5671
544.6140, 591.8571
545.0961, 590.3495
545.5782, 589.3927
546.0603, 589.1707
546.5424, 589.1155
547.0245, 588.7484
547.5067, 587.2863
547.9888, 586.4765
548.4709, 586.9425
548.9530, 587.9812
549.4351, 588.3710
549.9172, 587.7355
550.3994, 587.1770
550.8815, 586.9941
551.3636, 587.1275
551.8457, 586.9846
552.3278, 586.3739
552.8099, 586.4733
553.2921, 588.5850
553.7742, 592.2821
554.2563, 594.8936
554.7384, 596.1736
555.2205, 597.2455
555.7026, 599.3356
556.1848, 602.1083
556.6669, 604.8312
557.1490, 607.1298
557.6311, 609.5858
558.1132, 612.5186
558.5953, 615.9615
559.0775, 620.0602
559.5596, 626.0547
560.0417, 631.6115
560.5238, 635.2864
561.0059, 637.0022
561.4880, 639.5887
561.9702, 643.6984
562.4523, 648.5222
562.9344, 653.7897
563.4165, 659.8384
563.8986, 665.4313
564.3807, 670.3228
564.8629, 675.1559
565.3450, 680.8760
565.8271, 687.6910
566.3092, 693.9727
566.7913, 699.2541
567.2734, 703.9921
567.7556, 709.0164
568.2377, 714.3305
568.7198, 719.5371
569.2019, 724.4121
569.6840, 729.1198
570.1661, 733.8366
570.6483, 738.5599
571.1304, 743.5263
571.6125, 749.9980
572.0946, 756.0895
572.5767, 759.8376
573.0588, 760.1566
573.5410, 760.2444
574.0231, 760.9781
574.5052, 762.0270
574.9873, 762.9847
575.4694, 764.3759
575.9515, 764.9495
576.4337, 764.6508
576.9158, 763.4251
577.3979, 760.9674
577.8800, 756.9652
578.3621, 752.6840
578.8442, 748.9739
579.3264, 745.5797
579.8085, 740.1627
580.2906, 732.5701
580.7727, 724.1641
581.2548, 715.9340
581.7369, 707.7336
582.2190, 699.3497
582.7011, 690.6047
583.1832, 681.7967
583.6653, 673.1927
584.1475, 664.6689
584.6296, 656.0420
585.1117, 647.3251
585.5938, 638.3622
586.0759, 629.1857
586.5580, 619.7147
587.0402, 610.0794
587.5223, 599.1745
588.0044, 589.2756
