##NAMES=Clinoferrosilite
##RRUFFID=R141085
##IDEAL CHEMISTRY=Fe^2+^SiO_3_
##LOCALITY=Caspar quarry, Bellerberg volcano, Ettringen, Mayen, Eifel, Rhineland-Palatinate, Germany
##OWNER=RRUFF
##SOURCE=Ch. and H. Sch√§fer
##DESCRIPTION=Brown prismatic crystals, associated with pyroxferroite, R141080
##STATUS=The identification of this mineral has been confirmed by single-crystal X-ray diffraction.
##URL=rruff.info/R141085
8.813672e+001, 2.293215e+002
8.861884e+001, 2.332143e+002
8.910095e+001, 2.364837e+002
8.958307e+001, 2.387912e+002
9.006519e+001, 2.415541e+002
9.054730e+001, 2.465395e+002
9.102942e+001, 2.554460e+002
9.151154e+001, 2.638154e+002
9.199365e+001, 2.658300e+002
9.247577e+001, 2.624820e+002
9.295789e+001, 2.586729e+002
9.344000e+001, 2.578021e+002
9.392212e+001, 2.589259e+002
9.440424e+001, 2.600251e+002
9.488635e+001, 2.613871e+002
9.536847e+001, 2.625846e+002
9.585059e+001, 2.621914e+002
9.633270e+001, 2.600916e+002
9.681482e+001, 2.578429e+002
9.729694e+001, 2.564567e+002
9.777905e+001, 2.559138e+002
9.826117e+001, 2.571417e+002
9.874329e+001, 2.611859e+002
9.922540e+001, 2.674261e+002
9.970752e+001, 2.713169e+002
1.001896e+002, 2.724013e+002
1.006718e+002, 2.720785e+002
1.011539e+002, 2.718201e+002
1.016360e+002, 2.714323e+002
1.021181e+002, 2.717897e+002
1.026002e+002, 2.732651e+002
1.030823e+002, 2.760045e+002
1.035645e+002, 2.787670e+002
1.040466e+002, 2.810607e+002
1.045287e+002, 2.837002e+002
1.050108e+002, 2.883604e+002
1.054929e+002, 2.957070e+002
1.059750e+002, 3.040370e+002
1.064572e+002, 3.130890e+002
1.069393e+002, 3.258936e+002
1.074214e+002, 3.339646e+002
1.079035e+002, 3.357177e+002
1.083856e+002, 3.326452e+002
1.088677e+002, 3.298479e+002
1.093499e+002, 3.265101e+002
1.098320e+002, 3.240320e+002
1.103141e+002, 3.230099e+002
1.107962e+002, 3.240646e+002
1.112783e+002, 3.258532e+002
1.117604e+002, 3.284224e+002
1.122426e+002, 3.317311e+002
1.127247e+002, 3.353407e+002
1.132068e+002, 3.388742e+002
1.136889e+002, 3.428613e+002
1.141710e+002, 3.476346e+002
1.146531e+002, 3.551288e+002
1.151353e+002, 3.616386e+002
1.156174e+002, 3.656362e+002
1.160995e+002, 3.670904e+002
1.165816e+002, 3.688517e+002
1.170637e+002, 3.729583e+002
1.175458e+002, 3.775948e+002
1.180280e+002, 3.808367e+002
1.185101e+002, 3.807172e+002
1.189922e+002, 3.798018e+002
1.194743e+002, 3.793714e+002
1.199564e+002, 3.794830e+002
1.204385e+002, 3.802800e+002
1.209207e+002, 3.811599e+002
1.214028e+002, 3.828220e+002
1.218849e+002, 3.864775e+002
1.223670e+002, 3.957215e+002
1.228491e+002, 4.059841e+002
1.233312e+002, 4.123327e+002
1.238134e+002, 4.138407e+002
1.242955e+002, 4.129183e+002
1.247776e+002, 4.105652e+002
1.252597e+002, 4.072869e+002
1.257418e+002, 4.047713e+002
1.262239e+002, 4.041646e+002
1.267061e+002, 4.050360e+002
1.271882e+002, 4.065529e+002
1.276703e+002, 4.085931e+002
1.281524e+002, 4.112774e+002
1.286345e+002, 4.151912e+002
1.291166e+002, 4.202133e+002
1.295988e+002, 4.250827e+002
1.300809e+002, 4.289434e+002
1.305630e+002, 4.318718e+002
1.310451e+002, 4.342199e+002
1.315272e+002, 4.359436e+002
1.320093e+002, 4.371489e+002
1.324915e+002, 4.379714e+002
1.329736e+002, 4.383607e+002
1.334557e+002, 4.387383e+002
1.339378e+002, 4.392994e+002
1.344199e+002, 4.400476e+002
1.349020e+002, 4.414576e+002
1.353842e+002, 4.438481e+002
1.358663e+002, 4.469721e+002
1.363484e+002, 4.496692e+002
1.368305e+002, 4.517090e+002
1.373126e+002, 4.539260e+002
1.377947e+002, 4.574691e+002
1.382769e+002, 4.627099e+002
1.387590e+002, 4.674716e+002
1.392411e+002, 4.714189e+002
1.397232e+002, 4.745905e+002
1.402053e+002, 4.754478e+002
1.406874e+002, 4.733583e+002
1.411696e+002, 4.698123e+002
1.416517e+002, 4.667188e+002
1.421338e+002, 4.640642e+002
1.426159e+002, 4.619118e+002
1.430980e+002, 4.603424e+002
1.435801e+002, 4.594909e+002
1.440623e+002, 4.586905e+002
1.445444e+002, 4.577476e+002
1.450265e+002, 4.569979e+002
1.455086e+002, 4.570731e+002
1.459907e+002, 4.585915e+002
1.464728e+002, 4.601511e+002
1.469550e+002, 4.614448e+002
1.474371e+002, 4.628719e+002
1.479192e+002, 4.630752e+002
1.484013e+002, 4.612148e+002
1.488834e+002, 4.582286e+002
1.493655e+002, 4.561359e+002
1.498477e+002, 4.551606e+002
1.503298e+002, 4.549023e+002
1.508119e+002, 4.552892e+002
1.512940e+002, 4.572160e+002
1.517761e+002, 4.584619e+002
1.522583e+002, 4.584739e+002
1.527404e+002, 4.576842e+002
1.532225e+002, 4.573157e+002
1.537046e+002, 4.574222e+002
1.541867e+002, 4.580031e+002
1.546688e+002, 4.591151e+002
1.551510e+002, 4.625945e+002
1.556331e+002, 4.643786e+002
1.561152e+002, 4.627657e+002
1.565973e+002, 4.586274e+002
1.570794e+002, 4.554196e+002
1.575615e+002, 4.543335e+002
1.580437e+002, 4.541051e+002
1.585258e+002, 4.539494e+002
1.590079e+002, 4.537117e+002
1.594900e+002, 4.535168e+002
1.599721e+002, 4.534168e+002
1.604542e+002, 4.533992e+002
1.609364e+002, 4.533885e+002
1.614185e+002, 4.529449e+002
1.619006e+002, 4.526943e+002
1.623827e+002, 4.531393e+002
1.628648e+002, 4.557995e+002
1.633469e+002, 4.579749e+002
1.638291e+002, 4.581129e+002
1.643112e+002, 4.563922e+002
1.647933e+002, 4.547231e+002
1.652754e+002, 4.543433e+002
1.657575e+002, 4.543900e+002
1.662396e+002, 4.539564e+002
1.667218e+002, 4.517902e+002
1.672039e+002, 4.497387e+002
1.676860e+002, 4.491329e+002
1.681681e+002, 4.499601e+002
1.686502e+002, 4.510544e+002
1.691323e+002, 4.516615e+002
1.696145e+002, 4.520840e+002
1.700966e+002, 4.527314e+002
1.705787e+002, 4.543515e+002
1.710608e+002, 4.559174e+002
1.715429e+002, 4.564232e+002
1.720250e+002, 4.558176e+002
1.725072e+002, 4.549098e+002
1.729893e+002, 4.542425e+002
1.734714e+002, 4.537115e+002
1.739535e+002, 4.531233e+002
1.744356e+002, 4.521475e+002
1.749177e+002, 4.511792e+002
1.753999e+002, 4.506896e+002
1.758820e+002, 4.507118e+002
1.763641e+002, 4.510267e+002
1.768462e+002, 4.514357e+002
1.773283e+002, 4.519712e+002
1.778104e+002, 4.527262e+002
1.782926e+002, 4.542470e+002
1.787747e+002, 4.558689e+002
1.792568e+002, 4.562876e+002
1.797389e+002, 4.553001e+002
1.802210e+002, 4.539826e+002
1.807031e+002, 4.535130e+002
1.811853e+002, 4.537359e+002
1.816674e+002, 4.541261e+002
1.821495e+002, 4.544978e+002
1.826316e+002, 4.548432e+002
1.831137e+002, 4.550789e+002
1.835958e+002, 4.551643e+002
1.840780e+002, 4.553262e+002
1.845601e+002, 4.561040e+002
1.850422e+002, 4.573672e+002
1.855243e+002, 4.582973e+002
1.860064e+002, 4.583112e+002
1.864885e+002, 4.576214e+002
1.869707e+002, 4.569637e+002
1.874528e+002, 4.563977e+002
1.879349e+002, 4.558295e+002
1.884170e+002, 4.549423e+002
1.888991e+002, 4.537719e+002
1.893812e+002, 4.529433e+002
1.898634e+002, 4.529647e+002
1.903455e+002, 4.536941e+002
1.908276e+002, 4.542851e+002
1.913097e+002, 4.547132e+002
1.917918e+002, 4.549198e+002
1.922739e+002, 4.546544e+002
1.927561e+002, 4.538839e+002
1.932382e+002, 4.532583e+002
1.937203e+002, 4.531068e+002
1.942024e+002, 4.534115e+002
1.946845e+002, 4.541580e+002
1.951666e+002, 4.555947e+002
1.956488e+002, 4.570644e+002
1.961309e+002, 4.569979e+002
1.966130e+002, 4.551981e+002
1.970951e+002, 4.534713e+002
1.975772e+002, 4.529517e+002
1.980593e+002, 4.536573e+002
1.985415e+002, 4.541591e+002
1.990236e+002, 4.543092e+002
1.995057e+002, 4.542726e+002
1.999878e+002, 4.544034e+002
2.004699e+002, 4.547163e+002
2.009520e+002, 4.551275e+002
2.014342e+002, 4.556507e+002
2.019163e+002, 4.563136e+002
2.023984e+002, 4.567392e+002
2.028805e+002, 4.567930e+002
2.033626e+002, 4.566908e+002
2.038447e+002, 4.570997e+002
2.043269e+002, 4.582152e+002
2.048090e+002, 4.591353e+002
2.052911e+002, 4.590919e+002
2.057732e+002, 4.578202e+002
2.062553e+002, 4.574433e+002
2.067374e+002, 4.583495e+002
2.072196e+002, 4.600606e+002
2.077017e+002, 4.612480e+002
2.081838e+002, 4.617646e+002
2.086659e+002, 4.621704e+002
2.091480e+002, 4.628249e+002
2.096301e+002, 4.638513e+002
2.101123e+002, 4.645329e+002
2.105944e+002, 4.646214e+002
2.110765e+002, 4.644540e+002
2.115586e+002, 4.650612e+002
2.120407e+002, 4.666900e+002
2.125228e+002, 4.685442e+002
2.130050e+002, 4.702751e+002
2.134871e+002, 4.719904e+002
2.139692e+002, 4.730575e+002
2.144513e+002, 4.730252e+002
2.149334e+002, 4.724689e+002
2.154155e+002, 4.732126e+002
2.158977e+002, 4.756966e+002
2.163798e+002, 4.786122e+002
2.168619e+002, 4.812925e+002
2.173440e+002, 4.837037e+002
2.178261e+002, 4.859044e+002
2.183082e+002, 4.877123e+002
2.187904e+002, 4.893417e+002
2.192725e+002, 4.915260e+002
2.197546e+002, 4.946062e+002
2.202367e+002, 4.975938e+002
2.207188e+002, 5.000827e+002
2.212009e+002, 5.023875e+002
2.216831e+002, 5.033974e+002
2.221652e+002, 5.029339e+002
2.226473e+002, 5.012129e+002
2.231294e+002, 4.988281e+002
2.236115e+002, 4.956168e+002
2.240936e+002, 4.920060e+002
2.245758e+002, 4.880648e+002
2.250579e+002, 4.835117e+002
2.255400e+002, 4.793922e+002
2.260221e+002, 4.757106e+002
2.265042e+002, 4.724726e+002
2.269863e+002, 4.698486e+002
2.274685e+002, 4.680641e+002
2.279506e+002, 4.664972e+002
2.284327e+002, 4.648277e+002
2.289148e+002, 4.627757e+002
2.293969e+002, 4.612221e+002
2.298790e+002, 4.602250e+002
2.303612e+002, 4.597051e+002
2.308433e+002, 4.594975e+002
2.313254e+002, 4.597226e+002
2.318075e+002, 4.600607e+002
2.322896e+002, 4.603993e+002
2.327717e+002, 4.607997e+002
2.332539e+002, 4.610098e+002
2.337360e+002, 4.608864e+002
2.342181e+002, 4.606108e+002
2.347002e+002, 4.606024e+002
2.351823e+002, 4.609110e+002
2.356644e+002, 4.614035e+002
2.361466e+002, 4.620902e+002
2.366287e+002, 4.631747e+002
2.371108e+002, 4.638462e+002
2.375929e+002, 4.638111e+002
2.380750e+002, 4.634754e+002
2.385571e+002, 4.637528e+002
2.390393e+002, 4.652007e+002
2.395214e+002, 4.663894e+002
2.400035e+002, 4.667691e+002
2.404856e+002, 4.661031e+002
2.409677e+002, 4.653740e+002
2.414498e+002, 4.645814e+002
2.419320e+002, 4.637429e+002
2.424141e+002, 4.628934e+002
2.428962e+002, 4.621703e+002
2.433783e+002, 4.612294e+002
2.438604e+002, 4.598557e+002
2.443425e+002, 4.577964e+002
2.448247e+002, 4.562765e+002
2.453068e+002, 4.554517e+002
2.457889e+002, 4.550744e+002
2.462710e+002, 4.547607e+002
2.467531e+002, 4.545568e+002
2.472352e+002, 4.543263e+002
2.477174e+002, 4.539778e+002
2.481995e+002, 4.534361e+002
2.486816e+002, 4.531514e+002
2.491637e+002, 4.531854e+002
2.496458e+002, 4.534203e+002
2.501279e+002, 4.536909e+002
2.506101e+002, 4.539723e+002
2.510922e+002, 4.543340e+002
2.515743e+002, 4.548365e+002
2.520564e+002, 4.555252e+002
2.525385e+002, 4.560179e+002
2.530206e+002, 4.563250e+002
2.535028e+002, 4.564256e+002
2.539849e+002, 4.562329e+002
2.544670e+002, 4.555071e+002
2.549491e+002, 4.549999e+002
2.554312e+002, 4.549203e+002
2.559133e+002, 4.552902e+002
2.563955e+002, 4.557773e+002
2.568776e+002, 4.566192e+002
2.573597e+002, 4.573123e+002
2.578418e+002, 4.571962e+002
2.583239e+002, 4.557363e+002
2.588061e+002, 4.547330e+002
2.592882e+002, 4.546288e+002
2.597703e+002, 4.554107e+002
2.602524e+002, 4.561542e+002
2.607345e+002, 4.569141e+002
2.612166e+002, 4.575689e+002
2.616988e+002, 4.579423e+002
2.621809e+002, 4.578184e+002
2.626630e+002, 4.580298e+002
2.631451e+002, 4.588013e+002
2.636272e+002, 4.600736e+002
2.641093e+002, 4.613022e+002
2.645915e+002, 4.626846e+002
2.650736e+002, 4.637066e+002
2.655557e+002, 4.638164e+002
2.660378e+002, 4.626587e+002
2.665199e+002, 4.618451e+002
2.670020e+002, 4.615799e+002
2.674842e+002, 4.618329e+002
2.679663e+002, 4.625237e+002
2.684484e+002, 4.637781e+002
2.689305e+002, 4.651694e+002
2.694126e+002, 4.663544e+002
2.698947e+002, 4.672565e+002
2.703769e+002, 4.683754e+002
2.708590e+002, 4.698682e+002
2.713411e+002, 4.715654e+002
2.718232e+002, 4.727755e+002
2.723053e+002, 4.732928e+002
2.727874e+002, 4.739371e+002
2.732696e+002, 4.753484e+002
2.737517e+002, 4.777055e+002
2.742338e+002, 4.796122e+002
2.747159e+002, 4.809083e+002
2.751980e+002, 4.818033e+002
2.756801e+002, 4.826449e+002
2.761623e+002, 4.833606e+002
2.766444e+002, 4.843647e+002
2.771265e+002, 4.859222e+002
2.776086e+002, 4.880937e+002
2.780907e+002, 4.903011e+002
2.785728e+002, 4.924636e+002
2.790550e+002, 4.947944e+002
2.795371e+002, 4.980475e+002
2.800192e+002, 5.024416e+002
2.805013e+002, 5.059682e+002
2.809834e+002, 5.069676e+002
2.814655e+002, 5.055506e+002
2.819477e+002, 5.066032e+002
2.824298e+002, 5.106818e+002
2.829119e+002, 5.157205e+002
2.833940e+002, 5.188345e+002
2.838761e+002, 5.199807e+002
2.843582e+002, 5.207155e+002
2.848404e+002, 5.215834e+002
2.853225e+002, 5.225228e+002
2.858046e+002, 5.231458e+002
2.862867e+002, 5.234021e+002
2.867688e+002, 5.235353e+002
2.872509e+002, 5.240273e+002
2.877331e+002, 5.248135e+002
2.882152e+002, 5.249614e+002
2.886973e+002, 5.240953e+002
2.891794e+002, 5.224047e+002
2.896615e+002, 5.204686e+002
2.901436e+002, 5.182726e+002
2.906258e+002, 5.158990e+002
2.911079e+002, 5.131186e+002
2.915900e+002, 5.100945e+002
2.920721e+002, 5.077510e+002
2.925542e+002, 5.066376e+002
2.930363e+002, 5.060923e+002
2.935185e+002, 5.045880e+002
2.940006e+002, 5.021316e+002
2.944827e+002, 4.998389e+002
2.949648e+002, 4.988535e+002
2.954469e+002, 4.987159e+002
2.959290e+002, 4.979834e+002
2.964112e+002, 4.962596e+002
2.968933e+002, 4.940258e+002
2.973754e+002, 4.919836e+002
2.978575e+002, 4.901075e+002
2.983396e+002, 4.881947e+002
2.988217e+002, 4.858955e+002
2.993039e+002, 4.835004e+002
2.997860e+002, 4.817287e+002
3.002681e+002, 4.807819e+002
3.007502e+002, 4.800626e+002
3.012323e+002, 4.789075e+002
3.017144e+002, 4.773900e+002
3.021966e+002, 4.758434e+002
3.026787e+002, 4.742604e+002
3.031608e+002, 4.727973e+002
3.036429e+002, 4.716460e+002
3.041250e+002, 4.708421e+002
3.046071e+002, 4.702794e+002
3.050893e+002, 4.702096e+002
3.055714e+002, 4.703190e+002
3.060535e+002, 4.699578e+002
3.065356e+002, 4.684056e+002
3.070177e+002, 4.665013e+002
3.074998e+002, 4.650276e+002
3.079820e+002, 4.639969e+002
3.084641e+002, 4.632349e+002
3.089462e+002, 4.625522e+002
3.094283e+002, 4.620757e+002
3.099104e+002, 4.619931e+002
3.103925e+002, 4.631803e+002
3.108747e+002, 4.641558e+002
3.113568e+002, 4.635584e+002
3.118389e+002, 4.616068e+002
3.123210e+002, 4.599146e+002
3.128031e+002, 4.596707e+002
3.132852e+002, 4.599613e+002
3.137674e+002, 4.598730e+002
3.142495e+002, 4.587008e+002
3.147316e+002, 4.577015e+002
3.152137e+002, 4.577939e+002
3.156958e+002, 4.586393e+002
3.161779e+002, 4.591050e+002
3.166601e+002, 4.582960e+002
3.171422e+002, 4.572115e+002
3.176243e+002, 4.564552e+002
3.181064e+002, 4.560681e+002
3.185885e+002, 4.561655e+002
3.190706e+002, 4.573463e+002
3.195528e+002, 4.590017e+002
3.200349e+002, 4.599561e+002
3.205170e+002, 4.592396e+002
3.209991e+002, 4.582699e+002
3.214812e+002, 4.576650e+002
3.219633e+002, 4.575888e+002
3.224455e+002, 4.574796e+002
3.229276e+002, 4.571468e+002
3.234097e+002, 4.567462e+002
3.238918e+002, 4.564703e+002
3.243739e+002, 4.562026e+002
3.248560e+002, 4.562121e+002
3.253382e+002, 4.566730e+002
3.258203e+002, 4.576529e+002
3.263024e+002, 4.585106e+002
3.267845e+002, 4.594171e+002
3.272666e+002, 4.600821e+002
3.277487e+002, 4.602698e+002
3.282309e+002, 4.594967e+002
3.287130e+002, 4.588204e+002
3.291951e+002, 4.584560e+002
3.296772e+002, 4.583472e+002
3.301593e+002, 4.579146e+002
3.306414e+002, 4.568667e+002
3.311236e+002, 4.557730e+002
3.316057e+002, 4.548859e+002
3.320878e+002, 4.539067e+002
3.325699e+002, 4.537162e+002
3.330520e+002, 4.548509e+002
3.335341e+002, 4.566910e+002
3.340163e+002, 4.574451e+002
3.344984e+002, 4.565453e+002
3.349805e+002, 4.554893e+002
3.354626e+002, 4.548593e+002
3.359447e+002, 4.547143e+002
3.364268e+002, 4.548157e+002
3.369090e+002, 4.553068e+002
3.373911e+002, 4.559068e+002
3.378732e+002, 4.561504e+002
3.383553e+002, 4.559698e+002
3.388374e+002, 4.556774e+002
3.393195e+002, 4.552809e+002
3.398017e+002, 4.548014e+002
3.402838e+002, 4.548087e+002
3.407659e+002, 4.555109e+002
3.412480e+002, 4.561834e+002
3.417301e+002, 4.558820e+002
3.422122e+002, 4.545181e+002
3.426944e+002, 4.535443e+002
3.431765e+002, 4.533903e+002
3.436586e+002, 4.538016e+002
3.441407e+002, 4.539312e+002
3.446228e+002, 4.537564e+002
3.451049e+002, 4.535374e+002
3.455871e+002, 4.536132e+002
3.460692e+002, 4.538885e+002
3.465513e+002, 4.535810e+002
3.470334e+002, 4.523480e+002
3.475155e+002, 4.509863e+002
3.479977e+002, 4.510677e+002
3.484798e+002, 4.524314e+002
3.489619e+002, 4.537420e+002
3.494440e+002, 4.541400e+002
3.499261e+002, 4.539393e+002
3.504082e+002, 4.538287e+002
3.508904e+002, 4.538544e+002
3.513725e+002, 4.539494e+002
3.518546e+002, 4.540223e+002
3.523367e+002, 4.541077e+002
3.528188e+002, 4.542953e+002
3.533009e+002, 4.548725e+002
3.537831e+002, 4.554417e+002
3.542652e+002, 4.554580e+002
3.547473e+002, 4.549409e+002
3.552294e+002, 4.543284e+002
3.557115e+002, 4.538795e+002
3.561936e+002, 4.535450e+002
3.566758e+002, 4.532678e+002
3.571579e+002, 4.530722e+002
3.576400e+002, 4.528742e+002
3.581221e+002, 4.525386e+002
3.586042e+002, 4.521321e+002
3.590863e+002, 4.518786e+002
3.595685e+002, 4.519725e+002
3.600506e+002, 4.522160e+002
3.605327e+002, 4.525444e+002
3.610148e+002, 4.531180e+002
3.614969e+002, 4.533141e+002
3.619790e+002, 4.523649e+002
3.624612e+002, 4.509424e+002
3.629433e+002, 4.501639e+002
3.634254e+002, 4.510291e+002
3.639075e+002, 4.520195e+002
3.643896e+002, 4.524466e+002
3.648717e+002, 4.521621e+002
3.653539e+002, 4.520844e+002
3.658360e+002, 4.526471e+002
3.663181e+002, 4.533696e+002
3.668002e+002, 4.538235e+002
3.672823e+002, 4.536194e+002
3.677644e+002, 4.535134e+002
3.682466e+002, 4.537773e+002
3.687287e+002, 4.543464e+002
3.692108e+002, 4.544750e+002
3.696929e+002, 4.537082e+002
3.701750e+002, 4.529008e+002
3.706571e+002, 4.524772e+002
3.711393e+002, 4.524627e+002
3.716214e+002, 4.528270e+002
3.721035e+002, 4.538865e+002
3.725856e+002, 4.552307e+002
3.730677e+002, 4.559100e+002
3.735498e+002, 4.557901e+002
3.740320e+002, 4.552670e+002
3.745141e+002, 4.542999e+002
3.749962e+002, 4.527606e+002
3.754783e+002, 4.519966e+002
3.759604e+002, 4.521977e+002
3.764425e+002, 4.528737e+002
3.769247e+002, 4.535189e+002
3.774068e+002, 4.541463e+002
3.778889e+002, 4.546230e+002
3.783710e+002, 4.549023e+002
3.788531e+002, 4.550023e+002
3.793352e+002, 4.549225e+002
3.798174e+002, 4.546214e+002
3.802995e+002, 4.544259e+002
3.807816e+002, 4.546654e+002
3.812637e+002, 4.552896e+002
3.817458e+002, 4.558854e+002
3.822279e+002, 4.564427e+002
3.827101e+002, 4.568683e+002
3.831922e+002, 4.568156e+002
3.836743e+002, 4.563864e+002
3.841564e+002, 4.562847e+002
3.846385e+002, 4.572567e+002
3.851206e+002, 4.587506e+002
3.856028e+002, 4.595469e+002
3.860849e+002, 4.595401e+002
3.865670e+002, 4.594712e+002
3.870491e+002, 4.601830e+002
3.875312e+002, 4.613252e+002
3.880133e+002, 4.621944e+002
3.884955e+002, 4.621686e+002
3.889776e+002, 4.620637e+002
3.894597e+002, 4.627838e+002
3.899418e+002, 4.641899e+002
3.904239e+002, 4.654515e+002
3.909060e+002, 4.655035e+002
3.913882e+002, 4.654769e+002
3.918703e+002, 4.665865e+002
3.923524e+002, 4.698368e+002
3.928345e+002, 4.726584e+002
3.933166e+002, 4.733871e+002
3.937987e+002, 4.728351e+002
3.942809e+002, 4.726243e+002
3.947630e+002, 4.732967e+002
3.952451e+002, 4.744117e+002
3.957272e+002, 4.759180e+002
3.962093e+002, 4.778858e+002
3.966914e+002, 4.796777e+002
3.971736e+002, 4.813366e+002
3.976557e+002, 4.826796e+002
3.981378e+002, 4.835407e+002
3.986199e+002, 4.831842e+002
3.991020e+002, 4.831382e+002
3.995841e+002, 4.837479e+002
4.000663e+002, 4.848953e+002
4.005484e+002, 4.858195e+002
4.010305e+002, 4.866306e+002
4.015126e+002, 4.871019e+002
4.019947e+002, 4.870160e+002
4.024768e+002, 4.858211e+002
4.029590e+002, 4.855078e+002
4.034411e+002, 4.866966e+002
4.039232e+002, 4.883234e+002
4.044053e+002, 4.884256e+002
4.048874e+002, 4.866296e+002
4.053695e+002, 4.844353e+002
4.058517e+002, 4.821499e+002
4.063338e+002, 4.798260e+002
4.068159e+002, 4.779585e+002
4.072980e+002, 4.766176e+002
4.077801e+002, 4.754932e+002
4.082622e+002, 4.743322e+002
4.087444e+002, 4.731301e+002
4.092265e+002, 4.719454e+002
4.097086e+002, 4.707796e+002
4.101907e+002, 4.696293e+002
4.106728e+002, 4.685479e+002
4.111549e+002, 4.675088e+002
4.116371e+002, 4.663060e+002
4.121192e+002, 4.646759e+002
4.126013e+002, 4.628133e+002
4.130834e+002, 4.610643e+002
