##NAMES=Coalingite
##RRUFFID=R110196
##IDEAL CHEMISTRY=Mg_10_Fe^3+^_2_CO_3_(OH)_24_&#183;2H_2_O
##LOCALITY=San Benito County, California (about 35 miles NW of Coalinga), USA
##OWNER=RRUFF
##SOURCE=James Shigley
##DESCRIPTION=Golden-reddish-brown flakes
##STATUS=The identification of this mineral has been confirmed by single-crystal X-ray diffraction.
##URL=rruff.info/R110196
113.7809, 1372.312
114.2630, 1369.898
114.7451, 1368.100
115.2272, 1367.209
115.7094, 1367.161
116.1915, 1366.945
116.6736, 1367.035
117.1557, 1366.518
117.6378, 1364.712
118.1199, 1361.881
118.6021, 1358.908
119.0842, 1356.416
119.5663, 1354.485
120.0484, 1353.340
120.5305, 1353.193
121.0126, 1353.640
121.4948, 1354.464
121.9769, 1355.664
122.4590, 1356.942
122.9411, 1358.464
123.4232, 1360.010
123.9053, 1360.292
124.3875, 1357.953
124.8696, 1353.947
125.3517, 1350.850
125.8338, 1348.817
126.3159, 1348.110
126.7980, 1349.297
127.2802, 1351.990
127.7623, 1354.385
128.2444, 1354.952
128.7265, 1353.537
129.2086, 1351.926
129.6907, 1351.243
130.1729, 1349.623
130.6550, 1346.067
131.1371, 1340.496
131.6192, 1333.551
132.1013, 1325.861
132.5834, 1316.107
133.0656, 1308.231
133.5477, 1303.390
134.0298, 1299.453
134.5119, 1294.759
134.9940, 1288.775
135.4761, 1282.144
135.9583, 1276.372
136.4404, 1271.501
136.9225, 1267.583
137.4046, 1264.959
137.8867, 1263.224
138.3688, 1262.274
138.8510, 1262.370
139.3331, 1262.504
139.8152, 1259.228
140.2973, 1250.719
140.7794, 1242.260
141.2615, 1236.241
141.7437, 1232.251
142.2258, 1228.329
142.7079, 1223.506
143.1900, 1218.091
143.6721, 1212.703
144.1542, 1206.841
144.6364, 1201.651
145.1185, 1198.999
145.6006, 1199.488
146.0827, 1198.850
146.5648, 1193.324
147.0469, 1185.953
147.5291, 1179.752
148.0112, 1175.969
148.4933, 1173.769
148.9754, 1171.301
149.4575, 1168.334
149.9396, 1165.484
150.4218, 1163.420
150.9039, 1161.470
151.3860, 1158.673
151.8681, 1154.311
152.3502, 1148.598
152.8323, 1143.645
153.3145, 1138.852
153.7966, 1135.588
154.2787, 1135.884
154.7608, 1137.975
155.2429, 1138.374
155.7250, 1134.013
156.2072, 1124.377
156.6893, 1117.809
157.1714, 1115.990
157.6535, 1114.968
158.1356, 1113.631
158.6177, 1111.694
159.0999, 1108.860
159.5820, 1104.598
160.0641, 1098.516
160.5462, 1094.245
161.0283, 1092.252
161.5104, 1091.638
161.9926, 1092.829
162.4747, 1095.794
162.9568, 1097.580
163.4389, 1094.050
163.9210, 1085.517
164.4031, 1078.340
164.8853, 1074.305
165.3674, 1072.031
165.8495, 1069.470
166.3316, 1066.060
166.8137, 1063.122
167.2958, 1062.398
167.7780, 1063.343
168.2601, 1063.972
168.7422, 1063.576
169.2243, 1062.162
169.7064, 1059.616
170.1885, 1055.101
170.6707, 1050.466
171.1528, 1046.573
171.6349, 1043.485
172.1170, 1041.303
172.5991, 1040.984
173.0812, 1042.725
173.5634, 1042.092
174.0455, 1035.514
174.5276, 1029.055
175.0097, 1025.230
175.4918, 1024.041
175.9739, 1024.131
176.4561, 1024.291
176.9382, 1024.794
177.4203, 1024.364
177.9024, 1022.417
178.3845, 1020.106
178.8666, 1017.854
179.3488, 1015.814
179.8309, 1014.027
180.3130, 1012.602
180.7951, 1011.711
181.2772, 1010.835
181.7593, 1010.253
182.2415, 1009.518
182.7236, 1008.393
183.2057, 1006.799
183.6878, 1004.652
184.1699, 1001.714
184.6520, 996.9172
185.1342, 993.6091
185.6163, 992.9051
186.0984, 993.2866
186.5805, 993.1155
187.0626, 991.8909
187.5447, 990.2865
188.0269, 989.6278
188.5090, 990.3671
188.9911, 990.1453
189.4732, 987.0965
189.9553, 982.9440
190.4374, 981.1790
190.9196, 983.5422
191.4017, 986.8969
191.8838, 986.2533
192.3659, 981.4163
192.8480, 976.9182
193.3301, 974.9684
193.8123, 975.0676
194.2944, 975.4252
194.7765, 975.7441
195.2586, 976.0016
195.7407, 976.4714
196.2228, 977.1684
196.7050, 977.1096
197.1871, 975.1184
197.6692, 971.3019
198.1513, 968.0617
198.6334, 966.1961
199.1155, 964.8271
199.5977, 963.2017
200.0798, 961.3202
200.5619, 959.8992
201.0440, 959.9739
201.5261, 961.8894
202.0082, 963.0245
202.4904, 962.7386
202.9725, 961.7906
203.4546, 960.0250
203.9367, 957.6398
204.4188, 955.5856
204.9009, 955.4430
205.3831, 958.4025
205.8652, 959.5527
206.3473, 957.6435
206.8294, 954.8773
207.3115, 952.1188
207.7936, 949.6910
208.2758, 947.7684
208.7579, 946.6310
209.2400, 946.4643
209.7221, 946.7875
210.2042, 947.3987
210.6863, 948.5231
211.1685, 950.8248
211.6506, 954.2086
212.1327, 957.4580
212.6148, 958.7731
213.0969, 957.0296
213.5790, 955.4645
214.0612, 953.5404
214.5433, 952.0956
215.0254, 952.0370
215.5075, 953.5063
215.9896, 955.5940
216.4717, 957.0554
216.9539, 957.7526
217.4360, 957.9724
217.9181, 957.1695
218.4002, 956.1642
218.8823, 955.9114
219.3644, 956.6485
219.8466, 957.5775
220.3287, 957.4923
220.8108, 956.1377
221.2929, 955.2681
221.7750, 955.2042
222.2571, 955.7182
222.7393, 956.7149
223.2214, 958.2598
223.7035, 959.7748
224.1856, 960.2281
224.6677, 959.7040
225.1498, 959.7842
225.6320, 961.4486
226.1141, 963.8300
226.5962, 965.4579
227.0783, 965.9724
227.5604, 966.0989
228.0425, 966.3969
228.5247, 966.8605
229.0068, 967.6262
229.4889, 968.8307
229.9710, 970.3605
230.4531, 972.0750
230.9352, 974.1579
231.4174, 975.9737
231.8995, 976.8935
232.3816, 977.1634
232.8637, 977.4174
233.3458, 978.1072
233.8279, 979.0306
234.3101, 979.5765
234.7922, 979.7936
235.2743, 979.4513
235.7564, 978.3307
236.2385, 976.6518
236.7206, 974.8114
237.2028, 972.8377
237.6849, 970.8762
238.1670, 969.6584
238.6491, 970.0710
239.1312, 969.8672
239.6133, 967.5175
240.0955, 964.0897
240.5776, 961.3551
241.0597, 960.4376
241.5418, 961.0293
242.0239, 961.6852
242.5060, 962.4121
242.9882, 963.2095
243.4703, 964.4086
243.9524, 965.6094
244.4345, 966.1171
244.9166, 965.3795
245.3987, 963.8177
245.8809, 963.5271
246.3630, 966.1993
246.8451, 967.9615
247.3272, 967.3671
247.8093, 965.6376
248.2914, 964.4206
248.7736, 964.6469
249.2557, 965.8739
249.7378, 966.2684
250.2199, 964.5499
250.7020, 963.5857
251.1841, 964.2043
251.6663, 965.6109
252.1484, 966.9478
252.6305, 967.8145
253.1126, 968.2278
253.5947, 968.2258
254.0768, 966.6264
254.5590, 966.0970
255.0411, 967.3994
255.5232, 969.6054
256.0053, 971.8057
256.4874, 973.6064
256.9695, 975.0590
257.4517, 976.2852
257.9338, 977.5251
258.4159, 978.1779
258.8980, 977.1915
259.3801, 976.0644
259.8622, 976.7409
260.3444, 979.8455
260.8265, 983.8711
261.3086, 985.9467
261.7907, 984.1992
262.2728, 983.3497
262.7549, 984.5392
263.2371, 986.1184
263.7192, 985.8013
264.2013, 983.0762
264.6834, 980.4099
265.1655, 981.8466
265.6476, 990.5480
266.1298, 995.5294
266.6119, 993.3050
267.0940, 989.1060
267.5761, 987.9250
268.0582, 990.7041
268.5403, 994.9421
269.0225, 998.0199
269.5046, 999.8494
269.9867, 1000.079
270.4688, 997.0686
270.9509, 993.4690
271.4330, 991.1967
271.9152, 990.5484
272.3973, 991.5983
272.8794, 995.2003
273.3615, 1001.537
273.8436, 1004.851
274.3257, 1002.645
274.8079, 999.0943
275.2900, 997.3184
275.7721, 997.4640
276.2542, 998.3217
276.7363, 999.2306
277.2184, 1000.096
277.7006, 1000.511
278.1827, 1000.158
278.6648, 999.5963
279.1469, 999.2278
279.6290, 999.0274
280.1111, 998.6933
280.5933, 997.8913
281.0754, 996.8870
281.5575, 996.5602
282.0396, 997.8449
282.5217, 998.6844
283.0038, 997.4639
283.4860, 994.5341
283.9681, 991.7477
284.4502, 990.0626
284.9323, 988.9192
285.4144, 987.0737
285.8965, 984.2428
286.3787, 981.4413
286.8608, 979.1588
287.3429, 977.3525
287.8250, 975.9355
288.3071, 975.1520
288.7892, 974.3662
289.2714, 972.5234
289.7535, 969.4923
290.2356, 966.6553
290.7177, 964.9069
291.1998, 963.8464
291.6819, 962.3449
292.1641, 960.0270
292.6462, 957.4554
293.1283, 955.3961
293.6104, 953.7736
294.0925, 951.7326
294.5746, 947.8963
295.0568, 943.5922
295.5389, 942.0374
296.0210, 944.5061
296.5031, 947.0215
296.9852, 945.2040
297.4673, 940.5355
297.9495, 936.9717
298.4316, 936.9267
298.9137, 938.2878
299.3958, 937.5295
299.8779, 934.0636
300.3600, 930.9947
300.8422, 931.5665
301.3243, 933.7803
301.8064, 934.0583
302.2885, 930.3217
302.7706, 925.5944
303.2527, 923.7027
303.7349, 924.8672
304.2170, 925.5839
304.6991, 923.6868
305.1812, 920.6198
305.6633, 918.3525
306.1454, 917.2874
306.6276, 916.6428
307.1097, 916.1804
307.5918, 915.8353
308.0739, 914.1509
308.5560, 909.1808
309.0381, 904.0296
309.5203, 902.5896
310.0024, 905.3060
310.4845, 907.9799
310.9666, 907.3981
311.4487, 904.2034
311.9308, 901.5460
312.4130, 900.0978
312.8951, 899.2807
313.3772, 898.6586
313.8593, 898.1932
314.3414, 897.6675
314.8235, 897.1034
315.3057, 896.3926
315.7878, 895.1845
316.2699, 893.3152
316.7520, 891.2793
317.2341, 889.3372
317.7162, 887.5121
318.1984, 885.8712
318.6805, 884.3105
319.1626, 883.0192
319.6447, 882.5596
320.1268, 883.1838
320.6089, 883.3887
321.0911, 881.8937
321.5732, 879.5522
322.0553, 877.4645
322.5374, 875.7838
323.0195, 874.5102
323.5016, 874.0402
323.9838, 874.3846
324.4659, 873.8631
324.9480, 871.2102
325.4301, 867.7774
325.9122, 864.9847
326.3943, 862.7644
326.8765, 861.8189
327.3586, 863.7926
327.8407, 867.9508
328.3228, 869.9495
328.8049, 867.8937
329.2870, 864.5856
329.7692, 862.9652
330.2513, 862.8884
330.7334, 862.8555
331.2155, 862.1311
331.6976, 860.9379
332.1797, 859.6379
332.6619, 858.0560
333.1440, 856.9687
333.6261, 857.5276
334.1082, 859.1116
334.5903, 860.2799
335.0724, 860.4650
335.5546, 860.0676
336.0367, 859.6395
336.5188, 859.2188
337.0009, 858.3873
337.4830, 856.5015
337.9651, 854.1647
338.4473, 852.4746
338.9294, 851.5272
339.4115, 851.2865
339.8936, 852.2240
340.3757, 854.1267
340.8578, 855.2719
341.3400, 854.6572
341.8221, 853.3419
342.3042, 852.9503
342.7863, 853.5685
343.2684, 854.4866
343.7505, 855.8677
344.2327, 857.2755
344.7148, 857.4127
345.1969, 855.6466
345.6790, 853.5319
346.1611, 853.2542
346.6432, 854.4824
347.1254, 854.9476
347.6075, 853.3586
348.0896, 851.0328
348.5717, 849.6757
349.0538, 849.4522
349.5359, 849.3578
350.0181, 848.3887
350.5002, 846.9343
350.9823, 846.6331
351.4644, 848.8300
351.9465, 851.1298
352.4286, 851.9420
352.9108, 851.4457
353.3929, 850.4447
353.8750, 849.1575
354.3571, 847.7660
354.8392, 846.7546
355.3214, 846.3252
355.8035, 845.7672
356.2856, 844.7488
356.7677, 843.4484
357.2498, 842.0018
357.7319, 840.3510
358.2141, 839.1118
358.6962, 839.4519
359.1783, 841.7727
359.6604, 843.0995
360.1425, 842.7186
360.6246, 841.4418
361.1068, 839.6249
361.5889, 837.4193
362.0710, 835.7604
362.5531, 835.6412
363.0352, 837.0186
363.5173, 837.2888
363.9995, 834.3137
364.4816, 832.4369
364.9637, 835.2641
365.4458, 840.9527
365.9279, 844.3992
366.4100, 842.6282
366.8922, 837.5822
367.3743, 835.6644
367.8564, 839.7711
368.3385, 842.6674
368.8206, 842.6224
369.3027, 841.2382
369.7849, 840.2076
370.2670, 840.0308
370.7491, 840.4437
371.2312, 841.2568
371.7133, 843.1337
372.1954, 843.1200
372.6776, 839.1210
373.1597, 835.1339
373.6418, 833.9684
374.1239, 835.2908
374.6060, 836.6951
375.0881, 836.1283
375.5703, 833.7032
376.0524, 833.2245
376.5345, 836.8504
377.0166, 839.9091
377.4987, 841.0363
377.9808, 841.0367
378.4630, 841.2607
378.9451, 842.3359
379.4272, 843.6610
379.9093, 843.7043
380.3914, 841.0295
380.8735, 839.4820
381.3557, 839.8395
381.8378, 840.7862
382.3199, 841.5370
382.8020, 841.8818
383.2841, 841.7949
383.7662, 840.8807
384.2484, 838.6788
384.7305, 838.8649
385.2126, 844.3626
385.6947, 849.5147
386.1768, 852.6843
386.6589, 854.1218
387.1411, 854.4768
387.6232, 853.9078
388.1053, 852.9060
388.5874, 853.4399
389.0695, 856.8078
389.5516, 859.2383
390.0338, 859.7070
390.5159, 859.0994
390.9980, 858.1472
391.4801, 857.0579
391.9622, 855.6848
392.4443, 853.9942
392.9265, 852.0677
393.4086, 849.0778
393.8907, 844.0452
394.3728, 838.7116
394.8549, 833.8651
395.3370, 829.5650
395.8192, 825.8302
396.3013, 822.6328
396.7834, 820.0080
397.2655, 818.1307
397.7476, 817.0986
398.2297, 816.5763
398.7119, 817.2097
399.1940, 817.9950
399.6761, 817.3727
400.1582, 814.4015
400.6403, 811.1498
401.1224, 810.1194
401.6046, 811.1335
402.0867, 811.1318
402.5688, 808.0869
403.0509, 804.9409
403.5330, 805.6917
404.0151, 810.4242
404.4973, 814.3812
404.9794, 815.0974
405.4615, 813.8001
405.9436, 812.2802
406.4257, 810.6436
406.9078, 809.6750
407.3900, 810.4476
407.8721, 812.5753
408.3542, 813.9290
408.8363, 814.0361
409.3184, 813.6299
409.8005, 812.9375
410.2827, 812.0733
410.7648, 811.3690
411.2469, 810.9166
411.7290, 810.8121
412.2111, 811.4161
412.6932, 813.1148
413.1754, 814.4376
413.6575, 814.8282
414.1396, 814.8799
414.6217, 815.0331
415.1038, 815.4208
415.5859, 816.4306
416.0681, 818.7695
416.5502, 822.7610
417.0323, 824.0455
417.5144, 819.4388
417.9965, 815.8857
418.4786, 817.5691
418.9608, 822.2206
419.4429, 824.9395
419.9250, 823.0949
420.4071, 818.6890
420.8892, 817.3113
421.3713, 821.3975
421.8535, 825.0193
422.3356, 828.6636
422.8177, 831.3808
423.2998, 831.8945
423.7819, 830.3863
424.2640, 828.5585
424.7462, 828.0630
425.2283, 828.9268
425.7104, 830.7213
426.1925, 834.9549
426.6746, 838.4873
427.1567, 840.1675
427.6389, 840.6273
428.1210, 840.7597
428.6031, 840.9146
429.0852, 841.2715
429.5673, 842.1631
430.0494, 843.5865
430.5316, 845.5535
431.0137, 847.9993
431.4958, 851.0795
431.9779, 855.7872
432.4600, 861.8588
432.9421, 866.5397
433.4243, 866.5551
433.9064, 863.1865
434.3885, 862.1923
434.8706, 864.5646
435.3527, 867.6233
435.8348, 870.0548
436.3170, 871.9456
436.7991, 873.2549
437.2812, 873.2894
437.7633, 873.6852
438.2454, 876.4835
438.7275, 881.3087
439.2097, 885.4191
439.6918, 887.6384
440.1739, 889.0594
440.6560, 891.4059
441.1381, 894.7708
441.6202, 897.7611
442.1024, 900.2473
442.5845, 902.0159
443.0666, 902.4890
443.5487, 901.7166
444.0308, 900.8703
444.5129, 900.8894
444.9951, 901.6393
445.4772, 901.8009
445.9593, 901.1063
446.4414, 900.2379
446.9235, 899.6199
447.4056, 898.8950
447.8878, 897.5043
448.3699, 895.2615
448.8520, 892.4019
449.3341, 889.1783
449.8162, 885.2214
450.2983, 882.0247
450.7805, 879.8125
451.2626, 878.0323
451.7447, 876.9026
452.2268, 875.9811
452.7089, 874.2679
453.1910, 871.0394
453.6732, 866.6426
454.1553, 862.5235
454.6374, 858.6573
455.1195, 855.1406
455.6016, 852.8156
456.0837, 850.2850
456.5659, 845.6544
457.0480, 838.8508
457.5301, 832.7117
458.0122, 831.0613
458.4943, 833.7659
458.9764, 833.9606
459.4586, 829.9989
459.9407, 825.6131
460.4228, 822.7629
460.9049, 820.8802
461.3870, 818.9989
461.8691, 816.8639
462.3513, 814.4644
462.8334, 811.6263
463.3155, 808.3782
463.7976, 805.4117
464.2797, 802.8174
464.7618, 800.7741
465.2440, 799.6197
465.7261, 799.3582
466.2082, 799.0592
466.6903, 798.6241
467.1724, 797.8701
467.6545, 796.2857
468.1367, 793.9161
468.6188, 791.9121
469.1009, 791.2410
469.5830, 791.5220
470.0651, 790.7855
470.5472, 787.6172
471.0294, 785.3606
471.5115, 785.5429
471.9936, 786.8166
472.4757, 787.4698
472.9578, 787.0737
473.4399, 786.3625
473.9221, 786.2782
474.4042, 787.0594
474.8863, 787.0466
475.3684, 785.3412
475.8505, 783.8871
476.3326, 783.4354
476.8148, 783.7222
477.2969, 784.4093
477.7790, 785.3598
478.2611, 786.1504
478.7432, 785.7386
479.2253, 783.6198
479.7075, 781.7397
480.1896, 779.6423
480.6717, 778.4089
481.1538, 779.4924
481.6359, 782.2755
482.1180, 784.1935
482.6002, 782.6713
483.0823, 779.2960
483.5644, 778.9848
484.0465, 782.6776
484.5286, 786.0036
485.0107, 786.8568
485.4929, 786.3710
485.9750, 785.6182
486.4571, 784.5271
486.9392, 784.0876
487.4213, 785.6503
487.9034, 788.1924
488.3856, 789.1406
488.8677, 787.9075
489.3498, 786.5908
489.8319, 787.1013
490.3140, 789.3178
490.7961, 790.9059
491.2783, 790.8213
491.7604, 791.2314
492.2425, 793.6989
492.7246, 797.2560
493.2067, 800.0286
493.6888, 801.3508
494.1710, 802.0413
494.6531, 803.2958
495.1352, 805.1947
495.6173, 807.4750
496.0994, 810.8531
496.5815, 813.8654
497.0637, 814.9761
497.5458, 815.2098
498.0279, 816.8938
498.5100, 821.4431
498.9921, 827.7049
499.4742, 833.0032
499.9564, 837.4424
500.4385, 840.5593
500.9206, 839.8635
501.4027, 839.7684
501.8848, 843.0878
502.3669, 849.7379
502.8491, 857.8400
503.3312, 867.0356
503.8133, 876.5422
504.2954, 883.8567
504.7775, 888.4668
505.2596, 893.1697
505.7418, 898.9958
506.2239, 905.8024
506.7060, 913.5353
507.1881, 922.4448
507.6702, 931.1522
508.1523, 938.5302
508.6345, 945.4023
509.1166, 953.0839
509.5987, 961.8025
510.0808, 971.1974
510.5629, 981.0626
511.0450, 991.3559
511.5272, 1001.959
512.0093, 1012.526
512.4914, 1023.812
512.9735, 1036.741
513.4556, 1050.258
513.9377, 1063.212
514.4199, 1075.176
514.9020, 1086.421
515.3841, 1097.052
515.8662, 1106.943
516.3483, 1116.982
516.8304, 1126.887
517.3126, 1137.240
517.7947, 1149.231
518.2768, 1161.433
518.7589, 1171.599
519.2410, 1178.773
519.7231, 1184.643
520.2053, 1192.194
520.6874, 1201.699
521.1695, 1208.470
521.6516, 1210.611
522.1337, 1211.418
522.6158, 1213.652
523.0980, 1216.525
523.5801, 1217.733
524.0622, 1216.058
524.5443, 1212.775
525.0264, 1209.132
525.5085, 1205.047
525.9907, 1200.342
526.4728, 1195.135
526.9549, 1188.824
527.4370, 1180.288
527.9191, 1169.208
528.4012, 1157.706
528.8834, 1145.088
529.3655, 1132.883
529.8476, 1123.042
530.3297, 1114.566
530.8118, 1104.319
531.2939, 1090.434
531.7761, 1074.814
532.2582, 1062.533
532.7403, 1056.892
533.2224, 1048.489
533.7045, 1035.166
534.1866, 1021.194
534.6688, 1008.453
535.1509, 997.2444
535.6330, 987.6511
536.1151, 980.2057
536.5972, 973.7760
537.0793, 964.7170
537.5615, 952.1028
538.0436, 940.9179
538.5257, 933.8251
539.0078, 927.9445
539.4899, 920.7754
539.9720, 912.2817
540.4542, 903.8681
540.9363, 896.3054
541.4184, 889.2171
541.9005, 881.9155
542.3826, 874.4220
542.8647, 867.5974
543.3469, 862.0014
543.8290, 857.1986
544.3111, 852.0667
544.7932, 846.5916
545.2753, 840.9271
545.7574, 834.2789
546.2396, 827.9859
546.7217, 823.6523
547.2038, 820.9407
547.6859, 818.0332
548.1680, 813.5637
548.6501, 808.0007
549.1323, 803.4115
549.6144, 800.0596
550.0965, 797.3319
550.5786, 795.6376
551.0607, 794.0707
551.5428, 792.0694
552.0250, 789.5618
552.5071, 786.6877
552.9892, 783.3873
553.4713, 779.8421
553.9534, 776.5244
554.4355, 773.4528
554.9177, 770.5150
555.3998, 767.5266
555.8819, 764.7609
556.3640, 762.5944
556.8461, 761.1014
557.3282, 759.6490
557.8104, 757.9180
558.2925, 756.1299
558.7746, 754.6822
559.2567, 753.5132
559.7388, 752.1055
560.2209, 750.1253
560.7031, 747.6973
561.1852, 745.2159
561.6673, 742.3975
562.1494, 739.9023
562.6315, 737.6530
563.1136, 735.7986
563.5958, 734.6423
564.0779, 734.0140
564.5600, 733.4420
565.0421, 732.6536
565.5242, 731.5626
566.0063, 729.7330
566.4885, 726.7748
566.9706, 724.2404
567.4527, 722.6737
567.9348, 721.5471
568.4169, 720.7816
568.8990, 720.2531
569.3812, 719.2994
569.8633, 717.0563
570.3454, 714.4717
570.8275, 713.1495
571.3096, 713.0001
571.7917, 712.4948
572.2739, 710.8773
572.7560, 708.7342
573.2381, 707.1189
573.7202, 706.1667
574.2023, 705.1509
574.6844, 703.5436
575.1666, 702.2509
575.6487, 702.3314
576.1308, 703.2506
576.6129, 703.6151
577.0950, 702.6949
577.5771, 700.8466
578.0593, 698.6358
578.5414, 695.4003
579.0235, 693.6164
579.5056, 695.2611
579.9877, 696.6520
580.4698, 695.5367
580.9520, 692.8930
581.4341, 691.1779
581.9162, 691.6944
582.3983, 693.1743
582.8804, 694.5192
583.3625, 695.5945
583.8447, 694.4775
584.3268, 689.8290
584.8089, 684.9298
585.2910, 683.5439
585.7731, 685.3131
586.2552, 686.5153
586.7374, 687.2784
587.2195, 686.9413
587.7016, 683.8175
588.1837, 679.7086
588.6658, 677.9567
589.1479, 679.4939
589.6301, 682.3368
590.1122, 684.2189
590.5943, 685.1526
591.0764, 684.8978
591.5585, 681.6364
592.0406, 679.3035
592.5228, 679.8948
593.0049, 681.3954
593.4870, 680.9373
593.9691, 677.8624
594.4512, 675.1885
594.9333, 676.8861
595.4155, 681.6008
595.8976, 683.0631
596.3797, 680.3480
596.8618, 676.9792
597.3439, 674.7740
597.8260, 673.4078
598.3082, 671.9241
598.7903, 669.9981
599.2724, 668.7816
599.7545, 669.6451
600.2366, 670.7860
600.7188, 669.6437
601.2009, 666.5223
601.6830, 664.5004
602.1651, 665.9150
602.6472, 669.3627
603.1293, 669.3948
603.6115, 662.8401
604.0936, 658.7175
604.5757, 659.4350
605.0578, 660.9094
605.5399, 660.8434
606.0220, 659.3176
606.5042, 657.3544
606.9863, 655.3189
607.4684, 653.4677
607.9505, 652.0756
608.4326, 651.1532
608.9147, 651.3000
609.3969, 653.1805
609.8790, 655.2490
610.3611, 655.7781
610.8432, 654.8850
