##NAMES=Coalingite
##RRUFFID=R110197
##IDEAL CHEMISTRY=Mg_10_Fe^3+^_2_CO_3_(OH)_24_&#183;2H_2_O
##LOCALITY=Hunting Hill quarry, Rockville, Montgomery County, Maryland, USA
##OWNER=RRUFF
##SOURCE=Donald Doell
##DESCRIPTION=Reddish-brown flakes
##STATUS=The identification of this mineral has been confirmed only by single crystal X-ray diffraction.
##URL=rruff.info/R110197
192.2188, 730.5490
192.7009, 733.4930
193.1830, 736.6893
193.6652, 740.1213
194.1473, 743.7277
194.6294, 747.6780
195.1115, 751.9016
195.5936, 755.3958
196.0757, 757.9592
196.5579, 760.0273
197.0400, 762.3511
197.5221, 764.9302
198.0042, 767.7265
198.4863, 770.7703
198.9684, 774.0516
199.4506, 777.5253
199.9327, 781.2028
200.4148, 785.0095
200.8969, 788.8704
201.3790, 792.9208
201.8611, 796.5496
202.3433, 799.0291
202.8254, 800.1729
203.3075, 802.7381
203.7896, 807.6252
204.2717, 813.4069
204.7538, 816.1298
205.2360, 815.2142
205.7181, 813.3737
206.2002, 811.9444
206.6823, 810.8504
207.1644, 810.5304
207.6465, 811.0106
208.1287, 812.2623
208.6108, 814.4222
209.0929, 817.7800
209.5750, 821.2326
210.0571, 824.0519
210.5392, 826.1339
211.0214, 828.1661
211.5035, 830.2246
211.9856, 832.2781
212.4677, 834.2747
212.9498, 836.2454
213.4319, 838.1541
213.9140, 840.0457
214.3962, 842.0104
214.8783, 843.6483
215.3604, 844.6625
215.8425, 845.3677
216.3246, 847.0577
216.8067, 850.1204
217.2889, 853.4303
217.7710, 856.3434
218.2531, 858.7782
218.7352, 861.0206
219.2173, 863.0161
219.6994, 864.8411
220.1816, 866.7573
220.6637, 868.7023
221.1458, 870.8466
221.6279, 873.3621
222.1100, 876.5775
222.5921, 879.2534
223.0743, 880.8956
223.5564, 881.9047
224.0385, 884.4007
224.5206, 889.0450
225.0027, 894.0664
225.4848, 898.3586
225.9670, 901.5234
226.4491, 904.9266
226.9312, 908.8967
227.4133, 913.2225
227.8954, 916.9382
228.3775, 919.4060
228.8597, 922.1014
229.3418, 925.9603
229.8239, 931.5106
230.3060, 937.0533
230.7881, 942.9769
231.2702, 948.8434
231.7524, 952.1662
232.2345, 951.6830
232.7166, 950.3576
233.1987, 950.1373
233.6808, 952.5429
234.1629, 952.4963
234.6451, 948.5150
235.1272, 941.7355
235.6093, 937.1451
236.0914, 935.5300
236.5735, 935.0172
237.0556, 934.6711
237.5378, 934.6650
238.0199, 934.4965
238.5020, 934.2096
238.9841, 933.7706
239.4662, 932.8229
239.9483, 930.3426
240.4305, 928.8055
240.9126, 929.7623
241.3947, 934.8146
241.8768, 938.8753
242.3589, 941.5165
242.8410, 943.0336
243.3232, 944.4117
243.8053, 945.3204
244.2874, 946.5276
244.7695, 948.5580
245.2516, 952.2744
245.7337, 954.7635
246.2159, 955.2135
246.6980, 954.4446
247.1801, 955.1858
247.6622, 958.2175
248.1443, 961.5513
248.6264, 964.1498
249.1086, 965.4719
249.5907, 967.4333
250.0728, 970.4418
250.5549, 974.0098
251.0370, 976.8973
251.5191, 979.2473
252.0013, 980.7340
252.4834, 980.7985
252.9655, 977.8286
253.4476, 977.8585
253.9297, 982.1056
254.4118, 988.8176
254.8940, 994.2684
255.3761, 998.3375
255.8582, 1001.364
256.3403, 1003.280
256.8224, 1003.644
257.3046, 1004.192
257.7867, 1004.555
258.2688, 1005.293
258.7509, 1007.840
259.2330, 1013.327
259.7151, 1018.213
260.1973, 1020.991
260.6794, 1021.093
261.1615, 1021.366
261.6436, 1021.732
262.1257, 1022.341
262.6078, 1023.380
263.0900, 1024.695
263.5721, 1026.888
264.0542, 1030.709
264.5363, 1036.832
265.0184, 1040.178
265.5005, 1039.629
265.9827, 1037.740
266.4648, 1038.291
266.9469, 1041.985
267.4290, 1046.139
267.9111, 1050.395
268.3932, 1054.843
268.8754, 1057.058
269.3575, 1056.241
269.8396, 1054.376
270.3217, 1053.772
270.8038, 1054.401
271.2859, 1056.380
271.7681, 1060.376
272.2502, 1066.234
272.7323, 1069.704
273.2144, 1069.984
273.6965, 1069.364
274.1786, 1070.479
274.6608, 1073.770
275.1429, 1076.491
275.6250, 1077.951
276.1071, 1078.268
276.5892, 1078.091
277.0714, 1077.162
277.5535, 1076.495
278.0356, 1077.362
278.5177, 1079.964
278.9998, 1081.941
279.4819, 1082.784
279.9641, 1082.637
280.4462, 1081.917
280.9283, 1080.480
281.4104, 1079.055
281.8925, 1078.479
282.3746, 1078.779
282.8568, 1078.293
283.3389, 1076.527
283.8210, 1074.027
284.3031, 1072.340
284.7852, 1071.562
285.2673, 1070.983
285.7495, 1070.310
286.2316, 1069.525
286.7137, 1068.038
287.1958, 1065.576
287.6779, 1062.702
288.1600, 1060.361
288.6422, 1058.546
289.1243, 1057.474
289.6064, 1057.995
290.0885, 1059.625
290.5706, 1059.658
291.0527, 1057.513
291.5349, 1054.452
292.0170, 1052.360
292.4991, 1051.187
292.9812, 1050.321
293.4633, 1049.192
293.9454, 1048.084
294.4276, 1048.389
294.9097, 1050.532
295.3918, 1052.520
295.8739, 1051.144
296.3560, 1047.110
296.8381, 1043.663
297.3203, 1042.939
297.8024, 1043.785
298.2845, 1043.669
298.7666, 1042.446
299.2487, 1041.275
299.7308, 1041.943
300.2130, 1043.698
300.6951, 1044.337
301.1772, 1041.721
301.6593, 1038.109
302.1414, 1036.899
302.6235, 1038.057
303.1057, 1039.852
303.5878, 1041.571
304.0699, 1042.842
304.5520, 1042.872
305.0341, 1040.646
305.5162, 1037.790
305.9984, 1035.821
306.4805, 1034.710
306.9626, 1034.122
307.4447, 1034.369
307.9268, 1034.849
308.4089, 1034.757
308.8911, 1033.721
309.3732, 1032.322
309.8553, 1030.932
310.3374, 1029.551
310.8195, 1028.140
311.3016, 1026.549
311.7838, 1025.002
312.2659, 1023.633
312.7480, 1022.371
313.2301, 1021.533
313.7122, 1021.717
314.1943, 1022.454
314.6765, 1022.756
315.1586, 1022.158
315.6407, 1021.011
316.1228, 1019.230
316.6049, 1016.489
317.0870, 1014.546
317.5692, 1014.727
318.0513, 1016.070
318.5334, 1017.232
319.0155, 1017.395
319.4976, 1017.618
319.9797, 1018.854
320.4619, 1021.357
320.9440, 1022.332
321.4261, 1018.964
321.9082, 1014.515
322.3903, 1012.090
322.8724, 1014.595
323.3546, 1016.896
323.8367, 1017.786
324.3188, 1017.252
324.8009, 1015.978
325.2830, 1012.253
325.7651, 1008.969
326.2473, 1008.016
326.7294, 1013.186
327.2115, 1016.557
327.6936, 1016.494
328.1757, 1013.738
328.6578, 1011.948
329.1400, 1011.823
329.6221, 1012.160
330.1042, 1012.504
330.5863, 1013.241
331.0684, 1013.297
331.5505, 1011.641
332.0327, 1009.471
332.5148, 1009.613
332.9969, 1013.902
333.4790, 1017.976
333.9611, 1020.252
334.4432, 1020.120
334.9254, 1020.563
335.4075, 1022.080
335.8896, 1023.690
336.3717, 1023.842
336.8538, 1021.739
337.3359, 1020.068
337.8180, 1019.662
338.3001, 1020.501
338.7823, 1021.272
339.2644, 1022.056
339.7465, 1022.645
340.2286, 1022.751
340.7107, 1022.289
341.1928, 1021.978
341.6750, 1022.019
342.1571, 1022.324
342.6392, 1022.613
343.1213, 1022.945
343.6034, 1023.007
344.0855, 1022.239
344.5677, 1020.715
345.0498, 1020.190
345.5319, 1021.201
346.0140, 1022.772
346.4961, 1022.837
346.9782, 1021.455
347.4604, 1020.143
347.9425, 1019.530
348.4246, 1019.650
348.9067, 1020.799
349.3888, 1023.096
349.8709, 1025.897
350.3531, 1028.924
350.8352, 1031.932
351.3173, 1034.010
351.7994, 1034.158
352.2815, 1033.339
352.7636, 1033.320
353.2458, 1034.093
353.7279, 1034.587
354.2100, 1033.770
354.6921, 1032.063
355.1742, 1030.156
355.6563, 1027.833
356.1385, 1025.815
356.6206, 1024.622
357.1027, 1024.265
357.5848, 1024.817
358.0669, 1027.401
358.5490, 1030.375
359.0312, 1032.143
359.5133, 1032.168
359.9954, 1031.535
360.4775, 1030.385
360.9596, 1029.050
361.4417, 1028.242
361.9239, 1029.054
362.4060, 1029.861
362.8881, 1029.403
363.3702, 1027.125
363.8523, 1025.930
364.3344, 1027.865
364.8166, 1030.999
365.2987, 1033.147
365.7808, 1031.842
366.2629, 1031.408
366.7450, 1034.009
367.2271, 1039.622
367.7093, 1042.870
368.1914, 1041.074
368.6735, 1037.998
369.1556, 1036.059
369.6377, 1035.385
370.1198, 1035.887
370.6020, 1038.800
371.0841, 1043.053
371.5662, 1044.601
372.0483, 1040.924
372.5304, 1037.576
373.0125, 1037.195
373.4947, 1041.591
373.9768, 1043.564
374.4589, 1041.931
374.9410, 1038.842
375.4231, 1037.856
375.9052, 1039.649
376.3874, 1041.686
376.8695, 1043.275
377.3516, 1044.459
377.8337, 1045.736
378.3158, 1047.342
378.7979, 1048.522
379.2801, 1048.002
379.7622, 1045.653
380.2443, 1044.682
380.7264, 1046.049
381.2085, 1048.905
381.6906, 1051.004
382.1728, 1052.316
382.6549, 1053.560
383.1370, 1054.784
383.6191, 1056.227
384.1012, 1059.208
384.5833, 1064.284
385.0655, 1069.465
385.5476, 1072.402
386.0297, 1073.272
386.5118, 1072.572
386.9939, 1069.713
387.4760, 1065.764
387.9582, 1062.482
388.4403, 1059.892
388.9224, 1056.742
389.4045, 1051.456
389.8866, 1045.181
390.3687, 1039.449
390.8509, 1034.421
391.3330, 1030.587
391.8151, 1029.045
392.2972, 1029.242
392.7793, 1028.864
393.2614, 1026.449
393.7436, 1023.242
394.2257, 1019.929
394.7078, 1016.346
395.1899, 1013.413
395.6720, 1011.784
396.1541, 1010.938
396.6363, 1010.039
397.1184, 1007.785
397.6005, 1006.455
398.0826, 1007.425
398.5647, 1011.179
399.0468, 1013.498
399.5290, 1012.912
400.0111, 1011.328
400.4932, 1010.269
400.9753, 1009.916
401.4574, 1009.862
401.9395, 1010.007
402.4217, 1010.418
402.9038, 1011.487
403.3859, 1013.775
403.8680, 1015.910
404.3501, 1017.158
404.8322, 1017.186
405.3144, 1017.480
405.7965, 1018.163
406.2786, 1018.963
406.7607, 1019.275
407.2428, 1018.910
407.7249, 1019.126
408.2071, 1020.613
408.6892, 1023.090
409.1713, 1024.749
409.6534, 1025.543
410.1355, 1025.786
410.6176, 1025.228
411.0998, 1024.147
411.5819, 1024.395
412.0640, 1026.781
412.5461, 1029.888
413.0282, 1031.436
413.5103, 1031.598
413.9925, 1031.453
414.4746, 1031.285
414.9567, 1031.323
415.4388, 1032.260
415.9209, 1034.311
416.4030, 1035.857
416.8852, 1034.712
417.3673, 1032.312
417.8494, 1030.995
418.3315, 1033.322
418.8136, 1035.660
419.2957, 1034.985
419.7779, 1031.849
420.2600, 1029.839
420.7421, 1031.015
421.2242, 1033.722
421.7063, 1036.966
422.1884, 1041.698
422.6706, 1044.932
423.1527, 1044.743
423.6348, 1042.733
424.1169, 1041.916
424.5990, 1043.455
425.0811, 1045.532
425.5633, 1047.571
426.0454, 1049.458
426.5275, 1051.966
427.0096, 1055.969
427.4917, 1059.889
427.9738, 1062.337
428.4560, 1062.423
428.9381, 1062.804
429.4202, 1063.582
429.9023, 1064.867
430.3844, 1067.431
430.8665, 1071.862
431.3487, 1075.858
431.8308, 1078.219
432.3129, 1078.892
432.7950, 1078.834
433.2771, 1077.719
433.7592, 1076.801
434.2414, 1078.072
434.7235, 1081.348
435.2056, 1084.339
435.6877, 1086.400
436.1698, 1087.683
436.6519, 1087.867
437.1341, 1087.081
437.6162, 1087.377
438.0983, 1091.484
438.5804, 1097.424
439.0625, 1101.618
439.5446, 1103.138
440.0268, 1104.029
440.5089, 1106.197
440.9910, 1109.085
441.4731, 1111.520
441.9552, 1112.743
442.4373, 1113.535
442.9195, 1114.205
443.4016, 1114.780
443.8837, 1115.713
444.3658, 1118.215
444.8479, 1120.556
445.3300, 1121.319
445.8122, 1118.605
446.2943, 1116.405
446.7764, 1115.566
447.2585, 1115.709
447.7406, 1115.878
448.2227, 1116.584
448.7049, 1116.734
449.1870, 1115.955
449.6691, 1114.147
450.1512, 1112.042
450.6333, 1109.259
451.1154, 1106.649
451.5976, 1105.317
452.0797, 1106.033
452.5618, 1105.468
453.0439, 1102.693
453.5260, 1098.561
454.0081, 1095.369
454.4903, 1093.117
454.9724, 1091.802
455.4545, 1092.279
455.9366, 1094.059
456.4187, 1093.262
456.9008, 1089.431
457.3830, 1084.846
457.8651, 1082.421
458.3472, 1081.505
458.8293, 1080.099
459.3114, 1077.040
459.7935, 1073.645
460.2757, 1071.612
460.7578, 1070.743
461.2399, 1070.014
461.7220, 1069.030
462.2041, 1067.753
462.6862, 1066.064
463.1684, 1063.848
463.6505, 1061.740
464.1326, 1059.824
464.6147, 1058.325
465.0968, 1057.511
465.5789, 1058.050
466.0611, 1058.753
466.5432, 1059.596
467.0253, 1060.495
467.5074, 1060.580
467.9895, 1058.904
468.4716, 1057.090
468.9538, 1055.911
469.4359, 1055.631
469.9180, 1055.405
470.4001, 1055.103
470.8822, 1054.920
471.3643, 1055.120
471.8465, 1055.671
472.3286, 1056.697
472.8107, 1058.432
473.2928, 1060.660
473.7749, 1062.243
474.2570, 1063.093
474.7392, 1063.669
475.2213, 1064.283
475.7034, 1064.918
476.1855, 1065.314
476.6676, 1065.296
477.1497, 1065.579
477.6319, 1067.807
478.1140, 1071.287
478.5961, 1073.699
479.0782, 1073.129
479.5603, 1071.533
480.0424, 1070.995
480.5246, 1071.461
481.0067, 1072.497
481.4888, 1074.848
481.9709, 1077.071
482.4530, 1077.440
482.9352, 1074.250
483.4173, 1072.630
483.8994, 1076.498
484.3815, 1082.791
484.8636, 1086.807
485.3457, 1085.471
485.8279, 1083.809
486.3100, 1082.684
486.7921, 1082.165
487.2742, 1083.186
487.7563, 1087.576
488.2384, 1091.696
488.7206, 1093.198
489.2027, 1090.358
489.6848, 1089.756
490.1669, 1092.304
490.6490, 1096.237
491.1311, 1098.534
491.6133, 1098.814
492.0954, 1100.036
492.5775, 1103.567
493.0596, 1108.603
493.5417, 1111.974
494.0238, 1113.626
494.5060, 1115.307
494.9881, 1119.031
495.4702, 1123.696
495.9523, 1126.331
496.4344, 1126.145
496.9165, 1125.622
497.3987, 1126.845
497.8808, 1129.542
498.3629, 1133.183
498.8450, 1138.006
499.3271, 1143.327
499.8092, 1149.406
500.2914, 1155.943
500.7735, 1160.802
501.2556, 1160.415
501.7377, 1160.280
502.2198, 1163.935
502.7019, 1173.494
503.1841, 1182.509
503.6662, 1189.723
504.1483, 1196.221
504.6304, 1203.161
505.1125, 1210.698
505.5946, 1218.269
506.0768, 1225.758
506.5589, 1233.228
507.0410, 1241.103
507.5231, 1249.265
508.0052, 1258.084
508.4873, 1268.023
508.9695, 1278.962
509.4516, 1289.990
509.9337, 1301.061
510.4158, 1312.333
510.8979, 1323.752
511.3800, 1335.512
511.8622, 1348.055
512.3443, 1361.640
512.8264, 1375.898
513.3085, 1390.684
513.7906, 1405.946
514.2728, 1421.486
514.7549, 1438.040
515.2370, 1454.294
515.7191, 1468.882
516.2012, 1481.698
516.6833, 1494.378
517.1655, 1507.395
517.6476, 1520.923
518.1297, 1535.135
518.6118, 1551.386
519.0939, 1566.699
519.5760, 1580.438
520.0582, 1592.865
520.5403, 1605.080
521.0224, 1617.124
521.5045, 1628.704
521.9866, 1639.852
522.4688, 1650.596
522.9509, 1660.241
523.4330, 1669.063
523.9151, 1676.247
524.3972, 1681.062
524.8793, 1683.446
525.3615, 1684.273
525.8436, 1683.443
526.3257, 1681.543
526.8078, 1679.875
527.2899, 1678.082
527.7720, 1674.442
528.2542, 1667.671
528.7363, 1659.213
529.2184, 1650.638
529.7005, 1642.008
530.1826, 1633.228
530.6647, 1625.445
531.1469, 1616.810
531.6290, 1604.907
532.1111, 1588.615
532.5932, 1573.445
533.0753, 1562.642
533.5574, 1553.593
534.0396, 1543.767
534.5217, 1532.461
535.0038, 1520.576
535.4859, 1506.939
535.9680, 1492.688
536.4501, 1481.552
536.9323, 1475.816
537.4144, 1469.305
537.8965, 1459.276
538.3786, 1445.633
538.8607, 1434.342
539.3428, 1425.876
539.8250, 1418.531
540.3071, 1410.881
540.7892, 1403.073
541.2713, 1395.651
541.7534, 1388.756
542.2355, 1382.238
542.7177, 1376.024
543.1998, 1370.004
543.6819, 1363.993
544.1640, 1357.924
544.6461, 1351.900
545.1282, 1345.894
545.6104, 1339.965
546.0925, 1334.299
546.5746, 1328.023
547.0567, 1322.752
547.5388, 1320.037
548.0209, 1321.270
548.5031, 1321.087
548.9852, 1317.185
549.4673, 1311.885
549.9494, 1307.627
550.4315, 1304.912
550.9136, 1302.530
551.3958, 1300.529
551.8779, 1298.713
552.3600, 1296.482
552.8421, 1293.633
553.3242, 1291.006
553.8063, 1289.009
554.2885, 1287.566
554.7706, 1286.260
555.2527, 1285.148
555.7348, 1283.596
556.2169, 1280.223
556.6990, 1276.027
557.1812, 1273.747
557.6633, 1274.179
558.1454, 1275.207
558.6275, 1275.005
559.1096, 1273.953
559.5917, 1272.698
560.0739, 1271.401
560.5560, 1270.087
561.0381, 1268.926
561.5202, 1267.813
562.0023, 1266.256
562.4844, 1263.583
562.9666, 1260.881
563.4487, 1258.443
563.9308, 1256.045
564.4129, 1255.087
564.8950, 1256.668
565.3771, 1258.467
565.8593, 1258.527
566.3414, 1256.502
566.8235, 1254.019
567.3056, 1250.922
567.7877, 1247.867
568.2698, 1246.306
568.7520, 1246.135
569.2341, 1245.751
569.7162, 1244.390
570.1983, 1242.563
570.6804, 1241.000
571.1625, 1239.748
571.6447, 1238.989
572.1268, 1239.515
572.6089, 1240.224
573.0910, 1239.956
573.5731, 1238.489
574.0552, 1236.847
574.5374, 1234.832
575.0195, 1233.176
575.5016, 1232.549
575.9837, 1234.506
576.4658, 1235.686
576.9479, 1235.509
577.4301, 1234.392
577.9122, 1233.064
578.3943, 1231.113
578.8764, 1229.703
579.3585, 1229.400
579.8406, 1229.937
580.3228, 1229.344
580.8049, 1227.435
581.2870, 1225.574
581.7691, 1224.755
582.2512, 1224.772
582.7333, 1224.807
583.2155, 1224.847
583.6975, 1224.787
584.1796, 1224.983
584.6617, 1224.937
585.1439, 1223.634
585.6260, 1219.922
586.1081, 1216.534
586.5902, 1215.086
587.0723, 1215.156
587.5544, 1215.927
588.0366, 1219.181
588.5187, 1221.036
589.0008, 1218.960
589.4829, 1213.266
589.9650, 1210.786
590.4471, 1214.076
590.9293, 1217.188
591.4114, 1216.946
591.8935, 1212.661
592.3756, 1209.940
592.8577, 1209.049
593.3398, 1208.971
593.8220, 1209.080
594.3041, 1209.246
594.7862, 1208.107
595.2683, 1204.962
595.7504, 1201.687
596.2325, 1201.574
596.7147, 1203.331
597.1968, 1203.588
597.6789, 1199.430
598.1610, 1194.462
598.6431, 1191.275
599.1252, 1189.571
599.6074, 1187.805
600.0895, 1184.821
600.5716, 1182.128
601.0537, 1180.785
601.5358, 1181.432
602.0179, 1180.586
602.5001, 1176.949
602.9822, 1173.057
603.4643, 1171.090
603.9464, 1171.949
604.4285, 1170.820
604.9106, 1166.665
605.3928, 1161.803
605.8749, 1160.146
606.3570, 1161.424
606.8391, 1162.223
607.3212, 1161.571
607.8033, 1159.807
608.2855, 1156.781
608.7676, 1152.917
609.2497, 1149.675
609.7318, 1147.830
610.2139, 1146.971
610.6960, 1147.312
611.1782, 1148.768
611.6603, 1149.451
612.1424, 1148.671
612.6245, 1146.936
613.1066, 1144.416
613.5887, 1140.382
614.0709, 1137.278
614.5530, 1135.151
615.0351, 1133.915
615.5172, 1133.744
615.9993, 1135.103
616.4814, 1135.354
616.9636, 1133.838
617.4457, 1131.471
617.9278, 1129.823
618.4099, 1128.872
618.8920, 1128.395
619.3741, 1128.387
619.8563, 1128.695
620.3384, 1129.559
620.8205, 1130.717
621.3026, 1130.906
621.7847, 1129.469
622.2668, 1126.715
622.7490, 1122.133
623.2311, 1115.372
623.7132, 1110.535
624.1953, 1109.994
624.6774, 1110.923
625.1595, 1111.400
625.6417, 1111.377
626.1238, 1110.990
626.6059, 1110.297
627.0880, 1109.228
627.5701, 1107.189
628.0522, 1103.898
628.5344, 1102.741
629.0165, 1105.217
629.4986, 1109.022
629.9807, 1109.285
630.4628, 1106.601
630.9449, 1104.219
631.4271, 1103.823
631.9092, 1104.455
632.3913, 1105.383
632.8734, 1106.508
633.3555, 1107.325
633.8376, 1107.486
634.3198, 1107.315
634.8019, 1106.931
635.2840, 1106.274
635.7661, 1105.756
636.2482, 1105.525
636.7303, 1105.359
637.2125, 1105.126
637.6946, 1104.834
638.1767, 1104.433
638.6588, 1103.833
639.1409, 1103.306
639.6230, 1103.375
640.1052, 1104.001
640.5873, 1104.351
641.0694, 1103.992
641.5515, 1103.661
642.0336, 1104.952
642.5157, 1107.254
642.9979, 1108.800
643.4800, 1107.832
643.9621, 1106.510
644.4442, 1106.334
644.9263, 1107.172
645.4084, 1108.114
645.8906, 1109.423
646.3727, 1110.285
646.8548, 1110.017
647.3369, 1108.358
647.8190, 1107.756
648.3011, 1108.742
648.7833, 1110.002
649.2654, 1110.507
649.7475, 1110.187
650.2296, 1109.897
650.7117, 1109.544
651.1938, 1109.744
651.6760, 1111.844
652.1581, 1115.186
652.6402, 1117.629
653.1223, 1118.391
653.6044, 1118.545
654.0865, 1119.145
654.5687, 1119.835
655.0508, 1119.945
655.5329, 1118.060
656.0150, 1116.747
656.4971, 1117.386
656.9792, 1119.566
657.4614, 1121.059
657.9435, 1121.473
658.4256, 1121.607
658.9077, 1121.672
659.3898, 1121.666
659.8719, 1121.542
660.3541, 1121.236
660.8362, 1121.103
661.3183, 1121.150
661.8004, 1121.551
662.2825, 1123.460
662.7646, 1127.053
663.2468, 1130.164
663.7289, 1130.411
664.2110, 1129.220
664.6931, 1128.448
665.1752, 1128.652
665.6573, 1128.931
666.1395, 1128.366
666.6216, 1127.868
667.1037, 1128.551
667.5858, 1131.414
668.0679, 1134.512
668.5500, 1138.188
669.0322, 1141.787
669.5143, 1143.725
669.9964, 1143.805
670.4785, 1143.119
670.9606, 1141.517
671.4427, 1139.694
671.9249, 1139.822
672.4070, 1141.708
672.8891, 1143.853
673.3712, 1145.520
673.8533, 1146.869
674.3354, 1147.936
674.8176, 1148.768
675.2997, 1149.735
675.7818, 1151.152
676.2639, 1152.656
676.7460, 1154.000
677.2281, 1155.039
677.7103, 1156.285
678.1924, 1157.545
678.6745, 1159.221
679.1566, 1161.917
679.6387, 1166.146
680.1208, 1168.727
680.6030, 1169.108
681.0851, 1168.906
681.5672, 1170.182
682.0493, 1172.665
682.5314, 1175.321
683.0135, 1177.967
683.4957, 1180.465
683.9778, 1182.331
684.4599, 1183.973
684.9420, 1186.080
685.4241, 1189.880
685.9063, 1193.222
686.3884, 1194.668
686.8705, 1194.947
687.3526, 1196.704
687.8347, 1201.867
688.3168, 1205.952
688.7990, 1207.497
689.2811, 1206.917
689.7632, 1206.757
