##NAMES=Coalingite
##RRUFFID=R110196
##IDEAL CHEMISTRY=Mg_10_Fe^3+^_2_CO_3_(OH)_24_&#183;2H_2_O
##LOCALITY=San Benito County, California (about 35 miles NW of Coalinga), USA
##OWNER=RRUFF
##SOURCE=James Shigley
##DESCRIPTION=Golden-reddish-brown flakes
##STATUS=The identification of this mineral has been confirmed by single-crystal X-ray diffraction.
##URL=rruff.info/R110196
198.9684, 924.5130
199.4506, 926.3193
199.9327, 930.6783
200.4148, 936.1015
200.8969, 939.0856
201.3790, 939.3011
201.8611, 939.0791
202.3433, 939.4833
202.8254, 940.4666
203.3075, 942.9235
203.7896, 947.6542
204.2717, 953.2235
204.7538, 955.5883
205.2360, 954.0820
205.7181, 951.8113
206.2002, 950.4221
206.6823, 949.9286
207.1644, 950.1805
207.6465, 951.4594
208.1287, 953.2888
208.6108, 954.0820
209.0929, 953.3649
209.5750, 952.8956
210.0571, 953.8428
210.5392, 956.4793
211.0214, 959.3693
211.5035, 962.8516
211.9856, 966.3743
212.4677, 967.7556
212.9498, 966.1107
213.4319, 964.3748
213.9140, 964.5639
214.3962, 967.4510
214.8783, 969.5175
215.3604, 970.1884
215.8425, 969.8677
216.3246, 970.1230
216.8067, 971.0771
217.2889, 972.3516
217.7710, 973.7770
218.2531, 975.4469
218.7352, 976.9371
219.2173, 978.1354
219.6994, 979.1165
220.1816, 980.1630
220.6637, 981.1303
221.1458, 982.3806
221.6279, 984.3672
222.1100, 987.9130
222.5921, 989.8549
223.0743, 988.9057
223.5564, 986.1107
224.0385, 986.8301
224.5206, 993.2697
225.0027, 999.7473
225.4848, 1002.374
225.9670, 998.7620
226.4491, 997.2294
226.9312, 999.4035
227.4133, 1004.249
227.8954, 1006.565
228.3775, 1004.700
228.8597, 1002.677
229.3418, 1003.051
229.8239, 1006.912
230.3060, 1010.626
230.7881, 1013.964
231.2702, 1016.938
231.7524, 1019.467
232.2345, 1021.322
232.7166, 1022.966
233.1987, 1024.740
233.6808, 1027.144
234.1629, 1028.449
234.6451, 1028.097
235.1272, 1026.515
235.6093, 1025.608
236.0914, 1025.598
236.5735, 1025.959
237.0556, 1026.543
237.5378, 1027.920
238.0199, 1028.242
238.5020, 1026.844
238.9841, 1024.332
239.4662, 1023.214
239.9483, 1024.139
240.4305, 1025.629
240.9126, 1027.001
241.3947, 1028.433
241.8768, 1029.375
242.3589, 1029.506
242.8410, 1029.158
243.3232, 1029.557
243.8053, 1031.116
244.2874, 1032.839
244.7695, 1034.191
245.2516, 1034.961
245.7337, 1035.761
246.2159, 1036.437
246.6980, 1037.147
247.1801, 1038.496
247.6622, 1040.990
248.1443, 1043.340
248.6264, 1044.795
249.1086, 1044.662
249.5907, 1045.388
250.0728, 1047.613
250.5549, 1050.561
251.0370, 1052.056
251.5191, 1051.359
252.0013, 1050.425
252.4834, 1049.960
252.9655, 1049.662
253.4476, 1050.786
253.9297, 1053.980
254.4118, 1058.320
254.8940, 1061.812
255.3761, 1064.232
255.8582, 1066.202
256.3403, 1067.982
256.8224, 1069.669
257.3046, 1070.638
257.7867, 1070.267
258.2688, 1069.528
258.7509, 1070.472
259.2330, 1073.769
259.7151, 1077.325
260.1973, 1080.665
260.6794, 1084.095
261.1615, 1085.417
261.6436, 1083.562
262.1257, 1080.526
262.6078, 1079.807
263.0900, 1082.238
263.5721, 1085.094
264.0542, 1087.582
264.5363, 1089.780
265.0184, 1091.283
265.5005, 1091.700
265.9827, 1091.953
266.4648, 1093.578
266.9469, 1097.165
267.4290, 1100.422
267.9111, 1102.800
268.3932, 1104.288
268.8754, 1104.475
269.3575, 1102.844
269.8396, 1100.661
270.3217, 1099.140
270.8038, 1097.853
271.2859, 1098.941
271.7681, 1104.216
272.2502, 1113.383
272.7323, 1117.891
273.2144, 1116.291
273.6965, 1112.798
274.1786, 1111.905
274.6608, 1114.023
275.1429, 1116.609
275.6250, 1119.546
276.1071, 1122.564
276.5892, 1123.186
277.0714, 1120.735
277.5535, 1117.804
278.0356, 1117.110
278.5177, 1118.924
278.9998, 1120.023
279.4819, 1119.463
279.9641, 1117.734
280.4462, 1117.159
280.9283, 1117.981
281.4104, 1118.886
281.8925, 1118.821
282.3746, 1117.783
282.8568, 1116.471
283.3389, 1115.016
283.8210, 1113.391
284.3031, 1111.339
284.7852, 1108.809
285.2673, 1106.484
285.7495, 1104.865
286.2316, 1103.934
286.7137, 1103.300
287.1958, 1103.015
287.6779, 1102.880
288.1600, 1102.398
288.6422, 1101.558
289.1243, 1100.794
289.6064, 1100.587
290.0885, 1100.752
290.5706, 1100.275
291.0527, 1098.883
291.5349, 1097.193
292.0170, 1096.391
292.4991, 1096.366
292.9812, 1095.994
293.4633, 1093.736
293.9454, 1090.555
294.4276, 1090.127
294.9097, 1093.150
295.3918, 1096.715
295.8739, 1096.629
296.3560, 1093.623
296.8381, 1091.135
297.3203, 1091.334
297.8024, 1093.092
298.2845, 1094.078
298.7666, 1094.200
299.2487, 1094.108
299.7308, 1094.881
300.2130, 1096.044
300.6951, 1096.201
301.1772, 1093.688
301.6593, 1090.396
302.1414, 1089.303
302.6235, 1090.368
303.1057, 1091.684
303.5878, 1091.533
304.0699, 1090.524
304.5520, 1089.799
305.0341, 1090.019
305.5162, 1090.426
305.9984, 1090.370
306.4805, 1089.846
306.9626, 1088.809
307.4447, 1086.448
307.9268, 1083.798
308.4089, 1082.343
308.8911, 1083.057
309.3732, 1084.145
309.8553, 1084.079
310.3374, 1083.161
310.8195, 1082.394
311.3016, 1082.532
311.7838, 1082.987
312.2659, 1083.192
312.7480, 1082.881
313.2301, 1082.670
313.7122, 1083.482
314.1943, 1084.664
314.6765, 1084.821
315.1586, 1082.136
315.6407, 1079.076
316.1228, 1077.146
316.6049, 1076.673
317.0870, 1076.829
317.5692, 1077.874
318.0513, 1079.194
318.5334, 1079.922
319.0155, 1079.213
319.4976, 1078.344
319.9797, 1077.866
320.4619, 1077.842
320.9440, 1077.863
321.4261, 1077.909
321.9082, 1077.886
322.3903, 1077.700
322.8724, 1076.954
323.3546, 1076.401
323.8367, 1076.465
324.3188, 1077.105
324.8009, 1077.213
325.2830, 1075.717
325.7651, 1074.200
326.2473, 1073.692
326.7294, 1075.878
327.2115, 1077.293
327.6936, 1077.257
328.1757, 1076.090
328.6578, 1075.319
329.1400, 1075.003
329.6221, 1075.094
330.1042, 1075.636
330.5863, 1077.384
331.0684, 1078.293
331.5505, 1077.351
332.0327, 1075.731
332.5148, 1076.227
332.9969, 1080.862
333.4790, 1084.820
333.9611, 1086.218
334.4432, 1084.107
334.9254, 1083.147
335.4075, 1083.940
335.8896, 1085.325
336.3717, 1085.613
336.8538, 1084.265
337.3359, 1083.063
337.8180, 1082.451
338.3001, 1082.428
338.7823, 1082.850
339.2644, 1083.903
339.7465, 1085.071
340.2286, 1086.001
340.7107, 1086.788
341.1928, 1086.733
341.6750, 1085.246
342.1571, 1082.986
342.6392, 1082.958
343.1213, 1085.587
343.6034, 1088.248
344.0855, 1088.700
344.5677, 1087.058
345.0498, 1086.347
345.5319, 1087.166
346.0140, 1088.687
346.4961, 1089.279
346.9782, 1088.974
347.4604, 1088.627
347.9425, 1088.912
348.4246, 1089.577
348.9067, 1089.450
349.3888, 1088.275
349.8709, 1087.275
350.3531, 1088.349
350.8352, 1090.977
351.3173, 1093.222
351.7994, 1093.818
352.2815, 1093.656
352.7636, 1094.609
353.2458, 1096.661
353.7279, 1098.034
354.2100, 1096.309
354.6921, 1092.996
355.1742, 1090.743
355.6563, 1090.718
356.1385, 1091.665
356.6206, 1092.587
357.1027, 1093.495
357.5848, 1094.433
358.0669, 1096.011
358.5490, 1097.358
359.0312, 1097.515
359.5133, 1095.852
359.9954, 1094.032
360.4775, 1092.823
360.9596, 1092.167
361.4417, 1091.944
361.9239, 1092.223
362.4060, 1092.842
362.8881, 1093.759
363.3702, 1095.008
363.8523, 1096.379
364.3344, 1098.559
364.8166, 1100.568
365.2987, 1101.293
365.7808, 1097.981
366.2629, 1095.838
366.7450, 1096.940
367.2271, 1101.285
367.7093, 1104.661
368.1914, 1106.606
368.6735, 1107.404
369.1556, 1107.205
369.6377, 1103.446
370.1198, 1101.955
370.6020, 1104.737
371.0841, 1110.183
371.5662, 1112.331
372.0483, 1108.508
372.5304, 1104.590
373.0125, 1103.159
373.4947, 1105.452
373.9768, 1106.601
374.4589, 1105.968
374.9410, 1104.712
375.4231, 1104.715
375.9052, 1106.289
376.3874, 1108.342
376.8695, 1110.836
377.3516, 1113.783
377.8337, 1115.559
378.3158, 1116.004
378.7979, 1115.891
379.2801, 1115.828
379.7622, 1115.810
380.2443, 1116.218
380.7264, 1117.382
381.2085, 1118.810
381.6906, 1118.968
382.1728, 1117.821
382.6549, 1116.650
383.1370, 1115.574
383.6191, 1115.018
384.1012, 1117.266
384.5833, 1123.136
385.0655, 1129.813
385.5476, 1133.703
386.0297, 1135.245
386.5118, 1135.844
386.9939, 1135.330
387.4760, 1134.638
387.9582, 1135.533
388.4403, 1138.078
388.9224, 1140.333
389.4045, 1140.201
389.8866, 1138.936
390.3687, 1138.325
390.8509, 1139.473
391.3330, 1140.939
391.8151, 1142.308
392.2972, 1143.332
392.7793, 1143.022
393.2614, 1140.088
393.7436, 1136.155
394.2257, 1132.090
394.7078, 1127.572
395.1899, 1124.160
395.6720, 1123.492
396.1541, 1124.075
396.6363, 1123.523
397.1184, 1119.063
397.6005, 1115.400
398.0826, 1114.646
398.5647, 1117.351
399.0468, 1119.006
399.5290, 1118.233
400.0111, 1116.772
400.4932, 1116.032
400.9753, 1116.797
401.4574, 1117.217
401.9395, 1116.630
402.4217, 1115.473
402.9038, 1115.945
403.3859, 1118.994
403.8680, 1122.290
404.3501, 1124.826
404.8322, 1126.598
405.3144, 1127.481
405.7965, 1127.240
406.2786, 1126.377
406.7607, 1125.416
407.2428, 1124.147
407.7249, 1123.965
408.2071, 1125.828
408.6892, 1129.276
409.1713, 1131.113
409.6534, 1131.110
410.1355, 1130.821
410.6176, 1131.559
411.0998, 1133.229
411.5819, 1135.485
412.0640, 1138.619
412.5461, 1141.694
413.0282, 1143.007
413.5103, 1142.779
413.9925, 1142.365
414.4746, 1141.857
414.9567, 1141.893
415.4388, 1144.305
415.9209, 1149.642
416.4030, 1153.801
416.8852, 1151.341
417.3673, 1145.773
417.8494, 1142.807
418.3315, 1148.178
418.8136, 1153.938
419.2957, 1154.139
419.7779, 1149.646
420.2600, 1146.250
420.7421, 1147.029
421.2242, 1149.684
421.7063, 1152.721
422.1884, 1156.660
422.6706, 1159.572
423.1527, 1160.074
423.6348, 1159.362
424.1169, 1159.684
424.5990, 1162.021
425.0811, 1164.800
425.5633, 1167.599
426.0454, 1170.381
426.5275, 1173.306
427.0096, 1177.271
427.4917, 1180.654
427.9738, 1181.848
428.4560, 1179.013
428.9381, 1177.843
429.4202, 1179.386
429.9023, 1182.920
430.3844, 1186.119
430.8665, 1188.832
431.3487, 1191.582
431.8308, 1195.013
432.3129, 1199.232
432.7950, 1201.593
433.2771, 1201.680
433.7592, 1200.952
434.2414, 1201.344
434.7235, 1202.766
435.2056, 1204.089
435.6877, 1205.127
436.1698, 1205.749
436.6519, 1204.854
437.1341, 1202.616
437.6162, 1201.841
438.0983, 1206.146
438.5804, 1212.951
439.0625, 1217.647
439.5446, 1219.103
440.0268, 1219.654
440.5089, 1221.369
440.9910, 1223.717
441.4731, 1225.593
441.9552, 1226.406
442.4373, 1226.662
442.9195, 1226.427
443.4016, 1225.730
443.8837, 1225.359
444.3658, 1226.558
444.8479, 1227.674
445.3300, 1227.342
445.8122, 1223.159
446.2943, 1220.282
446.7764, 1220.422
447.2585, 1222.495
447.7406, 1223.741
448.2227, 1224.748
448.7049, 1224.096
449.1870, 1220.679
449.6691, 1213.694
450.1512, 1209.085
450.6333, 1207.836
451.1154, 1207.972
451.5976, 1207.965
452.0797, 1208.259
452.5618, 1206.860
453.0439, 1202.829
453.5260, 1197.276
454.0081, 1193.532
454.4903, 1191.837
454.9724, 1190.364
455.4545, 1187.846
455.9366, 1184.527
456.4187, 1182.025
456.9008, 1180.443
457.3830, 1179.435
457.8651, 1178.926
458.3472, 1178.722
458.8293, 1178.208
459.3114, 1176.863
459.7935, 1175.398
460.2757, 1175.025
460.7578, 1175.466
461.2399, 1175.367
461.7220, 1173.121
462.2041, 1170.358
462.6862, 1168.968
463.1684, 1169.693
463.6505, 1169.717
464.1326, 1166.273
464.6147, 1161.706
465.0968, 1159.005
465.5789, 1161.165
466.0611, 1163.280
466.5432, 1163.893
467.0253, 1163.088
467.5074, 1162.163
467.9895, 1161.083
468.4716, 1160.080
468.9538, 1159.278
469.4359, 1158.809
469.9180, 1158.219
470.4001, 1157.131
470.8822, 1156.154
471.3643, 1156.365
471.8465, 1158.275
472.3286, 1159.820
472.8107, 1160.344
473.2928, 1160.036
473.7749, 1160.043
474.2570, 1160.386
474.7392, 1160.899
475.2213, 1161.554
475.7034, 1162.310
476.1855, 1162.879
476.6676, 1163.210
477.1497, 1163.446
477.6319, 1163.869
478.1140, 1164.381
478.5961, 1164.639
479.0782, 1164.343
479.5603, 1163.818
480.0424, 1163.206
480.5246, 1162.574
481.0067, 1162.483
481.4888, 1163.776
481.9709, 1165.475
482.4530, 1166.545
482.9352, 1166.218
483.4173, 1166.653
483.8994, 1169.398
484.3815, 1173.281
484.8636, 1176.495
485.3457, 1179.197
485.8279, 1180.597
486.3100, 1179.463
486.7921, 1175.822
487.2742, 1174.749
487.7563, 1178.348
488.2384, 1182.407
488.7206, 1184.495
489.2027, 1183.702
489.6848, 1183.441
490.1669, 1183.832
490.6490, 1184.710
491.1311, 1185.820
491.6133, 1187.137
492.0954, 1188.795
492.5775, 1190.836
493.0596, 1193.240
493.5417, 1196.129
494.0238, 1199.486
494.5060, 1202.755
494.9881, 1205.516
495.4702, 1207.828
495.9523, 1209.731
496.4344, 1211.023
496.9165, 1212.732
497.3987, 1216.201
497.8808, 1220.799
498.3629, 1225.280
498.8450, 1228.656
499.3271, 1232.162
499.8092, 1237.429
500.2914, 1243.953
500.7735, 1248.489
501.2556, 1246.757
501.7377, 1245.037
502.2198, 1247.266
502.7019, 1255.473
503.1841, 1263.605
503.6662, 1271.143
504.1483, 1278.168
504.6304, 1284.623
505.1125, 1289.745
505.5946, 1295.406
506.0768, 1302.065
506.5589, 1309.513
507.0410, 1316.746
507.5231, 1323.473
508.0052, 1330.724
508.4873, 1339.272
508.9695, 1349.013
509.4516, 1359.015
509.9337, 1369.373
510.4158, 1379.501
510.8979, 1388.255
511.3800, 1396.087
511.8622, 1404.681
512.3443, 1414.581
512.8264, 1425.341
513.3085, 1436.855
513.7906, 1448.941
514.2728, 1460.943
514.7549, 1473.547
515.2370, 1485.239
515.7191, 1494.115
516.2012, 1499.932
516.6833, 1506.157
517.1655, 1514.725
517.6476, 1524.333
518.1297, 1533.886
518.6118, 1543.964
519.0939, 1552.992
519.5760, 1560.331
520.0582, 1566.430
520.5403, 1572.696
521.0224, 1580.176
521.5045, 1586.221
521.9866, 1589.725
522.4688, 1590.692
522.9509, 1592.363
523.4330, 1595.177
523.9151, 1597.648
524.3972, 1598.724
524.8793, 1598.373
525.3615, 1596.908
525.8436, 1594.354
526.3257, 1590.634
526.8078, 1585.215
527.2899, 1578.387
527.7720, 1571.673
528.2542, 1566.467
528.7363, 1561.160
529.2184, 1552.904
529.7005, 1542.266
530.1826, 1531.934
530.6647, 1524.190
531.1469, 1517.146
531.6290, 1508.875
532.1111, 1498.848
532.5932, 1489.251
533.0753, 1481.638
533.5574, 1474.599
534.0396, 1466.797
534.5217, 1456.646
535.0038, 1447.260
535.4859, 1438.901
535.9680, 1431.572
536.4501, 1425.370
536.9323, 1421.474
537.4144, 1416.697
537.8965, 1409.511
538.3786, 1399.855
538.8607, 1391.462
539.3428, 1384.464
539.8250, 1378.473
540.3071, 1373.654
540.7892, 1369.884
541.2713, 1365.235
541.7534, 1359.167
542.2355, 1352.911
542.7177, 1348.196
543.1998, 1344.712
543.6819, 1341.610
544.1640, 1339.511
544.6461, 1336.955
545.1282, 1331.790
545.6104, 1324.525
546.0925, 1318.162
546.5746, 1314.306
547.0567, 1311.876
547.5388, 1310.395
548.0209, 1310.253
548.5031, 1309.534
548.9852, 1307.648
549.4673, 1305.072
549.9494, 1302.248
550.4315, 1298.311
550.9136, 1295.520
551.3958, 1294.523
551.8779, 1294.696
552.3600, 1294.389
552.8421, 1293.742
553.3242, 1292.065
553.8063, 1288.525
554.2885, 1283.500
554.7706, 1280.082
555.2527, 1278.363
555.7348, 1277.329
556.2169, 1276.238
556.6990, 1275.160
557.1812, 1274.245
557.6633, 1273.537
558.1454, 1272.974
558.6275, 1272.804
559.1096, 1272.707
559.5917, 1272.110
560.0739, 1270.419
560.5560, 1268.534
561.0381, 1266.948
561.5202, 1265.572
562.0023, 1263.934
562.4844, 1261.171
562.9666, 1258.730
563.4487, 1257.280
563.9308, 1256.904
564.4129, 1257.078
564.8950, 1258.302
565.3771, 1259.503
565.8593, 1259.750
566.3414, 1258.830
566.8235, 1257.841
567.3056, 1256.943
567.7877, 1255.917
568.2698, 1254.126
568.7520, 1251.629
569.2341, 1249.617
569.7162, 1248.823
570.1983, 1248.615
570.6804, 1247.679
571.1625, 1246.156
571.6447, 1244.918
572.1268, 1244.870
572.6089, 1245.207
573.0910, 1245.111
573.5731, 1244.433
574.0552, 1243.820
574.5374, 1243.427
575.0195, 1243.296
575.5016, 1243.454
575.9837, 1243.992
576.4658, 1244.679
576.9479, 1245.813
577.4301, 1246.966
577.9122, 1247.148
578.3943, 1245.367
578.8764, 1244.585
579.3585, 1246.061
579.8406, 1249.296
580.3228, 1250.782
580.8049, 1250.369
581.2870, 1249.153
581.7691, 1247.636
582.2512, 1245.906
582.7333, 1244.113
583.2155, 1242.223
583.6975, 1240.867
584.1796, 1241.457
584.6617, 1242.795
585.1439, 1242.735
585.6260, 1239.891
586.1081, 1237.028
586.5902, 1235.660
587.0723, 1235.489
587.5544, 1235.937
588.0366, 1238.449
588.5187, 1239.893
589.0008, 1238.055
589.4829, 1233.234
589.9650, 1231.659
590.4471, 1235.485
590.9293, 1239.708
591.4114, 1241.924
591.8935, 1241.855
592.3756, 1241.792
592.8577, 1241.851
593.3398, 1241.576
593.8220, 1240.348
594.3041, 1238.280
594.7862, 1236.010
595.2683, 1233.327
595.7504, 1231.391
596.2325, 1232.683
596.7147, 1235.993
597.1968, 1238.129
597.6789, 1237.139
598.1610, 1234.977
598.6431, 1232.343
599.1252, 1229.539
599.6074, 1227.821
600.0895, 1228.569
600.5716, 1229.689
601.0537, 1230.314
601.5358, 1230.397
602.0179, 1229.703
602.5001, 1227.432
602.9822, 1225.175
603.4643, 1224.521
603.9464, 1226.496
604.4285, 1225.501
604.9106, 1220.003
605.3928, 1213.618
605.8749, 1212.447
606.3570, 1216.082
606.8391, 1219.214
607.3212, 1220.214
607.8033, 1219.873
608.2855, 1219.006
608.7676, 1217.745
609.2497, 1216.564
609.7318, 1215.644
610.2139, 1214.959
610.6960, 1214.552
611.1782, 1214.408
611.6603, 1214.312
612.1424, 1214.394
612.6245, 1214.348
613.1066, 1213.996
613.5887, 1213.325
614.0709, 1212.309
614.5530, 1210.298
615.0351, 1208.557
615.5172, 1208.714
615.9993, 1211.446
616.4814, 1213.025
616.9636, 1212.744
617.4457, 1211.334
617.9278, 1209.700
618.4099, 1207.949
618.8920, 1207.222
619.3741, 1208.827
619.8563, 1211.077
620.3384, 1211.318
620.8205, 1209.851
621.3026, 1208.229
621.7847, 1207.776
622.2668, 1207.189
622.7490, 1205.031
623.2311, 1200.937
623.7132, 1198.224
624.1953, 1199.042
624.6774, 1200.720
625.1595, 1201.378
625.6417, 1200.226
626.1238, 1199.670
626.6059, 1200.130
627.0880, 1200.782
627.5701, 1200.178
628.0522, 1198.071
628.5344, 1197.419
629.0165, 1199.431
629.4986, 1202.345
629.9807, 1202.221
630.4628, 1199.631
630.9449, 1197.713
631.4271, 1198.534
631.9092, 1200.438
632.3913, 1201.910
632.8734, 1202.911
633.3555, 1203.367
633.8376, 1202.831
634.3198, 1202.035
634.8019, 1201.266
635.2840, 1200.429
635.7661, 1200.285
636.2482, 1201.800
636.7303, 1203.292
637.2125, 1203.533
637.6946, 1201.968
638.1767, 1200.757
638.6588, 1199.954
639.1409, 1199.599
639.6230, 1200.120
640.1052, 1201.428
640.5873, 1201.881
641.0694, 1200.758
641.5515, 1199.135
642.0336, 1198.529
642.5157, 1198.766
642.9979, 1199.330
643.4800, 1200.148
643.9621, 1201.042
644.4442, 1201.911
644.9263, 1202.745
645.4084, 1203.520
645.8906, 1204.329
646.3727, 1204.985
646.8548, 1205.447
647.3369, 1205.760
647.8190, 1205.541
648.3011, 1204.330
648.7833, 1203.289
649.2654, 1203.561
649.7475, 1205.329
650.2296, 1206.002
650.7117, 1205.250
651.1938, 1204.143
651.6760, 1203.702
652.1581, 1203.969
652.6402, 1205.295
653.1223, 1208.387
653.6044, 1211.241
654.0865, 1211.813
654.5687, 1210.904
655.0508, 1210.082
655.5329, 1209.600
656.0150, 1209.635
656.4971, 1210.673
656.9792, 1212.426
657.4614, 1213.392
657.9435, 1212.928
658.4256, 1212.503
658.9077, 1212.643
659.3898, 1213.314
659.8719, 1213.650
660.3541, 1213.565
660.8362, 1213.541
661.3183, 1214.134
661.8004, 1215.100
662.2825, 1215.357
662.7646, 1214.813
663.2468, 1214.240
663.7289, 1214.449
664.2110, 1215.000
664.6931, 1215.232
665.1752, 1214.748
665.6573, 1214.661
666.1395, 1215.840
666.6216, 1217.556
667.1037, 1218.907
667.5858, 1218.861
668.0679, 1219.707
668.5500, 1222.355
669.0322, 1225.662
669.5143, 1226.942
669.9964, 1225.855
670.4785, 1224.348
670.9606, 1222.650
671.4427, 1221.169
671.9249, 1221.306
672.4070, 1222.898
672.8891, 1224.715
673.3712, 1226.208
673.8533, 1227.412
674.3354, 1228.107
674.8176, 1228.380
675.2997, 1229.080
675.7818, 1231.091
676.2639, 1233.310
676.7460, 1235.114
677.2281, 1236.374
677.7103, 1237.266
678.1924, 1237.204
678.6745, 1237.389
679.1566, 1238.965
679.6387, 1242.466
680.1208, 1244.597
680.6030, 1244.831
681.0851, 1244.652
681.5672, 1246.216
682.0493, 1249.072
682.5314, 1251.276
683.0135, 1252.088
683.4957, 1252.677
683.9778, 1254.523
684.4599, 1256.995
684.9420, 1258.840
685.4241, 1258.676
685.9063, 1258.816
686.3884, 1260.094
686.8705, 1262.375
687.3526, 1265.211
687.8347, 1269.509
688.3168, 1273.056
688.7990, 1275.115
689.2811, 1275.917
689.7632, 1276.767
690.2453, 1277.720
690.7274, 1278.374
691.2095, 1278.601
691.6917, 1278.332
692.1738, 1277.119
692.6559, 1275.002
693.1380, 1272.826
693.6201, 1271.019
694.1022, 1269.553
694.5844, 1268.465
695.0665, 1267.812
695.5486, 1267.091
696.0307, 1265.865
