##NAMES=Coalingite
##RRUFFID=R110197
##IDEAL CHEMISTRY=Mg_10_Fe^3+^_2_CO_3_(OH)_24_&#183;2H_2_O
##LOCALITY=Hunting Hill quarry, Rockville, Montgomery County, Maryland, USA
##OWNER=RRUFF
##SOURCE=Donald Doell
##DESCRIPTION=Reddish-brown flakes
##STATUS=The identification of this mineral has been confirmed only by single crystal X-ray diffraction.
##URL=rruff.info/R110197
113.7809, 1069.024
114.2630, 1070.038
114.7451, 1072.282
115.2272, 1075.956
115.7094, 1080.953
116.1915, 1084.602
116.6736, 1086.185
117.1557, 1087.383
117.6378, 1088.593
118.1199, 1089.861
118.6021, 1091.047
119.0842, 1091.777
119.5663, 1092.078
120.0484, 1094.252
120.5305, 1099.479
121.0126, 1105.794
121.4948, 1111.661
121.9769, 1116.905
122.4590, 1121.654
122.9411, 1126.465
123.4232, 1131.099
123.9053, 1133.905
124.3875, 1132.959
124.8696, 1129.654
125.3517, 1127.782
125.8338, 1127.814
126.3159, 1129.535
126.7980, 1132.288
127.2802, 1136.148
127.7623, 1141.401
128.2444, 1149.166
128.7265, 1159.818
129.2086, 1168.642
129.6907, 1175.027
130.1729, 1179.563
130.6550, 1183.079
131.1371, 1185.341
131.6192, 1184.769
132.1013, 1178.582
132.5834, 1162.630
133.0656, 1148.900
133.5477, 1137.105
134.0298, 1127.411
134.5119, 1120.512
134.9940, 1116.516
135.4761, 1114.225
135.9583, 1110.966
136.4404, 1104.808
136.9225, 1100.107
137.4046, 1097.733
137.8867, 1096.814
138.3688, 1096.509
138.8510, 1096.673
139.3331, 1096.643
139.8152, 1094.151
140.2973, 1088.077
140.7794, 1081.784
141.2615, 1076.742
141.7437, 1072.722
142.2258, 1068.607
142.7079, 1063.920
143.1900, 1058.697
143.6721, 1052.999
144.1542, 1045.992
144.6364, 1039.525
145.1185, 1036.031
145.6006, 1036.090
146.0827, 1035.606
146.5648, 1031.758
147.0469, 1026.445
147.5291, 1021.484
148.0112, 1017.627
148.4933, 1014.377
148.9754, 1010.564
149.4575, 1005.688
149.9396, 1001.084
150.4218, 997.7855
150.9039, 994.8310
151.3860, 990.8752
151.8681, 984.9530
152.3502, 977.3196
152.8323, 970.5495
153.3145, 964.0982
153.7966, 959.2341
154.2787, 958.0250
154.7608, 958.6511
155.2429, 957.5057
155.7250, 951.3970
156.2072, 939.7857
156.6893, 931.5028
157.1714, 928.2664
157.6535, 925.9872
158.1356, 923.5561
158.6177, 920.6505
159.0999, 916.8571
159.5820, 911.5077
160.0641, 904.1685
160.5462, 898.9312
161.0283, 896.7203
161.5104, 895.8632
161.9926, 896.0858
162.4747, 897.2769
162.9568, 897.1107
163.4389, 892.1674
163.9210, 882.7230
164.4031, 874.4808
164.8853, 869.0112
165.3674, 865.1158
165.8495, 861.1018
166.3316, 856.5567
166.8137, 852.3482
167.2958, 849.3768
167.7780, 847.4066
168.2601, 845.8137
168.7422, 845.0412
169.2243, 844.6014
169.7064, 842.3246
170.1885, 836.6655
170.6707, 830.7598
171.1528, 826.6102
171.6349, 824.0077
172.1170, 821.8911
172.5991, 819.8242
173.0812, 817.8625
173.5634, 814.7648
174.0455, 808.8881
174.5276, 803.0289
175.0097, 797.9423
175.4918, 793.8572
175.9739, 791.0217
176.4561, 790.2018
176.9382, 792.5316
177.4203, 792.9311
177.9024, 790.3692
178.3845, 786.9316
178.8666, 783.2493
179.3488, 779.6501
179.8309, 776.4816
180.3130, 774.3360
180.7951, 773.8514
181.2772, 773.0131
181.7593, 771.6998
182.2415, 770.1707
182.7236, 768.7390
183.2057, 767.4418
183.6878, 765.9011
184.1699, 763.4530
184.6520, 759.0843
185.1342, 755.9120
185.6163, 754.6512
186.0984, 754.3461
186.5805, 754.0102
187.0626, 753.3508
187.5447, 752.6729
188.0269, 752.7912
188.5090, 754.2803
188.9911, 754.2972
189.4732, 750.5226
189.9553, 745.1120
190.4374, 742.1945
190.9196, 743.5473
191.4017, 746.3826
191.8838, 746.5674
192.3659, 744.0514
192.8480, 741.2369
193.3301, 738.9124
193.8123, 737.0988
194.2944, 735.9022
194.7765, 735.5173
195.2586, 735.6121
195.7407, 735.8824
196.2228, 736.3333
196.7050, 736.6074
197.1871, 736.5182
197.6692, 736.0635
198.1513, 735.1193
198.6334, 733.0132
199.1155, 730.9658
199.5977, 729.5924
200.0798, 728.9775
200.5619, 729.2286
201.0440, 730.9030
201.5261, 734.3775
202.0082, 736.8312
202.4904, 737.4236
202.9725, 737.2247
203.4546, 736.1530
203.9367, 734.4489
204.4188, 733.1654
204.9009, 734.1107
205.3831, 738.7450
205.8652, 741.0311
206.3473, 739.4367
206.8294, 736.6818
207.3115, 733.8897
207.7936, 731.4373
208.2758, 729.4058
208.7579, 727.8705
209.2400, 726.5769
209.7221, 726.5107
210.2042, 727.9508
210.6863, 730.1666
211.1685, 732.9479
211.6506, 736.1304
212.1327, 739.3360
212.6148, 742.0782
213.0969, 744.4310
213.5790, 745.9191
214.0612, 745.6179
214.5433, 745.0824
215.0254, 745.6790
215.5075, 747.6826
215.9896, 750.2428
216.4717, 752.1942
216.9539, 753.4313
217.4360, 754.1266
217.9181, 753.5093
218.4002, 752.7352
218.8823, 753.0153
219.3644, 754.6467
219.8466, 756.9152
220.3287, 758.7809
220.8108, 760.0372
221.2929, 762.1497
221.7750, 765.8047
222.2571, 770.2382
222.7393, 774.4647
223.2214, 778.2311
223.7035, 782.0377
224.1856, 786.1707
224.6677, 790.5539
225.1498, 796.4211
225.6320, 805.1320
226.1141, 815.2746
226.5962, 824.4299
227.0783, 831.9887
227.5604, 839.2462
228.0425, 847.8703
228.5247, 857.4539
229.0068, 866.5395
229.4889, 874.9048
229.9710, 882.2816
230.4531, 888.5331
230.9352, 894.4893
231.4174, 897.2227
231.8995, 893.9701
232.3816, 886.0168
232.8637, 876.3414
233.3458, 865.6072
233.8279, 854.1810
234.3101, 842.9916
234.7922, 831.9803
235.2743, 821.5676
235.7564, 811.4434
236.2385, 801.9855
236.7206, 793.9839
237.2028, 788.3115
237.6849, 784.5274
238.1670, 780.5681
238.6491, 775.8275
239.1312, 771.9097
239.6133, 769.7549
240.0955, 768.6835
240.5776, 767.4152
241.0597, 764.8954
241.5418, 761.6653
242.0239, 760.5091
242.5060, 762.9413
242.9882, 765.5170
243.4703, 767.2469
243.9524, 768.4495
244.4345, 769.6403
244.9166, 771.1238
245.3987, 772.8112
245.8809, 774.2646
246.3630, 775.4721
246.8451, 776.4101
247.3272, 776.7545
247.8093, 776.9318
248.2914, 777.5700
248.7736, 779.0538
249.2557, 781.0731
249.7378, 782.3278
250.2199, 781.8644
250.7020, 781.7948
251.1841, 782.4718
251.6663, 783.6527
252.1484, 785.1796
252.6305, 786.9987
253.1126, 788.8482
253.5947, 789.9141
254.0768, 788.9643
254.5590, 788.6885
255.0411, 789.2572
255.5232, 790.5680
256.0053, 792.7253
256.4874, 795.7595
256.9695, 799.1904
257.4517, 801.8544
257.9338, 803.4244
258.4159, 804.5027
258.8980, 803.8604
259.3801, 803.2577
259.8622, 805.0275
260.3444, 809.9154
260.8265, 816.0496
261.3086, 819.9085
261.7907, 820.1187
262.2728, 819.9434
262.7549, 818.5068
263.2371, 817.1425
263.7192, 817.1513
264.2013, 818.8792
264.6834, 821.9127
265.1655, 825.9172
265.6476, 832.1361
266.1298, 835.9692
266.6119, 835.2401
267.0940, 833.2613
267.5761, 833.2760
268.0582, 835.8856
268.5403, 839.2465
269.0225, 841.3106
269.5046, 841.8069
269.9867, 841.7701
270.4688, 840.3782
270.9509, 838.9879
271.4330, 838.5263
271.9152, 839.1487
272.3973, 841.1345
272.8794, 845.5179
273.3615, 852.4581
273.8436, 856.0602
274.3257, 852.9855
274.8079, 848.8460
275.2900, 848.4200
275.7721, 851.7748
276.2542, 855.4947
276.7363, 857.2346
277.2184, 856.9599
277.7006, 856.2575
278.1827, 854.3692
278.6648, 852.6564
279.1469, 852.3290
279.6290, 853.2327
280.1111, 854.0297
280.5933, 853.7943
281.0754, 852.8946
281.5575, 852.7303
282.0396, 854.5143
282.5217, 855.5770
283.0038, 853.6099
283.4860, 849.1856
283.9681, 845.2900
284.4502, 843.3295
284.9323, 842.7152
285.4144, 842.1536
285.8965, 841.9296
286.3787, 841.1107
286.8608, 838.7996
287.3429, 835.3839
287.8250, 832.2255
288.3071, 829.7735
288.7892, 827.7751
289.2714, 825.9194
289.7535, 824.2553
290.2356, 822.4011
290.7177, 820.0891
291.1998, 817.4465
291.6819, 814.7665
292.1641, 812.0828
292.6462, 809.4247
293.1283, 806.9279
293.6104, 804.5667
294.0925, 801.9095
294.5746, 797.8135
295.0568, 793.4762
295.5389, 791.9150
296.0210, 794.4479
296.5031, 796.8563
296.9852, 794.5239
297.4673, 789.0089
297.9495, 784.3799
298.4316, 782.4053
298.9137, 781.9025
299.3958, 781.0538
299.8779, 779.6545
300.3600, 778.7356
300.8422, 780.2376
301.3243, 782.5088
301.8064, 782.4216
302.2885, 777.7713
302.7706, 771.9579
303.2527, 769.0132
303.7349, 769.1044
304.2170, 769.5471
304.6991, 769.4760
305.1812, 768.8222
305.6633, 767.3549
306.1454, 764.6987
306.6276, 762.0930
307.1097, 761.0685
307.5918, 761.4921
308.0739, 760.8378
308.5560, 757.4613
309.0381, 753.3715
309.5203, 751.0232
310.0024, 750.6245
310.4845, 750.2868
310.9666, 748.4699
311.4487, 745.5230
311.9308, 743.2513
312.4130, 742.3040
312.8951, 741.7035
313.3772, 740.3979
313.8593, 738.5163
314.3414, 736.9908
314.8235, 736.8705
315.3057, 737.4236
315.7878, 736.6840
316.2699, 734.2496
316.7520, 731.0900
317.2341, 727.2330
317.7162, 723.1938
318.1984, 720.2126
318.6805, 719.2170
319.1626, 719.3304
319.6447, 719.2090
320.1268, 718.7929
320.6089, 718.4638
321.0911, 718.7672
321.5732, 719.1973
322.0553, 718.9989
322.5374, 717.8512
323.0195, 716.3151
323.5016, 715.0453
323.9838, 714.0394
324.4659, 712.6433
324.9480, 710.3256
325.4301, 707.6789
325.9122, 705.2895
326.3943, 703.0788
326.8765, 701.5975
327.3586, 701.8317
327.8407, 703.3802
328.3228, 703.9206
328.8049, 702.5278
329.2870, 700.4900
329.7692, 698.9799
330.2513, 697.9785
330.7334, 697.4666
331.2155, 698.0338
331.6976, 699.0349
332.1797, 698.5429
332.6619, 695.6396
333.1440, 693.2706
333.6261, 695.0604
334.1082, 699.3539
334.5903, 702.2239
335.0724, 701.5319
335.5546, 699.2573
336.0367, 698.0453
336.5188, 698.0414
337.0009, 697.6703
337.4830, 695.3975
337.9651, 692.3688
338.4473, 690.7873
338.9294, 691.4413
339.4115, 692.7123
339.8936, 693.5052
340.3757, 693.8454
340.8578, 693.7913
341.3400, 692.9675
341.8221, 692.1912
342.3042, 692.7731
342.7863, 694.9395
343.2684, 697.0876
343.7505, 698.7601
344.2327, 699.8260
344.7148, 699.6356
345.1969, 697.5988
345.6790, 695.5036
346.1611, 695.9216
346.6432, 698.4199
347.1254, 700.3561
347.6075, 700.3004
348.0896, 699.6763
348.5717, 700.4243
349.0538, 702.7560
349.5359, 705.1286
350.0181, 706.2308
350.5002, 706.4127
350.9823, 707.3281
351.4644, 710.5246
351.9465, 713.2209
352.4286, 712.9609
352.9108, 710.3231
353.3929, 708.2619
353.8750, 708.6617
354.3571, 710.0403
354.8392, 708.4821
355.3214, 702.5386
355.8035, 697.3770
356.2856, 695.0739
356.7677, 694.7604
357.2498, 695.0947
357.7319, 695.7905
358.2141, 696.5416
358.6962, 696.8460
359.1783, 696.5732
359.6604, 696.6986
360.1425, 698.3231
360.6246, 699.7866
361.1068, 698.8793
361.5889, 695.6208
362.0710, 692.8619
362.5531, 693.2310
363.0352, 696.6893
363.5173, 698.6855
363.9995, 697.2064
364.4816, 696.4021
364.9637, 699.2178
365.4458, 704.3547
365.9279, 708.1585
366.4100, 708.5064
366.8922, 706.7609
367.3743, 707.4103
367.8564, 712.7530
368.3385, 717.0599
368.8206, 718.9233
369.3027, 719.6667
369.7849, 720.8368
370.2670, 722.8478
370.7491, 725.0330
371.2312, 726.5427
371.7133, 727.4443
372.1954, 727.1786
372.6776, 724.1855
373.1597, 721.4174
373.6418, 721.0201
374.1239, 722.6973
374.6060, 724.5200
375.0881, 724.8710
375.5703, 723.8292
376.0524, 724.1544
376.5345, 726.7984
377.0166, 729.6833
377.4987, 732.6025
377.9808, 735.4240
378.4630, 737.9788
378.9451, 740.1879
379.4272, 742.2142
379.9093, 744.3381
380.3914, 745.7008
380.8735, 748.7771
381.3557, 754.5002
381.8378, 761.1478
382.3199, 767.8708
382.8020, 774.3478
383.2841, 780.1776
383.7662, 784.6227
384.2484, 787.3156
384.7305, 791.3052
385.2126, 801.6394
385.6947, 808.3218
386.1768, 807.5713
386.6589, 800.6690
387.1411, 790.2224
387.6232, 777.2427
388.1053, 762.6393
388.5874, 749.8577
389.0695, 739.7818
389.5516, 729.9645
390.0338, 719.2338
390.5159, 708.7205
390.9980, 699.4037
391.4801, 691.5439
391.9622, 685.0265
392.4443, 680.0978
392.9265, 677.0004
393.4086, 673.2209
393.8907, 667.7673
394.3728, 662.2111
394.8549, 657.2759
395.3370, 653.0019
395.8192, 649.3738
396.3013, 646.6544
396.7834, 644.5642
397.2655, 641.9070
397.7476, 637.9891
398.2297, 635.3359
398.7119, 636.5577
399.1940, 639.4381
399.6761, 641.1979
400.1582, 640.9951
400.6403, 639.8177
401.1224, 638.4748
401.6046, 636.9645
402.0867, 635.3839
402.5688, 633.3781
403.0509, 631.7820
403.5330, 631.7711
404.0151, 633.3763
404.4973, 634.7422
404.9794, 634.9759
405.4615, 634.4676
405.9436, 633.7228
406.4257, 632.7401
406.9078, 632.0362
407.3900, 632.1109
407.8721, 632.8778
408.3542, 633.7433
408.8363, 635.3865
409.3184, 636.4780
409.8005, 635.7335
410.2827, 633.6177
410.7648, 631.5012
411.2469, 629.6992
411.7290, 628.8027
412.2111, 630.6840
412.6932, 636.9069
413.1754, 641.5606
413.6575, 642.7569
414.1396, 642.3657
414.6217, 641.9523
415.1038, 641.9082
415.5859, 642.6920
416.0681, 645.1722
416.5502, 649.7628
417.0323, 650.9127
417.5144, 644.3527
417.9965, 639.3605
418.4786, 641.7119
418.9608, 648.1693
419.4429, 651.7436
419.9250, 648.6736
420.4071, 641.8998
420.8892, 639.6430
421.3713, 645.6640
421.8535, 650.7789
422.3356, 655.1947
422.8177, 658.3710
423.2998, 659.1938
423.7819, 657.9563
424.2640, 656.6055
424.7462, 657.2070
425.2283, 659.9008
425.7104, 662.4990
426.1925, 664.8920
426.6746, 667.3009
427.1567, 670.2892
427.6389, 673.2234
428.1210, 674.9647
428.6031, 674.8348
429.0852, 673.8058
429.5673, 673.6152
430.0494, 674.1005
430.5316, 675.9877
431.0137, 680.5603
431.4958, 685.8957
431.9779, 691.4872
432.4600, 697.0506
432.9421, 701.1155
433.4243, 701.3250
433.9064, 698.8405
434.3885, 698.9224
434.8706, 702.5799
435.3527, 707.0324
435.8348, 711.2372
436.3170, 714.9211
436.7991, 717.3259
437.2812, 717.1014
437.7633, 717.1612
438.2454, 720.9238
438.7275, 727.8259
439.2097, 733.7952
439.6918, 737.1837
440.1739, 739.3733
440.6560, 742.4368
441.1381, 746.4476
441.6202, 750.2316
442.1024, 753.6448
442.5845, 756.5580
443.0666, 758.6054
443.5487, 759.8199
444.0308, 760.9584
444.5129, 762.7375
444.9951, 764.9691
445.4772, 765.9932
445.9593, 765.2103
446.4414, 764.1172
446.9235, 762.7862
447.4056, 761.5381
447.8878, 761.1943
448.3699, 761.9930
448.8520, 762.6568
449.3341, 761.0945
449.8162, 756.1920
450.2983, 752.1766
450.7805, 749.1503
451.2626, 746.7723
451.7447, 745.5209
452.2268, 744.7953
452.7089, 743.2002
453.1910, 739.7470
453.6732, 734.8444
454.1553, 730.2267
454.6374, 726.1280
455.1195, 721.9094
455.6016, 718.0486
456.0837, 713.7003
456.5659, 707.5371
457.0480, 699.5377
457.5301, 692.0365
458.0122, 688.1879
458.4943, 687.8713
458.9764, 685.3074
459.4586, 678.6745
459.9407, 672.2455
460.4228, 668.5465
460.9049, 666.5110
461.3870, 664.2825
461.8691, 661.2236
462.3513, 657.7001
462.8334, 653.9666
463.3155, 650.0469
463.7976, 646.5331
464.2797, 643.5775
464.7618, 641.1735
465.2440, 639.4230
465.7261, 638.3316
466.2082, 637.1328
466.6903, 635.7924
467.1724, 634.0839
467.6545, 631.1639
468.1367, 627.1288
468.6188, 624.1680
469.1009, 624.1273
469.5830, 626.2741
470.0651, 626.8615
470.5472, 624.4472
471.0294, 622.5229
471.5115, 622.2684
471.9936, 622.8634
472.4757, 623.3263
472.9578, 623.3932
473.4399, 623.3116
473.9221, 623.3602
474.4042, 623.5352
474.8863, 623.8660
475.3684, 624.5722
475.8505, 625.1842
476.3326, 625.3972
476.8148, 625.4207
477.2969, 625.7176
477.7790, 626.5290
478.2611, 627.4238
478.7432, 627.4957
479.2253, 626.6589
479.7075, 625.2282
480.1896, 621.7645
480.6717, 618.9468
481.1538, 618.8116
481.6359, 620.8991
482.1180, 622.8546
482.6002, 622.6256
483.0823, 621.2562
483.5644, 622.1122
484.0465, 625.9756
484.5286, 629.1719
485.0107, 629.6717
485.4929, 628.8065
485.9750, 627.9395
486.4571, 627.0981
486.9392, 626.8148
487.4213, 627.6870
487.9034, 629.3132
488.3856, 630.8828
488.8677, 632.3048
489.3498, 633.4376
489.8319, 634.0109
490.3140, 634.0960
490.7961, 634.6138
491.2783, 635.4100
491.7604, 636.8004
492.2425, 639.2245
492.7246, 642.2965
493.2067, 645.4214
493.6888, 648.3814
494.1710, 651.0590
494.6531, 653.1445
495.1352, 654.2096
495.6173, 656.0734
496.0994, 659.6502
496.5815, 663.0206
497.0637, 664.3895
497.5458, 664.8707
498.0279, 666.9883
498.5100, 672.2570
498.9921, 679.5544
499.4742, 686.5605
499.9564, 694.2597
500.4385, 699.0244
500.9206, 695.4840
501.4027, 692.7454
501.8848, 697.0344
502.3669, 707.9065
502.8491, 720.2842
503.3312, 731.3840
503.8133, 741.3136
504.2954, 750.1580
504.7775, 757.7335
505.2596, 764.8937
505.7418, 771.2858
506.2239, 777.8768
506.7060, 786.1630
507.1881, 796.5271
507.6702, 807.2242
508.1523, 816.9601
508.6345, 826.6021
509.1166, 837.7176
509.5987, 850.5868
510.0808, 864.0826
510.5629, 877.3171
511.0450, 890.3238
511.5272, 904.0780
512.0093, 917.9838
512.4914, 933.2881
512.9735, 951.2546
513.4556, 970.4987
513.9377, 989.6156
514.4199, 1008.018
514.9020, 1025.802
515.3841, 1042.750
515.8662, 1058.675
516.3483, 1074.870
516.8304, 1091.169
517.3126, 1107.892
517.7947, 1126.162
518.2768, 1144.549
518.7589, 1160.618
519.2410, 1173.296
519.7231, 1185.012
520.2053, 1200.260
520.6874, 1219.488
521.1695, 1235.051
521.6516, 1244.650
522.1337, 1251.857
522.6158, 1259.654
523.0980, 1267.314
523.5801, 1272.720
524.0622, 1274.858
524.5443, 1274.667
525.0264, 1272.729
525.5085, 1269.171
525.9907, 1265.173
526.4728, 1261.691
526.9549, 1256.677
527.4370, 1246.431
527.9191, 1230.030
528.4012, 1214.198
528.8834, 1199.693
529.3655, 1185.870
529.8476, 1173.617
530.3297, 1161.728
530.8118, 1146.713
531.2939, 1126.432
531.7761, 1103.475
532.2582, 1084.703
532.7403, 1074.111
533.2224, 1060.344
533.7045, 1040.742
534.1866, 1020.555
534.6688, 1002.269
535.1509, 986.0878
535.6330, 971.6150
536.1151, 959.0547
536.5972, 947.4150
537.0793, 933.5358
537.5615, 916.8108
538.0436, 900.6465
538.5257, 886.0397
539.0078, 872.5928
539.4899, 860.1503
539.9720, 848.6423
540.4542, 837.4925
540.9363, 826.4346
541.4184, 815.6158
541.9005, 805.1495
542.3826, 795.0599
542.8647, 785.6852
543.3469, 777.2863
543.8290, 769.5576
544.3111, 761.6824
544.7932, 753.5958
545.2753, 745.6017
545.7574, 737.0471
546.2396, 729.0391
546.7217, 723.0266
547.2038, 718.6391
547.6859, 714.0717
548.1680, 707.9554
548.6501, 700.7726
549.1323, 694.6313
549.6144, 689.6262
550.0965, 685.6439
550.5786, 683.6928
551.0607, 681.8112
551.5428, 678.5579
552.0250, 673.9121
552.5071, 668.7701
552.9892, 663.4447
553.4713, 658.2057
553.9534, 653.8583
554.4355, 650.5439
554.9177, 647.4119
555.3998, 643.8978
555.8819, 640.5775
556.3640, 638.2355
556.8461, 636.9870
557.3282, 635.8691
557.8104, 634.6829
558.2925, 633.3187
558.7746, 631.8356
559.2567, 630.1373
559.7388, 627.6744
560.2209, 624.0268
560.7031, 619.4825
561.1852, 614.9398
561.6673, 608.8105
562.1494, 604.9796
562.6315, 605.3430
563.1136, 606.5783
563.5958, 606.5371
564.0779, 605.0814
564.5600, 602.9528
565.0421, 600.6454
565.5242, 598.1010
566.0063, 594.9030
566.4885, 590.4926
566.9706, 587.1060
567.4527, 586.2578
567.9348, 585.9119
568.4169, 585.0110
568.8990, 583.4186
569.3812, 580.8953
569.8633, 576.0184
570.3454, 570.8408
570.8275, 568.9024
571.3096, 569.9899
571.7917, 570.6088
572.2739, 569.1948
572.7560, 566.6860
573.2381, 564.6205
573.7202, 562.9044
574.2023, 561.9153
574.6844, 562.6848
575.1666, 563.3265
575.6487, 562.4276
576.1308, 560.3065
576.6129, 558.0307
577.0950, 556.1490
577.5771, 554.3851
578.0593, 552.0076
578.5414, 548.5212
579.0235, 545.7729
579.5056, 544.1359
579.9877, 543.0017
580.4698, 542.1072
580.9520, 541.5151
581.4341, 541.4659
581.9162, 542.2351
582.3983, 543.2385
582.8804, 544.2394
583.3625, 545.0739
583.8447, 543.5076
584.3268, 538.0984
584.8089, 532.2687
585.2910, 529.5314
585.7731, 529.6838
586.2552, 530.7292
586.7374, 534.5927
587.2195, 537.1248
587.7016, 534.7534
588.1837, 529.9489
588.6658, 527.0945
589.1479, 527.4802
589.6301, 529.2474
590.1122, 530.2028
590.5943, 530.2875
591.0764, 530.0824
591.5585, 529.2990
592.0406, 528.5468
592.5228, 528.1693
593.0049, 527.8011
593.4870, 526.6401
593.9691, 524.5344
594.4512, 523.1310
594.9333, 525.0118
595.4155, 529.0965
595.8976, 530.5363
596.3797, 528.7781
596.8618, 525.5848
597.3439, 521.0804
597.8260, 516.1790
598.3082, 513.0010
598.7903, 511.8548
599.2724, 511.6436
599.7545, 513.2477
600.2366, 514.8553
600.7188, 513.8320
601.2009, 510.5174
601.6830, 508.1971
602.1651, 509.3742
602.6472, 512.5229
603.1293, 511.6378
603.6115, 502.5519
604.0936, 497.1566
604.5757, 499.1839
605.0578, 502.1516
605.5399, 502.2721
606.0220, 499.7979
606.5042, 496.7020
606.9863, 493.7626
607.4684, 491.2849
607.9505, 489.6765
608.4326, 488.9402
608.9147, 489.3589
609.3969, 491.4729
609.8790, 493.9191
610.3611, 495.5429
610.8432, 496.3411
611.3253, 495.6569
