##NAMES=Cobaltite
##RRUFFID=R100119
##IDEAL CHEMISTRY=Co^3+^(AsS)^3-^
##LOCALITY=Deerhorn mine, Cobalt, Ontario, Canada
##OWNER=RRUFF
##SOURCE=Robert Woodside
##DESCRIPTION=Metallic silver-gray cubes
##STATUS=The identification of this mineral has been confirmed by single-crystal X-ray diffraction.
##URL=rruff.info/R100119
185.5301, 58.55264
186.0123, 59.36059
186.4944, 61.31916
186.9765, 62.67183
187.4586, 63.31978
187.9407, 63.56245
188.4228, 63.74258
188.9050, 63.86274
189.3871, 63.95942
189.8692, 63.92152
190.3513, 63.82873
190.8334, 64.14599
191.3155, 64.95452
191.7977, 66.01303
192.2798, 67.05746
192.7619, 68.08973
193.2440, 68.87011
193.7261, 68.93598
194.2082, 68.41386
194.6904, 68.89055
195.1725, 70.60458
195.6546, 73.02490
196.1367, 75.22750
196.6188, 77.22873
197.1009, 78.98723
197.5831, 80.53276
198.0652, 81.87946
198.5473, 82.85448
199.0294, 83.59145
199.5115, 83.76204
199.9937, 82.32272
200.4758, 79.02845
200.9579, 75.81849
201.4400, 73.79481
201.9221, 73.01722
202.4042, 72.59850
202.8864, 72.63718
203.3685, 72.85695
203.8506, 72.46976
204.3327, 71.28393
204.8148, 70.27986
205.2969, 70.12173
205.7791, 70.96263
206.2612, 71.52001
206.7433, 71.67819
207.2254, 71.54568
207.7075, 71.31495
208.1896, 70.87379
208.6718, 70.65855
209.1539, 70.97313
209.6360, 71.92799
210.1181, 72.81779
210.6002, 73.55323
211.0823, 74.23045
211.5645, 75.15418
212.0466, 76.43019
212.5287, 77.71697
213.0108, 78.80789
213.4929, 79.64072
213.9750, 80.52654
214.4572, 81.39905
214.9393, 82.36577
215.4214, 83.98744
215.9035, 86.87029
216.3856, 89.18582
216.8678, 89.81843
217.3499, 88.35147
217.8320, 86.59691
218.3141, 84.59146
218.7962, 82.37400
219.2783, 80.01064
219.7605, 77.30317
220.2426, 74.84159
220.7247, 73.01222
221.2068, 72.04653
221.6889, 71.03187
222.1710, 69.79538
222.6532, 68.52056
223.1353, 67.84162
223.6174, 67.91555
224.0995, 68.31207
224.5816, 68.90786
225.0637, 69.99562
225.5459, 70.50149
226.0280, 70.07873
226.5101, 69.12434
226.9922, 68.94102
227.4743, 70.05126
227.9564, 71.10670
228.4386, 71.38918
228.9207, 70.41570
229.4028, 69.84940
229.8849, 69.89876
230.3670, 70.32381
230.8492, 70.42848
231.3313, 70.00017
231.8134, 69.57186
232.2955, 69.37923
232.7776, 69.48611
233.2597, 69.72195
233.7419, 70.27070
234.2240, 70.89913
234.7061, 70.87386
235.1882, 69.54539
235.6703, 68.55347
236.1524, 68.71789
236.6346, 70.85744
237.1167, 72.27260
237.5988, 72.79842
238.0809, 72.67371
238.5630, 72.37537
239.0451, 71.57365
239.5273, 71.09953
240.0094, 71.40794
240.4915, 73.04826
240.9736, 74.00483
241.4557, 73.99289
241.9378, 73.42947
242.4200, 73.17432
242.9021, 73.33073
243.3842, 73.63206
243.8663, 74.03274
244.3484, 74.67032
244.8306, 74.95988
245.3127, 74.66235
245.7948, 74.14103
246.2769, 74.13289
246.7590, 75.06351
247.2411, 75.78071
247.7233, 75.78917
248.2054, 74.78216
248.6875, 74.20348
249.1696, 74.08322
249.6517, 74.37325
250.1338, 75.08208
250.6160, 76.56584
251.0981, 77.82690
251.5802, 78.45265
252.0623, 78.25813
252.5444, 78.44271
253.0265, 79.23856
253.5087, 80.22263
253.9908, 80.72769
254.4729, 80.44494
254.9550, 80.31375
255.4371, 80.57649
255.9192, 81.24136
256.4014, 82.30107
256.8835, 84.20372
257.3656, 86.05629
257.8477, 86.76801
258.3298, 85.98282
258.8120, 84.83387
259.2941, 83.47912
259.7762, 81.88437
260.2583, 80.53381
260.7404, 79.29015
261.2225, 78.44202
261.7047, 78.27992
262.1868, 78.88393
262.6689, 80.00105
263.1510, 81.79117
263.6331, 84.20711
264.1152, 85.98171
264.5974, 86.71535
265.0795, 87.40805
265.5616, 89.19253
266.0437, 92.65600
266.5258, 95.38786
267.0079, 97.02092
267.4901, 97.58028
267.9722, 97.12272
268.4543, 95.57031
268.9364, 93.15349
269.4185, 89.80538
269.9006, 85.19824
270.3828, 81.06792
270.8649, 77.53687
271.3470, 74.66949
271.8291, 72.81808
272.3112, 72.19016
272.7933, 71.97826
273.2755, 71.51595
273.7576, 70.67823
274.2397, 70.49584
274.7218, 71.34262
275.2039, 72.77646
275.6860, 73.41869
276.1682, 73.15012
276.6503, 72.56181
277.1324, 71.91284
277.6145, 71.18559
278.0966, 70.75163
278.5787, 70.71821
279.0609, 70.90468
279.5430, 70.88296
280.0251, 70.61311
280.5072, 70.39600
280.9893, 70.48337
281.4715, 70.87266
281.9536, 70.93340
282.4357, 70.51378
282.9178, 70.00069
283.3999, 70.15905
283.8820, 71.02719
284.3642, 71.85288
284.8463, 72.14249
285.3284, 71.97154
285.8105, 72.32152
286.2926, 73.32578
286.7747, 74.43639
287.2569, 74.92967
287.7390, 74.81622
288.2211, 74.39122
288.7032, 73.45494
289.1853, 72.25443
289.6674, 72.03989
290.1496, 72.92533
290.6317, 74.03519
291.1138, 74.32549
291.5959, 73.91042
292.0780, 73.58620
292.5602, 73.74373
293.0423, 74.12215
293.5244, 73.88439
294.0065, 72.99969
294.4886, 72.26070
294.9707, 72.68699
295.4529, 73.92805
295.9350, 74.70451
296.4171, 74.61797
296.8992, 73.95659
297.3813, 72.92728
297.8634, 71.59586
298.3456, 70.67876
298.8277, 71.05118
299.3098, 72.23196
299.7919, 73.19987
300.2740, 73.76842
300.7561, 73.98499
301.2383, 73.72539
301.7204, 73.08336
302.2025, 72.50126
302.6846, 72.08638
303.1667, 71.95216
303.6488, 72.39653
304.1310, 73.64322
304.6131, 74.90025
305.0952, 75.38230
305.5773, 75.23495
306.0594, 74.85326
306.5415, 74.08189
307.0237, 73.36057
307.5058, 73.21797
307.9879, 73.76360
308.4700, 74.48096
308.9521, 75.15236
309.4343, 75.70921
309.9164, 76.05025
310.3985, 75.99860
310.8806, 75.80720
311.3627, 75.67142
311.8448, 75.60007
312.3270, 75.48931
312.8091, 75.05729
313.2912, 74.62008
313.7733, 74.55109
314.2554, 75.76341
314.7375, 76.70358
315.2197, 76.18038
315.7018, 74.39409
316.1839, 73.09193
316.6660, 73.37778
317.1481, 74.31683
317.6302, 75.16009
318.1124, 75.90967
318.5945, 76.31763
319.0766, 76.12560
319.5587, 75.48428
320.0408, 74.91680
320.5229, 74.43413
321.0051, 74.17691
321.4872, 74.27524
321.9693, 75.04408
322.4514, 75.60905
322.9335, 75.63844
323.4156, 75.35818
323.8978, 75.20375
324.3799, 75.37783
324.8620, 75.57883
325.3441, 75.70263
325.8262, 75.72300
326.3083, 75.72230
326.7905, 75.67014
327.2726, 75.61201
327.7547, 75.60432
328.2368, 75.79129
328.7189, 75.88067
329.2010, 75.82308
329.6832, 75.61752
330.1653, 75.26585
330.6474, 74.29469
331.1295, 73.51900
331.6116, 73.67143
332.0938, 75.76323
332.5759, 77.16740
333.0580, 77.38290
333.5401, 76.56274
334.0222, 75.81036
334.5043, 75.04317
334.9865, 74.44714
335.4686, 74.13712
335.9507, 74.17168
336.4328, 74.34618
336.9149, 74.69912
337.3970, 75.16480
337.8792, 75.57905
338.3613, 75.97921
338.8434, 76.24265
339.3255, 76.28432
339.8076, 76.07183
340.2898, 75.91483
340.7719, 75.86795
341.2540, 75.78345
341.7361, 75.31540
342.2182, 74.40301
342.7003, 73.78667
343.1825, 73.95347
343.6646, 74.70641
344.1467, 74.52335
344.6288, 73.22379
345.1109, 71.89121
345.5930, 71.79652
346.0752, 72.81042
346.5573, 73.57193
347.0394, 73.62267
347.5215, 73.33765
348.0036, 73.64951
348.4857, 74.54208
348.9679, 75.40305
349.4500, 75.70149
349.9321, 75.61015
350.4142, 75.66736
350.8963, 76.02424
351.3784, 76.38078
351.8606, 76.27512
352.3427, 75.80936
352.8248, 75.35545
353.3069, 75.13005
353.7890, 75.04289
354.2711, 74.99302
354.7533, 74.98090
355.2354, 74.93751
355.7175, 74.79328
356.1996, 74.57885
356.6817, 74.34742
357.1638, 73.72929
357.6460, 73.38754
358.1281, 74.23776
358.6102, 76.14713
359.0923, 77.47866
359.5744, 76.75733
360.0565, 75.23645
360.5387, 74.12261
361.0208, 73.81575
361.5029, 73.89242
361.9850, 74.44195
362.4671, 75.28034
362.9492, 75.83226
363.4314, 75.73829
363.9135, 75.42101
364.3956, 75.09216
364.8777, 74.75665
365.3598, 74.46867
365.8419, 74.11791
366.3241, 73.84719
366.8062, 73.87502
367.2883, 74.56419
367.7704, 75.23378
368.2526, 75.69211
368.7347, 75.89877
369.2168, 76.10416
369.6989, 76.42928
370.1810, 76.68482
370.6631, 76.71748
371.1453, 76.45961
371.6274, 76.06570
372.1095, 75.42992
372.5916, 74.62612
373.0737, 74.18291
373.5558, 74.25896
374.0380, 74.45332
374.5201, 74.50094
375.0022, 74.24998
375.4843, 74.41785
375.9664, 75.26640
376.4485, 76.33507
376.9307, 76.64109
377.4128, 76.01028
377.8949, 75.34319
378.3770, 74.99998
378.8591, 74.96582
379.3412, 74.91957
379.8234, 74.83940
380.3055, 74.82484
380.7876, 75.10265
381.2697, 75.64611
381.7518, 75.91151
382.2339, 75.65836
382.7161, 75.11484
383.1982, 74.78320
383.6803, 74.66271
384.1624, 74.64701
384.6445, 74.78103
385.1266, 74.95847
385.6088, 74.82254
386.0909, 74.19774
386.5730, 73.63737
387.0551, 73.92905
387.5372, 74.83922
388.0193, 75.70712
388.5015, 76.14118
388.9836, 76.37496
389.4657, 76.74068
389.9478, 77.26763
390.4299, 77.51905
390.9120, 76.99470
391.3942, 76.08435
391.8763, 75.27222
392.3584, 74.58596
392.8405, 74.17122
393.3226, 74.16048
393.8047, 74.50710
394.2869, 74.99772
394.7690, 75.96335
395.2511, 76.76549
395.7332, 76.93176
396.2154, 75.96229
396.6975, 75.25333
397.1796, 75.16855
397.6617, 75.51323
398.1438, 75.94765
398.6259, 76.95682
399.1081, 77.53855
399.5902, 77.17820
400.0723, 75.64788
400.5544, 74.77061
401.0365, 74.97726
401.5186, 75.51539
402.0008, 75.74451
402.4829, 75.34825
402.9650, 75.26719
403.4471, 75.78857
403.9292, 76.70210
404.4113, 77.03814
404.8935, 76.52511
405.3756, 76.06460
405.8577, 76.26341
406.3398, 77.28139
406.8219, 77.68945
407.3040, 77.32111
407.7862, 76.63474
408.2683, 76.28259
408.7504, 76.27427
409.2325, 76.31684
409.7146, 76.38486
410.1967, 76.41434
410.6789, 76.02224
411.1610, 75.18397
411.6431, 74.57643
412.1252, 75.09010
412.6073, 76.32353
413.0894, 77.10938
413.5716, 77.13357
414.0537, 76.79719
414.5358, 76.45387
415.0179, 76.12698
415.5000, 75.88239
415.9821, 75.72020
416.4643, 75.67889
416.9464, 75.88936
417.4285, 76.38140
417.9106, 76.75205
418.3927, 76.43811
418.8748, 75.95414
419.3570, 75.91605
419.8391, 77.35059
420.3212, 78.47792
420.8033, 78.27795
421.2854, 77.03194
421.7675, 76.07008
422.2497, 75.90193
422.7318, 76.04778
423.2139, 76.32177
423.6960, 76.92478
424.1781, 77.16811
424.6602, 76.49839
425.1424, 75.55513
425.6245, 75.30443
426.1066, 76.61583
426.5887, 77.50867
427.0709, 77.29798
427.5530, 75.98460
428.0351, 75.61546
428.5172, 76.73319
428.9993, 78.04639
429.4814, 78.60540
429.9636, 78.22185
430.4457, 77.78239
430.9278, 77.30504
431.4099, 76.86288
431.8920, 76.66980
432.3741, 76.76246
432.8563, 76.80131
433.3384, 76.50131
433.8205, 75.96261
434.3026, 76.02506
434.7847, 76.77190
435.2668, 77.45796
435.7490, 77.08553
436.2311, 75.96577
436.7132, 75.24311
437.1953, 75.34329
437.6774, 75.79864
438.1595, 75.92581
438.6417, 75.82970
439.1238, 75.94443
439.6059, 77.03159
440.0880, 78.20805
440.5701, 78.35172
441.0522, 77.18896
441.5344, 76.08440
442.0165, 76.06731
442.4986, 76.54763
442.9807, 76.80360
443.4628, 76.14421
443.9449, 75.65913
444.4271, 75.95158
444.9092, 76.87025
445.3913, 77.53504
445.8734, 77.63073
446.3555, 77.48080
446.8376, 77.18513
447.3198, 76.44186
447.8019, 76.18602
448.2840, 76.88020
448.7661, 77.88155
449.2482, 78.27846
449.7303, 77.72890
450.2125, 77.13972
450.6946, 76.63943
451.1767, 76.23691
451.6588, 76.11083
452.1409, 76.34782
452.6230, 76.65842
453.1052, 76.84241
453.5873, 76.89412
454.0694, 76.91328
454.5515, 76.90369
455.0337, 76.87247
455.5158, 76.78978
455.9979, 76.66466
456.4800, 76.65019
456.9621, 76.94075
457.4442, 77.34924
457.9264, 77.37064
458.4085, 77.01928
458.8906, 76.66249
459.3727, 76.52212
459.8548, 76.59431
460.3369, 76.96613
460.8191, 77.87309
461.3012, 78.57431
461.7833, 78.26845
462.2654, 77.32493
462.7475, 76.51369
463.2296, 76.11461
463.7118, 75.97515
464.1939, 76.12728
464.6760, 76.57678
465.1581, 76.85201
465.6402, 76.45676
466.1223, 76.04031
466.6045, 76.06554
467.0866, 77.27431
467.5687, 78.07971
468.0508, 78.15317
468.5329, 77.79347
469.0150, 77.68073
469.4972, 78.07610
469.9793, 78.32653
470.4614, 78.22745
470.9435, 77.76891
471.4256, 77.10719
471.9077, 76.09187
472.3899, 75.17596
472.8720, 74.87062
473.3541, 75.24193
473.8362, 75.32134
474.3183, 74.80602
474.8004, 74.20084
475.2826, 74.66422
475.7647, 76.12312
476.2468, 77.54420
476.7289, 78.66077
477.2110, 79.31795
477.6931, 78.80556
478.1753, 77.12688
478.6574, 75.67770
479.1395, 76.10562
479.6216, 77.35897
480.1037, 77.80962
480.5858, 76.63396
481.0680, 75.33029
481.5501, 74.87708
482.0322, 75.04961
482.5143, 75.38819
482.9964, 75.99007
483.4786, 76.47933
483.9607, 76.58158
484.4428, 76.24380
484.9249, 76.10079
485.4070, 76.61765
485.8892, 77.15858
486.3713, 77.24989
486.8534, 76.17072
487.3355, 75.72620
487.8176, 76.39293
488.2997, 77.57291
488.7819, 77.92380
489.2640, 77.00967
489.7461, 76.25143
490.2282, 76.13949
490.7103, 76.63559
491.1924, 77.21490
491.6746, 77.97889
492.1567, 78.42309
492.6388, 77.74775
493.1209, 76.13896
493.6030, 75.42727
494.0851, 76.03600
494.5673, 77.07974
495.0494, 77.26140
495.5315, 76.77518
496.0136, 76.31656
496.4957, 76.22134
496.9778, 76.31590
497.4600, 76.40935
497.9421, 76.50700
498.4242, 76.67140
498.9063, 77.05435
499.3884, 77.45712
499.8705, 77.70848
500.3527, 77.74119
500.8348, 77.69975
501.3169, 77.65318
501.7990, 77.55858
502.2811, 77.35326
502.7632, 76.59963
503.2454, 76.19749
503.7275, 76.61736
504.2096, 77.73852
504.6917, 78.19650
505.1738, 77.49670
505.6559, 76.80162
506.1381, 76.77698
506.6202, 77.64175
507.1023, 78.32041
507.5844, 78.84200
508.0665, 79.12838
508.5486, 78.93538
509.0308, 78.24666
509.5129, 77.76142
509.9950, 77.71162
510.4771, 77.91801
510.9592, 78.00191
511.4413, 77.97498
511.9235, 77.96481
512.4056, 78.10511
512.8877, 78.29109
513.3698, 78.32366
513.8519, 78.17353
514.3340, 78.09083
514.8162, 78.40207
515.2983, 78.83340
515.7804, 79.04951
516.2625, 78.77580
516.7446, 78.49479
517.2267, 78.42985
517.7089, 78.50448
518.1910, 78.53043
518.6731, 78.12463
519.1552, 77.98878
519.6373, 78.60027
520.1194, 80.10104
520.6016, 80.83372
521.0837, 80.34407
521.5658, 79.58501
522.0479, 79.31296
522.5300, 79.80294
523.0121, 79.68067
523.4943, 78.56624
523.9764, 77.18697
524.4585, 77.07139
524.9406, 78.25605
525.4227, 79.07552
525.9048, 78.69697
526.3870, 77.65841
526.8691, 77.30273
527.3513, 77.59957
527.8334, 78.08817
528.3155, 78.55222
528.7976, 78.96190
529.2797, 79.25283
529.7618, 79.40133
530.2440, 79.54504
530.7261, 80.08327
531.2082, 80.57800
531.6903, 80.46004
532.1724, 78.69312
532.6545, 77.18693
533.1367, 76.56424
533.6188, 76.68922
534.1009, 77.03907
534.5830, 78.07583
535.0651, 78.80146
535.5472, 78.75959
536.0294, 77.78677
536.5115, 77.24139
536.9936, 77.27839
537.4757, 77.52659
537.9578, 77.68566
538.4399, 77.73701
538.9221, 77.81925
539.4042, 77.93555
539.8863, 78.10938
540.3684, 78.49129
540.8505, 79.04638
541.3326, 79.34971
541.8148, 79.12155
542.2969, 78.60069
542.7790, 78.09241
543.2611, 77.62435
543.7432, 77.39127
544.2253, 77.88145
544.7075, 78.48441
545.1896, 78.44405
545.6717, 77.51489
546.1538, 76.76369
546.6359, 76.89000
547.1180, 77.39174
547.6002, 77.73463
548.0823, 77.66623
548.5644, 77.57751
549.0465, 77.49210
549.5286, 77.43410
550.0107, 77.47728
550.4929, 77.68980
550.9750, 77.89188
551.4571, 77.95238
551.9392, 77.86983
552.4213, 78.34064
552.9034, 79.61478
553.3856, 80.67100
553.8677, 80.45499
554.3498, 79.09406
554.8319, 78.10954
555.3140, 77.65235
555.7961, 77.59414
556.2783, 78.00326
556.7604, 78.70005
557.2425, 79.15955
557.7246, 79.01817
558.2067, 78.73570
558.6888, 78.82642
559.1710, 79.17065
559.6531, 79.35914
560.1352, 78.96066
560.6173, 78.52987
561.0994, 78.44437
561.5815, 78.78400
562.0637, 79.02205
562.5458, 79.01995
563.0279, 78.90101
563.5100, 78.75379
563.9921, 78.53886
564.4742, 78.36713
564.9564, 78.26494
565.4385, 78.18661
565.9206, 78.00909
566.4027, 77.67371
566.8848, 77.56268
567.3669, 77.90268
567.8491, 78.48341
568.3312, 78.51427
568.8133, 78.01899
569.2954, 77.62595
569.7775, 77.89748
570.2596, 78.50430
570.7418, 78.87538
571.2239, 78.98006
571.7060, 78.87649
572.1881, 78.27114
572.6702, 77.63284
573.1523, 77.52468
573.6345, 78.42281
574.1166, 79.25830
574.5987, 79.69690
575.0808, 79.79923
575.5629, 79.66853
576.0450, 79.10328
576.5272, 78.54467
577.0093, 78.03856
577.4914, 77.59877
577.9735, 77.29222
578.4556, 77.07897
578.9377, 77.09174
579.4199, 77.55239
579.9020, 78.47263
580.3841, 78.80120
580.8662, 78.47350
581.3483, 77.91048
581.8304, 77.36950
582.3126, 76.92226
582.7947, 76.88628
583.2768, 77.42811
583.7589, 78.06377
584.2410, 78.26198
584.7231, 78.17585
585.2053, 78.10871
585.6874, 78.35464
586.1696, 78.49695
586.6517, 78.08608
587.1338, 77.30534
587.6159, 76.97417
588.0980, 77.73322
588.5801, 78.60270
589.0623, 79.23267
589.5444, 79.64030
590.0265, 79.63814
590.5086, 78.95335
590.9907, 78.20885
591.4728, 77.89021
591.9550, 78.05019
592.4371, 78.37627
592.9192, 78.92836
593.4013, 79.44387
593.8834, 79.52909
594.3655, 79.22178
594.8477, 78.72158
595.3298, 77.97679
595.8119, 77.22835
596.2940, 76.72099
596.7761, 76.47483
597.2582, 76.54060
597.7404, 77.15061
598.2225, 77.92331
598.7046, 78.72559
599.1867, 79.53323
599.6688, 79.95606
600.1509, 79.48869
600.6331, 78.88470
601.1152, 78.64629
601.5973, 79.06509
602.0794, 79.17606
602.5615, 78.80776
603.0436, 78.29469
603.5258, 78.04623
604.0079, 78.13261
604.4900, 78.09386
604.9721, 77.80875
605.4542, 77.43696
605.9363, 77.26498
606.4185, 77.29189
606.9006, 77.50246
607.3827, 78.11021
607.8648, 78.75851
608.3469, 78.82588
608.8290, 78.40141
609.3112, 77.98137
609.7933, 77.78511
610.2754, 77.75552
610.7575, 77.92525
611.2396, 78.33937
611.7217, 78.57154
612.2039, 78.41189
612.6860, 78.07796
613.1681, 77.71006
613.6502, 77.01849
614.1323, 76.85193
614.6144, 77.55460
615.0966, 78.49000
615.5787, 78.63150
616.0608, 77.80843
616.5429, 77.30277
617.0250, 77.50327
617.5071, 78.09229
617.9893, 78.34751
618.4714, 78.30806
618.9535, 78.26663
619.4356, 78.40166
619.9177, 78.61024
620.3998, 78.79571
620.8820, 78.94935
621.3641, 79.01121
621.8462, 79.03407
622.3283, 78.89232
622.8104, 78.39901
623.2925, 77.36254
623.7747, 76.65513
624.2568, 76.36337
624.7389, 76.51683
625.2210, 77.23446
625.7031, 79.16391
626.1852, 80.16757
626.6674, 79.83418
627.1495, 78.86089
627.6316, 78.39423
628.1137, 78.45576
628.5958, 78.48544
629.0779, 78.28487
629.5601, 78.00362
630.0422, 78.00061
630.5243, 78.20942
631.0064, 78.31264
631.4885, 78.04211
631.9706, 77.64809
632.4528, 77.30032
632.9349, 77.02096
633.4170, 76.91618
633.8991, 77.17912
634.3812, 77.52200
634.8633, 77.77528
635.3455, 77.89005
635.8276, 78.00833
636.3097, 78.15022
636.7918, 78.28200
637.2739, 78.37416
637.7560, 78.41875
638.2382, 78.44231
638.7203, 78.43436
639.2024, 78.42550
639.6845, 78.46317
640.1666, 78.54343
640.6487, 78.65430
641.1309, 78.85131
641.6130, 78.99137
642.0951, 78.74941
642.5772, 78.26905
643.0594, 77.96751
643.5415, 78.13748
644.0236, 78.46620
644.5057, 78.86181
644.9879, 79.29462
645.4700, 79.54790
645.9521, 79.51385
646.4342, 79.34217
646.9163, 79.08370
647.3984, 78.71916
647.8806, 78.40159
648.3627, 78.15027
648.8448, 77.91015
649.3269, 77.65687
649.8090, 77.39060
650.2911, 76.93796
650.7733, 76.20448
651.2554, 75.62278
651.7375, 75.94505
652.2196, 76.80867
652.7017, 77.28456
653.1838, 76.91996
653.6660, 76.47693
654.1481, 76.55279
654.6302, 76.95545
655.1123, 77.34893
655.5944, 77.92787
656.0765, 78.15034
656.5587, 77.51289
657.0408, 76.28547
657.5229, 75.72006
658.0050, 76.03163
658.4871, 76.68037
658.9692, 77.65458
659.4514, 78.87682
659.9335, 79.38036
660.4156, 79.08891
660.8977, 78.70072
661.3798, 78.74404
661.8619, 79.07375
662.3441, 79.36338
662.8262, 79.59903
663.3083, 79.62878
663.7904, 79.13689
664.2725, 78.46908
664.7546, 77.99684
665.2368, 77.80788
665.7189, 77.78628
666.2010, 77.99573
666.6831, 78.30629
667.1652, 78.57335
667.6473, 78.82415
668.1295, 78.98621
668.6116, 79.08308
669.0937, 79.07042
669.5758, 78.75568
670.0579, 78.07419
670.5400, 77.73112
671.0222, 78.07641
671.5043, 78.72979
671.9864, 78.84232
672.4685, 78.51655
672.9506, 78.26440
673.4327, 78.50554
673.9149, 78.84892
674.3970, 78.86638
674.8791, 78.61270
675.3612, 78.53586
675.8433, 79.08332
676.3254, 79.62631
676.8076, 79.80802
677.2897, 79.54678
677.7718, 79.33615
678.2539, 79.24059
678.7360, 79.11295
679.2181, 78.84036
679.7003, 78.41090
680.1824, 77.97977
680.6645, 77.53754
681.1466, 77.16441
681.6287, 76.87132
682.1108, 76.71547
682.5930, 76.91654
683.0751, 77.60288
683.5572, 78.35483
684.0393, 78.88338
