##NAMES=Cobaltomenite
##RRUFFID=R070352
##IDEAL CHEMISTRY=Co^2+^Se^4+^O_3_&#183;2H_2_O
##LOCALITY=Temple Mountain, San Rafael District (San Rafael Swell), Emery County, Utah, USA
##OWNER=RRUFF
##SOURCE=Michael Scott
##DESCRIPTION=Purple druse of tabular crystals
##STATUS=The identification of this mineral has been confirmed by single-crystal X-ray diffraction.
##URL=rruff.info/R070352
170.3929, 14757.29
170.8750, 14813.87
171.3571, 14861.69
171.8392, 14901.87
172.3213, 14930.59
172.8034, 14941.29
173.2856, 14959.55
173.7677, 15021.59
174.2498, 15115.28
174.7319, 15197.81
175.2140, 15227.22
175.6961, 15232.94
176.1783, 15264.52
176.6604, 15343.25
177.1425, 15427.46
177.6246, 15459.82
178.1067, 15446.48
178.5888, 15429.44
179.0710, 15442.91
179.5531, 15475.07
180.0352, 15496.86
180.5173, 15489.46
180.9994, 15480.58
181.4815, 15525.79
181.9637, 15623.87
182.4458, 15723.67
182.9279, 15781.56
183.4100, 15805.10
183.8921, 15823.91
184.3742, 15846.74
184.8564, 15870.19
185.3385, 15882.63
185.8206, 15883.13
186.3027, 15885.12
186.7848, 15903.46
187.2669, 15936.59
187.7491, 15973.04
188.2312, 16011.07
188.7133, 16049.27
189.1954, 16082.22
189.6775, 16108.93
190.1596, 16133.96
190.6418, 16161.82
191.1239, 16192.47
191.6060, 16227.82
192.0881, 16273.90
192.5702, 16328.26
193.0524, 16369.12
193.5345, 16395.51
194.0166, 16410.87
194.4987, 16409.67
194.9808, 16389.39
195.4629, 16390.68
195.9451, 16452.58
196.4272, 16573.84
196.9093, 16637.73
197.3914, 16629.05
197.8735, 16581.13
198.3556, 16547.76
198.8378, 16527.04
199.3199, 16532.76
199.8020, 16585.89
200.2841, 16690.80
200.7662, 16770.15
201.2483, 16816.57
201.7305, 16837.71
202.2126, 16847.35
202.6947, 16841.25
203.1768, 16839.52
203.6589, 16852.62
204.1410, 16880.23
204.6232, 16927.76
205.1053, 17007.29
205.5874, 17101.99
206.0695, 17150.50
206.5516, 17139.40
207.0337, 17117.29
207.5159, 17118.23
207.9980, 17147.63
208.4801, 17174.17
208.9622, 17193.58
209.4443, 17207.24
209.9264, 17219.11
210.4086, 17223.76
210.8907, 17237.67
211.3728, 17278.03
211.8549, 17356.19
212.3370, 17423.39
212.8191, 17473.85
213.3013, 17507.65
213.7834, 17525.70
214.2655, 17519.24
214.7476, 17511.17
215.2297, 17522.74
215.7118, 17561.56
216.1940, 17599.40
216.6761, 17631.50
217.1582, 17658.19
217.6403, 17683.07
218.1224, 17706.71
218.6045, 17727.46
219.0867, 17740.16
219.5688, 17733.51
220.0509, 17747.08
220.5330, 17799.65
221.0151, 17893.54
221.4972, 17943.53
221.9794, 17927.26
222.4615, 17892.57
222.9436, 17893.77
223.4257, 17953.82
223.9078, 18002.06
224.3899, 18015.50
224.8721, 17989.69
225.3542, 17991.55
225.8363, 18034.25
226.3184, 18092.12
226.8005, 18135.00
227.2827, 18154.93
227.7648, 18174.68
228.2469, 18202.09
228.7290, 18239.71
229.2111, 18262.26
229.6932, 18255.35
230.1754, 18244.77
230.6575, 18269.19
231.1396, 18357.93
231.6217, 18428.98
232.1038, 18453.75
232.5859, 18419.92
233.0681, 18406.69
233.5502, 18422.09
234.0323, 18452.24
234.5144, 18475.89
234.9965, 18481.65
235.4786, 18500.47
235.9608, 18548.54
236.4429, 18637.79
236.9250, 18696.71
237.4071, 18712.34
237.8892, 18705.14
238.3713, 18706.36
238.8535, 18716.78
239.3356, 18734.60
239.8177, 18763.03
240.2998, 18809.87
240.7819, 18835.55
241.2640, 18827.22
241.7462, 18805.60
242.2283, 18806.73
242.7104, 18839.12
243.1925, 18880.63
243.6746, 18929.49
244.1567, 18997.47
244.6389, 19029.26
245.1210, 19003.69
245.6031, 18954.54
246.0852, 18944.13
246.5673, 18994.59
247.0494, 19046.04
247.5316, 19075.69
248.0137, 19074.00
248.4958, 19083.59
248.9779, 19110.16
249.4600, 19144.82
249.9421, 19170.18
250.4243, 19182.18
250.9064, 19192.56
251.3885, 19206.81
251.8706, 19229.04
252.3527, 19240.41
252.8348, 19235.02
253.3170, 19222.46
253.7991, 19221.87
254.2812, 19239.11
254.7633, 19257.01
255.2454, 19267.65
255.7275, 19266.24
256.2097, 19275.76
256.6918, 19300.26
257.1739, 19332.79
257.6560, 19361.06
258.1381, 19384.39
258.6202, 19404.82
259.1024, 19420.07
259.5845, 19424.21
260.0666, 19449.95
260.5487, 19510.24
261.0308, 19582.22
261.5129, 19625.78
261.9951, 19634.22
262.4772, 19629.08
262.9593, 19614.66
263.4414, 19586.24
263.9235, 19570.42
264.4056, 19567.59
264.8878, 19576.94
265.3699, 19600.57
265.8520, 19645.91
266.3341, 19684.81
266.8162, 19701.19
267.2983, 19687.81
267.7805, 19701.74
268.2626, 19756.69
268.7447, 19823.57
269.2268, 19846.04
269.7089, 19810.04
270.1910, 19780.20
270.6732, 19788.02
271.1553, 19839.80
271.6374, 19862.74
272.1195, 19845.65
272.6016, 19816.13
273.0837, 19826.37
273.5659, 19886.74
274.0480, 19933.48
274.5301, 19929.07
275.0122, 19870.28
275.4943, 19862.47
275.9764, 19919.10
276.4586, 20001.38
276.9407, 20051.92
277.4228, 20067.20
277.9049, 20076.37
278.3870, 20090.52
278.8691, 20109.20
279.3513, 20118.51
279.8334, 20114.17
280.3155, 20111.44
280.7976, 20139.20
281.2798, 20199.17
281.7619, 20244.32
282.2440, 20248.65
282.7261, 20219.00
283.2082, 20208.87
283.6903, 20220.85
284.1725, 20242.70
284.6546, 20263.34
285.1367, 20282.38
285.6188, 20292.76
286.1009, 20282.50
286.5830, 20260.63
287.0652, 20271.11
287.5473, 20317.73
288.0294, 20373.46
288.5115, 20407.17
288.9936, 20421.59
289.4757, 20438.22
289.9579, 20465.85
290.4400, 20500.52
290.9221, 20532.29
291.4042, 20561.05
291.8863, 20588.42
292.3684, 20619.26
292.8506, 20651.13
293.3327, 20673.34
293.8148, 20677.28
294.2969, 20672.67
294.7790, 20678.72
295.2611, 20695.48
295.7433, 20716.37
296.2254, 20740.66
296.7075, 20765.38
297.1896, 20780.82
297.6717, 20780.10
298.1538, 20772.70
298.6360, 20768.21
299.1181, 20767.31
299.6002, 20778.17
300.0823, 20818.93
300.5644, 20874.70
301.0465, 20916.16
301.5287, 20927.12
302.0108, 20931.37
302.4929, 20962.36
302.9750, 21014.66
303.4571, 21055.48
303.9392, 21052.22
304.4214, 21027.60
304.9035, 21011.45
305.3856, 21010.49
305.8677, 21021.01
306.3498, 21043.16
306.8319, 21075.04
307.3141, 21110.55
307.7962, 21148.00
308.2783, 21186.01
308.7604, 21224.64
309.2425, 21265.26
309.7246, 21301.73
310.2068, 21337.03
310.6889, 21366.02
311.1710, 21376.07
311.6531, 21332.68
312.1352, 21285.34
312.6173, 21274.42
313.0995, 21317.37
313.5816, 21364.89
314.0637, 21396.48
314.5458, 21416.64
315.0279, 21434.16
315.5100, 21455.45
315.9922, 21472.70
316.4743, 21478.65
316.9564, 21468.00
317.4385, 21464.71
317.9206, 21470.65
318.4027, 21490.04
318.8849, 21528.80
319.3670, 21623.80
319.8491, 21707.43
320.3312, 21748.23
320.8133, 21735.90
321.2954, 21730.60
321.7776, 21758.22
322.2597, 21793.16
322.7418, 21808.14
323.2239, 21775.92
323.7060, 21746.66
324.1881, 21728.06
324.6703, 21719.80
325.1524, 21730.82
325.6345, 21771.28
326.1166, 21826.17
326.5987, 21884.20
327.0808, 21976.54
327.5630, 22034.84
328.0451, 22034.53
328.5272, 21979.39
329.0093, 21952.55
329.4914, 21972.90
329.9735, 22004.90
330.4557, 22024.76
330.9378, 22018.25
331.4199, 22024.66
331.9020, 22049.58
332.3841, 22090.19
332.8662, 22135.38
333.3484, 22194.29
333.8305, 22243.24
334.3126, 22264.93
334.7947, 22244.37
335.2768, 22243.57
335.7589, 22272.60
336.2411, 22319.18
336.7232, 22352.24
337.2053, 22367.08
337.6874, 22381.39
338.1695, 22407.04
338.6516, 22446.78
339.1338, 22469.71
339.6159, 22470.04
340.0980, 22461.51
340.5801, 22468.37
341.0622, 22492.35
341.5443, 22516.66
342.0265, 22533.66
342.5086, 22544.34
342.9907, 22560.41
343.4728, 22582.85
343.9549, 22606.37
344.4370, 22620.54
344.9192, 22626.95
345.4013, 22642.65
345.8834, 22679.07
346.3655, 22727.36
346.8476, 22763.50
347.3297, 22787.22
347.8119, 22803.62
348.2940, 22811.18
348.7761, 22814.21
349.2582, 22825.59
349.7403, 22851.61
350.2225, 22885.24
350.7046, 22919.96
351.1867, 22955.26
351.6688, 22984.98
352.1509, 23000.74
352.6331, 23009.16
353.1152, 23019.04
353.5973, 23029.51
354.0794, 23047.25
354.5615, 23078.38
355.0436, 23121.72
355.5258, 23173.73
356.0079, 23259.74
356.4900, 23338.44
356.9721, 23365.73
357.4542, 23319.40
357.9363, 23274.07
358.4185, 23263.13
358.9006, 23282.36
359.3827, 23324.46
359.8648, 23425.52
360.3469, 23517.88
360.8290, 23561.49
361.3112, 23547.13
361.7933, 23527.09
362.2754, 23491.94
362.7575, 23469.28
363.2396, 23489.14
363.7217, 23626.96
364.2039, 23739.13
364.6860, 23771.87
365.1681, 23723.56
365.6502, 23700.19
366.1323, 23738.10
366.6144, 23789.82
367.0966, 23822.68
367.5787, 23808.26
368.0608, 23808.44
368.5429, 23838.94
369.0250, 23890.94
369.5071, 23916.50
369.9893, 23886.93
370.4714, 23864.15
370.9535, 23882.32
371.4356, 23971.10
371.9177, 24032.44
372.3998, 24059.27
372.8820, 24061.03
373.3641, 24056.04
373.8462, 24040.85
374.3283, 24027.80
374.8104, 24020.16
375.2925, 24017.33
375.7747, 24028.34
376.2568, 24056.73
376.7389, 24092.10
377.2210, 24119.37
377.7031, 24137.75
378.1852, 24159.75
378.6674, 24194.85
379.1495, 24236.37
379.6316, 24250.95
380.1137, 24235.52
380.5958, 24219.99
381.0779, 24239.95
381.5601, 24287.13
382.0422, 24315.83
382.5243, 24304.89
383.0064, 24285.57
383.4885, 24319.23
383.9706, 24399.26
384.4528, 24474.51
384.9349, 24510.31
385.4170, 24519.04
385.8991, 24519.02
386.3812, 24509.54
386.8633, 24502.86
387.3455, 24502.63
387.8276, 24513.42
388.3097, 24546.07
388.7918, 24634.39
389.2739, 24728.41
389.7560, 24783.25
390.2382, 24792.43
390.7203, 24799.23
391.2024, 24826.18
391.6845, 24863.70
392.1666, 24901.18
392.6487, 24944.56
393.1309, 24978.13
393.6130, 24987.39
394.0951, 24975.31
394.5772, 24975.11
395.0593, 25001.34
395.5414, 25038.25
396.0236, 25075.80
396.5057, 25112.38
396.9878, 25150.01
397.4699, 25201.63
397.9520, 25255.94
398.4341, 25276.24
398.9163, 25217.85
399.3984, 25171.83
399.8805, 25175.10
400.3626, 25250.24
400.8447, 25307.58
401.3268, 25341.92
401.8090, 25362.21
402.2911, 25380.89
402.7732, 25397.46
403.2553, 25412.46
403.7374, 25421.33
404.2195, 25425.59
404.7017, 25461.20
405.1838, 25541.98
405.6659, 25617.05
406.1480, 25628.45
406.6301, 25575.01
407.1122, 25543.66
407.5944, 25553.83
408.0765, 25591.16
408.5586, 25626.86
409.0407, 25660.98
409.5228, 25686.10
410.0049, 25686.21
410.4871, 25673.04
410.9692, 25684.28
411.4513, 25728.74
411.9334, 25777.49
412.4155, 25791.20
412.8976, 25781.68
413.3798, 25782.48
413.8619, 25813.42
414.3440, 25859.74
414.8261, 25912.13
415.3082, 25970.27
415.7903, 26019.32
416.2725, 26044.71
416.7546, 26057.90
417.2367, 26071.87
417.7188, 26081.33
418.2009, 26102.30
418.6830, 26154.90
419.1652, 26228.70
419.6473, 26283.34
420.1294, 26282.70
420.6115, 26276.56
421.0937, 26293.88
421.5758, 26351.83
422.0579, 26403.67
422.5400, 26439.65
423.0221, 26466.79
423.5042, 26497.38
423.9864, 26535.66
424.4685, 26572.71
424.9506, 26606.23
425.4327, 26635.29
425.9148, 26669.50
426.3969, 26722.51
426.8791, 26765.17
427.3612, 26765.41
427.8433, 26703.54
428.3254, 26661.10
428.8075, 26651.06
429.2896, 26667.63
429.7718, 26693.92
430.2539, 26731.50
430.7360, 26770.44
431.2181, 26805.50
431.7002, 26836.71
432.1823, 26866.58
432.6645, 26897.28
433.1466, 26919.84
433.6287, 26907.42
434.1108, 26869.79
434.5929, 26857.17
435.0750, 26913.00
435.5572, 26997.08
436.0393, 27036.07
436.5214, 27031.62
437.0035, 27018.41
437.4856, 27028.73
437.9677, 27045.70
438.4499, 27042.87
438.9320, 26999.08
439.4141, 26958.56
439.8962, 26954.24
440.3783, 26977.93
440.8604, 27008.46
441.3426, 27055.62
441.8247, 27092.13
442.3068, 27098.20
442.7889, 27065.22
443.2710, 27033.08
443.7531, 27001.18
444.2353, 26979.97
444.7174, 26980.44
445.1995, 27034.82
445.6816, 27077.50
446.1637, 27086.70
446.6458, 27067.33
447.1280, 27075.86
447.6101, 27142.97
448.0922, 27204.22
448.5743, 27219.72
449.0564, 27164.82
449.5385, 27129.70
450.0207, 27118.26
450.5028, 27126.14
450.9849, 27148.23
451.4670, 27186.51
451.9491, 27228.23
452.4312, 27271.16
452.9134, 27314.11
453.3955, 27348.29
453.8776, 27372.84
454.3597, 27393.96
454.8418, 27426.03
455.3239, 27462.07
455.8061, 27467.07
456.2882, 27418.27
456.7703, 27358.34
457.2524, 27360.07
457.7345, 27408.36
458.2166, 27441.48
458.6988, 27391.78
459.1809, 27322.99
459.6630, 27309.75
460.1451, 27365.48
460.6272, 27432.37
461.1093, 27480.25
461.5915, 27515.80
462.0736, 27546.24
462.5557, 27557.66
463.0378, 27580.43
463.5199, 27640.66
464.0020, 27730.22
464.4842, 27790.52
464.9663, 27785.49
465.4484, 27765.05
465.9305, 27755.69
466.4126, 27769.04
466.8947, 27774.00
467.3769, 27758.49
467.8590, 27739.85
468.3411, 27747.90
468.8232, 27793.94
469.3053, 27844.95
469.7874, 27895.57
470.2696, 27945.26
470.7517, 27984.98
471.2338, 28015.50
471.7159, 28033.54
472.1980, 28027.37
472.6801, 27997.91
473.1623, 27986.92
473.6444, 28001.45
474.1265, 28034.28
474.6086, 28084.13
475.0907, 28146.65
475.5728, 28193.76
476.0550, 28196.13
476.5371, 28178.66
477.0192, 28181.43
477.5013, 28205.88
477.9834, 28238.65
478.4655, 28277.21
478.9477, 28315.63
479.4298, 28345.17
479.9119, 28356.13
480.3940, 28367.12
480.8761, 28388.74
481.3582, 28418.11
481.8404, 28446.69
482.3225, 28457.03
482.8046, 28478.08
483.2867, 28533.26
483.7688, 28647.02
484.2509, 28716.59
484.7331, 28694.98
485.2152, 28644.86
485.6973, 28624.54
486.1794, 28654.17
486.6615, 28678.74
487.1436, 28686.39
487.6258, 28683.00
488.1079, 28697.64
488.5900, 28734.37
489.0721, 28777.85
489.5542, 28826.38
490.0363, 28880.47
490.5185, 28904.56
491.0006, 28891.27
491.4827, 28868.79
491.9648, 28867.90
492.4470, 28888.14
492.9291, 28930.87
493.4112, 29015.65
493.8933, 29105.78
494.3754, 29129.19
494.8575, 29096.48
495.3397, 29072.86
495.8218, 29115.90
496.3039, 29183.41
496.7860, 29232.65
497.2681, 29259.82
497.7502, 29261.65
498.2324, 29205.52
498.7145, 29131.89
499.1966, 29094.76
499.6787, 29146.40
500.1608, 29200.77
500.6429, 29226.21
501.1251, 29224.97
501.6072, 29242.28
502.0893, 29311.23
502.5714, 29373.16
503.0535, 29399.26
503.5356, 29373.45
504.0178, 29348.90
504.4999, 29321.68
504.9820, 29299.61
505.4641, 29296.31
505.9462, 29314.99
506.4283, 29335.25
506.9105, 29349.07
507.3926, 29360.42
507.8747, 29385.07
508.3568, 29423.42
508.8389, 29470.34
509.3210, 29531.64
509.8032, 29599.19
510.2853, 29652.63
510.7674, 29690.13
511.2495, 29710.45
511.7316, 29693.20
512.2137, 29658.72
512.6959, 29648.52
513.1780, 29707.44
513.6601, 29773.27
514.1422, 29809.69
514.6243, 29817.84
515.1064, 29809.24
515.5886, 29764.59
516.0707, 29721.18
516.5528, 29701.23
517.0349, 29708.26
517.5170, 29736.77
517.9991, 29808.05
518.4813, 29891.95
518.9634, 29950.54
519.4455, 29977.21
519.9276, 29989.41
520.4097, 29987.76
520.8918, 29973.85
521.3740, 29950.93
521.8561, 29909.57
522.3382, 29890.43
522.8203, 29936.83
523.3024, 30042.82
523.7845, 30109.10
524.2667, 30125.62
524.7488, 30120.76
525.2309, 30121.46
525.7130, 30129.08
526.1951, 30148.83
526.6772, 30190.04
527.1594, 30237.30
527.6415, 30281.70
528.1236, 30319.22
528.6057, 30332.71
529.0878, 30278.40
529.5699, 30218.32
530.0521, 30204.15
530.5342, 30252.42
531.0163, 30300.49
531.4984, 30314.71
531.9805, 30324.83
532.4626, 30362.48
532.9448, 30486.02
533.4269, 30571.44
533.9090, 30587.31
534.3911, 30553.09
534.8732, 30543.74
535.3553, 30566.21
535.8375, 30600.90
536.3196, 30643.51
536.8017, 30695.68
537.2838, 30732.93
537.7659, 30754.91
538.2480, 30764.22
538.7302, 30756.31
539.2123, 30734.77
539.6944, 30725.48
540.1765, 30735.79
540.6586, 30757.52
541.1407, 30782.27
541.6229, 30809.49
542.1050, 30837.48
542.5871, 30870.84
543.0692, 30900.98
543.5513, 30913.29
544.0334, 30907.26
544.5156, 30914.13
544.9977, 30961.27
545.4798, 31019.99
545.9619, 31067.42
546.4440, 31096.23
546.9261, 31118.18
547.4083, 31122.98
547.8904, 31124.38
548.3725, 31149.38
548.8546, 31225.58
549.3367, 31280.11
549.8188, 31292.22
550.3010, 31264.94
550.7831, 31226.31
551.2652, 31167.18
551.7473, 31127.15
552.2294, 31144.01
552.7115, 31211.83
553.1937, 31269.66
553.6758, 31309.94
554.1579, 31351.64
554.6400, 31434.32
555.1221, 31539.45
555.6042, 31612.31
556.0864, 31623.89
556.5685, 31605.59
557.0506, 31568.86
557.5327, 31522.71
558.0148, 31501.54
558.4969, 31539.61
558.9791, 31594.76
559.4612, 31642.04
559.9433, 31677.03
560.4254, 31712.60
560.9075, 31754.45
561.3896, 31795.79
561.8718, 31831.58
562.3539, 31862.92
562.8360, 31886.25
563.3181, 31897.59
563.8002, 31902.30
564.2823, 31915.45
564.7645, 31940.20
565.2466, 31958.46
565.7287, 31960.35
566.2108, 31949.60
566.6929, 31940.00
567.1750, 31931.10
567.6572, 31935.61
568.1393, 31971.71
568.6214, 32027.64
569.1035, 32081.41
569.5856, 32132.13
570.0677, 32171.91
570.5499, 32186.47
571.0320, 32187.84
571.5141, 32195.23
571.9962, 32224.53
572.4783, 32252.33
572.9604, 32261.38
573.4426, 32257.63
573.9247, 32272.79
574.4068, 32332.64
574.8889, 32393.48
575.3710, 32440.46
575.8531, 32473.22
576.3353, 32490.17
576.8174, 32485.35
577.2995, 32473.33
577.7816, 32465.08
578.2637, 32459.94
578.7458, 32466.72
579.2280, 32487.12
579.7101, 32519.22
580.1922, 32570.50
580.6743, 32635.26
581.1564, 32681.33
581.6385, 32679.16
582.1207, 32657.80
582.6028, 32643.41
583.0849, 32638.87
583.5670, 32665.24
584.0491, 32767.64
584.5313, 32885.07
585.0134, 32971.70
585.4955, 33017.92
585.9776, 33041.58
586.4597, 33025.57
586.9418, 32997.89
587.4240, 32990.80
587.9061, 33019.20
588.3882, 33046.43
588.8703, 33070.19
589.3524, 33089.86
589.8345, 33099.40
590.3167, 33092.70
590.7988, 33100.50
591.2809, 33146.17
591.7630, 33218.73
592.2451, 33248.36
592.7272, 33232.82
593.2094, 33229.58
593.6915, 33310.61
594.1736, 33433.06
594.6557, 33513.44
595.1378, 33531.57
595.6199, 33529.58
596.1021, 33534.25
596.5842, 33539.50
597.0663, 33536.65
597.5485, 33490.12
598.0306, 33469.62
598.5127, 33516.68
598.9948, 33613.53
599.4769, 33682.49
599.9590, 33697.98
600.4412, 33711.82
600.9233, 33746.36
601.4054, 33805.36
601.8875, 33821.92
602.3696, 33779.37
602.8517, 33735.00
603.3339, 33740.96
603.8160, 33793.63
604.2981, 33849.88
604.7802, 33906.13
605.2623, 33959.08
605.7444, 34005.37
606.2266, 34044.69
606.7087, 34073.20
607.1908, 34071.61
607.6729, 34078.14
608.1550, 34149.74
608.6371, 34259.38
609.1193, 34321.58
609.6014, 34245.02
610.0835, 34161.29
610.5656, 34138.28
611.0477, 34189.34
611.5298, 34229.38
612.0120, 34253.76
612.4941, 34267.76
612.9762, 34268.84
613.4583, 34243.95
613.9404, 34260.53
614.4225, 34339.30
614.9047, 34428.16
615.3868, 34437.07
615.8689, 34373.86
616.3510, 34343.55
616.8331, 34387.63
617.3152, 34465.82
617.7974, 34515.77
618.2795, 34545.34
618.7616, 34587.43
619.2437, 34697.89
619.7258, 34799.39
620.2079, 34817.20
620.6901, 34748.54
621.1722, 34703.36
621.6543, 34734.50
622.1364, 34791.33
622.6185, 34843.34
623.1006, 34895.60
623.5828, 34925.36
624.0649, 34911.05
624.5470, 34894.00
625.0291, 34935.39
625.5112, 35053.41
625.9933, 35128.55
626.4755, 35127.82
626.9576, 35087.41
627.4397, 35078.89
627.9218, 35099.27
628.4039, 35125.85
628.8860, 35147.04
629.3682, 35168.29
629.8503, 35198.26
630.3324, 35235.97
630.8145, 35273.45
631.2966, 35306.56
631.7787, 35336.98
632.2609, 35366.46
632.7430, 35396.38
633.2251, 35420.79
633.7072, 35436.29
634.1893, 35446.81
634.6714, 35453.16
635.1536, 35441.07
635.6357, 35462.29
636.1178, 35542.03
636.5999, 35633.86
637.0820, 35633.27
637.5641, 35535.11
638.0463, 35472.79
638.5284, 35498.61
639.0105, 35578.35
639.4926, 35660.03
639.9747, 35740.30
640.4568, 35797.94
640.9390, 35792.67
641.4211, 35777.61
641.9032, 35816.55
642.3853, 35913.59
642.8674, 35979.06
643.3495, 35948.00
643.8317, 35892.19
644.3138, 35860.36
644.7959, 35865.61
645.2780, 35880.02
645.7601, 35893.45
646.2422, 35924.70
646.7244, 36015.69
647.2065, 36191.45
647.6886, 36284.87
648.1707, 36242.27
648.6528, 36136.27
649.1349, 36118.64
649.6171, 36177.08
650.0992, 36223.59
650.5813, 36186.24
651.0634, 36133.68
651.5455, 36166.61
652.0276, 36268.61
652.5098, 36350.07
652.9919, 36342.11
653.4740, 36315.16
653.9561, 36309.88
654.4382, 36331.56
654.9203, 36368.05
655.4025, 36448.03
655.8846, 36517.80
656.3667, 36533.90
656.8488, 36465.44
657.3309, 36437.96
657.8130, 36462.20
658.2952, 36516.12
658.7773, 36574.54
659.2594, 36637.32
659.7415, 36699.23
660.2236, 36766.02
660.7057, 36819.69
661.1879, 36817.51
661.6700, 36778.86
662.1521, 36757.82
662.6342, 36794.70
663.1163, 36845.36
663.5984, 36886.18
664.0806, 36916.98
664.5627, 36943.57
665.0448, 36972.56
665.5269, 36992.07
666.0090, 36993.91
666.4911, 36974.16
666.9733, 36965.61
667.4554, 36969.09
