##NAMES=Cobaltite
##RRUFFID=R070372
##IDEAL CHEMISTRY=Co^3+^(AsS)^3-^
##LOCALITY=Hakansboda, Vastmanland, Sweden
##OWNER=RRUFF
##SOURCE=Royal Ontario Museum
##DESCRIPTION=Light grey metallic pyritohedron
##STATUS=The identification of this mineral has been confirmed by X-ray diffraction.
##URL=rruff.info/R070372
163.1611, 3017.690
163.6432, 3033.728
164.1253, 3051.546
164.6075, 3062.509
165.0896, 3066.310
165.5717, 3068.231
166.0538, 3066.581
166.5359, 3065.728
167.0180, 3071.826
167.5002, 3096.157
167.9823, 3122.975
168.4644, 3137.134
168.9465, 3135.161
169.4286, 3136.994
169.9107, 3165.818
170.3929, 3209.493
170.8750, 3243.204
171.3571, 3247.354
171.8392, 3237.721
172.3213, 3230.320
172.8034, 3227.242
173.2856, 3226.329
173.7677, 3225.297
174.2498, 3224.679
174.7319, 3226.290
175.2140, 3230.978
175.6961, 3238.610
176.1783, 3250.723
176.6604, 3271.271
177.1425, 3289.500
177.6246, 3287.291
178.1067, 3267.666
178.5888, 3250.095
179.0710, 3251.577
179.5531, 3265.634
180.0352, 3278.166
180.5173, 3285.264
180.9994, 3289.714
181.4815, 3295.072
181.9637, 3301.408
182.4458, 3309.419
182.9279, 3323.530
183.4100, 3340.904
183.8921, 3350.536
184.3742, 3344.704
184.8564, 3331.141
185.3385, 3328.261
185.8206, 3336.519
186.3027, 3349.619
186.7848, 3363.183
187.2669, 3376.870
187.7491, 3388.742
188.2312, 3399.927
188.7133, 3408.837
189.1954, 3406.621
189.6775, 3390.975
190.1596, 3374.601
190.6418, 3374.788
191.1239, 3391.171
191.6060, 3407.878
192.0881, 3418.261
192.5702, 3423.049
193.0524, 3429.657
193.5345, 3439.372
194.0166, 3447.561
194.4987, 3444.540
194.9808, 3429.442
195.4629, 3416.188
195.9451, 3410.873
196.4272, 3413.344
196.9093, 3421.908
197.3914, 3438.737
197.8735, 3458.160
198.3556, 3468.205
198.8378, 3467.377
199.3199, 3466.504
199.8020, 3472.314
200.2841, 3485.370
200.7662, 3495.652
201.2483, 3501.723
201.7305, 3505.499
202.2126, 3511.945
202.6947, 3521.702
203.1768, 3531.737
203.6589, 3540.516
204.1410, 3547.986
204.6232, 3554.183
205.1053, 3559.561
205.5874, 3563.468
206.0695, 3563.145
206.5516, 3557.446
207.0337, 3550.531
207.5159, 3543.071
207.9980, 3532.956
208.4801, 3534.281
208.9622, 3554.229
209.4443, 3586.842
209.9264, 3600.872
210.4086, 3589.730
210.8907, 3573.197
211.3728, 3566.670
211.8549, 3572.718
212.3370, 3579.643
212.8191, 3584.865
213.3013, 3589.143
213.7834, 3601.505
214.2655, 3628.425
214.7476, 3653.059
215.2297, 3658.004
215.7118, 3633.850
216.1940, 3616.352
216.6761, 3612.932
217.1582, 3622.944
217.6403, 3633.162
218.1224, 3643.621
218.6045, 3654.081
219.0867, 3664.261
219.5688, 3673.875
220.0509, 3683.925
220.5330, 3695.712
221.0151, 3709.567
221.4972, 3715.599
221.9794, 3707.990
222.4615, 3699.111
222.9436, 3704.021
223.4257, 3732.652
223.9078, 3754.414
224.3899, 3759.239
224.8721, 3745.135
225.3542, 3742.131
225.8363, 3756.884
226.3184, 3776.394
226.8005, 3784.639
227.2827, 3775.092
227.7648, 3766.629
228.2469, 3764.568
228.7290, 3770.056
229.2111, 3772.108
229.6932, 3765.168
230.1754, 3759.262
230.6575, 3769.510
231.1396, 3807.701
231.6217, 3841.023
232.1038, 3859.413
232.5859, 3859.786
233.0681, 3861.288
233.5502, 3862.097
234.0323, 3865.302
234.5144, 3876.327
234.9965, 3900.204
235.4786, 3923.252
235.9608, 3940.609
236.4429, 3949.910
236.9250, 3963.990
237.4071, 3986.383
237.8892, 4011.259
238.3713, 4028.756
238.8535, 4033.880
239.3356, 4040.032
239.8177, 4052.511
240.2998, 4074.512
240.7819, 4090.629
241.2640, 4100.192
241.7462, 4104.526
242.2283, 4105.772
242.7104, 4103.153
243.1925, 4098.657
243.6746, 4091.842
244.1567, 4080.188
244.6389, 4074.924
245.1210, 4077.142
245.6031, 4085.050
246.0852, 4097.275
246.5673, 4121.281
247.0494, 4136.725
247.5316, 4133.263
248.0137, 4101.248
248.4958, 4083.563
248.9779, 4085.673
249.4600, 4099.175
249.9421, 4109.171
250.4243, 4116.327
250.9064, 4118.908
251.3885, 4115.294
251.8706, 4102.840
252.3527, 4092.681
252.8348, 4084.239
253.3170, 4078.436
253.7991, 4077.603
254.2812, 4083.697
254.7633, 4091.036
255.2454, 4097.966
255.7275, 4104.898
256.2097, 4109.649
256.6918, 4111.955
257.1739, 4112.213
257.6560, 4110.510
258.1381, 4104.902
258.6202, 4101.442
259.1024, 4104.770
259.5845, 4119.569
260.0666, 4120.030
260.5487, 4098.742
261.0308, 4068.741
261.5129, 4053.720
261.9951, 4058.093
262.4772, 4067.322
262.9593, 4078.290
263.4414, 4093.976
263.9235, 4095.178
264.4056, 4073.440
264.8878, 4045.124
265.3699, 4041.411
265.8520, 4071.240
266.3341, 4100.111
266.8162, 4114.938
267.2983, 4113.917
267.7805, 4108.529
268.2626, 4096.206
268.7447, 4082.432
269.2268, 4076.767
269.7089, 4080.354
270.1910, 4087.948
270.6732, 4098.142
271.1553, 4111.056
271.6374, 4125.795
272.1195, 4143.845
272.6016, 4161.571
273.0837, 4172.597
273.5659, 4176.494
274.0480, 4176.219
274.5301, 4170.846
275.0122, 4160.041
275.4943, 4155.193
275.9764, 4157.439
276.4586, 4163.506
276.9407, 4167.191
277.4228, 4167.476
277.9049, 4173.723
278.3870, 4194.060
278.8691, 4227.350
279.3513, 4246.214
279.8334, 4248.360
280.3155, 4241.967
280.7976, 4235.513
281.2798, 4228.854
281.7619, 4226.899
282.2440, 4233.782
282.7261, 4247.974
283.2082, 4258.417
283.6903, 4265.277
284.1725, 4267.784
284.6546, 4263.539
285.1367, 4252.805
285.6188, 4241.390
286.1009, 4230.881
286.5830, 4221.313
287.0652, 4211.015
287.5473, 4199.087
288.0294, 4192.333
288.5115, 4204.543
288.9936, 4232.718
289.4757, 4251.494
289.9579, 4248.722
290.4400, 4231.492
290.9221, 4218.059
291.4042, 4208.455
291.8863, 4202.214
292.3684, 4200.305
292.8506, 4201.850
293.3327, 4202.880
293.8148, 4201.028
294.2969, 4198.532
294.7790, 4200.949
295.2611, 4208.301
295.7433, 4215.065
296.2254, 4214.559
296.7075, 4209.478
297.1896, 4207.853
297.6717, 4215.301
298.1538, 4224.494
298.6360, 4223.349
299.1181, 4212.510
299.6002, 4199.704
300.0823, 4187.474
300.5644, 4177.758
301.0465, 4174.791
301.5287, 4183.217
302.0108, 4194.380
302.4929, 4199.326
302.9750, 4198.512
303.4571, 4194.283
303.9392, 4182.729
304.4214, 4170.353
304.9035, 4166.856
305.3856, 4179.422
305.8677, 4193.722
306.3498, 4194.159
306.8319, 4184.751
307.3141, 4179.739
307.7962, 4191.856
308.2783, 4210.450
308.7604, 4225.701
309.2425, 4235.649
309.7246, 4241.282
310.2068, 4239.206
310.6889, 4232.805
311.1710, 4230.819
311.6531, 4244.680
312.1352, 4260.173
312.6173, 4264.357
313.0995, 4249.423
313.5816, 4239.918
314.0637, 4257.455
314.5458, 4287.814
315.0279, 4304.387
315.5100, 4279.392
315.9922, 4251.179
316.4743, 4241.195
316.9564, 4255.595
317.4385, 4272.955
317.9206, 4290.846
318.4027, 4306.424
318.8849, 4315.708
319.3670, 4315.741
319.8491, 4310.962
320.3312, 4299.106
320.8133, 4276.940
321.2954, 4266.801
321.7776, 4284.147
322.2597, 4311.247
322.7418, 4329.200
323.2239, 4325.374
323.7060, 4322.055
324.1881, 4324.313
324.6703, 4332.644
325.1524, 4342.439
325.6345, 4356.413
326.1166, 4370.030
326.5987, 4379.715
327.0808, 4379.496
327.5630, 4382.416
328.0451, 4392.912
328.5272, 4410.314
329.0093, 4419.686
329.4914, 4414.861
329.9735, 4407.422
330.4557, 4404.912
330.9378, 4410.344
331.4199, 4415.200
331.9020, 4416.452
332.3841, 4416.228
332.8662, 4427.230
333.3484, 4460.575
333.8305, 4488.116
334.3126, 4490.437
334.7947, 4453.535
335.2768, 4435.489
335.7589, 4444.378
336.2411, 4470.848
336.7232, 4492.721
337.2053, 4509.702
337.6874, 4522.456
338.1695, 4529.251
338.6516, 4528.622
339.1338, 4536.461
339.6159, 4557.323
340.0980, 4579.783
340.5801, 4579.843
341.0622, 4554.490
341.5443, 4534.611
342.0265, 4534.939
342.5086, 4553.260
342.9907, 4569.820
343.4728, 4584.696
343.9549, 4596.949
344.4370, 4604.936
344.9192, 4608.817
345.4013, 4610.192
345.8834, 4608.277
346.3655, 4604.585
346.8476, 4602.908
347.3297, 4603.246
347.8119, 4605.404
348.2940, 4607.985
348.7761, 4612.107
349.2582, 4621.552
349.7403, 4641.022
350.2225, 4662.792
350.7046, 4675.943
351.1867, 4681.190
351.6688, 4683.093
352.1509, 4680.625
352.6331, 4678.037
353.1152, 4682.660
353.5973, 4699.301
354.0794, 4717.534
354.5615, 4732.845
355.0436, 4743.123
355.5258, 4741.940
356.0079, 4709.347
356.4900, 4672.849
356.9721, 4659.073
357.4542, 4678.213
357.9363, 4699.363
358.4185, 4705.297
358.9006, 4701.510
359.3827, 4697.513
359.8648, 4691.526
360.3469, 4690.633
360.8290, 4703.615
361.3112, 4734.754
361.7933, 4753.240
362.2754, 4735.786
362.7575, 4705.864
363.2396, 4688.915
363.7217, 4707.820
364.2039, 4723.330
364.6860, 4721.282
365.1681, 4701.211
365.6502, 4689.895
366.1323, 4698.477
366.6144, 4711.750
367.0966, 4719.237
367.5787, 4711.639
368.0608, 4709.250
368.5429, 4717.345
369.0250, 4732.943
369.5071, 4740.542
369.9893, 4736.690
370.4714, 4728.896
370.9535, 4720.123
371.4356, 4708.601
371.9177, 4700.718
372.3998, 4698.833
372.8820, 4699.450
373.3641, 4694.736
373.8462, 4683.564
374.3283, 4669.961
374.8104, 4653.689
375.2925, 4633.674
375.7747, 4623.614
376.2568, 4626.460
376.7389, 4633.235
377.2210, 4629.028
377.7031, 4612.531
378.1852, 4604.371
378.6674, 4614.104
379.1495, 4637.021
379.6316, 4653.890
380.1137, 4664.340
380.5958, 4670.816
381.0779, 4676.407
381.5601, 4680.253
382.0422, 4676.782
382.5243, 4661.145
383.0064, 4642.220
383.4885, 4636.833
383.9706, 4643.215
384.4528, 4648.707
384.9349, 4640.305
385.4170, 4626.498
385.8991, 4622.049
386.3812, 4630.909
386.8633, 4643.425
387.3455, 4653.525
387.8276, 4660.520
388.3097, 4662.928
388.7918, 4649.878
389.2739, 4638.376
389.7560, 4645.313
390.2382, 4673.567
390.7203, 4700.933
391.2024, 4720.839
391.6845, 4731.418
392.1666, 4730.655
392.6487, 4700.048
393.1309, 4674.509
393.6130, 4672.299
394.0951, 4691.321
394.5772, 4705.634
395.0593, 4706.639
395.5414, 4702.142
396.0236, 4696.976
396.5057, 4688.038
396.9878, 4682.912
397.4699, 4681.881
397.9520, 4685.169
398.4341, 4693.794
398.9163, 4720.833
399.3984, 4739.551
399.8805, 4737.703
400.3626, 4704.248
400.8447, 4683.513
401.3268, 4681.148
401.8090, 4687.357
402.2911, 4687.622
402.7732, 4678.256
403.2553, 4672.757
403.7374, 4676.206
404.2195, 4687.913
404.7017, 4694.397
405.1838, 4693.803
405.6659, 4693.063
406.1480, 4701.723
406.6301, 4720.122
407.1122, 4727.063
407.5944, 4714.267
408.0765, 4692.443
408.5586, 4689.846
409.0407, 4706.077
409.5228, 4721.932
410.0049, 4722.916
410.4871, 4713.586
410.9692, 4707.055
411.4513, 4705.235
411.9334, 4703.758
412.4155, 4692.628
412.8976, 4676.908
413.3798, 4671.364
413.8619, 4695.850
414.3440, 4726.122
414.8261, 4733.861
415.3082, 4718.583
415.7903, 4703.473
416.2725, 4706.838
416.7546, 4717.536
417.2367, 4722.641
417.7188, 4705.614
418.2009, 4695.872
418.6830, 4715.021
419.1652, 4754.878
419.6473, 4784.688
420.1294, 4792.165
420.6115, 4788.645
421.0937, 4777.691
421.5758, 4749.929
422.0579, 4736.557
422.5400, 4753.756
423.0221, 4785.186
423.5042, 4804.332
423.9864, 4798.831
424.4685, 4793.777
424.9506, 4795.986
425.4327, 4806.445
425.9148, 4810.742
426.3969, 4805.879
426.8791, 4798.282
427.3612, 4793.911
427.8433, 4794.604
428.3254, 4792.529
428.8075, 4785.524
429.2896, 4775.432
429.7718, 4768.889
430.2539, 4766.386
430.7360, 4764.698
431.2181, 4759.912
431.7002, 4752.740
432.1823, 4755.205
432.6645, 4769.734
433.1466, 4787.830
433.6287, 4795.688
434.1108, 4795.725
434.5929, 4800.317
435.0750, 4820.142
435.5572, 4845.242
436.0393, 4857.568
436.5214, 4857.508
437.0035, 4853.308
437.4856, 4849.068
437.9677, 4845.407
438.4499, 4843.070
438.9320, 4841.692
439.4141, 4842.632
439.8962, 4847.001
440.3783, 4854.444
440.8604, 4864.178
441.3426, 4885.636
441.8247, 4901.757
442.3068, 4898.786
442.7889, 4869.618
443.2710, 4848.634
443.7531, 4852.283
444.2353, 4865.968
444.7174, 4873.616
445.1995, 4861.881
445.6816, 4856.063
446.1637, 4864.068
446.6458, 4884.082
447.1280, 4897.245
447.6101, 4898.798
448.0922, 4898.765
448.5743, 4903.692
449.0564, 4919.058
449.5385, 4923.705
450.0207, 4912.348
450.5028, 4894.390
450.9849, 4889.243
451.4670, 4899.866
451.9491, 4908.242
452.4312, 4904.134
452.9134, 4890.460
453.3955, 4892.065
453.8776, 4910.556
454.3597, 4932.609
454.8418, 4946.194
455.3239, 4952.428
455.8061, 4954.994
456.2882, 4953.694
456.7703, 4950.785
457.2524, 4947.397
457.7345, 4944.507
458.2166, 4946.132
458.6988, 4963.114
459.1809, 4981.622
459.6630, 4984.163
460.1451, 4966.992
460.6272, 4948.787
461.1093, 4941.459
461.5915, 4940.007
462.0736, 4938.400
462.5557, 4931.813
463.0378, 4927.482
463.5199, 4927.824
464.0020, 4932.729
464.4842, 4941.150
464.9663, 4955.963
465.4484, 4971.919
465.9305, 4986.762
466.4126, 5004.419
466.8947, 5013.974
467.3769, 5011.277
467.8590, 5002.307
468.3411, 4996.723
468.8232, 4996.023
469.3053, 4995.867
469.7874, 4995.409
470.2696, 4994.611
470.7517, 4992.942
471.2338, 4990.642
471.7159, 4986.779
472.1980, 4976.999
472.6801, 4961.686
473.1623, 4960.179
473.6444, 4979.556
474.1265, 5005.246
474.6086, 5009.727
475.0907, 4996.059
475.5728, 4984.043
476.0550, 4981.686
476.5371, 4988.537
477.0192, 5009.941
477.5013, 5046.462
477.9834, 5074.716
478.4655, 5067.849
478.9477, 5044.598
479.4298, 5029.731
479.9119, 5035.548
480.3940, 5044.981
480.8761, 5049.641
481.3582, 5050.963
481.8404, 5053.001
482.3225, 5055.885
482.8046, 5060.766
483.2867, 5068.941
483.7688, 5082.115
484.2509, 5093.008
484.7331, 5098.748
485.2152, 5103.064
485.6973, 5110.120
486.1794, 5125.779
486.6615, 5133.935
487.1436, 5130.687
487.6258, 5118.188
488.1079, 5105.278
488.5900, 5090.177
489.0721, 5079.861
489.5542, 5082.109
490.0363, 5097.133
490.5185, 5098.364
491.0006, 5082.096
491.4827, 5062.106
491.9648, 5057.554
492.4470, 5065.935
492.9291, 5073.654
493.4112, 5074.395
493.8933, 5073.313
494.3754, 5079.389
494.8575, 5091.606
495.3397, 5103.195
495.8218, 5111.888
496.3039, 5116.705
496.7860, 5114.772
497.2681, 5103.146
497.7502, 5094.844
498.2324, 5098.601
498.7145, 5109.277
499.1966, 5119.965
499.6787, 5131.649
500.1608, 5139.925
500.6429, 5139.735
501.1251, 5132.103
501.6072, 5133.215
502.0893, 5158.437
502.5714, 5180.035
503.0535, 5183.453
503.5356, 5156.397
504.0178, 5140.817
504.4999, 5139.953
504.9820, 5147.821
505.4641, 5157.492
505.9462, 5170.555
506.4283, 5176.193
506.9105, 5166.649
507.3926, 5148.306
507.8747, 5147.521
508.3568, 5164.911
508.8389, 5189.325
509.3210, 5224.037
509.8032, 5259.614
510.2853, 5264.013
510.7674, 5226.317
511.2495, 5187.173
511.7316, 5199.535
512.2137, 5240.727
512.6959, 5264.473
513.1780, 5231.867
513.6601, 5191.919
514.1422, 5175.487
514.6243, 5180.588
515.1064, 5190.955
515.5886, 5210.117
516.0707, 5225.685
516.5528, 5228.280
517.0349, 5206.048
517.5170, 5193.298
517.9991, 5201.697
518.4813, 5218.105
518.9634, 5225.145
519.4455, 5211.908
519.9276, 5208.468
520.4097, 5224.471
520.8918, 5256.039
521.3740, 5280.231
521.8561, 5297.021
522.3382, 5306.525
522.8203, 5301.896
523.3024, 5284.979
523.7845, 5293.840
524.2667, 5337.582
524.7488, 5380.436
525.2309, 5369.632
525.7130, 5319.609
526.1951, 5281.144
526.6772, 5277.362
527.1594, 5288.012
527.6415, 5291.803
528.1236, 5289.909
528.6057, 5287.518
529.0878, 5285.472
529.5699, 5285.461
530.0521, 5291.385
530.5342, 5307.148
531.0163, 5313.420
531.4984, 5287.200
531.9805, 5255.604
532.4626, 5247.313
532.9448, 5306.595
533.4269, 5340.226
533.9090, 5324.337
534.3911, 5273.779
534.8732, 5246.971
535.3553, 5250.277
535.8375, 5265.409
536.3196, 5289.168
536.8017, 5323.058
537.2838, 5337.534
537.7659, 5328.597
538.2480, 5313.854
538.7302, 5312.725
539.2123, 5323.344
539.6944, 5334.091
540.1765, 5345.061
540.6586, 5350.277
541.1407, 5333.134
541.6229, 5300.975
542.1050, 5279.878
542.5871, 5292.013
543.0692, 5316.099
543.5513, 5333.812
544.0334, 5344.041
544.5156, 5354.112
544.9977, 5371.126
545.4798, 5387.279
545.9619, 5396.032
546.4440, 5391.549
546.9261, 5386.518
547.4083, 5381.845
547.8904, 5377.831
548.3725, 5375.146
548.8546, 5374.530
549.3367, 5374.069
549.8188, 5373.864
550.3010, 5373.682
550.7831, 5368.191
551.2652, 5353.553
551.7473, 5346.435
552.2294, 5367.924
552.7115, 5413.424
553.1937, 5432.209
553.6758, 5416.306
554.1579, 5390.129
554.6400, 5382.659
555.1221, 5389.327
555.6042, 5396.950
556.0864, 5398.053
556.5685, 5400.957
557.0506, 5419.106
557.5327, 5447.388
558.0148, 5466.421
558.4969, 5458.550
558.9791, 5444.692
559.4612, 5438.170
559.9433, 5442.335
560.4254, 5443.733
560.9075, 5440.833
561.3896, 5433.521
561.8718, 5420.423
562.3539, 5384.087
562.8360, 5373.918
563.3181, 5408.125
563.8002, 5463.779
564.2823, 5482.105
564.7645, 5454.504
565.2466, 5427.395
565.7287, 5418.814
566.2108, 5425.758
566.6929, 5436.545
567.1750, 5451.383
567.6572, 5463.371
568.1393, 5463.189
568.6214, 5456.404
569.1035, 5454.436
569.5856, 5459.802
570.0677, 5467.015
570.5499, 5476.683
571.0320, 5484.171
571.5141, 5482.274
571.9962, 5445.693
572.4783, 5421.762
572.9604, 5441.736
573.4426, 5495.521
573.9247, 5530.781
574.4068, 5524.010
574.8889, 5510.493
575.3710, 5503.634
575.8531, 5505.674
576.3353, 5501.639
576.8174, 5485.596
577.2995, 5472.341
577.7816, 5478.209
578.2637, 5505.128
578.7458, 5532.321
579.2280, 5559.896
579.7101, 5580.779
580.1922, 5576.164
580.6743, 5550.529
581.1564, 5529.169
581.6385, 5524.974
582.1207, 5531.009
582.6028, 5541.584
583.0849, 5555.781
583.5670, 5567.150
584.0491, 5568.912
584.5313, 5568.199
585.0134, 5572.532
585.4955, 5587.782
585.9776, 5592.433
586.4597, 5563.923
586.9418, 5529.173
587.4240, 5519.806
587.9061, 5558.092
588.3882, 5588.133
588.8703, 5603.978
589.3524, 5607.768
589.8345, 5603.637
590.3167, 5588.860
590.7988, 5576.641
591.2809, 5573.876
591.7630, 5578.642
592.2451, 5583.764
592.7272, 5589.533
593.2094, 5588.511
593.6915, 5561.077
594.1736, 5525.165
594.6557, 5519.517
595.1378, 5556.686
595.6199, 5597.572
596.1021, 5615.530
596.5842, 5617.997
597.0663, 5615.566
597.5485, 5601.819
598.0306, 5594.286
598.5127, 5603.669
598.9948, 5625.307
599.4769, 5638.658
599.9590, 5632.811
600.4412, 5630.636
600.9233, 5643.023
601.4054, 5672.018
601.8875, 5681.969
602.3696, 5666.827
602.8517, 5647.278
603.3339, 5640.733
603.8160, 5646.325
604.2981, 5655.635
604.7802, 5669.031
605.2623, 5681.068
605.7444, 5683.527
606.2266, 5678.781
606.7087, 5673.234
607.1908, 5671.276
607.6729, 5667.270
608.1550, 5648.862
608.6371, 5623.269
609.1193, 5613.309
609.6014, 5643.960
610.0835, 5679.003
610.5656, 5702.624
611.0477, 5713.430
611.5298, 5714.481
612.0120, 5694.928
612.4941, 5676.792
612.9762, 5676.685
613.4583, 5701.872
613.9404, 5718.703
614.4225, 5724.893
614.9047, 5723.945
615.3868, 5719.107
615.8689, 5710.712
616.3510, 5703.688
616.8331, 5699.604
617.3152, 5697.455
617.7974, 5695.824
618.2795, 5694.804
618.7616, 5694.638
619.2437, 5692.817
619.7258, 5693.856
620.2079, 5704.736
620.6901, 5725.500
621.1722, 5738.982
621.6543, 5728.056
622.1364, 5715.745
622.6185, 5718.521
623.1006, 5749.325
623.5828, 5768.050
624.0649, 5770.401
624.5470, 5764.611
625.0291, 5758.364
625.5112, 5750.019
625.9933, 5751.522
626.4755, 5768.772
626.9576, 5791.892
627.4397, 5797.511
627.9218, 5788.035
628.4039, 5781.806
628.8860, 5793.893
629.3682, 5811.285
629.8503, 5812.815
630.3324, 5800.933
630.8145, 5794.404
631.2966, 5813.212
631.7787, 5835.033
632.2609, 5842.823
632.7430, 5830.507
633.2251, 5819.571
633.7072, 5815.347
634.1893, 5813.491
634.6714, 5809.788
635.1536, 5799.915
635.6357, 5798.771
636.1178, 5811.389
636.5999, 5829.043
637.0820, 5834.594
637.5641, 5827.496
638.0463, 5820.878
638.5284, 5820.214
639.0105, 5821.536
639.4926, 5814.617
639.9747, 5801.190
640.4568, 5791.448
640.9390, 5793.194
641.4211, 5800.305
641.9032, 5809.049
642.3853, 5819.096
642.8674, 5824.954
643.3495, 5821.587
643.8317, 5815.140
644.3138, 5809.107
644.7959, 5798.942
645.2780, 5799.993
645.7601, 5820.693
646.2422, 5845.186
646.7244, 5853.963
647.2065, 5843.965
647.6886, 5832.495
648.1707, 5819.870
648.6528, 5811.169
649.1349, 5821.178
649.6171, 5847.061
650.0992, 5869.024
650.5813, 5874.733
651.0634, 5873.403
651.5455, 5877.230
652.0276, 5884.765
652.5098, 5888.020
652.9919, 5877.611
653.4740, 5865.583
653.9561, 5859.916
654.4382, 5862.578
654.9203, 5864.266
655.4025, 5860.783
655.8846, 5858.457
656.3667, 5863.744
656.8488, 5884.867
657.3309, 5885.082
657.8130, 5853.968
658.2952, 5818.374
658.7773, 5822.095
659.2594, 5861.415
659.7415, 5891.860
660.2236, 5902.115
660.7057, 5897.696
661.1879, 5876.677
661.6700, 5846.360
662.1521, 5827.437
