##NAMES=Cobaltite
##RRUFFID=R060907
##IDEAL CHEMISTRY=Co^3+^(AsS)^3-^
##LOCALITY=Espanola, Ontario, Canada
##OWNER=RRUFF
##SOURCE=Royal Ontario Museum
##DESCRIPTION=Group of sharp metallic cubes with a thin surface alteration, broken crystals have fresher surfaces.
##STATUS=The identification of this mineral has been confirmed by X-ray diffraction and chemical analysis
##URL=rruff.info/R060907
##MEASURED CHEMISTRY=(Co_0.55_Fe_0.24_Ni_0.21_)_Î£=1_As_0.94_S_1.06_
138.8792, 1681.761
139.3613, 1695.861
139.8434, 1712.580
140.3256, 1735.967
140.8077, 1755.138
141.2898, 1757.225
141.7719, 1733.521
142.2540, 1716.102
142.7361, 1713.626
143.2183, 1727.730
143.7004, 1739.131
144.1825, 1746.708
144.6646, 1752.381
145.1467, 1758.024
145.6288, 1760.302
146.1110, 1767.444
146.5931, 1784.281
147.0752, 1820.328
147.5573, 1840.193
148.0394, 1833.503
148.5215, 1812.085
149.0037, 1801.193
149.4858, 1817.974
149.9679, 1830.134
150.4500, 1825.382
150.9321, 1779.865
151.4142, 1750.468
151.8964, 1744.641
152.3785, 1757.133
152.8606, 1768.340
153.3427, 1778.286
153.8248, 1786.276
154.3069, 1792.001
154.7890, 1792.395
155.2712, 1794.077
155.7533, 1802.317
156.2354, 1815.482
156.7175, 1818.630
157.1996, 1795.835
157.6817, 1768.365
158.1639, 1752.453
158.6460, 1759.575
159.1281, 1771.448
159.6102, 1783.657
160.0923, 1795.958
160.5744, 1807.090
161.0566, 1814.536
161.5387, 1821.023
162.0208, 1829.655
162.5029, 1847.866
162.9850, 1863.417
163.4671, 1869.071
163.9493, 1862.953
164.4314, 1854.567
164.9135, 1848.631
165.3956, 1843.396
165.8777, 1836.040
166.3598, 1817.017
166.8420, 1800.552
167.3241, 1800.451
167.8062, 1824.886
168.2883, 1846.228
168.7704, 1840.100
169.2525, 1816.273
169.7346, 1798.847
170.2168, 1809.240
170.6989, 1829.161
171.1810, 1840.044
171.6631, 1836.517
172.1452, 1826.603
172.6273, 1814.293
173.1095, 1800.534
173.5916, 1788.817
174.0737, 1780.720
174.5558, 1776.215
175.0379, 1775.854
175.5201, 1782.340
176.0022, 1790.055
176.4843, 1792.375
176.9664, 1789.617
177.4485, 1784.701
177.9306, 1777.251
178.4128, 1769.301
178.8949, 1765.050
179.3770, 1766.078
179.8591, 1771.442
180.3412, 1783.061
180.8233, 1801.186
181.3055, 1814.880
181.7876, 1808.920
182.2697, 1788.883
182.7518, 1773.296
183.2339, 1769.645
183.7160, 1775.333
184.1982, 1786.320
184.6803, 1803.238
185.1624, 1820.462
185.6445, 1833.686
186.1266, 1842.506
186.6087, 1845.262
187.0908, 1835.397
187.5730, 1817.604
188.0551, 1811.723
188.5372, 1819.775
189.0193, 1833.761
189.5014, 1844.163
189.9835, 1851.102
190.4657, 1855.151
190.9478, 1854.898
191.4299, 1851.197
191.9120, 1850.830
192.3941, 1855.161
192.8762, 1860.761
193.3584, 1860.495
193.8405, 1854.075
194.3226, 1848.807
194.8047, 1851.048
195.2868, 1860.332
195.7689, 1863.309
196.2511, 1856.849
196.7332, 1846.134
197.2153, 1843.633
197.6974, 1850.161
198.1795, 1859.113
198.6616, 1867.209
199.1438, 1874.598
199.6259, 1879.696
200.1080, 1881.779
200.5901, 1881.820
201.0722, 1882.243
201.5543, 1882.662
202.0364, 1884.874
202.5186, 1892.639
203.0007, 1907.608
203.4828, 1913.582
203.9649, 1904.655
204.4470, 1885.339
204.9291, 1877.580
205.4113, 1883.936
205.8934, 1894.454
206.3755, 1900.602
206.8576, 1900.819
207.3397, 1904.584
207.8218, 1915.553
208.3040, 1932.073
208.7861, 1940.252
209.2682, 1937.145
209.7503, 1931.517
210.2324, 1932.189
210.7145, 1941.664
211.1967, 1948.505
211.6788, 1949.520
212.1609, 1945.158
212.6430, 1944.419
213.1251, 1949.528
213.6072, 1955.026
214.0894, 1953.883
214.5715, 1941.758
215.0536, 1935.319
215.5357, 1939.761
216.0178, 1955.365
216.4999, 1969.534
216.9820, 1984.140
217.4642, 1994.677
217.9463, 1994.895
218.4284, 1980.469
218.9105, 1965.736
219.3926, 1953.972
219.8747, 1945.402
220.3569, 1938.332
220.8390, 1932.866
221.3211, 1928.847
221.8032, 1926.243
222.2853, 1926.222
222.7674, 1925.337
223.2496, 1922.189
223.7317, 1916.074
224.2138, 1911.916
224.6959, 1908.709
225.1780, 1908.314
225.6601, 1914.019
226.1423, 1928.958
226.6244, 1944.084
227.1065, 1956.575
227.5886, 1966.002
228.0707, 1975.628
228.5528, 1988.641
229.0350, 1999.825
229.5171, 1999.368
229.9992, 1978.820
230.4813, 1961.020
230.9634, 1953.818
231.4455, 1959.966
231.9276, 1966.551
232.4098, 1974.191
232.8919, 1981.979
233.3740, 1987.635
233.8561, 1988.817
234.3382, 1991.862
234.8203, 2000.356
235.3025, 2018.522
235.7846, 2028.199
236.2667, 2025.624
236.7488, 2016.357
237.2309, 2011.092
237.7130, 2010.831
238.1952, 2013.187
238.6773, 2018.861
239.1594, 2032.451
239.6415, 2035.254
240.1236, 2020.105
240.6057, 1997.082
241.0879, 1987.807
241.5700, 2000.656
242.0521, 2014.493
242.5342, 2021.505
243.0163, 2019.415
243.4984, 2016.380
243.9806, 2011.915
244.4627, 2006.603
244.9448, 2001.433
245.4269, 1994.879
245.9090, 1990.641
246.3911, 1991.219
246.8732, 2001.258
247.3554, 2003.585
247.8375, 1995.724
248.3196, 1980.961
248.8017, 1966.238
249.2838, 1950.283
249.7659, 1936.651
250.2481, 1927.106
250.7302, 1923.555
251.2123, 1919.285
251.6944, 1914.466
252.1765, 1909.029
252.6586, 1902.101
253.1408, 1891.395
253.6229, 1883.234
254.1050, 1881.446
254.5871, 1890.856
255.0692, 1892.625
255.5513, 1882.950
256.0334, 1867.466
256.5156, 1859.408
256.9977, 1863.997
257.4798, 1866.537
257.9619, 1859.424
258.4440, 1836.768
258.9261, 1822.802
259.4083, 1820.029
259.8904, 1824.346
260.3725, 1826.662
260.8546, 1825.454
261.3367, 1825.222
261.8188, 1829.018
262.3010, 1839.845
262.7831, 1843.359
263.2652, 1836.950
263.7473, 1825.007
264.2294, 1816.221
264.7115, 1811.323
265.1937, 1808.044
265.6758, 1805.420
266.1579, 1803.262
266.6400, 1803.512
267.1221, 1808.412
267.6042, 1813.810
268.0864, 1810.884
268.5685, 1797.369
269.0506, 1781.854
269.5327, 1766.340
270.0148, 1749.667
270.4969, 1740.926
270.9791, 1742.475
271.4612, 1749.260
271.9433, 1752.997
272.4254, 1753.873
272.9075, 1751.098
273.3896, 1741.006
273.8718, 1721.797
274.3539, 1717.723
274.8360, 1734.886
275.3181, 1758.159
275.8002, 1760.512
276.2823, 1737.896
276.7645, 1715.280
277.2466, 1701.654
277.7287, 1697.252
278.2108, 1697.838
278.6929, 1704.896
279.1750, 1713.814
279.6572, 1717.942
280.1393, 1716.951
280.6214, 1713.973
281.1035, 1710.859
281.5856, 1707.325
282.0677, 1698.209
282.5499, 1682.440
283.0320, 1664.048
283.5141, 1646.406
283.9962, 1629.367
284.4783, 1618.411
284.9604, 1617.883
285.4425, 1626.061
285.9247, 1631.595
286.4068, 1634.602
286.8889, 1634.580
287.3710, 1627.445
287.8531, 1613.985
288.3352, 1607.513
288.8174, 1617.455
289.2995, 1638.011
289.7816, 1645.537
290.2637, 1638.720
290.7458, 1627.862
291.2279, 1626.096
291.7101, 1631.183
292.1922, 1628.240
292.6743, 1604.905
293.1564, 1561.431
293.6385, 1577.274
294.1206, 1587.228
294.6028, 1591.610
295.0849, 1573.730
295.5670, 1584.596
296.0491, 1583.942
296.5312, 1582.816
297.0133, 1597.728
297.4955, 1583.086
297.9776, 1597.744
298.4597, 1600.706
298.9418, 1609.021
299.4239, 1605.744
299.9060, 1606.048
300.3882, 1617.947
300.8703, 1623.426
301.3524, 1618.814
301.8345, 1603.263
302.3166, 1592.937
302.7987, 1590.086
303.2809, 1590.542
303.7630, 1586.464
304.2451, 1572.161
304.7272, 1558.421
305.2093, 1560.488
305.6914, 1574.851
306.1736, 1585.570
306.6557, 1575.783
307.1378, 1559.498
307.6199, 1555.173
308.1020, 1571.604
308.5841, 1589.662
309.0663, 1592.999
309.5484, 1585.457
310.0305, 1577.908
310.5126, 1575.310
310.9947, 1575.720
311.4768, 1578.348
311.9590, 1584.387
312.4411, 1588.620
312.9232, 1584.195
313.4053, 1575.629
313.8874, 1572.265
314.3695, 1587.454
314.8517, 1602.623
315.3337, 1604.294
315.8159, 1587.890
316.2980, 1570.947
316.7801, 1557.529
317.2622, 1548.887
317.7443, 1546.778
318.2264, 1560.159
318.7086, 1573.361
319.1907, 1577.875
319.6728, 1571.366
320.1549, 1567.547
320.6370, 1573.383
321.1191, 1582.952
321.6013, 1589.668
322.0834, 1588.577
322.5655, 1587.603
323.0476, 1588.348
323.5297, 1590.804
324.0118, 1596.157
324.4940, 1606.774
324.9761, 1619.241
325.4582, 1630.710
325.9403, 1644.734
326.4224, 1653.564
326.9045, 1653.448
327.3867, 1644.655
327.8688, 1639.354
328.3509, 1639.760
328.8330, 1642.418
329.3151, 1645.276
329.7972, 1648.558
330.2794, 1651.751
330.7615, 1654.545
331.2436, 1657.182
331.7257, 1661.222
332.2078, 1670.781
332.6899, 1677.177
333.1721, 1674.802
333.6542, 1656.429
334.1363, 1644.464
334.6184, 1639.549
335.1005, 1641.399
335.5826, 1650.737
336.0648, 1672.818
336.5469, 1692.271
337.0290, 1701.642
337.5111, 1698.238
337.9932, 1695.457
338.4753, 1694.106
338.9575, 1692.415
339.4396, 1685.515
339.9217, 1670.927
340.4038, 1661.323
340.8859, 1663.419
341.3680, 1677.149
341.8502, 1687.960
342.3323, 1696.035
342.8144, 1700.261
343.2965, 1697.095
343.7786, 1686.368
344.2607, 1677.566
344.7429, 1673.866
345.2250, 1674.549
345.7071, 1677.297
346.1892, 1682.521
346.6713, 1687.130
347.1534, 1687.352
347.6355, 1684.039
348.1176, 1681.494
348.5998, 1680.033
349.0819, 1680.570
349.5640, 1686.120
350.0461, 1696.422
350.5282, 1706.490
351.0103, 1711.642
351.4925, 1713.926
351.9746, 1717.953
352.4567, 1725.329
352.9388, 1733.281
353.4209, 1740.606
353.9030, 1746.398
354.3852, 1747.275
354.8673, 1737.143
355.3494, 1722.869
355.8315, 1712.273
356.3136, 1706.878
356.7957, 1703.672
357.2779, 1701.861
357.7600, 1700.669
358.2421, 1698.572
358.7242, 1694.344
359.2063, 1689.369
359.6884, 1684.913
360.1706, 1681.234
360.6527, 1676.167
361.1348, 1668.754
361.6169, 1659.294
362.0990, 1648.257
362.5811, 1629.628
363.0633, 1615.073
363.5454, 1610.125
364.0275, 1614.583
364.5096, 1620.229
364.9917, 1627.345
365.4738, 1633.526
365.9560, 1637.078
366.4381, 1637.941
366.9202, 1635.909
367.4023, 1628.897
367.8844, 1618.209
368.3665, 1610.431
368.8487, 1607.375
369.3308, 1606.146
369.8129, 1605.740
370.2950, 1607.760
370.7771, 1607.694
371.2592, 1603.543
371.7414, 1597.844
372.2235, 1596.161
372.7056, 1601.323
373.1877, 1605.938
373.6698, 1606.886
374.1519, 1603.106
374.6341, 1602.209
375.1162, 1606.131
375.5983, 1610.401
376.0804, 1608.253
376.5625, 1597.646
377.0446, 1589.155
377.5267, 1586.152
378.0089, 1587.922
378.4910, 1589.168
378.9731, 1589.933
379.4552, 1590.139
379.9373, 1590.068
380.4194, 1589.696
380.9016, 1586.851
381.3837, 1578.984
381.8658, 1570.838
382.3479, 1575.339
382.8300, 1591.943
383.3121, 1608.030
383.7943, 1614.516
384.2764, 1613.736
384.7585, 1610.843
385.2406, 1605.375
385.7227, 1601.425
386.2048, 1607.551
386.6870, 1620.015
387.1691, 1627.803
387.6512, 1617.371
388.1333, 1602.924
388.6154, 1603.953
389.0975, 1622.442
389.5797, 1639.162
390.0618, 1636.472
390.5439, 1623.999
391.0260, 1614.896
391.5081, 1617.707
391.9902, 1622.256
392.4724, 1623.198
392.9545, 1620.835
393.4366, 1617.651
393.9187, 1614.876
394.4008, 1611.708
394.8829, 1607.457
395.3651, 1601.232
395.8472, 1595.069
396.3293, 1587.334
396.8114, 1579.850
397.2935, 1577.434
397.7756, 1588.645
398.2578, 1598.426
398.7399, 1600.817
399.2220, 1592.950
399.7041, 1583.920
400.1862, 1570.946
400.6683, 1558.048
401.1505, 1550.365
401.6326, 1549.266
402.1147, 1551.588
402.5968, 1558.796
403.0789, 1570.954
403.5610, 1574.576
404.0432, 1564.353
404.5253, 1553.763
405.0074, 1556.976
405.4895, 1579.828
405.9716, 1589.881
406.4537, 1578.483
406.9359, 1554.476
407.4180, 1543.638
407.9001, 1547.303
408.3822, 1555.107
408.8643, 1562.604
409.3464, 1569.544
409.8285, 1572.700
410.3106, 1570.712
410.7928, 1568.656
411.2749, 1575.807
411.7570, 1590.202
412.2391, 1601.059
412.7212, 1602.645
413.2033, 1598.078
413.6855, 1592.146
414.1676, 1584.888
414.6497, 1577.471
415.1318, 1568.183
415.6139, 1559.966
416.0960, 1558.051
416.5782, 1567.520
417.0603, 1578.919
417.5424, 1585.223
418.0245, 1587.258
418.5066, 1587.970
418.9887, 1587.855
419.4709, 1587.569
419.9530, 1588.196
420.4351, 1591.307
420.9172, 1591.216
421.3993, 1576.684
421.8814, 1559.882
422.3636, 1558.706
422.8457, 1602.759
423.3278, 1637.921
423.8099, 1643.255
424.2920, 1614.872
424.7741, 1595.754
425.2563, 1594.551
425.7384, 1598.686
426.2205, 1599.328
426.7026, 1593.183
427.1847, 1589.172
427.6668, 1588.466
428.1490, 1590.409
428.6311, 1592.913
429.1132, 1596.659
429.5953, 1599.542
430.0774, 1600.631
430.5595, 1599.931
431.0417, 1596.088
431.5238, 1586.704
432.0059, 1578.759
432.4880, 1585.898
432.9701, 1608.446
433.4522, 1625.471
433.9344, 1628.294
434.4165, 1620.876
434.8986, 1614.628
435.3807, 1609.556
435.8628, 1606.222
436.3449, 1606.873
436.8271, 1609.618
437.3092, 1609.342
437.7913, 1603.604
438.2734, 1597.377
438.7555, 1595.205
439.2376, 1596.849
439.7197, 1601.598
440.2018, 1616.000
440.6840, 1629.050
441.1661, 1628.374
441.6482, 1610.962
442.1303, 1596.326
442.6124, 1597.977
443.0945, 1606.655
443.5767, 1611.757
444.0588, 1604.438
444.5409, 1599.073
445.0230, 1602.565
445.5051, 1613.436
445.9872, 1619.660
446.4694, 1616.836
446.9515, 1610.852
447.4336, 1604.121
447.9157, 1592.345
448.3978, 1587.732
448.8799, 1593.802
449.3621, 1605.677
449.8442, 1614.182
450.3263, 1616.352
450.8084, 1621.786
451.2905, 1637.777
451.7726, 1663.723
452.2548, 1663.203
452.7369, 1625.406
453.2190, 1588.705
453.7011, 1596.150
454.1832, 1648.344
454.6653, 1681.740
455.1475, 1682.609
455.6296, 1663.779
456.1117, 1646.879
456.5938, 1632.279
457.0759, 1622.433
457.5580, 1622.470
458.0402, 1627.659
458.5223, 1627.483
459.0044, 1620.700
459.4865, 1614.971
459.9686, 1617.621
460.4507, 1625.885
460.9329, 1635.321
461.4150, 1650.097
461.8971, 1660.061
462.3792, 1653.923
462.8613, 1635.276
463.3434, 1621.663
463.8256, 1624.553
464.3077, 1632.651
464.7898, 1639.386
465.2719, 1644.745
465.7540, 1646.253
466.2361, 1639.785
466.7183, 1630.056
467.2004, 1624.322
467.6825, 1625.288
468.1646, 1627.804
468.6467, 1631.016
469.1288, 1634.916
469.6110, 1640.098
470.0930, 1647.876
470.5752, 1655.050
471.0573, 1659.125
471.5394, 1659.229
472.0215, 1659.962
472.5036, 1662.679
472.9857, 1665.057
473.4679, 1661.270
473.9500, 1651.021
474.4321, 1640.850
474.9142, 1633.314
475.3963, 1628.262
475.8784, 1624.582
476.3606, 1622.190
476.8427, 1623.080
477.3248, 1633.782
477.8069, 1648.881
478.2890, 1655.929
478.7711, 1648.194
479.2533, 1637.166
479.7354, 1631.844
480.2175, 1631.917
480.6996, 1636.452
481.1817, 1651.933
481.6638, 1666.685
482.1460, 1672.038
482.6281, 1666.001
483.1102, 1657.453
483.5923, 1643.801
484.0744, 1631.499
484.5565, 1626.871
485.0387, 1637.367
485.5208, 1648.463
486.0029, 1660.895
486.4850, 1672.992
486.9671, 1676.587
487.4492, 1663.541
487.9314, 1652.467
488.4135, 1651.626
488.8956, 1663.169
489.3777, 1677.867
489.8598, 1701.106
490.3419, 1719.429
490.8241, 1709.490
491.3062, 1667.613
491.7883, 1640.529
492.2704, 1644.425
492.7525, 1667.586
493.2346, 1680.094
493.7168, 1681.900
494.1989, 1677.495
494.6810, 1666.620
495.1631, 1652.196
495.6452, 1639.130
496.1273, 1627.604
496.6095, 1620.026
497.0916, 1621.201
497.5737, 1627.581
498.0558, 1633.413
498.5379, 1635.684
499.0201, 1637.348
499.5022, 1640.100
499.9843, 1643.798
500.4664, 1647.332
500.9485, 1646.678
501.4306, 1648.398
501.9127, 1657.592
502.3948, 1682.917
502.8770, 1698.570
503.3591, 1700.066
503.8412, 1691.847
504.3233, 1677.949
504.8054, 1650.249
505.2875, 1630.689
505.7697, 1623.511
506.2518, 1627.979
506.7339, 1641.131
507.2160, 1666.537
507.6981, 1689.713
508.1802, 1699.815
508.6624, 1697.253
509.1445, 1695.850
509.6266, 1697.031
510.1087, 1697.683
510.5908, 1691.750
511.0729, 1681.055
511.5551, 1673.241
512.0372, 1671.709
512.5193, 1674.268
513.0014, 1679.593
513.4835, 1687.115
513.9656, 1693.398
514.4478, 1693.375
514.9299, 1692.827
515.4120, 1698.833
515.8941, 1716.291
516.3762, 1726.938
516.8583, 1714.265
517.3405, 1693.343
517.8226, 1683.197
518.3047, 1702.048
518.7868, 1716.492
519.2689, 1715.438
519.7510, 1701.567
520.2332, 1696.421
520.7153, 1707.040
521.1974, 1717.174
521.6795, 1718.258
522.1616, 1707.459
522.6437, 1698.673
523.1259, 1690.874
523.6080, 1687.102
524.0901, 1694.054
524.5722, 1712.089
525.0543, 1727.108
525.5364, 1737.230
526.0186, 1740.661
526.5007, 1726.462
526.9828, 1697.418
527.4649, 1677.127
527.9470, 1689.884
528.4291, 1717.286
528.9113, 1734.923
529.3934, 1739.961
529.8755, 1737.836
530.3576, 1729.264
530.8397, 1716.659
531.3218, 1702.798
531.8040, 1681.105
532.2861, 1666.224
532.7682, 1667.716
533.2503, 1680.983
533.7324, 1689.990
534.2145, 1687.736
534.6967, 1685.394
535.1788, 1687.072
535.6609, 1693.710
536.1430, 1699.636
536.6251, 1705.792
537.1072, 1709.947
537.5894, 1708.295
538.0715, 1698.973
538.5536, 1695.216
539.0357, 1699.962
539.5178, 1709.937
539.9999, 1720.749
540.4821, 1731.958
540.9642, 1737.856
541.4463, 1731.679
541.9284, 1719.164
542.4105, 1711.313
542.8926, 1708.213
543.3748, 1709.219
543.8569, 1716.751
544.3390, 1726.948
544.8211, 1735.297
545.3032, 1740.711
545.7853, 1744.454
546.2675, 1748.198
546.7495, 1750.548
547.2316, 1749.123
547.7137, 1740.126
548.1959, 1730.572
548.6780, 1721.928
549.1601, 1714.310
549.6422, 1707.455
550.1243, 1696.917
550.6064, 1692.461
551.0886, 1702.042
551.5707, 1732.460
552.0528, 1751.100
552.5349, 1756.107
553.0170, 1751.963
553.4991, 1741.707
553.9813, 1725.548
554.4634, 1713.393
554.9455, 1708.710
555.4276, 1709.017
555.9097, 1709.685
556.3918, 1710.922
556.8740, 1713.961
557.3561, 1720.611
557.8382, 1728.955
558.3203, 1738.923
558.8024, 1751.089
559.2845, 1756.639
559.7667, 1742.800
560.2488, 1723.760
560.7309, 1713.269
561.2130, 1724.977
561.6951, 1732.804
562.1772, 1728.290
562.6594, 1716.576
563.1415, 1710.814
563.6236, 1714.458
564.1057, 1719.489
564.5878, 1724.552
565.0699, 1729.515
565.5521, 1731.102
566.0342, 1728.085
566.5163, 1725.020
566.9984, 1725.733
567.4805, 1729.973
567.9626, 1734.696
568.4448, 1740.655
568.9269, 1743.411
569.4090, 1733.408
569.8911, 1715.182
570.3732, 1701.567
570.8553, 1697.502
571.3375, 1700.286
571.8196, 1711.221
572.3017, 1727.984
572.7838, 1741.115
573.2659, 1744.267
573.7480, 1744.023
574.2302, 1744.099
574.7123, 1745.073
575.1944, 1745.367
575.6765, 1742.057
576.1586, 1739.672
576.6407, 1741.802
577.1229, 1749.958
577.6050, 1760.847
578.0871, 1778.677
578.5692, 1796.087
579.0513, 1793.725
579.5334, 1768.008
580.0156, 1745.769
580.4977, 1738.369
580.9798, 1741.389
581.4619, 1740.652
581.9440, 1736.205
582.4261, 1729.080
582.9083, 1713.909
583.3904, 1698.618
583.8725, 1698.224
584.3546, 1717.060
584.8367, 1735.237
585.3188, 1739.604
585.8010, 1735.306
586.2831, 1728.854
586.7652, 1711.499
587.2473, 1704.045
587.7294, 1721.911
588.2115, 1755.245
588.6937, 1770.968
589.1758, 1754.097
589.6579, 1737.255
590.1400, 1730.578
590.6221, 1734.360
591.1042, 1734.509
591.5864, 1729.316
592.0685, 1725.083
592.5506, 1727.316
593.0327, 1735.636
593.5148, 1744.503
593.9969, 1753.772
594.4791, 1762.209
594.9612, 1768.963
595.4433, 1773.738
595.9254, 1775.479
596.4075, 1771.794
596.8896, 1767.159
597.3718, 1766.652
597.8539, 1768.617
598.3360, 1767.766
598.8181, 1755.112
599.3002, 1744.793
599.7823, 1745.424
600.2645, 1759.231
600.7466, 1770.585
601.2287, 1779.621
601.7108, 1784.619
602.1929, 1783.218
602.6750, 1771.027
603.1572, 1765.370
603.6393, 1768.448
604.1214, 1775.895
604.6035, 1781.858
605.0856, 1786.342
605.5677, 1789.121
606.0499, 1790.718
606.5320, 1789.985
607.0141, 1781.381
607.4962, 1767.133
607.9783, 1758.027
608.4604, 1764.255
608.9425, 1776.414
609.4246, 1788.238
609.9067, 1799.399
610.3889, 1802.940
610.8710, 1781.725
611.3531, 1760.450
611.8352, 1758.748
612.3173, 1800.368
612.7994, 1825.919
613.2816, 1824.876
613.7637, 1811.529
614.2458, 1805.025
614.7279, 1807.661
615.2100, 1810.692
615.6921, 1812.932
616.1743, 1814.091
616.6564, 1813.058
617.1385, 1809.840
617.6206, 1805.420
618.1027, 1797.815
618.5848, 1790.020
619.0670, 1788.188
619.5491, 1792.295
620.0312, 1799.633
620.5133, 1811.881
620.9954, 1824.537
621.4775, 1833.814
621.9597, 1840.214
622.4418, 1839.408
622.9239, 1816.785
623.4060, 1791.345
623.8881, 1786.151
624.3702, 1832.627
624.8524, 1859.300
625.3345, 1850.314
625.8166, 1819.214
626.2987, 1805.130
626.7808, 1811.470
627.2629, 1820.906
627.7451, 1826.955
628.2272, 1830.734
628.7093, 1838.925
629.1914, 1851.547
629.6735, 1860.714
630.1556, 1857.183
630.6378, 1847.337
631.1199, 1840.718
631.6020, 1838.584
632.0841, 1838.409
632.5662, 1841.888
633.0483, 1844.990
633.5305, 1843.083
634.0126, 1824.515
