##NAMES=Cobaltomenite
##RRUFFID=R070352
##IDEAL CHEMISTRY=Co^2+^Se^4+^O_3_&#183;2H_2_O
##LOCALITY=Temple Mountain, San Rafael District (San Rafael Swell), Emery County, Utah, USA
##OWNER=RRUFF
##SOURCE=Michael Scott
##DESCRIPTION=Purple druse of tabular crystals
##STATUS=The identification of this mineral has been confirmed by single-crystal X-ray diffraction.
##URL=rruff.info/R070352
206.3540, 54291.36
206.8362, 54319.52
207.3183, 54329.02
207.8004, 54298.57
208.2825, 54305.59
208.7646, 54388.83
209.2467, 54475.39
209.7289, 54512.95
210.2110, 54501.45
210.6931, 54486.87
211.1752, 54529.50
211.6573, 54654.98
212.1395, 54741.98
212.6216, 54756.87
213.1037, 54764.54
213.5858, 54790.61
214.0679, 54838.44
214.5500, 54902.60
215.0322, 54983.75
215.5143, 55089.20
215.9964, 55160.49
216.4785, 55137.00
216.9606, 55136.22
217.4427, 55221.68
217.9249, 55373.20
218.4070, 55525.29
218.8891, 55622.05
219.3712, 55661.72
219.8533, 55709.02
220.3354, 55779.60
220.8176, 55842.75
221.2997, 55876.89
221.7818, 55897.16
222.2639, 55935.89
222.7460, 56018.96
223.2281, 56141.07
223.7103, 56238.17
224.1924, 56309.09
224.6745, 56352.32
225.1566, 56345.69
225.6387, 56315.74
226.1208, 56302.39
226.6030, 56330.55
227.0851, 56388.10
227.5672, 56424.99
228.0493, 56442.81
228.5314, 56433.81
229.0135, 56350.39
229.4957, 56258.18
229.9778, 56238.61
230.4599, 56330.01
230.9420, 56490.09
231.4241, 56619.64
231.9062, 56723.95
232.3884, 56781.13
232.8705, 56741.75
233.3526, 56686.87
233.8347, 56696.52
234.3168, 56795.25
234.7989, 56930.18
235.2811, 57006.71
235.7632, 56994.02
236.2453, 56995.64
236.7274, 57030.14
237.2095, 57073.20
237.6916, 57102.34
238.1738, 57116.15
238.6559, 57138.98
239.1380, 57209.60
239.6201, 57348.57
240.1022, 57459.14
240.5843, 57528.23
241.0665, 57576.19
241.5486, 57598.45
242.0307, 57603.07
242.5128, 57616.42
242.9949, 57674.06
243.4770, 57782.95
243.9592, 57852.41
244.4413, 57844.36
244.9234, 57830.68
245.4055, 57842.31
245.8876, 57871.01
246.3697, 57889.58
246.8519, 57870.61
247.3340, 57821.30
247.8161, 57810.46
248.2982, 57871.98
248.7803, 57928.11
249.2624, 57957.84
249.7446, 57964.04
250.2267, 57948.56
250.7088, 57904.52
251.1909, 57847.99
251.6730, 57824.53
252.1551, 57838.39
252.6373, 57879.36
253.1194, 57965.84
253.6015, 58065.35
254.0836, 58142.31
254.5657, 58182.47
255.0478, 58201.11
255.5300, 58221.62
256.0121, 58245.27
256.4942, 58265.73
256.9763, 58273.69
257.4584, 58282.09
257.9406, 58301.34
258.4227, 58263.34
258.9048, 58370.54
259.3869, 58437.42
259.8690, 58466.13
260.3511, 58342.38
260.8333, 58415.51
261.3154, 58409.73
261.7975, 58400.72
262.2796, 58501.55
262.7617, 58399.98
263.2438, 58499.07
263.7260, 58518.06
264.2081, 58573.71
264.6902, 58549.98
265.1723, 58550.76
265.6544, 58630.95
266.1365, 58667.18
266.6187, 58634.31
267.1008, 58692.29
267.5829, 58587.94
268.0650, 58626.04
268.5471, 58725.59
269.0292, 58696.71
269.5114, 58756.14
269.9935, 58781.94
270.4756, 58654.88
270.9577, 58793.65
271.4398, 58817.46
271.9219, 58723.22
272.4041, 58852.89
272.8862, 58774.93
273.3683, 58771.08
273.8504, 58823.00
274.3325, 58816.78
274.8146, 58872.13
275.2968, 58941.41
275.7789, 58995.36
276.2610, 59034.29
276.7431, 59057.50
277.2252, 59059.46
277.7073, 59052.42
278.1895, 59052.65
278.6716, 58983.30
279.1537, 59089.91
279.6358, 59156.20
280.1179, 59184.33
280.6000, 59059.99
281.0822, 59132.53
281.5643, 59126.17
282.0464, 59116.57
282.5285, 59216.82
283.0106, 59114.66
283.4927, 59213.16
283.9749, 59231.57
284.4570, 59286.63
284.9391, 59262.30
285.4212, 59262.50
285.9033, 59342.11
286.3854, 59377.75
286.8676, 59344.29
287.3497, 59401.68
287.8318, 59296.75
288.3139, 59334.26
288.7960, 59433.23
289.2781, 59403.76
289.7603, 59462.60
290.2424, 59487.81
290.7245, 59360.17
291.2066, 59498.35
291.6887, 59521.57
292.1708, 59426.75
292.6530, 59555.83
293.1351, 59477.29
293.6172, 59472.85
294.0993, 59524.18
294.5814, 59517.38
295.0635, 59602.23
295.5457, 59598.79
296.0278, 59587.45
296.5099, 59610.54
296.9920, 59536.07
297.4741, 59642.60
297.9562, 59625.49
298.4384, 59669.84
298.9205, 59728.12
299.4026, 59765.36
299.8847, 59825.61
300.3668, 59847.70
300.8489, 59717.34
301.3310, 59783.84
301.8131, 59771.45
302.2953, 59755.82
302.7774, 59850.04
303.2595, 59741.85
303.7416, 59834.32
304.2237, 59846.69
304.7058, 59895.72
305.1880, 59865.37
305.6701, 59859.54
306.1522, 59933.11
306.6343, 59962.71
307.1164, 59923.23
307.5985, 59974.59
308.0807, 59863.63
308.5628, 59895.11
309.0449, 59988.04
309.5270, 59952.54
310.0091, 60005.36
310.4912, 60024.54
310.9734, 59890.87
311.4555, 60023.02
311.9376, 60040.21
312.4197, 59939.36
312.9018, 60062.41
313.3839, 59977.84
313.8661, 59967.37
314.3482, 60012.68
314.8303, 59999.84
315.3124, 60078.67
315.7945, 60069.93
316.2766, 60105.05
316.7588, 60130.07
317.2409, 60147.40
317.7230, 60155.12
318.2051, 60146.16
318.6872, 60102.89
319.1693, 60072.51
319.6515, 60107.23
320.1336, 60190.78
320.6157, 60248.12
321.0978, 60247.38
321.5799, 60219.40
322.0620, 60218.72
322.5442, 60253.66
323.0263, 60263.13
323.5084, 60112.06
323.9905, 60210.13
324.4726, 60267.87
324.9547, 60287.45
325.4369, 60154.57
325.9190, 60218.56
326.4011, 60203.65
326.8832, 60185.51
327.3653, 60277.21
327.8474, 60166.50
328.3296, 60256.46
328.8117, 60266.32
329.2938, 60312.83
329.7759, 60279.96
330.2580, 60271.61
330.7401, 60342.67
331.2223, 60369.76
331.7044, 60327.76
332.1865, 60376.60
332.6686, 60263.12
333.1507, 60292.09
333.6328, 60382.50
334.1150, 60344.49
334.5971, 60394.79
335.0792, 60411.45
335.5613, 60275.26
336.0434, 60404.89
336.5255, 60419.57
337.0077, 60316.21
337.4898, 60436.73
337.9719, 60349.64
338.4540, 60336.66
338.9361, 60379.44
339.4182, 60364.09
339.9004, 60440.40
340.3825, 60428.40
340.8646, 60408.52
341.3467, 60423.06
341.8288, 60340.04
342.3109, 60468.32
342.7931, 60493.16
343.2752, 60470.92
343.7573, 60391.86
344.2394, 60334.38
344.7215, 60313.56
345.2036, 60326.35
345.6858, 60388.53
346.1679, 60497.86
346.6500, 60582.04
347.1321, 60568.27
347.6142, 60494.93
348.0963, 60475.81
348.5785, 60536.82
349.0606, 60605.65
349.5427, 60618.95
350.0248, 60593.60
350.5069, 60578.30
350.9890, 60589.76
351.4712, 60607.72
351.9533, 60621.13
352.4354, 60628.44
352.9175, 60617.32
353.3996, 60572.48
353.8817, 60516.53
354.3639, 60517.37
354.8460, 60611.66
355.3281, 60673.53
355.8102, 60645.07
356.2923, 60583.04
356.7744, 60563.20
357.2566, 60599.02
357.7387, 60636.05
358.2208, 60532.70
358.7029, 60622.01
359.1850, 60670.99
359.6671, 60681.81
360.1493, 60540.18
360.6314, 60595.41
361.1135, 60571.74
361.5956, 60544.84
362.0777, 60627.78
362.5598, 60508.32
363.0420, 60589.52
363.5241, 60590.61
364.0062, 60628.37
364.4883, 60586.75
364.9704, 60569.64
365.4525, 60631.94
365.9347, 60650.27
366.4168, 60599.51
366.8989, 60639.60
367.3810, 60517.36
367.8631, 60537.57
368.3452, 60619.23
368.8274, 60572.46
369.3095, 60614.00
369.7916, 60621.90
370.2737, 60476.95
370.7558, 60597.83
371.2379, 60603.75
371.7201, 60491.62
372.2022, 60603.39
372.6843, 60507.55
373.1664, 60485.80
373.6485, 60519.83
374.1306, 60495.72
374.6128, 60563.27
375.0949, 60542.52
375.5770, 60513.88
376.0591, 60519.67
376.5412, 60427.89
377.0233, 60517.12
377.5055, 60482.70
377.9876, 60509.75
378.4697, 60550.72
378.9518, 60485.03
379.4339, 60532.27
379.9160, 60404.38
380.3982, 60423.02
380.8803, 60425.89
381.3624, 60522.41
381.8445, 60395.38
382.3266, 60409.95
382.8087, 60484.82
383.2909, 60475.32
383.7730, 60501.09
384.2551, 60422.45
384.7372, 60441.89
385.2193, 60434.30
385.7014, 60520.15
386.1836, 60532.23
386.6657, 60455.36
387.1478, 60378.86
387.6299, 60471.43
388.1120, 60403.75
388.5941, 60422.52
389.0763, 60352.01
389.5584, 60358.59
390.0405, 60363.95
390.5226, 60408.83
391.0047, 60333.88
391.4868, 60414.36
391.9690, 60405.01
392.4511, 60422.12
392.9332, 60436.28
393.4153, 60329.89
393.8974, 60322.32
394.3795, 60456.18
394.8617, 60410.15
395.3438, 60396.92
395.8259, 60376.11
396.3080, 60294.22
396.7901, 60380.28
397.2722, 60426.02
397.7544, 60433.59
398.2365, 60288.71
398.7186, 60340.69
399.2007, 60313.78
399.6828, 60283.63
400.1649, 60363.32
400.6471, 60240.61
401.1292, 60318.57
401.6113, 60316.42
402.0934, 60350.93
402.5755, 60306.06
403.0576, 60285.71
403.5398, 60344.76
404.0219, 60359.85
404.5040, 60220.35
404.9861, 60228.79
405.4682, 60279.77
405.9503, 60299.38
406.4325, 60234.58
406.9146, 60118.22
407.3967, 60072.64
407.8788, 60138.26
408.3609, 60192.51
408.8430, 60205.04
409.3252, 60202.52
409.8073, 60205.33
410.2894, 60216.56
410.7715, 60226.18
411.2536, 60226.96
411.7357, 60219.10
412.2179, 60201.52
412.7000, 60169.61
413.1821, 60139.02
413.6642, 60115.29
414.1463, 60101.00
414.6284, 60106.02
415.1106, 60147.92
415.5927, 60190.29
416.0748, 60196.61
416.5569, 60180.45
417.0390, 60188.98
417.5211, 60242.98
418.0033, 60310.28
418.4854, 60346.11
418.9675, 60349.20
419.4496, 60317.45
419.9317, 60194.58
420.4138, 60082.90
420.8960, 60068.50
421.3781, 60130.18
421.8602, 60184.57
422.3423, 60176.55
422.8244, 60122.34
423.3065, 60093.55
423.7887, 60121.73
424.2708, 60125.63
424.7529, 60066.72
425.2350, 60002.56
425.7171, 59987.54
426.1992, 60025.02
426.6814, 60068.71
427.1635, 60075.36
427.6456, 60047.48
428.1277, 60010.52
428.6098, 59949.30
429.0919, 59908.73
429.5741, 59926.81
430.0562, 59975.47
430.5383, 60017.76
431.0204, 60052.53
431.5025, 60063.01
431.9846, 60022.68
432.4668, 59944.35
432.9489, 59867.55
433.4310, 59796.29
433.9131, 59750.63
434.3952, 59765.74
434.8773, 59849.93
435.3595, 59906.25
435.8416, 59916.20
436.3237, 59908.86
436.8058, 59904.30
437.2879, 59897.36
437.7701, 59861.82
438.2522, 59780.41
438.7343, 59688.12
439.2164, 59680.47
439.6985, 59844.44
440.1806, 59937.45
440.6628, 59927.13
441.1449, 59877.23
441.6270, 59806.14
442.1091, 59730.04
442.5912, 59680.35
443.0733, 59686.45
443.5555, 59735.53
444.0376, 59784.18
444.5197, 59842.75
445.0018, 59871.75
445.4839, 59828.21
445.9660, 59761.34
446.4482, 59718.34
446.9303, 59706.95
447.4124, 59704.50
447.8945, 59711.12
448.3766, 59714.13
448.8587, 59678.23
449.3409, 59595.73
449.8230, 59514.02
450.3051, 59467.02
450.7872, 59454.34
451.2693, 59457.94
451.7514, 59487.60
452.2336, 59520.76
452.7157, 59566.98
453.1978, 59606.13
453.6799, 59604.81
454.1620, 59555.23
454.6441, 59485.30
455.1263, 59431.30
455.6084, 59397.80
456.0905, 59354.69
456.5726, 59269.01
457.0547, 59208.50
457.5368, 59215.92
458.0190, 59257.15
458.5011, 59274.59
458.9832, 59240.99
459.4653, 59190.00
459.9474, 59172.09
460.4295, 59187.90
460.9117, 59194.63
461.3938, 59174.28
461.8759, 59156.34
462.3580, 59169.43
462.8401, 59208.63
463.3222, 59250.25
463.8044, 59307.48
464.2865, 59349.31
464.7686, 59339.64
465.2507, 59288.09
465.7328, 59231.60
466.2149, 59184.78
466.6971, 59146.02
467.1792, 59110.77
467.6613, 59060.38
468.1434, 59057.88
468.6255, 59148.08
469.1076, 59246.38
469.5898, 59316.39
470.0719, 59348.52
470.5540, 59330.05
471.0361, 59246.99
471.5182, 59124.34
472.0003, 59029.09
472.4825, 58958.64
472.9646, 58924.80
473.4467, 59000.26
473.9288, 59062.66
474.4109, 59000.37
474.8930, 58825.16
475.3752, 58686.51
475.8573, 58693.52
476.3394, 58782.13
476.8215, 58858.37
477.3036, 58919.90
477.7857, 58941.14
478.2679, 58899.46
478.7500, 58817.34
479.2321, 58745.43
479.7142, 58679.29
480.1963, 58632.32
480.6784, 58623.32
481.1606, 58623.71
481.6427, 58597.77
482.1248, 58550.64
482.6069, 58525.14
483.0890, 58557.44
483.5711, 58633.38
484.0533, 58671.72
484.5354, 58631.41
485.0175, 58621.54
485.4996, 58708.44
485.9817, 58792.72
486.4638, 58780.79
486.9460, 58671.10
487.4281, 58551.57
487.9102, 58463.70
488.3923, 58419.82
488.8744, 58491.43
489.3565, 58709.04
489.8387, 58863.23
490.3208, 58814.15
490.8029, 58649.85
491.2850, 58563.04
491.7671, 58580.07
492.2492, 58596.06
492.7314, 58578.21
493.2135, 58539.75
493.6956, 58478.95
494.1777, 58404.91
494.6598, 58366.37
495.1419, 58409.86
495.6241, 58514.48
496.1062, 58542.98
496.5883, 58407.77
497.0704, 58318.10
497.5525, 58340.66
498.0346, 58382.79
498.5168, 58356.99
498.9989, 58261.18
499.4810, 58168.80
499.9631, 58144.24
500.4452, 58171.29
500.9273, 58192.98
501.4095, 58211.02
501.8916, 58216.86
502.3737, 58210.97
502.8558, 58186.80
503.3379, 58128.04
503.8200, 58019.92
504.3022, 57939.76
504.7843, 57930.39
505.2664, 57956.43
505.7485, 57989.89
506.2306, 58022.75
506.7127, 58030.25
507.1949, 57988.96
507.6770, 57918.94
508.1591, 57909.91
508.6412, 58036.68
509.1233, 58115.31
509.6054, 58116.52
510.0876, 58083.84
510.5697, 58035.75
511.0518, 57981.96
511.5339, 57938.12
512.0161, 57913.67
512.4982, 57908.43
512.9803, 57933.84
513.4624, 58000.25
513.9445, 58030.89
514.4266, 57976.71
514.9088, 57892.33
515.3909, 57848.24
515.8730, 57846.29
516.3551, 57855.54
516.8372, 57901.06
517.3193, 57928.44
517.8015, 57856.24
518.2836, 57711.61
518.7657, 57614.44
519.2478, 57633.52
519.7299, 57715.93
520.2120, 57732.65
520.6942, 57627.63
521.1763, 57563.68
521.6584, 57574.44
522.1405, 57589.89
522.6226, 57570.25
523.1047, 57523.91
523.5869, 57477.52
524.0690, 57440.25
524.5511, 57420.10
525.0332, 57446.43
525.5153, 57518.71
525.9974, 57546.38
526.4796, 57487.94
526.9617, 57411.09
527.4438, 57394.39
527.9259, 57429.69
528.4080, 57450.27
528.8901, 57428.38
529.3723, 57407.61
529.8544, 57425.90
530.3365, 57461.66
530.8186, 57468.13
531.3007, 57430.02
531.7828, 57376.85
532.2650, 57350.56
532.7471, 57357.09
533.2292, 57353.36
533.7113, 57351.52
534.1934, 57323.44
534.6755, 57224.24
535.1577, 57108.23
535.6398, 57059.69
536.1219, 57109.15
536.6040, 57163.43
537.0861, 57105.84
537.5682, 56982.20
538.0504, 56955.57
538.5325, 57055.72
539.0146, 57172.31
539.4967, 57238.95
539.9788, 57256.31
540.4609, 57230.45
540.9431, 57120.95
541.4252, 57028.30
541.9073, 56974.45
542.3894, 56945.28
542.8715, 56935.90
543.3536, 56939.79
543.8358, 56941.39
544.3179, 56930.37
544.8000, 56905.08
545.2821, 56848.73
545.7642, 56733.35
546.2463, 56664.45
546.7285, 56723.63
547.2106, 56798.92
547.6926, 56789.63
548.1747, 56701.50
548.6569, 56640.33
549.1390, 56675.82
549.6211, 56744.84
550.1032, 56792.58
550.5853, 56815.30
551.0674, 56798.58
551.5496, 56732.50
552.0317, 56644.11
552.5138, 56573.54
552.9959, 56514.14
553.4780, 56496.87
553.9601, 56555.92
554.4423, 56614.10
554.9244, 56645.16
555.4065, 56653.48
555.8886, 56650.95
556.3707, 56642.10
556.8528, 56617.23
557.3350, 56540.91
557.8171, 56426.21
558.2992, 56390.98
558.7813, 56467.47
559.2634, 56556.32
559.7455, 56601.25
560.2277, 56606.42
560.7098, 56590.40
561.1919, 56528.67
561.6740, 56489.00
562.1561, 56517.83
562.6382, 56563.84
563.1204, 56569.52
563.6025, 56533.19
564.0846, 56491.14
564.5667, 56470.56
565.0488, 56462.92
565.5309, 56431.60
566.0131, 56362.91
566.4952, 56305.23
566.9773, 56268.92
567.4594, 56244.79
567.9415, 56240.81
568.4236, 56248.00
568.9058, 56228.63
569.3879, 56129.24
569.8700, 56029.99
570.3521, 56023.49
570.8342, 56086.79
571.3163, 56154.48
571.7985, 56210.56
572.2806, 56222.73
572.7627, 56137.65
573.2448, 55935.39
573.7269, 55823.34
574.2090, 55860.61
574.6912, 55911.28
575.1733, 55959.82
575.6554, 55994.70
576.1375, 56006.48
576.6196, 55992.84
577.1017, 55956.76
577.5839, 55864.65
578.0660, 55752.58
578.5481, 55764.70
579.0302, 55918.57
579.5123, 56061.12
579.9944, 56135.83
580.4766, 56146.87
580.9587, 56080.32
581.4408, 55906.89
581.9229, 55790.48
582.4050, 55784.35
582.8871, 55814.84
583.3693, 55850.43
583.8514, 55881.54
584.3335, 55902.48
584.8156, 55910.61
585.2977, 55897.75
585.7798, 55839.49
586.2620, 55729.43
586.7441, 55652.17
587.2262, 55622.12
587.7083, 55607.20
588.1904, 55583.16
588.6725, 55563.57
589.1547, 55581.05
589.6368, 55667.76
590.1189, 55717.47
590.6010, 55651.33
591.0831, 55534.44
591.5652, 55437.41
592.0474, 55371.66
592.5295, 55341.77
593.0116, 55356.14
593.4937, 55393.91
593.9758, 55383.84
594.4579, 55285.23
594.9401, 55235.79
595.4222, 55303.54
595.9043, 55371.79
596.3864, 55370.17
596.8685, 55322.85
597.3506, 55299.24
597.8328, 55337.93
598.3149, 55382.84
598.7970, 55389.12
599.2791, 55361.64
599.7612, 55303.52
600.2433, 55214.96
600.7255, 55131.36
601.2076, 55080.63
601.6897, 55061.56
602.1718, 55065.22
602.6539, 55141.40
603.1360, 55170.96
603.6182, 55081.31
604.1003, 54992.78
604.5824, 55016.11
605.0645, 55131.66
605.5466, 55228.79
606.0287, 55249.92
606.5109, 55210.87
606.9930, 55106.95
607.4751, 54950.62
607.9572, 54848.12
608.4393, 54832.76
608.9214, 54847.96
609.4036, 54835.73
609.8857, 54795.94
610.3678, 54787.31
610.8499, 54831.42
611.3320, 54876.09
611.8141, 54936.08
612.2963, 54974.17
612.7784, 54936.54
613.2605, 54829.98
613.7426, 54723.13
614.2247, 54664.88
614.7068, 54645.42
615.1890, 54655.60
615.6711, 54698.42
616.1532, 54695.52
616.6353, 54602.77
617.1174, 54495.30
617.5995, 54462.74
618.0817, 54506.92
618.5638, 54535.85
619.0459, 54540.72
619.5280, 54535.96
620.0101, 54517.68
620.4922, 54497.50
620.9744, 54492.74
621.4565, 54504.45
621.9386, 54514.48
622.4207, 54501.58
622.9028, 54475.99
623.3849, 54487.93
623.8671, 54549.30
624.3492, 54574.48
624.8313, 54512.90
625.3134, 54432.42
625.7955, 54429.48
626.2776, 54498.68
626.7598, 54524.25
627.2419, 54463.79
627.7240, 54384.86
628.2061, 54306.58
628.6882, 54237.49
629.1703, 54193.75
629.6525, 54175.97
630.1346, 54161.54
630.6167, 54127.19
631.0988, 54077.32
631.5809, 54032.47
632.0630, 53987.18
632.5452, 53970.33
633.0273, 54014.94
633.5094, 54068.34
633.9915, 54070.49
634.4736, 54024.03
634.9557, 53971.04
635.4379, 53889.18
635.9200, 53835.28
636.4021, 53877.30
636.8842, 53954.97
637.3663, 53960.94
637.8484, 53877.31
638.3306, 53789.78
638.8127, 53788.41
639.2948, 53856.69
639.7769, 53897.42
640.2590, 53912.59
640.7411, 53891.71
641.2233, 53811.19
641.7054, 53712.60
642.1875, 53633.66
642.6696, 53573.79
643.1517, 53531.43
643.6339, 53538.74
644.1160, 53528.76
644.5981, 53431.86
645.0802, 53306.80
645.5623, 53245.80
646.0444, 53266.23
646.5266, 53323.07
647.0087, 53383.18
647.4908, 53439.60
647.9729, 53457.02
648.4550, 53430.20
648.9371, 53381.57
649.4193, 53290.75
649.9014, 53208.52
650.3835, 53194.40
650.8656, 53237.87
651.3477, 53264.92
651.8298, 53246.94
652.3120, 53228.55
652.7941, 53232.12
653.2762, 53247.06
653.7583, 53263.03
654.2404, 53275.83
654.7225, 53281.68
655.2047, 53281.42
655.6868, 53266.64
656.1689, 53196.94
656.6510, 53057.72
657.1331, 52954.37
657.6152, 52917.02
658.0974, 52910.06
658.5795, 52906.27
659.0616, 52906.88
659.5437, 52919.06
660.0258, 52976.09
660.5079, 53004.25
660.9901, 52956.45
661.4722, 52881.54
661.9543, 52824.62
662.4364, 52792.75
662.9185, 52779.35
663.4006, 52783.99
663.8828, 52793.23
664.3649, 52767.49
664.8470, 52704.56
665.3291, 52685.16
665.8112, 52737.33
666.2933, 52798.27
666.7755, 52830.39
667.2576, 52832.39
667.7397, 52803.43
668.2218, 52712.09
668.7039, 52641.31
669.1860, 52617.74
669.6682, 52611.85
670.1503, 52601.55
670.6324, 52587.91
671.1145, 52584.81
671.5966, 52601.09
672.0787, 52615.76
672.5609, 52595.90
673.0430, 52545.86
673.5251, 52492.64
674.0072, 52435.02
674.4893, 52396.79
674.9714, 52396.46
675.4536, 52421.77
675.9357, 52442.83
676.4178, 52467.74
676.8999, 52470.05
677.3820, 52437.00
677.8641, 52393.48
678.3463, 52337.74
678.8284, 52285.63
679.3105, 52268.80
679.7926, 52297.24
680.2747, 52321.84
680.7568, 52285.91
681.2390, 52214.54
681.7211, 52166.44
682.2032, 52143.55
682.6853, 52131.15
683.1674, 52125.15
683.6495, 52119.18
684.1317, 52102.31
684.6138, 52071.52
685.0959, 52046.09
685.5780, 52017.63
686.0601, 52004.60
686.5422, 52043.14
687.0244, 52080.05
687.5065, 52045.86
687.9886, 51939.16
688.4707, 51845.63
688.9528, 51809.70
689.4349, 51814.77
689.9171, 51873.61
690.3992, 51957.63
690.8813, 51970.39
691.3634, 51887.51
691.8455, 51793.05
692.3276, 51774.07
692.8098, 51820.41
693.2919, 51841.58
693.7740, 51823.67
694.2561, 51811.88
694.7382, 51837.91
695.2203, 51850.90
695.7025, 51781.76
696.1846, 51664.73
696.6667, 51633.27
697.1488, 51801.33
697.6309, 51939.75
698.1130, 51886.34
698.5952, 51757.04
699.0773, 51692.29
699.5594, 51701.76
700.0415, 51734.49
700.5236, 51763.45
701.0057, 51773.47
701.4879, 51721.61
701.9700, 51603.58
702.4521, 51511.63
702.9342, 51455.16
703.4163, 51422.34
