##NAMES=Cobaltite
##RRUFFID=R100119
##IDEAL CHEMISTRY=Co^3+^(AsS)^3-^
##LOCALITY=Deerhorn mine, Cobalt, Ontario, Canada
##OWNER=RRUFF
##SOURCE=Robert Woodside
##DESCRIPTION=Metallic silver-gray cubes
##STATUS=The identification of this mineral has been confirmed by single-crystal X-ray diffraction.
##URL=rruff.info/R100119
165.3335, 68.04736
165.8156, 69.17612
166.2977, 69.85872
166.7798, 69.51669
167.2620, 68.64495
167.7441, 68.01180
168.2262, 67.97919
168.7083, 68.31433
169.1904, 68.39011
169.6725, 68.29466
170.1547, 67.89490
170.6368, 66.97579
171.1189, 65.66608
171.6010, 64.31351
172.0831, 62.77179
172.5652, 61.59749
173.0474, 61.81060
173.5295, 64.18292
174.0116, 66.46659
174.4937, 66.62611
174.9758, 64.66890
175.4579, 62.93740
175.9401, 62.42467
176.4222, 62.70955
176.9043, 63.42670
177.3864, 64.61038
177.8685, 65.98805
178.3506, 67.29183
178.8328, 68.57827
179.3149, 69.57800
179.7970, 70.28125
180.2791, 70.64262
180.7612, 70.55186
181.2433, 69.94926
181.7255, 68.95382
182.2076, 67.64864
182.6897, 65.27360
183.1718, 64.09973
183.6539, 65.40739
184.1360, 67.59564
184.6181, 68.95368
185.1003, 68.61878
185.5824, 67.13640
186.0645, 66.45897
186.5466, 67.51143
187.0287, 68.28965
187.5108, 68.33884
187.9930, 68.01843
188.4751, 67.83614
188.9572, 68.09206
189.4393, 68.65258
189.9214, 68.75474
190.4035, 67.75295
190.8857, 67.01107
191.3678, 66.80483
191.8499, 67.03065
192.3320, 67.55912
192.8141, 68.37166
193.2962, 69.37807
193.7784, 69.84858
194.2605, 68.94209
194.7426, 68.50994
195.2247, 69.42928
195.7068, 71.38187
196.1889, 73.52969
196.6711, 75.55165
197.1532, 77.24766
197.6353, 77.91713
198.1174, 76.87100
198.5995, 75.55168
199.0816, 74.82136
199.5638, 74.57792
200.0459, 74.08167
200.5280, 72.62332
201.0101, 70.68718
201.4922, 69.65300
201.9743, 69.87390
202.4565, 70.69510
202.9386, 71.98289
203.4207, 73.77693
203.9028, 74.74502
204.3849, 73.31490
204.8670, 70.87390
205.3492, 69.46121
205.8313, 69.79964
206.3134, 70.82763
206.7955, 71.37273
207.2776, 71.43343
207.7597, 71.00852
208.2419, 69.51706
208.7240, 67.74986
209.2061, 66.52396
209.6882, 66.19780
210.1703, 66.31776
210.6524, 66.08094
211.1346, 65.31513
211.6167, 64.63910
212.0988, 64.29247
212.5809, 64.10164
213.0630, 63.93448
213.5451, 63.75438
214.0273, 63.51328
214.5094, 63.11405
214.9915, 62.58671
215.4736, 61.80872
215.9557, 60.45159
216.4378, 59.01044
216.9200, 57.96659
217.4021, 57.54220
217.8842, 57.59369
218.3663, 57.74804
218.8484, 58.14194
219.3305, 58.44029
219.8127, 58.77472
220.2948, 58.94011
220.7769, 58.68706
221.2590, 57.90179
221.7411, 56.72575
222.2232, 55.56377
222.7054, 53.94402
223.1875, 52.96516
223.6696, 52.85050
224.1517, 53.34269
224.6338, 54.29641
225.1159, 55.65563
225.5980, 57.16771
226.0802, 58.09103
226.5623, 57.92234
227.0444, 57.73543
227.5265, 57.58866
228.0086, 57.46892
228.4907, 57.33767
228.9729, 57.17344
229.4550, 57.03321
229.9371, 57.08281
230.4192, 57.48344
230.9013, 57.80973
231.3834, 57.93036
231.8656, 57.95199
232.3477, 58.01112
232.8298, 58.15029
233.3119, 58.38716
233.7940, 58.81834
234.2761, 59.58091
234.7583, 60.16602
235.2404, 60.00453
235.7225, 59.64706
236.2046, 60.19688
236.6867, 62.19657
237.1688, 64.79235
237.6510, 66.64128
238.1331, 67.86491
238.6152, 68.31738
239.0973, 67.24641
239.5794, 65.40414
240.0615, 64.56196
240.5437, 65.49812
241.0258, 66.91889
241.5079, 66.97916
241.9900, 65.71307
242.4721, 64.53661
242.9542, 64.20475
243.4364, 64.41113
243.9185, 64.31328
244.4006, 63.58808
244.8827, 62.83210
245.3648, 62.72952
245.8469, 63.19172
246.3290, 63.60920
246.8112, 63.83505
247.2933, 63.80304
247.7754, 63.22541
248.2575, 61.79635
248.7396, 60.25897
249.2217, 59.04309
249.7039, 58.15274
250.1860, 57.67492
250.6681, 58.00696
251.1502, 58.85131
251.6323, 59.01746
252.1144, 58.02714
252.5966, 57.04940
253.0787, 57.05914
253.5608, 57.61916
254.0429, 57.71857
254.5250, 56.48724
255.0071, 54.33610
255.4893, 52.84768
255.9714, 52.19252
256.4535, 52.01178
256.9356, 52.51402
257.4177, 53.24630
257.8998, 53.40790
258.3820, 52.33860
258.8641, 50.48560
259.3462, 49.51781
259.8283, 50.15648
260.3104, 50.50346
260.7925, 49.74629
261.2747, 48.42961
261.7568, 47.20190
262.2389, 46.31606
262.7210, 45.83090
263.2031, 46.03524
263.6852, 47.68853
264.1674, 48.70582
264.6495, 48.16878
265.1316, 47.02789
265.6137, 46.33722
266.0958, 46.57021
266.5779, 47.29796
267.0601, 47.47152
267.5422, 46.66876
268.0243, 46.05574
268.5064, 45.70088
268.9885, 45.62607
269.4706, 46.05640
269.9528, 47.03870
270.4349, 48.05253
270.9170, 47.98932
271.3991, 45.97714
271.8812, 44.60070
272.3633, 44.21961
272.8455, 44.30823
273.3276, 44.53591
273.8097, 44.79566
274.2918, 45.10456
274.7739, 45.51865
275.2560, 46.20030
275.7382, 46.62526
276.2202, 46.84359
276.7024, 46.83222
277.1845, 46.33704
277.6666, 45.45706
278.1487, 44.77449
278.6308, 45.13364
279.1129, 47.16512
279.5951, 48.00594
280.0772, 46.77204
280.5593, 45.33854
281.0414, 44.65129
281.5235, 44.73094
282.0056, 45.07082
282.4878, 45.16842
282.9699, 44.94057
283.4520, 45.10261
283.9341, 46.23151
284.4162, 47.13990
284.8983, 47.16143
285.3805, 46.52258
285.8626, 45.91179
286.3447, 45.87605
286.8268, 46.40289
287.3089, 46.71456
287.7910, 46.76530
288.2732, 46.67327
288.7553, 46.35230
289.2374, 45.91656
289.7195, 45.56300
290.2016, 45.41062
290.6837, 45.43415
291.1659, 45.49889
291.6480, 45.65968
292.1301, 45.79631
292.6122, 45.94921
293.0943, 46.05084
293.5764, 45.95555
294.0586, 45.58702
294.5407, 45.10002
295.0228, 44.91368
295.5049, 45.69393
295.9870, 45.95433
296.4691, 45.47398
296.9513, 44.52104
297.4334, 43.09965
297.9155, 41.26152
298.3976, 39.63147
298.8797, 39.31439
299.3618, 41.36389
299.8440, 42.83848
300.3261, 43.69827
300.8082, 44.01793
301.2903, 43.57781
301.7724, 42.44850
302.2545, 41.33450
302.7367, 41.08606
303.2188, 41.97942
303.7009, 42.78117
304.1830, 43.65416
304.6651, 44.32161
305.1472, 44.49685
305.6294, 44.24556
306.1115, 43.94352
306.5936, 43.92162
307.0757, 44.20195
307.5578, 44.33440
308.0399, 43.90012
308.5221, 43.75130
309.0042, 44.61947
309.4863, 46.12016
309.9684, 47.20397
310.4505, 47.15206
310.9326, 46.14930
311.4148, 45.47682
311.8969, 45.16854
312.3790, 45.08616
312.8611, 45.28035
313.3432, 45.66615
313.8253, 46.25144
314.3075, 47.08134
314.7896, 47.82485
315.2717, 47.57654
315.7538, 44.91920
316.2359, 43.32256
316.7180, 43.87153
317.2001, 45.25756
317.6823, 46.09015
318.1644, 45.96485
318.6465, 45.30230
319.1286, 44.68417
319.6107, 43.99821
320.0928, 43.70990
320.5750, 44.20629
321.0571, 44.82001
321.5392, 45.09830
322.0213, 44.96661
322.5034, 44.50716
322.9855, 43.72592
323.4677, 42.50579
323.9498, 41.89018
324.4319, 42.38396
324.9140, 42.91349
325.3961, 42.86551
325.8782, 42.36802
326.3604, 41.94794
326.8425, 42.00008
327.3246, 42.46230
327.8067, 42.62038
328.2888, 42.05073
328.7709, 41.70124
329.2531, 42.16717
329.7352, 42.95110
330.2173, 43.11997
330.6994, 42.19611
331.1815, 40.69595
331.6636, 40.01540
332.1458, 40.99402
332.6279, 41.80046
333.1100, 42.58021
333.5921, 43.06350
334.0742, 42.78451
334.5563, 41.67287
335.0385, 40.35246
335.5206, 39.76422
336.0027, 40.32539
336.4848, 40.57295
336.9669, 40.01870
337.4490, 39.56620
337.9312, 40.07137
338.4133, 41.39427
338.8954, 42.52820
339.3775, 42.45840
339.8596, 41.03279
340.3417, 40.31726
340.8239, 41.20422
341.3060, 41.78078
341.7881, 41.12777
342.2702, 39.65259
342.7523, 38.23952
343.2344, 37.43468
343.7166, 37.13544
344.1987, 36.85374
344.6808, 36.11523
345.1629, 35.97955
345.6450, 37.24674
346.1271, 38.88234
346.6093, 39.60476
347.0914, 38.97102
347.5735, 37.72444
348.0556, 37.32395
348.5377, 38.57573
349.0198, 39.21819
349.5020, 38.70577
349.9841, 38.07430
350.4662, 38.14710
350.9483, 38.93128
351.4304, 39.77189
351.9125, 39.94990
352.3947, 39.37093
352.8768, 38.75438
353.3589, 37.80819
353.8410, 37.11381
354.3231, 37.12494
354.8052, 37.54859
355.2874, 37.72654
355.7695, 37.15369
356.2516, 36.02924
356.7337, 35.48879
357.2158, 35.88362
357.6979, 36.44028
358.1800, 37.30353
358.6621, 38.12368
359.1443, 38.49632
359.6264, 38.26984
360.1085, 37.66875
360.5906, 36.99294
361.0727, 35.99361
361.5548, 35.59959
362.0370, 36.49413
362.5191, 37.53275
363.0012, 38.02412
363.4833, 37.91063
363.9654, 37.55064
364.4475, 37.29142
364.9297, 37.14462
365.4118, 36.88578
365.8939, 36.22122
366.3760, 35.78086
366.8581, 35.86431
367.3402, 36.34873
367.8224, 37.00802
368.3045, 37.81371
368.7866, 38.61519
369.2687, 38.93032
369.7508, 38.59441
370.2329, 38.11644
370.7151, 37.77891
371.1972, 37.34771
371.6793, 36.40272
372.1614, 34.74714
372.6435, 33.19820
373.1256, 32.93607
373.6078, 34.06157
374.0899, 35.01392
374.5720, 35.39518
375.0541, 35.55669
375.5362, 35.80214
376.0183, 36.11561
376.5005, 36.25154
376.9826, 35.88124
377.4647, 35.17984
377.9468, 34.82839
378.4289, 34.99055
378.9110, 35.23104
379.3932, 35.23231
379.8753, 35.10242
380.3574, 35.05035
380.8395, 35.20258
381.3216, 35.40409
381.8037, 35.37204
382.2859, 35.09618
382.7680, 35.12776
383.2501, 36.15203
383.7322, 37.30324
384.2143, 37.09678
384.6964, 35.06364
385.1786, 33.24571
385.6607, 33.00434
386.1428, 33.88255
386.6249, 34.71117
387.1070, 35.24786
387.5891, 35.59924
388.0713, 35.78433
388.5534, 35.82261
389.0355, 36.04511
389.5176, 36.94098
389.9997, 37.78886
390.4818, 37.77860
390.9640, 36.90271
391.4461, 35.75848
391.9282, 34.57932
392.4103, 33.49872
392.8924, 33.08843
393.3745, 33.64867
393.8567, 34.48250
394.3388, 35.75317
394.8209, 37.05883
395.3030, 37.42649
395.7851, 36.40993
396.2672, 34.85030
396.7494, 34.25289
397.2315, 35.10455
397.7136, 35.80447
398.1957, 36.45405
398.6778, 36.81960
399.1599, 36.51525
399.6420, 35.61816
400.1241, 34.74437
400.6063, 34.45965
401.0884, 34.78436
401.5705, 34.98075
402.0526, 34.75483
402.5347, 34.74176
403.0168, 35.52394
403.4990, 36.57034
403.9811, 36.91132
404.4632, 36.06978
404.9453, 34.60021
405.4274, 33.86866
405.9095, 34.45137
406.3917, 34.83708
406.8738, 34.84803
407.3559, 34.76103
407.8380, 34.78407
408.3201, 34.93266
408.8022, 35.08302
409.2844, 35.13292
409.7665, 35.08610
410.2486, 34.84069
410.7307, 33.72978
411.2128, 33.17464
411.6949, 34.13081
412.1771, 35.80472
412.6592, 36.87439
413.1413, 36.62172
413.6234, 35.64282
414.1055, 35.30969
414.5876, 35.98162
415.0698, 36.19361
415.5519, 34.85852
416.0340, 33.44115
416.5161, 33.10431
416.9982, 33.92915
417.4803, 34.86061
417.9625, 34.82418
418.4446, 34.01612
418.9267, 33.91603
419.4088, 35.11649
419.8909, 36.12942
420.3730, 35.85678
420.8552, 34.72985
421.3373, 33.54273
421.8194, 32.33583
422.3015, 31.41556
422.7836, 31.33480
423.2657, 32.08214
423.7479, 32.69680
424.2300, 32.67294
424.7121, 32.42911
425.1942, 32.78064
425.6763, 33.95235
426.1584, 34.57408
426.6406, 33.34270
427.1227, 31.38251
427.6048, 30.81061
428.0869, 32.05525
428.5690, 33.58362
429.0511, 33.95230
429.5333, 33.14813
430.0154, 32.78241
430.4975, 33.46264
430.9796, 34.01496
431.4617, 33.60130
431.9438, 32.52328
432.4260, 31.52169
432.9081, 30.91230
433.3902, 30.73002
433.8723, 31.12331
434.3544, 33.07636
434.8365, 33.93489
435.3187, 32.73341
435.8008, 30.98932
436.2829, 29.85951
436.7650, 29.51332
437.2471, 29.57303
437.7292, 29.70096
438.2114, 29.89508
438.6935, 30.26617
439.1756, 31.50561
439.6577, 32.14706
440.1398, 31.29082
440.6219, 29.81565
441.1040, 28.96718
441.5862, 29.26972
442.0683, 30.12092
442.5504, 30.33343
443.0325, 29.50897
443.5146, 29.27755
443.9967, 30.57924
444.4789, 31.83597
444.9610, 32.23860
445.4431, 31.83191
445.9252, 31.05016
446.4073, 29.90563
446.8894, 28.67427
447.3716, 28.57889
447.8537, 30.10505
448.3358, 31.55582
448.8179, 32.39641
449.3000, 32.68104
449.7821, 32.17888
450.2643, 30.62438
450.7464, 29.32493
451.2285, 29.77127
451.7106, 31.57847
452.1927, 32.78518
452.6748, 32.90352
453.1570, 32.53934
453.6391, 32.15530
454.1212, 31.76541
454.6033, 31.46487
455.0854, 31.34344
455.5675, 31.27220
456.0497, 31.25809
456.5318, 31.24112
457.0139, 30.80440
457.4960, 29.55407
457.9781, 27.96956
458.4602, 27.41526
458.9424, 28.20179
459.4245, 29.14768
459.9066, 30.44825
460.3887, 31.58634
460.8708, 31.87887
461.3529, 31.30488
461.8351, 30.53632
462.3172, 30.19734
462.7993, 30.30533
463.2814, 30.36835
463.7635, 30.46298
464.2456, 30.42944
464.7278, 29.92426
465.2099, 29.36656
465.6920, 29.42503
466.1741, 30.34130
466.6562, 31.59519
467.1383, 32.34315
467.6205, 32.52813
468.1026, 32.39155
468.5847, 31.61856
469.0668, 30.81081
469.5489, 30.35058
470.0310, 30.09245
470.5132, 29.55022
470.9953, 28.20798
471.4774, 26.58964
471.9595, 26.25859
472.4416, 27.66674
472.9237, 28.67145
473.4059, 27.88661
473.8880, 26.73514
474.3701, 26.48779
474.8522, 27.29591
475.3343, 28.55372
475.8164, 30.62828
476.2986, 32.78975
476.7807, 32.74555
477.2628, 29.79578
477.7449, 27.09826
478.2270, 27.57061
478.7091, 30.33530
479.1913, 31.53974
479.6734, 29.68637
480.1555, 27.69070
480.6376, 27.00943
481.1197, 27.27697
481.6018, 27.84180
482.0839, 28.52012
482.5660, 29.10562
483.0482, 29.27322
483.5303, 28.83561
484.0124, 28.65691
484.4945, 28.89425
484.9766, 29.22529
485.4587, 29.53594
485.9409, 29.79859
486.4230, 30.05200
486.9051, 30.33999
487.3872, 30.50489
487.8693, 29.99734
488.3514, 27.99513
488.8336, 26.88637
489.3157, 27.17180
489.7978, 27.99541
490.2799, 29.16352
490.7620, 30.41916
491.2441, 31.11110
491.7263, 30.46649
492.2084, 28.83797
492.6905, 28.01186
493.1726, 28.34981
493.6547, 28.62409
494.1368, 28.06296
494.6190, 27.31516
495.1011, 27.11951
495.5832, 27.66936
496.0653, 28.24509
496.5474, 28.09882
497.0295, 27.53813
497.5117, 27.63272
497.9938, 28.70149
498.4759, 29.73494
498.9580, 29.77151
499.4401, 29.01684
499.9222, 28.64112
500.4044, 29.11131
500.8865, 29.56420
501.3686, 29.29000
501.8507, 28.71014
502.3328, 28.88371
502.8149, 30.20312
503.2971, 31.69403
503.7792, 31.89172
504.2613, 30.21469
504.7434, 29.33631
505.2255, 29.68073
505.7076, 30.31046
506.1898, 31.12403
506.6719, 31.84136
507.1540, 31.91956
507.6361, 31.04697
508.1182, 29.67665
508.6003, 28.85874
509.0825, 28.73778
509.5646, 28.78242
510.0467, 29.20370
510.5288, 29.55427
511.0109, 29.56101
511.4930, 29.26713
511.9752, 28.88657
512.4573, 28.47771
512.9394, 28.11815
513.4215, 27.98145
513.9036, 28.07418
514.3857, 28.36033
514.8679, 28.98074
515.3500, 29.68027
515.8321, 30.14930
516.3142, 30.37359
516.7963, 30.44173
517.2784, 30.22989
517.7606, 29.95974
518.2427, 30.00698
518.7248, 30.38531
519.2069, 30.72104
519.6890, 30.75706
520.1711, 30.55253
520.6533, 30.39965
521.1354, 30.72607
521.6175, 30.53566
522.0996, 28.77663
522.5817, 26.93396
523.0638, 26.90788
523.5460, 28.75005
524.0281, 30.66413
524.5102, 30.87826
524.9923, 29.44735
525.4744, 28.21950
525.9565, 27.01914
526.4387, 26.31051
526.9208, 26.32250
527.4029, 26.76758
527.8850, 27.43329
528.3671, 28.24529
528.8492, 29.04212
529.3314, 29.91754
529.8135, 30.77089
530.2956, 30.34249
530.7777, 27.76280
531.2598, 25.56625
531.7419, 25.77775
532.2241, 27.32193
532.7062, 28.59952
533.1883, 29.40145
533.6704, 29.73188
534.1525, 29.30775
534.6346, 28.44382
535.1168, 27.93967
535.5989, 28.00328
536.0810, 28.12083
536.5631, 27.68901
537.0452, 26.67188
537.5273, 26.28339
538.0095, 26.85747
538.4916, 27.62355
538.9737, 28.41122
539.4558, 29.17573
539.9379, 30.04043
540.4200, 30.99675
540.9022, 31.55051
541.3843, 30.81690
541.8664, 28.39921
542.3485, 26.94507
542.8306, 27.30830
543.3127, 27.76451
543.7948, 27.70897
544.2769, 27.42218
544.7590, 27.40067
545.2411, 27.85333
545.7233, 28.41596
546.2054, 28.64893
546.6875, 28.56756
547.1696, 28.34212
547.6517, 27.87233
548.1339, 27.50253
548.6160, 27.65191
549.0981, 28.14745
549.5802, 28.51348
550.0623, 28.47387
550.5444, 28.48067
551.0266, 29.23101
551.5087, 30.21536
551.9908, 29.97607
552.4729, 28.01981
552.9550, 25.83163
553.4371, 25.32138
553.9193, 26.84584
554.4014, 27.92437
554.8835, 28.44693
555.3656, 28.71754
555.8477, 28.60407
556.3298, 28.39137
556.8120, 28.62808
557.2941, 29.48219
557.7762, 30.28738
558.2583, 29.84658
558.7404, 27.90370
559.2225, 26.92566
559.7047, 27.68835
560.1868, 28.51856
560.6689, 28.57983
561.1510, 28.18860
561.6331, 27.88488
562.1152, 27.85022
562.5974, 27.88349
563.0795, 27.71766
563.5616, 27.45329
564.0437, 27.55584
564.5258, 28.21295
565.0079, 28.78973
565.4901, 28.60489
565.9722, 27.70380
566.4543, 27.21307
566.9364, 27.46355
567.4185, 27.74194
567.9006, 27.77643
568.3828, 27.67436
568.8649, 27.59272
569.3470, 27.57332
569.8291, 27.53720
570.3112, 27.31756
570.7933, 26.86527
571.2755, 27.14793
571.7576, 29.38052
572.2397, 30.80391
572.7218, 30.12442
573.2039, 28.64190
573.6860, 27.83671
574.1682, 28.06897
574.6503, 28.60958
575.1324, 28.95043
575.6145, 29.04850
576.0966, 28.48380
576.5787, 26.92843
577.0609, 25.94790
577.5430, 27.05160
578.0251, 29.23321
578.5072, 30.02958
578.9893, 28.87457
579.4714, 27.50320
579.9536, 26.01204
580.4357, 24.96059
580.9178, 25.42441
581.3999, 27.30038
581.8820, 29.06430
582.3641, 29.53542
582.8463, 28.92331
583.3284, 28.46756
583.8105, 28.57519
584.2926, 28.22840
584.7747, 26.59758
585.2568, 25.07434
585.7390, 24.89182
586.2211, 25.94022
586.7032, 27.14627
587.1853, 27.80927
587.6674, 28.03749
588.1495, 28.03154
588.6317, 27.73095
589.1138, 27.57434
589.5959, 27.73159
590.0780, 28.07428
590.5601, 28.52269
591.0422, 29.07463
591.5244, 29.40043
592.0065, 29.39707
592.4886, 29.12588
592.9707, 28.59980
593.4528, 27.84899
593.9349, 26.80372
594.4171, 25.37608
594.8992, 24.10630
595.3813, 23.99492
595.8634, 25.51253
596.3455, 26.82691
596.8276, 28.39032
597.3098, 29.31416
597.7919, 28.57533
598.2740, 27.11088
598.7561, 26.63885
599.2382, 27.90020
599.7203, 29.55930
600.2025, 29.57928
600.6846, 28.02309
601.1667, 27.36001
601.6488, 28.28108
602.1309, 29.21990
602.6130, 28.97590
603.0952, 27.99881
603.5773, 27.11548
604.0594, 26.27294
604.5415, 25.83002
605.0236, 26.34295
605.5057, 27.22540
605.9879, 27.52640
606.4700, 27.12095
606.9521, 26.50519
607.4342, 26.03631
607.9163, 25.73862
608.3984, 25.80523
608.8806, 26.54632
609.3627, 27.24108
609.8448, 28.09984
610.3269, 28.69033
610.8090, 28.42858
611.2911, 27.48875
611.7733, 26.77514
612.2554, 27.07756
612.7375, 27.88134
613.2196, 27.83390
613.7017, 26.81792
614.1838, 26.23961
614.6660, 26.77148
615.1481, 27.60748
615.6302, 27.70233
616.1123, 27.11850
616.5944, 26.82666
617.0765, 27.17337
617.5587, 27.73067
618.0408, 28.42488
618.5229, 29.08150
619.0050, 29.30960
619.4871, 28.97877
619.9692, 28.38833
620.4514, 27.93163
620.9335, 27.62551
621.4156, 27.30206
621.8977, 26.49926
622.3798, 26.25618
622.8619, 27.47298
623.3441, 29.06714
623.8262, 29.68105
624.3083, 29.01284
624.7904, 28.13174
625.2725, 28.08405
625.7546, 28.50459
626.2367, 28.25140
626.7188, 27.19570
627.2009, 26.31934
627.6830, 26.12769
628.1652, 26.43598
628.6473, 26.97931
629.1294, 28.08812
629.6115, 28.37967
630.0936, 26.46321
630.5757, 24.67918
631.0579, 25.08928
631.5400, 27.08225
632.0221, 28.78923
632.5042, 29.25713
632.9863, 28.99594
633.4684, 28.93174
633.9506, 29.12642
634.4327, 29.22506
634.9148, 29.36299
635.3969, 29.18976
635.8790, 28.06695
636.3611, 26.66589
636.8433, 26.29229
637.3254, 27.60085
637.8075, 28.90732
638.2896, 28.83548
638.7717, 27.95324
639.2538, 27.22174
639.7360, 26.79487
640.2181, 26.83039
640.7002, 27.54172
641.1823, 28.71322
641.6644, 29.47239
642.1465, 29.58740
642.6287, 29.57588
643.1108, 29.46637
643.5929, 29.21487
644.0750, 28.57298
644.5571, 27.75873
645.0392, 27.37425
645.5214, 27.83349
646.0035, 28.62360
646.4856, 28.97980
646.9677, 28.90184
647.4498, 28.17150
647.9319, 26.30866
648.4141, 24.70751
648.8962, 24.85106
649.3783, 26.25877
649.8604, 27.09890
650.3425, 26.68341
650.8246, 26.42657
651.3068, 27.13602
651.7889, 28.17607
652.2710, 28.88614
652.7531, 29.11219
653.2352, 28.75835
653.7173, 27.63123
654.1995, 26.06230
654.6816, 25.47950
655.1637, 26.22280
655.6458, 27.14528
656.1279, 28.49896
656.6100, 29.61997
657.0922, 29.86610
657.5743, 29.50938
658.0564, 29.53560
658.5385, 30.69385
659.0206, 31.86290
659.5027, 31.95783
659.9849, 31.20368
660.4670, 30.05361
660.9491, 28.59072
661.4312, 27.42663
661.9133, 27.19320
662.3954, 27.80883
662.8776, 28.10853
663.3597, 27.46304
663.8418, 27.33252
