##NAMES=Cobaltomenite
##RRUFFID=R110040
##IDEAL CHEMISTRY=Co^2+^Se^4+^O_3_&#183;2H_2_O
##LOCALITY=Musonoi mine extension, Kolwezi, Katanga, Congo
##OWNER=RRUFF
##SOURCE=William W Pinch
##DESCRIPTION=Pale pink to purple grains scattered through a matrix of chalcomenite, demesmaekerite, and derriksite
##STATUS=The identification of this mineral has been confirmed by single-crystal X-ray diffraction.
##URL=rruff.info/R110040
181.6122, 654.8017
182.0944, 654.7819
182.5765, 655.5078
183.0586, 658.6481
183.5407, 662.6121
184.0228, 663.7469
184.5049, 661.7050
184.9871, 658.5875
185.4692, 656.7208
185.9513, 655.9167
186.4334, 655.3394
186.9155, 654.4774
187.3976, 653.4915
187.8798, 652.9599
188.3619, 652.9254
188.8440, 653.1852
189.3261, 653.9088
189.8082, 655.0049
190.2903, 655.1506
190.7725, 653.2215
191.2546, 649.5663
191.7367, 646.1299
192.2188, 642.7624
192.7009, 640.1603
193.1830, 640.4620
193.6652, 643.6895
194.1473, 645.8422
194.6294, 643.4512
195.1115, 637.0496
195.5936, 633.7522
196.0757, 634.3543
196.5579, 637.4694
197.0400, 641.3174
197.5221, 646.1188
198.0042, 649.4260
198.4863, 648.9284
198.9684, 644.5659
199.4506, 642.2971
199.9327, 642.9521
200.4148, 645.3588
200.8969, 646.9687
201.3790, 647.6364
201.8611, 648.4010
202.3433, 649.9197
202.8254, 652.2532
203.3075, 654.7546
203.7896, 657.6258
204.2717, 660.3978
204.7538, 661.2659
205.2360, 659.4662
205.7181, 658.5287
206.2002, 661.1617
206.6823, 668.1145
207.1644, 673.5968
207.6465, 676.8932
208.1287, 678.5560
208.6108, 680.1451
209.0929, 681.4805
209.5750, 683.2190
210.0571, 685.9072
210.5392, 689.8317
211.0214, 693.5300
211.5035, 697.2686
211.9856, 700.5856
212.4677, 701.6634
212.9498, 699.7276
213.4319, 697.3410
213.9140, 696.1895
214.3962, 696.8157
214.8783, 696.5482
215.3604, 694.2131
215.8425, 690.9499
216.3246, 691.9828
216.8067, 699.3351
217.2889, 707.0759
217.7710, 711.5866
218.2531, 712.0224
218.7352, 711.5742
219.2173, 709.8700
219.6994, 707.4501
220.1816, 707.1242
220.6637, 709.7780
221.1458, 712.9305
221.6279, 714.8665
222.1100, 714.8190
222.5921, 715.6891
223.0743, 718.2106
223.5564, 721.8550
224.0385, 723.9799
224.5206, 723.3149
225.0027, 723.0856
225.4848, 725.6316
225.9670, 732.7339
226.4491, 738.2910
226.9312, 741.6827
227.4133, 743.1889
227.8954, 744.0161
228.3775, 743.2626
228.8597, 743.1264
229.3418, 745.1904
229.8239, 750.8053
230.3060, 755.4303
230.7881, 758.4420
231.2702, 760.1569
231.7524, 761.8400
232.2345, 762.9240
232.7166, 764.6956
233.1987, 768.1159
233.6808, 774.4276
234.1629, 779.5045
234.6451, 782.5416
235.1272, 784.1119
235.6093, 787.1260
236.0914, 793.5190
236.5735, 798.7111
237.0556, 799.5536
237.5378, 792.4235
238.0199, 789.1215
238.5020, 792.2066
238.9841, 799.6539
239.4662, 802.8757
239.9483, 799.4335
240.4305, 795.1624
240.9126, 793.2435
241.3947, 795.1537
241.8768, 796.2281
242.3589, 796.2793
242.8410, 795.3751
243.3232, 793.6924
243.8053, 791.1842
244.2874, 787.9489
244.7695, 784.1011
245.2516, 779.7866
245.7337, 774.2484
246.2159, 766.1700
246.6980, 756.9661
247.1801, 751.5995
247.6622, 751.9913
248.1443, 753.2004
248.6264, 753.0345
249.1086, 751.4130
249.5907, 748.4186
250.0728, 742.8782
250.5549, 736.3026
251.0370, 733.0380
251.5191, 735.1552
252.0013, 737.3243
252.4834, 736.9266
252.9655, 732.2832
253.4476, 729.6718
253.9297, 730.1968
254.4118, 732.2766
254.8940, 732.1954
255.3761, 728.7676
255.8582, 725.2636
256.3403, 723.1912
256.8224, 723.2303
257.3046, 722.3353
257.7867, 719.9932
258.2688, 717.0300
258.7509, 715.0647
259.2330, 714.3196
259.7151, 714.1276
260.1973, 714.2840
260.6794, 714.8116
261.1615, 715.6172
261.6436, 716.9228
262.1257, 718.3143
262.6078, 718.8967
263.0900, 718.0823
263.5721, 717.9362
264.0542, 719.7117
264.5363, 724.1057
265.0184, 725.7134
265.5005, 723.5391
265.9827, 719.8289
266.4648, 717.6250
266.9469, 717.0623
267.4290, 717.7473
267.9111, 720.2284
268.3932, 724.7394
268.8754, 726.4501
269.3575, 724.2384
269.8396, 720.9256
270.3217, 720.4408
270.8038, 723.6633
271.2859, 726.2289
271.7681, 726.8204
272.2502, 725.4926
272.7323, 723.9787
273.2144, 722.2284
273.6965, 720.4349
274.1786, 718.1931
274.6608, 714.8983
275.1429, 714.6600
275.6250, 720.0291
276.1071, 729.7393
276.5892, 733.6901
277.0714, 730.5903
277.5535, 725.2388
278.0356, 721.9938
278.5177, 721.0545
278.9998, 720.0987
279.4819, 718.6024
279.9641, 716.7284
280.4462, 715.2419
280.9283, 714.1591
281.4104, 713.3650
281.8925, 712.6818
282.3746, 712.1060
282.8568, 712.2343
283.3389, 713.6567
283.8210, 715.4876
284.3031, 714.6381
284.7852, 710.7651
285.2673, 707.2604
285.7495, 707.0521
286.2316, 709.8556
286.7137, 711.6668
287.1958, 711.6748
287.6779, 710.9266
288.1600, 711.8536
288.6422, 714.4854
289.1243, 716.8448
289.6064, 717.2180
290.0885, 716.0504
290.5706, 715.7782
291.0527, 716.8093
291.5349, 718.2863
292.0170, 718.6458
292.4991, 717.9901
292.9812, 717.6278
293.4633, 718.5477
293.9454, 720.3408
294.4276, 721.5809
294.9097, 722.0487
295.3918, 722.5585
295.8739, 724.7096
296.3560, 728.0378
296.8381, 730.4318
297.3203, 729.9193
297.8024, 727.9449
298.2845, 727.5849
298.7666, 728.9997
299.2487, 731.0260
299.7308, 732.3744
300.2130, 733.3835
300.6951, 735.0351
301.1772, 739.2248
301.6593, 743.5372
302.1414, 743.5234
302.6235, 739.2869
303.1057, 735.3577
303.5878, 737.1757
304.0699, 741.8256
304.5520, 743.7332
305.0341, 738.9417
305.5162, 732.6306
305.9984, 730.2181
306.4805, 731.3427
306.9626, 733.3693
307.4447, 734.4896
307.9268, 735.4495
308.4089, 737.4997
308.8911, 742.3815
309.3732, 746.2437
309.8553, 744.8097
310.3374, 739.4571
310.8195, 734.7952
311.3016, 733.9598
311.7838, 734.7615
312.2659, 735.3558
312.7480, 735.4920
313.2301, 735.1190
313.7122, 733.3594
314.1943, 731.0512
314.6765, 730.0043
315.1586, 732.8024
315.6407, 735.8722
316.1228, 736.9538
316.6049, 735.4980
317.0870, 733.1400
317.5692, 729.8125
318.0513, 726.2128
318.5334, 723.3387
319.0155, 721.9611
319.4976, 720.9902
319.9797, 719.6168
320.4619, 717.6415
320.9440, 717.1552
321.4261, 720.9951
321.9082, 725.6542
322.3903, 727.7921
322.8724, 723.6029
323.3546, 719.9284
323.8367, 719.3815
324.3188, 721.8166
324.8009, 722.2945
325.2830, 716.9221
325.7651, 711.2675
326.2473, 708.9518
326.7294, 714.0803
327.2115, 718.2316
327.6936, 720.2595
328.1757, 720.5595
328.6578, 721.1786
329.1400, 722.5828
329.6221, 723.9747
330.1042, 725.0256
330.5863, 725.5164
331.0684, 726.0740
331.5505, 727.2305
332.0327, 728.3417
332.5148, 727.8497
332.9969, 724.3683
333.4790, 721.0666
333.9611, 718.8182
334.4432, 717.5440
334.9254, 717.7078
335.4075, 720.1276
335.8896, 723.2521
336.3717, 724.5472
336.8538, 722.4861
337.3359, 722.3584
337.8180, 726.5477
338.3001, 734.9256
338.7823, 739.7838
339.2644, 740.1885
339.7465, 738.8699
340.2286, 738.2682
340.7107, 738.4583
341.1928, 739.0678
341.6750, 740.1049
342.1571, 741.5018
342.6392, 742.7916
343.1213, 743.8870
343.6034, 745.4348
344.0855, 748.4880
344.5677, 752.9158
345.0498, 755.7242
345.5319, 756.0269
346.0140, 755.3969
346.4961, 756.8428
346.9782, 760.2980
347.4604, 764.4499
347.9425, 768.8403
348.4246, 773.3675
348.9067, 777.5421
349.3888, 781.3522
349.8709, 784.7522
350.3531, 787.2285
350.8352, 789.1130
351.3173, 791.6295
351.7994, 795.5241
352.2815, 800.3236
352.7636, 805.2208
353.2458, 810.2080
353.7279, 815.6575
354.2100, 822.5097
354.6921, 829.9365
355.1742, 836.3942
355.6563, 840.5574
356.1385, 844.5482
356.6206, 850.6041
357.1027, 858.4224
357.5848, 866.3199
358.0669, 873.1378
358.5490, 879.7120
359.0312, 887.1680
359.5133, 896.8553
359.9954, 905.0611
360.4775, 908.1503
360.9596, 908.2416
361.4417, 909.7689
361.9239, 915.9201
362.4060, 922.9623
362.8881, 929.4805
363.3702, 935.7322
363.8523, 939.2423
364.3344, 937.0732
364.8166, 932.4866
365.2987, 929.1765
365.7808, 931.6534
366.2629, 931.9288
366.7450, 926.8010
367.2271, 916.2685
367.7093, 906.8627
368.1914, 899.2840
368.6735, 893.0794
369.1556, 887.9481
369.6377, 887.0750
370.1198, 883.3287
370.6020, 874.7819
371.0841, 862.9232
371.5662, 853.1213
372.0483, 846.2937
372.5304, 840.5311
373.0125, 835.2708
373.4947, 831.0978
373.9768, 825.5421
374.4589, 817.0280
374.9410, 808.3281
375.4231, 804.6125
375.9052, 807.9586
376.3874, 810.3737
376.8695, 809.0071
377.3516, 803.9775
377.8337, 800.7863
378.3158, 799.6749
378.7979, 799.6357
379.2801, 800.3781
379.7622, 802.0401
380.2443, 801.4131
380.7264, 796.8709
381.2085, 790.4702
381.6906, 787.8155
382.1728, 788.9454
382.6549, 791.3738
383.1370, 794.0329
383.6191, 796.7053
384.1012, 798.4040
384.5833, 798.9440
385.0655, 798.7716
385.5476, 798.4189
386.0297, 797.8419
386.5118, 796.9246
386.9939, 794.8517
387.4760, 792.7061
387.9582, 792.1076
388.4403, 793.0970
388.9224, 794.9211
389.4045, 797.7060
389.8866, 800.7458
390.3687, 803.0546
390.8509, 804.1815
391.3330, 804.6029
391.8151, 804.1837
392.2972, 803.2023
392.7793, 802.7621
393.2614, 803.3675
393.7436, 804.7410
394.2257, 806.9742
394.7078, 810.8271
395.1899, 813.6352
395.6720, 812.8894
396.1541, 810.7601
396.6363, 810.7410
397.1184, 816.6843
397.6005, 822.0623
398.0826, 824.2098
398.5647, 822.5250
399.0468, 821.7000
399.5290, 823.2543
400.0111, 825.2405
400.4932, 826.0675
400.9753, 824.1545
401.4574, 823.2089
401.9395, 823.7165
402.4217, 825.4796
402.9038, 827.6621
403.3859, 830.7496
403.8680, 833.5557
404.3501, 835.6577
404.8322, 837.2564
405.3144, 837.1914
405.7965, 834.8302
406.2786, 831.5598
406.7607, 829.6121
407.2428, 829.1592
407.7249, 829.0875
408.2071, 829.1022
408.6892, 829.1963
409.1713, 828.9052
409.6534, 827.9540
410.1355, 828.2370
410.6176, 833.5151
411.0998, 842.4365
411.5819, 846.2847
412.0640, 841.7510
412.5461, 834.1302
413.0282, 832.0042
413.5103, 834.7071
413.9925, 838.1973
414.4746, 840.2918
414.9567, 841.6401
415.4388, 843.0530
415.9209, 844.5593
416.4030, 846.5721
416.8852, 850.3322
417.3673, 854.7089
417.8494, 857.8759
418.3315, 858.3862
418.8136, 858.1243
419.2957, 857.8763
419.7779, 857.7597
420.2600, 858.4154
420.7421, 862.2649
421.2242, 865.7227
421.7063, 865.6341
422.1884, 858.2777
422.6706, 853.4188
423.1527, 854.4573
423.6348, 859.4475
424.1169, 864.6813
424.5990, 871.1872
425.0811, 876.4097
425.5633, 878.8073
426.0454, 877.6684
426.5275, 878.7902
427.0096, 884.1338
427.4917, 890.1736
427.9738, 893.9650
428.4560, 894.4421
428.9381, 894.8968
429.4202, 895.9570
429.9023, 897.1686
430.3844, 896.7412
430.8665, 894.0561
431.3487, 891.4972
431.8308, 891.0866
432.3129, 893.1066
432.7950, 890.9171
433.2771, 883.1924
433.7592, 874.6793
434.2414, 872.5006
434.7235, 876.0558
435.2056, 877.9044
435.6877, 874.8671
436.1698, 869.2577
436.6519, 865.7389
437.1341, 864.2656
437.6162, 863.7342
438.0983, 863.9737
438.5804, 864.4426
439.0625, 864.2370
439.5446, 863.2209
440.0268, 861.4801
440.5089, 858.0494
440.9910, 853.9647
441.4731, 851.3899
441.9552, 853.9232
442.4373, 856.1676
442.9195, 853.8552
443.4016, 846.9916
443.8837, 840.8497
444.3658, 837.6041
444.8479, 835.9237
445.3300, 834.7999
445.8122, 833.8583
446.2943, 833.6389
446.7764, 835.4454
447.2585, 838.0776
447.7406, 838.4601
448.2227, 832.6970
448.7049, 828.3604
449.1870, 828.2601
449.6691, 833.4820
450.1512, 836.3981
450.6333, 836.1205
451.1154, 834.4994
451.5976, 833.2720
452.0797, 832.7120
452.5618, 831.5842
453.0439, 829.1695
453.5260, 826.3683
454.0081, 826.2869
454.4903, 829.3601
454.9724, 832.3624
455.4545, 833.1631
455.9366, 832.1342
456.4187, 832.4313
456.9008, 834.4633
457.3830, 836.0322
457.8651, 832.6752
458.3472, 826.3582
458.8293, 823.9445
459.3114, 830.1778
459.7935, 838.7400
460.2757, 841.6528
460.7578, 839.6729
461.2399, 836.7993
461.7220, 834.5684
462.2041, 833.1223
462.6862, 832.8873
463.1684, 834.2254
463.6505, 835.4208
464.1326, 835.0609
464.6147, 834.2081
465.0968, 834.2354
465.5789, 836.9368
466.0611, 839.1922
466.5432, 839.5837
467.0253, 838.3401
467.5074, 838.1417
467.9895, 839.1754
468.4716, 841.4515
468.9538, 845.2906
469.4359, 852.5997
469.9180, 857.0814
470.4001, 857.5656
470.8822, 856.0513
471.3643, 855.3290
471.8465, 855.2418
472.3286, 856.4308
472.8107, 859.4128
473.2928, 863.8026
473.7749, 867.7529
474.2570, 871.2514
474.7392, 874.2258
475.2213, 876.4032
475.7034, 877.9096
476.1855, 879.5232
476.6676, 881.2548
477.1497, 883.3811
477.6319, 886.0525
478.1140, 889.3745
478.5961, 893.6862
479.0782, 901.5842
479.5603, 909.0478
480.0424, 909.3586
480.5246, 903.5712
481.0067, 900.2336
481.4888, 906.9023
481.9709, 917.1653
482.4530, 925.4312
482.9352, 930.2366
483.4173, 933.9302
483.8994, 937.4348
484.3815, 940.4067
484.8636, 942.2922
485.3457, 941.3121
485.8279, 940.9215
486.3100, 941.9379
486.7921, 944.4252
487.2742, 948.0453
487.7563, 955.4041
488.2384, 961.3240
488.7206, 962.4521
489.2027, 956.3056
489.6848, 952.2131
490.1669, 950.8884
490.6490, 951.0167
491.1311, 950.7067
491.6133, 950.0042
492.0954, 948.4581
492.5775, 945.2668
493.0596, 941.2908
493.5417, 940.5305
494.0238, 943.0410
494.5060, 944.7881
494.9881, 941.5480
495.4702, 935.2943
495.9523, 931.1912
496.4344, 930.3045
496.9165, 929.7893
497.3987, 926.2638
497.8808, 921.1146
498.3629, 917.0316
498.8450, 916.3450
499.3271, 916.0638
499.8092, 914.8688
500.2914, 912.6154
500.7735, 908.7011
501.2556, 900.0812
501.7377, 891.7609
502.2198, 887.0230
502.7019, 887.8701
503.1841, 887.9345
503.6662, 885.5990
504.1483, 882.4340
504.6304, 880.3557
505.1125, 880.7031
505.5946, 879.9406
506.0768, 876.8796
506.5589, 872.2099
507.0410, 869.4905
507.5231, 869.2074
508.0052, 869.4788
508.4873, 869.6107
508.9695, 869.5993
509.4516, 868.4674
509.9337, 866.0468
510.4158, 863.1512
510.8979, 860.3219
511.3800, 857.6931
511.8622, 856.2089
512.3443, 856.8588
512.8264, 857.6619
513.3085, 855.2048
513.7906, 850.4117
514.2728, 846.5905
514.7549, 845.9357
515.2370, 846.8514
515.7191, 848.6295
516.2012, 851.3172
516.6833, 852.6286
517.1655, 849.8616
517.6476, 846.1599
518.1297, 844.2328
518.6118, 846.8278
519.0939, 848.5117
519.5760, 848.1788
520.0582, 846.3738
520.5403, 844.3855
521.0224, 841.5570
521.5045, 839.5036
521.9866, 838.8793
522.4688, 839.6760
522.9509, 839.9619
523.4330, 839.4762
523.9151, 839.0602
524.3972, 839.1630
524.8793, 839.7707
525.3615, 841.9942
525.8436, 846.6355
526.3257, 850.9830
526.8078, 849.8268
527.2899, 844.3342
527.7720, 840.0762
528.2542, 839.7301
528.7363, 841.4567
529.2184, 843.3990
529.7005, 845.4174
530.1826, 846.8505
530.6647, 847.0609
531.1469, 846.6520
531.6290, 846.0944
532.1111, 845.4408
532.5932, 844.7605
533.0753, 843.9659
533.5574, 843.2233
534.0396, 842.7170
534.5217, 842.2239
535.0038, 842.2936
535.4859, 843.9365
535.9680, 846.2653
536.4501, 846.2550
536.9323, 842.3165
537.4144, 838.7264
537.8965, 836.9978
538.3786, 837.1494
538.8607, 838.3525
539.3428, 840.9994
539.8250, 843.4250
540.3071, 843.4603
540.7892, 841.4504
541.2713, 841.0042
541.7534, 843.0290
542.2355, 845.7521
542.7177, 846.4667
543.1998, 845.7665
543.6819, 845.5264
544.1640, 847.8611
544.6461, 850.1761
545.1282, 849.5102
545.6104, 846.3259
546.0925, 843.5088
546.5746, 841.5541
547.0567, 841.1888
547.5388, 843.8952
548.0209, 851.8825
548.5031, 856.0053
548.9852, 850.5245
549.4673, 842.1102
549.9494, 837.8269
550.4315, 840.1436
550.9136, 842.9838
551.3958, 846.3080
551.8779, 849.6133
552.3600, 851.2880
552.8421, 851.0800
553.3242, 850.1271
553.8063, 848.5914
554.2885, 846.6183
554.7706, 845.2117
555.2527, 844.3372
555.7348, 844.4119
556.2169, 846.4841
556.6990, 849.7674
557.1812, 852.4581
557.6633, 854.4327
558.1454, 855.1727
558.6275, 853.5172
559.1096, 850.3810
559.5917, 847.3325
560.0739, 843.6418
560.5560, 841.5227
561.0381, 843.3948
561.5202, 848.1946
562.0023, 851.3226
562.4844, 849.7847
562.9666, 847.8859
563.4487, 847.3089
563.9308, 848.0135
564.4129, 850.5250
564.8950, 857.0869
565.3771, 862.9853
565.8593, 863.6854
566.3414, 857.4966
566.8235, 853.4847
567.3056, 853.0530
567.7877, 854.2994
568.2698, 853.3531
568.7520, 850.3979
569.2341, 848.6866
569.7162, 850.2325
570.1983, 853.2656
570.6804, 854.9068
571.1625, 855.1850
571.6447, 854.3240
572.1268, 850.5590
572.6089, 846.8414
573.0910, 846.3658
573.5731, 849.7892
574.0552, 854.0190
574.5374, 858.7845
575.0195, 863.1526
575.5016, 866.2686
575.9837, 867.5056
576.4658, 868.0161
576.9479, 868.1440
577.4301, 867.5419
577.9122, 865.1039
578.3943, 858.5573
578.8764, 854.7402
579.3585, 856.3875
579.8406, 862.5194
580.3228, 866.4107
580.8049, 867.9235
581.2870, 868.0671
581.7691, 866.6678
582.2512, 864.3434
582.7333, 864.0294
583.2155, 866.1272
583.6975, 868.0427
584.1796, 866.8693
584.6617, 864.0045
585.1439, 861.7332
585.6260, 860.7625
586.1081, 860.4068
586.5902, 860.0974
587.0723, 860.1278
587.5544, 861.0483
588.0366, 864.2403
588.5187, 867.1020
589.0008, 868.8281
589.4829, 869.3926
589.9650, 869.3497
590.4471, 868.0976
590.9293, 866.9662
591.4114, 866.5939
591.8935, 867.0512
592.3756, 867.8047
592.8577, 869.0739
593.3398, 870.0319
593.8220, 869.1879
594.3041, 866.9245
594.7862, 866.5720
595.2683, 869.3563
595.7504, 872.6202
596.2325, 872.5817
596.7147, 870.2570
597.1968, 868.2846
597.6789, 867.7401
598.1610, 868.0460
598.6431, 869.0352
599.1252, 870.6013
599.6074, 872.2627
600.0895, 874.8542
600.5716, 876.6594
601.0537, 876.5370
601.5358, 873.8508
602.0179, 871.8021
602.5001, 869.5317
602.9822, 868.7987
603.4643, 871.7202
603.9464, 880.2337
604.4285, 884.4717
604.9106, 882.8362
605.3928, 878.6816
605.8749, 876.8435
606.3570, 877.2040
606.8391, 878.4180
607.3212, 880.6732
607.8033, 882.7880
608.2855, 882.2062
608.7676, 879.7130
609.2497, 878.1976
609.7318, 880.8513
610.2139, 883.9429
610.6960, 883.8977
611.1782, 880.6976
611.6603, 878.7170
612.1424, 880.7805
612.6245, 883.5906
613.1066, 884.9359
613.5887, 883.2787
614.0709, 883.6113
614.5530, 888.0675
615.0351, 892.6237
615.5172, 892.4597
615.9993, 886.0928
616.4814, 881.9108
616.9636, 881.5833
617.4457, 883.2872
617.9278, 883.4539
618.4099, 882.2549
618.8920, 881.5035
619.3741, 881.9471
619.8563, 883.2402
620.3384, 885.4774
620.8205, 888.3401
621.3026, 890.2672
621.7847, 889.3626
622.2668, 887.8889
622.7490, 887.7822
623.2311, 889.3904
623.7132, 890.2560
624.1953, 888.9706
624.6774, 887.2590
625.1595, 886.3674
625.6417, 887.0541
626.1238, 887.0637
626.6059, 885.8383
627.0880, 884.5806
627.5701, 885.2604
628.0522, 888.1760
628.5344, 890.2234
629.0165, 890.7529
629.4986, 890.0668
629.9807, 887.6901
630.4628, 884.1707
630.9449, 882.5204
631.4271, 886.3793
631.9092, 891.4293
632.3913, 892.3458
632.8734, 889.7680
633.3555, 887.9276
633.8376, 890.2563
634.3198, 892.9090
634.8019, 893.0490
635.2840, 889.5373
635.7661, 888.1512
636.2482, 890.9967
636.7303, 894.8666
637.2125, 897.7306
637.6946, 899.5826
638.1767, 900.3606
638.6588, 899.7892
639.1409, 898.6475
639.6230, 898.1156
640.1052, 898.1423
640.5873, 897.7910
641.0694, 896.6170
641.5515, 895.3398
642.0336, 894.5244
642.5157, 894.4435
642.9979, 895.9070
643.4800, 901.6379
643.9621, 907.1096
644.4442, 908.9904
644.9263, 907.6442
645.4084, 905.4407
645.8906, 900.2551
646.3727, 896.9068
646.8548, 899.0403
647.3369, 907.9256
647.8190, 911.8029
648.3011, 907.9026
648.7833, 903.0997
649.2654, 902.8904
649.7475, 907.7428
650.2296, 911.5817
650.7117, 914.1495
651.1938, 915.4248
651.6760, 914.0346
652.1581, 911.1667
652.6402, 910.9023
653.1223, 915.5060
653.6044, 920.4657
654.0865, 921.4608
654.5687, 919.9572
655.0508, 918.8044
655.5329, 918.9620
656.0150, 919.7511
656.4971, 921.1266
656.9792, 922.9881
657.4614, 924.8840
657.9435, 927.1613
658.4256, 928.9545
658.9077, 929.9609
659.3898, 930.1942
659.8719, 929.8563
660.3541, 928.7620
660.8362, 927.9572
661.3183, 928.2806
661.8004, 929.5188
662.2825, 931.0266
662.7646, 932.8051
663.2468, 934.2194
663.7289, 933.4373
664.2110, 932.4573
664.6931, 934.4980
665.1752, 942.1320
665.6573, 947.8624
666.1395, 946.4752
666.6216, 942.1523
667.1037, 940.0364
667.5858, 942.7390
668.0679, 945.3822
668.5500, 947.8002
669.0322, 949.8536
669.5143, 950.9166
669.9964, 950.6326
670.4785, 951.2061
670.9606, 953.7892
671.4427, 957.3448
671.9249, 958.3388
672.4070, 957.1622
672.8891, 956.9852
673.3712, 960.9422
673.8533, 966.1572
674.3354, 969.2446
674.8176, 970.2734
675.2997, 970.8599
675.7818, 970.5381
676.2639, 970.9943
676.7460, 973.8121
677.2281, 980.2170
677.7103, 984.4346
