##NAMES=Cobaltite
##RRUFFID=R060907
##IDEAL CHEMISTRY=Co^3+^(AsS)^3-^
##LOCALITY=Espanola, Ontario, Canada
##OWNER=RRUFF
##SOURCE=Royal Ontario Museum
##DESCRIPTION=Group of sharp metallic cubes with a thin surface alteration, broken crystals have fresher surfaces.
##STATUS=The identification of this mineral has been confirmed by X-ray diffraction and chemical analysis
##URL=rruff.info/R060907
##MEASURED CHEMISTRY=(Co_0.55_Fe_0.24_Ni_0.21_)_Î£=1_As_0.94_S_1.06_
152.3829, 4679.348
152.8650, 4657.094
153.3471, 4626.157
153.8292, 4598.907
154.3114, 4577.215
154.7935, 4556.785
155.2756, 4531.945
155.7577, 4498.260
156.2398, 4474.748
156.7219, 4465.915
157.2041, 4463.156
157.6862, 4460.389
158.1683, 4456.538
158.6504, 4454.002
159.1325, 4454.843
159.6146, 4455.699
160.0968, 4472.258
160.5789, 4514.538
161.0610, 4566.146
161.5431, 4615.421
162.0252, 4659.404
162.5073, 4697.873
162.9895, 4729.134
163.4716, 4746.682
163.9537, 4774.352
164.4358, 4822.884
164.9179, 4877.043
165.4000, 4921.477
165.8822, 4952.235
166.3643, 4976.204
166.8464, 5003.555
167.3285, 5037.180
167.8106, 5064.711
168.2927, 5080.943
168.7749, 5092.110
169.2570, 5109.322
169.7391, 5136.376
170.2212, 5158.399
170.7033, 5148.938
171.1854, 5098.240
171.6676, 5055.742
172.1497, 5033.737
172.6318, 5022.627
173.1139, 5010.728
173.5960, 4994.996
174.0781, 4977.901
174.5603, 4962.533
175.0424, 4947.954
175.5245, 4938.047
176.0066, 4941.023
176.4887, 4947.188
176.9708, 4939.043
177.4530, 4909.521
177.9351, 4875.119
178.4172, 4861.592
178.8993, 4869.313
179.3814, 4882.973
179.8635, 4906.374
180.3457, 4931.577
180.8278, 4943.959
181.3099, 4937.553
181.7920, 4924.680
182.2741, 4924.642
182.7562, 4937.931
183.2384, 4950.165
183.7205, 4953.746
184.2026, 4954.288
184.6847, 4962.808
185.1668, 4983.587
185.6489, 5007.874
186.1311, 5022.609
186.6132, 5027.871
187.0953, 5032.803
187.5774, 5037.239
188.0595, 5043.653
188.5416, 5058.029
189.0238, 5083.704
189.5059, 5112.229
189.9880, 5132.899
190.4701, 5146.476
190.9522, 5156.244
191.4343, 5159.796
191.9165, 5160.910
192.3986, 5166.209
192.8807, 5177.172
193.3628, 5192.512
193.8449, 5213.986
194.3270, 5241.719
194.8092, 5263.396
195.2913, 5269.300
195.7734, 5267.877
196.2555, 5274.905
196.7376, 5294.648
197.2197, 5319.203
197.7019, 5339.980
198.1840, 5357.547
198.6661, 5374.155
199.1482, 5392.220
199.6303, 5409.468
200.1124, 5419.779
200.5946, 5419.894
201.0767, 5420.793
201.5588, 5438.128
202.0409, 5469.362
202.5230, 5498.543
203.0051, 5524.628
203.4873, 5544.792
203.9694, 5551.861
204.4515, 5542.286
204.9336, 5529.515
205.4157, 5527.671
205.8978, 5535.009
206.3800, 5543.361
206.8621, 5550.455
207.3442, 5557.494
207.8263, 5566.394
208.3084, 5577.557
208.7905, 5589.358
209.2727, 5600.768
209.7548, 5611.678
210.2369, 5620.999
210.7190, 5623.275
211.2011, 5626.150
211.6832, 5641.712
212.1654, 5672.294
212.6475, 5702.991
213.1296, 5717.132
213.6117, 5718.795
214.0938, 5699.036
214.5759, 5755.282
215.0581, 5793.535
215.5402, 5814.754
216.0223, 5767.938
216.5044, 5808.976
216.9865, 5814.806
217.4686, 5819.192
217.9508, 5872.598
218.4329, 5835.678
218.9150, 5888.303
219.3971, 5872.722
219.8792, 5878.030
220.3613, 5898.455
220.8435, 5944.352
221.3256, 6006.785
221.8077, 6044.233
222.2898, 6032.142
222.7719, 6012.870
223.2540, 6018.326
223.7362, 6046.542
224.2183, 6077.721
224.7004, 6099.740
225.1825, 6115.502
225.6646, 6137.160
226.1467, 6170.638
226.6289, 6204.313
227.1110, 6227.246
227.5931, 6242.981
228.0752, 6268.734
228.5573, 6318.322
229.0394, 6381.200
229.5216, 6421.129
230.0037, 6417.797
230.4858, 6419.465
230.9679, 6455.580
231.4500, 6514.428
231.9321, 6563.263
232.4143, 6586.180
232.8964, 6591.849
233.3785, 6603.813
233.8606, 6623.816
234.3427, 6645.547
234.8248, 6667.049
235.3070, 6689.013
235.7891, 6712.549
236.2712, 6738.289
236.7533, 6765.849
237.2354, 6795.292
237.7175, 6831.104
238.1997, 6859.341
238.6818, 6877.375
239.1639, 6886.470
239.6460, 6887.417
240.1281, 6880.221
240.6102, 6867.657
241.0924, 6853.625
241.5745, 6837.176
242.0566, 6821.660
242.5387, 6810.562
243.0208, 6798.973
243.5029, 6779.172
243.9851, 6750.208
244.4672, 6722.805
244.9493, 6713.385
245.4314, 6736.494
245.9135, 6728.740
246.3956, 6667.100
246.8778, 6591.744
247.3599, 6530.070
247.8420, 6485.487
248.3241, 6450.329
248.8062, 6417.989
249.2883, 6389.660
249.7705, 6355.874
250.2526, 6306.463
250.7347, 6261.031
251.2168, 6235.693
251.6989, 6225.400
252.1810, 6210.106
252.6632, 6172.045
253.1453, 6110.516
253.6274, 6064.911
254.1095, 6042.993
254.5916, 6026.597
255.0737, 6016.251
255.5559, 6006.871
256.0380, 5987.584
256.5201, 5949.727
257.0022, 5898.396
257.4843, 5867.771
257.9665, 5895.079
258.4486, 5902.729
258.9307, 5865.079
259.4128, 5805.156
259.8949, 5752.412
260.3770, 5720.918
260.8592, 5674.985
261.3413, 5698.292
261.8234, 5703.604
262.3055, 5691.885
262.7876, 5612.131
263.2697, 5620.230
263.7519, 5593.120
264.2340, 5564.568
264.7161, 5585.033
265.1982, 5515.175
265.6803, 5534.863
266.1624, 5518.805
266.6446, 5519.105
267.1267, 5483.981
267.6088, 5420.111
268.0909, 5397.395
268.5730, 5382.821
269.0551, 5346.934
269.5373, 5284.743
270.0194, 5227.276
270.5015, 5171.984
270.9836, 5125.100
271.4657, 5098.849
271.9478, 5086.884
272.4300, 5065.924
272.9121, 5007.551
273.3942, 4915.567
273.8763, 4851.644
274.3584, 4833.279
274.8405, 4823.315
275.3227, 4809.194
275.8048, 4790.020
276.2869, 4763.722
276.7690, 4723.938
277.2511, 4678.290
277.7332, 4619.810
278.2154, 4639.646
278.6975, 4641.490
279.1796, 4626.306
279.6617, 4543.084
280.1438, 4547.718
280.6259, 4517.145
281.1081, 4485.122
281.5902, 4502.119
282.0723, 4428.795
282.5544, 4445.016
283.0365, 4425.492
283.5186, 4422.329
284.0008, 4383.734
284.4829, 4356.086
284.9650, 4363.876
285.4471, 4352.043
285.9292, 4309.376
286.4113, 4264.452
286.8935, 4233.527
287.3756, 4200.788
287.8577, 4172.417
288.3398, 4149.033
288.8219, 4124.950
289.3040, 4095.609
289.7862, 4064.678
290.2683, 4038.982
290.7504, 4020.658
291.2325, 4004.873
291.7146, 3986.168
292.1967, 3964.512
292.6789, 3944.457
293.1610, 3928.323
293.6431, 3913.156
294.1252, 3898.313
294.6073, 3883.117
295.0894, 3861.610
295.5716, 3825.664
296.0537, 3776.123
296.5358, 3745.219
297.0179, 3745.125
297.5000, 3749.575
297.9821, 3750.778
298.4643, 3746.761
298.9464, 3732.954
299.4285, 3705.371
299.9106, 3668.492
300.3927, 3641.219
300.8748, 3631.046
301.3570, 3621.201
301.8391, 3612.318
302.3212, 3601.488
302.8033, 3583.327
303.2854, 3556.012
303.7675, 3526.083
304.2497, 3505.689
304.7318, 3502.313
305.2139, 3495.834
305.6960, 3479.477
306.1781, 3465.264
306.6602, 3465.486
307.1424, 3479.263
307.6245, 3492.729
308.1066, 3490.632
308.5887, 3470.974
309.0708, 3448.805
309.5529, 3414.357
310.0351, 3386.699
310.5172, 3377.896
310.9993, 3381.681
311.4814, 3382.983
311.9635, 3370.342
312.4456, 3347.522
312.9278, 3332.026
313.4099, 3326.695
313.8920, 3324.382
314.3741, 3322.646
314.8562, 3322.143
315.3383, 3324.141
315.8205, 3329.683
316.3026, 3336.247
316.7847, 3340.868
317.2668, 3343.748
317.7489, 3343.232
318.2310, 3337.724
318.7132, 3329.108
319.1953, 3316.112
319.6774, 3297.539
320.1595, 3286.435
320.6416, 3298.858
321.1237, 3327.949
321.6059, 3345.802
322.0880, 3344.509
322.5701, 3336.410
323.0522, 3331.861
323.5343, 3330.595
324.0164, 3334.574
324.4986, 3346.589
324.9807, 3362.963
325.4628, 3380.329
325.9449, 3398.352
326.4270, 3415.047
326.9091, 3428.760
327.3913, 3439.638
327.8734, 3450.285
328.3555, 3462.963
328.8376, 3473.215
329.3197, 3477.898
329.8018, 3478.438
330.2840, 3479.026
330.7661, 3482.144
331.2482, 3485.136
331.7303, 3480.472
332.2124, 3455.351
332.6945, 3440.272
333.1767, 3445.064
333.6588, 3456.696
334.1409, 3462.924
334.6230, 3460.714
335.1051, 3454.128
335.5872, 3448.240
336.0694, 3443.921
336.5515, 3437.381
337.0336, 3422.999
337.5157, 3411.906
337.9978, 3411.888
338.4799, 3420.034
338.9621, 3427.587
339.4442, 3428.493
339.9263, 3423.083
340.4084, 3413.118
340.8905, 3392.024
341.3727, 3376.206
341.8548, 3368.723
342.3369, 3368.709
342.8190, 3377.129
343.3011, 3395.735
343.7832, 3415.992
344.2654, 3425.560
344.7475, 3423.590
345.2296, 3415.811
345.7117, 3392.253
346.1938, 3372.438
346.6759, 3376.751
347.1581, 3406.132
347.6402, 3433.176
348.1223, 3440.154
348.6044, 3431.425
349.0865, 3416.399
349.5686, 3391.897
350.0508, 3373.993
350.5329, 3383.717
351.0150, 3413.952
351.4971, 3435.476
351.9792, 3446.204
352.4613, 3443.797
352.9435, 3416.973
353.4256, 3370.839
353.9077, 3333.989
354.3898, 3323.103
354.8719, 3332.480
355.3540, 3342.726
355.8362, 3366.024
356.3183, 3373.698
356.8004, 3347.342
357.2825, 3306.197
357.7646, 3275.016
358.2467, 3260.725
358.7289, 3254.493
359.2110, 3243.940
359.6931, 3227.307
360.1752, 3211.496
360.6573, 3201.415
361.1394, 3187.867
361.6216, 3163.879
362.1037, 3131.631
362.5858, 3097.549
363.0679, 3064.858
363.5500, 3035.017
364.0321, 3020.199
364.5143, 3038.077
364.9964, 3045.037
365.4785, 3020.125
365.9606, 2984.655
366.4427, 2963.915
366.9248, 2967.309
367.4070, 2979.531
367.8891, 2978.780
368.3712, 2963.599
368.8533, 2953.018
369.3354, 2954.113
369.8175, 2957.560
370.2997, 2955.872
370.7818, 2949.247
371.2639, 2941.859
371.7460, 2937.094
372.2281, 2932.719
372.7102, 2922.101
373.1924, 2903.344
373.6745, 2888.862
374.1566, 2888.664
374.6387, 2900.392
375.1208, 2911.630
375.6029, 2922.922
376.0851, 2932.597
376.5672, 2941.749
377.0493, 2948.661
377.5314, 2947.220
378.0135, 2933.810
378.4956, 2916.437
378.9778, 2911.020
379.4599, 2929.673
379.9420, 2938.069
380.4241, 2927.598
380.9062, 2912.560
381.3883, 2903.837
381.8705, 2902.162
382.3526, 2901.863
382.8347, 2897.356
383.3168, 2888.632
383.7989, 2885.863
384.2810, 2894.900
384.7632, 2903.802
385.2453, 2912.371
385.7274, 2918.511
386.2095, 2918.416
386.6916, 2909.967
387.1737, 2898.843
387.6559, 2896.200
388.1380, 2904.581
388.6201, 2906.847
389.1022, 2889.231
389.5843, 2873.192
390.0664, 2879.281
390.5486, 2905.918
391.0307, 2925.598
391.5128, 2917.109
391.9949, 2891.413
392.4770, 2871.001
392.9591, 2857.323
393.4413, 2849.285
393.9234, 2817.000
394.4055, 2851.570
394.8876, 2868.142
395.3697, 2867.686
395.8518, 2799.193
396.3340, 2818.553
396.8161, 2802.707
397.2982, 2785.417
397.7803, 2817.143
398.2624, 2758.547
398.7445, 2789.495
399.2267, 2784.698
399.7088, 2796.262
400.1909, 2772.400
400.6730, 2759.480
401.1551, 2781.997
401.6372, 2784.892
402.1194, 2756.951
402.6015, 2769.554
403.0836, 2709.720
403.5657, 2713.451
404.0478, 2744.607
404.5299, 2711.589
405.0121, 2699.827
405.4942, 2686.246
405.9763, 2682.290
406.4584, 2691.338
406.9405, 2701.139
407.4226, 2694.167
407.9048, 2671.028
408.3869, 2657.360
408.8690, 2659.033
409.3511, 2667.715
409.8332, 2681.234
410.3153, 2697.127
410.7975, 2704.828
411.2796, 2691.966
411.7617, 2674.744
412.2438, 2672.203
412.7259, 2683.315
413.2080, 2695.921
413.6902, 2705.106
414.1723, 2710.541
414.6544, 2710.006
415.1365, 2697.163
415.6186, 2691.011
416.1007, 2700.796
416.5829, 2715.820
417.0650, 2726.035
417.5471, 2729.337
418.0292, 2727.524
418.5113, 2721.798
418.9934, 2711.767
419.4756, 2703.765
419.9577, 2695.032
420.4398, 2691.510
420.9219, 2701.836
421.4040, 2716.280
421.8861, 2719.089
422.3683, 2702.812
422.8504, 2680.741
423.3325, 2677.988
423.8146, 2698.937
424.2967, 2708.076
424.7788, 2687.046
425.2610, 2664.337
425.7431, 2662.802
426.2252, 2680.006
426.7073, 2696.153
427.1894, 2702.156
427.6715, 2701.418
428.1537, 2698.658
428.6358, 2694.023
429.1179, 2685.979
429.6000, 2671.537
430.0821, 2654.216
430.5642, 2645.055
431.0464, 2648.537
431.5285, 2651.680
432.0106, 2651.613
432.4927, 2649.083
432.9748, 2643.205
433.4569, 2634.513
433.9391, 2628.161
434.4212, 2630.708
434.9033, 2643.752
435.3854, 2649.713
435.8675, 2642.684
436.3496, 2634.906
436.8318, 2629.341
437.3139, 2625.272
437.7960, 2620.327
438.2781, 2613.224
438.7602, 2607.803
439.2423, 2612.303
439.7245, 2628.438
440.2066, 2640.087
440.6887, 2643.765
441.1708, 2642.684
441.6529, 2638.943
442.1350, 2632.781
442.6172, 2625.504
443.0993, 2614.175
443.5814, 2603.887
444.0635, 2601.849
444.5456, 2607.831
445.0277, 2617.427
445.5099, 2630.506
445.9920, 2643.708
446.4741, 2645.643
446.9562, 2624.723
447.4383, 2616.071
447.9204, 2641.568
448.4026, 2672.021
448.8847, 2675.932
449.3668, 2651.844
449.8489, 2621.960
450.3310, 2605.775
450.8131, 2602.978
451.2953, 2601.542
451.7774, 2601.672
452.2595, 2603.166
452.7416, 2605.158
453.2237, 2608.814
453.7059, 2616.850
454.1880, 2630.148
454.6701, 2642.666
455.1522, 2647.440
455.6343, 2644.962
456.1165, 2640.658
456.5986, 2634.507
457.0807, 2627.725
457.5628, 2620.075
458.0449, 2612.296
458.5270, 2607.080
459.0092, 2605.678
459.4913, 2606.302
459.9734, 2607.469
460.4555, 2609.601
460.9376, 2615.362
461.4197, 2626.369
461.9019, 2637.054
462.3840, 2637.257
462.8661, 2620.260
463.3482, 2610.194
463.8303, 2609.696
464.3124, 2613.223
464.7946, 2622.959
465.2767, 2634.198
465.7588, 2635.836
466.2409, 2619.596
466.7230, 2594.138
467.2051, 2583.237
467.6873, 2590.882
468.1694, 2600.577
468.6515, 2615.238
469.1336, 2625.731
469.6157, 2622.188
470.0978, 2605.318
470.5800, 2590.719
471.0621, 2590.631
471.5442, 2596.547
472.0263, 2593.254
472.5084, 2580.178
472.9905, 2568.217
473.4727, 2563.370
473.9548, 2564.063
474.4369, 2565.299
474.9190, 2564.232
475.4011, 2568.225
475.8832, 2587.208
476.3654, 2606.574
476.8475, 2610.086
477.3296, 2597.334
477.8117, 2580.948
478.2938, 2571.615
478.7759, 2569.039
479.2581, 2568.963
479.7402, 2570.308
480.2223, 2576.238
480.7044, 2592.730
481.1865, 2610.789
481.6686, 2621.490
482.1508, 2622.810
482.6329, 2618.626
483.1150, 2610.747
483.5971, 2599.967
484.0792, 2588.341
484.5613, 2575.448
485.0435, 2564.472
485.5256, 2556.783
486.0077, 2553.163
486.4898, 2555.055
486.9719, 2567.194
487.4540, 2579.272
487.9362, 2586.204
488.4183, 2591.011
488.9004, 2600.315
489.3825, 2614.990
489.8646, 2625.906
490.3467, 2621.217
490.8289, 2598.642
491.3110, 2583.444
491.7931, 2579.060
492.2752, 2578.852
492.7573, 2588.121
493.2394, 2598.026
493.7216, 2594.801
494.2037, 2573.021
494.6858, 2548.491
495.1679, 2540.125
495.6500, 2545.805
496.1321, 2548.007
496.6143, 2542.555
497.0964, 2537.872
497.5785, 2541.751
498.0606, 2552.522
498.5427, 2562.630
499.0248, 2576.579
499.5070, 2584.245
499.9891, 2573.554
500.4712, 2554.611
500.9533, 2547.754
501.4354, 2558.777
501.9175, 2573.167
502.3997, 2571.039
502.8818, 2548.416
503.3639, 2532.877
503.8460, 2526.828
504.3281, 2525.722
504.8102, 2530.426
505.2924, 2538.694
505.7745, 2548.552
506.2566, 2559.791
506.7387, 2568.695
507.2208, 2567.338
507.7029, 2557.620
508.1851, 2558.925
508.6672, 2579.214
509.1493, 2599.063
509.6314, 2600.807
510.1135, 2587.406
510.5956, 2574.372
511.0778, 2560.833
511.5599, 2550.188
512.0420, 2546.282
512.5241, 2545.816
513.0062, 2541.052
513.4883, 2530.172
513.9705, 2522.596
514.4526, 2532.964
514.9347, 2566.051
515.4168, 2582.479
515.8989, 2561.986
516.3810, 2547.046
516.8632, 2557.207
517.3453, 2577.389
517.8274, 2584.371
518.3095, 2569.272
518.7916, 2551.575
519.2737, 2553.713
519.7559, 2571.365
520.2380, 2586.073
520.7201, 2596.798
521.2022, 2597.363
521.6843, 2575.298
522.1664, 2535.983
522.6486, 2520.185
523.1307, 2552.032
523.6128, 2578.884
524.0949, 2578.900
524.5770, 2565.080
525.0591, 2551.895
525.5413, 2543.729
526.0234, 2541.334
526.5055, 2546.598
526.9876, 2559.503
527.4697, 2570.180
527.9518, 2581.661
528.4340, 2585.773
528.9161, 2574.977
529.3982, 2558.916
529.8803, 2548.104
530.3624, 2544.754
530.8445, 2544.930
531.3267, 2551.536
531.8088, 2558.430
532.2909, 2547.290
532.7730, 2515.886
533.2551, 2491.676
533.7372, 2496.847
534.2194, 2522.458
534.7015, 2526.801
535.1836, 2479.544
535.6657, 2453.622
536.1478, 2475.012
536.6299, 2508.135
537.1121, 2521.522
537.5942, 2514.165
538.0763, 2505.376
538.5584, 2510.911
539.0405, 2526.154
539.5226, 2533.006
540.0048, 2528.787
540.4869, 2525.557
540.9690, 2528.016
541.4511, 2532.226
541.9332, 2533.514
542.4153, 2531.707
542.8975, 2532.144
543.3796, 2542.606
543.8617, 2552.070
544.3438, 2546.563
544.8259, 2529.234
545.3080, 2515.355
545.7902, 2512.727
546.2723, 2515.666
546.7544, 2511.949
547.2365, 2496.708
547.7186, 2485.666
548.2007, 2476.579
548.6829, 2473.387
549.1650, 2482.515
549.6471, 2498.483
550.1292, 2509.857
550.6113, 2510.684
551.0934, 2507.139
551.5756, 2508.337
552.0577, 2513.220
552.5398, 2512.022
553.0219, 2500.513
553.5040, 2488.931
553.9861, 2486.223
554.4683, 2492.792
554.9504, 2503.064
555.4325, 2527.929
555.9146, 2544.061
556.3967, 2535.887
556.8788, 2517.022
557.3610, 2504.743
557.8431, 2503.416
558.3252, 2506.887
558.8073, 2509.105
559.2894, 2510.118
559.7715, 2511.368
560.2537, 2514.985
560.7358, 2514.488
561.2179, 2499.397
561.7000, 2482.808
562.1821, 2481.574
562.6642, 2499.912
563.1464, 2513.611
563.6285, 2508.094
564.1106, 2492.781
564.5927, 2477.323
565.0748, 2463.108
565.5569, 2452.064
566.0391, 2445.353
566.5212, 2442.182
567.0033, 2440.656
567.4854, 2443.776
567.9675, 2442.857
568.4496, 2428.948
568.9318, 2419.609
569.4139, 2428.643
569.8960, 2450.130
570.3781, 2468.575
570.8602, 2477.432
571.3423, 2477.967
571.8245, 2466.265
572.3066, 2445.420
572.7887, 2436.326
573.2708, 2445.753
573.7529, 2460.915
574.2350, 2470.365
574.7172, 2473.920
575.1993, 2475.897
575.6814, 2472.727
576.1635, 2472.327
576.6456, 2481.161
577.1277, 2491.941
577.6099, 2494.046
578.0920, 2486.541
578.5741, 2480.848
579.0562, 2492.490
579.5383, 2516.123
580.0204, 2516.362
580.5026, 2484.756
580.9847, 2459.689
581.4668, 2459.872
581.9489, 2472.132
582.4310, 2478.306
582.9131, 2478.111
583.3953, 2474.008
583.8774, 2459.956
584.3595, 2447.723
584.8416, 2452.016
585.3237, 2466.760
585.8058, 2471.112
586.2880, 2454.696
586.7701, 2432.813
587.2522, 2437.136
587.7343, 2477.608
588.2164, 2501.949
588.6985, 2502.303
589.1807, 2493.968
589.6628, 2479.254
590.1449, 2462.572
590.6270, 2451.182
591.1091, 2446.859
591.5912, 2448.294
592.0734, 2458.828
592.5555, 2473.115
593.0376, 2480.836
593.5197, 2481.058
594.0018, 2481.745
594.4839, 2489.907
594.9661, 2502.171
595.4482, 2501.587
595.9303, 2473.744
596.4124, 2456.855
596.8945, 2458.131
597.3766, 2466.171
597.8588, 2476.508
598.3409, 2487.195
598.8230, 2494.596
599.3051, 2496.374
599.7872, 2494.674
600.2693, 2490.272
600.7515, 2448.868
601.2336, 2492.042
601.7157, 2517.220
602.1978, 2525.368
602.6799, 2465.481
603.1620, 2493.447
603.6442, 2486.207
604.1263, 2477.521
604.6084, 2517.853
605.0905, 2467.861
605.5726, 2507.415
606.0547, 2511.224
606.5369, 2531.394
607.0190, 2516.137
607.5011, 2511.822
607.9832, 2542.944
608.4653, 2554.444
608.9474, 2535.110
609.4296, 2556.319
609.9117, 2505.090
610.3938, 2500.407
610.8759, 2494.054
611.3580, 2509.896
611.8401, 2515.290
612.3223, 2494.750
612.8044, 2479.327
613.2865, 2491.646
613.7686, 2515.149
614.2507, 2522.988
614.7328, 2507.342
615.2150, 2484.177
615.6971, 2468.069
616.1792, 2459.280
616.6613, 2462.677
617.1434, 2482.278
617.6255, 2495.492
618.1077, 2486.686
618.5898, 2468.523
619.0719, 2466.263
619.5540, 2483.165
620.0361, 2501.000
620.5182, 2522.775
621.0004, 2539.174
621.4825, 2543.219
621.9646, 2536.713
622.4467, 2520.751
622.9288, 2495.679
623.4109, 2474.271
623.8931, 2480.763
624.3752, 2514.781
624.8573, 2530.667
625.3394, 2518.367
625.8215, 2507.778
626.3036, 2521.728
626.7858, 2546.958
627.2679, 2551.899
627.7500, 2524.826
628.2321, 2506.580
628.7142, 2516.133
629.1964, 2532.326
629.6785, 2537.178
630.1606, 2532.225
630.6427, 2528.262
631.1248, 2531.231
631.6069, 2535.097
632.0891, 2525.880
632.5712, 2501.958
633.0533, 2489.760
633.5354, 2497.088
634.0175, 2505.618
634.4996, 2501.521
634.9818, 2490.370
635.4639, 2485.196
635.9460, 2489.086
636.4281, 2494.348
636.9102, 2499.874
637.3923, 2504.632
637.8745, 2509.715
638.3566, 2513.334
638.8387, 2508.729
639.3208, 2490.835
639.8029, 2468.359
640.2850, 2461.695
640.7672, 2473.065
641.2493, 2477.577
641.7314, 2468.601
642.2135, 2459.032
642.6956, 2457.687
643.1777, 2462.509
643.6599, 2468.842
644.1420, 2479.738
644.6241, 2486.198
645.1062, 2479.721
645.5883, 2471.147
646.0704, 2473.867
646.5526, 2485.739
647.0347, 2493.732
647.5168, 2489.436
