##NAMES=Cobaltaustinite
##RRUFFID=R050536
##IDEAL CHEMISTRY=CaCo^2+^As^5+^O_4_(OH)
##LOCALITY=Dome Rock, Mingary, South Australia, Australia
##OWNER=RRUFF
##SOURCE=University of Arizona Mineral Museum
##DESCRIPTION=Dark-green drusy coating
##STATUS=The identification of this mineral is confirmed by single-crystal X-ray diffraction and chemical analysis.
##URL=rruff.info/R050536
##MEASURED CHEMISTRY=Ca_1.00_(Co_0.95_Cu_0.05_)_Î£=1_As_1.00_O_4_(OH) ; (OH) estimated by difference and stoichiometry
92.52344, 573.9806
93.00555, 572.2444
93.48767, 572.8865
93.96979, 586.6645
94.45190, 600.8468
94.93402, 613.5408
95.41614, 616.8916
95.89825, 613.9481
96.38037, 609.8605
96.86249, 604.6127
97.34460, 598.3463
97.82672, 591.1865
98.30884, 584.3112
98.79095, 578.0331
99.27307, 571.4659
99.75519, 564.0686
100.2373, 557.3817
100.7194, 551.6852
101.2015, 546.1038
101.6837, 539.5692
102.1658, 533.6019
102.6479, 529.4528
103.1300, 527.1572
103.6121, 525.6053
104.0942, 524.2227
104.5764, 522.9189
105.0585, 521.6500
105.5406, 520.0869
106.0227, 518.4688
106.5048, 517.6471
106.9869, 517.9985
107.4691, 518.3347
107.9512, 518.0683
108.4333, 517.3157
108.9154, 516.4085
109.3975, 515.5717
109.8796, 514.7798
110.3618, 514.0993
110.8439, 513.3886
111.3260, 512.8603
111.8081, 512.7448
112.2902, 512.9968
112.7723, 513.3122
113.2544, 513.2727
113.7366, 512.7514
114.2187, 512.0378
114.7008, 510.9500
115.1829, 509.7676
115.6650, 508.7437
116.1471, 507.9639
116.6293, 507.3493
117.1114, 506.7328
117.5935, 506.1052
118.0756, 505.4821
118.5577, 504.9302
119.0398, 504.3862
119.5220, 503.6450
120.0041, 502.4827
120.4862, 501.1873
120.9683, 500.3900
121.4504, 500.3011
121.9325, 500.3321
122.4147, 499.8802
122.8968, 498.8765
123.3789, 498.1928
123.8610, 498.7928
124.3431, 499.7698
124.8252, 500.2618
125.3074, 499.9414
125.7895, 499.0653
126.2716, 498.0504
126.7537, 496.5175
127.2358, 495.5962
127.7179, 495.8926
128.2001, 496.8327
128.6822, 497.6787
129.1643, 497.9699
129.6464, 497.7491
130.1285, 497.5370
130.6107, 497.3021
131.0928, 497.1122
131.5749, 496.9610
132.0570, 496.8702
132.5391, 496.9153
133.0212, 497.2141
133.5034, 497.8838
133.9855, 497.9263
134.4676, 496.6109
134.9497, 495.3891
135.4318, 495.2094
135.9139, 496.1024
136.3960, 497.3048
136.8782, 497.9565
137.3603, 497.9211
137.8424, 497.9945
138.3245, 498.2535
138.8066, 498.6288
139.2887, 499.0942
139.7709, 499.6815
140.2530, 500.2003
140.7351, 500.3666
141.2172, 500.2198
141.6993, 499.9957
142.1814, 499.6241
142.6636, 499.2117
143.1457, 499.2102
143.6278, 500.0213
144.1099, 500.9353
144.5920, 501.2619
145.0741, 501.0061
145.5563, 500.7717
146.0384, 501.2909
146.5205, 502.7211
147.0026, 503.5593
147.4847, 503.1299
147.9668, 502.2796
148.4490, 501.2677
148.9311, 500.1981
149.4132, 499.2668
149.8953, 498.8042
150.3774, 499.0264
150.8595, 499.3093
151.3417, 499.7737
151.8238, 500.1695
152.3059, 500.2548
152.7880, 499.9460
153.2701, 499.3886
153.7522, 498.9555
154.2344, 498.8091
154.7165, 498.6108
155.1986, 498.1245
155.6807, 497.6353
156.1628, 497.5617
156.6449, 498.1423
157.1271, 499.1823
157.6092, 499.8830
158.0913, 500.0603
158.5734, 500.1902
159.0555, 500.4148
159.5376, 500.6961
160.0198, 500.9171
160.5019, 500.9816
160.9840, 500.9584
161.4661, 501.0878
161.9482, 501.4226
162.4303, 501.8438
162.9125, 502.3322
163.3946, 502.8816
163.8767, 503.3393
164.3588, 503.6183
164.8409, 503.7296
165.3230, 503.6766
165.8052, 503.3151
166.2873, 502.9198
166.7694, 502.9157
167.2515, 503.4308
167.7336, 503.9010
168.2157, 504.0275
168.6979, 503.9624
169.1800, 503.8578
169.6621, 503.7592
170.1442, 503.6780
170.6263, 503.6293
171.1084, 503.5402
171.5906, 503.6253
172.0727, 504.2197
172.5548, 504.9547
173.0369, 505.2553
173.5190, 504.6625
174.0011, 503.3412
174.4833, 502.6995
174.9654, 503.9371
175.4475, 504.6778
175.9296, 503.9194
176.4117, 502.2992
176.8938, 501.0533
177.3760, 501.1790
177.8581, 502.7289
178.3402, 503.5724
178.8223, 503.1239
179.3044, 502.6326
179.7865, 502.6797
180.2687, 503.1072
180.7508, 503.3101
181.2329, 502.7044
181.7150, 501.1790
182.1971, 500.3071
182.6792, 500.3041
183.1614, 500.6626
183.6435, 501.1948
184.1256, 501.8548
184.6077, 502.5589
185.0898, 503.2544
185.5719, 503.9327
186.0541, 504.5144
186.5362, 505.0179
187.0183, 505.4064
187.5004, 505.5354
187.9825, 505.3676
188.4646, 505.3002
188.9468, 505.8006
189.4289, 506.7409
189.9110, 507.6469
190.3931, 508.3888
190.8752, 509.0417
191.3573, 509.7308
191.8395, 510.4792
192.3216, 511.2271
192.8037, 512.0012
193.2858, 512.7521
193.7679, 513.3396
194.2500, 513.5064
194.7322, 513.4412
195.2143, 513.8412
195.6964, 515.1536
196.1785, 516.2421
196.6606, 516.3479
197.1427, 515.7955
197.6249, 515.2885
198.1070, 515.2633
198.5891, 515.6860
199.0712, 516.2392
199.5533, 517.0833
200.0354, 517.8793
200.5176, 518.4592
200.9997, 518.8821
201.4818, 519.2908
201.9639, 519.8010
202.4460, 520.4160
202.9281, 520.9782
203.4103, 521.3426
203.8924, 521.7836
204.3745, 522.3568
204.8566, 523.0781
205.3387, 523.9767
205.8208, 525.1412
206.3030, 526.6628
206.7851, 527.6227
207.2672, 527.4969
207.7493, 527.3710
208.2314, 527.6873
208.7135, 528.4030
209.1957, 529.2429
209.6778, 529.9904
210.1599, 530.6661
210.6420, 530.9867
211.1241, 530.6070
211.6062, 530.2388
212.0884, 530.3367
212.5705, 530.8449
213.0526, 531.3529
213.5347, 531.5172
214.0168, 531.2922
214.4989, 530.8289
214.9811, 530.1600
215.4632, 529.2548
215.9453, 528.1100
216.4274, 526.7177
216.9095, 525.0151
217.3916, 522.8156
217.8737, 520.1207
218.3559, 517.9117
218.8380, 516.5883
219.3201, 515.4953
219.8022, 514.0372
220.2843, 512.1716
220.7664, 510.2829
221.2486, 508.6846
221.7307, 507.3216
222.2128, 506.0030
222.6949, 504.5750
223.1770, 503.2421
223.6591, 502.3131
224.1413, 501.8443
224.6234, 501.4247
225.1055, 500.9023
225.5876, 500.2081
226.0697, 499.1386
226.5518, 497.2282
227.0340, 495.1262
227.5161, 494.0315
227.9982, 494.3365
228.4803, 494.2646
228.9624, 492.3509
229.4445, 489.5375
229.9267, 486.9536
230.4088, 484.9966
230.8909, 483.5241
231.3730, 482.3316
231.8551, 481.4910
232.3372, 480.7684
232.8194, 480.1108
233.3015, 479.4857
233.7836, 478.8402
234.2657, 478.1330
234.7478, 477.4281
235.2299, 476.8704
235.7121, 476.4842
236.1942, 476.2115
236.6763, 476.2064
237.1584, 476.2223
237.6405, 475.9784
238.1227, 475.3361
238.6048, 474.4283
239.0869, 473.5619
239.5690, 472.6114
240.0511, 471.9493
240.5332, 472.0270
241.0154, 472.2142
241.4975, 471.7761
241.9796, 470.3893
242.4617, 468.5192
242.9438, 467.3614
243.4259, 467.3781
243.9081, 467.4338
244.3902, 467.4000
244.8723, 467.3388
245.3544, 467.2884
245.8365, 467.2666
246.3186, 467.3080
246.8008, 467.5177
247.2829, 468.2630
247.7650, 468.6133
248.2471, 468.4429
248.7292, 467.9354
249.2113, 467.0969
249.6935, 465.9666
250.1756, 464.8538
250.6577, 464.3778
251.1398, 465.0818
251.6219, 465.6915
252.1040, 466.2816
252.5862, 466.7374
253.0683, 466.9274
253.5504, 466.8206
254.0325, 466.5231
254.5146, 466.1966
254.9967, 465.7707
255.4789, 465.4678
255.9610, 465.4370
256.4431, 465.4484
256.9252, 465.1783
257.4073, 464.5831
257.8894, 464.0930
258.3716, 464.3448
258.8537, 465.8357
259.3358, 466.7673
259.8179, 466.9242
260.3000, 466.6600
260.7821, 466.1183
261.2643, 465.3595
261.7464, 464.7112
262.2285, 464.5780
262.7106, 465.1162
263.1927, 465.4335
263.6748, 465.3461
264.1570, 465.1366
264.6391, 465.0006
265.1212, 464.9657
265.6033, 465.0426
266.0854, 465.3061
266.5675, 465.7561
267.0497, 465.9428
267.5318, 465.5152
268.0139, 465.0551
268.4960, 465.0400
268.9781, 465.4880
269.4602, 466.1437
269.9424, 466.9985
270.4245, 467.9171
270.9066, 468.2055
271.3887, 467.3883
271.8708, 466.2854
272.3529, 465.2675
272.8351, 464.3867
273.3172, 464.1811
273.7993, 465.3947
274.2814, 467.4459
274.7635, 468.4336
275.2456, 467.5957
275.7278, 466.4990
276.2099, 466.3517
276.6920, 467.0299
277.1741, 467.4918
277.6562, 467.1438
278.1383, 466.3282
278.6205, 465.8024
279.1026, 465.6185
279.5847, 465.5968
280.0668, 465.6802
280.5489, 465.8475
281.0310, 465.9471
281.5132, 465.8053
281.9953, 465.7054
282.4774, 466.1140
282.9595, 467.1441
283.4416, 468.0088
283.9237, 468.0999
284.4059, 467.5908
284.8880, 467.2063
285.3701, 467.1247
285.8522, 467.2234
286.3343, 467.4307
286.8164, 467.7385
287.2986, 467.9138
287.7807, 467.5905
288.2628, 467.0065
288.7449, 467.0363
289.2270, 468.1092
289.7091, 469.2502
290.1913, 469.4771
290.6734, 469.0456
291.1555, 468.8926
291.6376, 469.7689
292.1197, 471.2012
292.6018, 472.0255
293.0840, 471.9959
293.5661, 471.8025
294.0482, 471.9629
294.5303, 472.2886
295.0124, 472.4059
295.4945, 471.9124
295.9767, 471.2641
296.4588, 471.3617
296.9409, 472.3990
297.4230, 473.5235
297.9051, 474.4106
298.3872, 475.1012
298.8694, 475.5750
299.3515, 475.7289
299.8336, 475.8345
300.3157, 476.3560
300.7978, 477.4063
301.2799, 478.1944
301.7621, 477.8169
302.2442, 477.3588
302.7263, 477.9053
303.2084, 479.7581
303.6905, 481.9821
304.1726, 483.7115
304.6548, 484.9305
305.1369, 485.8950
305.6190, 486.2708
306.1011, 486.7480
306.5832, 487.8517
307.0653, 489.6118
307.5475, 491.7025
308.0296, 494.1022
308.5117, 496.7466
308.9938, 498.8471
309.4759, 499.8987
309.9580, 500.8419
310.4402, 502.1776
310.9223, 503.9055
311.4044, 505.9909
311.8865, 508.5477
312.3686, 511.4659
312.8507, 514.3680
313.3329, 517.4296
313.8150, 520.1252
314.2971, 521.9847
314.7792, 523.3615
315.2613, 524.9134
315.7434, 526.9781
316.2256, 529.3840
316.7077, 531.7440
317.1898, 534.0048
317.6719, 536.4294
318.1540, 539.1536
318.6361, 542.0933
319.1183, 545.2665
319.6004, 548.8105
320.0825, 552.2645
320.5646, 554.7978
321.0467, 556.1942
321.5288, 558.0611
322.0110, 561.4680
322.4931, 565.2203
322.9752, 568.3918
323.4573, 570.8230
323.9394, 572.9552
324.4215, 575.0939
324.9037, 577.2292
325.3858, 579.5632
325.8679, 582.4724
326.3500, 585.2167
326.8321, 587.2541
327.3142, 588.6462
327.7964, 589.8136
328.2785, 591.1918
328.7606, 592.6284
329.2427, 593.3162
329.7248, 592.8754
330.2069, 592.2485
330.6891, 592.2348
331.1712, 592.4821
331.6533, 592.2206
332.1354, 591.0173
332.6175, 589.1343
333.0996, 586.8410
333.5818, 583.7633
334.0639, 581.4611
334.5460, 581.5884
335.0281, 582.6390
335.5102, 582.9053
335.9923, 581.7492
336.4745, 580.1563
336.9566, 579.3593
337.4387, 579.4229
337.9208, 579.1965
338.4029, 577.8600
338.8850, 576.3997
339.3671, 575.8952
339.8492, 576.4891
340.3314, 577.1622
340.8135, 577.2928
341.2956, 576.8908
341.7777, 575.9104
342.2598, 573.9547
342.7419, 571.9755
343.2241, 570.9924
343.7062, 570.7879
344.1883, 570.2770
344.6704, 568.6154
345.1525, 566.3397
345.6346, 564.7345
346.1168, 564.0984
346.5989, 563.3821
347.0810, 561.5010
347.5631, 559.0427
348.0452, 557.0085
348.5273, 555.6230
349.0095, 554.7958
349.4916, 554.7487
349.9737, 555.5103
350.4558, 555.7830
350.9379, 554.7493
351.4200, 552.9654
351.9022, 551.3599
352.3843, 549.9838
352.8664, 548.7756
353.3485, 547.7449
353.8306, 546.8655
354.3127, 546.0523
354.7949, 545.3124
355.2770, 544.5727
355.7591, 543.6826
356.2412, 542.6431
356.7233, 541.7268
357.2054, 541.2840
357.6876, 540.9440
358.1697, 540.1349
358.6518, 538.7753
359.1339, 536.9921
359.6160, 534.7068
360.0981, 532.0221
360.5803, 529.5850
361.0624, 527.7058
361.5445, 525.9354
362.0266, 523.8578
362.5087, 521.5146
362.9908, 519.3273
363.4730, 517.6129
363.9551, 516.1706
364.4372, 514.3525
364.9193, 512.0672
365.4014, 509.6166
365.8835, 507.0471
366.3657, 504.4174
366.8478, 501.8058
367.3299, 499.2326
367.8120, 496.7467
368.2941, 494.3958
368.7762, 492.1436
369.2584, 490.1621
369.7405, 488.5682
370.2226, 487.2105
370.7047, 486.1072
371.1868, 485.2059
371.6689, 484.0826
372.1511, 482.2872
372.6332, 479.7777
373.1153, 477.5444
373.5974, 475.2634
374.0795, 473.5193
374.5616, 472.9639
375.0438, 473.1913
375.5259, 473.1037
376.0080, 472.0420
376.4901, 470.3908
376.9722, 469.5335
377.4543, 470.2208
377.9365, 470.7147
378.4186, 470.9120
378.9007, 470.7944
379.3828, 470.1920
379.8649, 469.0990
380.3470, 467.9254
380.8292, 467.2525
381.3113, 467.2491
381.7934, 467.2791
382.2755, 467.4612
382.7576, 467.5720
383.2397, 467.4526
383.7219, 467.1387
384.2040, 466.7881
384.6861, 466.5370
385.1682, 466.3713
385.6503, 466.0412
386.1324, 465.3048
386.6146, 464.6752
387.0967, 464.3311
387.5788, 464.1199
388.0609, 463.8435
388.5430, 463.4184
389.0251, 462.9033
389.5073, 462.4163
389.9894, 461.9966
390.4715, 461.5123
390.9536, 461.0966
391.4357, 460.5154
391.9178, 459.3755
392.4000, 457.7964
392.8821, 456.4546
393.3642, 456.1514
393.8463, 456.9308
394.3284, 457.1744
394.8105, 456.5078
395.2927, 455.6946
395.7748, 454.7286
396.2569, 453.8481
396.7390, 453.4904
397.2211, 453.9989
397.7032, 454.8877
398.1854, 454.9687
398.6675, 453.9022
399.1496, 453.0670
399.6317, 452.9546
400.1138, 453.1589
400.5959, 453.4664
401.0781, 453.8328
401.5602, 454.1553
402.0423, 454.3930
402.5244, 454.5326
403.0065, 454.3454
403.4886, 453.4525
403.9708, 452.7572
404.4529, 452.9610
404.9350, 453.8416
405.4171, 454.7958
405.8992, 455.5008
406.3813, 456.1609
406.8635, 457.2990
407.3456, 459.0209
407.8277, 460.2133
408.3098, 459.9188
408.7919, 458.9435
409.2740, 458.6451
409.7562, 459.2054
410.2383, 460.1626
410.7204, 461.3999
411.2025, 462.8291
411.6846, 464.1927
412.1667, 465.4160
412.6489, 466.6084
413.1310, 467.8598
413.6131, 469.1685
414.0952, 470.6871
414.5773, 472.6121
415.0594, 474.6460
415.5416, 476.6776
416.0237, 478.6338
416.5058, 480.1082
416.9879, 480.7658
417.4700, 480.7344
417.9521, 480.7352
418.4343, 480.5746
418.9164, 480.6618
419.3985, 481.3553
419.8806, 482.2903
420.3627, 482.9209
420.8448, 483.0742
421.3270, 482.9549
421.8091, 482.8414
422.2912, 482.6813
422.7733, 482.7014
423.2554, 483.3515
423.7375, 483.7803
424.2197, 483.1219
424.7018, 481.7171
425.1839, 480.7831
425.6660, 481.2936
426.1481, 482.9361
426.6302, 483.5592
427.1124, 482.2796
427.5945, 480.9834
428.0766, 479.7556
428.5587, 478.6966
429.0408, 478.0443
429.5229, 477.8203
430.0051, 477.5276
430.4872, 476.3485
430.9693, 473.9994
431.4514, 471.9877
431.9335, 471.1553
432.4156, 469.9278
432.8978, 467.3320
433.3799, 463.7926
433.8620, 460.4283
434.3441, 458.0352
434.8262, 456.2351
435.3083, 453.8832
435.7905, 450.7301
436.2726, 447.7364
436.7547, 445.3231
437.2368, 443.1665
437.7189, 440.9637
438.2010, 438.6407
438.6832, 436.5118
439.1653, 434.9918
439.6474, 433.9547
440.1295, 432.6231
440.6116, 430.6610
441.0938, 428.8199
441.5759, 427.8097
442.0580, 427.4455
442.5401, 427.2600
443.0222, 427.2960
443.5043, 427.3377
443.9865, 427.2026
444.4686, 426.8891
444.9507, 426.3223
445.4328, 425.2936
445.9149, 424.1702
446.3970, 423.8912
446.8792, 424.7895
447.3613, 425.4155
447.8434, 425.0154
448.3255, 424.2984
448.8076, 424.1953
449.2897, 424.8444
449.7719, 425.6807
450.2540, 426.1560
450.7361, 426.2452
451.2182, 426.6043
451.7003, 427.5800
452.1824, 428.4077
452.6646, 428.6677
453.1467, 428.6258
453.6288, 428.7440
454.1109, 429.2256
454.5930, 429.9061
455.0751, 430.4666
455.5573, 430.8682
456.0394, 431.2119
456.5215, 431.3304
457.0036, 431.5378
457.4857, 432.0516
457.9678, 432.8340
458.4500, 433.7136
458.9321, 434.5844
459.4142, 435.4321
459.8963, 436.1728
460.3784, 436.7280
460.8605, 437.3121
461.3427, 438.1689
461.8248, 438.9868
462.3069, 439.3842
462.7890, 439.2683
463.2711, 439.0797
463.7532, 439.3355
464.2354, 439.9973
464.7175, 440.5085
465.1996, 440.8751
465.6817, 440.9622
466.1638, 440.4613
466.6459, 439.6170
467.1281, 439.0687
467.6102, 439.3282
468.0923, 439.7001
468.5744, 439.3854
469.0565, 438.4350
469.5386, 437.4421
470.0208, 436.7427
470.5029, 435.9798
470.9850, 434.3240
471.4671, 431.5223
471.9492, 429.3411
472.4313, 428.7387
472.9135, 428.6672
473.3956, 427.9609
473.8777, 426.5538
474.3598, 425.1536
474.8419, 424.4090
475.3240, 424.1692
475.8062, 422.9172
476.2883, 419.3825
476.7704, 416.5406
477.2525, 415.4477
477.7346, 415.1730
478.2167, 414.6222
478.6989, 413.4926
479.1810, 412.1976
479.6631, 411.2411
480.1452, 410.6725
480.6273, 410.2211
481.1094, 410.0799
481.5916, 409.8553
482.0737, 409.3859
482.5558, 408.7459
483.0379, 408.0504
483.5200, 407.3362
484.0021, 406.6657
484.4843, 406.1644
484.9664, 405.8504
485.4485, 405.6225
485.9306, 405.7947
486.4127, 405.7486
486.8948, 404.8857
487.3770, 403.3410
487.8591, 401.9429
488.3412, 401.1420
488.8233, 400.8124
489.3054, 400.9135
489.7875, 401.5268
490.2697, 401.7320
490.7518, 400.8473
491.2339, 399.3603
491.7160, 398.2645
492.1981, 397.6108
492.6802, 397.2129
493.1624, 397.2104
493.6445, 397.3424
494.1266, 397.2721
494.6087, 396.9358
495.0908, 396.2694
495.5729, 395.1118
496.0551, 393.4777
496.5372, 392.3091
497.0193, 392.0475
497.5014, 391.6660
497.9835, 390.7863
498.4656, 389.6165
498.9478, 388.3885
499.4299, 387.1970
499.9120, 386.1389
500.3941, 385.3633
500.8762, 384.8924
501.3583, 384.5976
501.8405, 384.7522
502.3226, 384.8043
502.8047, 384.5233
503.2868, 384.0001
503.7689, 383.4517
504.2510, 383.0033
504.7331, 382.4871
505.2152, 381.4681
505.6974, 379.8014
506.1795, 378.5153
506.6616, 377.8934
507.1437, 377.6828
507.6258, 377.9304
508.1079, 378.4974
508.5901, 378.6866
509.0722, 377.7979
509.5543, 376.5191
510.0364, 375.9254
510.5185, 376.0137
511.0006, 376.0607
511.4828, 375.6979
511.9649, 375.1198
512.4470, 374.7421
512.9291, 374.6003
513.4113, 374.4837
513.8934, 374.4212
514.3755, 374.3085
514.8576, 374.0041
515.3397, 373.5158
515.8218, 373.0203
516.3040, 372.6787
516.7861, 372.4259
517.2682, 371.7992
517.7503, 370.0216
518.2324, 368.8495
518.7145, 368.7542
519.1967, 369.1390
519.6788, 369.5758
520.1609, 369.9138
520.6430, 370.0424
521.1251, 369.7984
521.6072, 369.1938
522.0894, 368.7120
522.5715, 368.4131
523.0536, 368.1444
523.5357, 367.8692
524.0178, 367.5840
524.4999, 367.2881
524.9821, 366.9821
525.4642, 366.6534
525.9463, 366.3062
526.4284, 365.9318
526.9105, 365.3864
527.3926, 364.5116
527.8748, 363.9130
528.3569, 364.4474
528.8390, 365.6795
529.3211, 366.0842
529.8032, 364.9023
530.2853, 363.5591
530.7675, 362.6978
531.2496, 362.2475
531.7317, 362.1552
532.2138, 362.4095
532.6959, 362.7504
533.1780, 362.8572
533.6602, 362.6894
534.1423, 362.5255
534.6244, 362.2601
535.1065, 362.1070
535.5886, 362.3925
536.0707, 362.7699
536.5529, 362.6100
537.0350, 361.6815
537.5171, 360.5183
537.9992, 360.0839
538.4813, 360.6081
538.9634, 360.6761
539.4456, 359.9419
539.9277, 359.0457
540.4098, 358.0049
540.8919, 357.0616
541.3740, 356.7451
541.8561, 357.4875
542.3383, 358.4561
542.8204, 358.5731
543.3025, 357.9238
543.7846, 357.3114
544.2667, 356.9034
544.7488, 356.6446
545.2310, 356.5036
545.7131, 356.4697
546.1952, 356.4898
546.6773, 356.5791
547.1594, 356.6980
547.6415, 356.9547
548.1237, 357.2173
548.6058, 357.1234
549.0879, 356.5175
549.5700, 355.6743
550.0521, 355.0255
550.5342, 354.5661
551.0164, 354.3508
551.4985, 354.4782
551.9806, 354.7107
552.4627, 355.0982
552.9448, 355.4868
553.4269, 355.5807
553.9091, 355.2220
554.3912, 354.6862
554.8733, 354.5415
555.3554, 354.8986
555.8375, 354.8423
556.3196, 353.9008
556.8018, 352.9234
557.2839, 352.4170
557.7660, 352.2976
558.2481, 352.3454
558.7302, 352.5979
559.2123, 352.8476
559.6945, 352.8668
560.1766, 352.6938
560.6587, 352.5005
561.1408, 352.3448
561.6229, 352.1646
562.1050, 351.8443
562.5872, 351.3446
563.0693, 351.0458
563.5514, 351.1819
564.0335, 351.2905
564.5156, 350.9951
564.9977, 350.5339
565.4799, 350.4526
565.9620, 350.9551
566.4441, 351.5468
566.9262, 351.3742
567.4083, 350.1771
567.8904, 349.2648
568.3726, 348.5679
568.8547, 348.2592
569.3368, 348.7676
569.8189, 349.6127
570.3010, 349.9757
570.7831, 349.4992
571.2653, 348.7750
571.7474, 348.6000
572.2295, 348.8729
572.7116, 348.6772
573.1937, 347.6797
573.6758, 346.6682
574.1580, 346.3657
574.6401, 346.6127
575.1222, 346.7816
575.6043, 346.6962
576.0864, 346.6559
576.5685, 346.9518
577.0507, 347.3489
577.5328, 347.3905
578.0149, 346.9812
578.4970, 346.4878
578.9791, 346.3022
579.4612, 346.4364
579.9434, 346.5918
580.4255, 347.0220
580.9076, 347.1684
581.3897, 346.7313
581.8718, 346.0612
582.3539, 345.4828
582.8361, 345.0895
583.3182, 344.8851
583.8003, 345.0328
584.2824, 345.4390
584.7645, 345.3287
585.2466, 344.4808
585.7288, 343.7327
586.2108, 343.5043
586.6929, 343.6220
