##NAMES=Cobaltaustinite
##RRUFFID=R050536
##IDEAL CHEMISTRY=CaCo^2+^As^5+^O_4_(OH)
##LOCALITY=Dome Rock, Mingary, South Australia, Australia
##OWNER=RRUFF
##SOURCE=University of Arizona Mineral Museum
##DESCRIPTION=Dark-green drusy coating
##STATUS=The identification of this mineral is confirmed by single-crystal X-ray diffraction and chemical analysis.
##URL=rruff.info/R050536
##MEASURED CHEMISTRY=Ca_1.00_(Co_0.95_Cu_0.05_)_Î£=1_As_1.00_O_4_(OH) ; (OH) estimated by difference and stoichiometry
91.87140, 0.0000000E+00
92.35352, 18.78402
92.83563, 17.95202
93.31775, 17.59802
93.79987, 17.86077
94.28198, 18.62010
94.76410, 19.52748
95.24622, 20.47724
95.72833, 21.57313
96.21045, 22.98469
96.69257, 24.71633
97.17468, 26.77479
97.65680, 29.22555
98.13892, 32.07162
98.62103, 34.98336
99.10315, 37.72959
99.58527, 40.41372
100.0674, 43.58896
100.5495, 47.22303
101.0316, 51.36156
101.5137, 56.01060
101.9958, 61.22958
102.4780, 66.85458
102.9601, 72.78533
103.4422, 78.99406
103.9243, 85.67274
104.4064, 92.93626
104.8885, 100.6308
105.3707, 108.6660
105.8528, 116.9746
106.3349, 125.6232
106.8170, 134.5952
107.2991, 144.0342
107.7813, 153.5416
108.2634, 163.3685
108.7455, 173.3470
109.2276, 182.5589
109.7097, 190.6704
110.1918, 198.3355
110.6740, 205.8365
111.1561, 212.7602
111.6382, 219.9918
112.1203, 227.3607
112.6024, 235.0219
113.0845, 243.5095
113.5667, 252.9337
114.0488, 263.1578
114.5309, 274.2057
115.0130, 286.4005
115.4951, 299.0186
115.9772, 311.7701
116.4594, 324.7748
116.9415, 338.4899
117.4236, 353.8327
117.9057, 369.7487
118.3878, 385.0435
118.8699, 399.3596
119.3521, 413.0561
119.8342, 426.5830
120.3163, 440.0017
120.7984, 452.8300
121.2805, 464.5711
121.7626, 475.5354
122.2448, 486.2536
122.7269, 497.4268
123.2090, 508.2552
123.6911, 517.9611
124.1732, 526.4257
124.6553, 533.9199
125.1375, 540.2649
125.6196, 545.7294
126.1017, 551.1649
126.5838, 556.6364
127.0659, 562.4894
127.5480, 569.5778
128.0302, 578.4576
128.5123, 587.7853
128.9944, 595.4051
129.4765, 601.5018
129.9586, 607.8006
130.4407, 615.4774
130.9229, 624.3792
131.4050, 634.0252
131.8871, 644.2884
132.3692, 655.0180
132.8513, 665.6213
133.3334, 675.0085
133.8156, 681.5461
134.2977, 686.6058
134.7798, 692.5184
135.2619, 697.6516
135.7440, 701.3595
136.2261, 704.0284
136.7083, 707.9184
137.1904, 713.3285
137.6725, 719.0893
138.1546, 724.2737
138.6367, 729.0023
139.1188, 732.7618
139.6010, 735.2775
140.0831, 736.5472
140.5652, 738.0206
141.0473, 739.8454
141.5294, 741.6828
142.0115, 742.9742
142.4937, 743.3786
142.9758, 744.0284
143.4579, 745.3658
143.9400, 747.6058
144.4221, 749.2943
144.9042, 750.0941
145.3864, 750.5057
145.8685, 751.4014
146.3506, 753.1648
146.8327, 754.8602
147.3148, 756.1406
147.7969, 756.6124
148.2791, 757.5637
148.7612, 759.6870
149.2433, 762.2321
149.7254, 763.4657
150.2075, 762.0955
150.6896, 760.5651
151.1718, 759.7615
151.6539, 759.9840
152.1360, 760.4947
152.6181, 761.4106
153.1002, 762.6267
153.5823, 763.8204
154.0645, 765.1117
154.5466, 766.2791
155.0287, 767.2108
155.5108, 767.6707
155.9929, 768.1629
156.4750, 768.8607
156.9572, 769.6714
157.4393, 770.2211
157.9214, 770.1899
158.4035, 770.0154
158.8856, 769.9713
159.3677, 769.9274
159.8499, 770.2103
160.3320, 770.8125
160.8141, 771.7652
161.2962, 773.3034
161.7783, 776.2404
162.2604, 779.4577
162.7426, 782.0327
163.2247, 783.6055
163.7068, 784.5702
164.1889, 784.5930
164.6710, 783.7900
165.1531, 783.7409
165.6353, 785.9880
166.1174, 789.1277
166.5995, 791.6488
167.0816, 792.5941
167.5637, 793.0472
168.0458, 793.5718
168.5280, 794.1720
169.0101, 794.9310
169.4922, 796.0416
169.9743, 797.3038
170.4564, 798.4343
170.9385, 799.4277
171.4207, 800.1747
171.9028, 800.3058
172.3849, 799.7646
172.8670, 799.6143
173.3491, 801.4032
173.8312, 804.1535
174.3134, 805.9963
174.7955, 805.3318
175.2776, 803.6262
175.7597, 802.4863
176.2418, 801.9880
176.7239, 802.0369
177.2061, 802.6773
177.6882, 803.8117
178.1703, 805.1516
178.6524, 807.0410
179.1345, 808.9456
179.6166, 809.7525
180.0988, 809.2560
180.5809, 808.4775
181.0630, 808.8044
181.5451, 809.9376
182.0272, 810.6663
182.5093, 809.6902
182.9915, 807.8752
183.4736, 807.4800
183.9557, 808.8423
184.4378, 810.9074
184.9199, 812.3987
185.4020, 813.3445
185.8842, 814.1636
186.3663, 814.9263
186.8484, 815.7131
187.3305, 816.9079
187.8126, 818.6961
188.2947, 820.5287
188.7769, 821.2010
189.2590, 820.7905
189.7411, 820.8644
190.2232, 822.8813
190.7053, 826.4326
191.1874, 828.7764
191.6696, 829.4590
192.1517, 829.3633
192.6338, 830.1434
193.1159, 831.8279
193.5980, 833.6442
194.0801, 835.1882
194.5623, 836.4619
195.0444, 837.5806
195.5265, 838.5290
196.0086, 839.3356
196.4907, 840.0289
196.9728, 840.5902
197.4550, 841.1465
197.9371, 841.7936
198.4192, 842.5326
198.9013, 843.2569
199.3834, 844.0627
199.8655, 844.7379
200.3477, 844.4440
200.8298, 842.8572
201.3119, 841.7899
201.7940, 842.6627
202.2761, 845.6996
202.7582, 848.1257
203.2404, 849.5079
203.7225, 850.2859
204.2046, 851.6963
204.6867, 853.8658
205.1688, 856.2643
205.6509, 858.5670
206.1331, 860.7757
206.6152, 862.9603
207.0973, 865.0801
207.5794, 867.2059
208.0615, 869.5518
208.5436, 872.1328
209.0258, 874.9055
209.5079, 877.9283
209.9900, 881.3186
210.4721, 884.3206
210.9542, 886.8049
211.4363, 888.8726
211.9185, 890.8311
212.4006, 892.6064
212.8827, 894.4277
213.3648, 896.5729
213.8469, 899.4188
214.3290, 901.2804
214.8112, 901.9720
215.2933, 901.5908
215.7754, 900.3563
216.2575, 897.8638
216.7396, 895.2595
217.2217, 893.2767
217.7039, 892.1640
218.1860, 890.9387
218.6681, 889.6126
219.1502, 888.1283
219.6323, 886.2354
220.1144, 883.7940
220.5966, 881.2297
221.0787, 878.6940
221.5608, 875.9095
222.0429, 873.9891
222.5250, 873.2649
223.0071, 873.4426
223.4893, 873.4839
223.9714, 873.4188
224.4535, 873.1969
224.9356, 872.8976
225.4177, 872.9245
225.8998, 871.8045
226.3820, 868.8509
226.8641, 864.7654
227.3462, 862.1989
227.8283, 862.0412
228.3104, 862.0310
228.7925, 860.9658
229.2747, 858.2615
229.7568, 855.7381
230.2389, 853.3926
230.7210, 851.2455
231.2031, 849.4447
231.6852, 848.0125
232.1674, 846.8831
232.6495, 846.1378
233.1316, 846.2450
233.6137, 845.6245
234.0958, 843.8079
234.5779, 841.3414
235.0601, 839.8795
235.5422, 840.1451
236.0243, 840.3531
236.5064, 839.5535
236.9885, 836.7211
237.4706, 835.2209
237.9528, 835.6297
238.4349, 837.2365
238.9170, 838.2654
239.3991, 838.4009
239.8812, 838.4260
240.3633, 838.6535
240.8455, 839.1246
241.3276, 839.7385
241.8097, 840.7729
242.2918, 841.8389
242.7739, 841.9564
243.2560, 840.3527
243.7382, 839.0008
244.2203, 838.7323
244.7024, 840.0345
245.1845, 841.0363
245.6666, 841.5370
246.1487, 841.8352
246.6309, 842.5723
247.1130, 844.1456
247.5951, 845.5056
248.0772, 846.1950
248.5593, 845.9569
249.0414, 846.0262
249.5236, 846.6409
250.0057, 847.4039
250.4878, 847.5453
250.9699, 846.3881
251.4520, 845.8207
251.9341, 846.6658
252.4163, 849.3768
252.8984, 851.2331
253.3805, 851.9593
253.8626, 852.0435
254.3447, 852.0902
254.8268, 851.8206
255.3090, 852.1069
255.7911, 853.4448
256.2732, 856.0744
256.7553, 857.7043
257.2374, 857.8607
257.7195, 857.4895
258.2017, 857.8163
258.6838, 859.2438
259.1659, 860.4562
259.6480, 861.0593
260.1301, 861.0182
260.6122, 861.2460
261.0944, 861.8734
261.5765, 862.6153
262.0586, 863.1096
262.5407, 863.1522
263.0228, 863.5457
263.5049, 864.6024
263.9871, 866.2945
264.4692, 867.5251
264.9513, 868.1176
265.4334, 868.5582
265.9155, 869.3634
266.3976, 870.6927
266.8798, 871.7745
267.3619, 872.3411
267.8440, 872.4963
268.3261, 873.0829
268.8082, 874.2117
269.2903, 875.5272
269.7725, 876.8531
270.2546, 878.2859
270.7367, 879.1019
271.2188, 878.8107
271.7009, 877.8765
272.1830, 878.5099
272.6652, 881.2018
273.1473, 884.0931
273.6294, 885.8615
274.1115, 886.2943
274.5936, 886.8217
275.0757, 887.5311
275.5579, 888.4574
276.0400, 889.8372
276.5221, 891.8340
277.0042, 893.5919
277.4863, 894.4399
277.9684, 894.2858
278.4506, 894.4550
278.9327, 895.0869
279.4148, 896.0248
279.8969, 896.9688
280.3790, 897.9249
280.8611, 898.8857
281.3433, 899.8323
281.8254, 900.7746
282.3075, 901.9131
282.7896, 903.4181
283.2717, 904.7975
283.7538, 905.0314
284.2360, 904.0736
284.7181, 903.2859
285.2002, 903.2820
285.6823, 904.0010
286.1644, 904.9509
286.6465, 906.1578
287.1287, 907.4485
287.6108, 908.6796
288.0929, 909.8350
288.5750, 910.7132
289.0571, 911.0588
289.5392, 911.0577
290.0214, 911.4545
290.5035, 912.2657
290.9856, 913.3089
291.4677, 914.5712
291.9498, 915.9859
292.4319, 917.0646
292.9141, 917.4905
293.3962, 917.5980
293.8783, 918.1875
294.3604, 919.2687
294.8425, 920.5195
295.3246, 921.8239
295.8068, 923.1228
296.2889, 924.1034
296.7710, 924.4661
297.2531, 924.7777
297.7352, 926.0922
298.2173, 928.3144
298.6995, 930.6996
299.1816, 932.4750
299.6637, 934.0251
300.1458, 936.2021
300.6279, 939.3559
301.1100, 942.7573
301.5922, 945.4999
302.0743, 947.6661
302.5564, 949.6189
303.0385, 951.6588
303.5206, 953.5773
304.0027, 954.9377
304.4849, 955.4764
304.9670, 956.2125
305.4491, 958.2037
305.9312, 961.1489
306.4133, 964.3292
306.8954, 967.7875
307.3776, 971.1199
307.8597, 973.7112
308.3418, 975.4981
308.8239, 977.3240
309.3060, 980.0660
309.7881, 983.2656
310.2703, 986.1020
310.7524, 987.5908
311.2345, 989.1291
311.7166, 991.7256
312.1987, 995.3777
312.6808, 999.4310
313.1630, 1003.658
313.6451, 1008.065
314.1272, 1012.701
314.6093, 1018.047
315.0914, 1023.098
315.5735, 1026.896
316.0557, 1029.719
316.5378, 1033.080
317.0199, 1037.860
317.5020, 1043.261
317.9841, 1048.798
318.4662, 1054.282
318.9484, 1059.844
319.4305, 1065.623
319.9126, 1071.524
320.3947, 1077.292
320.8768, 1082.660
321.3589, 1088.031
321.8411, 1093.521
322.3232, 1098.813
322.8053, 1104.911
323.2874, 1112.480
323.7695, 1120.880
324.2516, 1129.094
324.7338, 1137.211
325.2159, 1144.887
325.6980, 1151.955
326.1801, 1158.341
326.6622, 1164.510
327.1443, 1170.631
327.6265, 1176.542
328.1086, 1182.106
328.5907, 1187.965
329.0728, 1192.702
329.5549, 1195.890
330.0370, 1197.529
330.5192, 1198.916
331.0013, 1200.117
331.4834, 1201.032
331.9655, 1201.620
332.4476, 1201.993
332.9297, 1201.797
333.4119, 1200.636
333.8940, 1198.834
334.3761, 1197.921
334.8582, 1198.382
335.3403, 1198.962
335.8224, 1198.888
336.3046, 1197.630
336.7867, 1197.369
337.2688, 1198.609
337.7509, 1200.498
338.2330, 1201.243
338.7151, 1200.498
339.1973, 1199.679
339.6794, 1199.441
340.1615, 1199.847
340.6436, 1199.778
341.1257, 1199.292
341.6078, 1198.275
342.0900, 1196.319
342.5721, 1193.387
343.0542, 1190.765
343.5363, 1189.037
344.0184, 1187.955
344.5005, 1186.197
344.9827, 1183.682
345.4648, 1181.250
345.9469, 1179.755
346.4290, 1179.082
346.9111, 1178.529
347.3932, 1177.958
347.8754, 1177.384
348.3575, 1176.952
348.8396, 1176.617
349.3217, 1176.042
349.8038, 1174.384
350.2859, 1172.319
350.7681, 1171.814
351.2502, 1173.417
351.7323, 1175.306
352.2144, 1175.361
352.6965, 1173.974
353.1786, 1172.326
353.6608, 1170.416
354.1429, 1168.873
354.6250, 1168.869
355.1071, 1170.518
355.5892, 1172.066
356.0714, 1171.824
356.5535, 1170.707
357.0356, 1170.067
357.5177, 1171.299
357.9998, 1172.438
358.4819, 1171.563
358.9641, 1169.072
359.4462, 1167.205
359.9283, 1168.104
360.4104, 1169.598
360.8925, 1169.875
361.3746, 1168.256
361.8568, 1165.804
362.3389, 1162.641
362.8210, 1158.949
363.3031, 1155.083
363.7852, 1151.050
364.2673, 1146.940
364.7495, 1142.781
365.2316, 1138.561
365.7137, 1134.327
366.1958, 1130.398
366.6779, 1126.398
367.1600, 1121.850
367.6422, 1116.464
368.1243, 1110.775
368.6064, 1104.234
369.0885, 1096.707
369.5706, 1091.487
370.0527, 1090.762
370.5349, 1090.635
371.0170, 1088.480
371.4991, 1082.728
371.9812, 1077.654
372.4633, 1073.465
372.9454, 1070.147
373.4276, 1067.762
373.9097, 1066.544
374.3918, 1065.822
374.8739, 1065.440
375.3560, 1065.569
375.8381, 1065.127
376.3203, 1063.751
376.8024, 1062.273
377.2845, 1062.172
377.7666, 1063.726
378.2487, 1065.102
378.7308, 1065.605
379.2130, 1065.375
379.6951, 1065.183
380.1772, 1064.930
380.6593, 1065.179
381.1414, 1066.958
381.6235, 1070.020
382.1057, 1072.146
382.5878, 1072.678
383.0699, 1072.304
383.5520, 1072.164
384.0341, 1072.254
384.5162, 1072.524
384.9984, 1072.919
385.4805, 1073.478
385.9626, 1074.465
386.4447, 1076.030
386.9268, 1077.328
387.4089, 1077.159
387.8911, 1076.050
388.3732, 1075.192
388.8553, 1075.162
389.3374, 1075.588
389.8195, 1076.349
390.3016, 1077.389
390.7838, 1078.117
391.2659, 1078.300
391.7480, 1077.917
392.2301, 1076.880
392.7122, 1074.547
393.1943, 1072.439
393.6765, 1071.640
394.1586, 1071.708
394.6407, 1071.379
395.1228, 1069.836
395.6049, 1068.117
396.0870, 1066.750
396.5692, 1065.933
397.0513, 1065.072
397.5334, 1063.904
398.0155, 1062.674
398.4976, 1061.703
398.9797, 1060.731
399.4619, 1060.303
399.9440, 1060.726
400.4261, 1061.983
400.9082, 1062.891
401.3903, 1063.208
401.8724, 1063.373
402.3546, 1063.639
402.8367, 1063.964
403.3188, 1064.483
403.8009, 1065.349
404.2830, 1066.350
404.7651, 1066.759
405.2473, 1066.142
405.7294, 1066.191
406.2115, 1068.054
406.6936, 1071.814
407.1757, 1073.807
407.6578, 1073.549
408.1400, 1072.868
408.6221, 1074.084
409.1042, 1077.154
409.5863, 1079.973
410.0684, 1081.785
410.5505, 1083.149
411.0327, 1085.620
411.5148, 1089.180
411.9969, 1092.852
412.4790, 1095.955
412.9611, 1098.697
413.4432, 1101.408
413.9254, 1104.066
414.4075, 1107.099
414.8896, 1111.413
415.3717, 1116.494
415.8538, 1121.100
416.3359, 1124.256
416.8181, 1126.880
417.3002, 1129.802
417.7823, 1133.053
418.2644, 1135.988
418.7465, 1138.219
419.2286, 1140.020
419.7108, 1141.634
420.1929, 1143.266
420.6750, 1144.534
421.1571, 1144.815
421.6392, 1144.576
422.1213, 1145.036
422.6035, 1147.398
423.0856, 1149.766
423.5677, 1151.340
424.0498, 1151.839
424.5319, 1152.334
425.0140, 1152.702
425.4962, 1153.238
425.9783, 1154.264
426.4604, 1156.301
426.9425, 1158.119
427.4246, 1159.568
427.9067, 1160.683
428.3889, 1161.591
428.8710, 1162.374
429.3531, 1162.809
429.8352, 1162.860
430.3173, 1162.623
430.7994, 1161.421
431.2816, 1159.151
431.7637, 1156.015
432.2458, 1152.162
432.7279, 1147.530
433.2100, 1142.979
433.6921, 1138.935
434.1743, 1135.147
434.6564, 1130.771
435.1385, 1125.737
435.6206, 1120.518
436.1027, 1115.358
436.5848, 1110.319
437.0670, 1105.551
437.5491, 1101.037
438.0312, 1096.922
438.5133, 1093.321
438.9954, 1090.217
439.4775, 1087.541
439.9597, 1085.687
440.4418, 1084.001
440.9239, 1081.616
441.4060, 1078.492
441.8881, 1076.032
442.3702, 1075.640
442.8524, 1076.057
443.3345, 1076.060
443.8166, 1074.839
444.2987, 1073.710
444.7808, 1072.964
445.2629, 1072.585
445.7451, 1072.547
446.2272, 1073.036
446.7093, 1073.675
447.1914, 1074.297
447.6735, 1074.812
448.1556, 1075.548
448.6378, 1076.430
449.1199, 1077.567
449.6020, 1079.153
450.0841, 1081.525
450.5662, 1083.575
451.0483, 1085.058
451.5305, 1086.106
452.0126, 1087.194
452.4947, 1088.263
452.9768, 1089.585
453.4589, 1091.557
453.9410, 1094.220
454.4232, 1096.004
454.9053, 1096.751
455.3874, 1097.076
455.8695, 1097.456
456.3516, 1097.983
456.8337, 1099.363
457.3159, 1102.079
457.7980, 1105.586
458.2801, 1109.243
458.7622, 1112.959
459.2443, 1116.193
459.7264, 1118.145
460.2086, 1119.551
460.6907, 1121.328
461.1728, 1123.643
461.6549, 1126.229
462.1370, 1128.948
462.6191, 1131.783
463.1013, 1134.648
463.5834, 1138.059
464.0655, 1140.985
464.5476, 1142.625
465.0297, 1143.127
465.5118, 1143.892
465.9940, 1146.043
466.4761, 1147.967
466.9582, 1148.740
467.4403, 1147.706
467.9224, 1146.536
468.4045, 1145.195
468.8867, 1143.772
469.3688, 1142.370
469.8509, 1141.067
470.3330, 1139.726
470.8151, 1138.448
471.2972, 1137.182
471.7794, 1135.114
472.2615, 1131.883
472.7436, 1128.817
473.2257, 1127.039
473.7078, 1126.574
474.1899, 1125.687
474.6721, 1124.223
475.1542, 1122.348
475.6363, 1120.070
476.1184, 1117.483
476.6005, 1115.192
477.0826, 1113.349
477.5648, 1112.000
478.0469, 1111.436
478.5290, 1111.570
479.0111, 1111.597
479.4932, 1110.997
479.9753, 1109.955
480.4575, 1108.600
480.9396, 1106.826
481.4217, 1105.172
481.9038, 1104.008
482.3859, 1103.190
482.8680, 1102.526
483.3502, 1101.884
483.8323, 1101.439
484.3144, 1101.331
484.7965, 1101.528
485.2786, 1101.654
485.7607, 1101.734
486.2429, 1101.638
486.7250, 1101.294
487.2071, 1100.625
487.6892, 1099.845
488.1713, 1098.764
488.6534, 1097.722
489.1356, 1097.242
489.6177, 1097.502
490.0998, 1097.907
490.5819, 1098.473
491.0640, 1099.096
491.5461, 1099.112
492.0283, 1098.484
492.5104, 1097.667
492.9925, 1096.954
493.4746, 1096.319
493.9567, 1095.636
494.4388, 1094.865
494.9210, 1094.107
495.4031, 1093.354
495.8852, 1092.671
496.3673, 1092.255
496.8494, 1092.447
497.3315, 1092.637
497.8137, 1091.997
498.2958, 1090.746
498.7779, 1089.867
499.2600, 1090.595
499.7421, 1091.361
500.2242, 1090.804
500.7064, 1088.322
501.1885, 1086.540
501.6706, 1087.148
502.1527, 1088.476
502.6348, 1088.832
503.1169, 1087.117
503.5991, 1085.510
504.0812, 1084.293
504.5633, 1083.385
505.0454, 1082.402
505.5275, 1081.183
506.0096, 1080.198
506.4918, 1079.601
506.9739, 1079.380
507.4560, 1079.741
507.9381, 1080.895
508.4202, 1082.047
508.9023, 1082.432
509.3845, 1082.063
509.8666, 1081.075
510.3487, 1079.205
510.8308, 1077.265
511.3129, 1076.954
511.7950, 1077.929
512.2772, 1078.571
512.7593, 1077.648
513.2414, 1076.126
513.7235, 1074.951
514.2056, 1074.167
514.6877, 1074.047
515.1699, 1075.377
515.6520, 1077.124
516.1341, 1078.370
516.6162, 1078.952
517.0983, 1078.910
517.5804, 1077.534
518.0626, 1075.672
518.5447, 1074.723
519.0268, 1075.787
519.5089, 1076.833
519.9910, 1077.286
520.4731, 1077.206
520.9553, 1077.627
521.4374, 1079.034
521.9195, 1080.225
522.4016, 1080.409
522.8837, 1079.333
523.3658, 1078.640
523.8480, 1078.394
524.3301, 1078.464
524.8122, 1078.837
525.2943, 1079.488
525.7764, 1079.836
526.2585, 1079.614
526.7407, 1079.144
527.2228, 1079.037
527.7049, 1079.235
528.1870, 1079.392
528.6691, 1079.235
529.1512, 1078.947
529.6334, 1078.573
530.1155, 1078.085
530.5976, 1078.085
531.0797, 1079.554
531.5618, 1081.367
532.0439, 1082.356
532.5261, 1081.385
533.0082, 1080.766
533.4903, 1081.454
533.9724, 1082.848
534.4545, 1083.682
534.9366, 1083.052
535.4188, 1082.774
535.9009, 1083.485
536.3830, 1085.157
536.8651, 1086.139
537.3472, 1086.342
537.8293, 1086.081
538.3115, 1085.271
538.7936, 1083.812
539.2757, 1083.651
539.7578, 1085.247
540.2399, 1087.142
540.7220, 1086.893
541.2042, 1084.966
541.6863, 1084.098
542.1684, 1085.641
542.6505, 1088.034
543.1326, 1089.032
543.6147, 1088.910
544.0969, 1088.760
544.5790, 1089.064
545.0611, 1089.689
545.5432, 1090.797
546.0253, 1092.441
546.5074, 1093.423
546.9896, 1092.587
547.4717, 1091.235
547.9538, 1090.432
548.4359, 1090.995
548.9180, 1091.251
549.4001, 1090.796
549.8823, 1090.058
550.3644, 1089.726
550.8465, 1089.786
551.3286, 1090.326
551.8107, 1091.543
552.2928, 1093.316
552.7750, 1094.711
553.2571, 1095.728
553.7392, 1096.429
554.2213, 1096.905
554.7034, 1097.110
555.1855, 1096.652
555.6677, 1095.419
556.1498, 1094.160
556.6319, 1093.606
557.1140, 1093.619
557.5961, 1093.974
558.0782, 1094.793
558.5604, 1095.606
559.0425, 1096.034
559.5246, 1096.159
560.0067, 1096.152
560.4888, 1095.583
560.9709, 1095.354
561.4531, 1096.239
561.9352, 1098.248
562.4173, 1099.425
562.8994, 1098.661
563.3815, 1097.693
563.8636, 1097.407
564.3458, 1098.123
564.8279, 1098.775
565.3100, 1099.631
565.7921, 1100.108
566.2742, 1099.106
566.7563, 1096.390
567.2385, 1094.531
567.7206, 1094.219
568.2027, 1094.916
568.6848, 1095.516
569.1669, 1096.062
569.6490, 1096.824
570.1312, 1098.275
570.6133, 1099.887
571.0954, 1100.914
571.5775, 1101.357
572.0596, 1101.381
572.5417, 1100.712
573.0239, 1099.898
573.5060, 1099.364
573.9881, 1099.082
574.4702, 1099.361
574.9523, 1100.772
575.4344, 1102.635
575.9166, 1104.078
576.3987, 1105.143
576.8808, 1105.670
577.3629, 1105.421
577.8450, 1104.646
578.3271, 1104.112
578.8093, 1103.784
579.2914, 1103.765
579.7735, 1103.995
580.2556, 1104.516
580.7377, 1106.141
581.2198, 1108.980
581.7020, 1111.454
582.1841, 1111.826
582.6662, 1110.861
583.1483, 1110.424
583.6304, 1110.814
584.1125, 1111.457
584.5947, 1112.255
585.0768, 1112.894
585.5589, 1112.902
586.0410, 1111.510
