##NAMES=Colemanite
##RRUFFID=R050331
##IDEAL CHEMISTRY=CaB_3_O_4_(OH)_3_&#183;H_2_O
##LOCALITY=Thompson mine, Death Valley, Inyo County, California, USA
##OWNER=RRUFF
##SOURCE=California Institute of Technology
##DESCRIPTION=Colorless fragment
##STATUS=The identification of this mineral has been confirmed by X-ray diffraction and chemical analysis
##URL=rruff.info/R050331
##MEASURED CHEMISTRY=Ca_1.00_B_3.00_O_4_(OH)_3_Â·H_2_O ; B not measured but assumed by stoichiometry and charge balance.
92.52344, 2698.241
93.00555, 2680.986
93.48767, 2685.245
93.96979, 2770.072
94.45190, 2851.864
94.93402, 2915.375
95.41614, 2931.989
95.89825, 2924.242
96.38037, 2919.853
96.86249, 2915.108
97.34460, 2899.342
97.82672, 2874.467
98.30884, 2845.429
98.79095, 2813.497
99.27307, 2775.034
99.75519, 2728.128
100.2373, 2680.066
100.7194, 2632.808
101.2015, 2586.427
101.6837, 2538.576
102.1658, 2491.737
102.6479, 2445.656
103.1300, 2399.342
103.6121, 2359.445
104.0942, 2334.234
104.5764, 2318.070
105.0585, 2304.667
105.5406, 2291.991
106.0227, 2280.104
106.5048, 2269.185
106.9869, 2257.288
107.4691, 2248.048
107.9512, 2244.778
108.4333, 2245.404
108.9154, 2244.981
109.3975, 2239.042
109.8796, 2226.698
110.3618, 2214.073
110.8439, 2199.478
111.3260, 2185.775
111.8081, 2174.471
112.2902, 2165.661
112.7723, 2158.239
113.2544, 2150.726
113.7366, 2142.807
114.2187, 2135.455
114.7008, 2128.754
115.1829, 2122.463
115.6650, 2116.479
116.1471, 2110.743
116.6293, 2105.126
117.1114, 2099.355
117.5935, 2093.612
118.0756, 2087.423
118.5577, 2079.872
119.0398, 2071.689
119.5220, 2064.587
120.0041, 2059.513
120.4862, 2055.985
120.9683, 2052.584
121.4504, 2049.226
121.9325, 2046.086
122.4147, 2043.336
122.8968, 2040.978
123.3789, 2038.830
123.8610, 2036.282
124.3431, 2034.079
124.8252, 2033.264
125.3074, 2034.627
125.7895, 2036.963
126.2716, 2037.625
126.7537, 2035.517
127.2358, 2033.599
127.7179, 2032.986
128.2001, 2033.057
128.6822, 2033.138
129.1643, 2033.000
129.6464, 2032.532
130.1285, 2030.301
130.6107, 2024.280
131.0928, 2018.292
131.5749, 2013.265
132.0570, 2009.052
132.5391, 2004.903
133.0212, 2000.031
133.5034, 1994.009
133.9855, 1990.635
134.4676, 1991.523
134.9497, 1993.184
135.4318, 1994.017
135.9139, 1993.751
136.3960, 1992.563
136.8782, 1990.300
137.3603, 1986.534
137.8424, 1984.386
138.3245, 1984.902
138.8066, 1986.790
139.2887, 1988.509
139.7709, 1989.629
140.2530, 1990.912
140.7351, 1993.106
141.2172, 1996.049
141.6993, 2000.252
142.1814, 2007.180
142.6636, 2015.833
143.1457, 2022.372
143.6278, 2024.689
144.1099, 2025.965
144.5920, 2028.815
145.0741, 2033.285
145.5563, 2038.637
146.0384, 2044.325
146.5205, 2050.339
147.0026, 2056.706
147.4847, 2064.675
147.9668, 2072.202
148.4490, 2078.042
148.9311, 2081.937
149.4132, 2084.673
149.8953, 2087.508
150.3774, 2091.196
150.8595, 2093.278
151.3417, 2092.387
151.8238, 2090.778
152.3059, 2090.196
152.7880, 2091.296
153.2701, 2093.570
153.7522, 2095.741
154.2344, 2097.415
154.7165, 2099.417
155.1986, 2101.573
155.6807, 2104.120
156.1628, 2107.522
156.6449, 2112.078
157.1271, 2117.396
157.6092, 2121.847
158.0913, 2124.147
158.5734, 2127.206
159.0555, 2132.265
159.5376, 2138.781
160.0198, 2145.355
160.5019, 2151.260
160.9840, 2156.613
161.4661, 2161.925
161.9482, 2167.210
162.4303, 2172.450
162.9125, 2177.839
163.3946, 2183.350
163.8767, 2188.302
164.3588, 2192.977
164.8409, 2196.450
165.3230, 2197.218
165.8052, 2194.479
166.2873, 2189.400
166.7694, 2183.426
167.2515, 2176.555
167.7336, 2168.661
168.2157, 2159.130
168.6979, 2148.743
169.1800, 2138.245
169.6621, 2127.883
170.1442, 2117.663
170.6263, 2107.502
171.1084, 2097.238
171.5906, 2087.375
172.0727, 2078.002
172.5548, 2069.046
173.0369, 2060.325
173.5190, 2051.648
174.0011, 2043.114
174.4833, 2035.590
174.9654, 2030.757
175.4475, 2025.243
175.9296, 2018.863
176.4117, 2011.276
176.8938, 2001.857
177.3760, 1989.979
177.8581, 1975.561
178.3402, 1961.727
178.8223, 1948.610
179.3044, 1935.900
179.7865, 1923.181
180.2687, 1910.736
180.7508, 1899.452
181.2329, 1890.280
181.7150, 1883.432
182.1971, 1876.201
182.6792, 1867.302
183.1614, 1859.130
183.6435, 1853.424
184.1256, 1850.115
184.6077, 1847.470
185.0898, 1843.937
185.5719, 1839.457
186.0541, 1835.644
186.5362, 1832.860
187.0183, 1830.559
187.5004, 1828.398
187.9825, 1826.348
188.4646, 1824.110
188.9468, 1820.773
189.4289, 1816.808
189.9110, 1814.310
190.3931, 1814.923
190.8752, 1816.938
191.3573, 1817.762
191.8395, 1817.079
192.3216, 1815.556
192.8037, 1813.254
193.2858, 1810.517
193.7679, 1808.126
194.2500, 1806.723
194.7322, 1805.981
195.2143, 1804.707
195.6964, 1802.355
196.1785, 1800.340
196.6606, 1799.711
197.1427, 1799.955
197.6249, 1799.931
198.1070, 1798.580
198.5891, 1796.111
199.0712, 1794.701
199.5533, 1795.182
200.0354, 1795.883
200.5176, 1796.228
200.9997, 1796.272
201.4818, 1796.270
201.9639, 1796.539
202.4460, 1797.109
202.9281, 1796.792
203.4103, 1793.948
203.8924, 1791.682
204.3745, 1791.057
204.8566, 1791.849
205.3387, 1793.372
205.8208, 1795.189
206.3030, 1797.476
206.7851, 1798.446
207.2672, 1796.967
207.7493, 1795.399
208.2314, 1794.253
208.7135, 1793.775
209.1957, 1794.354
209.6778, 1796.538
210.1599, 1800.699
210.6420, 1803.370
211.1241, 1803.175
211.6062, 1802.967
212.0884, 1804.247
212.5705, 1806.972
213.0526, 1810.188
213.5347, 1813.067
214.0168, 1815.543
214.4989, 1818.388
214.9811, 1821.837
215.4632, 1825.440
215.9453, 1828.893
216.4274, 1832.196
216.9095, 1835.546
217.3916, 1839.150
217.8737, 1843.037
218.3559, 1846.768
218.8380, 1850.275
219.3201, 1853.717
219.8022, 1857.439
220.2843, 1861.473
220.7664, 1865.011
221.2486, 1866.547
221.7307, 1866.911
222.2128, 1869.530
222.6949, 1877.210
223.1770, 1886.185
223.6591, 1891.728
224.1413, 1893.251
224.6234, 1894.587
225.1055, 1898.891
225.5876, 1904.918
226.0697, 1910.506
226.5518, 1914.886
227.0340, 1918.597
227.5161, 1922.248
227.9982, 1925.692
228.4803, 1929.578
228.9624, 1934.809
229.4445, 1940.556
229.9267, 1945.690
230.4088, 1949.221
230.8909, 1952.343
231.3730, 1957.480
231.8551, 1965.342
232.3372, 1973.455
232.8194, 1980.259
233.3015, 1986.922
233.7836, 1995.007
234.2657, 2005.408
234.7478, 2017.200
235.2299, 2028.334
235.7121, 2038.750
236.1942, 2048.677
236.6763, 2058.721
237.1584, 2068.225
237.6405, 2076.434
238.1227, 2082.986
238.6048, 2088.350
239.0869, 2093.802
239.5690, 2100.168
240.0511, 2105.060
240.5332, 2107.956
241.0154, 2109.472
241.4975, 2110.424
241.9796, 2111.192
242.4617, 2110.990
242.9438, 2107.698
243.4259, 2099.310
243.9081, 2090.688
244.3902, 2082.651
244.8723, 2074.581
245.3544, 2065.944
245.8365, 2056.486
246.3186, 2046.329
246.8008, 2035.598
247.2829, 2023.828
247.7650, 2012.148
248.2471, 1999.474
248.7292, 1987.452
249.2113, 1978.040
249.6935, 1971.795
250.1756, 1967.113
250.6577, 1960.769
251.1398, 1949.902
251.6219, 1941.646
252.1040, 1938.140
252.5862, 1936.022
253.0683, 1932.186
253.5504, 1925.791
254.0325, 1918.305
254.5146, 1912.107
254.9967, 1907.959
255.4789, 1903.958
255.9610, 1899.480
256.4431, 1895.531
256.9252, 1893.244
257.4073, 1892.822
257.8894, 1893.203
258.3716, 1892.977
258.8537, 1891.852
259.3358, 1890.848
259.8179, 1889.998
260.3000, 1889.255
260.7821, 1888.524
261.2643, 1887.801
261.7464, 1887.231
262.2285, 1886.919
262.7106, 1886.856
263.1927, 1887.396
263.6748, 1888.780
264.1570, 1890.603
264.6391, 1892.686
265.1212, 1894.966
265.6033, 1897.116
266.0854, 1898.793
266.5675, 1899.945
267.0497, 1901.023
267.5318, 1902.249
268.0139, 1903.244
268.4960, 1903.308
268.9781, 1902.498
269.4602, 1902.244
269.9424, 1903.865
270.4245, 1907.138
270.9066, 1909.813
271.3887, 1912.688
271.8708, 1914.329
272.3529, 1912.735
272.8351, 1908.207
273.3172, 1904.332
273.7993, 1903.699
274.2814, 1905.299
274.7635, 1905.508
275.2456, 1903.510
275.7278, 1900.963
276.2099, 1898.585
276.6920, 1896.463
277.1741, 1895.388
277.6562, 1896.216
278.1383, 1898.077
278.6205, 1898.905
279.1026, 1898.016
279.5847, 1897.573
280.0668, 1899.263
280.5489, 1902.793
281.0310, 1906.398
281.5132, 1909.410
281.9953, 1912.276
282.4774, 1915.471
282.9595, 1918.933
283.4416, 1922.996
283.9237, 1928.133
284.4059, 1934.104
284.8880, 1939.760
285.3701, 1944.057
285.8522, 1949.081
286.3343, 1957.285
286.8164, 1968.498
287.2986, 1979.844
287.7807, 1989.387
288.2628, 1997.830
288.7449, 2007.490
289.2270, 2019.197
289.7091, 2031.314
290.1913, 2042.755
290.6734, 2053.562
291.1555, 2064.106
291.6376, 2074.609
292.1197, 2084.888
292.6018, 2094.446
293.0840, 2102.727
293.5661, 2111.442
294.0482, 2121.679
294.5303, 2133.063
295.0124, 2145.268
295.4945, 2158.281
295.9767, 2171.883
296.4588, 2185.565
296.9409, 2199.162
297.4230, 2213.461
297.9051, 2228.610
298.3872, 2244.915
298.8694, 2263.196
299.3515, 2284.221
299.8336, 2306.409
300.3157, 2327.724
300.7978, 2348.095
301.2799, 2368.771
301.7621, 2390.095
302.2442, 2412.148
302.7263, 2435.017
303.2084, 2458.688
303.6905, 2483.566
304.1726, 2511.081
304.6548, 2541.344
305.1369, 2570.179
305.6190, 2597.235
306.1011, 2621.895
306.5832, 2643.941
307.0653, 2663.324
307.5475, 2679.644
308.0296, 2694.993
308.5117, 2708.613
308.9938, 2711.004
309.4759, 2698.527
309.9580, 2676.015
310.4402, 2646.196
310.9223, 2610.132
311.4044, 2571.229
311.8865, 2530.344
312.3686, 2488.261
312.8507, 2447.382
313.3329, 2406.788
313.8150, 2369.337
314.2971, 2336.099
314.7792, 2306.371
315.2613, 2278.742
315.7434, 2252.094
316.2256, 2227.303
316.7077, 2206.668
317.1898, 2191.117
317.6719, 2176.695
318.1540, 2160.708
318.6361, 2145.176
319.1183, 2132.613
319.6004, 2124.018
320.0825, 2117.716
320.5646, 2111.949
321.0467, 2106.942
321.5288, 2101.030
322.0110, 2092.553
322.4931, 2083.634
322.9752, 2076.004
323.4573, 2069.978
323.9394, 2064.507
324.4215, 2059.536
324.9037, 2055.037
325.3858, 2047.487
325.8679, 2034.071
326.3500, 2019.533
326.8321, 2006.875
327.3142, 1996.090
327.7964, 1986.589
328.2785, 1978.557
328.7606, 1971.661
329.2427, 1964.153
329.7248, 1955.703
330.2069, 1947.074
330.6891, 1938.283
331.1712, 1929.672
331.6533, 1922.038
332.1354, 1916.449
332.6175, 1911.708
333.0996, 1905.050
333.5818, 1895.682
334.0639, 1886.853
334.5460, 1879.923
335.0281, 1874.558
335.5102, 1870.871
335.9923, 1869.294
336.4745, 1868.401
336.9566, 1866.372
337.4387, 1863.121
337.9208, 1860.315
338.4029, 1858.916
338.8850, 1857.905
339.3671, 1856.076
339.8492, 1853.245
340.3314, 1850.822
340.8135, 1850.172
341.2956, 1851.000
341.7777, 1851.471
342.2598, 1851.161
342.7419, 1850.548
343.2241, 1850.078
343.7062, 1849.706
344.1883, 1849.198
344.6704, 1848.271
345.1525, 1847.158
345.6346, 1846.344
346.1168, 1845.858
346.5989, 1845.661
347.0810, 1845.693
347.5631, 1846.001
348.0452, 1846.864
348.5273, 1849.509
349.0095, 1851.705
349.4916, 1849.842
349.9737, 1843.803
350.4558, 1839.597
350.9379, 1841.683
351.4200, 1846.305
351.9022, 1847.448
352.3843, 1844.331
352.8664, 1839.160
353.3485, 1832.462
353.8306, 1824.690
354.3127, 1817.594
354.7949, 1811.557
355.2770, 1806.502
355.7591, 1802.374
356.2412, 1799.129
356.7233, 1796.279
357.2054, 1794.063
357.6876, 1792.001
358.1697, 1789.176
358.6518, 1785.367
359.1339, 1781.473
359.6160, 1777.900
360.0981, 1774.827
360.5803, 1773.313
361.0624, 1774.611
361.5445, 1776.687
362.0266, 1777.661
362.5087, 1777.710
362.9908, 1778.400
363.4730, 1780.591
363.9551, 1784.089
364.4372, 1788.191
364.9193, 1793.346
365.4014, 1798.278
365.8835, 1801.918
366.3657, 1804.989
366.8478, 1808.973
367.3299, 1814.347
367.8120, 1820.740
368.2941, 1827.754
368.7762, 1835.442
369.2584, 1843.384
369.7405, 1851.583
370.2226, 1859.944
370.7047, 1868.375
371.1868, 1876.906
371.6689, 1885.425
372.1511, 1893.829
372.6332, 1902.134
373.1153, 1910.947
373.5974, 1919.902
374.0795, 1929.738
374.5616, 1940.875
375.0438, 1953.202
375.5259, 1966.566
376.0080, 1980.831
376.4901, 1995.977
376.9722, 2011.924
377.4543, 2028.741
377.9365, 2046.178
378.4186, 2063.467
378.9007, 2081.708
379.3828, 2102.509
379.8649, 2126.172
380.3470, 2150.840
380.8292, 2173.815
381.3113, 2194.280
381.7934, 2215.738
382.2755, 2238.828
382.7576, 2262.243
383.2397, 2285.975
383.7219, 2309.511
384.2040, 2331.660
384.6861, 2351.754
385.1682, 2369.629
385.6503, 2381.659
386.1324, 2385.815
386.6146, 2385.850
387.0967, 2382.630
387.5788, 2375.460
388.0609, 2363.315
388.5430, 2345.779
389.0251, 2323.352
389.5073, 2296.393
389.9894, 2262.330
390.4715, 2228.818
390.9536, 2195.734
391.4357, 2163.652
391.9178, 2132.765
392.4000, 2103.157
392.8821, 2074.640
393.3642, 2046.894
393.8463, 2019.834
394.3284, 1994.747
394.8105, 1971.811
395.2927, 1950.632
395.7748, 1931.297
396.2569, 1913.528
396.7390, 1896.675
397.2211, 1880.348
397.7032, 1864.932
398.1854, 1851.719
398.6675, 1841.455
399.1496, 1831.012
399.6317, 1818.803
400.1138, 1806.452
400.5959, 1795.323
401.0781, 1785.656
401.5602, 1776.438
402.0423, 1766.321
402.5244, 1755.552
403.0065, 1746.840
403.4886, 1741.430
403.9708, 1736.892
404.4529, 1731.444
404.9350, 1725.418
405.4171, 1719.690
405.8992, 1714.490
406.3813, 1709.904
406.8635, 1706.249
407.3456, 1703.624
407.8277, 1700.931
408.3098, 1697.416
408.7919, 1693.575
409.2740, 1690.255
409.7562, 1687.579
410.2383, 1685.198
410.7204, 1682.964
411.2025, 1680.851
411.6846, 1678.765
412.1667, 1676.680
412.6489, 1674.612
413.1310, 1672.792
413.6131, 1671.226
414.0952, 1668.834
414.5773, 1663.724
415.0594, 1658.858
415.5416, 1657.535
416.0237, 1659.562
416.5058, 1661.877
416.9879, 1662.553
417.4700, 1661.838
417.9521, 1661.132
418.4343, 1659.985
418.9164, 1659.363
419.3985, 1659.333
419.8806, 1660.040
420.3627, 1662.324
420.8448, 1666.418
421.3270, 1670.270
421.8091, 1670.553
422.2912, 1665.128
422.7733, 1662.263
423.2554, 1663.487
423.7375, 1665.712
424.2197, 1667.469
424.7018, 1668.617
425.1839, 1669.455
425.6660, 1670.180
426.1481, 1670.798
426.6302, 1671.331
427.1124, 1671.277
427.5945, 1671.800
428.0766, 1673.036
428.5587, 1674.908
429.0408, 1677.654
429.5229, 1681.244
430.0051, 1684.856
430.4872, 1686.918
430.9693, 1686.563
431.4514, 1688.270
431.9335, 1695.695
432.4156, 1702.089
432.8978, 1704.148
433.3799, 1702.907
433.8620, 1701.457
434.3441, 1701.876
434.8262, 1703.268
435.3083, 1702.947
435.7905, 1700.436
436.2726, 1697.510
436.7547, 1694.645
437.2368, 1691.707
437.7189, 1688.409
438.2010, 1684.645
438.6832, 1681.222
439.1653, 1679.204
439.6474, 1678.264
440.1295, 1676.536
440.6116, 1673.466
441.0938, 1670.090
441.5759, 1666.833
442.0580, 1663.895
442.5401, 1662.156
443.0222, 1663.031
443.5043, 1664.419
443.9865, 1664.161
444.4686, 1662.382
444.9507, 1660.258
445.4328, 1658.208
445.9149, 1656.271
446.3970, 1654.500
446.8792, 1652.781
447.3613, 1651.487
447.8434, 1651.424
448.3255, 1651.517
448.8076, 1650.000
449.2897, 1646.695
449.7719, 1643.622
450.2540, 1642.791
450.7361, 1644.343
451.2182, 1645.386
451.7003, 1645.537
452.1824, 1645.689
452.6646, 1646.158
453.1467, 1646.856
453.6288, 1647.745
454.1109, 1648.807
454.5930, 1649.697
455.0751, 1649.650
455.5573, 1647.871
456.0394, 1646.686
456.5215, 1646.695
457.0036, 1646.675
457.4857, 1645.592
457.9678, 1643.736
458.4500, 1642.259
458.9321, 1642.095
459.4142, 1643.033
459.8963, 1643.838
460.3784, 1644.419
460.8605, 1645.018
461.3427, 1645.564
461.8248, 1646.236
462.3069, 1647.547
462.7890, 1649.618
463.2711, 1651.133
463.7532, 1650.016
464.2354, 1646.547
464.7175, 1644.732
465.1996, 1645.230
465.6817, 1647.190
466.1638, 1650.904
466.6459, 1655.550
467.1281, 1658.992
467.6102, 1660.065
468.0923, 1660.021
468.5744, 1659.849
469.0565, 1659.602
469.5386, 1659.876
470.0208, 1660.969
470.5029, 1662.618
470.9850, 1664.606
471.4671, 1667.176
471.9492, 1668.833
472.4313, 1668.543
472.9135, 1667.542
473.3956, 1666.828
473.8777, 1666.619
474.3598, 1667.379
474.8419, 1669.653
475.3240, 1673.247
475.8062, 1676.109
476.2883, 1678.184
476.7704, 1679.758
477.2525, 1680.875
477.7346, 1681.528
478.2167, 1681.765
478.6989, 1681.575
479.1810, 1680.763
479.6631, 1678.918
480.1452, 1675.734
480.6273, 1673.145
481.1094, 1672.484
481.5916, 1671.037
482.0737, 1667.262
482.5558, 1662.186
483.0379, 1657.741
483.5200, 1654.922
484.0021, 1652.693
484.4843, 1648.691
484.9664, 1642.178
485.4485, 1637.231
485.9306, 1635.873
486.4127, 1635.321
486.8948, 1633.648
487.3770, 1631.002
487.8591, 1628.757
488.3412, 1628.057
488.8233, 1628.177
489.3054, 1627.498
489.7875, 1625.875
490.2697, 1624.886
490.7518, 1625.686
491.2339, 1627.467
491.7160, 1628.707
492.1981, 1629.643
492.6802, 1629.344
493.1624, 1626.841
493.6445, 1623.064
494.1266, 1618.859
494.6087, 1614.418
495.0908, 1611.232
495.5729, 1610.877
496.0551, 1613.326
496.5372, 1614.902
497.0193, 1615.154
497.5014, 1615.205
497.9835, 1615.102
498.4656, 1615.112
498.9478, 1615.647
499.4299, 1616.820
499.9120, 1618.302
500.3941, 1619.650
500.8762, 1620.917
501.3583, 1621.855
501.8405, 1622.064
502.3226, 1622.341
502.8047, 1622.893
503.2868, 1623.733
503.7689, 1624.734
504.2510, 1625.775
504.7331, 1627.239
505.2152, 1630.319
505.6974, 1635.532
506.1795, 1639.146
506.6616, 1639.165
507.1437, 1638.478
507.6258, 1639.028
508.1079, 1640.770
508.5901, 1643.113
509.0722, 1645.142
509.5543, 1647.920
510.0364, 1653.372
510.5185, 1661.460
511.0006, 1670.357
511.4828, 1679.897
511.9649, 1689.062
512.4470, 1695.268
512.9291, 1697.493
513.4113, 1700.799
513.8934, 1706.716
514.3755, 1714.152
514.8576, 1721.963
515.3397, 1730.082
515.8218, 1739.005
516.3040, 1749.236
516.7861, 1760.600
517.2682, 1771.661
517.7503, 1781.264
518.2324, 1792.005
518.7145, 1805.590
519.1967, 1819.628
519.6788, 1831.249
520.1609, 1840.385
520.6430, 1850.002
521.1251, 1863.392
521.6072, 1880.492
522.0894, 1896.087
522.5715, 1908.108
523.0536, 1922.059
523.5357, 1940.501
524.0178, 1961.315
524.4999, 1982.037
524.9821, 2002.028
525.4642, 2022.501
525.9463, 2044.931
526.4284, 2068.864
526.9105, 2092.953
527.3926, 2116.802
527.8748, 2140.999
528.3569, 2166.143
528.8390, 2192.081
529.3211, 2218.630
529.8032, 2247.296
530.2853, 2274.731
530.7675, 2299.757
531.2496, 2322.056
531.7317, 2341.234
532.2138, 2357.265
532.6959, 2369.512
533.1780, 2377.491
533.6602, 2381.672
534.1423, 2377.970
534.6244, 2365.248
535.1065, 2347.254
535.5886, 2324.664
536.0707, 2297.992
536.5529, 2267.341
537.0350, 2233.017
537.5171, 2195.964
537.9992, 2157.463
538.4813, 2116.788
538.9634, 2078.712
539.4456, 2044.232
539.9277, 2011.897
540.4098, 1981.169
540.8919, 1952.250
541.3740, 1925.621
541.8561, 1901.656
542.3383, 1879.698
542.8204, 1859.455
543.3025, 1840.826
543.7846, 1822.607
544.2667, 1804.001
544.7488, 1786.734
545.2310, 1773.146
545.7131, 1762.871
546.1952, 1753.285
546.6773, 1743.522
547.1594, 1734.849
547.6415, 1728.255
548.1237, 1723.410
548.6058, 1719.412
549.0879, 1715.941
549.5700, 1712.979
550.0521, 1710.541
550.5342, 1708.802
551.0164, 1707.135
551.4985, 1705.520
551.9806, 1704.004
552.4627, 1702.099
552.9448, 1700.387
553.4269, 1699.902
553.9091, 1701.155
554.3912, 1703.615
554.8733, 1706.325
555.3554, 1709.192
555.8375, 1712.942
556.3196, 1717.576
556.8018, 1723.301
557.2839, 1730.049
557.7660, 1737.878
558.2481, 1746.969
558.7302, 1757.969
559.2123, 1769.519
559.6945, 1780.137
560.1766, 1790.036
560.6587, 1800.046
561.1408, 1810.424
561.6229, 1821.122
562.1050, 1832.813
562.5872, 1845.985
563.0693, 1855.156
563.5514, 1860.154
564.0335, 1861.207
564.5156, 1858.600
564.9977, 1852.078
565.4799, 1840.616
565.9620, 1823.884
566.4441, 1803.656
566.9262, 1782.401
567.4083, 1759.706
567.8904, 1737.623
568.3726, 1715.398
568.8547, 1694.664
569.3368, 1676.156
569.8189, 1659.461
570.3010, 1643.967
570.7831, 1629.246
571.2653, 1615.889
571.7474, 1604.692
572.2295, 1595.531
572.7116, 1587.054
573.1937, 1579.096
573.6758, 1571.786
574.1580, 1565.209
574.6401, 1559.402
575.1222, 1554.499
575.6043, 1550.907
576.0864, 1547.780
576.5685, 1544.950
577.0507, 1542.276
577.5328, 1539.303
578.0149, 1535.977
578.4970, 1533.128
578.9791, 1531.666
579.4612, 1531.627
579.9434, 1532.114
580.4255, 1533.869
580.9076, 1535.292
581.3897, 1535.383
581.8718, 1535.379
582.3539, 1536.793
582.8361, 1539.888
583.3182, 1543.434
583.8003, 1546.018
584.2824, 1547.876
584.7645, 1550.757
585.2466, 1554.825
585.7288, 1559.520
586.2108, 1565.295
586.6929, 1571.193
