##NAMES=Colemanite
##RRUFFID=R050102
##IDEAL CHEMISTRY=CaB_3_O_4_(OH)_3_&#183;H_2_O
##LOCALITY=Kramer deposit, Boron, Kern County, California, USA
##OWNER=RRUFF
##SOURCE=Rock Currier
##DESCRIPTION=Colorless prismatic to tabular crystals
##STATUS=The identification of this mineral has been confirmed by X-ray diffraction and chemical analysis
##URL=rruff.info/R050102
##MEASURED CHEMISTRY=Ca_1.00_B_3.00_O_4_(OH)_3_Â·H_2_O ; trace amounts of Na; B assumed by stoichiometry and charge balance.
139.4189, 356.8264
139.9010, 360.5648
140.3831, 364.6784
140.8652, 368.4896
141.3473, 371.7051
141.8294, 374.6794
142.3116, 377.6675
142.7937, 380.8069
143.2758, 384.1209
143.7579, 387.8343
144.2400, 392.9239
144.7221, 397.3456
145.2043, 400.4095
145.6864, 402.6386
146.1685, 404.8189
146.6506, 407.4238
147.1327, 410.4669
147.6148, 414.1253
148.0969, 419.6478
148.5791, 424.4811
149.0612, 427.5342
149.5433, 428.8676
150.0254, 429.1213
150.5075, 428.6379
150.9896, 427.3437
151.4718, 425.6439
151.9539, 423.0705
152.4360, 420.3585
152.9181, 418.2392
153.4002, 416.8227
153.8823, 415.5214
154.3645, 413.7557
154.8466, 411.7271
155.3287, 409.9197
155.8108, 408.4680
156.2929, 407.3375
156.7750, 406.4749
157.2572, 405.9591
157.7393, 405.5769
158.2214, 405.1121
158.7035, 404.6457
159.1856, 404.3716
159.6677, 404.3623
160.1499, 404.6225
160.6320, 405.2983
161.1141, 406.9429
161.5962, 408.4881
162.0783, 409.3815
162.5604, 409.7780
163.0426, 410.2007
163.5247, 411.2673
164.0068, 413.2381
164.4889, 414.4945
164.9710, 414.4669
165.4531, 414.2756
165.9353, 414.5558
166.4174, 415.2773
166.8995, 415.8922
167.3816, 415.6779
167.8637, 414.1613
168.3458, 413.0284
168.8279, 412.6844
169.3101, 412.4048
169.7922, 411.4477
170.2743, 409.7206
170.7564, 407.9809
171.2385, 407.3019
171.7206, 407.8799
172.2028, 409.3278
172.6849, 412.8059
173.1670, 416.7035
173.6491, 419.0995
174.1312, 419.3715
174.6133, 418.3896
175.0955, 417.8631
175.5776, 418.3330
176.0597, 416.9169
176.5418, 411.9729
177.0239, 404.5405
177.5060, 396.9084
177.9882, 389.8394
178.4703, 382.6251
178.9524, 374.0638
179.4345, 364.0181
179.9166, 354.1540
180.3987, 345.3718
180.8809, 337.6084
181.3630, 330.6758
181.8451, 324.8192
182.3272, 319.6297
182.8093, 314.6393
183.2914, 309.8170
183.7736, 305.4472
184.2557, 302.0076
184.7378, 299.6475
185.2199, 297.0646
185.7020, 293.6411
186.1841, 290.1017
186.6663, 286.7270
187.1484, 283.5974
187.6305, 280.8934
188.1126, 278.8948
188.5947, 277.7900
189.0768, 276.9811
189.5589, 276.6292
190.0411, 276.3581
190.5232, 275.8678
191.0053, 275.0764
191.4874, 274.1675
191.9695, 273.4532
192.4516, 272.8380
192.9338, 272.6508
193.4159, 273.1812
193.8980, 273.9477
194.3801, 274.4951
194.8622, 274.6620
195.3443, 274.6496
195.8265, 274.9239
196.3086, 276.0973
196.7907, 276.8400
197.2728, 276.6158
197.7549, 276.1313
198.2370, 276.2141
198.7192, 277.2144
199.2013, 278.8581
199.6834, 280.4239
200.1655, 282.0310
200.6476, 283.4063
201.1297, 284.4930
201.6119, 285.3185
202.0940, 285.8635
202.5761, 286.0747
203.0582, 286.0951
203.5403, 286.3300
204.0224, 286.9559
204.5046, 287.4111
204.9867, 287.2949
205.4688, 286.8312
205.9509, 286.6006
206.4330, 286.8317
206.9151, 287.4561
207.3972, 288.3210
207.8794, 289.5186
208.3615, 290.6845
208.8436, 291.4692
209.3257, 291.9696
209.8078, 292.7869
210.2899, 294.3189
210.7721, 296.1421
211.2542, 297.5239
211.7363, 298.2413
212.2184, 299.3105
212.7005, 301.8070
213.1826, 305.7435
213.6648, 309.4834
214.1469, 312.4115
214.6290, 315.0133
215.1111, 317.5869
215.5932, 320.1539
216.0753, 322.9370
216.5575, 326.1530
217.0396, 329.7824
217.5217, 333.8780
218.0038, 339.6479
218.4859, 345.1689
218.9680, 349.0391
219.4502, 350.9965
219.9323, 352.0908
220.4144, 353.8167
220.8965, 356.6792
221.3786, 358.4433
221.8607, 358.6092
222.3429, 357.8120
222.8250, 356.2452
223.3071, 353.9978
223.7892, 351.2910
224.2713, 348.4398
224.7534, 345.4869
225.2356, 342.2526
225.7177, 338.6871
226.1998, 334.9102
226.6819, 330.8105
227.1640, 326.4609
227.6461, 322.2399
228.1283, 318.7928
228.6104, 316.4521
229.0925, 314.3170
229.5746, 312.4531
230.0567, 310.7148
230.5388, 308.8708
231.0210, 306.9215
231.5031, 305.1874
231.9852, 304.1782
232.4673, 304.5099
232.9494, 304.3788
233.4315, 303.5686
233.9137, 302.4812
234.3958, 301.4067
234.8779, 300.4155
235.3600, 299.3874
235.8421, 298.1143
236.3242, 296.2767
236.8064, 295.0175
237.2885, 294.4380
237.7706, 294.3499
238.2527, 294.9409
238.7348, 296.1708
239.2169, 297.1418
239.6991, 296.5485
240.1812, 293.6404
240.6633, 291.7977
241.1454, 291.9667
241.6275, 292.7719
242.1096, 292.8635
242.5918, 292.0039
243.0739, 290.9546
243.5560, 290.6273
244.0381, 291.1055
244.5202, 291.4001
245.0023, 291.3513
245.4845, 291.1158
245.9666, 290.8140
246.4487, 290.4572
246.9308, 290.1158
247.4129, 289.7462
247.8950, 289.3898
248.3771, 289.5182
248.8593, 290.7759
249.3414, 292.2805
249.8235, 292.9128
250.3056, 292.5109
250.7877, 291.8859
251.2698, 291.5322
251.7520, 291.4740
252.2341, 291.8603
252.7162, 293.1597
253.1983, 294.7192
253.6804, 295.6400
254.1625, 295.8128
254.6447, 295.8835
255.1268, 296.3065
255.6089, 296.9358
256.0910, 297.5174
256.5731, 297.8054
257.0552, 298.1438
257.5374, 299.1530
258.0195, 301.0007
258.5016, 302.6669
258.9837, 303.1949
259.4658, 303.3111
259.9479, 303.9163
260.4301, 305.4604
260.9122, 307.2904
261.3943, 308.4380
261.8764, 308.7373
262.3585, 309.1624
262.8406, 310.4839
263.3228, 311.9926
263.8049, 313.0158
264.2870, 313.3186
264.7691, 313.2878
265.2512, 313.4090
265.7333, 313.7116
266.2155, 314.0222
266.6976, 314.2181
267.1797, 314.4404
267.6618, 314.8836
268.1439, 315.6091
268.6260, 316.2701
269.1082, 316.3755
269.5903, 315.8115
270.0724, 315.2905
270.5545, 315.0864
271.0366, 314.8903
271.5187, 314.4652
272.0009, 313.7890
272.4830, 313.1009
272.9651, 312.8338
273.4472, 313.1801
273.9293, 312.8355
274.4114, 310.9559
274.8936, 308.8484
275.3757, 306.9871
275.8578, 305.4694
276.3399, 304.2376
276.8220, 303.3898
277.3041, 303.0401
277.7863, 302.2646
278.2684, 300.5390
278.7505, 298.7827
279.2326, 297.2261
279.7147, 295.9334
280.1968, 294.9419
280.6789, 294.3150
281.1610, 294.0566
281.6432, 293.9627
282.1253, 294.1511
282.6074, 294.4096
283.0895, 294.6172
283.5716, 294.8449
284.0537, 295.2486
284.5359, 295.9556
285.0180, 296.9434
285.5001, 297.9693
285.9822, 299.2310
286.4643, 300.2836
286.9464, 300.6866
287.4286, 300.8732
287.9107, 301.4709
288.3928, 302.8434
288.8749, 304.8973
289.3570, 307.2648
289.8391, 310.5420
290.3213, 313.3321
290.8034, 315.0572
291.2855, 316.3481
291.7676, 317.9122
292.2497, 320.0690
292.7318, 322.6510
293.2140, 325.1809
293.6961, 327.1508
294.1782, 329.9630
294.6603, 335.1078
295.1424, 340.3131
295.6245, 343.0572
296.1067, 342.7115
296.5888, 341.3128
297.0709, 342.5444
297.5530, 348.5238
298.0351, 353.1381
298.5172, 355.4526
298.9994, 357.2116
299.4815, 359.4725
299.9636, 362.4862
300.4457, 366.0214
300.9278, 369.8818
301.4099, 374.2742
301.8921, 378.3187
302.3742, 381.5313
302.8563, 384.9115
303.3384, 389.0819
303.8205, 393.9739
304.3026, 399.0586
304.7848, 403.8636
305.2669, 408.4204
305.7490, 412.7492
306.2311, 416.6668
306.7132, 420.5614
307.1953, 425.3553
307.6775, 430.2549
308.1596, 433.5743
308.6417, 434.0735
309.1238, 431.9563
309.6059, 429.3675
310.0880, 426.9159
310.5702, 423.2563
311.0523, 417.6966
311.5344, 410.8848
312.0165, 403.5642
312.4986, 396.0824
312.9807, 388.5957
313.4629, 381.3883
313.9450, 374.0139
314.4271, 367.6937
314.9092, 362.6034
315.3913, 358.5370
315.8734, 355.5198
316.3556, 353.5026
316.8377, 352.0257
317.3198, 350.2543
317.8019, 347.9744
318.2840, 345.7777
318.7661, 343.6493
319.2483, 341.5977
319.7304, 339.3338
320.2125, 336.9761
320.6946, 335.2585
321.1767, 335.2423
321.6588, 337.7079
322.1409, 338.7469
322.6230, 337.7303
323.1052, 336.1261
323.5873, 334.5426
324.0694, 332.9744
324.5515, 331.1205
325.0336, 328.6515
325.5157, 325.5774
325.9979, 323.0070
326.4800, 321.3941
326.9621, 319.8197
327.4442, 318.1790
327.9263, 316.4173
328.4084, 314.4255
328.8906, 312.1143
329.3727, 309.6481
329.8548, 307.7330
330.3369, 307.2232
330.8190, 306.1873
331.3011, 303.7646
331.7833, 301.0508
332.2654, 299.2343
332.7475, 298.7400
333.2296, 298.9810
333.7117, 298.8636
334.1938, 298.1474
334.6760, 297.5166
335.1581, 297.0037
335.6402, 296.5555
336.1223, 296.0860
336.6044, 295.6096
337.0865, 295.2691
337.5687, 295.2904
338.0508, 295.8322
338.5329, 295.9661
339.0150, 294.8741
339.4971, 294.1573
339.9792, 294.7676
340.4614, 296.3407
340.9435, 297.7931
341.4256, 298.1876
341.9077, 297.6786
342.3898, 298.2007
342.8719, 301.2222
343.3541, 303.6385
343.8362, 304.3241
344.3183, 304.1640
344.8004, 304.4264
345.2825, 305.7530
345.7646, 307.6822
346.2468, 308.9840
346.7289, 309.2144
347.2110, 309.6313
347.6931, 310.5734
348.1752, 311.6307
348.6573, 312.4647
349.1395, 312.9959
349.6216, 313.3894
350.1037, 314.0071
350.5858, 315.1133
351.0679, 315.3738
351.5500, 313.8402
352.0322, 312.1740
352.5143, 311.1875
352.9964, 310.8074
353.4785, 310.4503
353.9606, 309.6714
354.4427, 308.4813
354.9249, 307.0524
355.4070, 305.2163
355.8891, 303.3481
356.3712, 301.3719
356.8533, 299.4875
357.3354, 298.0219
357.8176, 297.1948
358.2997, 296.7854
358.7818, 296.3102
359.2639, 295.8342
359.7460, 295.1107
360.2281, 293.6606
360.7103, 292.1720
361.1924, 291.1415
361.6745, 290.6909
362.1566, 290.8790
362.6387, 291.9933
363.1208, 294.1363
363.6029, 296.0395
364.0851, 297.2966
364.5672, 298.4471
365.0493, 299.7101
365.5314, 301.1312
366.0135, 302.8454
366.4956, 304.8768
366.9778, 307.2525
367.4599, 310.3246
367.9420, 314.7360
368.4241, 318.6042
368.9062, 320.0944
369.3883, 320.4445
369.8705, 321.8899
370.3526, 325.7263
370.8347, 330.5665
371.3168, 334.4106
371.7989, 337.1528
372.2810, 339.7356
372.7632, 342.2516
373.2453, 345.0004
373.7274, 348.3333
374.2095, 352.3513
374.6916, 356.6978
375.1737, 361.0566
375.6559, 365.4960
376.1380, 370.4027
376.6201, 375.9682
377.1022, 381.9071
377.5843, 387.8018
378.0664, 393.6680
378.5486, 400.2354
379.0307, 407.9854
379.5128, 416.4861
379.9949, 425.1413
380.4770, 433.9427
380.9591, 442.8547
381.4413, 451.8185
381.9234, 460.9160
382.4055, 470.2658
382.8876, 480.4802
383.3697, 490.4620
383.8518, 499.8325
384.3340, 508.4319
384.8161, 515.8489
385.2982, 521.9456
385.7803, 526.6146
386.2624, 529.4474
386.7445, 530.7906
387.2267, 530.1569
387.7088, 527.9069
388.1909, 523.4200
388.6730, 515.4550
389.1551, 503.7088
389.6372, 489.9378
390.1194, 475.7374
390.6015, 461.0158
391.0836, 446.8214
391.5657, 433.4317
392.0478, 420.3739
392.5299, 407.1298
393.0121, 393.9091
393.4942, 381.4885
393.9763, 370.3312
394.4584, 360.2950
394.9405, 350.5290
395.4226, 340.5192
395.9048, 331.4510
396.3869, 323.6428
396.8690, 316.8016
397.3511, 310.5695
397.8332, 304.8470
398.3153, 299.5392
398.7975, 294.5581
399.2796, 289.8260
399.7617, 285.5820
400.2438, 282.0658
400.7259, 278.7518
401.2080, 275.3595
401.6902, 271.8987
402.1723, 268.5211
402.6544, 265.2866
403.1365, 262.2391
403.6186, 259.9532
404.1007, 259.5424
404.5828, 258.5793
405.0649, 256.1037
405.5471, 253.0622
406.0292, 250.5673
406.5113, 249.0512
406.9934, 248.1687
407.4755, 247.3919
407.9576, 246.8405
408.4398, 246.0244
408.9219, 244.5314
409.4040, 243.0535
409.8861, 241.9980
410.3682, 241.3396
410.8503, 240.7713
411.3325, 239.9906
411.8146, 239.0558
412.2967, 238.4545
412.7788, 238.3091
413.2609, 238.3002
413.7430, 238.5132
414.2252, 238.6965
414.7073, 238.4372
415.1894, 237.4859
415.6715, 236.3147
416.1536, 235.5347
416.6357, 235.1608
417.1179, 234.8714
417.6000, 234.5473
418.0821, 234.3107
418.5642, 234.2729
419.0463, 234.4350
419.5284, 234.6867
420.0106, 235.2017
420.4927, 235.7285
420.9748, 235.6034
421.4569, 234.6450
421.9390, 233.6100
422.4211, 233.1029
422.9033, 232.9747
423.3854, 232.7295
423.8675, 232.0260
424.3496, 231.4681
424.8317, 231.6068
425.3138, 232.2728
425.7960, 232.8316
426.2781, 232.9837
426.7602, 232.9837
427.2423, 233.4285
427.7244, 234.5882
428.2065, 235.2177
428.6887, 234.5087
429.1708, 233.5066
429.6529, 233.3742
430.1350, 234.1969
430.6171, 235.1764
431.0992, 235.6416
431.5814, 235.5845
432.0635, 235.4189
432.5456, 234.9754
433.0277, 234.6350
433.5098, 234.6564
433.9919, 234.8264
434.4741, 234.7748
434.9562, 234.3445
435.4383, 233.7210
435.9204, 233.2296
436.4025, 232.5914
436.8846, 232.6676
437.3668, 234.2362
437.8489, 235.7691
438.3310, 236.1660
438.8131, 235.5718
439.2952, 234.9294
439.7773, 235.0457
440.2595, 235.8244
440.7416, 236.2758
441.2237, 236.0621
441.7058, 236.0125
442.1879, 236.4156
442.6700, 237.0417
443.1522, 237.6097
443.6343, 238.0251
444.1164, 238.4769
444.5985, 239.3357
445.0806, 240.6552
445.5627, 241.5870
446.0448, 241.6759
446.5269, 241.7026
447.0091, 242.1177
447.4912, 242.8986
447.9733, 243.9129
448.4554, 245.1971
448.9375, 246.6364
449.4196, 248.0447
449.9018, 249.4299
450.3839, 250.7545
450.8660, 251.9196
451.3481, 253.0590
451.8302, 254.4246
452.3123, 256.1270
452.7945, 257.7664
453.2766, 259.3004
453.7587, 260.5941
454.2408, 261.3721
454.7229, 261.5638
455.2050, 261.3203
455.6872, 260.7045
456.1693, 259.6823
456.6514, 258.7652
457.1335, 258.4144
457.6156, 257.7409
458.0977, 255.9364
458.5799, 253.3877
459.0620, 251.1041
459.5441, 249.5784
460.0262, 248.5936
460.5083, 247.6632
460.9904, 246.8035
461.4726, 245.9833
461.9547, 244.9939
462.4368, 244.1956
462.9189, 243.9836
463.4010, 244.2872
463.8831, 244.6578
464.3653, 244.7109
464.8474, 244.4660
465.3295, 244.2335
465.8116, 243.9499
466.2937, 243.7693
466.7758, 243.8924
467.2580, 244.0503
467.7401, 243.8428
468.2222, 243.1589
468.7043, 242.4928
469.1864, 242.5590
469.6685, 243.4161
470.1507, 244.2058
470.6328, 244.7255
471.1149, 245.3219
471.5970, 246.2135
472.0791, 247.3289
472.5612, 248.4855
473.0434, 249.6514
473.5255, 250.7768
474.0076, 251.8258
474.4897, 252.8011
474.9718, 253.5388
475.4539, 253.7692
475.9361, 253.9217
476.4182, 254.6482
476.9003, 256.0133
477.3824, 257.4348
477.8645, 258.9500
478.3466, 260.2893
478.8288, 261.0583
479.3109, 261.2207
479.7930, 260.9537
480.2751, 260.3407
480.7572, 259.4072
481.2393, 258.3475
481.7215, 257.2769
482.2036, 255.9782
482.6857, 254.1232
483.1678, 252.1038
483.6499, 250.4759
484.1320, 249.3899
484.6142, 248.4937
485.0963, 247.2962
485.5784, 245.6484
486.0605, 244.4131
486.5426, 244.1424
487.0247, 243.6644
487.5068, 242.3459
487.9890, 240.5485
488.4711, 238.8745
488.9532, 237.6149
489.4353, 236.7701
489.9174, 236.4425
490.3995, 236.8000
490.8817, 237.0977
491.3638, 237.3504
491.8459, 237.4022
492.3280, 236.9553
492.8101, 236.1508
493.2922, 235.6018
493.7744, 235.8719
494.2565, 236.5864
494.7386, 236.8568
495.2207, 236.6067
495.7028, 236.4034
496.1849, 236.5810
496.6671, 236.9074
497.1492, 237.0638
497.6313, 237.0690
498.1134, 236.7858
498.5955, 235.6697
499.0776, 234.3891
499.5598, 234.1941
500.0419, 235.2657
500.5240, 236.5327
501.0061, 237.1721
501.4882, 237.2019
501.9703, 237.0156
502.4525, 235.9066
502.9346, 235.4309
503.4167, 236.6818
503.8988, 238.6137
504.3809, 239.6855
504.8630, 239.4835
505.3452, 238.9399
505.8273, 239.3192
506.3094, 240.8428
506.7915, 242.1217
507.2736, 242.9309
507.7557, 243.7396
508.2379, 244.6751
508.7200, 245.7195
509.2021, 246.8126
509.6842, 247.9292
510.1663, 249.1174
510.6484, 250.3924
511.1306, 251.6950
511.6127, 253.4926
512.0948, 256.3429
512.5769, 259.2043
513.0590, 261.1564
513.5411, 262.4776
514.0233, 264.1752
514.5054, 266.7775
514.9875, 269.9319
515.4696, 273.1522
515.9517, 276.4388
516.4338, 279.9713
516.9160, 283.9106
517.3981, 287.9855
517.8802, 291.7369
518.3623, 295.0742
518.8444, 298.6016
519.3265, 302.5165
519.8087, 306.6251
520.2908, 310.6608
520.7729, 314.6877
521.2550, 319.1213
521.7371, 324.2479
522.2192, 329.9549
522.7014, 335.7959
523.1835, 341.6107
523.6656, 347.8027
524.1477, 354.3417
524.6298, 361.2783
525.1119, 368.7627
525.5941, 376.7802
526.0762, 384.9695
526.5583, 392.9657
527.0404, 400.9242
527.5225, 410.0902
528.0046, 421.0560
528.4868, 432.1548
528.9689, 442.9695
529.4510, 453.6107
529.9331, 463.9813
530.4152, 474.0584
530.8973, 484.3990
531.3795, 496.0364
531.8616, 508.2181
532.3437, 518.9323
532.8258, 528.1403
533.3079, 535.3122
533.7900, 540.5324
534.2722, 543.1501
534.7543, 542.0864
535.2364, 536.3332
535.7185, 528.6135
536.2006, 519.5992
536.6827, 509.4425
537.1649, 498.3943
537.6470, 486.4657
538.1291, 473.6354
538.6112, 459.6293
539.0933, 444.4229
539.5754, 430.1979
540.0576, 417.6269
540.5397, 405.2461
541.0218, 391.9054
541.5039, 378.9404
541.9860, 368.2113
542.4681, 360.0707
542.9503, 352.9499
543.4324, 344.8607
543.9145, 335.6898
544.3966, 327.8954
544.8787, 321.8174
545.3608, 316.6778
545.8430, 312.1937
546.3251, 308.2777
546.8071, 304.9091
547.2892, 302.1535
547.7714, 299.6804
548.2535, 297.2780
548.7356, 294.9440
549.2177, 292.5345
549.6998, 289.9663
550.1819, 287.6588
550.6641, 285.9779
551.1462, 284.9178
551.6283, 284.0240
552.1104, 283.2880
552.5925, 282.7251
553.0746, 282.4030
553.5568, 282.2357
554.0389, 282.0155
554.5210, 281.7135
555.0031, 281.6441
555.4852, 282.2050
555.9673, 283.4547
556.4495, 284.6392
556.9316, 285.6754
557.4137, 286.7475
557.8958, 287.8891
558.3779, 289.0879
558.8600, 290.2890
559.3422, 291.4833
559.8243, 292.8042
560.3064, 294.2459
560.7885, 295.8524
561.2706, 298.4398
561.7527, 302.8034
562.2349, 306.6293
562.7170, 308.3832
563.1991, 308.6899
563.6812, 308.3223
564.1633, 307.3721
564.6454, 305.8474
565.1276, 303.6647
565.6097, 300.9342
566.0918, 297.9923
566.5739, 294.9010
567.0560, 290.9995
567.5381, 285.3318
568.0203, 278.0576
568.5024, 272.7963
568.9845, 270.9496
569.4666, 269.0399
569.9487, 266.2691
570.4308, 263.0775
570.9130, 259.7016
571.3951, 256.3315
571.8772, 253.5671
572.3593, 252.1216
572.8414, 251.9020
573.3235, 251.4258
573.8057, 250.6200
574.2878, 249.6846
574.7699, 248.4959
575.2520, 247.3234
575.7341, 246.6114
576.2162, 246.4379
576.6984, 245.9480
577.1805, 244.1377
577.6626, 241.7019
578.1447, 240.1918
578.6268, 239.7588
579.1089, 239.4643
579.5911, 238.7636
580.0732, 237.8167
580.5553, 237.0585
581.0374, 236.3815
581.5195, 236.0692
582.0016, 236.2966
582.4838, 236.8254
582.9659, 237.3940
583.4480, 238.0356
583.9301, 239.0339
584.4122, 240.6332
584.8943, 242.6284
585.3765, 244.2513
585.8586, 245.1679
586.3407, 246.3972
586.8228, 247.8879
587.3049, 249.8423
587.7870, 252.5001
588.2692, 255.7769
588.7513, 259.3290
589.2334, 262.8956
589.7155, 266.6921
590.1976, 271.2437
590.6797, 276.5486
591.1619, 281.5613
591.6440, 285.6587
592.1261, 289.7603
592.6082, 295.1652
593.0903, 301.8466
593.5724, 308.6862
594.0546, 315.5131
594.5367, 322.4806
595.0188, 329.7494
595.5009, 337.2640
595.9830, 344.9164
596.4651, 352.6976
596.9473, 360.3856
597.4294, 367.5562
597.9115, 373.9059
598.3936, 381.0956
598.8757, 388.9883
599.3578, 397.9049
599.8400, 407.9447
600.3221, 419.0539
600.8042, 431.3596
601.2863, 444.9043
601.7684, 459.1032
602.2505, 472.9317
602.7327, 486.7759
603.2148, 502.2375
603.6969, 519.6104
604.1790, 538.4762
604.6611, 558.9570
605.1432, 580.7973
605.6254, 603.0925
606.1075, 625.1653
606.5896, 648.9459
607.0717, 677.0260
607.5538, 705.8671
608.0359, 732.3385
608.5181, 755.6151
609.0002, 775.7196
609.4823, 793.1258
609.9644, 806.4646
610.4465, 809.8314
610.9286, 801.1506
611.4108, 786.1279
611.8929, 764.9390
612.3750, 738.5969
612.8571, 706.1706
613.3392, 668.9775
613.8214, 630.0325
614.3035, 589.9312
614.7856, 550.4000
615.2677, 513.9336
615.7498, 480.4740
616.2319, 450.3350
616.7141, 423.7735
617.1962, 400.1471
617.6783, 378.9591
618.1604, 360.3091
618.6425, 344.0751
619.1246, 331.4120
619.6068, 319.9193
620.0889, 308.1670
620.5710, 296.9279
621.0531, 287.6025
621.5352, 280.4977
622.0173, 274.4385
622.4995, 268.0897
622.9816, 261.4502
623.4637, 255.8282
623.9458, 251.5957
624.4279, 247.7705
624.9100, 244.0945
625.3922, 240.6163
625.8743, 237.3226
626.3564, 234.2007
626.8385, 231.4502
627.3206, 229.1582
627.8027, 227.3149
628.2849, 226.1964
628.7670, 225.7229
629.2490, 224.5789
629.7311, 221.9466
630.2133, 218.7025
630.6954, 216.5745
631.1775, 216.1293
631.6596, 215.3789
632.1417, 214.1081
632.6238, 212.7442
633.1060, 211.4479
633.5881, 210.2484
