##NAMES=Colemanite
##RRUFFID=R050331
##IDEAL CHEMISTRY=CaB_3_O_4_(OH)_3_&#183;H_2_O
##LOCALITY=Thompson mine, Death Valley, Inyo County, California, USA
##OWNER=RRUFF
##SOURCE=California Institute of Technology
##DESCRIPTION=Colorless fragment
##STATUS=The identification of this mineral has been confirmed by X-ray diffraction and chemical analysis
##URL=rruff.info/R050331
##MEASURED CHEMISTRY=Ca_1.00_B_3.00_O_4_(OH)_3_Â·H_2_O ; B not measured but assumed by stoichiometry and charge balance.
92.35352, 38.06555
92.83563, 35.99606
93.31775, 35.11527
93.79987, 35.73537
94.28198, 37.58612
94.76410, 39.90520
95.24622, 42.50749
95.72833, 45.52486
96.21045, 49.24411
96.69257, 53.70104
97.17468, 58.54372
97.65680, 63.29853
98.13892, 67.99600
98.62103, 73.29884
99.10315, 79.28047
99.58527, 85.95324
100.0674, 93.09454
100.5495, 100.5858
101.0316, 108.6740
101.5137, 117.4389
101.9958, 126.8435
102.4780, 137.2656
102.9601, 148.8823
103.4422, 161.8253
103.9243, 175.1036
104.4064, 189.0816
104.8885, 203.2362
105.3707, 216.9434
105.8528, 229.8814
106.3349, 242.6577
106.8170, 255.4389
107.2991, 268.5679
107.7813, 281.0528
108.2634, 292.7821
108.7455, 303.9092
109.2276, 314.5258
109.7097, 323.5116
110.1918, 332.9030
110.6740, 343.5601
111.1561, 356.4379
111.6382, 369.5339
112.1203, 382.2075
112.6024, 394.8107
113.0845, 408.7855
113.5667, 424.0988
114.0488, 440.9353
114.5309, 459.6107
115.0130, 481.5676
115.4951, 503.9064
115.9772, 526.0367
116.4594, 548.1258
116.9415, 569.9188
117.4236, 591.6093
117.9057, 612.8920
118.3878, 633.3524
118.8699, 652.5397
119.3521, 671.3142
119.8342, 690.7098
120.3163, 710.9177
120.7984, 730.2507
121.2805, 747.9883
121.7626, 764.1358
122.2448, 778.7024
122.7269, 792.3068
123.2090, 804.0349
123.6911, 812.4897
124.1732, 817.0250
124.6553, 820.3766
125.1375, 824.5280
125.6196, 829.4462
126.1017, 835.0266
126.5838, 841.6935
127.0659, 848.9145
127.5480, 855.5211
128.0302, 860.9596
128.5123, 866.6452
128.9944, 874.4384
129.4765, 884.2697
129.9586, 895.4896
130.4407, 907.9427
130.9229, 921.4853
131.4050, 935.5443
131.8871, 949.4339
132.3692, 963.9206
132.8513, 980.4796
133.3334, 997.5817
133.8156, 1011.743
134.2977, 1024.089
134.7798, 1038.070
135.2619, 1051.441
135.7440, 1063.460
136.2261, 1074.442
136.7083, 1087.163
137.1904, 1102.132
137.6725, 1117.447
138.1546, 1131.159
138.6367, 1143.012
139.1188, 1155.236
139.6010, 1168.833
140.0831, 1183.764
140.5652, 1197.426
141.0473, 1209.547
141.5294, 1221.026
142.0115, 1233.076
142.4937, 1246.622
142.9758, 1258.729
143.4579, 1267.735
143.9400, 1271.997
144.4221, 1280.994
144.9042, 1296.646
145.3864, 1315.801
145.8685, 1332.793
146.3506, 1346.980
146.8327, 1360.089
147.3148, 1372.992
147.7969, 1386.592
148.2791, 1397.802
148.7612, 1406.240
149.2433, 1412.366
149.7254, 1417.281
150.2075, 1420.176
150.6896, 1422.592
151.1718, 1425.085
151.6539, 1428.095
152.1360, 1430.599
152.6181, 1431.344
153.1002, 1431.382
153.5823, 1433.862
154.0645, 1440.937
154.5466, 1449.077
155.0287, 1456.593
155.5108, 1461.696
155.9929, 1468.202
156.4750, 1476.811
156.9572, 1487.272
157.4393, 1498.470
157.9214, 1510.890
158.4035, 1523.628
158.8856, 1536.154
159.3677, 1547.266
159.8499, 1559.299
160.3320, 1573.397
160.8141, 1589.183
161.2962, 1604.485
161.7783, 1618.097
162.2604, 1631.000
162.7426, 1644.003
163.2247, 1659.170
163.7068, 1672.923
164.1889, 1684.050
164.6710, 1692.445
165.1531, 1698.114
165.6353, 1701.308
166.1174, 1701.687
166.5995, 1698.879
167.0816, 1691.713
167.5637, 1682.085
168.0458, 1670.598
168.5280, 1657.376
169.0101, 1643.624
169.4922, 1629.624
169.9743, 1615.785
170.4564, 1602.770
170.9385, 1590.655
171.4207, 1579.587
171.9028, 1569.952
172.3849, 1561.859
172.8670, 1554.186
173.3491, 1547.512
173.8312, 1540.574
174.3134, 1530.888
174.7955, 1519.375
175.2776, 1503.767
175.7597, 1480.947
176.2418, 1450.258
176.7239, 1414.945
177.2061, 1374.997
177.6882, 1331.674
178.1703, 1289.212
178.6524, 1248.856
179.1345, 1210.310
179.6166, 1173.258
180.0988, 1137.051
180.5809, 1103.647
181.0630, 1075.495
181.5451, 1051.868
182.0272, 1031.084
182.5093, 1011.856
182.9915, 994.5664
183.4736, 980.9188
183.9557, 971.3217
184.4378, 963.7453
184.9199, 954.8886
185.4020, 945.2405
185.8842, 937.1552
186.3663, 933.1804
186.8484, 932.0968
187.3305, 929.4705
187.8126, 924.6351
188.2947, 919.0002
188.7769, 914.6915
189.2590, 911.6713
189.7411, 909.1375
190.2232, 906.5045
190.7053, 903.8948
191.1874, 902.0652
191.6696, 901.1647
192.1517, 900.8660
192.6338, 900.7245
193.1159, 900.7563
193.5980, 900.5750
194.0801, 899.9962
194.5623, 899.0239
195.0444, 897.5175
195.5265, 895.2640
196.0086, 892.7551
196.4907, 890.9650
196.9728, 889.9015
197.4550, 889.4295
197.9371, 889.7250
198.4192, 890.8043
198.9013, 891.4519
199.3834, 891.4586
199.8655, 891.0806
200.3477, 891.0620
200.8298, 891.5472
201.3119, 891.7281
201.7940, 890.8890
202.2761, 888.8982
202.7582, 887.4467
203.2404, 886.7568
203.7225, 886.6518
204.2046, 886.6005
204.6867, 886.5281
205.1688, 886.7911
205.6509, 887.7263
206.1331, 889.4647
206.6152, 891.0910
207.0973, 892.6049
207.5794, 893.9226
208.0615, 894.6105
208.5436, 894.3456
209.0258, 894.3031
209.5079, 895.3760
209.9900, 897.8768
210.4721, 899.8531
210.9542, 900.7050
211.4363, 901.0664
211.9185, 903.3519
212.4006, 908.3480
212.8827, 913.5793
213.3648, 917.2340
213.8469, 918.7032
214.3290, 921.0001
214.8112, 924.5712
215.2933, 929.0609
215.7754, 933.3946
216.2575, 937.6280
216.7396, 941.6011
217.2217, 945.0225
217.7038, 947.4394
218.1860, 950.7052
218.6681, 955.2125
219.1502, 960.5944
219.6323, 965.4194
220.1144, 969.3625
220.5965, 973.2538
221.0787, 977.6093
221.5608, 982.7625
222.0429, 987.4719
222.5250, 991.5718
223.0071, 995.1955
223.4892, 998.5417
223.9714, 1001.238
224.4535, 1004.314
224.9356, 1008.460
225.4177, 1014.143
225.8998, 1019.762
226.3819, 1025.320
226.8641, 1030.775
227.3462, 1035.636
227.8283, 1039.155
228.3104, 1043.195
228.7925, 1048.773
229.2746, 1056.789
229.7568, 1064.442
230.2389, 1071.497
230.7210, 1078.202
231.2031, 1085.066
231.6852, 1091.830
232.1673, 1099.107
232.6495, 1107.089
233.1316, 1115.599
233.6137, 1125.265
234.0958, 1136.442
234.5779, 1148.608
235.0600, 1160.112
235.5422, 1170.773
236.0243, 1181.234
236.5064, 1191.798
236.9885, 1202.499
237.4706, 1213.230
237.9527, 1223.905
238.4349, 1234.507
238.9170, 1244.897
239.3991, 1255.172
239.8812, 1265.093
240.3633, 1274.687
240.8454, 1284.406
241.3276, 1292.727
241.8097, 1299.867
242.2918, 1305.420
242.7739, 1308.159
243.2560, 1306.587
243.7381, 1304.532
244.2203, 1303.645
244.7024, 1305.000
245.1845, 1304.420
245.6666, 1301.089
246.1487, 1296.221
246.6308, 1292.010
247.1130, 1288.482
247.5951, 1285.541
248.0772, 1283.110
248.5593, 1281.015
249.0414, 1280.042
249.5235, 1280.579
250.0057, 1281.980
250.4878, 1283.061
250.9699, 1283.057
251.4520, 1284.105
251.9341, 1287.105
252.4162, 1292.559
252.8984, 1297.533
253.3805, 1301.955
253.8626, 1305.981
254.3447, 1309.760
254.8268, 1313.479
255.3089, 1316.698
255.7911, 1319.239
256.2732, 1321.083
256.7553, 1322.537
257.2374, 1323.479
257.7195, 1324.159
258.2017, 1324.947
258.6838, 1326.102
259.1659, 1326.810
259.6480, 1326.911
260.1301, 1326.409
260.6122, 1325.213
261.0944, 1322.962
261.5765, 1320.459
262.0586, 1318.635
262.5407, 1317.843
263.0228, 1316.764
263.5049, 1314.983
263.9871, 1312.539
264.4692, 1310.776
264.9513, 1310.089
265.4334, 1309.439
265.9155, 1307.634
266.3976, 1304.170
266.8798, 1301.456
267.3619, 1300.398
267.8440, 1300.615
268.3261, 1298.960
268.8082, 1294.950
269.2903, 1290.099
269.7725, 1285.866
270.2546, 1282.750
270.7367, 1278.082
271.2188, 1271.036
271.7009, 1262.283
272.1830, 1254.759
272.6652, 1249.127
273.1473, 1243.037
273.6294, 1234.416
274.1115, 1222.731
274.5936, 1211.832
275.0757, 1202.200
275.5579, 1193.407
276.0400, 1184.338
276.5221, 1174.748
277.0042, 1165.840
277.4863, 1158.654
277.9684, 1153.353
278.4506, 1147.383
278.9327, 1140.286
279.4148, 1132.808
279.8969, 1126.426
280.3790, 1121.170
280.8611, 1116.845
281.3433, 1113.615
281.8254, 1111.468
282.3075, 1109.081
282.7896, 1106.180
283.2717, 1103.541
283.7538, 1102.526
284.2360, 1103.183
284.7181, 1104.351
285.2002, 1105.588
285.6823, 1106.909
286.1644, 1108.248
286.6465, 1109.406
287.1287, 1111.229
287.6108, 1115.055
288.0929, 1120.792
288.5750, 1126.909
289.0571, 1132.844
289.5392, 1138.726
290.0214, 1145.010
290.5035, 1151.705
290.9856, 1158.519
291.4677, 1164.883
291.9498, 1170.985
292.4319, 1177.797
292.9141, 1186.015
293.3962, 1194.987
293.8783, 1202.930
294.3604, 1209.799
294.8425, 1217.042
295.3246, 1225.996
295.8068, 1236.458
296.2889, 1247.509
296.7710, 1258.979
297.2531, 1271.074
297.7352, 1284.273
298.2173, 1298.411
298.6995, 1312.676
299.1816, 1325.193
299.6637, 1337.426
300.1458, 1352.371
300.6279, 1371.210
301.1100, 1391.761
301.5922, 1411.269
302.0743, 1429.975
302.5564, 1448.834
303.0385, 1468.490
303.5206, 1488.673
304.0027, 1509.633
304.4849, 1531.393
304.9670, 1553.048
305.4491, 1574.710
305.9312, 1595.482
306.4133, 1613.225
306.8954, 1627.366
307.3776, 1637.776
307.8597, 1644.134
308.3418, 1646.509
308.8239, 1644.924
309.3060, 1639.678
309.7881, 1630.456
310.2703, 1616.958
310.7524, 1597.383
311.2345, 1574.656
311.7166, 1550.033
312.1987, 1523.661
312.6808, 1498.029
313.1630, 1472.955
313.6451, 1449.689
314.1272, 1429.361
314.6093, 1413.246
315.0914, 1399.522
315.5735, 1388.251
316.0557, 1379.096
316.5378, 1370.315
317.0199, 1359.777
317.5020, 1350.164
317.9841, 1343.523
318.4662, 1342.561
318.9484, 1341.480
319.4305, 1337.834
319.9126, 1332.585
320.3947, 1328.256
320.8768, 1326.377
321.3589, 1325.005
321.8411, 1323.129
322.3232, 1320.325
322.8053, 1317.794
323.2874, 1316.385
323.7695, 1315.272
324.2516, 1313.154
324.7338, 1309.318
325.2159, 1304.909
325.6980, 1300.361
326.1801, 1295.835
326.6622, 1290.429
327.1443, 1283.027
327.6265, 1275.146
328.1086, 1268.288
328.5907, 1263.068
329.0728, 1258.310
329.5549, 1254.080
330.0370, 1250.374
330.5192, 1246.256
331.0013, 1241.286
331.4834, 1236.256
331.9655, 1231.684
332.4476, 1227.900
332.9297, 1223.947
333.4119, 1219.461
333.8940, 1214.716
334.3761, 1211.020
334.8582, 1208.660
335.3403, 1206.984
335.8224, 1205.664
336.3046, 1204.589
336.7867, 1204.201
337.2688, 1204.698
337.7509, 1205.719
338.2330, 1206.609
338.7151, 1207.402
339.1973, 1207.931
339.6794, 1207.902
340.1615, 1207.255
340.6436, 1207.684
341.1257, 1209.434
341.6078, 1211.771
342.0899, 1213.905
342.5721, 1215.827
343.0542, 1217.359
343.5363, 1217.995
344.0184, 1218.235
344.5005, 1220.708
344.9826, 1225.676
345.4648, 1230.866
345.9469, 1234.083
346.4290, 1235.559
346.9111, 1236.730
347.3932, 1237.668
347.8753, 1238.701
348.3575, 1241.000
348.8396, 1244.364
349.3217, 1246.791
349.8038, 1246.047
350.2859, 1243.348
350.7680, 1241.945
351.2502, 1242.542
351.7323, 1243.154
352.2144, 1241.569
352.6965, 1238.127
353.1786, 1233.902
353.6607, 1229.158
354.1429, 1224.083
354.6250, 1218.699
355.1071, 1213.005
355.5892, 1207.737
356.0713, 1204.190
356.5534, 1201.305
357.0356, 1197.494
357.5177, 1191.230
357.9998, 1184.630
358.4819, 1178.874
358.9640, 1174.014
359.4461, 1170.535
359.9283, 1170.124
360.4104, 1170.421
360.8925, 1169.333
361.3746, 1165.445
361.8567, 1161.724
362.3388, 1159.064
362.8210, 1157.445
363.3031, 1156.771
363.7852, 1157.139
364.2673, 1158.331
364.7494, 1160.332
365.2315, 1163.270
365.7137, 1166.533
366.1958, 1169.518
366.6779, 1172.900
367.1600, 1177.500
367.6421, 1184.412
368.1242, 1191.513
368.6064, 1198.417
369.0885, 1205.135
369.5706, 1211.817
370.0527, 1217.953
370.5348, 1224.499
371.0169, 1232.264
371.4991, 1242.325
371.9812, 1251.560
372.4633, 1258.789
372.9454, 1265.129
373.4275, 1274.531
373.9096, 1288.549
374.3918, 1303.137
374.8739, 1315.932
375.3560, 1326.311
375.8381, 1338.319
376.3202, 1351.894
376.8023, 1366.976
377.2845, 1383.568
377.7666, 1401.599
378.2487, 1420.751
378.7308, 1440.209
379.2129, 1460.463
379.6950, 1483.719
380.1772, 1510.678
380.6593, 1537.994
381.1414, 1562.797
381.6235, 1585.141
382.1056, 1607.930
382.5877, 1632.258
383.0699, 1656.331
383.5520, 1677.159
384.0341, 1694.911
384.5162, 1709.375
384.9983, 1720.848
385.4804, 1729.033
385.9626, 1733.938
386.4447, 1735.912
386.9268, 1732.733
387.4089, 1721.289
387.8910, 1702.895
388.3731, 1680.756
388.8553, 1655.257
389.3374, 1627.276
389.8195, 1596.992
390.3016, 1564.958
390.7837, 1533.122
391.2658, 1503.123
391.7480, 1474.194
392.2301, 1445.420
392.7122, 1415.417
393.1943, 1387.156
393.6764, 1362.853
394.1585, 1341.617
394.6407, 1321.360
395.1228, 1300.286
395.6049, 1280.712
396.0870, 1263.608
396.5691, 1249.404
397.0512, 1237.062
397.5334, 1227.184
398.0155, 1218.757
398.4976, 1210.639
398.9797, 1202.736
399.4618, 1195.000
399.9439, 1187.256
400.4261, 1179.494
400.9082, 1172.409
401.3903, 1165.914
401.8724, 1160.140
402.3545, 1155.189
402.8366, 1151.308
403.3188, 1147.817
403.8009, 1144.793
404.2830, 1142.087
404.7651, 1139.294
405.2472, 1136.367
405.7293, 1133.580
406.2115, 1131.001
406.6936, 1128.648
407.1757, 1126.767
407.6578, 1125.457
408.1399, 1124.359
408.6220, 1122.909
409.1042, 1121.125
409.5863, 1119.829
410.0684, 1119.275
410.5505, 1119.322
411.0326, 1119.687
411.5147, 1120.369
411.9969, 1121.211
412.4790, 1122.334
412.9611, 1123.531
413.4432, 1124.023
413.9253, 1123.433
414.4074, 1123.255
414.8896, 1125.447
415.3717, 1129.312
415.8538, 1133.210
416.3359, 1136.203
416.8180, 1138.949
417.3001, 1142.098
417.7823, 1145.674
418.2644, 1148.957
418.7465, 1151.090
419.2286, 1152.998
419.7107, 1155.543
420.1928, 1159.074
420.6750, 1163.123
421.1571, 1167.717
421.6392, 1172.719
422.1213, 1177.670
422.6034, 1182.062
423.0855, 1186.688
423.5677, 1191.955
424.0498, 1197.990
424.5319, 1204.224
425.0140, 1211.015
425.4961, 1217.882
425.9782, 1224.311
426.4604, 1229.397
426.9425, 1235.434
427.4246, 1242.980
427.9067, 1251.891
428.3888, 1260.623
428.8709, 1269.112
429.3531, 1277.512
429.8352, 1286.292
430.3173, 1295.702
430.7994, 1303.446
431.2815, 1309.179
431.7636, 1313.637
432.2458, 1318.037
432.7279, 1322.430
433.2100, 1325.655
433.6921, 1327.264
434.1742, 1327.372
434.6563, 1326.137
435.1385, 1323.510
435.6206, 1320.489
436.1027, 1318.023
436.5848, 1315.838
437.0669, 1313.226
437.5490, 1310.095
438.0312, 1306.413
438.5133, 1301.967
438.9954, 1296.902
439.4775, 1291.590
439.9596, 1285.230
440.4417, 1279.367
440.9239, 1275.705
441.4060, 1274.352
441.8881, 1273.362
442.3702, 1271.804
442.8523, 1270.010
443.3344, 1268.284
443.8166, 1266.982
444.2987, 1265.422
444.7808, 1262.618
445.2629, 1259.274
445.7450, 1257.465
446.2271, 1259.500
446.7093, 1261.510
447.1914, 1261.706
447.6735, 1258.967
448.1556, 1257.921
448.6377, 1259.356
449.1198, 1261.950
449.6020, 1264.478
450.0841, 1267.025
450.5662, 1269.230
451.0483, 1270.981
451.5304, 1272.361
452.0125, 1273.606
452.4947, 1274.622
452.9768, 1275.822
453.4589, 1277.766
453.9410, 1280.502
454.4231, 1281.762
454.9052, 1281.169
455.3874, 1280.183
455.8695, 1281.071
456.3516, 1283.504
456.8337, 1284.996
457.3158, 1284.068
457.7979, 1282.312
458.2801, 1282.724
458.7622, 1285.085
459.2443, 1287.866
459.7264, 1290.320
460.2085, 1292.468
460.6906, 1294.292
461.1728, 1295.795
461.6549, 1297.035
462.1370, 1297.224
462.6191, 1297.346
463.1012, 1298.846
463.5833, 1304.037
464.0655, 1309.059
464.5476, 1311.707
465.0297, 1312.260
465.5118, 1313.512
465.9939, 1316.664
466.4760, 1320.321
466.9582, 1323.697
467.4403, 1326.483
467.9224, 1329.454
468.4045, 1332.549
468.8866, 1335.843
469.3687, 1339.643
469.8509, 1344.722
470.3330, 1348.757
470.8151, 1350.863
471.2972, 1351.298
471.7793, 1352.571
472.2614, 1354.685
472.7436, 1357.704
473.2257, 1361.901
473.7078, 1367.319
474.1899, 1372.809
474.6720, 1378.437
475.1541, 1383.795
475.6363, 1388.208
476.1184, 1391.757
476.6005, 1394.988
477.0826, 1397.992
477.5647, 1400.868
478.0468, 1404.001
478.5290, 1407.326
479.0111, 1410.244
479.4932, 1412.505
479.9753, 1414.050
480.4574, 1414.793
480.9395, 1414.680
481.4217, 1413.894
481.9038, 1412.080
482.3859, 1409.775
482.8680, 1407.789
483.3501, 1405.728
483.8322, 1404.653
484.3144, 1406.128
484.7965, 1409.789
485.2786, 1410.774
485.7607, 1405.675
486.2428, 1399.799
486.7249, 1395.787
487.2071, 1394.602
487.6892, 1393.300
488.1713, 1391.729
488.6534, 1390.168
489.1355, 1388.979
489.6176, 1388.191
490.0998, 1387.889
490.5819, 1388.594
491.0640, 1389.802
491.5461, 1388.222
492.0282, 1383.411
492.5103, 1379.189
492.9925, 1379.136
493.4746, 1382.270
493.9567, 1383.264
494.4388, 1381.479
494.9209, 1378.934
495.4030, 1377.818
495.8852, 1377.717
496.3673, 1377.578
496.8494, 1376.828
497.3315, 1375.996
497.8136, 1375.814
498.2957, 1376.047
498.7779, 1375.787
499.2600, 1373.789
499.7421, 1371.648
500.2242, 1370.626
500.7063, 1371.160
501.1884, 1371.520
501.6706, 1371.350
502.1527, 1370.715
502.6348, 1369.679
503.1169, 1367.302
503.5990, 1365.712
504.0811, 1365.342
504.5633, 1365.961
505.0454, 1366.769
505.5275, 1368.004
506.0096, 1368.979
506.4917, 1369.092
506.9738, 1368.138
507.4560, 1369.032
507.9381, 1372.219
508.4202, 1376.036
508.9023, 1378.737
509.3844, 1380.389
509.8665, 1382.144
510.3487, 1384.211
510.8308, 1386.496
511.3129, 1388.520
511.7950, 1390.505
512.2772, 1393.477
512.7593, 1398.680
513.2414, 1404.790
513.7235, 1409.937
514.2056, 1414.168
514.6877, 1419.323
515.1699, 1426.822
515.6520, 1435.642
516.1341, 1444.973
516.6162, 1455.205
517.0983, 1464.811
517.5804, 1472.337
518.0626, 1479.151
518.5447, 1487.502
519.0268, 1498.429
519.5089, 1510.240
519.9910, 1522.492
520.4731, 1535.224
520.9553, 1548.619
521.4374, 1562.577
521.9195, 1577.126
522.4016, 1592.107
522.8837, 1607.109
523.3658, 1624.065
523.8480, 1643.086
524.3301, 1663.992
524.8122, 1686.514
525.2943, 1710.536
525.7764, 1735.665
526.2585, 1761.884
526.7407, 1789.061
527.2228, 1817.391
527.7049, 1847.021
528.1870, 1877.795
528.6691, 1911.332
529.1512, 1945.490
529.6334, 1977.288
530.1155, 2006.692
530.5976, 2036.562
531.0797, 2070.399
531.5618, 2105.113
532.0439, 2137.317
532.5261, 2167.031
533.0082, 2193.417
533.4903, 2216.881
533.9724, 2237.078
534.4545, 2253.853
534.9366, 2266.983
535.4188, 2276.799
535.9009, 2283.783
536.3830, 2287.896
536.8651, 2285.781
537.3472, 2275.319
537.8293, 2262.945
538.3115, 2253.537
538.7936, 2247.599
539.2757, 2238.733
539.7578, 2226.939
540.2399, 2211.569
540.7220, 2190.949
541.2042, 2165.667
541.6863, 2137.755
542.1684, 2107.439
542.6505, 2074.837
543.1326, 2039.074
543.6147, 2000.905
544.0969, 1962.223
544.5790, 1922.917
545.0611, 1885.267
545.5432, 1851.308
546.0253, 1821.373
546.5074, 1794.004
546.9896, 1768.199
547.4717, 1745.244
547.9538, 1726.202
548.4359, 1712.127
548.9180, 1700.845
549.4001, 1692.673
549.8823, 1686.915
550.3644, 1682.443
550.8465, 1679.024
551.3286, 1677.289
551.8107, 1677.470
552.2928, 1679.505
552.7750, 1682.543
553.2571, 1686.325
553.7392, 1692.401
554.2213, 1702.323
554.7034, 1715.553
555.1855, 1729.003
555.6677, 1742.230
556.1498, 1757.895
556.6319, 1779.760
557.1140, 1805.890
557.5961, 1832.163
558.0782, 1857.201
558.5604, 1882.438
559.0425, 1908.588
559.5246, 1935.637
560.0067, 1963.445
560.4888, 1992.728
560.9709, 2021.797
561.4531, 2051.056
561.9352, 2080.565
562.4173, 2104.233
562.8994, 2122.717
563.3815, 2133.796
563.8636, 2136.882
564.3458, 2133.355
564.8279, 2117.658
565.3100, 2087.833
565.7921, 2048.153
566.2742, 2003.479
566.7563, 1953.307
567.2385, 1900.633
567.7206, 1845.256
568.2027, 1789.175
568.6848, 1738.338
569.1669, 1692.061
569.6490, 1650.556
570.1312, 1613.777
570.6133, 1581.264
571.0954, 1553.328
571.5775, 1529.513
572.0596, 1508.498
572.5417, 1489.171
573.0239, 1471.982
573.5060, 1457.905
573.9881, 1447.824
574.4702, 1438.456
574.9523, 1428.203
575.4344, 1418.235
575.9166, 1410.164
576.3987, 1405.594
576.8808, 1400.696
577.3629, 1394.582
577.8450, 1387.874
578.3271, 1382.541
578.8093, 1378.766
579.2914, 1375.811
579.7735, 1373.348
580.2556, 1371.851
580.7377, 1370.608
581.2198, 1370.879
581.7020, 1371.718
582.1841, 1372.958
582.6662, 1374.379
583.1483, 1375.311
583.6304, 1375.498
584.1125, 1376.039
584.5947, 1378.028
585.0768, 1380.981
585.5589, 1384.173
586.0410, 1386.609
586.5231, 1390.130
