##NAMES=Colemanite
##RRUFFID=R050102
##IDEAL CHEMISTRY=CaB_3_O_4_(OH)_3_&#183;H_2_O
##LOCALITY=Kramer deposit, Boron, Kern County, California, USA
##OWNER=RRUFF
##SOURCE=Rock Currier
##DESCRIPTION=Colorless prismatic to tabular crystals
##STATUS=The identification of this mineral has been confirmed by X-ray diffraction and chemical analysis
##URL=rruff.info/R050102
##MEASURED CHEMISTRY=Ca_1.00_B_3.00_O_4_(OH)_3_Â·H_2_O ; trace amounts of Na; B assumed by stoichiometry and charge balance.
139.6275, 770.2353
140.1096, 773.5262
140.5918, 778.0714
141.0739, 782.1805
141.5560, 785.8415
142.0381, 789.0103
142.5202, 791.4153
143.0023, 792.3950
143.4845, 794.4662
143.9666, 798.3643
144.4487, 804.1541
144.9308, 809.4070
145.4129, 814.1520
145.8951, 818.4150
146.3772, 822.3535
146.8593, 825.9222
147.3414, 829.2420
147.8235, 832.5805
148.3056, 836.3500
148.7878, 838.2962
149.2699, 838.2572
149.7520, 836.4918
150.2341, 833.3757
150.7162, 828.0634
151.1983, 822.2379
151.6805, 816.1501
152.1626, 809.6528
152.6447, 803.3798
153.1268, 797.9325
153.6089, 792.5446
154.0910, 786.0273
154.5732, 776.2611
155.0553, 767.0389
155.5374, 759.7364
156.0195, 755.1354
156.5016, 751.0436
156.9837, 747.2500
157.4659, 743.7962
157.9480, 740.7593
158.4301, 737.9468
158.9122, 735.7341
159.3943, 734.3865
159.8764, 734.3541
160.3586, 734.4961
160.8407, 734.2031
161.3228, 733.8030
161.8049, 734.2155
162.2870, 736.2806
162.7691, 738.9315
163.2512, 741.4304
163.7334, 743.0323
164.2155, 745.2227
164.6976, 748.8038
165.1797, 753.5439
165.6618, 758.5754
166.1439, 763.7359
166.6261, 768.8353
167.1082, 773.6731
167.5903, 777.8737
168.0724, 782.1312
168.5545, 786.7493
169.0366, 791.7408
169.5188, 797.1813
170.0009, 802.7119
170.4830, 808.8207
170.9651, 816.2542
171.4472, 826.2117
171.9293, 836.7979
172.4115, 846.3402
172.8936, 854.9462
173.3757, 863.8593
173.8578, 874.9997
174.3399, 886.7653
174.8220, 896.8378
175.3042, 905.0219
175.7863, 910.6973
176.2684, 913.5020
176.7505, 913.4330
177.2326, 910.0726
177.7147, 903.1308
178.1969, 892.6198
178.6790, 878.7081
179.1611, 859.6249
179.6432, 837.8724
180.1253, 816.8004
180.6074, 796.5751
181.0896, 777.2468
181.5717, 758.5786
182.0538, 740.9324
182.5359, 724.7452
183.0180, 710.8936
183.5001, 698.7712
183.9823, 687.4584
184.4644, 677.0629
184.9465, 667.3649
185.4286, 658.2191
185.9107, 649.6052
186.3928, 641.8694
186.8750, 635.3839
187.3571, 629.9200
187.8392, 624.5641
188.3213, 619.2672
188.8034, 614.4395
189.2855, 610.9803
189.7677, 608.7831
190.2498, 606.6037
190.7319, 603.4046
191.2140, 599.5780
191.6961, 597.4908
192.1782, 597.5176
192.6603, 598.2667
193.1425, 597.2485
193.6246, 594.4856
194.1067, 592.6243
194.5888, 593.7363
195.0709, 597.4365
195.5530, 599.3367
196.0352, 598.9089
196.5173, 597.6126
196.9994, 597.9480
197.4815, 600.0164
197.9636, 602.3583
198.4457, 604.2269
198.9279, 605.6115
199.4100, 607.3287
199.8921, 609.3689
200.3742, 611.7980
200.8563, 614.9757
201.3384, 619.1056
201.8206, 622.9058
202.3027, 625.4442
202.7848, 626.5667
203.2669, 628.7761
203.7490, 632.6715
204.2311, 637.0673
204.7133, 639.2839
205.1954, 638.8622
205.6775, 638.1924
206.1596, 638.3749
206.6417, 639.4841
207.1238, 641.0483
207.6060, 643.2033
208.0881, 645.6793
208.5702, 647.7162
209.0523, 648.9978
209.5344, 650.8024
210.0165, 653.8814
210.4987, 658.5175
210.9808, 663.1680
211.4629, 667.7756
211.9450, 672.3625
212.4271, 676.7648
212.9092, 680.6104
213.3914, 685.1732
213.8735, 691.3661
214.3556, 699.7426
214.8377, 707.3166
215.3198, 713.4888
215.8019, 719.0968
216.2841, 726.0432
216.7662, 734.7260
217.2483, 743.9843
217.7304, 753.5269
218.2125, 763.6832
218.6946, 772.7615
219.1767, 780.5469
219.6589, 787.2937
220.1410, 794.1983
220.6231, 802.0518
221.1052, 808.6152
221.5873, 812.8742
222.0694, 814.3339
222.5516, 814.8619
223.0337, 814.9348
223.5158, 813.8889
223.9979, 809.8233
224.4800, 801.6743
224.9621, 792.3993
225.4443, 783.3175
225.9264, 774.4365
226.4085, 765.4947
226.8906, 756.1984
227.3727, 746.9479
227.8548, 738.1394
228.3370, 729.5944
228.8191, 721.9285
229.3012, 715.4982
229.7833, 711.0558
230.2654, 705.9214
230.7475, 699.3845
231.2297, 692.4664
231.7118, 687.6380
232.1939, 686.0783
232.6760, 684.7245
233.1581, 682.1699
233.6402, 677.4875
234.1224, 674.2624
234.6045, 673.1754
235.0866, 673.2332
235.5687, 672.2682
236.0508, 669.6420
236.5329, 666.9952
237.0151, 664.9449
237.4972, 663.6071
237.9793, 662.5031
238.4614, 661.6249
238.9435, 660.9709
239.4256, 660.5819
239.9078, 660.7377
240.3899, 660.7184
240.8720, 660.1594
241.3541, 658.7161
241.8362, 658.0277
242.3183, 658.5554
242.8005, 659.6075
243.2826, 659.8710
243.7647, 658.5961
244.2468, 657.8050
244.7289, 658.3855
245.2110, 660.9433
245.6931, 662.2914
246.1753, 661.6234
246.6574, 660.2588
247.1395, 660.3715
247.6216, 662.9686
248.1037, 665.2604
248.5858, 666.2471
249.0680, 665.5406
249.5501, 665.5757
250.0322, 666.5439
250.5143, 668.0886
250.9964, 669.7459
251.4785, 671.4971
251.9607, 673.3990
252.4428, 675.5466
252.9249, 677.9716
253.4070, 680.2012
253.8891, 682.1055
254.3712, 683.9426
254.8534, 685.9338
255.3355, 687.7557
255.8176, 690.3998
256.2997, 694.3951
256.7818, 699.8048
257.2639, 704.5998
257.7461, 708.6913
258.2282, 712.2845
258.7103, 715.4617
259.1924, 717.9763
259.6745, 720.7057
260.1566, 723.7877
260.6388, 727.2515
261.1209, 730.7857
261.6030, 734.4439
262.0851, 738.1455
262.5672, 741.9061
263.0493, 746.1055
263.5315, 749.4131
264.0136, 751.3745
264.4957, 752.1531
264.9778, 753.3137
265.4599, 755.0728
265.9420, 756.8432
266.4242, 758.2380
266.9063, 759.4041
267.3884, 759.6830
267.8705, 758.6247
268.3526, 756.6052
268.8347, 755.5718
269.3169, 755.7976
269.7990, 756.4150
270.2811, 757.0013
270.7632, 757.7045
271.2453, 757.6193
271.7274, 756.4723
272.2096, 754.5227
272.6917, 752.5782
273.1738, 750.6248
273.6559, 748.6403
274.1380, 746.6830
274.6201, 744.7979
275.1023, 742.4815
275.5844, 739.4872
276.0665, 736.2540
276.5486, 733.8168
277.0307, 732.3956
277.5128, 730.9568
277.9950, 728.7187
278.4771, 725.5617
278.9592, 723.5061
279.4413, 722.9493
279.9234, 723.0208
280.4055, 721.4003
280.8877, 717.5964
281.3698, 715.6917
281.8519, 719.3113
282.3340, 728.3923
282.8161, 732.1052
283.2982, 729.3334
283.7804, 723.6765
284.2625, 720.4456
284.7446, 719.6940
285.2267, 718.9832
285.7088, 717.0846
286.1909, 714.2699
286.6730, 712.5095
287.1552, 711.8691
287.6373, 712.0003
288.1194, 712.6124
288.6015, 713.6927
289.0836, 714.9958
289.5657, 716.2723
290.0479, 717.7363
290.5300, 720.5594
291.0121, 724.8880
291.4942, 729.0529
291.9763, 730.8870
292.4584, 730.8183
292.9406, 731.5555
293.4227, 734.0317
293.9048, 737.5784
294.3869, 740.8563
294.8690, 743.8741
295.3511, 746.6304
295.8333, 748.8073
296.3154, 750.6751
296.7975, 753.2174
297.2796, 756.6378
297.7617, 760.7653
298.2438, 766.2845
298.7260, 772.8199
299.2081, 777.7567
299.6902, 777.7809
300.1723, 775.0457
300.6544, 774.2957
301.1365, 776.6611
301.6187, 780.1273
302.1008, 781.9119
302.5829, 782.5831
303.0650, 784.3365
303.5471, 789.5844
304.0292, 796.3046
304.5114, 801.3262
304.9935, 804.1423
305.4756, 806.5505
305.9577, 810.4887
306.4398, 815.3420
306.9219, 819.7205
307.4041, 823.0314
307.8862, 825.5121
308.3683, 827.3779
308.8504, 828.6016
309.3325, 829.5490
309.8146, 830.4754
310.2968, 831.2859
310.7789, 831.8526
311.2610, 832.2333
311.7431, 832.2744
312.2252, 831.6430
312.7073, 830.4082
313.1895, 829.3763
313.6716, 828.2910
314.1537, 827.9407
314.6358, 829.1735
315.1179, 832.7670
315.6000, 837.4491
316.0822, 843.1158
316.5643, 849.5049
317.0464, 855.5243
317.5285, 860.3088
318.0106, 864.7762
318.4927, 869.6348
318.9749, 875.6135
319.4570, 881.0520
319.9391, 885.3420
320.4212, 888.6228
320.9033, 891.3383
321.3854, 893.6114
321.8676, 895.3368
322.3497, 896.5834
322.8318, 897.6210
323.3139, 897.3843
323.7960, 895.4174
324.2781, 892.0964
324.7603, 887.9435
325.2424, 883.4014
325.7245, 877.7247
326.2066, 870.4189
326.6887, 861.2002
327.1708, 852.0963
327.6530, 843.3303
328.1351, 834.7746
328.6172, 826.2051
329.0993, 817.8326
329.5814, 809.2073
330.0635, 799.8419
330.5457, 789.7919
331.0278, 780.8938
331.5099, 774.1052
331.9920, 767.6168
332.4741, 760.3660
332.9562, 751.2084
333.4384, 743.0226
333.9205, 735.9162
334.4026, 729.9255
334.8847, 725.1091
335.3668, 722.2296
335.8489, 719.3648
336.3311, 715.4499
336.8132, 709.7209
337.2953, 705.0592
337.7774, 701.6016
338.2595, 699.1346
338.7416, 697.5722
339.2238, 697.3405
339.7059, 696.6849
340.1880, 694.6462
340.6701, 691.1384
341.1522, 688.8949
341.6343, 687.9903
342.1164, 688.1580
342.5985, 689.7036
343.0807, 692.9335
343.5628, 694.5709
344.0449, 693.1715
344.5270, 689.6028
345.0091, 687.5492
345.4912, 687.1029
345.9734, 687.4012
346.4555, 688.0389
346.9376, 688.9229
347.4197, 689.2525
347.9018, 688.7419
348.3839, 687.7850
348.8661, 686.9510
349.3482, 686.2510
349.8303, 685.8619
350.3124, 685.9665
350.7945, 686.4551
351.2766, 687.0859
351.7588, 687.8713
352.2409, 688.6700
352.7230, 689.5629
353.2051, 690.3910
353.6872, 690.6885
354.1693, 689.5649
354.6515, 688.0861
355.1336, 687.8593
355.6157, 688.9525
356.0978, 690.0449
356.5799, 690.1694
357.0620, 689.6192
357.5442, 688.8041
358.0263, 687.4118
358.5084, 686.2381
358.9905, 686.0583
359.4726, 686.7071
359.9547, 687.3041
360.4369, 687.3414
360.9190, 687.1218
361.4011, 686.8244
361.8832, 686.2301
362.3653, 686.0516
362.8474, 686.9091
363.3296, 688.4001
363.8117, 689.6880
364.2938, 690.3115
364.7759, 690.7937
365.2580, 691.3024
365.7401, 691.7925
366.2223, 692.5810
366.7044, 694.1518
367.1865, 695.8986
367.6686, 697.1650
368.1507, 696.9523
368.6328, 697.1784
369.1150, 698.4772
369.5971, 700.8753
370.0792, 702.8635
370.5613, 704.3874
371.0434, 705.5071
371.5255, 706.2262
372.0077, 706.1139
372.4898, 706.2587
372.9719, 706.5895
373.4540, 707.2224
373.9361, 708.6127
374.4182, 711.2092
374.9004, 713.8030
375.3825, 715.8771
375.8646, 717.3060
376.3467, 718.6488
376.8288, 719.8277
377.3109, 721.0139
377.7931, 722.3051
378.2752, 723.5270
378.7573, 725.7034
379.2394, 729.4890
379.7215, 734.5673
380.2036, 738.8898
380.6858, 742.2733
381.1679, 745.4023
381.6500, 748.5623
382.1321, 751.8349
382.6142, 755.9503
383.0963, 761.2984
383.5785, 767.2527
384.0606, 772.9789
384.5427, 778.3678
385.0248, 783.2351
385.5069, 787.7709
385.9890, 791.6425
386.4712, 793.7169
386.9533, 793.7414
387.4354, 792.9792
387.9175, 793.4196
388.3996, 794.1315
388.8817, 792.9836
389.3639, 788.0170
389.8460, 781.3896
390.3281, 774.8451
390.8102, 768.4405
391.2923, 762.3787
391.7744, 757.0911
392.2566, 752.0395
392.7387, 746.5252
393.2208, 740.1180
393.7029, 733.6358
394.1850, 726.8221
394.6671, 720.1611
395.1493, 714.8398
395.6314, 712.6380
396.1135, 710.8729
396.5956, 708.0355
397.0777, 703.6008
397.5598, 699.4250
398.0419, 695.8389
398.5240, 692.7551
399.0062, 690.0720
399.4883, 687.6041
399.9704, 685.6959
400.4525, 684.6120
400.9346, 684.3137
401.4167, 683.9704
401.8989, 683.7408
402.3810, 683.3110
402.8631, 682.4771
403.3452, 681.0487
403.8273, 679.5291
404.3094, 677.7009
404.7916, 675.9079
405.2737, 675.2379
405.7558, 676.4846
406.2379, 676.8371
406.7200, 674.5525
407.2021, 669.4213
407.6843, 667.3193
408.1664, 668.9672
408.6485, 671.8687
409.1306, 673.2571
409.6127, 673.1417
410.0948, 672.8125
410.5770, 672.5459
411.0591, 672.2961
411.5412, 671.9541
412.0233, 671.5184
412.5054, 671.0092
412.9875, 670.2709
413.4697, 669.4721
413.9518, 669.0203
414.4339, 668.9444
414.9160, 669.3105
415.3981, 670.6934
415.8802, 672.6088
416.3624, 673.9039
416.8445, 673.3011
417.3266, 672.2755
417.8087, 672.3732
418.2908, 673.5549
418.7729, 674.7571
419.2551, 675.4515
419.7372, 675.7658
420.2193, 675.7647
420.7014, 675.0888
421.1835, 674.6847
421.6656, 675.1212
422.1478, 676.1428
422.6299, 677.1456
423.1120, 678.2071
423.5941, 678.9973
424.0762, 679.1833
424.5583, 678.4886
425.0405, 678.3515
425.5226, 679.6218
426.0047, 681.1972
426.4868, 681.9606
426.9689, 680.5736
427.4510, 680.2038
427.9332, 681.8400
428.4153, 684.9669
428.8974, 686.6272
429.3795, 686.0599
429.8616, 685.2036
430.3438, 685.0400
430.8259, 685.6941
431.3080, 686.5623
431.7901, 687.6485
432.2722, 688.9435
432.7543, 690.7598
433.2365, 693.2267
433.7186, 694.7633
434.2007, 694.3492
434.6828, 692.7052
435.1649, 692.7831
435.6470, 694.6528
436.1292, 696.8963
436.6113, 698.4047
437.0934, 699.3412
437.5755, 700.1080
438.0576, 700.6027
438.5397, 701.3796
439.0219, 703.5551
439.5040, 706.6592
439.9861, 709.2521
440.4682, 710.1985
440.9503, 710.5794
441.4324, 711.4000
441.9146, 712.7062
442.3967, 714.1887
442.8788, 715.7969
443.3609, 717.4536
443.8430, 719.0209
444.3251, 720.1984
444.8073, 721.6850
445.2894, 723.9254
445.7715, 726.6733
446.2536, 729.2897
446.7357, 731.9119
447.2178, 734.1124
447.7000, 735.4130
448.1821, 735.2388
448.6642, 736.3263
449.1463, 739.2838
449.6284, 743.1382
450.1105, 747.0900
450.5927, 751.3239
451.0747, 755.3093
451.5569, 758.9556
452.0390, 762.3155
452.5211, 765.7634
453.0032, 769.3412
453.4853, 772.8555
453.9674, 776.4274
454.4496, 780.1631
454.9317, 782.6468
455.4138, 783.8396
455.8959, 783.8613
456.3780, 782.5648
456.8601, 780.0641
457.3423, 777.3262
457.8244, 774.5350
458.3065, 771.7935
458.7886, 769.5272
459.2707, 767.6311
459.7528, 765.5345
460.2350, 762.5192
460.7171, 759.1335
461.1992, 756.0774
461.6813, 753.4558
462.1634, 751.1417
462.6455, 748.6641
463.1277, 746.4797
463.6098, 745.2705
464.0919, 746.4720
464.5740, 747.6135
465.0561, 747.3127
465.5382, 745.7796
466.0204, 744.4649
466.5025, 743.1318
466.9846, 742.6195
467.4667, 743.5986
467.9488, 747.3246
468.4309, 750.0336
468.9131, 750.6329
469.3952, 750.4237
469.8773, 751.0613
470.3594, 752.8578
470.8415, 755.0530
471.3236, 757.6612
471.8058, 760.5983
472.2879, 763.1863
472.7700, 765.1760
473.2521, 767.4395
473.7342, 770.6574
474.2163, 774.9052
474.6985, 778.9235
475.1806, 782.6140
475.6627, 786.1823
476.1448, 790.0228
476.6269, 794.0972
477.1090, 798.1057
477.5912, 802.1537
478.0733, 805.9202
478.5554, 808.7349
479.0375, 810.6488
479.5196, 812.0968
480.0017, 813.7595
480.4839, 814.9993
480.9660, 814.8632
481.4481, 812.9936
481.9302, 810.6055
482.4123, 809.3054
482.8944, 807.8184
483.3766, 804.2813
483.8587, 795.6121
484.3408, 787.1318
484.8229, 781.1788
485.3050, 777.4840
485.7871, 773.5964
486.2693, 768.6924
486.7514, 763.6799
487.2335, 759.0262
487.7156, 754.5745
488.1977, 750.7081
488.6798, 747.3785
489.1620, 744.6143
489.6441, 742.5925
490.1262, 741.6417
490.6083, 740.5323
491.0904, 738.9536
491.5725, 737.0419
492.0547, 735.3741
492.5368, 734.0068
493.0189, 732.7166
493.5010, 731.2184
493.9831, 729.6327
494.4652, 728.8121
494.9474, 728.9432
495.4295, 729.1661
495.9116, 728.0559
496.3937, 726.2000
496.8758, 725.3358
497.3579, 726.5895
497.8401, 728.4146
498.3222, 729.2897
498.8043, 729.3288
499.2864, 729.0165
499.7685, 728.2270
500.2506, 727.4257
500.7328, 726.8118
501.2149, 726.3164
501.6970, 726.5771
502.1791, 728.7846
502.6612, 731.3977
503.1433, 732.9628
503.6255, 732.1276
504.1076, 731.5598
504.5897, 731.9096
505.0718, 732.7822
505.5539, 732.9322
506.0360, 731.6160
506.5181, 730.7343
507.0002, 731.0541
507.4824, 732.6488
507.9645, 734.1123
508.4466, 735.2742
508.9287, 736.6991
509.4108, 739.2607
509.8929, 742.9395
510.3751, 745.7350
510.8572, 747.3559
511.3393, 747.9929
511.8214, 747.3912
512.3035, 745.8640
512.7856, 745.1148
513.2678, 746.9680
513.7499, 749.5989
514.2320, 749.9294
514.7141, 748.1699
515.1962, 747.1093
515.6783, 749.2839
516.1605, 752.6844
516.6426, 755.3486
517.1247, 756.5964
517.6068, 757.9025
518.0889, 760.0938
518.5710, 762.6684
519.0532, 764.8710
519.5353, 765.6441
520.0174, 767.0436
520.4995, 769.8961
520.9816, 773.9684
521.4637, 777.6377
521.9459, 780.9019
522.4280, 783.7688
522.9101, 785.9846
523.3922, 787.1906
523.8743, 789.5845
524.3564, 793.3307
524.8386, 797.9288
525.3207, 802.8870
525.8028, 808.1598
526.2849, 813.7220
526.7670, 819.5610
527.2491, 825.6135
527.7313, 831.5609
528.2134, 837.4719
528.6955, 843.6400
529.1776, 850.4998
529.6597, 857.5193
530.1418, 863.8988
530.6240, 869.5070
531.1061, 875.1794
531.5882, 881.8337
532.0703, 888.5328
532.5524, 894.3955
533.0345, 899.1414
533.5167, 903.0594
533.9988, 906.3051
534.4809, 908.7364
534.9630, 910.1052
535.4451, 910.1903
535.9272, 909.4267
536.4094, 907.9876
536.8915, 905.8499
537.3736, 902.5146
537.8557, 897.4044
538.3378, 892.0084
538.8199, 887.2567
539.3021, 883.3318
539.7842, 878.5926
540.2663, 872.8074
540.7484, 866.6749
541.2305, 860.7648
541.7126, 855.1032
542.1948, 850.3500
542.6769, 846.8621
543.1590, 844.1501
543.6411, 841.6026
544.1232, 839.2794
544.6053, 837.4048
545.0875, 836.0163
545.5696, 835.1735
546.0517, 834.8826
546.5338, 835.1495
547.0159, 836.1544
547.4980, 838.7181
547.9802, 841.6249
548.4623, 843.8362
548.9444, 844.1462
549.4265, 845.5917
549.9086, 849.0179
550.3907, 853.6995
550.8729, 858.6880
551.3550, 864.3428
551.8371, 869.5980
552.3192, 873.8679
552.8013, 877.4907
553.2834, 882.5018
553.7656, 889.2636
554.2477, 896.0844
554.7298, 901.8528
555.2119, 906.7590
555.6940, 912.2746
556.1761, 918.3592
556.6583, 925.6618
557.1404, 935.2618
557.6225, 946.6069
558.1046, 958.2306
558.5867, 969.9076
559.0688, 981.7604
559.5510, 993.5482
560.0331, 1005.591
560.5152, 1018.747
560.9973, 1033.794
561.4794, 1049.707
561.9615, 1066.781
562.4437, 1084.619
562.9258, 1100.518
563.4079, 1114.659
563.8900, 1126.112
564.3721, 1134.543
564.8542, 1140.252
565.3364, 1142.296
565.8185, 1141.050
566.3006, 1135.694
566.7827, 1124.786
567.2648, 1107.840
567.7469, 1088.786
568.2291, 1067.586
568.7112, 1045.489
569.1933, 1024.142
569.6754, 1003.663
570.1575, 984.2411
570.6396, 965.8873
571.1218, 948.7151
571.6039, 932.5050
572.0860, 917.5629
572.5681, 905.1342
573.0502, 897.1876
573.5323, 891.6649
574.0145, 886.8957
574.4966, 882.9267
574.9787, 878.4368
575.4608, 872.0013
575.9429, 865.2308
576.4250, 859.7772
576.9072, 857.4695
577.3893, 854.4475
577.8714, 850.0567
578.3535, 844.9002
578.8356, 840.4433
579.3177, 836.7210
579.7999, 833.6633
580.2820, 831.3532
580.7641, 829.7112
581.2462, 828.0352
581.7283, 826.3030
582.2104, 824.8688
582.6926, 823.9849
583.1747, 823.6077
583.6568, 823.8005
584.1389, 824.6464
584.6210, 825.2863
585.1031, 823.9036
585.5853, 822.1070
586.0674, 822.4176
586.5495, 826.8680
587.0316, 831.2890
587.5137, 833.0684
587.9958, 833.4266
588.4779, 834.7459
588.9600, 837.4268
589.4421, 841.3484
589.9243, 846.8621
590.4064, 853.7864
590.8885, 860.7184
591.3706, 867.2966
591.8527, 874.4525
592.3348, 882.5678
592.8170, 891.6745
593.2991, 901.7012
593.7812, 912.5931
594.2633, 924.8256
594.7454, 939.3394
595.2275, 955.6937
595.7097, 971.4218
596.1918, 985.8086
596.6739, 1000.384
597.1560, 1016.566
597.6381, 1034.257
598.1202, 1052.833
598.6024, 1072.012
599.0845, 1092.208
599.5666, 1113.239
600.0487, 1135.469
600.5308, 1159.855
601.0129, 1186.803
601.4951, 1215.877
601.9772, 1246.545
602.4593, 1278.837
602.9414, 1313.360
603.4235, 1349.901
603.9056, 1389.009
604.3878, 1431.859
604.8699, 1477.887
605.3520, 1526.594
605.8341, 1578.397
606.3162, 1632.110
606.7983, 1688.198
607.2805, 1745.704
607.7626, 1802.330
608.2447, 1859.085
608.7268, 1912.109
609.2089, 1960.310
609.6910, 2002.174
610.1732, 2034.993
610.6553, 2062.211
611.1374, 2075.377
611.6195, 2068.226
612.1016, 2041.179
612.5837, 2000.028
613.0659, 1941.666
613.5480, 1873.428
614.0301, 1797.694
614.5122, 1713.066
614.9943, 1628.951
615.4764, 1543.021
615.9586, 1461.721
616.4407, 1389.870
616.9228, 1328.990
617.4049, 1273.336
617.8870, 1221.902
618.3691, 1175.240
618.8513, 1134.344
619.3334, 1098.958
619.8155, 1066.823
620.2976, 1037.535
620.7797, 1011.712
621.2618, 991.3520
621.7440, 975.4174
622.2261, 960.4951
622.7082, 944.8609
623.1903, 930.0203
623.6724, 916.8514
624.1545, 905.5003
624.6367, 894.9846
625.1188, 884.8364
625.6009, 875.7902
626.0830, 868.3715
626.5651, 863.1113
627.0472, 857.4587
627.5294, 851.2415
628.0115, 844.9342
628.4936, 838.8968
628.9757, 833.0684
629.4578, 828.2703
629.9399, 824.7141
630.4221, 821.8173
630.9042, 818.7311
631.3863, 815.5929
631.8684, 812.9184
632.3505, 811.2400
632.8326, 809.6879
633.3148, 807.4115
633.7969, 804.6298
