##NAMES=Collinsite
##RRUFFID=R060140
##IDEAL CHEMISTRY=Ca_2_Mg(PO_4_)_2_&#183;2H_2_O
##LOCALITY=Big Fish River, Yukon Territory, Canada
##OWNER=RRUFF
##SOURCE=Mark Mauthner
##DESCRIPTION=Platy, colorless fragment
##STATUS=The identification of this mineral has been confirmed by X-ray diffraction and chemical analysis
##URL=rruff.info/R060140
##MEASURED CHEMISTRY=Ca_2.00_(Mg_0.63_Fe^2+^_0.34_Mn_0.03_)_Σ=1_(P_1.00_O_4_)_2_·2H_2_O ; = darker phase. The lighter phase is: Ca_2.00_(Mg_0.58_Fe^2+^_0.38_Mn_0.04_)_Σ=1_(P_1.00_O_4_)_2_·2H_2_O
92.02539, 44.40697
92.50751, 44.00649
92.98962, 44.13873
93.47174, 44.48446
93.95386, 45.02492
94.43597, 45.41253
94.91809, 45.56138
95.40021, 45.56308
95.88232, 45.50807
96.36444, 45.06240
96.84656, 45.02987
97.32867, 45.69213
97.81078, 46.87418
98.29290, 48.30593
98.77502, 49.79210
99.25713, 51.30357
99.73925, 52.49591
100.2214, 53.65699
100.7035, 54.40813
101.1856, 54.50499
101.6677, 53.97462
102.1498, 53.05150
102.6320, 51.98409
103.1141, 50.63308
103.5962, 49.46948
104.0783, 48.68622
104.5604, 47.99923
105.0425, 47.09193
105.5247, 45.85131
106.0068, 44.41093
106.4889, 42.96869
106.9710, 41.51349
107.4531, 40.08191
107.9352, 38.58791
108.4173, 37.07967
108.8995, 35.81240
109.3816, 34.86542
109.8637, 34.24718
110.3458, 33.94915
110.8279, 33.99604
111.3100, 34.26528
111.7922, 34.64680
112.2743, 35.17576
112.7564, 35.69941
113.2385, 36.05906
113.7206, 36.44099
114.2027, 37.01810
114.6849, 37.87010
115.1670, 38.95064
115.6491, 40.07195
116.1312, 41.06722
116.6133, 42.34652
117.0954, 43.91571
117.5776, 45.81107
118.0597, 48.03984
118.5418, 50.59122
119.0239, 53.46667
119.5060, 57.16917
119.9881, 61.14502
120.4703, 66.22646
120.9524, 72.76653
121.4345, 80.73576
121.9166, 90.06597
122.3987, 100.9804
122.8808, 113.8153
123.3630, 125.3470
123.8451, 137.7101
124.3272, 147.7351
124.8093, 152.1375
125.2914, 150.2838
125.7735, 143.7505
126.2557, 132.0289
126.7378, 116.2478
127.2199, 100.7663
127.7020, 86.81972
128.1841, 74.41335
128.6662, 63.82742
129.1483, 55.29699
129.6305, 48.61840
130.1126, 43.41221
130.5947, 39.60182
131.0768, 36.68284
131.5589, 34.35404
132.0410, 32.65861
132.5232, 31.21116
133.0053, 30.04664
133.4874, 29.06327
133.9695, 28.21914
134.4516, 27.50760
134.9337, 26.96782
135.4159, 26.69657
135.8980, 26.94534
136.3801, 26.98424
136.8622, 26.62214
137.3443, 26.15193
137.8264, 25.82272
138.3086, 25.72870
138.7907, 25.78736
139.2728, 25.77517
139.7549, 25.48651
140.2370, 25.36492
140.7191, 25.56551
141.2013, 25.93414
141.6834, 26.23071
142.1655, 26.31538
142.6476, 26.25673
143.1297, 26.35988
143.6118, 26.60305
144.0939, 26.98293
144.5761, 27.53958
145.0582, 28.24995
145.5403, 29.00906
146.0224, 29.74289
146.5045, 30.49256
146.9866, 31.33459
147.4688, 32.04038
147.9509, 33.02942
148.4330, 34.76617
148.9151, 37.32446
149.3972, 40.19130
149.8793, 43.25035
150.3615, 46.41941
150.8436, 49.67212
151.3257, 53.22043
151.8078, 56.72967
152.2899, 59.55756
152.7720, 62.24287
153.2542, 63.08394
153.7363, 61.20824
154.2184, 57.47054
154.7005, 53.05367
155.1826, 48.52676
155.6647, 43.92973
156.1469, 39.76495
156.6290, 36.01130
157.1111, 32.82423
157.5932, 30.33315
158.0753, 28.44371
158.5574, 27.01233
159.0396, 25.95267
159.5217, 25.30570
160.0038, 24.67007
160.4859, 23.89861
160.9680, 23.26210
161.4501, 22.90324
161.9323, 22.80720
162.4144, 22.85984
162.8965, 22.94913
163.3786, 23.07597
163.8607, 23.26589
164.3428, 23.49100
164.8250, 23.78902
165.3071, 24.23988
165.7892, 24.84526
166.2713, 25.44518
166.7534, 25.82450
167.2355, 25.94340
167.7177, 26.12783
168.1998, 26.42026
168.6819, 26.79477
169.1640, 27.20188
169.6461, 27.61703
170.1282, 28.11766
170.6104, 28.80323
171.0925, 29.64657
171.5746, 30.61873
172.0567, 31.76936
172.5388, 33.04512
173.0209, 34.24715
173.5031, 35.18065
173.9852, 36.27967
174.4673, 37.86847
174.9494, 39.92242
175.4315, 42.28547
175.9136, 44.83464
176.3958, 47.57698
176.8779, 50.57842
177.3600, 53.48628
177.8421, 57.05753
178.3242, 61.51569
178.8063, 66.95148
179.2885, 73.50888
179.7706, 81.21479
180.2527, 89.91070
180.7348, 100.6596
181.2169, 113.9569
181.6990, 128.9531
182.1812, 146.4247
182.6633, 166.0088
183.1454, 185.2573
183.6275, 201.5554
184.1096, 217.5268
184.5917, 223.7424
185.0738, 218.9424
185.5560, 207.4648
186.0381, 190.3709
186.5202, 168.6614
187.0023, 145.1412
187.4844, 124.6138
187.9665, 107.5553
188.4487, 93.35825
188.9308, 82.42099
189.4129, 74.06715
189.8950, 68.05154
190.3771, 64.29193
190.8592, 62.13887
191.3414, 60.47810
191.8235, 59.55066
192.3056, 58.67327
192.7877, 58.11254
193.2698, 57.47688
193.7519, 56.20005
194.2341, 54.04490
194.7162, 51.29793
195.1983, 48.41064
195.6804, 45.29679
196.1625, 42.34082
196.6446, 39.59035
197.1268, 37.07394
197.6089, 34.83283
198.0910, 32.86414
198.5731, 31.23401
199.0552, 30.05867
199.5373, 29.37930
200.0195, 28.78136
200.5016, 27.98410
200.9837, 27.04810
201.4658, 26.30270
201.9479, 25.90778
202.4300, 25.69335
202.9122, 25.46137
203.3943, 25.20446
203.8764, 24.95035
204.3585, 24.68081
204.8406, 24.39592
205.3227, 24.24787
205.8048, 24.33124
206.2870, 24.53670
206.7691, 24.81769
207.2512, 25.16580
207.7333, 25.51664
208.2154, 25.78156
208.6975, 25.93647
209.1797, 26.14900
209.6618, 26.34961
210.1439, 26.68711
210.6260, 27.25749
211.1081, 28.07577
211.5902, 29.08974
212.0724, 30.23089
212.5545, 31.46972
213.0366, 32.92049
213.5187, 34.47457
214.0008, 36.28965
214.4829, 38.50520
214.9651, 41.12880
215.4472, 44.06387
215.9293, 47.18708
216.4114, 50.58257
216.8935, 54.01529
217.3756, 58.08638
217.8578, 61.80038
218.3399, 64.64040
218.8220, 66.42080
219.3041, 67.14504
219.7862, 66.78281
220.2683, 65.06503
220.7505, 62.56461
221.2326, 58.92855
221.7147, 54.81852
222.1968, 50.54835
222.6789, 46.25588
223.1610, 42.17331
223.6432, 38.64702
224.1253, 35.88037
224.6074, 33.38645
225.0895, 31.08869
225.5716, 29.09301
226.0537, 27.57235
226.5358, 26.55056
227.0180, 25.80786
227.5001, 25.04260
227.9822, 24.20325
228.4643, 23.54061
228.9464, 23.15439
229.4285, 22.91450
229.9107, 22.68736
230.3928, 22.44213
230.8749, 22.23805
231.3570, 22.15441
231.8391, 22.19080
232.3212, 22.32066
232.8034, 22.62093
233.2855, 22.98259
233.7676, 23.25359
234.2497, 23.39528
234.7318, 23.51457
235.2139, 23.72547
235.6961, 24.01737
236.1782, 24.36461
236.6603, 24.72085
237.1424, 25.14048
237.6245, 25.72624
238.1066, 26.51886
238.5888, 27.39696
239.0709, 28.24416
239.5530, 29.07997
240.0351, 30.00829
240.5172, 31.10232
240.9993, 32.30570
241.4815, 33.46244
241.9636, 34.49207
242.4457, 35.68434
242.9278, 37.35663
243.4099, 39.34165
243.8920, 41.31405
244.3742, 43.09609
244.8563, 44.77388
245.3384, 46.56641
245.8205, 48.54047
246.3026, 50.47125
246.7847, 52.27423
247.2668, 53.94736
247.7490, 55.48913
248.2311, 56.99752
248.7132, 58.32307
249.1953, 59.11224
249.6774, 59.28325
250.1595, 59.02602
250.6417, 58.42660
251.1238, 57.51729
251.6059, 56.28554
252.0880, 54.65557
252.5701, 52.78670
253.0522, 51.05345
253.5344, 49.51231
254.0165, 48.02280
254.4986, 46.47716
254.9807, 44.97466
255.4628, 43.61923
255.9449, 42.46758
256.4271, 41.46928
256.9092, 40.48092
257.3913, 39.39973
257.8734, 38.55394
258.3555, 38.16916
258.8376, 37.92623
259.3198, 37.52703
259.8019, 36.85621
260.2840, 36.00795
260.7661, 35.18422
261.2482, 34.45656
261.7303, 33.60612
262.2125, 32.49727
262.6946, 31.33346
263.1767, 30.28918
263.6588, 29.41340
264.1409, 28.64053
264.6230, 27.84565
265.1052, 26.99157
265.5873, 26.19047
266.0694, 25.36226
266.5515, 24.63311
267.0336, 24.16011
267.5157, 23.95198
267.9979, 23.82436
268.4800, 23.48106
268.9621, 22.71777
269.4442, 22.19481
269.9263, 22.01604
270.4084, 21.95006
270.8906, 21.82893
271.3727, 21.64229
271.8548, 21.52316
272.3369, 21.66917
272.8190, 22.25360
273.3011, 22.50726
273.7833, 22.13390
274.2654, 21.74344
274.7475, 21.68580
275.2296, 21.96268
275.7117, 22.36347
276.1938, 22.68075
276.6760, 22.88987
277.1581, 23.17324
277.6402, 23.56633
278.1223, 23.98273
278.6044, 24.34635
279.0865, 24.68971
279.5686, 25.13721
280.0508, 25.81771
280.5329, 26.74013
281.0150, 27.39458
281.4971, 27.49958
281.9792, 27.68005
282.4613, 28.18684
282.9435, 28.95729
283.4256, 29.81381
283.9077, 30.64540
284.3898, 31.46268
284.8719, 32.31456
285.3540, 33.06326
285.8362, 33.99375
286.3183, 35.24477
286.8004, 36.72381
287.2825, 38.20957
287.7646, 39.56094
288.2467, 40.93031
288.7289, 42.91356
289.2110, 46.03880
289.6931, 49.06309
290.1752, 51.74833
290.6573, 54.22383
291.1394, 56.64217
291.6216, 59.06335
292.1037, 61.45525
292.5858, 63.79755
293.0679, 66.19206
293.5500, 68.31606
294.0321, 70.24516
294.5143, 71.84167
294.9964, 73.09704
295.4785, 74.00891
295.9606, 74.19803
296.4427, 73.05787
296.9248, 70.16788
297.4070, 66.99735
297.8891, 63.33638
298.3712, 59.56561
298.8533, 56.03193
299.3354, 52.79515
299.8175, 49.62913
300.2997, 46.26470
300.7818, 42.63902
301.2639, 39.43861
301.7460, 36.75161
302.2281, 34.43016
302.7102, 32.42844
303.1924, 30.71888
303.6745, 29.14889
304.1566, 27.57919
304.6387, 26.03779
305.1208, 24.76810
305.6029, 23.87542
306.0851, 23.11372
306.5672, 22.36170
307.0493, 21.63672
307.5314, 21.02191
308.0135, 20.58451
308.4956, 20.27793
308.9778, 19.90223
309.4599, 19.37066
309.9420, 18.88864
310.4241, 18.51526
310.9062, 18.23767
311.3883, 18.04711
311.8705, 17.94809
312.3526, 17.91116
312.8347, 17.88147
313.3168, 17.87772
313.7989, 17.83836
314.2810, 17.68330
314.7632, 17.50928
315.2453, 17.45971
315.7274, 17.57752
316.2095, 17.76293
316.6916, 17.87271
317.1737, 17.87208
317.6559, 17.95921
318.1380, 18.16443
318.6201, 18.45548
319.1022, 18.80359
319.5843, 19.20617
320.0664, 19.67867
320.5485, 20.26425
321.0306, 20.97137
321.5128, 21.55621
321.9949, 21.72141
322.4770, 22.01807
322.9591, 22.83939
323.4412, 24.13610
323.9233, 25.61357
324.4055, 27.08824
324.8876, 28.57645
325.3697, 30.10389
325.8518, 31.63126
326.3339, 33.23547
326.8160, 35.20751
327.2982, 37.27675
327.7803, 38.87058
328.2624, 39.70805
328.7445, 39.94986
329.2266, 40.01186
329.7087, 40.15221
330.1909, 39.70921
330.6730, 38.38336
331.1551, 36.46632
331.6372, 34.20727
332.1193, 31.67153
332.6014, 29.12258
333.0836, 26.92148
333.5657, 25.15949
334.0478, 23.55591
334.5299, 22.07803
335.0120, 20.78136
335.4941, 19.74253
335.9763, 18.96181
336.4584, 18.31704
336.9405, 17.71021
337.4226, 17.14184
337.9047, 16.61160
338.3868, 16.11127
338.8690, 15.64590
339.3511, 15.18571
339.8332, 14.75524
340.3153, 14.43699
340.7974, 14.29306
341.2795, 14.29627
341.7617, 14.27935
342.2438, 14.28690
342.7259, 14.22676
343.2080, 14.04751
343.6901, 13.79484
344.1722, 13.52331
344.6544, 13.25485
345.1365, 13.00769
345.6186, 12.82094
346.1007, 12.71582
346.5828, 12.64919
347.0649, 12.66182
347.5471, 12.68973
348.0292, 12.67444
348.5113, 12.60642
348.9934, 12.51548
349.4755, 12.43414
349.9576, 12.35625
350.4398, 12.31866
350.9219, 12.33832
351.4040, 12.37562
351.8861, 12.45183
352.3682, 12.53459
352.8503, 12.52771
353.3325, 12.33855
353.8146, 11.98872
354.2967, 11.82341
354.7788, 12.09744
355.2609, 12.26440
355.7430, 12.12051
356.2252, 11.82336
356.7073, 11.59106
357.1894, 11.52731
357.6715, 11.59253
358.1536, 11.69667
358.6357, 11.95501
359.1179, 12.06653
359.5999, 11.95166
360.0821, 11.74314
360.5642, 11.47123
361.0463, 11.17923
361.5284, 11.01867
362.0105, 11.23964
362.4926, 12.03669
362.9748, 12.45326
363.4569, 12.19930
363.9390, 11.86345
364.4211, 11.62691
364.9032, 11.51892
365.3853, 11.54954
365.8675, 11.75852
366.3496, 12.11105
366.8317, 12.26364
367.3138, 12.00339
367.7959, 11.80588
368.2780, 11.76868
368.7602, 11.85123
369.2423, 12.02979
369.7244, 12.29917
370.2065, 12.57936
370.6886, 12.69785
371.1707, 12.58155
371.6529, 12.48441
372.1350, 12.42126
372.6171, 12.40184
373.0992, 12.44299
373.5813, 12.54274
374.0634, 12.67281
374.5456, 12.80743
375.0277, 12.94618
375.5098, 13.09807
375.9919, 13.33435
376.4740, 13.49861
376.9561, 13.44149
377.4383, 13.25984
377.9204, 13.17907
378.4025, 13.36409
378.8846, 13.71767
379.3667, 13.96856
379.8488, 14.08882
380.3310, 14.17683
380.8131, 14.27241
381.2952, 14.35709
381.7773, 14.38489
382.2594, 14.32230
382.7415, 14.30376
383.2237, 14.52599
383.7058, 14.98738
384.1879, 15.36430
384.6700, 15.53263
385.1521, 15.63588
385.6342, 15.79907
386.1164, 16.02043
386.5985, 16.26885
387.0806, 16.55204
387.5627, 16.84554
388.0448, 17.08175
388.5269, 17.23750
389.0091, 17.39308
389.4912, 17.60128
389.9733, 17.85469
390.4554, 18.14427
390.9375, 18.44422
391.4196, 18.80195
391.9018, 19.32217
392.3839, 19.98110
392.8660, 20.52549
393.3481, 20.78980
393.8302, 20.92705
394.3123, 21.23072
394.7945, 21.71117
395.2766, 22.29263
395.7587, 22.91444
396.2408, 23.62524
396.7229, 24.58494
397.2050, 25.86915
397.6872, 27.09970
398.1693, 27.78238
398.6514, 27.84834
399.1335, 28.25804
399.6156, 29.28326
400.0977, 30.48371
400.5798, 31.54729
401.0620, 32.49593
401.5441, 33.51793
402.0262, 34.73603
402.5083, 36.11520
402.9904, 37.45596
403.4725, 38.65065
403.9547, 39.94628
404.4368, 41.35288
404.9189, 42.90114
405.4010, 44.60839
405.8831, 46.47581
406.3652, 48.54169
406.8474, 50.88366
407.3295, 53.60975
407.8116, 56.27008
408.2937, 58.72121
408.7758, 61.22834
409.2579, 63.82759
409.7401, 66.60870
410.2222, 69.77109
410.7043, 73.52428
411.1864, 77.79815
411.6685, 82.08420
412.1506, 86.09822
412.6328, 90.49248
413.1149, 95.45377
413.5970, 100.7938
414.0791, 106.3788
414.5612, 112.1498
415.0433, 117.9901
415.5255, 123.7227
416.0076, 129.3730
416.4897, 134.9209
416.9718, 140.9548
417.4539, 146.3430
417.9360, 150.5028
418.4182, 153.5122
418.9003, 155.7227
419.3824, 157.4246
419.8645, 158.5461
420.3466, 158.7730
420.8287, 158.0017
421.3109, 156.5038
421.7930, 154.1779
422.2751, 151.3383
422.7572, 148.2693
423.2393, 145.0194
423.7214, 141.7135
424.2036, 138.2723
424.6857, 134.7347
425.1678, 131.9473
425.6499, 130.2540
426.1320, 129.2241
426.6141, 128.4401
427.0963, 127.8963
427.5784, 127.5675
428.0605, 127.5782
428.5426, 127.7442
429.0247, 127.8270
429.5068, 127.8212
429.9890, 127.6735
430.4711, 127.5235
430.9532, 127.1218
431.4353, 125.9146
431.9174, 123.8278
432.3995, 121.0383
432.8817, 117.5609
433.3638, 113.4649
433.8459, 108.7130
434.3280, 103.2435
434.8101, 97.58194
435.2922, 92.47239
435.7744, 88.07375
436.2565, 83.67112
436.7386, 79.06936
437.2207, 74.59147
437.7028, 70.39067
438.1849, 66.52290
438.6671, 63.10899
439.1492, 60.26056
439.6313, 57.90087
440.1134, 55.65484
440.5955, 53.20663
441.0776, 51.27024
441.5598, 50.21120
442.0418, 49.56297
442.5240, 48.83166
443.0061, 47.90601
443.4882, 47.05607
443.9703, 46.64669
444.4524, 46.74316
444.9345, 46.97340
445.4167, 47.38082
445.8988, 47.88202
446.3809, 48.36452
446.8630, 48.92631
447.3451, 49.77426
447.8272, 51.04106
448.3094, 52.61135
448.7915, 54.19646
449.2736, 55.76565
449.7557, 57.43463
450.2378, 59.32999
450.7199, 61.28016
451.2021, 63.20996
451.6842, 65.09842
452.1663, 66.87537
452.6484, 68.64688
453.1305, 70.29890
453.6126, 71.24004
454.0948, 71.32903
454.5769, 70.94944
455.0590, 70.37111
455.5411, 69.50208
456.0232, 68.08285
456.5053, 65.97532
456.9875, 63.42379
457.4696, 60.45903
457.9517, 57.17466
458.4338, 53.91381
458.9159, 50.73932
459.3980, 47.72778
459.8802, 45.05291
460.3623, 42.73545
460.8444, 40.40985
461.3265, 37.86676
461.8086, 35.39709
462.2907, 33.25666
462.7729, 31.45128
463.2550, 29.87723
463.7371, 28.47205
464.2192, 27.22741
464.7013, 26.05288
465.1834, 24.95639
465.6656, 23.91409
466.1477, 22.86621
466.6298, 21.88976
467.1119, 21.10830
467.5940, 20.52916
468.0761, 20.01212
468.5583, 19.38404
469.0404, 18.61184
469.5225, 17.91036
470.0046, 17.27964
470.4867, 16.72197
470.9688, 16.28417
471.4510, 15.91294
471.9331, 15.51656
472.4152, 15.04440
472.8973, 14.57088
473.3794, 14.24620
473.8615, 14.09895
474.3437, 13.98284
474.8258, 13.99608
475.3079, 13.92735
475.7900, 13.55221
476.2721, 12.93216
476.7542, 12.40839
477.2364, 12.27243
477.7185, 12.36483
478.2006, 12.31423
478.6827, 12.09861
479.1648, 11.86229
479.6469, 11.64701
480.1291, 11.47426
480.6112, 11.38200
481.0933, 11.39402
481.5754, 11.42471
482.0575, 11.48888
482.5396, 11.52920
483.0217, 11.40410
483.5038, 11.07856
483.9860, 10.73101
484.4681, 10.53582
484.9502, 10.50154
485.4323, 10.42318
485.9144, 10.24637
486.3965, 10.08615
486.8787, 10.01743
487.3608, 9.994145
487.8429, 9.921985
488.3250, 9.763015
488.8071, 9.572302
489.2892, 9.451385
489.7714, 9.436886
490.2535, 9.401531
490.7356, 9.279792
491.2177, 9.201119
491.6998, 9.268981
492.1819, 9.435797
492.6641, 9.582200
493.1462, 9.634379
493.6283, 9.611479
494.1104, 9.564765
494.5925, 9.487980
495.0746, 9.404733
495.5568, 9.283242
496.0389, 9.184088
496.5210, 9.177455
497.0031, 9.257336
497.4852, 9.314008
497.9673, 9.213638
498.4495, 9.035200
498.9316, 9.042869
499.4137, 9.300676
499.8958, 9.479896
500.3779, 9.324713
500.8600, 8.984028
501.3422, 8.773838
501.8243, 8.751513
502.3064, 8.768271
502.7885, 8.776923
503.2706, 8.767522
503.7527, 8.696582
504.2349, 8.553304
504.7170, 8.448219
505.1991, 8.518364
505.6812, 8.779612
506.1633, 8.855135
506.6454, 8.565323
507.1276, 8.311003
507.6097, 8.267907
508.0918, 8.347221
508.5739, 8.407154
509.0560, 8.394618
509.5381, 8.350596
510.0203, 8.339426
510.5024, 8.369067
510.9845, 8.404396
511.4666, 8.485115
511.9487, 8.531865
512.4308, 8.508372
512.9130, 8.428091
513.3951, 8.299802
513.8772, 8.103646
514.3593, 7.934697
514.8414, 8.026210
515.3235, 8.432864
515.8057, 8.678167
516.2878, 8.558794
516.7699, 8.334120
517.2520, 8.227014
517.7341, 8.223783
518.2162, 8.207267
518.6984, 8.067859
519.1805, 7.922604
519.6626, 7.965952
520.1447, 8.183042
520.6268, 8.334514
521.1089, 8.287072
521.5911, 8.128677
522.0732, 8.062851
522.5553, 8.114707
523.0374, 8.163348
523.5195, 8.180356
524.0016, 8.191849
524.4838, 8.218829
524.9659, 8.262740
525.4480, 8.320447
525.9301, 8.393495
526.4122, 8.472705
526.8943, 8.511529
527.3765, 8.500522
527.8586, 8.457564
528.3407, 8.292876
528.8228, 8.161340
529.3049, 8.215239
529.7870, 8.451925
530.2692, 8.732518
530.7513, 8.956635
531.2334, 9.122159
531.7155, 9.201142
532.1976, 9.142749
532.6797, 9.116166
533.1619, 9.253157
533.6440, 9.428606
534.1261, 9.494390
534.6082, 9.411465
535.0903, 9.360397
535.5724, 9.509550
536.0546, 9.764032
536.5367, 9.923019
537.0188, 9.959565
537.5009, 9.930485
537.9830, 9.842230
538.4651, 9.723315
538.9473, 9.723242
539.4294, 9.871665
539.9115, 10.08877
540.3936, 10.44697
540.8757, 10.81825
541.3578, 11.00335
541.8400, 10.98413
542.3221, 10.95432
542.8042, 11.11236
543.2863, 11.46088
543.7684, 11.83515
544.2505, 12.29573
544.7326, 12.70493
545.2147, 12.97052
545.6968, 13.20421
546.1790, 13.52541
546.6611, 13.96403
547.1432, 14.46750
547.6253, 14.96740
548.1074, 15.47188
548.5895, 16.04722
549.0717, 16.68444
549.5538, 17.41447
550.0359, 18.26760
550.5180, 19.22321
551.0001, 20.26994
551.4822, 21.39414
551.9644, 22.62933
552.4465, 24.04590
552.9286, 25.58358
553.4107, 27.17547
553.8928, 28.81284
554.3749, 30.32734
554.8571, 31.55263
555.3392, 32.49751
555.8213, 33.40429
556.3034, 34.49939
556.7855, 35.29073
557.2676, 35.76289
557.7498, 35.81484
558.2319, 35.24183
558.7140, 34.04037
559.1961, 32.51649
559.6782, 30.95475
560.1603, 29.36251
560.6425, 27.84266
561.1246, 26.42721
561.6067, 25.06017
562.0888, 23.67489
562.5709, 22.34303
563.0530, 21.13500
563.5352, 20.07183
564.0173, 19.11742
564.4994, 18.22343
564.9815, 17.41267
565.4636, 16.78555
565.9457, 16.37257
566.4279, 16.02127
566.9100, 15.64694
567.3921, 15.25256
567.8742, 14.84319
568.3563, 14.32864
568.8384, 13.94800
569.3206, 13.86685
569.8027, 13.92143
570.2848, 13.91874
570.7669, 13.82875
571.2490, 13.71378
571.7311, 13.62089
572.2133, 13.55367
572.6954, 13.55618
573.1775, 13.67888
573.6596, 13.80582
574.1417, 13.94103
574.6238, 14.06213
575.1060, 14.13695
575.5881, 14.17029
576.0702, 14.20992
576.5523, 14.26607
577.0344, 14.36257
577.5165, 14.61915
577.9987, 15.07912
578.4808, 15.50559
578.9629, 15.75776
579.4450, 15.94590
579.9271, 16.20705
580.4092, 16.54007
580.8914, 16.97013
581.3735, 17.57686
581.8556, 18.24142
582.3377, 18.82655
582.8198, 19.33545
583.3019, 19.84879
583.7841, 20.40194
584.2662, 21.01972
584.7483, 21.77229
585.2304, 22.71110
