##NAMES=Collinsite
##RRUFFID=R120022
##IDEAL CHEMISTRY=Ca_2_Mg(PO_4_)_2_&#183;2H_2_O
##LOCALITY=Prinz von Hessen mine, Messel, Darmstadt, Hesse, Germany
##OWNER=RRUFF
##SOURCE=Dr. JÃ¼rgen Wachsmuth
##DESCRIPTION=Radiating outward sprays of light brown, acircular crystals
##STATUS=The identification of this mineral has been confirmed by single-crystal X-ray diffraction.
##URL=rruff.info/R120022
91.60352, 10405.37
92.08563, 10090.90
92.56775, 10053.32
93.04987, 10444.83
93.53198, 10912.58
94.01410, 11222.42
94.49622, 11385.88
94.97833, 11472.78
95.46045, 11539.60
95.94257, 11586.25
96.42468, 11611.45
96.90680, 11621.59
97.38892, 11625.08
97.87103, 11618.30
98.35315, 11613.92
98.83527, 11574.37
99.31738, 11529.90
99.79950, 11481.75
100.2816, 11439.60
100.7637, 11400.06
101.2458, 11362.97
101.7280, 11327.28
102.2101, 11291.42
102.6922, 11259.37
103.1743, 11238.92
103.6564, 11228.76
104.1385, 11219.13
104.6207, 11202.96
105.1028, 11183.00
105.5849, 11169.53
106.0670, 11165.42
106.5491, 11165.45
107.0313, 11163.83
107.5134, 11159.69
107.9955, 11155.12
108.4776, 11151.54
108.9597, 11148.14
109.4418, 11147.47
109.9240, 11152.55
110.4061, 11158.82
110.8882, 11161.61
111.3703, 11158.68
111.8524, 11154.11
112.3345, 11159.47
112.8167, 11185.12
113.2988, 11207.65
113.7809, 11222.56
114.2630, 11232.60
114.7451, 11241.27
115.2272, 11250.52
115.7094, 11260.42
116.1915, 11271.69
116.6736, 11283.54
117.1557, 11297.07
117.6378, 11310.87
118.1199, 11326.01
118.6021, 11345.80
119.0842, 11372.75
119.5663, 11407.87
120.0484, 11448.40
120.5305, 11495.76
121.0126, 11547.42
121.4948, 11603.44
121.9769, 11664.54
122.4590, 11723.35
122.9411, 11777.33
123.4232, 11825.16
123.9053, 11852.13
124.3875, 11852.76
124.8696, 11828.56
125.3517, 11781.53
125.8338, 11701.63
126.3159, 11611.00
126.7980, 11522.13
127.2802, 11436.05
127.7623, 11357.92
128.2444, 11291.06
128.7265, 11235.92
129.2086, 11190.47
129.6907, 11160.32
130.1729, 11136.27
130.6550, 11116.16
131.1371, 11099.07
131.6192, 11083.92
132.1013, 11069.05
132.5834, 11052.90
133.0656, 11040.44
133.5477, 11031.34
134.0298, 11025.43
134.5119, 11023.94
134.9940, 11026.97
135.4761, 11031.92
135.9583, 11032.75
136.4404, 11023.43
136.9225, 11017.45
137.4046, 11018.56
137.8867, 11022.84
138.3688, 11024.11
138.8510, 11018.93
139.3331, 11010.22
139.8152, 11007.59
140.2973, 11013.06
140.7794, 11019.92
141.2615, 11026.06
141.7437, 11031.44
142.2258, 11036.14
142.7079, 11040.46
143.1900, 11043.69
143.6721, 11044.77
144.1542, 11042.29
144.6364, 11039.24
145.1185, 11038.18
145.6006, 11039.06
146.0827, 11042.10
146.5648, 11048.10
147.0469, 11056.19
147.5291, 11066.07
148.0112, 11078.24
148.4933, 11091.57
148.9754, 11103.61
149.4575, 11114.68
149.9396, 11123.85
150.4218, 11130.09
150.9039, 11134.90
151.3860, 11140.92
151.8681, 11150.66
152.3502, 11162.88
152.8323, 11166.46
153.3145, 11154.68
153.7966, 11139.59
154.2787, 11121.08
154.7608, 11100.88
155.2429, 11081.41
155.7250, 11064.47
156.2072, 11050.23
156.6893, 11036.33
157.1714, 11019.71
157.6535, 11005.88
158.1356, 10998.88
158.6177, 10997.55
159.0999, 10996.53
159.5820, 10990.59
160.0641, 10978.60
160.5462, 10969.38
161.0283, 10961.69
161.5104, 10957.41
161.9926, 10960.36
162.4747, 10970.86
162.9568, 10981.16
163.4389, 10981.61
163.9210, 10972.83
164.4031, 10966.38
164.8853, 10965.90
165.3674, 10968.38
165.8495, 10969.40
166.3316, 10968.00
166.8137, 10966.08
167.2958, 10965.57
167.7780, 10966.14
168.2601, 10966.72
168.7422, 10965.96
169.2243, 10964.59
169.7064, 10965.45
170.1885, 10969.05
170.6707, 10975.04
171.1528, 10983.94
171.6349, 10995.06
172.1170, 11005.76
172.5991, 11013.29
173.0812, 11017.46
173.5634, 11023.18
174.0455, 11029.03
174.5276, 11038.21
175.0097, 11053.34
175.4918, 11073.75
175.9739, 11096.18
176.4561, 11116.70
176.9382, 11134.18
177.4203, 11154.11
177.9024, 11173.95
178.3845, 11197.64
178.8666, 11227.04
179.3488, 11262.37
179.8309, 11303.34
180.3130, 11349.67
180.7951, 11404.86
181.2772, 11457.53
181.7593, 11512.96
182.2415, 11562.94
182.7236, 11606.44
183.2057, 11641.60
183.6878, 11658.79
184.1699, 11641.94
184.6520, 11571.25
185.1342, 11501.30
185.6163, 11432.09
186.0984, 11364.55
186.5805, 11297.68
187.0626, 11230.79
187.5447, 11169.33
188.0269, 11124.32
188.5090, 11096.96
188.9911, 11075.65
189.4732, 11060.25
189.9553, 11048.98
190.4374, 11038.78
190.9196, 11028.31
191.4017, 11019.39
191.8838, 11015.54
192.3659, 11017.02
192.8480, 11017.29
193.3301, 11012.79
193.8123, 11004.41
194.2944, 10995.40
194.7765, 10985.80
195.2586, 10976.67
195.7407, 10969.09
196.2228, 10963.09
196.7050, 10957.46
197.1871, 10951.27
197.6692, 10944.59
198.1513, 10938.42
198.6334, 10933.60
199.1155, 10928.94
199.5977, 10922.95
200.0798, 10915.77
200.5619, 10909.87
201.0440, 10907.88
201.5261, 10910.25
202.0082, 10913.77
202.4904, 10920.01
202.9725, 10926.04
203.4546, 10930.15
203.9367, 10932.25
204.4188, 10933.78
204.9009, 10936.17
205.3831, 10939.03
205.8652, 10944.08
206.3473, 10954.04
206.8294, 10963.95
207.3115, 10969.63
207.7936, 10971.04
208.2758, 10972.34
208.7579, 10979.30
209.2400, 10993.69
209.7221, 11010.48
210.2042, 11029.32
210.6863, 11050.16
211.1685, 11074.49
211.6506, 11101.95
212.1327, 11129.12
212.6148, 11150.73
213.0969, 11160.73
213.5790, 11177.89
214.0612, 11204.16
214.5433, 11235.59
215.0254, 11272.02
215.5075, 11312.42
215.9896, 11352.02
216.4718, 11384.16
216.9539, 11408.69
217.4360, 11423.29
217.9181, 11429.31
218.4002, 11424.77
218.8823, 11405.50
219.3645, 11370.47
219.8466, 11326.84
220.3287, 11283.13
220.8108, 11238.99
221.2929, 11195.61
221.7750, 11152.63
222.2572, 11110.74
222.7393, 11069.48
223.2214, 11028.25
223.7035, 10991.21
224.1856, 10966.49
224.6677, 10953.02
225.1499, 10939.86
225.6320, 10923.38
226.1141, 10905.72
226.5962, 10890.19
227.0783, 10877.22
227.5604, 10866.76
228.0426, 10858.97
228.5247, 10853.52
229.0068, 10850.02
229.4889, 10850.06
229.9710, 10851.82
230.4531, 10851.21
230.9353, 10847.50
231.4174, 10841.95
231.8995, 10833.76
232.3816, 10824.27
232.8637, 10817.48
233.3458, 10816.61
233.8280, 10820.03
234.3101, 10822.52
234.7922, 10823.33
235.2743, 10824.24
235.7564, 10825.43
236.2385, 10827.40
236.7207, 10831.41
237.2028, 10839.75
237.6849, 10850.79
238.1670, 10857.60
238.6491, 10859.39
239.1312, 10857.50
239.6134, 10850.74
240.0955, 10841.52
240.5776, 10833.50
241.0597, 10828.21
241.5418, 10825.99
242.0239, 10829.40
242.5061, 10845.04
242.9882, 10857.23
243.4703, 10859.43
243.9524, 10856.04
244.4345, 10853.52
244.9166, 10855.61
245.3988, 10861.32
245.8809, 10865.95
246.3630, 10868.89
246.8451, 10871.40
247.3272, 10874.63
247.8093, 10877.38
248.2915, 10878.43
248.7736, 10877.21
249.2557, 10873.38
249.7378, 10865.33
250.2199, 10845.94
250.7020, 10831.18
251.1842, 10825.69
251.6663, 10825.05
252.1484, 10824.45
252.6305, 10821.55
253.1126, 10816.83
253.5947, 10811.49
254.0769, 10803.21
254.5590, 10797.39
255.0411, 10796.73
255.5232, 10797.79
256.0053, 10796.13
256.4874, 10789.89
256.9695, 10781.65
257.4517, 10777.57
257.9338, 10784.32
258.4159, 10787.31
258.8980, 10783.50
259.3801, 10777.11
259.8622, 10773.05
260.3444, 10772.92
260.8265, 10773.91
261.3086, 10770.72
261.7907, 10759.64
262.2728, 10749.70
262.7549, 10740.43
263.2371, 10732.52
263.7192, 10727.70
264.2013, 10726.26
264.6834, 10725.07
265.1655, 10719.07
265.6476, 10704.38
266.1298, 10694.63
266.6119, 10692.95
267.0940, 10694.72
267.5761, 10696.01
268.0582, 10696.02
268.5403, 10695.92
269.0225, 10697.56
269.5046, 10701.94
269.9867, 10702.85
270.4688, 10698.52
270.9509, 10691.75
271.4330, 10683.93
271.9152, 10675.46
272.3973, 10668.22
272.8794, 10664.29
273.3615, 10664.01
273.8436, 10663.62
274.3257, 10662.75
274.8079, 10661.92
275.2900, 10660.91
275.7721, 10659.84
276.2542, 10660.66
276.7363, 10665.83
277.2184, 10674.52
277.7006, 10679.84
278.1827, 10677.86
278.6648, 10675.52
279.1469, 10678.50
279.6290, 10686.20
280.1111, 10693.41
280.5933, 10696.98
281.0754, 10697.66
281.5575, 10698.90
282.0396, 10701.78
282.5217, 10703.98
283.0038, 10702.44
283.4860, 10698.29
283.9681, 10697.50
284.4502, 10703.73
284.9323, 10714.37
285.4144, 10723.46
285.8965, 10730.52
286.3787, 10737.26
286.8608, 10745.23
287.3429, 10753.80
287.8250, 10760.31
288.3071, 10762.88
288.7892, 10764.41
289.2714, 10769.26
289.7535, 10777.62
290.2356, 10786.42
290.7177, 10796.31
291.1998, 10805.63
291.6819, 10809.46
292.1641, 10805.35
292.6462, 10798.07
293.1283, 10793.36
293.6104, 10790.81
294.0925, 10786.20
294.5746, 10778.10
295.0568, 10766.81
295.5389, 10752.14
296.0210, 10733.09
296.5031, 10713.72
296.9852, 10697.47
297.4673, 10683.62
297.9495, 10670.43
298.4316, 10658.25
298.9137, 10646.15
299.3958, 10632.26
299.8779, 10616.03
300.3600, 10600.46
300.8422, 10587.71
301.3243, 10577.01
301.8064, 10567.47
302.2885, 10558.78
302.7706, 10551.16
303.2527, 10545.71
303.7349, 10542.65
304.2170, 10538.06
304.6991, 10528.27
305.1812, 10516.78
305.6633, 10508.21
306.1454, 10503.33
306.6276, 10501.01
307.1097, 10501.54
307.5918, 10504.68
308.0739, 10506.26
308.5560, 10504.37
309.0381, 10500.68
309.5203, 10497.14
310.0024, 10493.78
310.4845, 10490.40
310.9666, 10486.73
311.4487, 10482.84
311.9308, 10479.19
312.4130, 10475.31
312.8951, 10472.50
313.3772, 10472.34
313.8593, 10474.41
314.3414, 10476.38
314.8235, 10476.27
315.3057, 10475.21
315.7878, 10477.12
316.2699, 10484.47
316.7520, 10489.56
317.2341, 10483.59
317.7162, 10471.11
318.1984, 10461.99
318.6805, 10461.00
319.1626, 10464.88
319.6447, 10469.49
320.1268, 10475.34
320.6089, 10479.51
321.0911, 10478.40
321.5732, 10475.16
322.0553, 10474.15
322.5374, 10476.85
323.0195, 10481.04
323.5016, 10484.75
323.9838, 10488.01
324.4659, 10490.72
324.9480, 10492.84
325.4301, 10494.26
325.9122, 10494.99
326.3943, 10495.04
326.8765, 10494.27
327.3586, 10492.80
327.8407, 10490.49
328.3228, 10486.78
328.8049, 10481.50
329.2870, 10474.66
329.7692, 10466.30
330.2513, 10456.52
330.7334, 10446.12
331.2155, 10435.05
331.6976, 10423.68
332.1797, 10412.45
332.6619, 10400.82
333.1440, 10390.98
333.6261, 10385.68
334.1082, 10383.58
334.5903, 10381.95
335.0724, 10378.68
335.5546, 10376.11
336.0367, 10378.67
336.5188, 10386.99
337.0009, 10393.72
337.4830, 10394.65
337.9651, 10391.00
338.4473, 10384.93
338.9294, 10375.17
339.4115, 10365.49
339.8936, 10359.53
340.3758, 10356.77
340.8579, 10352.92
341.3400, 10345.08
341.8221, 10336.81
342.3042, 10334.00
342.7863, 10337.67
343.2685, 10340.57
343.7506, 10339.04
344.2327, 10334.13
344.7148, 10327.84
345.1969, 10319.96
345.6790, 10312.45
346.1612, 10307.18
346.6433, 10303.89
347.1254, 10303.34
347.6075, 10307.69
348.0896, 10313.93
348.5717, 10319.44
349.0539, 10324.11
349.5360, 10325.10
350.0181, 10318.35
350.5002, 10305.79
350.9823, 10296.83
351.4644, 10293.89
351.9466, 10293.10
352.4287, 10292.50
352.9108, 10292.03
353.3929, 10291.08
353.8750, 10289.01
354.3571, 10286.73
354.8393, 10286.54
355.3214, 10288.82
355.8035, 10291.88
356.2856, 10297.70
356.7677, 10303.45
357.2498, 10303.12
357.7320, 10294.47
358.2141, 10282.50
358.6962, 10273.66
359.1783, 10268.18
359.6604, 10264.16
360.1425, 10263.10
360.6247, 10262.37
361.1068, 10259.04
361.5889, 10253.01
362.0710, 10247.05
362.5531, 10243.58
363.0352, 10242.58
363.5174, 10240.96
363.9995, 10238.95
364.4816, 10236.17
364.9637, 10231.28
365.4458, 10225.38
365.9279, 10221.53
366.4101, 10221.59
366.8922, 10224.02
367.3743, 10223.62
367.8564, 10215.43
368.3385, 10211.51
368.8206, 10217.40
369.3028, 10226.61
369.7849, 10231.70
370.2670, 10230.59
370.7491, 10226.04
371.2312, 10221.75
371.7133, 10218.14
372.1955, 10213.45
372.6776, 10206.04
373.1597, 10199.03
373.6418, 10194.21
374.1239, 10191.60
374.6060, 10190.53
375.0882, 10190.65
375.5703, 10191.93
376.0524, 10192.14
376.5345, 10192.56
377.0166, 10190.63
377.4987, 10183.79
377.9809, 10174.76
378.4630, 10166.86
378.9451, 10161.61
379.4272, 10159.31
379.9093, 10161.08
380.3914, 10171.87
380.8736, 10178.43
381.3557, 10178.57
381.8378, 10176.04
382.3199, 10172.45
382.8020, 10168.63
383.2841, 10166.08
383.7663, 10167.10
384.2484, 10172.58
384.7305, 10174.95
385.2126, 10172.44
385.6947, 10168.19
386.1768, 10160.65
386.6590, 10152.17
387.1411, 10147.07
387.6232, 10148.22
388.1053, 10154.16
388.5874, 10160.10
389.0695, 10167.04
389.5517, 10171.91
390.0338, 10174.62
390.5159, 10175.06
390.9980, 10172.03
391.4801, 10165.33
391.9622, 10158.50
392.4444, 10156.09
392.9265, 10158.49
393.4086, 10161.90
393.8907, 10169.59
394.3728, 10174.48
394.8549, 10168.83
395.3371, 10155.84
395.8192, 10147.77
396.3013, 10156.96
396.7834, 10176.99
397.2655, 10185.23
397.7477, 10177.14
398.2298, 10168.99
398.7119, 10169.65
399.1940, 10175.21
399.6761, 10181.57
400.1582, 10188.71
400.6404, 10194.08
401.1225, 10193.12
401.6046, 10186.33
402.0867, 10183.23
402.5688, 10187.84
403.0509, 10196.13
403.5331, 10202.67
404.0152, 10207.35
404.4973, 10213.91
404.9794, 10226.59
405.4615, 10241.48
405.9436, 10251.26
406.4258, 10254.67
406.9079, 10256.25
407.3900, 10258.81
407.8721, 10262.57
408.3542, 10268.06
408.8363, 10274.80
409.3185, 10283.81
409.8006, 10296.86
410.2827, 10312.99
410.7648, 10328.37
411.2469, 10340.80
411.7290, 10352.45
412.2112, 10368.54
412.6933, 10390.17
413.1754, 10412.45
413.6575, 10435.88
414.1396, 10458.76
414.6217, 10479.08
415.1039, 10496.57
415.5860, 10513.24
416.0681, 10531.90
416.5502, 10553.38
417.0323, 10565.58
417.5144, 10560.61
417.9966, 10556.12
418.4787, 10559.40
418.9608, 10568.38
419.4429, 10579.21
419.9250, 10590.20
420.4071, 10599.68
420.8893, 10602.91
421.3714, 10595.80
421.8535, 10588.18
422.3356, 10581.57
422.8177, 10573.85
423.2998, 10562.22
423.7820, 10547.04
424.2641, 10532.27
424.7462, 10521.99
425.2283, 10516.39
425.7104, 10511.87
426.1925, 10509.49
426.6747, 10507.06
427.1568, 10503.81
427.6389, 10500.13
428.1210, 10496.77
428.6031, 10494.16
429.0852, 10491.74
429.5674, 10488.85
430.0495, 10486.03
430.5316, 10480.86
431.0137, 10472.94
431.4958, 10462.25
431.9779, 10447.86
432.4601, 10430.01
432.9422, 10411.20
433.4243, 10393.62
433.9064, 10376.75
434.3885, 10358.08
434.8706, 10336.96
435.3528, 10315.09
435.8349, 10291.82
436.3170, 10268.71
436.7991, 10248.59
437.2812, 10233.62
437.7633, 10219.87
438.2455, 10203.37
438.7276, 10184.50
439.2097, 10166.17
439.6918, 10148.92
440.1739, 10133.37
440.6560, 10119.92
441.1382, 10107.90
441.6203, 10100.67
442.1024, 10103.47
442.5845, 10109.20
443.0666, 10109.38
443.5487, 10103.43
444.0309, 10096.32
444.5130, 10091.18
444.9951, 10088.16
445.4772, 10087.90
445.9593, 10094.42
446.4414, 10098.64
446.9236, 10095.97
447.4057, 10089.83
447.8878, 10085.41
448.3699, 10084.47
448.8520, 10085.13
449.3341, 10084.46
449.8163, 10081.79
450.2984, 10079.67
450.7805, 10078.03
451.2626, 10076.89
451.7447, 10077.57
452.2268, 10078.86
452.7090, 10077.79
453.1911, 10072.21
453.6732, 10063.11
454.1553, 10054.60
454.6374, 10047.17
455.1195, 10039.47
455.6017, 10030.78
456.0838, 10022.08
456.5659, 10014.65
457.0480, 10008.50
457.5301, 10001.99
458.0122, 9992.785
458.4944, 9980.928
458.9765, 9971.110
459.4586, 9964.557
459.9407, 9958.464
460.4228, 9950.702
460.9049, 9942.443
461.3871, 9936.108
461.8692, 9933.600
462.3513, 9931.598
462.8334, 9925.800
463.3155, 9916.344
463.7976, 9906.660
464.2798, 9897.486
464.7619, 9888.952
465.2440, 9880.747
465.7261, 9872.754
466.2082, 9866.876
466.6903, 9865.522
467.1725, 9865.664
467.6546, 9864.148
468.1367, 9860.666
468.6188, 9854.604
469.1009, 9844.463
469.5830, 9831.749
470.0652, 9823.773
470.5473, 9822.414
471.0294, 9822.691
471.5115, 9825.166
471.9936, 9827.804
472.4757, 9827.607
472.9579, 9823.938
473.4400, 9819.109
473.9221, 9816.068
474.4042, 9815.488
474.8863, 9812.591
475.3684, 9805.409
475.8506, 9798.227
476.3327, 9792.372
476.8148, 9787.653
477.2969, 9783.894
477.7790, 9781.093
478.2611, 9778.269
478.7433, 9772.777
479.2254, 9762.627
479.7075, 9755.647
480.1896, 9756.731
480.6717, 9757.966
481.1538, 9754.330
481.6360, 9746.588
482.1181, 9739.332
482.6002, 9736.210
483.0823, 9735.691
483.5644, 9733.052
484.0465, 9727.584
484.5287, 9722.731
485.0108, 9721.562
485.4929, 9720.983
485.9750, 9716.397
486.4571, 9706.251
486.9392, 9697.892
487.4214, 9696.233
487.9035, 9699.490
488.3856, 9705.236
488.8677, 9713.785
489.3498, 9719.293
489.8319, 9715.756
490.3141, 9703.604
490.7962, 9693.450
491.2783, 9686.954
491.7604, 9680.603
492.2425, 9671.278
492.7246, 9661.233
493.2068, 9655.037
493.6889, 9654.315
494.1710, 9656.375
494.6531, 9657.227
495.1352, 9656.624
495.6173, 9655.517
496.0995, 9653.914
496.5816, 9651.892
497.0637, 9649.512
497.5458, 9646.731
498.0279, 9643.287
498.5100, 9638.912
498.9922, 9634.250
499.4743, 9631.286
499.9564, 9631.555
500.4385, 9629.461
500.9206, 9619.216
501.4027, 9610.239
501.8849, 9610.945
502.3670, 9619.666
502.8491, 9625.763
503.3312, 9619.206
503.8133, 9605.389
504.2954, 9600.306
504.7776, 9606.296
505.2597, 9610.063
505.7418, 9603.153
506.2239, 9591.798
506.7060, 9585.099
507.1881, 9584.458
507.6703, 9584.662
508.1524, 9584.059
508.6345, 9582.318
509.1166, 9577.738
509.5987, 9570.036
510.0808, 9564.017
510.5630, 9564.189
511.0451, 9569.895
511.5272, 9573.048
512.0093, 9573.797
512.4914, 9572.162
512.9735, 9565.063
513.4556, 9556.813
513.9377, 9553.504
514.4199, 9556.577
514.9020, 9562.362
515.3841, 9566.871
515.8662, 9570.640
516.3483, 9569.536
516.8304, 9560.300
517.3126, 9549.515
517.7947, 9536.768
518.2768, 9524.310
518.7589, 9515.313
519.2410, 9511.102
519.7231, 9509.584
520.2053, 9508.202
520.6874, 9506.993
521.1695, 9505.054
521.6516, 9501.572
522.1337, 9498.166
522.6158, 9496.830
523.0980, 9496.500
523.5801, 9494.029
524.0622, 9486.942
524.5443, 9478.631
525.0264, 9471.274
525.5085, 9465.342
525.9907, 9464.927
526.4728, 9473.246
526.9549, 9483.832
527.4370, 9486.452
527.9191, 9479.769
528.4012, 9474.801
528.8834, 9474.728
529.3655, 9474.943
529.8476, 9471.262
530.3297, 9465.019
530.8118, 9461.003
531.2939, 9461.957
531.7761, 9465.351
532.2582, 9464.565
532.7403, 9455.783
533.2224, 9449.574
533.7045, 9446.355
534.1866, 9444.991
534.6688, 9446.097
535.1509, 9448.504
535.6330, 9449.309
536.1151, 9446.218
536.5972, 9440.789
537.0793, 9437.388
537.5615, 9436.727
538.0436, 9435.348
538.5257, 9430.640
539.0078, 9426.297
539.4899, 9426.249
539.9720, 9430.416
540.4542, 9434.178
540.9363, 9435.699
541.4184, 9435.385
541.9005, 9433.175
542.3826, 9429.226
542.8647, 9425.622
543.3469, 9423.414
543.8290, 9422.223
544.3111, 9421.041
544.7932, 9419.485
545.2753, 9418.660
545.7574, 9417.244
546.2396, 9417.566
546.7217, 9423.124
547.2038, 9432.804
547.6859, 9441.482
548.1680, 9445.501
548.6501, 9445.820
549.1323, 9446.376
549.6144, 9444.434
550.0965, 9447.798
550.5786, 9460.832
551.0607, 9476.057
551.5428, 9488.852
552.0250, 9498.566
552.5071, 9506.070
552.9892, 9511.282
553.4713, 9515.029
553.9534, 9520.283
554.4355, 9527.716
554.9177, 9533.188
555.3998, 9535.112
555.8819, 9533.985
556.3640, 9530.827
556.8461, 9525.584
557.3282, 9518.637
557.8104, 9509.700
558.2925, 9499.336
558.7746, 9488.110
559.2567, 9476.039
559.7388, 9463.356
560.2209, 9450.022
560.7031, 9436.290
561.1852, 9422.925
561.6673, 9410.466
562.1494, 9397.416
562.6315, 9380.735
563.1136, 9365.843
563.5958, 9358.229
564.0779, 9356.440
564.5600, 9354.185
565.0421, 9346.541
565.5242, 9335.917
566.0063, 9331.314
566.4885, 9335.905
566.9706, 9337.233
567.4527, 9328.122
567.9348, 9317.914
568.4169, 9313.878
568.8990, 9315.503
569.3812, 9316.126
569.8633, 9311.406
570.3454, 9304.160
570.8275, 9297.724
571.3096, 9292.239
571.7917, 9289.248
572.2739, 9290.449
572.7560, 9292.794
573.2381, 9290.202
573.7202, 9280.905
574.2023, 9274.126
574.6844, 9271.572
575.1666, 9271.072
575.6487, 9272.384
576.1308, 9274.485
576.6129, 9275.379
577.0950, 9274.013
577.5771, 9270.876
578.0593, 9266.378
578.5414, 9258.322
579.0235, 9254.854
579.5056, 9259.820
579.9877, 9266.231
580.4698, 9272.489
580.9520, 9277.624
581.4341, 9279.918
581.9162, 9277.888
582.3983, 9274.142
582.8804, 9270.906
583.3625, 9268.470
583.8447, 9270.489
584.3268, 9278.673
584.8089, 9289.646
585.2910, 9302.039
585.7732, 9315.236
586.2553, 9322.057
586.7374, 9315.883
587.2195, 9309.530
587.7017, 9308.689
588.1838, 9312.470
