##NAMES=Collinsite
##RRUFFID=R060140
##IDEAL CHEMISTRY=Ca_2_Mg(PO_4_)_2_&#183;2H_2_O
##LOCALITY=Big Fish River, Yukon Territory, Canada
##OWNER=RRUFF
##SOURCE=Mark Mauthner
##DESCRIPTION=Platy, colorless fragment
##STATUS=The identification of this mineral has been confirmed by X-ray diffraction and chemical analysis
##URL=rruff.info/R060140
##MEASURED CHEMISTRY=Ca_2.00_(Mg_0.63_Fe^2+^_0.34_Mn_0.03_)_Σ=1_(P_1.00_O_4_)_2_·2H_2_O ; = darker phase. The lighter phase is: Ca_2.00_(Mg_0.58_Fe^2+^_0.38_Mn_0.04_)_Σ=1_(P_1.00_O_4_)_2_·2H_2_O
90.26367, 4.279564
90.74579, 4.170430
91.22791, 4.219711
91.71002, 4.409447
92.19214, 4.581790
92.67426, 4.595841
93.15637, 4.490541
93.63850, 4.367850
94.12061, 4.257717
94.60273, 4.152888
95.08485, 4.017644
95.56696, 3.844501
96.04908, 3.699826
96.53120, 3.679011
97.01331, 3.777411
97.49543, 3.894944
97.97755, 4.020477
98.45966, 4.148010
98.94178, 4.160194
99.42390, 4.013232
99.90602, 3.813542
100.3881, 3.787191
100.8703, 3.984514
101.3524, 4.176799
101.8345, 4.245380
102.3166, 4.165917
102.7987, 4.054147
103.2808, 3.881113
103.7630, 3.682035
104.2451, 3.628914
104.7272, 3.787745
105.2093, 4.004788
105.6914, 4.188437
106.1735, 4.346717
106.6557, 4.454231
107.1378, 4.497494
107.6199, 4.475190
108.1020, 4.442292
108.5841, 4.392508
109.0662, 4.335163
109.5484, 4.278031
110.0305, 4.053378
110.5126, 3.994272
110.9947, 4.210903
111.4768, 4.780032
111.9590, 5.279477
112.4411, 5.629157
112.9232, 5.902262
113.4053, 6.182612
113.8874, 6.494367
114.3695, 6.811728
114.8517, 7.116621
115.3338, 7.389870
115.8159, 7.693533
116.2980, 7.986752
116.7801, 8.323956
117.2622, 8.817429
117.7444, 9.598278
118.2265, 10.49986
118.7086, 11.41786
119.1907, 12.37252
119.6728, 13.29214
120.1549, 13.97992
120.6371, 14.53999
121.1192, 15.39861
121.6013, 16.94480
122.0834, 18.86479
122.5655, 20.81938
123.0477, 22.84903
123.5298, 24.74742
124.0119, 26.42312
124.4940, 27.86219
124.9761, 28.87187
125.4582, 29.33989
125.9404, 29.26367
126.4225, 28.62494
126.9046, 27.01511
127.3867, 24.96069
127.8688, 23.25707
128.3509, 21.91076
128.8331, 20.85225
129.3152, 20.00260
129.7973, 19.37029
130.2794, 19.01163
130.7615, 18.99120
131.2436, 19.26755
131.7258, 19.72527
132.2079, 20.37657
132.6900, 21.16089
133.1721, 21.98751
133.6542, 22.85272
134.1364, 23.80337
134.6185, 24.89339
135.1006, 26.12348
135.5827, 27.37988
136.0648, 28.68540
136.5469, 29.99114
137.0291, 31.19876
137.5112, 32.30779
137.9933, 33.28650
138.4754, 34.08800
138.9575, 34.67165
139.4396, 35.29735
139.9218, 36.02295
140.4039, 36.80837
140.8860, 37.41371
141.3681, 37.74070
141.8502, 38.05534
142.3323, 38.55083
142.8145, 39.26541
143.2966, 40.08168
143.7787, 41.00170
144.2608, 42.03125
144.7429, 42.99268
145.2251, 43.68125
145.7072, 44.49829
146.1893, 45.85930
146.6714, 48.14065
147.1535, 50.39764
147.6356, 52.39172
148.1178, 54.04419
148.5999, 55.91515
149.0820, 57.99086
149.5641, 60.28561
150.0462, 62.80731
150.5283, 66.34289
151.0105, 69.28966
151.4926, 70.74603
151.9747, 71.36153
152.4568, 70.82710
152.9389, 68.96732
153.4210, 66.06167
153.9032, 62.43688
154.3853, 57.42390
154.8674, 52.39243
155.3495, 47.69933
155.8316, 43.09604
156.3138, 39.30493
156.7959, 36.62488
157.2780, 34.78326
157.7601, 33.28697
158.2422, 32.02842
158.7243, 31.05409
159.2065, 30.37506
159.6886, 30.03182
160.1707, 29.90001
160.6528, 29.91523
161.1349, 30.10489
161.6170, 30.54798
162.0992, 31.34751
162.5813, 32.35785
163.0634, 33.46994
163.5455, 34.53153
164.0276, 35.85867
164.5097, 37.64806
164.9919, 39.83638
165.4740, 42.18496
165.9561, 44.84078
166.4382, 47.48060
166.9203, 49.84547
167.4025, 51.82448
167.8846, 53.55157
168.3667, 54.95261
168.8488, 56.09822
169.3309, 57.44640
169.8130, 59.37674
170.2952, 61.64655
170.7773, 63.92220
171.2594, 65.90668
171.7415, 68.01199
172.2236, 70.60362
172.7057, 73.66831
173.1879, 77.05003
173.6700, 80.80398
174.1521, 84.77902
174.6342, 88.72948
175.1163, 92.57328
175.5984, 96.38546
176.0806, 100.1174
176.5627, 103.7801
177.0448, 107.6294
177.5269, 111.8073
178.0090, 116.3151
178.4911, 121.2844
178.9733, 126.8711
179.4554, 132.8530
179.9375, 138.8467
180.4196, 144.7468
180.9017, 151.1000
181.3839, 159.1935
181.8660, 168.3793
182.3481, 176.6495
182.8302, 183.8656
183.3123, 189.4036
183.7944, 191.8088
184.2766, 191.0490
184.7587, 187.4189
185.2408, 180.2022
185.7229, 169.9211
186.2050, 159.2887
186.6871, 148.8079
187.1693, 138.8587
187.6514, 131.5173
188.1335, 126.8465
188.6156, 124.3574
189.0977, 123.8160
189.5798, 125.1496
190.0620, 126.9041
190.5441, 128.6547
191.0262, 130.3127
191.5083, 131.5216
191.9904, 132.5346
192.4725, 132.5337
192.9547, 130.0081
193.4368, 124.9031
193.9189, 118.4716
194.4010, 110.8811
194.8831, 102.2345
195.3652, 94.07011
195.8474, 86.39247
196.3295, 79.38623
196.8116, 73.41438
197.2937, 68.50545
197.7758, 64.47728
198.2579, 61.35561
198.7401, 59.14529
199.2222, 57.51445
199.7043, 56.51118
200.1864, 56.01220
200.6685, 55.79630
201.1507, 55.89209
201.6328, 56.14116
202.1149, 56.48212
202.5970, 56.92503
203.0791, 57.34433
203.5612, 57.70009
204.0434, 58.04363
204.5255, 58.51350
205.0076, 59.12319
205.4897, 59.81264
205.9718, 60.53739
206.4539, 61.28606
206.9361, 62.13345
207.4182, 63.07430
207.9003, 64.12137
208.3824, 65.36766
208.8645, 66.86247
209.3466, 68.43823
209.8288, 69.94239
210.3109, 71.27007
210.7930, 72.99152
211.2751, 75.21091
211.7572, 77.83799
212.2393, 80.68352
212.7215, 83.80721
213.2036, 86.95226
213.6857, 89.89257
214.1678, 92.49716
214.6499, 95.41305
215.1321, 98.89486
215.6142, 102.7432
216.0963, 106.1424
216.5784, 109.3401
217.0605, 111.6175
217.5426, 112.5434
218.0248, 112.1165
218.5069, 110.3139
218.9890, 106.9716
219.4711, 102.2408
219.9532, 96.70979
220.4353, 90.03948
220.9175, 83.05412
221.3996, 76.04038
221.8817, 68.73814
222.3638, 62.23820
222.8459, 56.71969
223.3280, 52.07232
223.8102, 48.15503
224.2923, 44.96920
224.7744, 42.39597
225.2565, 40.45730
225.7386, 39.41990
226.2208, 38.36281
226.7029, 37.12610
227.1850, 35.79396
227.6671, 34.86395
228.1492, 34.40039
228.6313, 34.24548
229.1135, 34.33509
229.5956, 34.78444
230.0777, 35.22109
230.5598, 35.61199
231.0419, 35.96961
231.5240, 36.35264
232.0062, 36.71840
232.4883, 37.16789
232.9704, 37.78179
233.4525, 38.66436
233.9346, 39.47469
234.4167, 40.14418
234.8989, 40.71397
235.3810, 41.37297
235.8631, 42.14891
236.3452, 42.98876
236.8273, 43.87151
237.3095, 44.79356
237.7916, 45.75512
238.2737, 46.73249
238.7558, 47.75080
239.2379, 48.94585
239.7200, 50.40712
240.2022, 51.92455
240.6843, 53.39427
241.1664, 54.76729
241.6485, 56.20415
242.1306, 57.74397
242.6127, 59.35934
243.0949, 60.89521
243.5770, 62.36531
244.0591, 63.74567
244.5412, 64.96916
245.0233, 65.84330
245.5054, 67.04382
245.9876, 68.84419
246.4697, 70.94779
246.9518, 72.46251
247.4339, 73.25106
247.9160, 73.66055
248.3981, 73.85234
248.8803, 73.87180
249.3624, 73.55840
249.8445, 72.82423
250.3266, 71.77625
250.8087, 70.69431
251.2909, 69.58655
251.7730, 68.44328
252.2551, 67.26022
252.7372, 65.98111
253.2193, 64.77671
253.7014, 63.64130
254.1836, 62.59167
254.6657, 61.68530
255.1478, 60.95247
255.6299, 60.30789
256.1120, 59.70086
256.5941, 59.10541
257.0763, 58.65997
257.5584, 58.42921
258.0405, 58.30384
258.5226, 58.10718
259.0047, 57.93005
259.4868, 57.49257
259.9690, 56.65871
260.4511, 55.35716
260.9332, 53.98017
261.4153, 52.48851
261.8974, 50.93866
262.3795, 49.45369
262.8617, 48.04699
263.3438, 46.63616
263.8259, 45.10962
264.3080, 43.40562
264.7901, 42.10662
265.2722, 41.30305
265.7544, 40.79543
266.2365, 40.28901
266.7186, 39.70933
267.2007, 39.36642
267.6829, 39.42765
268.1650, 39.92524
268.6471, 40.24252
269.1292, 40.27836
269.6113, 40.30176
270.0934, 40.68649
270.5756, 41.53504
271.0577, 42.35664
271.5398, 42.95162
272.0219, 43.33979
272.5040, 44.04500
272.9861, 45.07603
273.4683, 46.37933
273.9504, 47.97222
274.4325, 49.89763
274.9146, 51.82313
275.3967, 53.62599
275.8788, 55.35652
276.3610, 57.30791
276.8431, 59.49003
277.3252, 61.80197
277.8073, 64.17935
278.2894, 66.63248
278.7715, 69.01945
279.2537, 71.30827
279.7358, 73.52828
280.2179, 75.83892
280.7000, 78.25643
281.1821, 80.73215
281.6642, 83.27159
282.1464, 85.87571
282.6285, 88.46321
283.1106, 90.98254
283.5927, 93.50919
284.0748, 96.26217
284.5569, 99.26639
285.0391, 102.3663
285.5212, 105.4051
286.0033, 108.4121
286.4854, 111.7955
286.9675, 115.6904
287.4496, 119.8506
287.9318, 123.7455
288.4139, 127.4020
288.8960, 131.1091
289.3781, 135.2627
289.8602, 139.7333
290.3424, 143.9061
290.8245, 147.7678
291.3066, 151.2371
291.7887, 154.1111
292.2708, 156.4228
292.7530, 158.3353
293.2351, 160.2326
293.7172, 161.8182
294.1993, 162.2088
294.6814, 161.4089
295.1635, 159.2307
295.6457, 155.1709
296.1278, 149.4395
296.6099, 142.9238
297.0920, 136.0706
297.5741, 128.8036
298.0562, 120.7633
298.5384, 111.9401
299.0205, 103.3330
299.5026, 95.92162
299.9847, 89.56953
300.4668, 83.66867
300.9489, 78.14194
301.4311, 72.96301
301.9132, 68.18130
302.3953, 63.76245
302.8774, 59.91033
303.3595, 56.89769
303.8416, 54.51657
304.3238, 52.32484
304.8059, 50.19761
305.2880, 48.24706
305.7701, 46.64328
306.2522, 45.35551
306.7343, 44.29459
307.2165, 43.46981
307.6986, 42.79948
308.1807, 42.16983
308.6628, 41.49950
309.1449, 40.93589
309.6270, 40.59213
310.1092, 40.44071
310.5913, 40.40572
311.0734, 40.49527
311.5555, 40.65458
312.0376, 40.82381
312.5197, 40.96524
313.0019, 41.18966
313.4840, 41.67102
313.9661, 42.28144
314.4482, 42.76412
314.9304, 42.79042
315.4125, 42.81236
315.8946, 43.14026
316.3767, 43.86997
316.8588, 44.60894
317.3409, 45.13622
317.8231, 45.59865
318.3052, 46.18702
318.7873, 47.18961
319.2694, 48.13680
319.7515, 48.73809
320.2336, 48.94220
320.7158, 49.36705
321.1979, 50.20030
321.6800, 51.31958
322.1621, 52.61304
322.6442, 54.35562
323.1263, 55.96362
323.6085, 57.15125
324.0906, 57.96110
324.5727, 59.08296
325.0548, 61.15295
325.5369, 63.20903
326.0190, 64.66470
326.5012, 65.29854
326.9833, 65.53944
327.4654, 65.38595
327.9475, 64.85235
328.4296, 64.00035
328.9117, 63.04020
329.3939, 61.57461
329.8760, 59.39580
330.3581, 56.09884
330.8402, 52.80116
331.3223, 49.33854
331.8044, 45.90028
332.2866, 42.85273
332.7687, 40.23190
333.2508, 37.99634
333.7329, 36.17312
334.2150, 34.83846
334.6971, 33.51967
335.1793, 32.16135
335.6614, 30.85680
336.1435, 29.73737
336.6256, 28.80147
337.1077, 28.03506
337.5899, 27.47417
338.0720, 27.10406
338.5541, 26.78220
339.0362, 26.51664
339.5183, 26.27728
340.0005, 26.05395
340.4826, 25.85376
340.9647, 25.59610
341.4468, 25.23184
341.9289, 24.82044
342.4110, 24.56186
342.8932, 24.47254
343.3753, 24.43971
343.8574, 24.41258
344.3395, 24.38703
344.8216, 24.29078
345.3037, 24.08681
345.7859, 23.86782
346.2680, 23.84325
346.7501, 23.99780
347.2322, 24.09147
347.7143, 23.93115
348.1964, 23.60483
348.6786, 23.38716
349.1607, 23.28747
349.6428, 23.28962
350.1249, 23.45083
350.6070, 23.71161
351.0891, 23.88489
351.5713, 23.81170
352.0534, 23.64563
352.5355, 23.64006
353.0176, 23.78878
353.4997, 23.92294
353.9818, 23.83708
354.4640, 23.66650
354.9461, 23.63055
355.4282, 23.87891
355.9103, 24.17227
356.3924, 24.30275
356.8745, 24.29747
357.3567, 24.26177
357.8388, 24.17553
358.3209, 24.12894
358.8030, 24.22197
359.2851, 24.52472
359.7672, 24.82334
360.2494, 25.00072
360.7315, 25.09509
361.2136, 25.17472
361.6957, 25.26816
362.1779, 25.35221
362.6600, 25.39249
363.1421, 25.37247
363.6242, 25.42345
364.1063, 25.65255
364.5884, 25.94502
365.0706, 26.18151
365.5527, 26.22372
366.0348, 26.32586
366.5169, 26.57913
366.9990, 26.97347
367.4811, 27.32447
367.9633, 27.58083
368.4454, 27.81338
368.9275, 28.06163
369.4096, 28.37475
369.8917, 28.63378
370.3738, 28.79494
370.8560, 28.90284
371.3381, 29.08515
371.8202, 29.42473
372.3023, 29.72744
372.7844, 29.88290
373.2665, 29.80499
373.7487, 29.93595
374.2308, 30.33821
374.7129, 30.88664
375.1950, 31.43851
375.6771, 32.01609
376.1592, 32.52640
376.6414, 32.92109
377.1235, 33.21746
377.6056, 33.61852
378.0877, 34.15334
378.5698, 34.70928
379.0519, 35.17104
379.5341, 35.53381
380.0162, 35.98204
380.4983, 36.55362
380.9804, 37.21635
381.4625, 37.88767
381.9446, 38.57550
382.4268, 39.24576
382.9089, 39.86654
383.3910, 40.45406
383.8731, 41.05149
384.3553, 41.63766
384.8374, 42.33821
385.3195, 43.40632
385.8016, 44.72303
386.2837, 45.95934
386.7658, 46.81565
387.2480, 47.57032
387.7301, 48.62078
388.2122, 49.95382
388.6943, 51.33292
389.1764, 52.52563
389.6585, 53.67150
390.1407, 54.91552
390.6228, 56.26491
391.1049, 57.76976
391.5870, 59.47908
392.0691, 61.36446
392.5512, 63.34069
393.0334, 65.24231
393.5155, 67.30994
393.9976, 69.74214
394.4797, 72.66135
394.9618, 75.61080
395.4439, 78.33370
395.9261, 81.03443
396.4082, 83.97232
396.8903, 87.12728
397.3724, 90.64034
397.8545, 94.65589
398.3366, 99.19022
398.8188, 103.8003
399.3009, 108.2720
399.7830, 112.9362
400.2651, 117.9905
400.7472, 123.4353
401.2293, 129.2939
401.7115, 135.7135
402.1936, 142.5605
402.6757, 149.4212
403.1578, 156.1982
403.6399, 163.1825
404.1220, 170.4036
404.6042, 177.8795
405.0863, 185.7440
405.5684, 194.0143
406.0505, 202.5029
406.5326, 210.8332
407.0147, 218.9641
407.4969, 227.5093
407.9790, 236.7857
408.4611, 246.6312
408.9432, 256.3257
409.4254, 265.7792
409.9075, 275.5479
410.3896, 286.2235
410.8717, 297.6804
411.3538, 309.4351
411.8359, 321.3438
412.3181, 333.3959
412.8002, 345.7180
413.2823, 358.0437
413.7644, 370.2273
414.2465, 382.4003
414.7286, 394.2105
415.2108, 405.6363
415.6929, 416.5929
416.1750, 426.4244
416.6571, 434.7701
417.1392, 441.5544
417.6213, 446.9758
418.1035, 451.2211
418.5856, 453.8856
419.0677, 454.4492
419.5498, 453.1376
420.0319, 450.7658
420.5140, 447.2736
420.9962, 443.0820
421.4783, 438.3939
421.9604, 433.1714
422.4425, 427.6777
422.9246, 421.5595
423.4067, 415.3755
423.8889, 409.8091
424.3710, 405.1037
424.8531, 400.9032
425.3352, 397.2262
425.8173, 394.0654
426.2994, 391.3343
426.7816, 389.4927
427.2637, 387.6374
427.7458, 385.2353
428.2279, 382.2916
428.7100, 378.7646
429.1921, 374.9306
429.6743, 370.3717
430.1564, 364.2622
430.6385, 356.5739
431.1206, 347.4443
431.6028, 336.8139
432.0849, 324.6287
432.5670, 311.5659
433.0491, 297.4043
433.5312, 283.1034
434.0133, 269.2594
434.4955, 255.9191
434.9776, 243.3822
435.4597, 231.7215
435.9418, 220.9113
436.4239, 211.0074
436.9060, 202.1197
437.3882, 194.3883
437.8703, 188.1505
438.3524, 183.0586
438.8345, 178.6369
439.3166, 174.8316
439.7987, 171.7064
440.2809, 169.2874
440.7630, 167.5780
441.2451, 166.6055
441.7272, 166.6763
442.2093, 167.2119
442.6914, 168.0646
443.1736, 169.1832
443.6557, 170.2671
444.1378, 170.7563
444.6199, 171.4889
445.1020, 173.0043
445.5841, 175.5961
446.0663, 178.5335
446.5484, 181.9049
447.0305, 185.5302
447.5126, 189.1284
447.9947, 192.5172
448.4768, 196.0540
448.9590, 200.0802
449.4411, 204.6071
449.9232, 207.9856
450.4053, 209.7508
450.8874, 211.0800
451.3695, 213.0920
451.8517, 216.3373
452.3338, 217.8419
452.8159, 217.1692
453.2980, 214.8044
453.7801, 211.6757
454.2622, 207.8295
454.7444, 202.9183
455.2265, 196.6871
455.7086, 189.2499
456.1907, 181.2479
456.6729, 172.5569
457.1550, 163.6491
457.6371, 154.4907
458.1192, 145.3217
458.6013, 136.4279
459.0834, 127.8799
459.5656, 119.8089
460.0477, 112.4962
460.5298, 105.8168
461.0119, 99.77757
461.4940, 94.46674
461.9761, 89.56802
462.4583, 84.80425
462.9404, 80.09411
463.4225, 75.74759
463.9046, 72.01536
464.3867, 68.63017
464.8688, 65.42911
465.3510, 62.29665
465.8331, 59.38776
466.3152, 56.78159
466.7973, 54.44680
467.2794, 52.28239
467.7615, 50.28320
468.2437, 48.41935
468.7258, 46.65238
469.2079, 44.96824
469.6900, 43.56424
470.1721, 42.61055
470.6542, 41.76288
471.1364, 40.62085
471.6185, 39.07435
472.1006, 37.66524
472.5827, 36.48272
473.0648, 35.50171
473.5469, 34.69407
474.0291, 34.07476
474.5112, 33.45353
474.9933, 32.69621
475.4754, 31.84017
475.9575, 31.01450
476.4396, 30.21151
476.9218, 29.53140
477.4039, 29.21329
477.8860, 29.10366
478.3681, 28.83147
478.8503, 28.14638
479.3324, 27.41436
479.8145, 27.05759
480.2966, 26.97673
480.7787, 26.82202
481.2608, 26.29219
481.7430, 25.70221
482.2251, 25.28179
482.7072, 25.08279
483.1893, 24.90087
483.6714, 24.70005
484.1535, 24.46606
484.6357, 24.18521
485.1178, 23.77262
485.5999, 23.40595
486.0820, 23.16938
486.5641, 23.01242
487.0462, 22.72641
487.5284, 22.17373
488.0105, 21.67656
488.4926, 21.36685
488.9747, 21.27644
489.4568, 21.19169
489.9389, 21.12195
490.4211, 21.04233
490.9032, 20.92567
491.3853, 20.77030
491.8674, 20.58906
492.3495, 20.36516
492.8316, 20.14131
493.3138, 20.04581
493.7959, 20.06443
494.2780, 20.04253
494.7601, 19.82075
495.2422, 19.51414
495.7243, 19.37131
496.2065, 19.40757
496.6886, 19.45078
497.1707, 19.35711
497.6528, 19.18561
498.1349, 19.01112
498.6170, 18.81348
499.0992, 18.67631
499.5813, 18.71022
500.0634, 18.84091
500.5455, 18.88627
501.0276, 18.74889
501.5097, 18.54897
501.9919, 18.30020
502.4740, 17.98436
502.9561, 17.77319
503.4382, 17.68430
503.9203, 17.69840
504.4025, 17.83075
504.8846, 18.25498
505.3667, 18.41980
505.8488, 18.18061
506.3309, 17.73381
506.8130, 17.51828
507.2952, 17.58165
507.7773, 17.66508
508.2594, 17.67399
508.7415, 17.62259
509.2236, 17.60454
509.7057, 17.62481
510.1879, 17.61637
510.6700, 17.49610
511.1521, 17.30121
511.6342, 17.13247
512.1163, 17.00023
512.5984, 16.92164
513.0806, 16.91236
513.5627, 16.97083
514.0448, 17.09388
514.5269, 17.47275
515.0090, 17.75697
515.4911, 17.58520
515.9733, 17.03725
516.4554, 16.66165
516.9375, 16.79253
517.4196, 17.06704
517.9017, 17.28147
518.3839, 17.40449
518.8660, 17.48404
519.3481, 17.50221
519.8302, 17.48872
520.3123, 17.47076
520.7944, 17.42948
521.2766, 17.41737
521.7587, 17.44044
522.2408, 17.49891
522.7229, 17.60729
523.2050, 17.78370
523.6871, 17.94423
524.1693, 18.03773
524.6514, 18.06869
525.1335, 18.10756
525.6156, 18.15314
526.0977, 18.21648
526.5798, 18.31645
527.0620, 18.44478
527.5441, 18.56714
528.0262, 18.65373
528.5083, 18.77555
528.9904, 19.02740
529.4725, 19.37377
529.9547, 19.72791
530.4368, 20.03568
530.9189, 20.34309
531.4010, 20.70243
531.8831, 21.11591
532.3652, 21.44837
532.8474, 21.48050
533.3295, 21.54394
533.8116, 21.86005
534.2937, 22.62165
534.7758, 23.34803
535.2579, 23.98285
535.7401, 24.59835
536.2222, 25.27890
536.7043, 26.06201
537.1865, 26.83526
537.6686, 27.50952
538.1507, 28.16666
538.6328, 29.17549
539.1149, 30.57655
539.5970, 32.14230
540.0792, 33.77934
540.5613, 35.47894
541.0434, 37.07720
541.5255, 38.55916
542.0076, 40.02710
542.4897, 41.53366
542.9719, 43.11848
543.4540, 44.91276
543.9361, 47.06765
544.4182, 49.19365
544.9003, 50.85795
545.3824, 52.23903
545.8646, 53.73423
546.3467, 55.48228
546.8288, 57.39889
547.3109, 59.46185
547.7930, 61.65267
548.2751, 63.91656
548.7573, 66.32732
549.2394, 68.74401
549.7215, 71.09218
550.2036, 73.36738
550.6857, 75.57225
551.1678, 77.64738
551.6500, 79.72325
552.1321, 82.02602
552.6142, 84.64409
553.0963, 87.01187
553.5784, 89.04826
554.0605, 90.71072
554.5427, 91.91171
555.0248, 92.64938
555.5069, 92.87490
555.9890, 92.74160
556.4711, 92.01957
556.9532, 90.21384
557.4354, 87.30766
557.9175, 83.73537
558.3996, 79.45618
558.8817, 74.88694
559.3638, 70.46590
559.8459, 66.31552
560.3281, 62.36838
560.8102, 58.55967
561.2923, 54.98047
561.7744, 51.80225
562.2565, 49.40763
562.7386, 47.03063
563.2208, 44.32757
563.7029, 41.43109
564.1850, 39.12090
564.6671, 37.57116
565.1492, 36.33948
565.6313, 35.25322
566.1135, 34.32866
566.5956, 33.46014
567.0777, 32.66418
567.5598, 31.88535
568.0419, 30.95292
568.5240, 29.94791
569.0062, 29.27477
569.4883, 29.08234
569.9704, 29.09782
570.4525, 28.97968
570.9346, 28.79628
571.4167, 28.72802
571.8989, 28.93976
572.3810, 29.22481
572.8631, 29.46952
573.3452, 29.66879
573.8273, 29.82293
574.3094, 29.77253
574.7916, 29.80041
575.2737, 30.05995
575.7558, 30.59728
576.2379, 31.27200
576.7200, 32.13766
577.2021, 33.08042
577.6843, 33.99435
578.1664, 34.81158
578.6485, 35.77781
579.1306, 36.91974
579.6127, 38.23691
580.0948, 39.77386
580.5770, 41.52305
581.0591, 43.42898
581.5412, 45.46989
582.0233, 47.63493
582.5054, 49.90125
582.9875, 52.24486
583.4697, 54.73028
