##NAMES=Collinsite
##RRUFFID=R120022
##IDEAL CHEMISTRY=Ca_2_Mg(PO_4_)_2_&#183;2H_2_O
##LOCALITY=Prinz von Hessen mine, Messel, Darmstadt, Hesse, Germany
##OWNER=RRUFF
##SOURCE=Dr. JÃ¼rgen Wachsmuth
##DESCRIPTION=Radiating outward sprays of light brown, acircular crystals
##STATUS=The identification of this mineral has been confirmed by single-crystal X-ray diffraction.
##URL=rruff.info/R120022
90.49219, 659.4562
90.97430, 662.4847
91.45642, 661.8594
91.93854, 657.8613
92.42065, 652.8421
92.90277, 647.9372
93.38489, 643.3779
93.86700, 639.7764
94.34912, 637.7991
94.83124, 636.8076
95.31335, 635.2415
95.79547, 632.9469
96.27759, 631.1699
96.75970, 631.3813
97.24182, 633.5153
97.72394, 636.5513
98.20605, 641.1143
98.68817, 646.9056
99.17029, 649.5422
99.65240, 648.1091
100.1345, 644.9687
100.6166, 645.5751
101.0988, 651.1718
101.5809, 655.0898
102.0630, 652.7897
102.5451, 642.5740
103.0272, 634.3131
103.5093, 628.0764
103.9915, 624.2772
104.4736, 625.0369
104.9557, 632.6481
105.4378, 641.5092
105.9199, 647.8657
106.4020, 651.0668
106.8842, 653.0274
107.3663, 653.5623
107.8484, 652.6423
108.3305, 652.2589
108.8126, 652.3983
109.2947, 653.0891
109.7769, 654.3663
110.2590, 657.4528
110.7411, 659.8847
111.2232, 661.9387
111.7053, 664.4319
112.1874, 662.9606
112.6696, 650.1796
113.1517, 635.0112
113.6338, 629.0204
114.1159, 644.9708
114.5980, 661.2979
115.0801, 670.1716
115.5623, 668.2300
116.0444, 664.5092
116.5265, 657.9055
117.0086, 651.0576
117.4907, 649.6705
117.9728, 662.1812
118.4550, 676.8023
118.9371, 685.6789
119.4192, 683.6653
119.9013, 681.0673
120.3834, 684.8503
120.8655, 693.1111
121.3477, 698.4178
121.8298, 691.4783
122.3119, 681.2502
122.7940, 677.4625
123.2761, 687.4566
123.7582, 701.0275
124.2404, 709.7351
124.7225, 713.8658
125.2046, 716.9800
125.6867, 722.6485
126.1688, 729.1424
126.6509, 733.2670
127.1331, 732.9524
127.6152, 729.8391
128.0973, 725.0571
128.5794, 718.3224
129.0615, 713.3656
129.5436, 715.0889
130.0258, 722.4033
130.5079, 730.4174
130.9900, 737.7504
131.4721, 744.1328
131.9542, 749.0025
132.4363, 752.3613
132.9185, 754.1386
133.4006, 753.5536
133.8827, 750.6014
134.3648, 747.7473
134.8469, 744.9210
135.3290, 742.4230
135.8112, 745.6212
136.2933, 756.7218
136.7754, 771.4386
137.2575, 779.0714
137.7396, 778.2472
138.2217, 776.6744
138.7039, 779.8993
139.1860, 788.9000
139.6681, 795.9032
140.1502, 800.0342
140.6323, 801.5661
141.1144, 800.8171
141.5966, 795.5194
142.0787, 792.3079
142.5608, 797.7586
143.0429, 816.5625
143.5250, 830.5245
144.0071, 835.5104
144.4893, 831.9178
144.9714, 831.0873
145.4535, 834.6337
145.9356, 839.3893
146.4177, 841.8776
146.8998, 838.1301
147.3820, 838.4816
147.8641, 846.1476
148.3462, 862.5109
148.8283, 876.1962
149.3104, 885.0672
149.7925, 892.3210
150.2747, 901.8625
150.7568, 913.7053
151.2389, 927.5565
151.7210, 942.5189
152.2031, 956.4205
152.6852, 977.9075
153.1674, 1009.018
153.6495, 1047.498
154.1316, 1090.207
154.6137, 1129.942
155.0958, 1179.858
155.5779, 1242.358
156.0601, 1312.812
156.5422, 1406.688
157.0243, 1530.097
157.5064, 1677.910
157.9885, 1840.183
158.4706, 2017.095
158.9528, 2206.304
159.4349, 2403.036
159.9170, 2587.130
160.3991, 2813.367
160.8812, 3104.678
161.3633, 3450.534
161.8455, 3823.272
162.3276, 4203.233
162.8097, 4610.738
163.2918, 5067.385
163.7739, 5583.146
164.2560, 6136.027
164.7382, 6717.717
165.2203, 7329.013
165.7024, 7972.944
166.1845, 8653.059
166.6666, 9368.612
167.1487, 10111.41
167.6309, 10900.97
168.1130, 11706.09
168.5951, 12507.34
169.0772, 13306.24
169.5593, 14090.60
170.0414, 14860.71
170.5236, 15613.19
171.0057, 16333.84
171.4878, 17022.95
171.9699, 17685.65
172.4520, 18314.32
172.9341, 18912.69
173.4163, 19491.55
173.8984, 20046.14
174.3805, 20592.57
174.8626, 21140.14
175.3447, 21688.44
175.8268, 22252.20
176.3090, 22846.69
176.7911, 23466.81
177.2732, 24121.10
177.7553, 24717.55
178.2374, 25236.58
178.7195, 25749.84
179.2017, 26282.16
179.6838, 26836.75
180.1659, 27402.76
180.6480, 27984.32
181.1301, 28592.04
181.6122, 29257.64
182.0944, 29971.65
182.5765, 30685.64
183.0586, 31398.03
183.5407, 32094.93
184.0228, 32782.50
184.5049, 33456.55
184.9871, 34115.92
185.4692, 34749.09
185.9513, 35361.39
186.4334, 35945.46
186.9155, 36499.59
187.3976, 37026.50
187.8798, 37543.63
188.3619, 38049.73
188.8440, 38546.50
189.3261, 39027.93
189.8082, 39497.88
190.2903, 39950.44
190.7725, 40380.71
191.2546, 40795.40
191.7367, 41196.89
192.2188, 41588.00
192.7009, 41965.16
193.1830, 42313.46
193.6652, 42631.77
194.1473, 42935.13
194.6294, 43226.21
195.1115, 43505.39
195.5936, 43777.44
196.0757, 44041.73
196.5579, 44300.43
197.0400, 44561.95
197.5221, 44828.10
198.0042, 45078.38
198.4863, 45295.33
198.9684, 45477.64
199.4506, 45679.09
199.9327, 45905.30
200.4148, 46147.18
200.8969, 46382.35
201.3790, 46612.25
201.8611, 46841.96
202.3433, 47074.63
202.8254, 47310.47
203.3075, 47550.54
203.7896, 47792.56
204.2717, 48037.75
204.7538, 48288.78
205.2360, 48547.86
205.7181, 48801.82
206.2002, 49037.86
206.6823, 49250.41
207.1644, 49477.73
207.6465, 49730.00
208.1287, 49993.30
208.6108, 50234.83
209.0929, 50452.40
209.5750, 50654.05
210.0571, 50840.39
210.5392, 51010.14
211.0214, 51177.30
211.5035, 51348.52
211.9856, 51516.81
212.4677, 51658.32
212.9498, 51764.11
213.4319, 51867.13
213.9141, 51993.36
214.3962, 52155.80
214.8783, 52298.04
215.3604, 52406.81
215.8425, 52493.50
216.3246, 52602.20
216.8067, 52748.75
217.2889, 52887.96
217.7710, 52989.41
218.2531, 53037.67
218.7352, 53092.44
219.2173, 53161.46
219.6994, 53240.23
220.1816, 53305.27
220.6637, 53349.60
221.1458, 53391.24
221.6279, 53442.05
222.1100, 53508.44
222.5921, 53565.73
223.0743, 53607.11
223.5564, 53637.95
224.0385, 53686.71
224.5206, 53760.33
225.0027, 53841.19
225.4848, 53919.35
225.9670, 53993.98
226.4491, 54069.26
226.9312, 54144.00
227.4133, 54220.36
227.8954, 54313.38
228.3775, 54432.11
228.8597, 54552.51
229.3418, 54659.55
229.8239, 54751.91
230.3060, 54830.90
230.7881, 54886.03
231.2702, 54925.32
231.7524, 54987.98
232.2345, 55081.25
232.7166, 55183.32
233.1987, 55282.08
233.6808, 55381.86
234.1629, 55464.33
234.6451, 55521.88
235.1272, 55560.05
235.6093, 55607.69
236.0914, 55675.93
236.5735, 55738.45
237.0556, 55779.79
237.5378, 55790.98
238.0199, 55802.41
238.5020, 55814.40
238.9841, 55829.43
239.4662, 55855.92
239.9483, 55903.37
240.4305, 55952.77
240.9126, 55994.46
241.3947, 56024.54
241.8768, 56059.03
242.3589, 56101.82
242.8410, 56149.94
243.3232, 56190.66
243.8053, 56210.65
244.2874, 56240.84
244.7695, 56297.99
245.2516, 56395.77
245.7337, 56487.04
246.2159, 56567.40
246.6980, 56639.15
247.1801, 56710.25
247.6622, 56782.80
248.1443, 56850.24
248.6264, 56907.97
249.1086, 56951.67
249.5907, 56996.04
250.0728, 57042.32
250.5549, 57089.68
251.0370, 57136.05
251.5191, 57183.79
252.0013, 57229.07
252.4834, 57271.06
252.9655, 57309.44
253.4476, 57346.73
253.9297, 57380.68
254.4118, 57415.42
254.8940, 57463.23
255.3761, 57536.35
255.8582, 57600.61
256.3403, 57636.05
256.8224, 57626.00
257.3046, 57639.48
257.7867, 57681.43
258.2688, 57741.57
258.7509, 57803.46
259.2330, 57872.12
259.7151, 57928.59
260.1973, 57962.27
260.6794, 57965.67
261.1615, 57976.00
261.6436, 57994.40
262.1257, 58019.29
262.6078, 58049.45
263.0900, 58088.76
263.5721, 58127.13
264.0542, 58161.58
264.5363, 58193.24
265.0184, 58224.14
265.5005, 58254.33
265.9827, 58286.85
266.4648, 58325.74
266.9469, 58370.42
267.4290, 58423.88
267.9111, 58492.23
268.3932, 58576.63
268.8754, 58640.10
269.3575, 58674.25
269.8396, 58697.86
270.3217, 58733.25
270.8038, 58780.79
271.2859, 58832.09
271.7681, 58880.23
272.2502, 58925.05
272.7323, 58996.77
273.2144, 59105.51
273.6965, 59217.25
274.1786, 59291.70
274.6608, 59322.76
275.1429, 59353.97
275.6250, 59396.90
276.1071, 59449.45
276.5892, 59496.82
277.0714, 59537.95
277.5535, 59575.13
278.0356, 59607.95
278.5177, 59635.26
278.9998, 59667.52
279.4819, 59708.94
279.9641, 59756.08
280.4462, 59798.48
280.9283, 59840.02
281.4104, 59859.19
281.8925, 59821.51
282.3746, 59725.96
282.8568, 59668.98
283.3389, 59675.77
283.8210, 59725.80
284.3031, 59762.93
284.7852, 59787.69
285.2673, 59809.94
285.7495, 59834.18
286.2316, 59861.95
286.7137, 59904.92
287.1958, 59971.14
287.6779, 60045.24
288.1600, 60087.01
288.6422, 60095.63
289.1243, 60113.85
289.6064, 60170.37
290.0885, 60259.13
290.5706, 60352.64
291.0527, 60449.41
291.5349, 60543.22
292.0170, 60626.44
292.4991, 60697.39
292.9812, 60755.75
293.4633, 60799.52
293.9454, 60829.53
294.4276, 60843.24
294.9097, 60836.64
295.3918, 60831.31
295.8739, 60859.68
296.3560, 60915.68
296.8381, 60970.86
297.3203, 61014.27
297.8024, 61047.11
298.2845, 61070.26
298.7666, 61083.44
299.2487, 61092.94
299.7308, 61100.72
300.2130, 61109.48
300.6951, 61126.70
301.1772, 61157.93
301.6593, 61197.63
302.1414, 61242.93
302.6235, 61292.90
303.1057, 61335.58
303.5878, 61357.26
304.0699, 61364.58
304.5520, 61368.66
305.0341, 61366.30
305.5162, 61369.00
305.9984, 61394.32
306.4805, 61439.11
306.9626, 61482.79
307.4447, 61508.72
307.9268, 61525.80
308.4089, 61544.83
308.8911, 61568.12
309.3732, 61595.04
309.8553, 61628.75
310.3374, 61666.61
310.8195, 61700.09
311.3016, 61711.59
311.7838, 61722.43
312.2659, 61754.79
312.7480, 61821.64
313.2301, 61888.09
313.7122, 61935.08
314.1943, 61967.02
314.6765, 61992.27
315.1586, 62005.09
315.6407, 62019.25
316.1228, 62044.99
316.6049, 62086.02
317.0870, 62129.02
317.5692, 62179.68
318.0513, 62226.27
318.5334, 62251.82
319.0155, 62228.33
319.4976, 62202.31
319.9797, 62191.54
320.4619, 62197.33
320.9440, 62216.24
321.4261, 62249.75
321.9082, 62293.83
322.3903, 62344.63
322.8724, 62411.57
323.3546, 62473.30
323.8367, 62523.18
324.3188, 62561.15
324.8009, 62595.63
325.2830, 62623.79
325.7651, 62651.97
326.2473, 62684.52
326.7294, 62748.61
327.2115, 62789.05
327.6936, 62789.79
328.1757, 62760.50
328.6578, 62745.39
329.1400, 62749.33
329.6221, 62766.34
330.1042, 62795.98
330.5863, 62857.79
331.0684, 62899.72
331.5505, 62899.63
332.0327, 62882.35
332.5148, 62905.71
332.9969, 62998.58
333.4790, 63089.02
333.9611, 63148.85
334.4432, 63163.66
334.9254, 63197.25
335.4075, 63254.36
335.8896, 63322.39
336.3717, 63386.34
336.8538, 63447.81
337.3359, 63497.37
337.8180, 63529.96
338.3001, 63546.04
338.7823, 63564.52
339.2644, 63589.90
339.7465, 63611.57
340.2286, 63619.96
340.7107, 63615.76
341.1928, 63600.04
341.6750, 63565.68
342.1571, 63524.10
342.6392, 63528.45
343.1213, 63588.14
343.6034, 63647.54
344.0855, 63662.32
344.5677, 63634.55
345.0498, 63608.43
345.5319, 63583.07
346.0140, 63572.27
346.4961, 63617.52
346.9782, 63716.03
347.4604, 63802.98
347.9425, 63820.56
348.4246, 63793.25
348.9067, 63817.86
349.3888, 63907.32
349.8709, 64009.67
350.3531, 64061.10
350.8352, 64071.23
351.3173, 64076.05
351.7994, 64079.08
352.2815, 64089.85
352.7636, 64128.79
353.2458, 64195.21
353.7279, 64267.46
354.2100, 64325.23
354.6921, 64375.74
355.1742, 64433.61
355.6563, 64521.43
356.1385, 64598.84
356.6206, 64613.38
357.1027, 64576.88
357.5848, 64549.11
358.0669, 64572.38
358.5490, 64618.08
359.0312, 64661.26
359.5133, 64701.11
359.9954, 64731.12
360.4775, 64740.80
360.9596, 64739.08
361.4417, 64744.01
361.9239, 64764.95
362.4060, 64794.31
362.8881, 64832.13
363.3702, 64882.15
363.8523, 64921.99
364.3344, 64935.74
364.8166, 64938.68
365.2987, 64948.45
365.7808, 64960.65
366.2629, 64988.53
366.7450, 65050.34
367.2271, 65145.34
367.7093, 65207.15
368.1914, 65194.37
368.6735, 65166.18
369.1556, 65160.73
369.6377, 65194.16
370.1198, 65230.84
370.6020, 65269.65
371.0841, 65309.94
371.5662, 65351.20
372.0483, 65399.51
372.5304, 65439.45
373.0125, 65463.18
373.4947, 65464.21
373.9768, 65465.59
374.4589, 65466.91
374.9410, 65468.84
375.4231, 65472.90
375.9052, 65480.61
376.3874, 65489.99
376.8695, 65502.83
377.3516, 65520.18
377.8337, 65531.89
378.3158, 65537.02
378.7979, 65544.07
379.2801, 65564.47
379.7622, 65599.91
380.2443, 65626.98
380.7264, 65635.16
381.2085, 65637.52
381.6906, 65672.91
382.1728, 65741.05
382.6549, 65814.62
383.1370, 65877.91
383.6191, 65930.16
384.1012, 65962.86
384.5833, 65968.26
385.0655, 65973.01
385.5476, 66024.05
386.0297, 66107.70
386.5118, 66173.65
386.9939, 66174.84
387.4760, 66153.96
387.9582, 66182.57
388.4403, 66263.29
388.9224, 66340.91
389.4045, 66371.02
389.8866, 66370.78
390.3687, 66362.95
390.8509, 66343.99
391.3330, 66333.89
391.8151, 66356.42
392.2972, 66403.75
392.7793, 66442.50
393.2614, 66446.26
393.7436, 66441.43
394.2257, 66442.73
394.7078, 66443.77
395.1899, 66472.13
395.6720, 66571.25
396.1541, 66697.05
396.6363, 66778.82
397.1184, 66742.00
397.6005, 66711.07
398.0826, 66735.13
398.5647, 66824.66
399.0468, 66898.52
399.5290, 66944.07
400.0111, 66973.53
400.4932, 66996.05
400.9753, 66984.55
401.4574, 67004.52
401.9395, 67080.45
402.4217, 67196.66
402.9038, 67273.84
403.3859, 67284.98
403.8680, 67297.35
404.3501, 67347.09
404.8322, 67448.81
405.3144, 67535.89
405.7965, 67606.25
406.2786, 67663.17
406.7607, 67706.15
407.2428, 67730.46
407.7249, 67766.61
408.2071, 67830.52
408.6892, 67915.77
409.1713, 67972.22
409.6534, 67993.45
410.1355, 68023.28
410.6176, 68114.09
411.0998, 68254.28
411.5819, 68376.32
412.0640, 68467.20
412.5461, 68533.32
413.0282, 68571.23
413.5103, 68587.51
413.9925, 68622.13
414.4746, 68723.41
414.9567, 68849.98
415.4388, 68934.47
415.9209, 68969.94
416.4030, 68985.86
416.8852, 69001.98
417.3673, 69016.77
417.8494, 69027.82
418.3315, 69038.98
418.8136, 69043.67
419.2957, 69029.16
419.7779, 69000.91
420.2600, 68989.57
420.7421, 69021.73
421.2242, 69070.26
421.7063, 69116.82
422.1884, 69165.76
422.6706, 69201.23
423.1527, 69205.66
423.6348, 69196.16
424.1169, 69204.72
424.5990, 69249.47
425.0811, 69299.05
425.5633, 69335.95
426.0454, 69351.82
426.5275, 69407.19
427.0096, 69535.88
427.4917, 69675.57
427.9738, 69774.34
428.4560, 69814.21
428.9381, 69847.28
429.4202, 69877.72
429.9023, 69904.23
430.3844, 69930.38
430.8665, 69966.42
431.3487, 69972.15
431.8308, 69909.59
432.3129, 69773.73
432.7950, 69692.24
433.2771, 69678.68
433.7592, 69689.46
434.2414, 69675.10
434.7235, 69636.50
435.2056, 69575.38
435.6877, 69478.17
436.1698, 69370.14
436.6519, 69309.02
437.1341, 69293.29
437.6162, 69285.16
438.0983, 69253.37
438.5804, 69211.20
439.0625, 69179.05
439.5446, 69158.25
440.0268, 69155.32
440.5089, 69182.93
440.9910, 69232.49
441.4731, 69285.89
441.9552, 69351.24
442.4373, 69404.60
442.9195, 69423.02
443.4016, 69406.40
443.8837, 69393.62
444.3658, 69396.16
444.8479, 69409.83
445.3300, 69431.15
445.8122, 69457.37
446.2943, 69492.22
446.7764, 69549.77
447.2585, 69616.52
447.7406, 69658.17
448.2227, 69625.95
448.7049, 69615.67
449.1870, 69672.20
449.6691, 69819.14
450.1512, 69887.70
450.6333, 69839.18
451.1154, 69755.65
451.5976, 69712.55
452.0797, 69717.70
452.5618, 69747.80
453.0439, 69818.34
453.5260, 69903.38
454.0081, 69910.46
454.4903, 69826.94
454.9724, 69750.36
455.4545, 69742.17
455.9366, 69792.24
456.4187, 69829.04
456.9008, 69848.11
457.3830, 69860.81
457.8651, 69870.58
458.3472, 69881.91
458.8293, 69913.70
459.3114, 69991.34
459.7935, 70070.52
460.2757, 70089.16
460.7578, 70055.58
461.2399, 70016.27
461.7220, 69996.16
462.2041, 69985.85
462.6862, 69979.05
463.1684, 69977.13
463.6505, 69971.83
464.1326, 69951.43
464.6147, 69929.04
465.0968, 69921.13
465.5789, 69973.04
466.0611, 70001.71
466.5432, 69962.03
467.0253, 69863.42
467.5074, 69805.85
467.9895, 69831.01
468.4716, 69876.76
468.9538, 69914.27
469.4359, 69937.20
469.9180, 69964.11
470.4001, 69995.51
470.8822, 70029.33
471.3643, 70064.46
471.8465, 70103.78
472.3286, 70131.98
472.8107, 70139.41
473.2928, 70130.97
473.7749, 70140.59
474.2570, 70170.74
474.7392, 70203.51
475.2213, 70229.58
475.7034, 70248.14
476.1855, 70247.12
476.6676, 70218.70
477.1497, 70195.14
477.6319, 70234.41
478.1140, 70318.59
478.5961, 70387.32
479.0782, 70402.18
479.5603, 70396.17
480.0424, 70407.09
480.5246, 70432.95
481.0067, 70457.41
481.4888, 70466.24
481.9709, 70470.55
482.4530, 70478.15
482.9352, 70485.70
483.4173, 70506.79
483.8994, 70566.28
484.3815, 70637.66
484.8636, 70680.28
485.3457, 70652.68
485.8279, 70627.97
486.3100, 70626.66
486.7921, 70649.76
487.2742, 70673.46
487.7563, 70702.13
488.2384, 70729.55
488.7206, 70752.72
489.2027, 70772.27
489.6848, 70789.30
490.1669, 70804.66
490.6490, 70818.27
491.1311, 70826.38
491.6133, 70826.21
492.0954, 70839.62
492.5775, 70875.14
493.0596, 70928.30
493.5417, 70990.22
494.0238, 71060.16
494.5060, 71118.10
494.9881, 71134.57
495.4702, 71126.48
495.9523, 71140.17
496.4344, 71183.59
496.9165, 71234.55
497.3987, 71277.97
497.8808, 71312.52
498.3629, 71335.23
498.8450, 71330.32
499.3271, 71326.32
499.8092, 71357.25
500.2914, 71413.59
500.7735, 71437.86
501.2556, 71368.05
501.7377, 71291.48
502.2198, 71267.50
502.7019, 71337.84
503.1841, 71371.73
503.6662, 71313.38
504.1483, 71228.09
504.6304, 71192.91
505.1125, 71241.59
505.5946, 71286.75
506.0768, 71317.02
506.5589, 71333.13
507.0410, 71336.45
507.5231, 71318.07
508.0052, 71309.42
508.4873, 71331.49
508.9695, 71383.83
509.4516, 71426.73
509.9337, 71458.05
510.4158, 71484.77
510.8979, 71513.37
511.3800, 71543.73
511.8622, 71577.65
512.3443, 71623.54
512.8264, 71661.28
513.3085, 71646.48
513.7906, 71596.25
514.2728, 71571.34
514.7549, 71660.05
515.2370, 71754.68
515.7191, 71742.62
516.2012, 71609.93
516.6833, 71501.71
517.1655, 71504.35
517.6476, 71551.24
518.1297, 71585.48
518.6118, 71586.98
519.0939, 71586.41
519.5760, 71577.48
520.0582, 71570.47
520.5403, 71589.77
521.0224, 71657.36
521.5045, 71719.12
521.9866, 71754.34
522.4688, 71762.80
522.9509, 71799.20
523.4330, 71874.05
523.9151, 71950.48
524.3972, 71994.45
524.8793, 72004.24
525.3615, 72027.66
525.8436, 72068.32
526.3257, 72123.65
526.8078, 72210.89
527.2899, 72316.82
527.7720, 72376.10
528.2542, 72338.48
528.7363, 72258.57
529.2184, 72196.22
529.7005, 72152.92
530.1826, 72133.73
530.6647, 72173.11
531.1469, 72219.90
531.6290, 72221.84
532.1111, 72159.73
532.5932, 72116.88
533.0753, 72153.48
533.5574, 72215.53
534.0396, 72246.33
534.5217, 72196.77
535.0038, 72163.84
535.4859, 72165.98
535.9680, 72195.28
536.4501, 72228.41
536.9323, 72273.67
537.4144, 72308.23
537.8965, 72316.08
538.3786, 72295.55
538.8607, 72310.05
539.3428, 72369.49
539.8250, 72430.20
540.3071, 72438.51
540.7892, 72401.70
541.2713, 72400.41
541.7534, 72454.16
542.2355, 72525.07
542.7177, 72561.36
543.1998, 72570.92
543.6819, 72577.91
544.1640, 72594.00
544.6461, 72612.38
545.1282, 72623.18
545.6104, 72629.02
546.0925, 72644.90
546.5746, 72678.29
547.0567, 72725.13
547.5388, 72788.73
548.0209, 72880.27
548.5031, 72951.86
548.9852, 72975.28
549.4673, 72982.84
549.9494, 73009.61
550.4315, 73083.22
550.9136, 73131.52
551.3958, 73134.93
551.8779, 73110.28
552.3600, 73109.73
552.8421, 73138.61
553.3242, 73171.34
553.8063, 73201.45
554.2885, 73227.46
554.7706, 73236.21
555.2527, 73227.23
555.7348, 73208.85
556.2169, 73174.45
556.6990, 73137.42
557.1812, 73140.16
557.6633, 73201.14
558.1454, 73259.08
558.6275, 73245.47
559.1096, 73189.39
559.5917, 73141.24
560.0739, 73134.33
560.5560, 73129.07
561.0381, 73100.66
561.5202, 73055.40
562.0023, 73020.95
562.4844, 73004.63
562.9666, 72999.15
563.4487, 73004.62
563.9308, 73024.41
564.4129, 73034.09
564.8950, 73031.24
565.3771, 73019.52
565.8593, 72997.77
566.3414, 72959.35
566.8235, 72938.45
567.3056, 72941.77
567.7877, 72958.14
568.2698, 72968.70
568.7520, 72974.10
569.2341, 72979.35
569.7162, 72990.77
570.1983, 73001.95
570.6804, 72997.65
571.1625, 72980.87
571.6447, 72966.99
572.1268, 72964.27
572.6089, 72971.66
573.0910, 72992.35
573.5731, 73029.55
574.0552, 73060.91
574.5374, 73057.27
575.0195, 73052.41
575.5016, 73077.66
575.9837, 73182.89
576.4658, 73260.92
576.9479, 73281.27
577.4301, 73270.90
577.9122, 73282.61
578.3943, 73318.41
578.8764, 73368.50
579.3585, 73435.22
579.8406, 73513.55
580.3228, 73575.46
580.8049, 73620.83
581.2870, 73649.17
581.7691, 73656.74
582.2512, 73647.66
582.7333, 73636.88
583.2155, 73626.35
583.6976, 73615.32
584.1797, 73593.66
584.6617, 73574.70
585.1439, 73579.79
585.6260, 73619.42
586.1081, 73678.84
586.5902, 73775.29
587.0723, 73883.23
