##NAMES=Collinsite
##RRUFFID=R140626
##IDEAL CHEMISTRY=Ca_2_Mg(PO_4_)_2_&#183;2H_2_O
##LOCALITY=Near Milgun Station, Meekatharra Shire, Western Australia, Australia
##OWNER=RRUFF
##SOURCE=Rock Currier
##DESCRIPTION=Colorless bladed to prismatic crystals with pointy ends. Associated with gordonite (R130671), montgomeryite (R140625), and hydroxylapatite (R140987).
##STATUS=The identification of this mineral is confirmed by single-crystal X-ray diffraction and chemical analysis.
##URL=rruff.info/R140626
##MEASURED CHEMISTRY=Ca_2.01_Mg_1.06_(P_1.00_O_4_)_2_Â·2H_2_O ; trace Mn, Fe
9.059570e+001, 7.317322e+002
9.107782e+001, 6.976971e+002
9.155994e+001, 6.856299e+002
9.204205e+001, 7.105268e+002
9.252417e+001, 7.472813e+002
9.300629e+001, 7.878541e+002
9.348840e+001, 8.250863e+002
9.397052e+001, 8.529772e+002
9.445264e+001, 8.683913e+002
9.493475e+001, 8.826248e+002
9.541687e+001, 8.946305e+002
9.589898e+001, 9.054641e+002
9.638110e+001, 9.151177e+002
9.686321e+001, 9.232478e+002
9.734533e+001, 9.290880e+002
9.782745e+001, 9.315977e+002
9.830956e+001, 9.358761e+002
9.879168e+001, 9.430301e+002
9.927380e+001, 9.506330e+002
9.975591e+001, 9.581237e+002
1.002380e+002, 9.654259e+002
1.007201e+002, 9.727040e+002
1.012023e+002, 9.807633e+002
1.016844e+002, 9.884832e+002
1.021665e+002, 9.926982e+002
1.026486e+002, 9.928099e+002
1.031307e+002, 9.898906e+002
1.036128e+002, 9.840466e+002
1.040950e+002, 9.746693e+002
1.045771e+002, 9.652061e+002
1.050592e+002, 9.576198e+002
1.055413e+002, 9.511924e+002
1.060234e+002, 9.451074e+002
1.065055e+002, 9.383619e+002
1.069877e+002, 9.314915e+002
1.074698e+002, 9.269238e+002
1.079519e+002, 9.261194e+002
1.084340e+002, 9.259168e+002
1.089161e+002, 9.252043e+002
1.093982e+002, 9.239561e+002
1.098804e+002, 9.223000e+002
1.103625e+002, 9.201115e+002
1.108446e+002, 9.170690e+002
1.113267e+002, 9.151977e+002
1.118088e+002, 9.151028e+002
1.122909e+002, 9.155411e+002
1.127731e+002, 9.160412e+002
1.132552e+002, 9.164864e+002
1.137373e+002, 9.169752e+002
1.142194e+002, 9.176387e+002
1.147015e+002, 9.184894e+002
1.151836e+002, 9.195515e+002
1.156658e+002, 9.209903e+002
1.161479e+002, 9.225540e+002
1.166300e+002, 9.239377e+002
1.171121e+002, 9.250209e+002
1.175942e+002, 9.260248e+002
1.180763e+002, 9.274806e+002
1.185584e+002, 9.293517e+002
1.190406e+002, 9.315651e+002
1.195227e+002, 9.339448e+002
1.200048e+002, 9.366149e+002
1.204869e+002, 9.399273e+002
1.209690e+002, 9.439569e+002
1.214511e+002, 9.489021e+002
1.219333e+002, 9.545095e+002
1.224154e+002, 9.601686e+002
1.228975e+002, 9.674817e+002
1.233796e+002, 9.778177e+002
1.238617e+002, 9.913057e+002
1.243438e+002, 1.006830e+003
1.248260e+002, 1.024672e+003
1.253081e+002, 1.043975e+003
1.257902e+002, 1.065538e+003
1.262723e+002, 1.091748e+003
1.267544e+002, 1.117472e+003
1.272365e+002, 1.131038e+003
1.277187e+002, 1.130590e+003
1.282008e+002, 1.118999e+003
1.286829e+002, 1.093850e+003
1.291650e+002, 1.060952e+003
1.296471e+002, 1.027335e+003
1.301292e+002, 9.967516e+002
1.306114e+002, 9.693546e+002
1.310935e+002, 9.476077e+002
1.315756e+002, 9.345690e+002
1.320577e+002, 9.245518e+002
1.325398e+002, 9.173729e+002
1.330219e+002, 9.123344e+002
1.335041e+002, 9.084324e+002
1.339862e+002, 9.047678e+002
1.344683e+002, 9.012366e+002
1.349504e+002, 8.988370e+002
1.354325e+002, 8.980440e+002
1.359146e+002, 8.977466e+002
1.363968e+002, 8.973868e+002
1.368789e+002, 8.968831e+002
1.373610e+002, 8.963906e+002
1.378431e+002, 8.960521e+002
1.383252e+002, 8.958549e+002
1.388073e+002, 8.960236e+002
1.392895e+002, 8.969651e+002
1.397716e+002, 8.981239e+002
1.402537e+002, 8.988790e+002
1.407358e+002, 8.990901e+002
1.412179e+002, 8.988938e+002
1.417000e+002, 8.980854e+002
1.421821e+002, 8.966959e+002
1.426643e+002, 8.960057e+002
1.431464e+002, 8.968744e+002
1.436285e+002, 8.989459e+002
1.441106e+002, 9.009148e+002
1.445927e+002, 9.023496e+002
1.450748e+002, 9.037923e+002
1.455570e+002, 9.055926e+002
1.460391e+002, 9.077599e+002
1.465212e+002, 9.103957e+002
1.470033e+002, 9.136990e+002
1.474854e+002, 9.177359e+002
1.479675e+002, 9.218445e+002
1.484497e+002, 9.253947e+002
1.489318e+002, 9.293685e+002
1.494139e+002, 9.342762e+002
1.498960e+002, 9.402219e+002
1.503781e+002, 9.471769e+002
1.508602e+002, 9.548722e+002
1.513424e+002, 9.627842e+002
1.518245e+002, 9.730240e+002
1.523066e+002, 9.874365e+002
1.527887e+002, 1.002851e+003
1.532708e+002, 1.017814e+003
1.537529e+002, 1.031552e+003
1.542351e+002, 1.043016e+003
1.547172e+002, 1.049560e+003
1.551993e+002, 1.051940e+003
1.556814e+002, 1.047117e+003
1.561635e+002, 1.030977e+003
1.566456e+002, 1.008877e+003
1.571278e+002, 9.865715e+002
1.576099e+002, 9.667733e+002
1.580920e+002, 9.494174e+002
1.585741e+002, 9.345525e+002
1.590562e+002, 9.217672e+002
1.595383e+002, 9.113956e+002
1.600205e+002, 9.042632e+002
1.605026e+002, 8.997249e+002
1.609847e+002, 8.964080e+002
1.614668e+002, 8.936824e+002
1.619489e+002, 8.915823e+002
1.624310e+002, 8.900639e+002
1.629131e+002, 8.894066e+002
1.633953e+002, 8.890037e+002
1.638774e+002, 8.884039e+002
1.643595e+002, 8.876599e+002
1.648416e+002, 8.873640e+002
1.653237e+002, 8.883268e+002
1.658058e+002, 8.898944e+002
1.662880e+002, 8.905580e+002
1.667701e+002, 8.897839e+002
1.672522e+002, 8.883428e+002
1.677343e+002, 8.868282e+002
1.682164e+002, 8.850801e+002
1.686985e+002, 8.840385e+002
1.691807e+002, 8.849389e+002
1.696628e+002, 8.867203e+002
1.701449e+002, 8.881286e+002
1.706270e+002, 8.885766e+002
1.711091e+002, 8.884297e+002
1.715912e+002, 8.885447e+002
1.720734e+002, 8.891083e+002
1.725555e+002, 8.895940e+002
1.730376e+002, 8.894587e+002
1.735197e+002, 8.891870e+002
1.740018e+002, 8.894594e+002
1.744839e+002, 8.906666e+002
1.749661e+002, 8.927459e+002
1.754482e+002, 8.953337e+002
1.759303e+002, 8.989655e+002
1.764124e+002, 9.025580e+002
1.768945e+002, 9.054740e+002
1.773766e+002, 9.081567e+002
1.778588e+002, 9.113109e+002
1.783409e+002, 9.154353e+002
1.788230e+002, 9.205426e+002
1.793051e+002, 9.265049e+002
1.797872e+002, 9.327753e+002
1.802693e+002, 9.404116e+002
1.807515e+002, 9.495265e+002
1.812336e+002, 9.602804e+002
1.817157e+002, 9.726769e+002
1.821978e+002, 9.865455e+002
1.826799e+002, 1.001637e+003
1.831620e+002, 1.021461e+003
1.836441e+002, 1.045309e+003
1.841263e+002, 1.073160e+003
1.846084e+002, 1.107792e+003
1.850905e+002, 1.147644e+003
1.855726e+002, 1.187448e+003
1.860547e+002, 1.224629e+003
1.865368e+002, 1.259656e+003
1.870190e+002, 1.270869e+003
1.875011e+002, 1.249211e+003
1.879832e+002, 1.211561e+003
1.884653e+002, 1.164418e+003
1.889474e+002, 1.109639e+003
1.894296e+002, 1.057299e+003
1.899117e+002, 1.017292e+003
1.903938e+002, 9.899491e+002
1.908759e+002, 9.678757e+002
1.913580e+002, 9.521055e+002
1.918401e+002, 9.406091e+002
1.923223e+002, 9.312943e+002
1.928044e+002, 9.239724e+002
1.932865e+002, 9.185641e+002
1.937686e+002, 9.160275e+002
1.942507e+002, 9.155858e+002
1.947328e+002, 9.152412e+002
1.952150e+002, 9.146359e+002
1.956971e+002, 9.136762e+002
1.961792e+002, 9.120505e+002
1.966613e+002, 9.094504e+002
1.971434e+002, 9.067878e+002
1.976255e+002, 9.048489e+002
1.981077e+002, 9.033835e+002
1.985898e+002, 9.018103e+002
1.990719e+002, 8.994822e+002
1.995540e+002, 8.966989e+002
2.000361e+002, 8.948262e+002
2.005182e+002, 8.943075e+002
2.010004e+002, 8.941951e+002
2.014825e+002, 8.939557e+002
2.019646e+002, 8.936631e+002
2.024467e+002, 8.935184e+002
2.029288e+002, 8.936445e+002
2.034109e+002, 8.940399e+002
2.038930e+002, 8.946725e+002
2.043752e+002, 8.957474e+002
2.048573e+002, 8.968773e+002
2.053394e+002, 8.980037e+002
2.058215e+002, 8.990736e+002
2.063036e+002, 8.999922e+002
2.067857e+002, 9.006138e+002
2.072679e+002, 9.009105e+002
2.077500e+002, 9.014716e+002
2.082321e+002, 9.020428e+002
2.087142e+002, 9.031415e+002
2.091963e+002, 9.050133e+002
2.096784e+002, 9.075837e+002
2.101606e+002, 9.106144e+002
2.106427e+002, 9.138907e+002
2.111248e+002, 9.173564e+002
2.116069e+002, 9.214092e+002
2.120890e+002, 9.253441e+002
2.125711e+002, 9.304077e+002
2.130533e+002, 9.370834e+002
2.135354e+002, 9.453572e+002
2.140175e+002, 9.550070e+002
2.144996e+002, 9.657590e+002
2.149817e+002, 9.775057e+002
2.154638e+002, 9.916885e+002
2.159460e+002, 1.007488e+003
2.164281e+002, 1.025794e+003
2.169102e+002, 1.047300e+003
2.173923e+002, 1.071821e+003
2.178744e+002, 1.099069e+003
2.183565e+002, 1.129099e+003
2.188387e+002, 1.162412e+003
2.193208e+002, 1.193570e+003
2.198029e+002, 1.227227e+003
2.202850e+002, 1.255543e+003
2.207671e+002, 1.275076e+003
2.212492e+002, 1.285215e+003
2.217314e+002, 1.285228e+003
2.222135e+002, 1.273696e+003
2.226956e+002, 1.249199e+003
2.231777e+002, 1.220000e+003
2.236598e+002, 1.182896e+003
2.241419e+002, 1.143488e+003
2.246240e+002, 1.104396e+003
2.251062e+002, 1.066028e+003
2.255883e+002, 1.031296e+003
2.260704e+002, 1.002729e+003
2.265525e+002, 9.805843e+002
2.270346e+002, 9.619134e+002
2.275167e+002, 9.475891e+002
2.279989e+002, 9.360988e+002
2.284810e+002, 9.266123e+002
2.289631e+002, 9.191254e+002
2.294452e+002, 9.128934e+002
2.299273e+002, 9.076121e+002
2.304094e+002, 9.032900e+002
2.308916e+002, 8.999009e+002
2.313737e+002, 8.979510e+002
2.318558e+002, 8.966765e+002
2.323379e+002, 8.952457e+002
2.328200e+002, 8.936241e+002
2.333021e+002, 8.920765e+002
2.337843e+002, 8.905405e+002
2.342664e+002, 8.892323e+002
2.347485e+002, 8.885946e+002
2.352306e+002, 8.890821e+002
2.357127e+002, 8.899972e+002
2.361948e+002, 8.904460e+002
2.366770e+002, 8.903961e+002
2.371591e+002, 8.900101e+002
2.376412e+002, 8.889404e+002
2.381233e+002, 8.877129e+002
2.386054e+002, 8.869623e+002
2.390875e+002, 8.870303e+002
2.395697e+002, 8.874468e+002
2.400518e+002, 8.872780e+002
2.405339e+002, 8.861238e+002
2.410160e+002, 8.856968e+002
2.414981e+002, 8.873972e+002
2.419802e+002, 8.898054e+002
2.424624e+002, 8.914578e+002
2.429445e+002, 8.916776e+002
2.434266e+002, 8.914954e+002
2.439087e+002, 8.928262e+002
2.443908e+002, 8.962792e+002
2.448729e+002, 8.995851e+002
2.453550e+002, 9.017942e+002
2.458372e+002, 9.037502e+002
2.463193e+002, 9.061556e+002
2.468014e+002, 9.092556e+002
2.472835e+002, 9.128096e+002
2.477656e+002, 9.165227e+002
2.482477e+002, 9.205223e+002
2.487299e+002, 9.243389e+002
2.492120e+002, 9.277143e+002
2.496941e+002, 9.309899e+002
2.501762e+002, 9.345639e+002
2.506583e+002, 9.385416e+002
2.511404e+002, 9.424368e+002
2.516226e+002, 9.456165e+002
2.521047e+002, 9.484484e+002
2.525868e+002, 9.495309e+002
2.530689e+002, 9.478668e+002
2.535510e+002, 9.453145e+002
2.540331e+002, 9.430886e+002
2.545153e+002, 9.415282e+002
2.549974e+002, 9.402721e+002
2.554795e+002, 9.387039e+002
2.559616e+002, 9.364358e+002
2.564437e+002, 9.347493e+002
2.569258e+002, 9.333111e+002
2.574080e+002, 9.325765e+002
2.578901e+002, 9.329500e+002
2.583722e+002, 9.344522e+002
2.588543e+002, 9.367010e+002
2.593364e+002, 9.392380e+002
2.598185e+002, 9.422174e+002
2.603007e+002, 9.451078e+002
2.607828e+002, 9.487492e+002
2.612649e+002, 9.517265e+002
2.617470e+002, 9.536827e+002
2.622291e+002, 9.542995e+002
2.627112e+002, 9.527881e+002
2.631934e+002, 9.479388e+002
2.636755e+002, 9.384200e+002
2.641576e+002, 9.303195e+002
2.646397e+002, 9.242559e+002
2.651218e+002, 9.188040e+002
2.656039e+002, 9.131771e+002
2.660861e+002, 9.073924e+002
2.665682e+002, 9.019498e+002
2.670503e+002, 8.973495e+002
2.675324e+002, 8.936934e+002
2.680145e+002, 8.904355e+002
2.684966e+002, 8.874789e+002
2.689788e+002, 8.849079e+002
2.694609e+002, 8.829360e+002
2.699430e+002, 8.814451e+002
2.704251e+002, 8.800279e+002
2.709072e+002, 8.782989e+002
2.713893e+002, 8.762369e+002
2.718715e+002, 8.748887e+002
2.723536e+002, 8.746635e+002
2.728357e+002, 8.745832e+002
2.733178e+002, 8.740756e+002
2.737999e+002, 8.733425e+002
2.742820e+002, 8.730576e+002
2.747642e+002, 8.737610e+002
2.752463e+002, 8.753319e+002
2.757284e+002, 8.762405e+002
2.762105e+002, 8.761695e+002
2.766926e+002, 8.759572e+002
2.771747e+002, 8.758557e+002
2.776568e+002, 8.758240e+002
2.781389e+002, 8.757658e+002
2.786211e+002, 8.756476e+002
2.791032e+002, 8.754387e+002
2.795853e+002, 8.749796e+002
2.800674e+002, 8.740589e+002
2.805495e+002, 8.731911e+002
2.810316e+002, 8.724232e+002
2.815138e+002, 8.718060e+002
2.819959e+002, 8.714226e+002
2.824780e+002, 8.713078e+002
2.829601e+002, 8.714567e+002
2.834422e+002, 8.718716e+002
2.839243e+002, 8.724312e+002
2.844065e+002, 8.734150e+002
2.848886e+002, 8.753331e+002
2.853707e+002, 8.775975e+002
2.858528e+002, 8.792268e+002
2.863349e+002, 8.798427e+002
2.868170e+002, 8.801053e+002
2.872992e+002, 8.811635e+002
2.877813e+002, 8.831711e+002
2.882634e+002, 8.853273e+002
2.887455e+002, 8.875149e+002
2.892276e+002, 8.897784e+002
2.897097e+002, 8.921230e+002
2.901919e+002, 8.945453e+002
2.906740e+002, 8.971384e+002
2.911561e+002, 9.001501e+002
2.916382e+002, 9.036566e+002
2.921203e+002, 9.068663e+002
2.926024e+002, 9.091042e+002
2.930846e+002, 9.113470e+002
2.935667e+002, 9.147028e+002
2.940488e+002, 9.193098e+002
2.945309e+002, 9.241977e+002
2.950130e+002, 9.285013e+002
2.954951e+002, 9.322007e+002
2.959773e+002, 9.359774e+002
2.964594e+002, 9.404252e+002
2.969415e+002, 9.445391e+002
2.974236e+002, 9.481580e+002
2.979057e+002, 9.510691e+002
2.983878e+002, 9.517206e+002
2.988700e+002, 9.484964e+002
2.993521e+002, 9.418115e+002
2.998342e+002, 9.357310e+002
3.003163e+002, 9.307985e+002
3.007984e+002, 9.260067e+002
3.012805e+002, 9.207697e+002
3.017627e+002, 9.151484e+002
3.022448e+002, 9.092702e+002
3.027269e+002, 9.029280e+002
3.032090e+002, 8.965678e+002
3.036911e+002, 8.913990e+002
3.041732e+002, 8.877805e+002
3.046554e+002, 8.845764e+002
3.051375e+002, 8.810303e+002
3.056196e+002, 8.774969e+002
3.061017e+002, 8.750429e+002
3.065838e+002, 8.743062e+002
3.070659e+002, 8.744138e+002
3.075481e+002, 8.736367e+002
3.080302e+002, 8.717916e+002
3.085123e+002, 8.700549e+002
3.089944e+002, 8.690918e+002
3.094765e+002, 8.684278e+002
3.099586e+002, 8.670389e+002
3.104408e+002, 8.644991e+002
3.109229e+002, 8.619386e+002
3.114050e+002, 8.610730e+002
3.118871e+002, 8.619069e+002
3.123692e+002, 8.627279e+002
3.128513e+002, 8.632045e+002
3.133335e+002, 8.634899e+002
3.138156e+002, 8.637706e+002
3.142977e+002, 8.640711e+002
3.147798e+002, 8.643275e+002
3.152619e+002, 8.646392e+002
3.157440e+002, 8.649272e+002
3.162262e+002, 8.644178e+002
3.167083e+002, 8.622144e+002
3.171904e+002, 8.597747e+002
3.176725e+002, 8.584052e+002
3.181546e+002, 8.580795e+002
3.186367e+002, 8.578006e+002
3.191188e+002, 8.567357e+002
3.196010e+002, 8.552207e+002
3.200831e+002, 8.547165e+002
3.205652e+002, 8.559014e+002
3.210473e+002, 8.573835e+002
3.215294e+002, 8.585526e+002
3.220115e+002, 8.594223e+002
3.224937e+002, 8.599968e+002
3.229758e+002, 8.601661e+002
3.234579e+002, 8.601707e+002
3.239400e+002, 8.606434e+002
3.244221e+002, 8.617836e+002
3.249042e+002, 8.628741e+002
3.253864e+002, 8.632942e+002
3.258685e+002, 8.635463e+002
3.263506e+002, 8.646759e+002
3.268327e+002, 8.671024e+002
3.273148e+002, 8.701662e+002
3.277969e+002, 8.726531e+002
3.282791e+002, 8.742109e+002
3.287612e+002, 8.771207e+002
3.292433e+002, 8.834414e+002
3.297254e+002, 8.905704e+002
3.302075e+002, 8.955931e+002
3.306896e+002, 8.980088e+002
3.311718e+002, 8.987064e+002
3.316539e+002, 8.984149e+002
3.321360e+002, 8.970262e+002
3.326181e+002, 8.948209e+002
3.331002e+002, 8.916025e+002
3.335823e+002, 8.877386e+002
3.340645e+002, 8.830407e+002
3.345466e+002, 8.777269e+002
3.350287e+002, 8.728344e+002
3.355108e+002, 8.691138e+002
3.359929e+002, 8.664854e+002
3.364750e+002, 8.641569e+002
3.369572e+002, 8.623016e+002
3.374393e+002, 8.604918e+002
3.379214e+002, 8.583662e+002
3.384035e+002, 8.561315e+002
3.388856e+002, 8.543669e+002
3.393677e+002, 8.533998e+002
3.398499e+002, 8.529202e+002
3.403320e+002, 8.520729e+002
3.408141e+002, 8.504622e+002
3.412962e+002, 8.492429e+002
3.417783e+002, 8.488926e+002
3.422604e+002, 8.489591e+002
3.427426e+002, 8.489572e+002
3.432247e+002, 8.487504e+002
3.437068e+002, 8.482473e+002
3.441889e+002, 8.472479e+002
3.446710e+002, 8.454241e+002
3.451531e+002, 8.441035e+002
3.456353e+002, 8.432662e+002
3.461174e+002, 8.429690e+002
3.465995e+002, 8.434888e+002
3.470816e+002, 8.447262e+002
3.475637e+002, 8.461418e+002
3.480458e+002, 8.473798e+002
3.485280e+002, 8.484662e+002
3.490101e+002, 8.482487e+002
3.494922e+002, 8.456489e+002
3.499743e+002, 8.430721e+002
3.504564e+002, 8.414072e+002
3.509385e+002, 8.405875e+002
3.514207e+002, 8.403375e+002
3.519028e+002, 8.405396e+002
3.523849e+002, 8.411097e+002
3.528670e+002, 8.416967e+002
3.533491e+002, 8.429166e+002
3.538312e+002, 8.433948e+002
3.543134e+002, 8.421591e+002
3.547955e+002, 8.404134e+002
3.552776e+002, 8.397037e+002
3.557597e+002, 8.405443e+002
3.562418e+002, 8.420458e+002
3.567239e+002, 8.427216e+002
3.572061e+002, 8.422595e+002
3.576882e+002, 8.414914e+002
3.581703e+002, 8.392581e+002
3.586524e+002, 8.375930e+002
3.591345e+002, 8.386750e+002
3.596166e+002, 8.421620e+002
3.600987e+002, 8.453972e+002
3.605808e+002, 8.456821e+002
3.610630e+002, 8.426533e+002
3.615451e+002, 8.401208e+002
3.620272e+002, 8.379330e+002
3.625093e+002, 8.363549e+002
3.629914e+002, 8.357079e+002
3.634735e+002, 8.357219e+002
3.639557e+002, 8.359818e+002
3.644378e+002, 8.362634e+002
3.649199e+002, 8.365128e+002
3.654020e+002, 8.364750e+002
3.658841e+002, 8.357347e+002
3.663662e+002, 8.352902e+002
3.668484e+002, 8.356071e+002
3.673305e+002, 8.360881e+002
3.678126e+002, 8.360241e+002
3.682947e+002, 8.352273e+002
3.687768e+002, 8.342664e+002
3.692589e+002, 8.340960e+002
3.697411e+002, 8.351159e+002
3.702232e+002, 8.358477e+002
3.707053e+002, 8.366311e+002
3.711874e+002, 8.368196e+002
3.716695e+002, 8.356368e+002
3.721516e+002, 8.333710e+002
3.726338e+002, 8.311827e+002
3.731159e+002, 8.300915e+002
3.735980e+002, 8.300709e+002
3.740801e+002, 8.302907e+002
3.745622e+002, 8.310058e+002
3.750443e+002, 8.316508e+002
3.755265e+002, 8.320148e+002
3.760086e+002, 8.321962e+002
3.764907e+002, 8.323539e+002
3.769728e+002, 8.325745e+002
3.774549e+002, 8.327961e+002
3.779370e+002, 8.328808e+002
3.784192e+002, 8.328090e+002
3.789013e+002, 8.326547e+002
3.793834e+002, 8.323202e+002
3.798655e+002, 8.319845e+002
3.803476e+002, 8.317410e+002
3.808297e+002, 8.316129e+002
3.813119e+002, 8.316995e+002
3.817940e+002, 8.322158e+002
3.822761e+002, 8.331528e+002
3.827582e+002, 8.339044e+002
3.832403e+002, 8.343093e+002
3.837224e+002, 8.346068e+002
3.842046e+002, 8.351404e+002
3.846867e+002, 8.357640e+002
3.851688e+002, 8.359605e+002
3.856509e+002, 8.351107e+002
3.861330e+002, 8.336965e+002
3.866151e+002, 8.328889e+002
3.870973e+002, 8.328672e+002
3.875794e+002, 8.327981e+002
3.880615e+002, 8.318655e+002
3.885436e+002, 8.306750e+002
3.890257e+002, 8.301713e+002
3.895078e+002, 8.308193e+002
3.899900e+002, 8.316513e+002
3.904721e+002, 8.318834e+002
3.909542e+002, 8.315499e+002
3.914363e+002, 8.307971e+002
3.919184e+002, 8.292234e+002
3.924005e+002, 8.278269e+002
3.928827e+002, 8.281946e+002
3.933648e+002, 8.304477e+002
3.938469e+002, 8.324732e+002
3.943290e+002, 8.334212e+002
3.948111e+002, 8.336444e+002
3.952932e+002, 8.336288e+002
3.957754e+002, 8.334356e+002
3.962575e+002, 8.331058e+002
3.967396e+002, 8.325285e+002
3.972217e+002, 8.317841e+002
3.977038e+002, 8.315681e+002
3.981859e+002, 8.320987e+002
3.986681e+002, 8.330035e+002
3.991501e+002, 8.343749e+002
3.996323e+002, 8.359895e+002
4.001144e+002, 8.370574e+002
4.005965e+002, 8.371118e+002
4.010786e+002, 8.364748e+002
4.015607e+002, 8.360485e+002
4.020428e+002, 8.358190e+002
4.025250e+002, 8.357675e+002
4.030071e+002, 8.355598e+002
4.034892e+002, 8.356740e+002
4.039713e+002, 8.368360e+002
4.044534e+002, 8.391555e+002
4.049355e+002, 8.419349e+002
4.054177e+002, 8.444469e+002
4.058998e+002, 8.467442e+002
4.063819e+002, 8.482856e+002
4.068640e+002, 8.482036e+002
4.073461e+002, 8.482856e+002
4.078282e+002, 8.495025e+002
4.083104e+002, 8.516258e+002
4.087925e+002, 8.538890e+002
4.092746e+002, 8.558184e+002
4.097567e+002, 8.575655e+002
4.102388e+002, 8.598713e+002
4.107209e+002, 8.634157e+002
4.112031e+002, 8.666519e+002
4.116852e+002, 8.687393e+002
4.121673e+002, 8.708531e+002
4.126494e+002, 8.741932e+002
