##NAMES=Colquiriite
##RRUFFID=R070417
##IDEAL CHEMISTRY=CaLiAlF_6_
##LOCALITY=Serra Branca pegmatite, Pedra Lavrada, Picuí, Paraíba; Northeast, Brazil
##OWNER=RRUFF
##SOURCE=Michael Scott
##DESCRIPTION=Colorless thin hexagonal plates associated with strengite and triplite, sample used to update X-ray data in JCPDS files
##STATUS=The identification of this mineral has been confirmed by single-crystal X-ray diffraction.
##URL=rruff.info/R070417
164.6075, 4300.896
165.0896, 4296.404
165.5717, 4299.180
166.0538, 4321.562
166.5359, 4352.531
167.0180, 4376.382
167.5002, 4379.338
167.9823, 4377.495
168.4644, 4384.008
168.9465, 4400.968
169.4286, 4418.420
169.9107, 4426.514
170.3929, 4429.572
170.8750, 4436.926
171.3571, 4454.841
171.8392, 4478.725
172.3213, 4505.650
172.8034, 4537.044
173.2856, 4564.649
173.7677, 4577.958
174.2498, 4580.109
174.7319, 4581.666
175.2140, 4587.890
175.6961, 4597.812
176.1783, 4610.703
176.6604, 4627.826
177.1425, 4645.095
177.6246, 4656.358
178.1067, 4662.363
178.5888, 4668.746
179.0710, 4680.454
179.5531, 4695.413
180.0352, 4708.984
180.5173, 4720.050
180.9994, 4729.078
181.4815, 4736.642
181.9637, 4742.792
182.4458, 4747.095
182.9279, 4746.181
183.4100, 4742.319
183.8921, 4744.134
184.3742, 4755.335
184.8564, 4773.251
185.3385, 4794.085
185.8206, 4818.601
186.3027, 4838.948
186.7848, 4841.950
187.2669, 4830.507
187.7491, 4827.089
188.2312, 4845.545
188.7133, 4878.300
189.1954, 4894.992
189.6775, 4892.708
190.1596, 4886.901
190.6418, 4899.914
191.1239, 4931.118
191.6060, 4957.053
192.0881, 4964.986
192.5702, 4957.311
193.0524, 4955.157
193.5345, 4959.269
194.0166, 4966.933
194.4987, 4973.561
194.9808, 4978.919
195.4629, 4986.814
195.9451, 5000.704
196.4272, 5020.578
196.9093, 5035.819
197.3914, 5044.954
197.8735, 5051.255
198.3556, 5062.036
198.8378, 5078.350
199.3199, 5092.237
199.8020, 5100.487
200.2841, 5103.212
200.7662, 5094.640
201.2483, 5067.338
201.7305, 5035.037
202.2126, 5036.088
202.6947, 5078.239
203.1768, 5124.825
203.6589, 5155.193
204.1410, 5167.981
204.6232, 5171.467
205.1053, 5163.683
205.5874, 5148.212
206.0695, 5135.297
206.5516, 5123.104
207.0337, 5118.291
207.5159, 5128.561
207.9980, 5158.043
208.4801, 5181.934
208.9622, 5196.459
209.4443, 5203.090
209.9264, 5209.484
210.4086, 5217.144
210.8907, 5221.542
211.3728, 5216.102
211.8549, 5194.454
212.3370, 5185.247
212.8191, 5196.055
213.3013, 5224.062
213.7834, 5246.217
214.2655, 5260.501
214.7476, 5272.239
215.2297, 5286.726
215.7118, 5307.077
216.1940, 5321.433
216.6761, 5325.006
217.1582, 5318.613
217.6403, 5322.151
218.1224, 5342.835
218.6045, 5363.763
219.0867, 5365.907
219.5688, 5337.675
220.0509, 5318.261
220.5330, 5318.107
221.0151, 5337.668
221.4972, 5354.143
221.9794, 5367.221
222.4615, 5377.725
222.9436, 5385.571
223.4257, 5386.707
223.9078, 5394.128
224.3899, 5413.853
224.8721, 5448.004
225.3542, 5469.179
225.8363, 5471.730
226.3184, 5466.856
226.8005, 5468.274
227.2827, 5480.243
227.7648, 5490.233
228.2469, 5493.705
228.7290, 5488.989
229.2111, 5491.200
229.6932, 5504.705
230.1754, 5521.566
230.6575, 5530.616
231.1396, 5525.300
231.6217, 5523.694
232.1038, 5531.291
232.5859, 5549.723
233.0681, 5568.374
233.5502, 5585.507
234.0323, 5604.000
234.5144, 5630.176
234.9965, 5673.912
235.4786, 5708.114
235.9608, 5722.099
236.4429, 5709.993
236.9250, 5704.447
237.4071, 5707.641
237.8892, 5716.111
238.3713, 5724.467
238.8535, 5732.112
239.3356, 5740.640
239.8177, 5750.535
240.2998, 5761.927
240.7819, 5774.558
241.2640, 5790.142
241.7462, 5806.170
242.2283, 5818.750
242.7104, 5828.662
243.1925, 5833.702
243.6746, 5830.920
244.1567, 5814.713
244.6389, 5810.681
245.1210, 5824.262
245.6031, 5846.724
246.0852, 5863.615
246.5673, 5876.836
247.0494, 5881.106
247.5316, 5872.107
248.0137, 5843.315
248.4958, 5823.668
248.9779, 5816.771
249.4600, 5817.121
249.9421, 5814.331
250.4243, 5805.384
250.9064, 5798.698
251.3885, 5798.413
251.8706, 5807.939
252.3527, 5811.835
252.8348, 5806.504
253.3170, 5797.774
253.7991, 5797.697
254.2812, 5811.316
254.7633, 5823.876
255.2454, 5828.528
255.7275, 5821.170
256.2097, 5821.322
256.6918, 5831.282
257.1739, 5847.165
257.6560, 5863.898
258.1381, 5886.655
258.6202, 5899.385
259.1024, 5890.949
259.5845, 5850.979
260.0666, 5834.230
260.5487, 5847.328
261.0308, 5878.707
261.5129, 5910.396
261.9951, 5945.862
262.4772, 5972.674
262.9593, 5984.713
263.4414, 5979.694
263.9235, 5969.118
264.4056, 5946.553
264.8878, 5924.360
265.3699, 5927.595
265.8520, 5966.371
266.3341, 6001.698
266.8162, 6014.960
267.2983, 6000.227
267.7805, 6002.554
268.2626, 6028.301
268.7447, 6064.065
269.2268, 6085.735
269.7089, 6089.446
270.1910, 6092.870
270.6732, 6103.476
271.1553, 6122.177
271.6374, 6137.931
272.1195, 6148.799
272.6016, 6159.599
273.0837, 6179.557
273.5659, 6211.120
274.0480, 6239.693
274.5301, 6257.950
275.0122, 6265.266
275.4943, 6278.211
275.9764, 6297.582
276.4586, 6321.088
276.9407, 6346.038
277.4228, 6372.239
277.9049, 6398.877
278.3870, 6426.913
278.8691, 6456.033
279.3513, 6480.221
279.8334, 6500.767
280.3155, 6513.059
280.7976, 6509.207
281.2798, 6488.828
281.7619, 6462.245
282.2440, 6432.537
282.7261, 6399.708
283.2082, 6360.407
283.6903, 6311.670
284.1725, 6267.385
284.6546, 6248.628
285.1367, 6254.619
285.6188, 6260.503
286.1009, 6255.757
286.5830, 6243.646
287.0652, 6239.979
287.5473, 6246.158
288.0294, 6252.607
288.5115, 6246.452
288.9936, 6229.341
289.4757, 6215.252
289.9579, 6209.963
290.4400, 6210.701
290.9221, 6210.166
291.4042, 6208.342
291.8863, 6205.417
292.3684, 6198.558
292.8506, 6189.770
293.3327, 6187.973
293.8148, 6200.082
294.2969, 6218.521
294.7790, 6227.042
295.2611, 6225.657
295.7433, 6224.704
296.2254, 6237.400
296.7075, 6258.261
297.1896, 6270.762
297.6717, 6264.816
298.1538, 6253.029
298.6360, 6255.854
299.1181, 6272.268
299.6002, 6289.846
300.0823, 6298.168
300.5644, 6301.128
301.0465, 6306.583
301.5287, 6318.839
302.0108, 6331.583
302.4929, 6333.923
302.9750, 6328.251
303.4571, 6328.122
303.9392, 6354.054
304.4214, 6387.645
304.9035, 6403.171
305.3856, 6387.430
305.8677, 6362.918
306.3498, 6340.315
306.8319, 6322.928
307.3141, 6322.289
307.7962, 6369.617
308.2783, 6425.690
308.7604, 6448.554
309.2425, 6415.717
309.7246, 6378.523
310.2068, 6368.249
310.6889, 6379.020
311.1710, 6395.260
311.6531, 6413.371
312.1352, 6431.700
312.6173, 6449.198
313.0995, 6465.965
313.5816, 6480.550
314.0637, 6493.037
314.5458, 6502.881
315.0279, 6509.203
315.5100, 6507.762
315.9922, 6505.649
316.4743, 6505.551
316.9564, 6506.798
317.4385, 6514.155
317.9206, 6534.261
318.4027, 6560.270
318.8849, 6582.613
319.3670, 6584.690
319.8491, 6595.010
320.3312, 6630.263
320.8133, 6698.070
321.2954, 6751.901
321.7776, 6778.283
322.2597, 6788.450
322.7418, 6794.372
323.2239, 6786.926
323.7060, 6786.205
324.1881, 6799.795
324.6703, 6829.306
325.1524, 6855.016
325.6345, 6867.053
326.1166, 6879.033
326.5987, 6902.019
327.0808, 6941.396
327.5630, 6985.559
328.0451, 7036.445
328.5272, 7093.463
329.0093, 7143.888
329.4914, 7182.058
329.9735, 7217.627
330.4557, 7257.778
330.9378, 7314.243
331.4199, 7355.205
331.9020, 7379.733
332.3841, 7387.323
332.8662, 7374.020
333.3484, 7333.267
333.8305, 7281.753
334.3126, 7227.101
334.7947, 7169.167
335.2768, 7108.897
335.7589, 7041.240
336.2411, 6974.223
336.7232, 6927.736
337.2053, 6906.282
337.6874, 6893.258
338.1695, 6881.267
338.6516, 6870.111
339.1338, 6863.236
339.6159, 6862.125
340.0980, 6863.147
340.5801, 6859.818
341.0622, 6851.606
341.5443, 6843.532
342.0265, 6838.046
342.5086, 6834.772
342.9907, 6829.389
343.4728, 6821.587
343.9549, 6813.064
344.4370, 6803.150
344.9192, 6792.746
345.4013, 6790.703
345.8834, 6803.207
346.3655, 6825.503
346.8476, 6846.560
347.3297, 6866.410
347.8119, 6882.220
348.2940, 6884.646
348.7761, 6879.852
349.2582, 6887.898
349.7403, 6925.214
350.2225, 6967.132
350.7046, 6973.993
351.1867, 6949.605
351.6688, 6922.867
352.1509, 6908.622
352.6331, 6906.815
353.1152, 6919.606
353.5973, 6954.085
354.0794, 6990.790
354.5615, 7011.612
355.0436, 7020.210
355.5258, 7027.706
356.0079, 7045.313
356.4900, 7061.666
356.9721, 7064.428
357.4542, 7047.132
357.9363, 7031.773
358.4185, 7030.787
358.9006, 7040.072
359.3827, 7052.528
359.8648, 7072.013
360.3469, 7088.709
360.8290, 7095.835
361.3112, 7091.373
361.7933, 7088.207
362.2754, 7086.348
362.7575, 7089.386
363.2396, 7101.276
363.7217, 7136.490
364.2039, 7166.922
364.6860, 7186.471
365.1681, 7194.925
365.6502, 7193.530
366.1323, 7169.885
366.6144, 7144.062
367.0966, 7129.886
367.5787, 7136.990
368.0608, 7144.691
368.5429, 7152.399
369.0250, 7159.950
369.5071, 7166.438
369.9893, 7172.539
370.4714, 7176.787
370.9535, 7178.118
371.4356, 7174.623
371.9177, 7173.127
372.3998, 7176.965
372.8820, 7181.171
373.3641, 7171.887
373.8462, 7141.227
374.3283, 7117.702
374.8104, 7115.768
375.2925, 7137.868
375.7747, 7152.186
376.2568, 7157.153
376.7389, 7157.693
377.2210, 7160.717
377.7031, 7166.562
378.1852, 7169.832
378.6674, 7167.251
379.1495, 7160.866
379.6316, 7159.089
380.1137, 7162.023
380.5958, 7168.774
381.0779, 7180.829
381.5601, 7196.904
382.0422, 7209.557
382.5243, 7216.497
383.0064, 7220.414
383.4885, 7225.761
383.9706, 7232.346
384.4528, 7238.352
384.9349, 7241.144
385.4170, 7242.952
385.8991, 7248.220
386.3812, 7258.758
386.8633, 7269.202
387.3455, 7273.334
387.8276, 7273.480
388.3097, 7275.033
388.7918, 7275.512
389.2739, 7281.832
389.7560, 7306.666
390.2382, 7353.631
390.7203, 7386.720
391.2024, 7369.893
391.6845, 7334.138
392.1666, 7314.967
392.6487, 7337.104
393.1309, 7366.050
393.6130, 7392.685
394.0951, 7416.240
394.5772, 7430.466
395.0593, 7421.016
395.5414, 7409.825
396.0236, 7410.691
396.5057, 7425.742
396.9878, 7452.745
397.4699, 7508.456
397.9520, 7578.228
398.4341, 7615.169
398.9163, 7586.977
399.3984, 7559.357
399.8805, 7556.668
400.3626, 7588.083
400.8447, 7617.959
401.3268, 7649.350
401.8090, 7676.896
402.2911, 7691.339
402.7732, 7685.626
403.2553, 7684.735
403.7374, 7694.951
404.2195, 7716.007
404.7017, 7746.258
405.1838, 7790.492
405.6659, 7831.243
406.1480, 7849.460
406.6301, 7844.879
407.1122, 7842.900
407.5944, 7848.231
408.0765, 7858.654
408.5586, 7869.709
409.0407, 7881.418
409.5228, 7892.439
410.0049, 7901.460
410.4871, 7908.994
410.9692, 7916.951
411.4513, 7925.878
411.9334, 7933.847
412.4155, 7936.889
412.8976, 7937.005
413.3798, 7939.798
413.8619, 7953.426
414.3440, 7967.829
414.8261, 7973.081
415.3082, 7968.916
415.7903, 7958.402
416.2725, 7935.244
416.7546, 7909.941
417.2367, 7894.086
417.7188, 7898.110
418.2009, 7905.303
418.6830, 7913.151
419.1652, 7919.328
419.6473, 7914.962
420.1294, 7884.023
420.6115, 7851.414
421.0937, 7830.871
421.5758, 7830.290
422.0579, 7829.568
422.5400, 7826.704
423.0221, 7822.031
423.5042, 7815.967
423.9864, 7805.909
424.4685, 7797.516
424.9506, 7792.870
425.4327, 7792.546
425.9148, 7788.358
426.3969, 7773.910
426.8791, 7762.867
427.3612, 7769.988
427.8433, 7804.002
428.3254, 7828.556
428.8075, 7837.462
429.2896, 7833.821
429.7718, 7824.254
430.2539, 7805.915
430.7360, 7796.222
431.2181, 7814.349
431.7002, 7857.127
432.1823, 7873.984
432.6645, 7857.345
433.1466, 7831.686
433.6287, 7834.949
434.1108, 7861.014
434.5929, 7879.324
435.0750, 7872.815
435.5572, 7852.468
436.0393, 7835.822
436.5214, 7822.820
437.0035, 7812.190
437.4856, 7801.005
437.9677, 7792.240
438.4499, 7790.936
438.9320, 7802.134
439.4141, 7814.674
439.8962, 7822.844
440.3783, 7826.340
440.8604, 7824.609
441.3426, 7807.443
441.8247, 7792.533
442.3068, 7793.677
442.7889, 7817.692
443.2710, 7831.913
443.7531, 7817.348
444.2353, 7792.558
444.7174, 7777.816
445.1995, 7785.468
445.6816, 7793.163
446.1637, 7797.311
446.6458, 7798.169
447.1280, 7798.769
447.6101, 7797.922
448.0922, 7798.138
448.5743, 7801.205
449.0564, 7809.084
449.5385, 7814.421
450.0207, 7815.928
450.5028, 7815.801
450.9849, 7818.095
451.4670, 7823.012
451.9491, 7829.396
452.4312, 7838.886
452.9134, 7850.198
453.3955, 7851.286
453.8776, 7840.679
454.3597, 7830.313
454.8418, 7833.171
455.3239, 7846.670
455.8061, 7861.481
456.2882, 7879.730
456.7703, 7891.969
457.2524, 7874.134
457.7345, 7834.859
458.2166, 7809.152
458.6988, 7839.212
459.1809, 7883.256
459.6630, 7890.128
460.1451, 7849.471
460.6272, 7810.706
461.1093, 7807.723
461.5915, 7824.125
462.0736, 7839.717
462.5557, 7847.364
463.0378, 7853.497
463.5199, 7859.874
464.0020, 7866.518
464.4842, 7873.484
464.9663, 7883.912
465.4484, 7892.269
465.9305, 7895.416
466.4126, 7889.465
466.8947, 7884.834
467.3769, 7879.394
467.8590, 7876.187
468.3411, 7881.207
468.8232, 7899.768
469.3053, 7915.723
469.7874, 7923.038
470.2696, 7922.548
470.7517, 7931.154
471.2338, 7951.414
471.7159, 7972.791
472.1980, 7988.302
472.6801, 7997.856
473.1623, 7994.051
473.6444, 7970.213
474.1265, 7943.644
474.6086, 7949.067
475.0907, 7981.882
475.5728, 8012.317
476.0550, 8023.193
476.5371, 8022.180
477.0192, 8023.674
477.5013, 8028.348
477.9834, 8024.056
478.4655, 7977.877
478.9477, 7924.357
479.4298, 7911.522
479.9119, 7989.980
480.3940, 8066.099
480.8761, 8085.403
481.3582, 8062.921
481.8404, 8041.320
482.3225, 8035.285
482.8046, 8032.620
483.2867, 8025.770
483.7688, 8009.326
484.2509, 8005.339
484.7331, 8025.112
485.2152, 8053.337
485.6973, 8076.438
486.1794, 8092.319
486.6615, 8107.198
487.1436, 8125.397
487.6258, 8143.530
488.1079, 8141.738
488.5900, 8111.584
489.0721, 8084.870
489.5542, 8082.677
490.0363, 8105.237
490.5185, 8119.178
491.0006, 8122.517
491.4827, 8120.624
491.9648, 8118.081
492.4470, 8115.505
492.9291, 8116.534
493.4112, 8123.246
493.8933, 8133.487
494.3754, 8145.231
494.8575, 8158.126
495.3397, 8169.257
495.8218, 8175.723
496.3039, 8180.068
496.7860, 8185.074
497.2681, 8191.509
497.7502, 8197.532
498.2324, 8200.904
498.7145, 8203.662
499.1966, 8208.643
499.6787, 8213.815
500.1608, 8224.201
500.6429, 8248.064
501.1251, 8283.579
501.6072, 8302.298
502.0893, 8290.022
502.5714, 8271.640
503.0535, 8256.768
503.5356, 8239.150
504.0178, 8242.706
504.4999, 8281.373
504.9820, 8328.448
505.4641, 8340.001
505.9462, 8308.686
506.4283, 8279.826
506.9105, 8265.786
507.3926, 8264.370
507.8747, 8267.100
508.3568, 8273.947
508.8389, 8286.184
509.3210, 8312.217
509.8032, 8344.514
510.2853, 8360.207
510.7674, 8353.610
511.2495, 8342.570
511.7316, 8346.409
512.2137, 8359.295
512.6959, 8369.296
513.1780, 8362.013
513.6601, 8358.085
514.1422, 8377.762
514.6243, 8416.706
515.1064, 8444.808
515.5886, 8442.330
516.0707, 8430.946
516.5528, 8424.074
517.0349, 8427.549
517.5170, 8426.758
517.9991, 8411.360
518.4813, 8394.463
518.9634, 8393.876
519.4455, 8421.948
519.9276, 8445.203
520.4097, 8456.783
520.8918, 8457.794
521.3740, 8453.621
521.8561, 8440.200
522.3382, 8435.054
522.8203, 8458.067
523.3024, 8506.336
523.7845, 8529.032
524.2667, 8518.857
524.7488, 8500.576
525.2309, 8505.047
525.7130, 8527.161
526.1951, 8549.376
526.6772, 8569.104
527.1594, 8582.886
527.6415, 8582.051
528.1236, 8569.915
528.6057, 8561.004
529.0878, 8562.233
529.5699, 8570.846
530.0521, 8585.298
530.5342, 8606.003
531.0163, 8630.181
531.4984, 8660.130
531.9805, 8691.964
532.4626, 8721.678
532.9448, 8756.396
533.4269, 8779.380
533.9090, 8783.776
534.3911, 8774.538
534.8732, 8769.844
535.3553, 8767.705
535.8375, 8774.082
536.3196, 8795.395
536.8017, 8833.246
537.2838, 8855.817
537.7659, 8860.166
538.2480, 8859.625
538.7302, 8865.151
539.2123, 8877.339
539.6944, 8903.167
540.1765, 8952.132
540.6586, 9000.717
541.1407, 9005.698
541.6229, 8979.785
542.1050, 8968.705
542.5871, 9004.726
543.0692, 9061.503
543.5513, 9120.748
544.0334, 9180.761
544.5156, 9232.660
544.9977, 9271.478
545.4798, 9300.907
545.9619, 9322.403
546.4440, 9321.881
546.9261, 9334.879
547.4083, 9367.778
547.8904, 9417.341
548.3725, 9477.626
548.8546, 9555.985
549.3367, 9633.668
549.8188, 9706.198
550.3010, 9773.942
550.7831, 9839.424
551.2652, 9900.300
551.7473, 9967.040
552.2294, 10050.93
552.7115, 10149.87
553.1937, 10237.90
553.6758, 10311.29
554.1579, 10380.67
554.6400, 10458.21
555.1221, 10542.65
555.6042, 10629.21
556.0864, 10721.96
556.5685, 10811.62
557.0506, 10887.96
557.5327, 10952.89
558.0148, 11012.26
558.4969, 11060.35
558.9791, 11110.43
559.4612, 11177.40
559.9433, 11271.25
560.4254, 11336.29
560.9075, 11349.80
561.3896, 11336.55
561.8718, 11319.05
562.3539, 11295.73
562.8360, 11271.60
563.3181, 11252.43
563.8002, 11230.39
564.2823, 11184.42
564.7645, 11111.83
565.2466, 11028.74
565.7287, 10939.76
566.2108, 10845.79
566.6929, 10752.60
567.1750, 10661.01
567.6572, 10568.64
568.1393, 10465.33
568.6214, 10362.66
569.1035, 10294.02
569.5856, 10272.56
570.0677, 10249.77
570.5499, 10171.83
571.0320, 10068.29
571.5141, 9985.474
571.9962, 9961.759
572.4783, 9940.604
572.9604, 9895.397
573.4426, 9831.916
573.9247, 9780.249
574.4068, 9755.963
574.8889, 9735.075
575.3710, 9706.990
575.8531, 9668.254
576.3353, 9643.538
576.8174, 9639.761
577.2995, 9640.100
577.7816, 9624.068
578.2637, 9588.661
578.7458, 9573.688
579.2280, 9591.995
579.7101, 9620.162
580.1922, 9614.947
580.6743, 9580.737
581.1564, 9542.313
581.6385, 9507.970
582.1207, 9477.530
582.6028, 9451.361
583.0849, 9429.604
583.5670, 9411.488
584.0491, 9402.951
584.5313, 9393.863
585.0134, 9373.843
585.4955, 9335.297
585.9776, 9305.921
586.4597, 9302.482
586.9418, 9307.896
587.4240, 9302.049
587.9061, 9264.637
588.3882, 9248.076
588.8703, 9272.086
589.3524, 9316.696
589.8345, 9318.763
590.3167, 9267.807
590.7988, 9213.838
591.2809, 9175.230
591.7630, 9151.406
592.2451, 9144.608
592.7272, 9155.262
593.2094, 9172.579
593.6915, 9196.641
594.1736, 9219.153
594.6557, 9218.907
595.1378, 9186.005
595.6199, 9158.258
596.1021, 9175.078
596.5842, 9212.078
597.0663, 9234.555
597.5485, 9212.173
598.0306, 9192.938
598.5127, 9196.607
598.9948, 9217.285
599.4769, 9228.715
599.9590, 9225.742
600.4412, 9217.470
600.9233, 9201.166
601.4054, 9174.413
601.8875, 9182.704
602.3696, 9240.940
602.8517, 9297.476
603.3339, 9298.513
603.8160, 9249.400
604.2981, 9220.465
604.7802, 9221.978
605.2623, 9237.190
605.7444, 9254.221
606.2266, 9268.378
606.7087, 9265.607
607.1908, 9221.464
607.6729, 9178.631
608.1550, 9172.532
608.6371, 9195.976
609.1193, 9225.367
609.6014, 9271.092
610.0835, 9303.386
610.5656, 9296.813
611.0477, 9241.047
611.5298, 9219.892
612.0120, 9265.897
612.4941, 9317.338
612.9762, 9331.571
613.4583, 9297.294
613.9404, 9265.970
614.4225, 9238.904
614.9047, 9216.678
615.3868, 9198.370
615.8689, 9184.237
616.3510, 9180.341
616.8331, 9191.490
617.3152, 9209.708
617.7974, 9224.306
618.2795, 9235.644
618.7616, 9245.906
619.2437, 9253.569
619.7258, 9262.563
620.2079, 9277.945
620.6901, 9299.762
621.1722, 9317.741
621.6543, 9326.830
622.1364, 9331.997
622.6185, 9336.539
623.1006, 9342.845
623.5828, 9343.580
624.0649, 9336.083
624.5470, 9325.463
625.0291, 9317.821
625.5112, 9313.699
625.9933, 9309.283
626.4755, 9302.963
626.9576, 9297.312
627.4397, 9298.091
627.9218, 9304.833
628.4039, 9313.956
628.8860, 9324.734
629.3682, 9336.380
629.8503, 9346.269
630.3324, 9355.105
630.8145, 9368.014
631.2966, 9405.301
631.7787, 9435.502
632.2609, 9429.280
632.7430, 9368.943
633.2251, 9327.773
633.7072, 9334.627
634.1893, 9357.795
634.6714, 9370.668
635.1536, 9364.755
635.6357, 9368.491
636.1178, 9388.714
636.5999, 9414.385
637.0820, 9423.672
637.5641, 9415.854
638.0463, 9407.479
638.5284, 9402.223
639.0105, 9401.115
639.4926, 9409.405
639.9747, 9425.258
640.4568, 9437.835
640.9390, 9437.726
641.4211, 9433.305
641.9032, 9431.480
642.3853, 9432.755
642.8674, 9436.800
643.3495, 9450.079
643.8317, 9461.660
644.3138, 9463.390
644.7959, 9446.092
645.2780, 9434.141
645.7601, 9424.300
646.2422, 9422.604
646.7244, 9441.497
647.2065, 9487.980
647.6886, 9517.168
648.1707, 9518.358
648.6528, 9502.065
649.1349, 9482.772
649.6171, 9462.269
650.0992, 9452.373
650.5813, 9463.295
651.0634, 9484.915
651.5455, 9510.629
652.0276, 9538.369
652.5098, 9555.724
652.9919, 9548.328
653.4740, 9534.564
653.9561, 9523.541
654.4382, 9515.085
654.9203, 9516.574
655.4025, 9544.154
655.8846, 9569.523
656.3667, 9570.688
656.8488, 9533.725
657.3309, 9515.744
657.8130, 9522.907
658.2952, 9541.558
658.7773, 9552.365
659.2594, 9556.319
659.7415, 9565.280
660.2236, 9585.981
