##NAMES=Columbite-(Fe)
##RRUFFID=R050348
##IDEAL CHEMISTRY=Fe^2+^Nb^5+^_2_O_6_
##LOCALITY=Lord Hill mine, Stoneham, Oxford County, Maine, USA
##OWNER=RRUFF
##SOURCE=California Institute of Technology
##DESCRIPTION=Black fragment
##STATUS=The identification of this mineral has been confirmed by X-ray diffraction and chemical analysis
##URL=rruff.info/R050348
##MEASURED CHEMISTRY=(Fe^2+^_0.69_Mn^2+^_0.30_Ti_0.01_)(Nb_0.89_Ta_0.10_Ti_0.01_)_2_O_6_
92.52344, 144.7212
93.00555, 144.0269
93.48767, 144.2375
93.96979, 148.3777
94.45190, 152.3424
94.93402, 155.1937
95.41614, 155.6240
95.89825, 154.9870
96.38037, 154.8147
96.86249, 154.8782
97.34460, 154.5766
97.82672, 154.1858
98.30884, 153.5312
98.79095, 152.4088
99.27307, 150.8264
99.75519, 149.1549
100.2373, 148.1429
100.7194, 147.7497
101.2015, 147.1339
101.6837, 146.0573
102.1658, 144.8973
102.6479, 143.7620
103.1300, 142.5912
103.6121, 141.8760
104.0942, 142.4275
104.5764, 143.6446
105.0585, 144.6392
105.5406, 144.9801
106.0227, 144.8543
106.5048, 144.7962
106.9869, 144.6804
107.4691, 144.7458
107.9512, 145.2201
108.4333, 145.9612
108.9154, 146.6206
109.3975, 146.8168
109.8796, 146.4219
110.3618, 146.3728
110.8439, 146.8184
111.3260, 147.4628
111.8081, 148.2431
112.2902, 149.1182
112.7723, 150.0388
113.2544, 150.9148
113.7366, 151.5442
114.2187, 152.5552
114.7008, 154.4103
115.1829, 156.3869
115.6650, 157.6894
116.1471, 158.0292
116.6293, 157.9395
117.1114, 158.7515
117.5935, 161.0340
118.0756, 163.0051
118.5577, 164.1258
119.0398, 164.6159
119.5220, 164.9621
120.0041, 165.2518
120.4862, 165.6561
120.9683, 166.4860
121.4504, 167.9249
121.9325, 169.4630
122.4147, 170.7194
122.8968, 171.6824
123.3789, 172.4958
123.8610, 173.0766
124.3431, 173.5896
124.8252, 174.2028
125.3074, 175.0027
125.7895, 175.8867
126.2716, 176.6286
126.7537, 177.1175
127.2358, 177.6486
127.7179, 178.5300
128.2001, 179.4615
128.6822, 180.0205
129.1643, 179.8790
129.6464, 179.1106
130.1285, 178.6653
130.6107, 178.6863
131.0928, 178.9268
131.5749, 179.6830
132.0570, 180.6609
132.5391, 181.2576
133.0212, 180.8928
133.5034, 179.3800
133.9855, 178.1095
134.4676, 177.2324
134.9497, 176.4238
135.4318, 175.6855
135.9139, 174.9492
136.3960, 173.8799
136.8782, 172.0744
137.3603, 169.3972
137.8424, 166.4199
138.3245, 162.6725
138.8066, 158.8362
139.2887, 155.9131
139.7709, 154.2962
140.2530, 152.9607
140.7351, 150.4780
141.2172, 146.9866
141.6993, 143.5655
142.1814, 140.6576
142.6636, 138.2038
143.1457, 135.9569
143.6278, 133.8526
144.1099, 132.0250
144.5920, 130.5955
145.0741, 129.5612
145.5563, 128.5958
146.0384, 127.3311
146.5205, 125.6994
147.0026, 124.3694
147.4847, 123.9805
147.9668, 123.5902
148.4490, 122.5132
148.9311, 120.6580
149.4132, 118.6483
149.8953, 117.4803
150.3774, 117.6294
150.8595, 117.6880
151.3417, 117.3527
151.8238, 116.9962
152.3059, 117.0101
152.7880, 117.5224
153.2701, 118.2518
153.7522, 118.4808
154.2344, 117.8325
154.7165, 117.0333
155.1986, 115.7942
155.6807, 114.4972
156.1628, 113.6580
156.6449, 113.5610
157.1271, 114.0188
157.6092, 114.2827
158.0913, 114.1083
158.5734, 114.0516
159.0555, 114.5799
159.5376, 115.3964
160.0198, 115.6345
160.5019, 114.6061
160.9840, 112.7427
161.4661, 111.7166
161.9482, 112.1045
162.4303, 112.6786
162.9125, 112.5275
163.3946, 111.6853
163.8767, 110.9644
164.3588, 110.9416
164.8409, 111.3352
165.3230, 111.6777
165.8052, 111.9412
166.2873, 112.0786
166.7694, 112.0418
167.2515, 111.8462
167.7336, 111.4101
168.2157, 110.3339
168.6979, 109.1011
169.1800, 108.3152
169.6621, 108.3340
170.1442, 108.8909
170.6263, 109.2686
171.1084, 109.5176
171.5906, 109.4590
172.0727, 108.8509
172.5548, 107.9883
173.0369, 107.2724
173.5190, 106.9527
174.0011, 106.9923
174.4833, 107.0848
174.9654, 107.3334
175.4475, 107.5325
175.9296, 107.7042
176.4117, 107.7924
176.8938, 107.6752
177.3760, 107.2198
177.8581, 106.4075
178.3402, 106.0042
178.8223, 106.3045
179.3044, 106.6729
179.7865, 106.9316
180.2687, 107.0718
180.7508, 107.1512
181.2329, 107.2267
181.7150, 107.3042
182.1971, 107.2109
182.6792, 106.7275
183.1614, 106.2799
183.6435, 106.1533
184.1256, 106.3421
184.6077, 106.5908
185.0898, 106.6361
185.5719, 106.4714
186.0541, 106.5835
186.5362, 107.5155
187.0183, 108.4200
187.5004, 108.1847
187.9825, 106.6183
188.4646, 105.2571
188.9468, 105.9387
189.4289, 108.1520
189.9110, 109.8609
190.3931, 110.4751
190.8752, 110.3593
191.3573, 109.9341
191.8395, 109.0542
192.3216, 108.3640
192.8037, 108.5031
193.2858, 109.2058
193.7679, 109.9173
194.2500, 110.4686
194.7322, 110.8466
195.2143, 110.9776
195.6964, 110.6996
196.1785, 110.4169
196.6606, 110.3039
197.1427, 110.3477
197.6249, 110.5288
198.1070, 110.8899
198.5891, 111.4062
199.0712, 111.8234
199.5533, 112.0384
200.0354, 112.2612
200.5176, 112.6776
200.9997, 113.1727
201.4818, 113.4836
201.9639, 113.3501
202.4460, 112.7575
202.9281, 112.3301
203.4103, 112.1744
203.8924, 112.1047
204.3745, 112.1215
204.8566, 112.1888
205.3387, 112.2526
205.8208, 112.2799
206.3030, 112.2846
206.7851, 112.1112
207.2672, 111.6337
207.7493, 111.1187
208.2314, 110.6496
208.7135, 110.2361
209.1957, 109.8623
209.6778, 109.5184
210.1599, 109.2115
210.6420, 108.8808
211.1241, 108.6443
211.6062, 108.2914
212.0884, 107.5942
212.5705, 106.6222
213.0526, 105.7104
213.5347, 105.1680
214.0168, 105.0510
214.4989, 104.8824
214.9811, 104.6393
215.4632, 104.3672
215.9453, 104.0779
216.4274, 103.7775
216.9095, 103.5077
217.3916, 103.3370
217.8737, 103.2574
218.3559, 103.0211
218.8380, 102.3396
219.3201, 101.6818
219.8022, 101.5330
220.2843, 101.9289
220.7664, 102.3813
221.2486, 102.4971
221.7307, 102.3367
222.2128, 102.1703
222.6949, 102.0515
223.1770, 101.9346
223.6591, 101.7382
224.1413, 101.4409
224.6234, 101.1935
225.1055, 101.0165
225.5876, 100.9750
226.0697, 101.2579
226.5518, 102.2847
227.0340, 103.4705
227.5161, 103.8281
227.9982, 103.1176
228.4803, 102.4092
228.9624, 102.3074
229.4445, 102.5904
229.9267, 103.0579
230.4088, 103.8033
230.8909, 104.5563
231.3730, 104.6554
231.8551, 103.7209
232.3372, 103.1072
232.8194, 103.7371
233.3015, 104.8606
233.7836, 105.6115
234.2657, 105.5973
234.7478, 105.0688
235.2299, 104.5172
235.7121, 103.7546
236.1942, 103.3789
236.6763, 103.7040
237.1584, 104.3788
237.6405, 105.0877
238.1227, 105.7200
238.6048, 106.2318
239.0869, 106.4625
239.5690, 106.1054
240.0511, 106.0178
240.5332, 106.6405
241.0154, 107.4462
241.4975, 107.8504
241.9796, 107.5977
242.4617, 106.9916
242.9438, 106.8183
243.4259, 107.5079
243.9081, 107.9613
244.3902, 107.8349
244.8723, 107.5463
245.3544, 107.5700
245.8365, 108.0799
246.3186, 108.7686
246.8008, 108.8994
247.2829, 107.7127
247.7650, 107.0717
248.2471, 107.3907
248.7292, 108.0788
249.2113, 108.6871
249.6935, 109.0407
250.1756, 109.1155
250.6577, 108.8290
251.1398, 107.4367
251.6219, 106.8062
252.1040, 107.6195
252.5862, 108.7968
253.0683, 109.3573
253.5504, 109.0236
254.0325, 108.2264
254.5146, 107.6535
254.9967, 107.4034
255.4789, 107.2459
255.9610, 107.1153
256.4431, 107.1124
256.9252, 107.3932
257.4073, 107.9783
257.8894, 108.6530
258.3716, 109.1335
258.8537, 109.3433
259.3358, 109.5177
259.8179, 109.6133
260.3000, 109.7006
260.7821, 109.8755
261.2643, 110.1465
261.7464, 110.3768
262.2285, 110.3701
262.7106, 110.0290
263.1927, 110.0044
263.6748, 110.6188
264.1570, 111.3536
264.6391, 111.7948
265.1212, 111.8959
265.6033, 111.7954
266.0854, 111.5656
266.5675, 111.2021
267.0497, 110.9573
267.5318, 111.0197
268.0139, 111.0763
268.4960, 110.8347
268.9781, 110.2920
269.4602, 109.7112
269.9424, 109.2682
270.4245, 108.9668
270.9066, 108.7219
271.3887, 108.5244
271.8708, 108.3894
272.3529, 108.3598
272.8351, 108.4267
273.3172, 108.4861
273.7993, 108.4746
274.2814, 108.4071
274.7635, 108.3500
275.2456, 108.3555
275.7278, 108.3157
276.2099, 108.1056
276.6920, 107.7499
277.1741, 107.4799
277.6562, 107.5315
278.1383, 107.6404
278.6205, 107.2426
279.1026, 106.0257
279.5847, 104.9673
280.0668, 104.9274
280.5489, 105.7216
281.0310, 106.2111
281.5132, 105.7821
281.9953, 105.0863
282.4774, 105.1911
282.9595, 106.2803
283.4416, 107.0836
283.9237, 106.5835
284.4059, 105.0877
284.8880, 103.8939
285.3701, 103.4040
285.8522, 103.2041
286.3343, 102.8697
286.8164, 102.4073
287.2986, 101.8931
287.7807, 101.2887
288.2628, 100.6532
288.7449, 100.2127
289.2270, 100.0836
289.7091, 99.99776
290.1913, 99.68768
290.6734, 99.21856
291.1555, 98.82024
291.6376, 98.66447
292.1197, 98.65120
292.6018, 98.54756
293.0840, 98.34109
293.5661, 98.04723
294.0482, 97.57809
294.5303, 97.03993
295.0124, 96.63711
295.4945, 96.55153
295.9767, 96.59673
296.4588, 96.43590
296.9409, 96.03396
297.4230, 95.54397
297.9051, 94.74544
298.3872, 93.99067
298.8694, 93.81374
299.3515, 94.59489
299.8336, 95.61344
300.3157, 95.81747
300.7978, 95.05064
301.2799, 94.42091
301.7621, 94.57528
302.2442, 94.94551
302.7263, 95.07003
303.2084, 94.86814
303.6905, 94.40385
304.1726, 93.59219
304.6548, 92.40909
305.1369, 91.51019
305.6190, 91.19634
306.1011, 91.12558
306.5832, 91.03629
307.0653, 90.91256
307.5475, 90.86395
308.0296, 91.12595
308.5117, 91.64536
308.9938, 91.73949
309.4759, 91.05196
309.9580, 90.21964
310.4402, 89.59415
310.9223, 89.18011
311.4044, 88.96423
311.8865, 89.07291
312.3686, 89.40694
312.8507, 89.51984
313.3329, 89.32105
313.8150, 89.03560
314.2971, 88.75799
314.7792, 88.49088
315.2613, 88.23315
315.7434, 87.95545
316.2256, 87.70396
316.7077, 87.59396
317.1898, 87.66857
317.6719, 87.76342
318.1540, 87.74734
318.6361, 87.73342
319.1183, 87.93002
319.6004, 88.50993
320.0825, 89.00887
320.5646, 88.64498
321.0467, 87.24770
321.5288, 86.07347
322.0110, 85.51778
322.4931, 85.36787
322.9752, 85.65244
323.4573, 86.39072
323.9394, 87.01756
324.4215, 86.87877
324.9037, 85.99415
325.3858, 85.31240
325.8679, 85.16741
326.3500, 85.10303
326.8321, 84.66370
327.3142, 83.93233
327.7964, 83.45176
328.2785, 83.90607
328.7606, 85.01340
329.2427, 85.31291
329.7248, 84.29588
330.2069, 83.20650
330.6891, 82.81226
331.1712, 82.90382
331.6533, 83.04903
332.1354, 82.99855
332.6175, 82.90783
333.0996, 83.14407
333.5818, 83.81874
334.0639, 84.46407
334.5460, 84.93480
335.0281, 85.21193
335.5102, 85.18347
335.9923, 84.71078
336.4745, 84.17872
336.9566, 84.09202
337.4387, 84.48120
337.9208, 84.79521
338.4029, 84.77145
338.8850, 84.65298
339.3671, 84.73139
339.8492, 85.05025
340.3314, 85.26506
340.8135, 85.03542
341.2956, 84.43540
341.7777, 83.90576
342.2598, 83.40884
342.7419, 83.18863
343.2241, 83.63143
343.7062, 84.58855
344.1883, 85.28737
344.6704, 85.12061
345.1525, 84.47884
345.6346, 84.26749
346.1168, 84.66047
346.5989, 85.07010
347.0810, 84.96995
347.5631, 84.59914
348.0452, 84.37036
348.5273, 84.46414
349.0095, 84.67558
349.4916, 84.75314
349.9737, 84.69216
350.4558, 84.71636
350.9379, 85.06303
351.4200, 85.47055
351.9022, 85.45438
352.3843, 84.78619
352.8664, 84.27232
353.3485, 84.66243
353.8306, 85.70927
354.3127, 86.40947
354.7949, 86.41016
355.2770, 86.09725
355.7591, 85.90365
356.2412, 85.81902
356.7233, 85.86916
357.2054, 86.18914
357.6876, 86.60979
358.1697, 86.77940
358.6518, 86.60288
359.1339, 86.54717
359.6160, 87.18018
360.0981, 88.34437
360.5803, 89.15404
361.0624, 89.28803
361.5445, 89.18959
362.0266, 89.11040
362.5087, 89.07841
362.9908, 89.26524
363.4730, 89.86192
363.9551, 90.68916
364.4372, 91.19850
364.9193, 91.25132
365.4014, 91.24833
365.8835, 91.37414
366.3657, 91.55692
366.8478, 91.58553
367.3299, 91.34193
367.8120, 91.12370
368.2941, 91.48170
368.7762, 92.57420
369.2584, 93.49046
369.7405, 93.98875
370.2226, 94.32232
370.7047, 94.68682
371.1868, 95.12286
371.6689, 95.67733
372.1511, 96.45413
372.6332, 97.46491
373.1153, 98.11565
373.5974, 97.93044
374.0795, 97.89333
374.5616, 98.66226
375.0438, 99.97465
375.5259, 101.1202
376.0080, 101.6880
376.4901, 101.8540
376.9722, 102.2335
377.4543, 102.9875
377.9365, 103.7403
378.4186, 104.5053
378.9007, 105.2277
379.3828, 105.8065
379.8649, 106.2243
380.3470, 106.6133
380.8292, 107.1919
381.3113, 108.1690
381.7934, 108.6733
382.2755, 108.0519
382.7576, 107.5849
383.2397, 108.1548
383.7219, 109.5908
384.2040, 111.1360
384.6861, 112.2125
385.1682, 112.8408
385.6503, 113.2947
386.1324, 113.3784
386.6146, 113.4962
387.0967, 113.7497
387.5788, 114.0636
388.0609, 114.3496
388.5430, 114.5687
389.0251, 114.7229
389.5073, 114.7860
389.9894, 114.5997
390.4715, 114.6685
390.9536, 115.3340
391.4357, 115.9818
391.9178, 116.2388
392.4000, 116.0668
392.8821, 115.6296
393.3642, 114.9931
393.8463, 114.1409
394.3284, 113.6212
394.8105, 113.7351
395.2927, 113.8460
395.7748, 113.8760
396.2569, 113.7332
396.7390, 113.2476
397.2211, 112.2732
397.7032, 111.0387
398.1854, 110.0499
398.6675, 109.3399
399.1496, 108.7695
399.6317, 108.5074
400.1138, 108.2400
400.5959, 107.7210
401.0781, 106.9110
401.5602, 105.9533
402.0423, 104.8386
402.5244, 103.6120
403.0065, 102.8260
403.4886, 102.8751
403.9708, 102.8955
404.4529, 102.1079
404.9350, 100.7954
405.4171, 99.76256
405.8992, 99.74119
406.3813, 100.0026
406.8635, 99.24046
407.3456, 97.33218
407.8277, 95.51875
408.3098, 94.47247
408.7919, 93.85926
409.2740, 93.03616
409.7562, 91.77798
410.2383, 90.80307
410.7204, 90.75625
411.2025, 91.34753
411.6846, 91.79031
412.1667, 91.95212
412.6489, 91.73091
413.1310, 90.72853
413.6131, 88.96075
414.0952, 87.71207
414.5773, 87.39359
415.0594, 87.55807
415.5416, 88.07362
416.0237, 88.82350
416.5058, 89.13350
416.9879, 88.44641
417.4700, 86.98586
417.9521, 85.98903
418.4343, 85.67351
418.9164, 85.47066
419.3985, 85.21015
419.8806, 84.97285
420.3627, 84.95995
420.8448, 85.23087
421.3270, 85.48988
421.8091, 85.25484
422.2912, 84.20647
422.7733, 83.59451
423.2554, 83.79450
423.7375, 84.06864
424.2197, 83.93904
424.7018, 83.47783
425.1839, 83.07938
425.6660, 83.05846
426.1481, 83.31672
426.6302, 83.15649
427.1124, 81.88437
427.5945, 81.05007
428.0766, 81.01504
428.5587, 81.40979
429.0408, 81.95690
429.5229, 82.54052
430.0051, 83.02440
430.4872, 83.17061
430.9693, 82.87560
431.4514, 82.67692
431.9335, 82.75681
432.4156, 82.78313
432.8978, 82.59770
433.3799, 82.24678
433.8620, 81.83804
434.3441, 81.35497
434.8262, 80.92892
435.3083, 81.04817
435.7905, 81.98717
436.2726, 82.70782
436.7547, 82.59079
437.2368, 82.21910
437.7189, 82.12997
438.2010, 82.44059
438.6832, 82.76302
439.1653, 82.78442
439.6474, 82.53547
440.1295, 82.15209
440.6116, 81.59041
441.0938, 81.02168
441.5759, 80.52090
442.0580, 80.11481
442.5401, 79.94099
443.0222, 80.28533
443.5043, 80.70964
443.9865, 80.67384
444.4686, 80.23908
444.9507, 80.00444
445.4328, 80.34962
445.9149, 80.96424
446.3970, 81.08524
446.8792, 80.50712
447.3613, 80.11826
447.8434, 80.36543
448.3255, 80.83735
448.8076, 80.98805
449.2897, 80.73862
449.7719, 80.43649
450.2540, 80.42023
450.7361, 80.70920
451.2182, 80.88308
451.7003, 80.97840
452.1824, 80.94095
452.6646, 80.67594
453.1467, 80.28117
453.6288, 79.86303
454.1109, 79.46659
454.5930, 79.19855
455.0751, 79.31615
455.5573, 80.23644
456.0394, 80.71489
456.5215, 80.44766
457.0036, 80.07298
457.4857, 79.93488
457.9678, 80.03859
458.4500, 80.23028
458.9321, 80.40036
459.4142, 80.55714
459.8963, 80.75142
460.3784, 80.98586
460.8605, 81.25534
461.3427, 81.78623
461.8248, 82.23055
462.3069, 82.16618
462.7890, 81.48965
463.2711, 80.66735
463.7532, 80.13017
464.2354, 79.86842
464.7175, 79.83169
465.1996, 80.16948
465.6817, 80.48565
466.1638, 80.37898
466.6459, 80.02919
467.1281, 79.90514
467.6102, 80.33327
468.0923, 80.89745
468.5744, 81.16648
469.0565, 81.15709
469.5386, 80.98972
470.0208, 80.63010
470.5029, 80.23925
470.9850, 80.13947
471.4671, 80.37489
471.9492, 80.56572
472.4313, 80.59478
472.9135, 80.54539
473.3956, 80.44600
473.8777, 80.32532
474.3598, 80.36295
474.8419, 80.76415
475.3240, 81.45304
475.8062, 81.65456
476.2883, 80.85759
476.7704, 80.27367
477.2525, 80.28174
477.7346, 80.57410
478.2167, 80.83034
478.6989, 80.94595
479.1810, 80.91911
479.6631, 80.69499
480.1452, 80.16853
480.6273, 79.99673
481.1094, 80.79490
481.5916, 81.31554
482.0737, 80.94514
482.5558, 80.04876
483.0379, 79.22715
483.5200, 78.73878
484.0021, 78.60228
484.4843, 78.97038
484.9664, 80.00984
485.4485, 80.79662
485.9306, 81.19056
486.4127, 81.22099
486.8948, 80.72470
487.3770, 79.80927
487.8591, 79.02171
488.3412, 78.67253
488.8233, 78.66054
489.3054, 78.93755
489.7875, 79.56033
490.2697, 79.85435
490.7518, 79.22828
491.2339, 78.18810
491.7160, 77.75868
492.1981, 78.09304
492.6802, 78.59232
493.1624, 79.23663
493.6445, 79.80569
494.1266, 79.83592
494.6087, 79.26662
495.0908, 78.70885
495.5729, 78.72861
496.0551, 79.31983
496.5372, 79.74024
497.0193, 79.79650
497.5014, 79.93247
497.9835, 80.41444
498.4656, 81.01366
498.9478, 81.40447
499.4299, 81.48182
499.9120, 81.38063
500.3941, 81.30436
500.8762, 81.30279
501.3583, 81.12133
501.8405, 80.57507
502.3226, 80.03694
502.8047, 79.40376
503.2868, 78.91393
503.7689, 79.08051
504.2510, 80.25084
504.7331, 81.78085
505.2152, 82.38999
505.6974, 81.89507
506.1795, 81.63531
506.6616, 82.08012
507.1437, 82.65702
507.6258, 82.91949
508.1079, 82.91525
508.5901, 82.94701
509.0722, 83.17977
509.5543, 83.52463
510.0364, 83.89424
510.5185, 84.28496
511.0006, 84.58882
511.4828, 84.76787
511.9649, 84.81245
512.4470, 84.60266
512.9291, 83.91264
513.4113, 83.73862
513.8934, 84.93571
514.3755, 86.41089
514.8576, 86.91823
515.3397, 86.43564
515.8218, 85.81026
516.3040, 85.65722
516.7861, 85.91766
517.2682, 86.16648
517.7503, 86.35764
518.2324, 86.59492
518.7145, 87.01875
519.1967, 87.41625
519.6788, 87.56071
520.1609, 87.43325
520.6430, 87.20496
521.1251, 87.00991
521.6072, 86.85154
522.0894, 86.90104
522.5715, 87.36990
523.0536, 87.70772
523.5357, 87.66372
524.0178, 87.43385
524.4999, 87.21961
524.9821, 87.06670
525.4642, 86.98345
525.9463, 87.02035
526.4284, 87.14352
526.9105, 87.21770
527.3926, 87.24834
527.8748, 87.15626
528.3569, 86.83427
528.8390, 86.33127
529.3211, 85.81181
529.8032, 85.24931
530.2853, 84.72398
530.7675, 84.24358
531.2496, 83.83939
531.7317, 83.68210
532.2138, 83.82674
532.6959, 83.83732
533.1780, 83.08578
533.6602, 81.33167
534.1423, 80.32905
534.6244, 80.62704
535.1065, 80.94402
535.5886, 80.73156
536.0707, 80.24380
536.5529, 79.95832
537.0350, 80.05913
537.5171, 80.24562
537.9992, 80.01327
538.4813, 79.27629
538.9634, 78.55819
539.4456, 77.74548
539.9277, 77.11690
540.4098, 76.94498
540.8919, 77.02884
541.3740, 76.95615
541.8561, 76.51736
542.3383, 75.96365
542.8204, 75.78483
543.3025, 75.88900
543.7846, 75.18295
544.2667, 72.91171
544.7488, 70.71660
545.2310, 70.85310
545.7131, 73.01958
546.1952, 74.48705
546.6773, 74.52101
547.1594, 74.03757
547.6415, 73.38821
548.1237, 72.70437
548.6058, 72.26437
549.0879, 72.18967
549.5700, 72.28089
550.0521, 72.20882
550.5342, 71.90388
551.0164, 71.64700
551.4985, 71.53392
551.9806, 71.36678
552.4627, 70.96819
552.9448, 70.46599
553.4269, 70.07095
553.9091, 69.87662
554.3912, 69.89826
554.8733, 70.28899
555.3554, 71.16403
555.8375, 71.60146
556.3196, 71.19962
556.8018, 70.64896
557.2839, 70.46676
557.7660, 70.50280
558.2481, 70.30865
558.7302, 69.49940
559.2123, 68.66570
559.6945, 68.50050
560.1766, 68.86589
560.6587, 69.14973
561.1408, 69.16306
561.6229, 69.04585
562.1050, 68.95003
562.5872, 68.87462
563.0693, 68.85959
563.5514, 69.06643
564.0335, 69.17185
564.5156, 69.00179
564.9977, 68.61507
565.4799, 68.05013
565.9620, 67.33321
566.4441, 66.67965
566.9262, 66.45559
567.4083, 66.76137
567.8904, 67.08899
568.3726, 67.44676
568.8547, 67.81901
569.3368, 68.32734
569.8189, 68.81424
570.3010, 68.99916
570.7831, 68.75079
571.2653, 68.33300
571.7474, 68.03609
572.2295, 67.84710
572.7116, 67.62188
573.1937, 67.27875
573.6758, 67.04762
574.1580, 67.19113
574.6401, 67.62237
575.1222, 68.00430
575.6043, 68.53928
576.0864, 68.75391
576.5685, 68.12279
577.0507, 67.09841
577.5328, 66.43137
578.0149, 66.30645
578.4970, 66.45971
578.9791, 66.65124
579.4612, 66.89213
579.9434, 66.89396
580.4255, 66.26096
580.9076, 65.85503
581.3897, 66.00764
581.8718, 66.37408
582.3539, 66.57915
582.8361, 66.53924
583.3182, 66.42189
583.8003, 66.27706
584.2824, 66.15598
584.7645, 66.58760
585.2466, 67.91825
585.7288, 68.80386
586.2108, 68.16043
586.6929, 66.86440
587.1750, 66.18443
587.6572, 66.30848
588.1393, 66.60462
