##NAMES=Columbite-(Fe)
##RRUFFID=R060001
##IDEAL CHEMISTRY=Fe^2+^Nb^5+^_2_O_6_
##LOCALITY=Gypsy mine, Minas Gerais, Brazil
##OWNER=RRUFF
##SOURCE=Eric Van Valkenburg
##DESCRIPTION=Steel gray fragment with internal red hints
##STATUS=The identification of this mineral has been confirmed by X-ray diffraction and chemical analysis
##URL=rruff.info/R060001
##MEASURED CHEMISTRY=(Fe^2+^_0.52_Mn^2+^_0.48_)_Σ=1_(Nb_1.61_Ta_0.39_)_Σ=2_O_6_
110.4199, 577.6254
110.9020, 581.4359
111.3842, 585.5851
111.8663, 589.6070
112.3484, 593.4693
112.8305, 597.2223
113.3126, 600.9530
113.7947, 604.6992
114.2769, 607.4672
114.7590, 609.4262
115.2411, 610.3898
115.7232, 609.5807
116.2053, 607.4294
116.6874, 605.4052
117.1696, 605.1124
117.6517, 607.2513
118.1338, 608.0513
118.6159, 606.3477
119.0980, 604.0592
119.5801, 602.5074
120.0623, 601.9566
120.5444, 602.5728
121.0265, 605.3022
121.5086, 610.2054
121.9907, 614.3975
122.4728, 616.7976
122.9550, 617.8466
123.4371, 618.5445
123.9192, 618.8250
124.4013, 619.2505
124.8834, 620.1838
125.3655, 621.6010
125.8476, 623.7780
126.3298, 627.4153
126.8119, 632.6699
127.2940, 637.1918
127.7761, 639.9510
128.2582, 641.9374
128.7404, 643.4288
129.2225, 644.4972
129.7046, 645.5999
130.1867, 647.7531
130.6688, 652.2637
131.1509, 655.2609
131.6331, 655.8272
132.1152, 655.1223
132.5973, 654.3240
133.0794, 654.0183
133.5615, 653.8141
134.0436, 652.0587
134.5258, 647.3447
135.0079, 642.4761
135.4900, 638.2853
135.9721, 634.1497
136.4542, 628.8896
136.9363, 621.6496
137.4185, 612.5253
137.9006, 603.6368
138.3827, 595.6515
138.8648, 587.1921
139.3469, 577.4075
139.8290, 566.4437
140.3112, 555.0095
140.7933, 543.1758
141.2754, 531.2781
141.7575, 521.2742
142.2396, 514.5856
142.7217, 509.2176
143.2039, 502.9154
143.6860, 495.2287
144.1681, 487.9584
144.6502, 483.0600
145.1323, 479.7642
145.6144, 476.5446
146.0966, 472.8234
146.5787, 468.7298
147.0608, 464.5450
147.5429, 459.9107
148.0250, 455.7869
148.5071, 452.7023
148.9893, 450.4934
149.4714, 448.6671
149.9535, 447.1417
150.4356, 445.9992
150.9177, 444.0419
151.3998, 439.6801
151.8820, 435.7523
152.3641, 433.2622
152.8462, 432.2661
153.3283, 432.2845
153.8104, 433.0388
154.2925, 435.3697
154.7747, 435.9559
155.2568, 433.6376
155.7389, 430.8071
156.2210, 428.9550
156.7031, 428.3783
157.1852, 428.3638
157.6673, 427.7879
158.1495, 425.9449
158.6316, 424.7600
159.1137, 424.1501
159.5958, 424.2001
160.0779, 425.2268
160.5600, 427.3786
161.0422, 430.0154
161.5243, 431.7918
162.0064, 432.4631
162.4885, 433.0204
162.9706, 433.7123
163.4527, 434.4338
163.9349, 434.9640
164.4170, 435.1874
164.8991, 435.2173
165.3812, 435.2018
165.8633, 434.9897
166.3454, 435.1252
166.8276, 436.1074
167.3097, 437.8278
167.7918, 439.4691
168.2739, 440.5649
168.7560, 441.5444
169.2381, 442.9568
169.7203, 444.9514
170.2024, 447.0539
170.6845, 448.7263
171.1666, 449.8653
171.6487, 451.1496
172.1308, 453.3409
172.6130, 455.5106
173.0951, 456.9353
173.5772, 457.3825
174.0593, 457.0848
174.5414, 456.3557
175.0235, 454.9433
175.5057, 453.6097
175.9878, 452.5529
176.4699, 451.6186
176.9520, 450.7431
177.4341, 449.9205
177.9162, 448.9855
178.3984, 447.3818
178.8805, 444.3507
179.3626, 441.5773
179.8447, 439.3697
180.3268, 437.4937
180.8089, 435.5348
181.2911, 433.2426
181.7732, 430.8040
182.2553, 429.2944
182.7374, 430.0329
183.2195, 430.2483
183.7016, 428.9691
184.1838, 426.8187
184.6659, 425.0682
185.1480, 424.6064
185.6301, 425.1932
186.1122, 424.3345
186.5943, 420.3929
187.0765, 417.0170
187.5586, 415.9459
188.0407, 416.7223
188.5228, 417.7054
189.0049, 417.8237
189.4870, 417.2173
189.9692, 416.9917
190.4513, 417.1792
190.9334, 417.6822
191.4155, 418.6292
191.8976, 419.9759
192.3797, 421.1315
192.8619, 421.3450
193.3440, 421.1321
193.8261, 421.9401
194.3082, 425.2300
194.7903, 428.7295
195.2724, 429.4573
195.7546, 426.9243
196.2367, 424.8409
196.7188, 426.5321
197.2009, 430.0047
197.6830, 432.7101
198.1651, 433.6289
198.6473, 433.5433
199.1294, 433.6146
199.6115, 433.6226
200.0936, 434.4099
200.5757, 437.1480
201.0578, 440.6268
201.5400, 443.2958
202.0221, 444.2456
202.5042, 444.0289
202.9863, 444.3291
203.4684, 445.6456
203.9505, 446.6419
204.4327, 446.7807
204.9148, 446.4139
205.3969, 446.0971
205.8790, 446.2369
206.3611, 446.6012
206.8432, 445.9247
207.3254, 442.5319
207.8075, 440.1012
208.2896, 440.6869
208.7717, 442.5112
209.2538, 442.8555
209.7359, 439.8569
210.2181, 433.9433
210.7002, 429.1857
211.1823, 426.2430
211.6644, 423.8710
212.1465, 421.8576
212.6286, 420.2614
213.1108, 419.3761
213.5929, 419.5023
214.0750, 420.4997
214.5571, 420.2667
215.0392, 417.7885
215.5213, 415.2919
216.0035, 413.4599
216.4856, 412.0948
216.9677, 410.5776
217.4498, 408.3640
217.9319, 405.6179
218.4140, 404.5064
218.8962, 406.8669
219.3783, 408.6266
219.8604, 407.6147
220.3425, 404.5635
220.8246, 401.7852
221.3067, 400.7034
221.7889, 401.2153
222.2710, 402.0435
222.7531, 403.4030
223.2352, 404.8258
223.7173, 406.2398
224.1994, 407.5783
224.6816, 408.5190
225.1637, 408.6866
225.6458, 408.3459
226.1279, 408.5749
226.6100, 410.0289
227.0921, 411.3963
227.5743, 411.6587
228.0564, 410.9098
228.5385, 410.0824
229.0206, 409.4084
229.5027, 409.1528
229.9848, 409.8022
230.4670, 411.9353
230.9491, 414.2490
231.4312, 415.4871
231.9133, 415.6447
232.3954, 415.9708
232.8775, 417.3664
233.3597, 419.1040
233.8418, 420.1260
234.3239, 419.9986
234.8060, 419.7758
235.2881, 420.7527
235.7702, 423.0807
236.2524, 425.1920
236.7345, 426.3439
237.2166, 427.0498
237.6987, 427.7610
238.1808, 428.6131
238.6629, 429.2826
239.1451, 429.1129
239.6272, 427.8202
240.1093, 427.2070
240.5914, 428.2827
241.0735, 429.9983
241.5556, 431.7747
242.0378, 433.4863
242.5199, 435.0839
243.0020, 436.6515
243.4841, 438.3646
243.9662, 439.3134
244.4483, 438.6303
244.9305, 437.6010
245.4126, 437.0954
245.8947, 437.2888
246.3768, 437.6385
246.8589, 437.2754
247.3410, 435.7690
247.8232, 434.9136
248.3053, 435.1371
248.7874, 435.8156
249.2695, 436.8862
249.7516, 438.2079
250.2337, 439.2685
250.7159, 439.2563
251.1980, 437.6247
251.6801, 436.4044
252.1622, 435.7763
252.6443, 435.4037
253.1264, 435.0010
253.6086, 434.5885
254.0907, 434.4895
254.5728, 435.2030
255.0549, 437.1743
255.5370, 438.6061
256.0191, 439.1266
256.5013, 439.5107
256.9834, 440.1916
257.4655, 441.1813
257.9476, 442.1812
258.4297, 442.8073
258.9118, 442.8211
259.3940, 443.4694
259.8761, 445.4630
260.3582, 447.3368
260.8403, 448.0860
261.3224, 447.8737
261.8045, 447.7460
262.2867, 448.8195
262.7688, 451.4562
263.2509, 452.7160
263.7330, 451.7284
264.2151, 450.4897
264.6972, 450.0836
265.1794, 450.3343
265.6615, 450.3329
266.1436, 449.3338
266.6257, 447.2956
267.1078, 444.9951
267.5899, 442.1076
268.0721, 439.3150
268.5542, 436.6903
269.0363, 434.3742
269.5184, 432.7454
270.0005, 432.2092
270.4826, 432.6417
270.9648, 432.2158
271.4469, 430.5542
271.9290, 428.6419
272.4111, 426.7274
272.8932, 424.8407
273.3753, 422.9448
273.8575, 420.9783
274.3396, 419.0340
274.8217, 417.6295
275.3038, 416.9475
275.7859, 416.4532
276.2680, 416.2780
276.7502, 416.1681
277.2323, 415.4604
277.7144, 413.7018
278.1965, 411.4232
278.6786, 410.3326
279.1607, 411.1030
279.6429, 411.5688
280.1250, 411.1694
280.6071, 410.0677
281.0892, 408.3391
281.5713, 405.8268
282.0534, 403.2347
282.5356, 402.1778
283.0177, 403.0614
283.4998, 403.6734
283.9819, 403.2593
284.4640, 402.2987
284.9461, 401.6638
285.4283, 401.6797
285.9104, 401.5945
286.3925, 400.0367
286.8746, 396.8510
287.3567, 394.1874
287.8388, 392.2404
288.3210, 391.1339
288.8031, 391.5605
289.2852, 393.8324
289.7673, 395.8990
290.2494, 395.1151
290.7315, 391.6582
291.2137, 388.8901
291.6958, 387.8634
292.1779, 387.4592
292.6600, 386.3929
293.1421, 384.5274
293.6242, 382.6924
294.1064, 381.5422
294.5885, 381.0258
295.0706, 380.7702
295.5527, 381.2465
296.0348, 381.6199
296.5169, 380.8525
296.9991, 378.9889
297.4812, 377.4892
297.9633, 377.4435
298.4454, 378.4474
298.9275, 379.0728
299.4096, 379.1752
299.8918, 379.0008
300.3739, 378.4860
300.8560, 377.7202
301.3381, 377.4215
301.8202, 378.2484
302.3023, 379.4732
302.7845, 379.6568
303.2666, 378.5291
303.7487, 377.0483
304.2308, 375.5058
304.7129, 374.0024
305.1950, 372.8795
305.6772, 372.2512
306.1593, 372.0775
306.6414, 372.4360
307.1235, 373.4175
307.6056, 374.0869
308.0877, 373.8392
308.5699, 372.9997
309.0520, 372.2882
309.5341, 371.8351
310.0162, 371.5797
310.4983, 371.4540
310.9804, 371.4444
311.4626, 371.6422
311.9447, 372.2391
312.4268, 373.0035
312.9089, 373.6479
313.3910, 374.1739
313.8731, 374.4139
314.3553, 373.8212
314.8374, 372.7565
315.3195, 372.4409
315.8016, 373.8787
316.2837, 375.7275
316.7658, 376.6001
317.2480, 376.4604
317.7301, 375.6854
318.2122, 373.9384
318.6943, 371.8571
319.1764, 371.0077
319.6585, 372.4269
320.1407, 373.9452
320.6228, 373.7207
321.1049, 371.9797
321.5870, 370.3389
322.0691, 369.4539
322.5512, 369.1075
323.0334, 368.9225
323.5155, 369.0695
323.9976, 368.8667
324.4797, 367.4187
324.9618, 365.2647
325.4439, 364.2457
325.9261, 365.2592
326.4082, 366.8159
326.8903, 366.8829
327.3724, 365.5063
327.8545, 364.0079
328.3366, 362.7132
328.8188, 361.6276
329.3009, 360.7441
329.7830, 360.0517
330.2651, 359.6027
330.7472, 359.5804
331.2293, 359.9009
331.7115, 360.1208
332.1936, 360.1078
332.6757, 359.9881
333.1578, 359.7676
333.6399, 359.4511
334.1220, 359.4802
334.6042, 360.4142
335.0863, 361.9069
335.5684, 362.6479
336.0505, 362.1701
336.5326, 361.3744
337.0147, 360.6048
337.4969, 359.9348
337.9790, 359.7884
338.4611, 360.5819
338.9432, 361.7791
339.4253, 362.1375
339.9074, 361.3344
340.3896, 360.6437
340.8717, 360.6155
341.3538, 361.0399
341.8359, 361.4578
342.3180, 361.7039
342.8001, 362.0529
343.2823, 363.0737
343.7644, 364.8611
344.2465, 366.2328
344.7286, 366.8475
345.2107, 366.9994
345.6928, 366.8356
346.1750, 366.3864
346.6571, 366.1318
347.1392, 366.5982
347.6213, 367.8156
348.1034, 368.6681
348.5855, 369.0569
349.0677, 369.1668
349.5498, 369.0369
350.0319, 368.7097
350.5140, 368.2672
350.9961, 367.6267
351.4782, 366.9861
351.9604, 367.2658
352.4425, 368.9088
352.9246, 370.7496
353.4067, 373.0037
353.8888, 375.1412
354.3709, 375.9572
354.8531, 374.8808
355.3352, 372.9814
355.8173, 372.3500
356.2994, 373.7335
356.7815, 374.6403
357.2636, 374.4430
357.7458, 373.9094
358.2279, 373.6817
358.7100, 373.9017
359.1921, 374.5609
359.6742, 375.7714
360.1563, 377.7494
360.6385, 378.8199
361.1206, 378.4853
361.6027, 377.7995
362.0848, 377.1749
362.5669, 376.6767
363.0490, 376.2917
363.5312, 376.0035
364.0133, 375.8268
364.4954, 375.9120
364.9775, 376.2823
365.4596, 376.8614
365.9417, 378.1946
366.4239, 379.5597
366.9060, 379.7059
367.3881, 378.1355
367.8702, 375.9087
368.3523, 375.2353
368.8344, 377.3918
369.3166, 379.1198
369.7987, 380.2938
370.2808, 381.1737
370.7629, 381.9631
371.2450, 382.6821
371.7271, 383.1978
372.2093, 383.3212
372.6914, 382.9574
373.1735, 382.8237
373.6556, 382.9328
374.1377, 383.2451
374.6198, 383.6753
375.1020, 384.3063
375.5841, 385.4270
376.0662, 387.3276
376.5483, 389.6698
377.0304, 390.6900
377.5125, 388.6373
377.9947, 387.8063
378.4768, 389.7040
378.9589, 392.6336
379.4410, 394.8912
379.9231, 395.9193
380.4052, 396.3867
380.8874, 397.3260
381.3695, 398.8893
381.8516, 400.4188
382.3337, 401.9016
382.8158, 403.3088
383.2979, 404.6621
383.7801, 405.9351
384.2622, 407.0303
384.7443, 407.7444
385.2264, 408.1332
385.7085, 408.9648
386.1906, 410.5876
386.6728, 412.1697
387.1549, 413.2739
387.6370, 414.1526
388.1191, 415.2016
388.6012, 416.6441
389.0833, 418.2415
389.5655, 419.5790
390.0476, 420.6367
390.5297, 421.5256
391.0118, 422.3565
391.4939, 422.9691
391.9760, 423.2095
392.4582, 423.0534
392.9403, 422.6060
393.4224, 421.6994
393.9045, 420.4675
394.3866, 419.7924
394.8687, 419.9902
395.3509, 420.4513
395.8330, 420.8854
396.3151, 421.2151
396.7972, 421.1235
397.2793, 420.6004
397.7614, 419.5399
398.2436, 417.5677
398.7257, 414.6284
399.2078, 411.6940
399.6899, 409.2153
400.1720, 407.1999
400.6541, 405.6447
401.1363, 404.9859
401.6184, 403.9842
402.1005, 401.6182
402.5826, 398.3246
403.0647, 395.2254
403.5468, 392.5992
404.0290, 390.4725
404.5111, 389.1242
404.9932, 388.6509
405.4753, 387.7364
405.9574, 385.7202
406.4395, 383.4228
406.9217, 381.7354
407.4038, 380.6778
407.8859, 379.5953
408.3680, 378.0264
408.8501, 375.9675
409.3322, 373.6216
409.8144, 370.0577
410.2965, 367.2496
410.7786, 366.2958
411.2607, 366.4905
411.7428, 366.7043
412.2249, 366.4898
412.7071, 365.8405
413.1892, 364.7049
413.6713, 362.5970
414.1534, 360.8812
414.6355, 359.6963
415.1176, 358.7839
415.5998, 357.9957
416.0819, 357.3034
416.5640, 356.7715
417.0461, 356.5322
417.5282, 356.5990
418.0103, 356.0029
418.4925, 353.8470
418.9746, 351.9883
419.4567, 350.7124
419.9388, 350.0112
420.4209, 350.0192
420.9030, 350.8156
421.3852, 351.8272
421.8673, 351.7911
422.3494, 350.2074
422.8315, 348.8467
423.3136, 348.0186
423.7957, 347.3319
424.2779, 346.6920
424.7600, 346.0100
425.2421, 345.0459
425.7242, 343.1740
426.2063, 340.6163
426.6884, 339.7546
427.1706, 341.5330
427.6527, 343.4716
428.1348, 344.7712
428.6169, 345.4630
429.0990, 345.3830
429.5811, 344.1480
430.0633, 342.9447
430.5454, 343.7779
431.0275, 346.7128
431.5096, 348.4639
431.9917, 347.5507
432.4738, 345.5866
432.9560, 344.3248
433.4381, 343.7575
433.9202, 343.2801
434.4023, 342.4451
434.8844, 341.5611
435.3665, 341.2416
435.8487, 341.5796
436.3308, 342.1236
436.8129, 342.7177
437.2950, 343.2424
437.7771, 343.2940
438.2592, 342.3180
438.7414, 341.4522
439.2235, 341.5052
439.7056, 342.1371
440.1877, 342.5479
440.6698, 342.4524
441.1519, 341.9923
441.6341, 341.3392
442.1162, 340.3566
442.5983, 339.6009
443.0804, 339.0230
443.5625, 338.7397
444.0446, 338.9067
444.5268, 339.4781
445.0089, 340.2870
445.4910, 341.2796
445.9731, 342.3794
446.4552, 342.8502
446.9373, 342.4552
447.4195, 341.6983
447.9016, 340.2751
448.3837, 338.6936
448.8658, 337.2758
449.3479, 336.1978
449.8300, 335.8795
450.3122, 337.2542
450.7943, 341.1323
451.2764, 343.6521
451.7585, 344.2592
452.2406, 343.9730
452.7227, 342.4981
453.2049, 340.4225
453.6870, 338.9434
454.1691, 338.9120
454.6512, 339.7269
455.1333, 339.7421
455.6154, 338.5982
456.0976, 337.7301
456.5797, 337.7828
457.0618, 338.1821
457.5439, 338.5325
458.0260, 338.7760
458.5081, 339.0437
458.9903, 339.4323
459.4724, 339.9232
459.9545, 340.5039
460.4366, 341.2596
460.9187, 341.8715
461.4008, 342.1363
461.8830, 342.0711
462.3651, 341.6304
462.8472, 340.3136
463.3293, 339.1352
463.8114, 339.1134
464.2935, 339.9279
464.7756, 340.2726
465.2578, 339.4863
465.7399, 338.5082
466.2220, 339.2382
466.7041, 342.4305
467.1862, 344.1153
467.6683, 342.4054
468.1505, 340.0656
468.6326, 339.4236
469.1147, 340.4399
469.5968, 341.8299
470.0789, 342.7763
470.5610, 343.2578
471.0432, 343.1259
471.5253, 341.2350
472.0074, 340.1429
472.4895, 340.6127
472.9716, 341.7457
473.4537, 342.8158
473.9359, 343.5742
474.4180, 343.9354
474.9001, 343.6595
475.3822, 342.6098
475.8643, 342.0797
476.3464, 342.5641
476.8286, 343.0706
477.3107, 343.1951
477.7928, 343.1488
478.2749, 343.3770
478.7570, 344.1619
479.2391, 344.9850
479.7213, 344.7990
480.2034, 343.4311
480.6855, 342.5589
481.1676, 342.9906
481.6497, 343.6163
482.1318, 343.5127
482.6140, 342.7365
483.0961, 341.8698
483.5782, 340.7314
484.0603, 339.8604
484.5424, 340.5877
485.0245, 343.0222
485.5067, 344.6586
485.9888, 343.7068
486.4709, 341.2552
486.9530, 340.2190
487.4351, 341.1144
487.9172, 342.1721
488.3994, 343.1888
488.8815, 343.8562
489.3636, 343.4144
489.8457, 341.8039
490.3278, 340.3583
490.8099, 340.5135
491.2921, 342.3845
491.7742, 342.9667
492.2563, 340.9735
492.7384, 339.3866
493.2205, 339.6117
493.7026, 340.6330
494.1848, 340.8019
494.6669, 339.5436
495.1490, 337.9321
495.6311, 337.8067
496.1132, 339.8336
496.5953, 341.1900
497.0775, 341.3226
497.5596, 341.2977
498.0417, 341.5340
498.5238, 341.9397
499.0059, 342.2587
499.4880, 342.3712
499.9702, 342.2927
500.4523, 341.9650
500.9344, 341.3105
501.4165, 340.8947
501.8986, 340.9740
502.3807, 341.2808
502.8629, 341.6530
503.3450, 342.0697
503.8271, 342.2936
504.3092, 341.9430
504.7913, 341.4454
505.2734, 341.5365
505.7556, 342.2523
506.2377, 343.0003
506.7198, 343.3596
507.2019, 343.5635
507.6840, 344.4183
508.1661, 346.6937
508.6483, 348.0950
509.1304, 347.2291
509.6125, 345.5876
510.0946, 344.8200
510.5767, 345.2025
511.0588, 346.1644
511.5410, 347.2021
512.0231, 348.3164
512.5052, 349.7023
512.9873, 352.4232
513.4694, 354.1480
513.9515, 353.5039
514.4337, 352.0528
514.9158, 351.5192
515.3979, 352.4091
515.8800, 354.0729
516.3621, 356.0240
516.8442, 358.3886
517.3264, 359.5209
517.8085, 358.0435
518.2906, 357.1254
518.7727, 358.8456
519.2548, 361.8610
519.7369, 363.7757
520.2191, 363.4469
520.7012, 362.6607
521.1833, 363.5545
521.6654, 365.9029
522.1475, 367.9876
522.6296, 369.4687
523.1118, 370.4584
523.5939, 370.7748
524.0760, 370.5360
524.5581, 370.7112
525.0402, 371.9475
525.5223, 373.2187
526.0045, 373.7277
526.4866, 373.6541
526.9687, 373.6270
527.4508, 373.9383
527.9329, 374.2758
528.4150, 373.9722
528.8972, 372.2589
529.3793, 371.7651
529.8614, 373.6825
530.3435, 375.6391
530.8256, 376.5375
531.3077, 376.3565
531.7899, 375.2798
532.2720, 373.3207
532.7541, 370.9431
533.2362, 369.4941
533.7183, 369.5125
534.2004, 368.9077
534.6826, 366.2478
535.1647, 363.7157
535.6468, 362.8449
536.1289, 363.4028
536.6110, 363.9403
537.0931, 363.5014
537.5753, 362.5527
538.0574, 362.1054
538.5395, 362.2031
539.0216, 361.8176
539.5037, 360.4178
539.9858, 358.3809
540.4680, 356.2609
540.9501, 353.9764
541.4322, 351.9762
541.9143, 350.1819
542.3964, 348.8641
542.8785, 348.5230
543.3607, 349.0206
543.8428, 349.6432
544.3249, 350.0151
544.8070, 350.0294
545.2891, 349.2653
545.7712, 346.2188
546.2534, 344.4937
546.7355, 345.1618
547.2176, 346.4252
547.6997, 347.1636
548.1818, 347.2011
548.6639, 346.7611
549.1461, 345.9903
549.6282, 344.8920
550.1103, 343.3769
550.5924, 341.0843
551.0745, 339.2931
551.5566, 338.8344
552.0388, 338.7498
552.5209, 338.1887
553.0030, 337.1047
553.4851, 336.3384
553.9672, 336.9439
554.4493, 337.9786
554.9315, 337.5031
555.4136, 335.4146
555.8957, 333.4431
556.3778, 332.5960
556.8599, 332.4555
557.3420, 331.9000
557.8242, 330.7729
558.3063, 329.6946
558.7884, 328.6112
559.2705, 327.7476
559.7526, 327.5653
560.2347, 327.9003
560.7169, 327.9142
561.1990, 326.9435
561.6811, 325.2729
562.1632, 324.2096
562.6453, 323.9017
563.1274, 323.9913
563.6096, 325.2748
564.0917, 326.2417
564.5738, 325.3004
565.0559, 322.7664
565.5380, 320.7287
566.0201, 320.9836
566.5023, 322.6425
566.9844, 323.3183
567.4665, 322.8563
567.9486, 322.4661
568.4307, 322.8138
568.9128, 323.2809
569.3950, 322.8558
569.8771, 321.4214
570.3592, 320.5142
570.8413, 320.9512
571.3234, 321.9483
571.8055, 322.9368
572.2877, 323.7860
572.7698, 324.1185
573.2519, 323.6563
573.7340, 322.7522
574.2161, 322.3119
574.6982, 322.6068
575.1804, 322.9136
575.6625, 323.5367
576.1446, 323.8975
576.6267, 323.2055
577.1088, 321.9418
577.5909, 321.4804
578.0731, 322.8096
578.5552, 324.8609
579.0373, 324.9030
579.5194, 322.3497
580.0015, 321.1279
580.4836, 323.2078
580.9658, 325.6004
581.4479, 325.6623
581.9300, 323.9537
582.4121, 322.9847
582.8942, 324.4959
583.3763, 326.4561
583.8585, 326.6010
584.3406, 325.4360
584.8227, 324.9530
585.3048, 325.9180
585.7869, 327.3750
586.2690, 327.9966
586.7512, 327.5526
587.2333, 327.3742
587.7154, 327.5271
588.1975, 327.8539
588.6796, 328.4286
589.1617, 329.0917
589.6439, 329.6029
590.1260, 329.8733
590.6081, 330.0248
591.0902, 330.2711
591.5723, 330.6508
592.0544, 330.6759
592.5366, 329.8707
593.0187, 329.4062
593.5008, 330.1003
593.9829, 331.3514
594.4650, 332.2755
594.9471, 332.6272
595.4293, 332.7562
595.9114, 332.7882
596.3935, 332.8086
596.8756, 333.0986
597.3577, 333.7140
597.8398, 334.2448
598.3220, 334.3931
598.8041, 334.1867
599.2862, 333.7948
599.7683, 332.7054
600.2504, 332.1417
600.7325, 332.8012
601.2147, 333.7385
601.6968, 333.9630
602.1789, 333.4855
602.6610, 333.1295
603.1431, 333.6669
603.6252, 334.7436
604.1074, 334.5701
604.5895, 332.2998
605.0716, 331.0022
605.5537, 332.4810
606.0358, 334.4402
