##NAMES=Columbite-(Fe)
##RRUFFID=R060001
##IDEAL CHEMISTRY=Fe^2+^Nb^5+^_2_O_6_
##LOCALITY=Gypsy mine, Minas Gerais, Brazil
##OWNER=RRUFF
##SOURCE=Eric Van Valkenburg
##DESCRIPTION=Steel gray fragment with internal red hints
##STATUS=The identification of this mineral has been confirmed by X-ray diffraction and chemical analysis
##URL=rruff.info/R060001
##MEASURED CHEMISTRY=(Fe^2+^_0.52_Mn^2+^_0.48_)_Σ=1_(Nb_1.61_Ta_0.39_)_Σ=2_O_6_
158.9741, 114.3360
159.4562, 114.7417
159.9383, 115.8408
160.4205, 116.8972
160.9026, 117.6297
161.3847, 118.0094
161.8668, 118.3775
162.3489, 119.2057
162.8310, 119.9859
163.3132, 120.1253
163.7953, 118.8697
164.2774, 117.3543
164.7595, 116.0604
165.2416, 115.0054
165.7237, 114.2980
166.2059, 114.1069
166.6880, 114.2675
167.1701, 114.5304
167.6522, 114.5863
168.1343, 114.8313
168.6164, 115.6028
169.0986, 117.0118
169.5807, 118.6123
170.0628, 120.7134
170.5449, 122.8030
171.0270, 123.8501
171.5091, 122.7086
171.9913, 120.5993
172.4734, 118.5169
172.9555, 116.4336
173.4376, 114.9067
173.9197, 114.6209
174.4018, 115.3001
174.8840, 116.2081
175.3661, 117.1729
175.8482, 118.0310
176.3303, 118.5515
176.8124, 118.6671
177.2945, 118.5155
177.7767, 118.2921
178.2588, 117.9503
178.7409, 117.3076
179.2230, 115.6968
179.7051, 113.7686
180.1872, 112.8872
180.6694, 113.6071
181.1515, 114.8346
181.6336, 115.0726
182.1157, 114.4173
182.5978, 113.5509
183.0799, 112.8797
183.5621, 112.3509
184.0442, 111.7712
184.5263, 110.9383
185.0084, 110.2498
185.4905, 110.7149
185.9726, 112.2784
186.4547, 113.5846
186.9369, 113.3360
187.4190, 111.8673
187.9011, 110.5497
188.3832, 109.5828
188.8653, 108.9914
189.3474, 108.9695
189.8296, 109.5367
190.3117, 110.1481
190.7938, 110.0225
191.2759, 109.3389
191.7580, 109.6561
192.2401, 111.8802
192.7223, 115.0347
193.2044, 115.9387
193.6865, 114.3590
194.1686, 112.4154
194.6507, 112.1898
195.1328, 113.5931
195.6150, 114.8469
196.0971, 115.5987
196.5792, 115.8712
197.0613, 115.4848
197.5434, 114.2493
198.0255, 113.2575
198.5077, 113.7671
198.9898, 115.8337
199.4719, 117.9700
199.9540, 120.0328
200.4361, 121.8910
200.9182, 122.6574
201.4004, 122.0631
201.8825, 121.1819
202.3646, 121.0807
202.8467, 121.8238
203.3288, 122.8467
203.8109, 124.2009
204.2931, 125.7844
204.7752, 126.6618
205.2573, 126.7151
205.7394, 126.3503
206.2215, 125.9702
206.7036, 125.6040
207.1858, 125.1006
207.6679, 124.4700
208.1500, 123.6978
208.6321, 122.4770
209.1142, 120.6409
209.5963, 118.6689
210.0785, 117.0219
210.5606, 115.7015
211.0427, 114.7816
211.5248, 114.5078
212.0069, 114.8481
212.4890, 114.2209
212.9712, 112.2553
213.4533, 109.8887
213.9354, 108.1291
214.4175, 107.0095
214.8996, 106.3547
215.3817, 106.1565
215.8639, 106.4157
216.3460, 107.0577
216.8281, 108.4868
217.3102, 109.7624
217.7923, 109.6280
218.2744, 107.3666
218.7566, 105.5462
219.2387, 104.8940
219.7208, 105.4285
220.2029, 105.8003
220.6850, 105.9269
221.1671, 105.9841
221.6493, 106.2118
222.1314, 106.8042
222.6135, 107.0973
223.0956, 106.7281
223.5777, 105.6319
224.0598, 105.5073
224.5420, 106.9623
225.0241, 108.7156
225.5062, 109.3241
225.9883, 108.1473
226.4704, 107.1682
226.9525, 106.8778
227.4347, 107.3035
227.9168, 107.6140
228.3989, 107.7474
228.8810, 107.8320
229.3631, 107.9782
229.8452, 108.1293
230.3274, 108.4780
230.8095, 109.2131
231.2916, 110.3697
231.7737, 110.9036
232.2558, 110.5346
232.7379, 109.8354
233.2201, 109.3746
233.7022, 109.2416
234.1843, 109.1748
234.6664, 109.1411
235.1485, 109.1414
235.6306, 109.1212
236.1128, 109.0266
236.5949, 108.9657
237.0770, 109.0590
237.5591, 109.4238
238.0412, 109.6948
238.5233, 109.6528
239.0055, 109.3002
239.4876, 109.6624
239.9697, 111.1709
240.4518, 112.9289
240.9339, 114.1658
241.4160, 114.7648
241.8982, 115.0616
242.3803, 115.0127
242.8624, 114.6305
243.3445, 114.3684
243.8266, 114.2198
244.3087, 114.1941
244.7909, 114.3074
245.2730, 114.6009
245.7551, 114.9528
246.2372, 115.3806
246.7193, 115.8717
247.2014, 116.2993
247.6836, 116.8231
248.1657, 117.0825
248.6478, 116.7115
249.1299, 115.2481
249.6120, 114.1631
250.0941, 113.7269
250.5762, 113.8597
251.0584, 113.9145
251.5405, 113.8274
252.0226, 113.7496
252.5047, 113.8178
252.9868, 114.1782
253.4689, 114.3446
253.9511, 114.2339
254.4332, 113.8846
254.9153, 113.4854
255.3974, 112.9418
255.8795, 112.4990
256.3617, 112.3393
256.8438, 112.5770
257.3259, 112.7935
257.8080, 112.9318
258.2901, 113.0271
258.7722, 113.2089
259.2544, 113.4487
259.7365, 113.8244
260.2186, 114.5422
260.7007, 116.0094
261.1828, 116.4835
261.6649, 115.4397
262.1471, 113.4785
262.6292, 112.3718
263.1113, 112.3087
263.5934, 112.7341
264.0755, 113.4868
264.5576, 114.7695
265.0398, 115.6983
265.5219, 116.3294
266.0040, 116.5537
266.4861, 115.9024
266.9682, 113.8704
267.4503, 112.2407
267.9325, 112.0874
268.4146, 113.8994
268.8967, 114.8405
269.3788, 114.6278
269.8609, 113.8316
270.3430, 113.6107
270.8252, 114.2109
271.3073, 114.5631
271.7894, 114.0245
272.2715, 112.4437
272.7536, 111.6569
273.2357, 111.8603
273.7179, 112.5799
274.2000, 113.2727
274.6821, 114.0548
275.1642, 114.2273
275.6463, 113.2153
276.1284, 111.0137
276.6106, 109.9138
277.0927, 110.1602
277.5748, 110.9763
278.0569, 111.4247
278.5390, 111.4718
279.0211, 111.4276
279.5032, 111.3692
279.9854, 111.2980
280.4675, 111.2500
280.9496, 111.2632
281.4317, 111.1771
281.9138, 110.7193
282.3959, 109.8701
282.8781, 109.2230
283.3602, 109.0528
283.8423, 109.1845
284.3244, 108.7005
284.8065, 107.4746
285.2886, 106.4073
285.7708, 106.5063
286.2529, 107.7023
286.7350, 108.7587
287.2171, 109.6092
287.6992, 110.0206
288.1813, 108.9413
288.6635, 106.2773
289.1456, 103.7785
289.6277, 103.0452
290.1098, 103.8200
290.5919, 104.4109
291.0740, 104.5669
291.5562, 104.3910
292.0383, 104.0249
292.5204, 103.4710
293.0025, 102.8499
293.4846, 102.2908
293.9667, 101.7350
294.4489, 100.8864
294.9310, 99.60593
295.4131, 98.32564
295.8952, 97.72474
296.3773, 97.73771
296.8594, 97.91305
297.3416, 97.96607
297.8237, 98.00342
298.3058, 98.36446
298.7879, 99.15010
299.2700, 99.88315
299.7521, 99.84272
300.2343, 99.23926
300.7164, 98.74720
301.1985, 98.75661
301.6806, 99.05063
302.1627, 99.40723
302.6448, 99.84397
303.1270, 100.0110
303.6091, 99.27518
304.0912, 98.04168
304.5733, 97.11901
305.0554, 97.01479
305.5375, 97.29900
306.0197, 97.53898
306.5018, 97.73660
306.9839, 97.95729
307.4660, 98.40383
307.9481, 98.86474
308.4302, 99.02014
308.9124, 98.47668
309.3945, 97.88737
309.8766, 97.86727
310.3587, 98.31941
310.8408, 98.73340
311.3229, 98.96779
311.8051, 98.94109
312.2872, 98.48008
312.7693, 97.13206
313.2514, 96.04175
313.7335, 96.18475
314.2156, 97.17392
314.6978, 97.87598
315.1799, 97.33353
315.6620, 96.57583
316.1441, 96.41553
316.6262, 97.23459
317.1083, 97.96284
317.5905, 98.17822
318.0726, 97.99373
318.5547, 97.60628
319.0368, 96.50022
319.5189, 95.66994
320.0010, 95.82547
320.4832, 97.29503
320.9653, 98.33516
321.4474, 98.13337
321.9295, 97.35039
322.4116, 96.75930
322.8937, 96.61364
323.3759, 96.60239
323.8580, 96.70987
324.3401, 96.94416
324.8222, 97.03742
325.3043, 96.93513
325.7864, 96.68712
326.2686, 96.33183
326.7507, 96.00317
327.2328, 95.42371
327.7149, 94.18195
328.1970, 92.41892
328.6791, 91.55500
329.1613, 92.32884
329.6434, 93.43434
330.1255, 94.23498
330.6076, 94.81136
331.0897, 94.94621
331.5718, 94.28924
332.0540, 93.19714
332.5361, 92.71371
333.0182, 93.26604
333.5003, 93.85914
333.9824, 94.04485
334.4645, 93.56900
334.9467, 93.50815
335.4288, 94.11645
335.9109, 94.96052
336.3930, 95.31821
336.8751, 95.07466
337.3572, 94.61813
337.8394, 94.02769
338.3215, 93.30395
338.8036, 92.49453
339.2857, 91.45832
339.7678, 90.58049
340.2499, 90.30100
340.7321, 90.68809
341.2142, 91.34209
341.6963, 92.37025
342.1784, 93.57354
342.6605, 93.87218
343.1426, 93.12651
343.6248, 92.11834
344.1069, 91.35923
344.5890, 90.85874
345.0711, 90.68600
345.5532, 90.86552
346.0353, 91.36211
346.5175, 92.31047
346.9996, 93.70702
347.4817, 94.80518
347.9638, 95.01059
348.4459, 94.52799
348.9280, 94.04666
349.4102, 93.59206
349.8923, 93.25448
350.3744, 93.10720
350.8565, 93.16617
351.3386, 93.49837
351.8207, 94.64051
352.3029, 95.90563
352.7850, 95.87154
353.2671, 94.50343
353.7492, 93.25478
354.2313, 93.66343
354.7134, 95.01946
355.1956, 96.08111
355.6777, 96.24808
356.1598, 96.11301
356.6419, 96.21170
357.1240, 96.50412
357.6061, 96.77312
358.0883, 96.81690
358.5704, 96.80638
359.0525, 96.95230
359.5346, 97.46175
360.0167, 97.80391
360.4988, 97.46584
360.9810, 96.72521
361.4631, 96.19515
361.9452, 96.13670
362.4273, 96.35117
362.9094, 96.79333
363.3915, 97.51942
363.8737, 98.17247
364.3558, 98.65318
364.8379, 98.98600
365.3200, 99.19630
365.8021, 99.07592
366.2842, 99.04398
366.7664, 99.40249
367.2485, 100.1635
367.7306, 100.4085
368.2127, 99.30299
368.6948, 98.10322
369.1769, 97.63481
369.6591, 98.68424
370.1412, 99.53914
370.6233, 100.1320
371.1054, 100.4800
371.5875, 100.6152
372.0696, 100.2353
372.5518, 100.0092
373.0339, 100.2557
373.5160, 101.1982
373.9981, 101.9809
374.4802, 102.5819
374.9623, 103.0492
375.4445, 103.4593
375.9266, 103.8415
376.4087, 104.0785
376.8908, 104.0192
377.3729, 103.6865
377.8550, 103.8860
378.3372, 104.7218
378.8193, 105.8072
379.3014, 106.8763
379.7835, 107.9547
380.2656, 108.5814
380.7477, 108.4994
381.2299, 108.0672
381.7120, 108.2417
382.1941, 109.0311
382.6762, 109.9197
383.1583, 110.4983
383.6404, 110.8744
384.1226, 111.4652
384.6047, 112.3361
385.0868, 113.3282
385.5689, 114.2184
386.0510, 115.0550
386.5331, 116.0264
387.0153, 117.5579
387.4974, 119.1486
387.9795, 119.8657
388.4616, 119.7054
388.9437, 119.7109
389.4258, 121.1825
389.9080, 123.2104
390.3901, 124.4315
390.8722, 123.9108
391.3543, 123.0748
391.8364, 122.9160
392.3185, 123.3009
392.8007, 123.7277
393.2828, 123.9243
393.7649, 124.0939
394.2470, 124.4317
394.7291, 125.1164
395.2112, 125.5470
395.6934, 125.3556
396.1755, 124.8087
396.6576, 124.3060
397.1397, 124.2524
397.6218, 123.9620
398.1039, 122.9964
398.5861, 121.2399
399.0682, 120.0507
399.5503, 120.1392
400.0324, 120.4967
400.5145, 120.3848
400.9966, 119.5689
401.4788, 118.5981
401.9609, 117.3064
402.4430, 115.8667
402.9251, 115.0457
403.4072, 115.4735
403.8893, 115.5574
404.3714, 114.3698
404.8535, 111.3464
405.3357, 109.4931
405.8178, 109.2706
406.2999, 109.6290
406.7820, 109.0189
407.2641, 107.2822
407.7462, 105.4494
408.2284, 103.5990
408.7105, 101.9116
409.1926, 101.4243
409.6747, 102.3020
410.1568, 103.1662
410.6389, 102.5937
411.1211, 100.8664
411.6032, 99.59203
412.0853, 99.11245
412.5674, 99.03568
413.0495, 98.86916
413.5316, 98.60139
414.0138, 98.18147
414.4959, 97.34971
414.9780, 96.42609
415.4601, 96.07454
415.9422, 96.37333
416.4243, 96.46207
416.9065, 95.21142
417.3886, 93.39077
417.8707, 92.18164
418.3528, 92.65632
418.8349, 93.22188
419.3170, 92.72427
419.7992, 91.37606
420.2813, 90.21245
420.7634, 89.61514
421.2455, 89.38353
421.7276, 89.50811
422.2097, 90.37829
422.6919, 90.65466
423.1740, 89.49360
423.6561, 87.65454
424.1382, 86.27307
424.6203, 85.51998
425.1024, 85.28245
425.5846, 85.73801
426.0667, 86.93435
426.5488, 87.82864
427.0309, 88.27131
427.5130, 88.55299
427.9951, 88.86752
428.4773, 89.22312
428.9594, 89.64362
429.4415, 90.36741
429.9236, 91.04936
430.4057, 90.59374
430.8878, 88.54713
431.3700, 86.77821
431.8521, 86.28445
432.3342, 87.06605
432.8163, 87.29558
433.2984, 86.89233
433.7805, 86.22241
434.2627, 85.43099
434.7448, 84.59285
435.2269, 84.55567
435.7090, 85.87429
436.1911, 87.77058
436.6732, 88.67955
437.1554, 88.68423
437.6375, 88.40920
438.1196, 88.23528
438.6017, 88.06104
439.0838, 87.70316
439.5659, 87.11840
440.0481, 86.45946
440.5302, 85.79942
441.0123, 85.15574
441.4944, 84.55788
441.9765, 83.73689
442.4586, 83.19971
442.9408, 83.39359
443.4229, 84.24318
443.9050, 85.11134
444.3871, 85.97916
444.8692, 86.61210
445.3513, 86.82703
445.8335, 86.38602
446.3156, 85.90394
446.7977, 85.49020
447.2798, 85.10598
447.7619, 84.67961
448.2440, 83.61620
448.7262, 83.17286
449.2083, 83.92173
449.6904, 85.96349
450.1725, 87.19008
450.6546, 87.34887
451.1367, 86.99507
451.6189, 86.42402
452.1010, 85.43133
452.5831, 84.95737
453.0652, 85.22275
453.5473, 85.90857
454.0294, 86.30795
454.5116, 86.39517
454.9937, 86.41545
455.4758, 86.56461
455.9579, 86.76524
456.4400, 86.44456
456.9221, 85.53585
457.4043, 84.70210
457.8864, 84.66869
458.3685, 85.23484
458.8506, 85.86924
459.3327, 86.57700
459.8148, 87.05725
460.2970, 86.55696
460.7791, 85.43114
461.2612, 84.87108
461.7433, 86.32471
462.2254, 88.14292
462.7076, 88.81802
463.1897, 88.15559
463.6718, 87.19800
464.1539, 86.03420
464.6360, 85.04804
465.1181, 84.64510
465.6003, 85.79607
466.0824, 86.60267
466.5645, 86.11462
467.0466, 84.78158
467.5287, 84.33499
468.0108, 85.92274
468.4930, 87.56812
468.9751, 88.58170
469.4572, 88.83805
469.9393, 88.91613
470.4214, 88.80630
470.9035, 88.52320
471.3857, 87.99212
471.8678, 87.00194
472.3499, 86.47156
472.8320, 86.72432
473.3141, 87.46861
473.7962, 87.61110
474.2784, 87.06390
474.7605, 86.55506
475.2426, 86.53206
475.7247, 86.93250
476.2068, 87.44143
476.6889, 88.08444
477.1711, 88.61943
477.6532, 88.67825
478.1353, 88.40481
478.6174, 88.19876
479.0995, 88.23592
479.5816, 88.34305
480.0638, 88.36475
480.5459, 88.29964
481.0280, 88.14213
481.5101, 87.66064
481.9922, 87.22847
482.4743, 87.24361
482.9565, 87.85329
483.4386, 88.29807
483.9207, 88.26741
484.4028, 87.91525
484.8849, 87.39917
485.3670, 86.33737
485.8492, 85.58492
486.3313, 85.35002
486.8134, 85.58174
487.2955, 85.99612
487.7776, 86.90774
488.2597, 87.61457
488.7419, 87.76567
489.2240, 87.19334
489.7061, 86.92760
490.1882, 87.16679
490.6703, 87.41988
491.1524, 86.93321
491.6346, 85.52229
492.1167, 84.87871
492.5988, 85.60728
493.0809, 87.01610
493.5630, 87.11892
494.0451, 85.96273
494.5273, 85.04155
495.0094, 85.60609
495.4915, 86.98499
495.9736, 87.59567
496.4557, 87.33494
496.9378, 86.85241
497.4200, 86.56194
497.9021, 86.46130
498.3842, 86.58245
498.8663, 87.15385
499.3484, 87.63688
499.8305, 87.48486
500.3127, 86.96678
500.7948, 86.76521
501.2769, 87.65381
501.7590, 88.46570
502.2411, 88.55141
502.7232, 87.73880
503.2054, 87.14371
503.6875, 87.14212
504.1696, 87.27042
504.6517, 87.17234
505.1338, 86.49751
505.6159, 86.21310
506.0981, 86.44590
506.5802, 87.06788
507.0623, 87.86510
507.5444, 88.97918
508.0265, 89.83752
508.5086, 90.20033
508.9908, 90.11559
509.4729, 89.88900
509.9550, 89.48587
510.4371, 89.21394
510.9192, 89.39704
511.4013, 89.95332
511.8835, 90.62868
512.3655, 91.46897
512.8477, 92.16096
513.3298, 92.05713
513.8119, 91.51035
514.2940, 91.35903
514.7761, 92.50378
515.2582, 93.79128
515.7404, 94.22080
516.2225, 93.90620
516.7046, 93.76380
517.1867, 94.37336
517.6688, 95.17133
518.1509, 95.78975
518.6331, 96.09646
519.1152, 96.41972
519.5973, 96.72485
520.0794, 97.10463
520.5615, 97.65977
521.0436, 98.39342
521.5258, 99.32464
522.0079, 100.6670
522.4900, 102.2279
522.9721, 102.9759
523.4542, 102.6620
523.9363, 102.2292
524.4185, 102.1766
524.9006, 102.5020
525.3827, 102.6867
525.8648, 102.6900
526.3469, 102.7680
526.8290, 103.4388
527.3112, 104.4756
527.7933, 104.9487
528.2754, 104.4282
528.7575, 103.6539
529.2396, 103.3903
529.7217, 103.5833
530.2039, 104.0709
530.6860, 105.3869
531.1681, 106.5023
531.6502, 106.5623
532.1323, 105.5442
532.6144, 104.4245
533.0966, 103.5436
533.5787, 102.7187
534.0608, 101.7687
534.5429, 100.1707
535.0250, 99.27805
535.5071, 99.83473
535.9893, 100.9226
536.4714, 101.1833
536.9535, 100.1767
537.4356, 99.18235
537.9177, 98.42476
538.3998, 97.90286
538.8820, 97.81171
539.3641, 98.32223
539.8462, 98.49209
540.3283, 97.44228
540.8104, 95.40125
541.2925, 93.96719
541.7747, 93.24791
542.2568, 92.90730
542.7389, 92.72347
543.2210, 92.63744
543.7031, 92.54573
544.1852, 92.56510
544.6674, 92.33377
545.1495, 91.19882
545.6316, 89.53377
546.1137, 88.27141
546.5958, 88.02790
547.0779, 88.13280
547.5601, 88.36617
548.0422, 88.71719
548.5243, 88.81995
549.0064, 88.50815
549.4885, 87.98448
549.9706, 87.37524
550.4528, 86.72075
550.9349, 85.86775
551.4170, 84.50172
551.8991, 83.16696
552.3812, 82.75613
552.8633, 83.50572
553.3455, 84.24258
553.8276, 84.78091
554.3097, 85.06094
554.7918, 84.71244
555.2739, 83.74245
555.7560, 82.88527
556.2382, 82.80412
556.7203, 83.11824
557.2024, 82.93754
557.6845, 82.21223
558.1666, 81.38611
558.6487, 80.73389
559.1309, 80.23771
559.6130, 79.88492
560.0951, 79.66210
560.5772, 79.59251
561.0593, 79.92435
561.5414, 80.38130
562.0236, 80.47250
562.5057, 79.55946
562.9878, 78.80946
563.4699, 78.61623
563.9520, 78.92567
564.4341, 79.16464
564.9163, 79.34019
565.3984, 79.43375
565.8805, 79.43204
566.3626, 79.32631
566.8447, 79.15942
567.3268, 78.91368
567.8090, 78.64977
568.2911, 78.47038
568.7732, 78.35615
569.2553, 78.10038
569.7374, 77.55694
570.2195, 77.06600
570.7017, 77.13760
571.1838, 77.66142
571.6659, 78.28140
572.1480, 79.18251
572.6301, 79.84800
573.1122, 79.59803
573.5944, 78.55387
574.0765, 77.80321
574.5586, 77.97099
575.0407, 78.47282
575.5228, 79.05270
576.0049, 79.89307
576.4871, 80.18201
576.9692, 79.32845
577.4513, 78.23745
577.9334, 77.80978
578.4155, 78.53944
578.8976, 78.71725
579.3798, 77.88155
579.8619, 76.58765
580.3440, 76.40672
580.8261, 77.45856
581.3082, 78.07795
581.7903, 77.15135
582.2725, 75.39420
582.7546, 75.07565
583.2367, 76.09758
583.7188, 77.23266
584.2009, 77.54622
584.6830, 77.44088
585.1652, 77.43380
585.6473, 77.60435
586.1294, 77.78153
586.6115, 77.88077
587.0936, 77.92766
587.5757, 77.94827
588.0579, 78.30146
588.5400, 78.21115
589.0221, 76.93023
589.5042, 75.15857
589.9863, 74.53329
590.4684, 75.73118
590.9506, 77.01653
591.4327, 78.12733
591.9148, 79.00328
592.3969, 78.86205
592.8790, 77.41412
593.3611, 76.19202
593.8433, 76.58899
594.3254, 78.19756
594.8075, 78.66006
595.2896, 77.79644
595.7717, 76.67482
596.2538, 76.08250
596.7360, 76.02195
597.2181, 76.64574
597.7002, 78.43253
598.1823, 79.92591
598.6644, 79.87937
599.1465, 78.91664
599.6287, 78.10484
600.1108, 77.84901
600.5929, 77.73917
601.0750, 77.72320
601.5571, 77.77652
602.0392, 77.71980
602.5214, 77.38633
603.0035, 77.16984
603.4856, 77.33004
603.9677, 77.92765
604.4498, 77.88683
604.9319, 76.95959
605.4141, 76.16270
605.8962, 76.74781
606.3783, 78.45342
606.8604, 79.44512
607.3425, 79.43414
607.8246, 78.95228
608.3068, 78.24317
608.7889, 77.56433
609.2710, 77.53907
609.7531, 79.21143
610.2352, 80.63732
610.7173, 80.19624
611.1995, 78.47753
611.6816, 77.09061
612.1637, 76.48914
612.6458, 76.35909
613.1279, 76.75942
613.6100, 77.70573
614.0922, 78.36804
614.5743, 78.67476
615.0564, 78.80296
615.5385, 78.89999
616.0206, 79.04079
616.5027, 78.60302
616.9849, 77.42301
617.4670, 76.16135
617.9491, 75.64449
618.4312, 75.75213
618.9133, 75.85983
619.3954, 75.78879
619.8776, 75.82017
620.3597, 76.39695
620.8418, 77.33418
621.3239, 78.20509
621.8060, 79.17669
622.2881, 79.72923
622.7703, 79.18196
623.2524, 77.85777
623.7345, 77.07897
624.2166, 77.69862
624.6987, 78.44703
625.1808, 78.86156
625.6630, 78.92994
626.1451, 78.81454
626.6272, 78.38826
627.1093, 77.98021
627.5914, 77.80849
628.0735, 77.87985
628.5557, 78.13030
629.0378, 78.60139
629.5199, 79.07844
630.0020, 79.35336
630.4841, 79.43336
630.9662, 79.31292
631.4484, 78.92215
631.9305, 78.48316
632.4126, 78.13047
632.8947, 77.89790
633.3768, 77.84457
633.8589, 78.20383
634.3411, 78.54388
634.8232, 78.67416
635.3053, 78.62168
635.7874, 78.56525
636.2695, 78.51350
636.7516, 78.47009
637.2338, 78.41085
637.7159, 78.32706
638.1980, 78.39906
638.6801, 78.64442
639.1622, 78.98754
639.6443, 79.48412
640.1265, 80.07899
640.6086, 80.27593
641.0907, 79.98827
641.5728, 79.58199
642.0549, 79.40246
642.5370, 79.38688
643.0192, 79.44678
643.5013, 79.66898
643.9834, 79.74072
644.4655, 79.36494
644.9476, 78.72831
645.4297, 78.13290
645.9119, 77.54388
646.3940, 77.14299
646.8761, 77.01305
647.3582, 77.11489
647.8403, 77.36509
648.3224, 77.94240
648.8046, 78.30964
649.2867, 78.17749
649.7688, 77.62146
650.2509, 77.38425
650.7330, 77.48258
651.2151, 77.69836
651.6973, 77.96683
652.1794, 78.21824
652.6615, 78.19234
653.1436, 77.85300
653.6257, 77.62406
654.1078, 78.06650
654.5900, 78.69189
