##NAMES=Colusite
##RRUFFID=R070568
##IDEAL CHEMISTRY=Cu^1+^_12_Cu^2+^V^3+^As^5+^_3_S^2-^_16_
##LOCALITY=East Colusa mine, Butte, Silver Bow County, Montana, USA
##OWNER=RRUFF
##SOURCE=James Shigley
##DESCRIPTION=Metallic bronze massive associated with quartz and pyrite
##STATUS=The identification of this mineral has been confirmed only by single crystal X-ray diffraction.
##URL=rruff.info/R070568
133.1424, 1936.648
133.6245, 1989.110
134.1066, 2028.773
134.5887, 2066.890
135.0709, 2117.673
135.5530, 2179.977
136.0351, 2220.337
136.5172, 2227.659
136.9993, 2220.327
137.4814, 2197.815
137.9636, 2165.300
138.4457, 2139.551
138.9278, 2141.215
139.4099, 2175.695
139.8920, 2196.363
140.3741, 2185.769
140.8563, 2171.992
141.3384, 2163.725
141.8205, 2163.155
142.3026, 2171.015
142.7847, 2191.121
143.2668, 2229.388
143.7490, 2259.236
144.2311, 2267.103
144.7132, 2275.561
145.1953, 2298.438
145.6774, 2337.764
146.1595, 2384.501
146.6417, 2425.265
147.1238, 2454.027
147.6059, 2490.852
148.0880, 2546.492
148.5701, 2603.082
149.0523, 2648.271
149.5344, 2678.792
150.0165, 2699.119
150.4986, 2716.917
150.9807, 2733.358
151.4628, 2744.418
151.9450, 2748.515
152.4271, 2748.853
152.9092, 2733.725
153.3913, 2699.873
153.8734, 2659.540
154.3555, 2630.639
154.8377, 2634.291
155.3198, 2617.250
155.8019, 2562.260
156.2840, 2495.285
156.7661, 2440.018
157.2482, 2406.018
157.7304, 2388.262
158.2125, 2374.434
158.6946, 2372.595
159.1767, 2364.613
159.6588, 2343.244
160.1409, 2317.584
160.6231, 2297.600
161.1052, 2288.047
161.5873, 2286.534
162.0694, 2285.215
162.5515, 2291.353
163.0336, 2288.791
163.5158, 2267.114
163.9979, 2237.691
164.4800, 2217.624
164.9621, 2216.675
165.4442, 2228.288
165.9263, 2222.937
166.4085, 2175.262
166.8906, 2139.321
167.3727, 2129.930
167.8548, 2137.060
168.3369, 2145.292
168.8190, 2146.260
169.3012, 2140.940
169.7833, 2134.982
170.2654, 2124.496
170.7475, 2117.691
171.2296, 2120.927
171.7117, 2128.926
172.1939, 2130.835
172.6760, 2119.116
173.1581, 2096.756
173.6402, 2088.442
174.1223, 2112.110
174.6044, 2128.244
175.0866, 2118.360
175.5687, 2092.567
176.0508, 2073.280
176.5329, 2075.221
177.0150, 2095.512
177.4971, 2105.186
177.9793, 2093.450
178.4614, 2084.661
178.9435, 2088.536
179.4256, 2101.636
179.9077, 2115.693
180.3898, 2125.963
180.8720, 2132.478
181.3541, 2135.271
181.8362, 2132.709
182.3183, 2129.127
182.8004, 2122.670
183.2825, 2115.975
183.7647, 2116.757
184.2468, 2132.237
184.7289, 2160.413
185.2110, 2170.209
185.6931, 2143.274
186.1752, 2121.196
186.6574, 2123.825
187.1395, 2145.014
187.6216, 2166.570
188.1037, 2176.898
188.5858, 2176.592
189.0679, 2175.805
189.5501, 2176.276
190.0322, 2174.755
190.5143, 2165.576
190.9964, 2152.644
191.4785, 2147.502
191.9606, 2159.765
192.4428, 2187.598
192.9249, 2199.857
193.4070, 2183.877
193.8891, 2168.552
194.3712, 2167.038
194.8533, 2175.823
195.3355, 2183.550
195.8176, 2182.174
196.2997, 2172.724
196.7818, 2170.323
197.2639, 2182.159
197.7460, 2192.102
198.2282, 2190.768
198.7103, 2182.097
199.1924, 2177.802
199.6745, 2186.933
200.1566, 2207.434
200.6387, 2212.020
201.1209, 2191.430
201.6030, 2168.771
202.0851, 2152.540
202.5672, 2140.753
203.0493, 2126.580
203.5314, 2104.406
204.0136, 2076.552
204.4957, 2065.000
204.9778, 2078.496
205.4599, 2095.165
205.9420, 2112.278
206.4241, 2127.432
206.9063, 2136.563
207.3884, 2137.226
207.8705, 2129.973
208.3526, 2117.954
208.8347, 2098.081
209.3168, 2077.802
209.7990, 2056.413
210.2811, 2036.156
210.7632, 2021.450
211.2453, 2015.389
211.7274, 2015.922
212.2095, 2011.775
212.6917, 1995.343
213.1738, 1983.277
213.6559, 1982.237
214.1380, 1987.533
214.6201, 1991.597
215.1022, 1990.486
215.5844, 1985.214
216.0665, 1980.004
216.5486, 1971.708
217.0307, 1967.027
217.5128, 1971.114
217.9949, 1978.462
218.4771, 1980.043
218.9592, 1971.130
219.4413, 1956.320
219.9234, 1950.740
220.4055, 1967.025
220.8876, 1978.148
221.3698, 1978.238
221.8519, 1973.266
222.3340, 1971.119
222.8161, 1975.214
223.2982, 1982.109
223.7803, 1983.024
224.2625, 1972.180
224.7446, 1962.025
225.2267, 1946.132
225.7088, 1934.115
226.1909, 1939.601
226.6730, 1967.188
227.1552, 2003.757
227.6373, 2022.160
228.1194, 2011.524
228.6015, 1997.218
229.0836, 1968.296
229.5658, 1942.598
230.0479, 1938.905
230.5300, 1961.624
231.0121, 1996.182
231.4942, 2017.766
231.9763, 2017.048
232.4585, 2020.365
232.9406, 2030.895
233.4227, 2043.087
233.9048, 2053.390
234.3869, 2060.964
234.8690, 2066.708
235.3512, 2071.305
235.8333, 2072.996
236.3154, 2078.107
236.7975, 2089.067
237.2796, 2101.117
237.7617, 2113.039
238.2439, 2123.875
238.7260, 2131.602
239.2081, 2131.612
239.6902, 2119.285
240.1723, 2118.037
240.6544, 2138.697
241.1366, 2161.166
241.6187, 2176.606
242.1008, 2185.141
242.5829, 2192.036
243.0650, 2201.555
243.5471, 2213.681
244.0293, 2228.969
244.5114, 2254.400
244.9935, 2276.419
245.4756, 2284.973
245.9577, 2284.806
246.4398, 2289.693
246.9220, 2313.093
247.4041, 2352.903
247.8862, 2383.190
248.3683, 2399.672
248.8504, 2411.137
249.3325, 2416.708
249.8147, 2420.526
250.2968, 2430.910
250.7789, 2455.528
251.2610, 2489.901
251.7431, 2517.285
252.2252, 2533.994
252.7074, 2550.641
253.1895, 2572.796
253.6716, 2597.796
254.1537, 2621.449
254.6358, 2640.717
255.1179, 2658.751
255.6001, 2681.598
256.0822, 2710.100
256.5643, 2741.011
257.0464, 2775.448
257.5285, 2810.597
258.0107, 2844.107
258.4928, 2877.583
258.9749, 2905.775
259.4570, 2916.254
259.9391, 2906.616
260.4212, 2910.995
260.9034, 2959.286
261.3855, 3020.899
261.8676, 3054.334
262.3497, 3046.840
262.8318, 3030.883
263.3139, 3031.084
263.7961, 3045.571
264.2782, 3060.271
264.7603, 3069.369
265.2424, 3077.661
265.7245, 3093.275
266.2066, 3118.513
266.6888, 3141.656
267.1709, 3156.737
267.6530, 3165.405
268.1351, 3171.128
268.6172, 3174.125
269.0993, 3176.185
269.5815, 3179.987
270.0636, 3185.568
270.5457, 3191.520
271.0278, 3199.056
271.5099, 3206.235
271.9920, 3212.240
272.4742, 3217.305
272.9563, 3215.865
273.4384, 3198.661
273.9205, 3161.264
274.4026, 3135.331
274.8847, 3133.381
275.3669, 3135.948
275.8490, 3125.021
276.3311, 3100.135
276.8132, 3074.565
277.2953, 3059.650
277.7774, 3056.545
278.2596, 3052.772
278.7417, 3058.156
279.2238, 3053.959
279.7059, 3020.699
280.1880, 2967.938
280.6701, 2925.144
281.1523, 2913.412
281.6344, 2929.308
282.1165, 2934.824
282.5986, 2923.542
283.0807, 2909.682
283.5628, 2892.158
284.0450, 2874.951
284.5271, 2864.362
285.0092, 2863.921
285.4913, 2870.018
285.9734, 2871.013
286.4555, 2859.958
286.9377, 2853.665
287.4198, 2853.747
287.9019, 2858.861
288.3840, 2869.065
288.8661, 2884.158
289.3482, 2900.907
289.8304, 2914.057
290.3125, 2922.906
290.7946, 2929.839
291.2767, 2932.803
291.7588, 2935.708
292.2409, 2940.267
292.7231, 2946.990
293.2052, 2956.375
293.6873, 2969.871
294.1694, 2987.889
294.6515, 3004.790
295.1336, 3017.791
295.6158, 3032.406
296.0979, 3052.887
296.5800, 3077.823
297.0621, 3101.654
297.5442, 3116.008
298.0263, 3125.431
298.5085, 3151.355
298.9906, 3203.439
299.4727, 3253.347
299.9548, 3275.305
300.4369, 3284.143
300.9190, 3309.008
301.4012, 3373.511
301.8833, 3450.240
302.3654, 3496.254
302.8475, 3508.295
303.3296, 3526.483
303.8117, 3571.819
304.2939, 3637.554
304.7760, 3707.662
305.2581, 3783.198
305.7402, 3860.004
306.2223, 3934.071
306.7044, 4006.430
307.1866, 4080.617
307.6687, 4155.826
308.1508, 4235.528
308.6329, 4325.147
309.1150, 4419.702
309.5971, 4532.485
310.0793, 4679.034
310.5614, 4841.916
311.0435, 4992.858
311.5256, 5124.239
312.0077, 5258.992
312.4898, 5427.047
312.9720, 5639.145
313.4541, 5857.172
313.9362, 6077.945
314.4183, 6306.896
314.9004, 6547.138
315.3825, 6798.646
315.8647, 7059.781
316.3468, 7330.429
316.8289, 7611.389
317.3110, 7887.526
317.7931, 8143.980
318.2752, 8412.728
318.7574, 8705.470
319.2395, 9016.271
319.7216, 9335.697
320.2037, 9655.467
320.6858, 9978.550
321.1679, 10311.43
321.6501, 10660.22
322.1322, 11008.36
322.6143, 11369.47
323.0964, 11719.93
323.5785, 12043.47
324.0606, 12333.55
324.5428, 12586.62
325.0249, 12804.73
325.5070, 12995.91
325.9891, 13112.97
326.4712, 13133.57
326.9533, 13081.53
327.4355, 12969.85
327.9176, 12798.82
328.3997, 12563.92
328.8818, 12252.99
329.3639, 11873.79
329.8460, 11450.30
330.3282, 10973.71
330.8103, 10473.87
331.2924, 9960.751
331.7745, 9442.103
332.2566, 8934.405
332.7387, 8449.266
333.2209, 7975.423
333.7030, 7497.724
334.1851, 7017.126
334.6672, 6566.655
335.1493, 6170.391
335.6314, 5824.246
336.1136, 5494.274
336.5957, 5173.622
337.0778, 4875.509
337.5599, 4604.517
338.0420, 4360.107
338.5241, 4143.901
339.0063, 3956.853
339.4884, 3791.745
339.9705, 3635.280
340.4526, 3487.432
340.9347, 3348.394
341.4168, 3212.424
341.8990, 3088.278
342.3811, 2985.231
342.8632, 2903.279
343.3453, 2832.590
343.8274, 2761.563
344.3095, 2688.049
344.7917, 2626.957
345.2738, 2590.400
345.7559, 2553.788
346.2380, 2502.423
346.7201, 2443.563
347.2022, 2394.633
347.6844, 2367.781
348.1665, 2358.234
348.6486, 2346.884
349.1307, 2330.751
349.6128, 2318.499
350.0949, 2315.901
350.5771, 2316.285
351.0592, 2311.318
351.5413, 2297.635
352.0234, 2284.559
352.5055, 2283.760
352.9876, 2295.418
353.4698, 2309.692
353.9519, 2322.237
354.4340, 2339.462
354.9161, 2366.533
355.3982, 2403.520
355.8803, 2445.280
356.3625, 2497.385
356.8446, 2550.573
357.3267, 2586.780
357.8088, 2602.224
358.2909, 2611.753
358.7730, 2625.218
359.2552, 2643.034
359.7373, 2665.936
360.2194, 2697.386
360.7015, 2730.789
361.1836, 2763.502
361.6657, 2795.052
362.1479, 2824.781
362.6300, 2852.678
363.1121, 2878.200
363.5942, 2899.648
364.0763, 2909.614
364.5584, 2925.000
365.0406, 2952.345
365.5227, 2982.878
366.0048, 3008.287
366.4869, 3026.615
366.9690, 3040.555
367.4511, 3054.605
367.9333, 3071.401
368.4154, 3077.505
368.8975, 3064.783
369.3796, 3048.701
369.8617, 3036.717
370.3438, 3026.531
370.8260, 3011.233
371.3081, 2985.627
371.7902, 2951.786
372.2723, 2915.641
372.7544, 2875.270
373.2365, 2837.484
373.7187, 2804.395
374.2008, 2775.748
374.6829, 2753.726
375.1650, 2741.873
375.6471, 2727.008
376.1292, 2693.679
376.6114, 2645.535
377.0935, 2603.213
377.5756, 2573.922
378.0577, 2549.466
378.5398, 2517.880
379.0219, 2478.583
379.5041, 2444.469
379.9862, 2423.772
380.4683, 2406.319
380.9504, 2379.688
381.4325, 2343.975
381.9146, 2309.451
382.3968, 2283.051
382.8789, 2264.750
383.3610, 2256.984
383.8431, 2269.806
384.3252, 2279.903
384.8073, 2278.552
385.2895, 2271.240
385.7716, 2264.726
386.2537, 2261.838
386.7358, 2264.084
387.2179, 2275.310
387.7000, 2299.972
388.1822, 2323.134
388.6643, 2347.006
389.1464, 2366.910
389.6285, 2378.788
390.1106, 2367.921
390.5927, 2390.969
391.0749, 2403.664
391.5570, 2406.561
392.0391, 2370.318
392.5212, 2384.617
393.0033, 2378.661
393.4854, 2371.875
393.9676, 2393.287
394.4497, 2362.737
394.9318, 2383.702
395.4139, 2384.104
395.8960, 2393.917
396.3781, 2383.349
396.8603, 2379.077
397.3424, 2395.191
397.8245, 2400.018
398.3066, 2373.395
398.7887, 2355.609
399.2708, 2328.210
399.7530, 2284.373
400.2351, 2236.460
400.7172, 2196.932
401.1993, 2166.007
401.6814, 2135.397
402.1635, 2097.790
402.6457, 2053.274
403.1278, 2012.385
403.6099, 1974.271
404.0920, 1940.927
404.5741, 1918.879
405.0562, 1899.836
405.5384, 1870.793
406.0205, 1826.515
406.5026, 1778.635
406.9847, 1747.523
407.4668, 1736.888
407.9489, 1724.621
408.4311, 1701.122
408.9132, 1681.438
409.3953, 1680.079
409.8774, 1693.685
410.3595, 1700.691
410.8416, 1680.565
411.3238, 1647.658
411.8059, 1631.183
412.2880, 1633.265
412.7701, 1641.725
413.2522, 1654.739
413.7343, 1667.478
414.2165, 1666.333
414.6986, 1641.027
415.1807, 1615.600
415.6628, 1598.992
416.1449, 1589.436
416.6270, 1585.673
417.1092, 1587.395
417.5913, 1589.750
418.0734, 1585.796
418.5555, 1572.973
419.0376, 1561.837
419.5197, 1553.240
420.0019, 1545.207
420.4840, 1534.478
420.9661, 1523.434
421.4482, 1518.275
421.9303, 1523.891
422.4124, 1536.493
422.8946, 1543.794
423.3767, 1545.370
423.8588, 1542.522
424.3409, 1533.931
424.8230, 1522.190
425.3051, 1505.912
425.7873, 1484.733
426.2694, 1471.225
426.7515, 1483.705
427.2336, 1512.134
427.7157, 1520.899
428.1978, 1500.546
428.6800, 1479.674
429.1621, 1484.060
429.6442, 1509.911
430.1263, 1529.149
430.6084, 1535.991
431.0905, 1539.677
431.5727, 1545.699
432.0548, 1552.570
432.5369, 1556.206
433.0190, 1554.754
433.5011, 1550.560
433.9832, 1548.113
434.4654, 1547.424
434.9475, 1548.705
435.4296, 1551.619
435.9117, 1556.519
436.3938, 1565.351
436.8759, 1576.748
437.3581, 1585.773
437.8402, 1586.781
438.3223, 1583.232
438.8044, 1592.724
439.2865, 1623.259
439.7686, 1648.168
440.2508, 1649.818
440.7329, 1644.380
441.2150, 1649.482
441.6971, 1670.328
442.1792, 1690.703
442.6613, 1698.818
443.1435, 1697.609
443.6256, 1693.762
444.1077, 1687.887
444.5898, 1682.868
445.0719, 1682.295
445.5540, 1686.469
446.0362, 1686.732
446.5183, 1680.994
447.0004, 1673.544
447.4825, 1663.839
447.9646, 1654.318
448.4467, 1650.356
448.9289, 1654.499
449.4110, 1661.884
449.8931, 1662.825
450.3752, 1656.851
450.8573, 1645.238
451.3394, 1620.041
451.8216, 1596.471
452.3037, 1584.047
452.7858, 1581.217
453.2679, 1579.617
453.7500, 1574.550
454.2321, 1566.598
454.7143, 1555.593
455.1964, 1540.263
455.6785, 1529.630
456.1606, 1532.183
456.6428, 1539.189
457.1249, 1535.077
457.6070, 1515.545
458.0891, 1497.339
458.5712, 1489.018
459.0533, 1485.461
459.5355, 1480.051
460.0176, 1471.644
460.4997, 1461.675
460.9818, 1450.648
461.4639, 1438.539
461.9460, 1432.025
462.4282, 1435.918
462.9103, 1439.448
463.3924, 1440.913
463.8745, 1440.271
464.3566, 1436.298
464.8387, 1428.730
465.3209, 1422.161
465.8030, 1425.155
466.2851, 1438.928
466.7672, 1445.080
467.2493, 1438.409
467.7314, 1428.434
468.2136, 1419.071
468.6957, 1411.226
469.1778, 1407.743
469.6599, 1413.071
470.1420, 1420.028
470.6241, 1422.212
471.1063, 1420.104
471.5884, 1414.594
472.0705, 1404.771
472.5526, 1395.426
473.0347, 1395.833
473.5168, 1414.953
473.9990, 1422.070
474.4811, 1402.258
474.9632, 1382.932
475.4453, 1385.812
475.9274, 1405.513
476.4095, 1421.923
476.8917, 1421.613
477.3738, 1409.580
477.8559, 1401.894
478.3380, 1399.885
478.8201, 1398.990
479.3022, 1399.192
479.7844, 1399.468
480.2665, 1399.321
480.7486, 1398.649
481.2307, 1396.960
481.7128, 1393.335
482.1949, 1388.687
482.6771, 1385.318
483.1592, 1383.386
483.6413, 1379.175
484.1234, 1368.302
484.6055, 1354.028
485.0876, 1350.279
485.5698, 1365.534
486.0519, 1377.919
486.5340, 1386.185
487.0161, 1388.130
487.4982, 1377.901
487.9803, 1356.708
488.4625, 1335.551
488.9446, 1325.888
489.4267, 1327.288
489.9088, 1325.457
490.3909, 1313.770
490.8730, 1309.463
491.3552, 1323.438
491.8373, 1344.487
492.3194, 1359.773
492.8015, 1365.889
493.2836, 1367.849
493.7657, 1371.426
494.2479, 1374.069
494.7300, 1365.240
495.2121, 1341.327
495.6942, 1319.168
496.1763, 1314.422
496.6584, 1326.356
497.1406, 1331.199
497.6227, 1320.606
498.1048, 1312.989
498.5869, 1314.886
499.0690, 1323.423
499.5511, 1336.790
500.0333, 1353.681
500.5154, 1368.303
500.9975, 1372.635
501.4796, 1365.605
501.9617, 1355.946
502.4438, 1336.948
502.9260, 1324.269
503.4081, 1328.200
503.8902, 1341.449
504.3723, 1351.274
504.8544, 1352.918
505.3365, 1351.871
505.8187, 1355.427
506.3008, 1360.739
506.7829, 1356.049
507.2650, 1337.123
507.7471, 1314.926
508.2292, 1299.453
508.7114, 1290.650
509.1935, 1293.234
509.6756, 1319.438
510.1577, 1343.121
510.6398, 1355.228
511.1219, 1357.499
511.6041, 1351.339
512.0862, 1337.527
512.5683, 1322.106
513.0504, 1314.339
513.5325, 1315.037
514.0146, 1316.704
514.4968, 1320.275
514.9789, 1322.970
515.4610, 1321.603
515.9431, 1318.311
516.4252, 1318.197
516.9073, 1324.513
517.3895, 1332.038
517.8716, 1339.034
518.3537, 1343.966
518.8358, 1340.834
519.3179, 1327.250
519.8000, 1312.301
520.2822, 1307.627
520.7643, 1315.864
521.2464, 1319.104
521.7285, 1313.058
522.2106, 1307.490
522.6927, 1306.974
523.1749, 1308.837
523.6570, 1307.421
524.1391, 1300.417
524.6212, 1294.948
525.1033, 1303.576
525.5854, 1325.883
526.0676, 1340.627
526.5497, 1344.568
527.0318, 1342.617
527.5139, 1335.960
527.9960, 1326.075
528.4781, 1317.330
528.9603, 1310.590
529.4424, 1304.801
529.9245, 1297.877
530.4066, 1291.920
530.8887, 1291.406
531.3708, 1297.371
531.8530, 1306.039
532.3351, 1313.459
532.8172, 1319.826
533.2993, 1322.962
533.7814, 1320.655
534.2635, 1317.499
534.7457, 1315.081
535.2278, 1312.385
535.7099, 1307.094
536.1920, 1298.119
536.6741, 1290.676
537.1563, 1290.023
537.6384, 1294.846
538.1205, 1301.426
538.6026, 1309.551
539.0847, 1317.931
539.5668, 1327.587
540.0490, 1337.044
540.5311, 1335.504
541.0132, 1310.851
541.4953, 1291.702
541.9774, 1288.754
542.4595, 1292.286
542.9417, 1291.560
543.4238, 1284.994
543.9059, 1278.520
544.3880, 1278.487
544.8701, 1283.824
545.3522, 1284.765
545.8344, 1278.438
546.3165, 1274.661
546.7986, 1277.299
547.2807, 1284.606
547.7628, 1298.149
548.2449, 1320.962
548.7271, 1332.220
549.2092, 1310.232
549.6913, 1278.291
550.1734, 1267.467
550.6555, 1277.479
551.1376, 1287.749
551.6198, 1284.875
552.1019, 1273.463
552.5840, 1269.925
553.0661, 1279.743
553.5482, 1288.215
554.0303, 1294.551
554.5125, 1299.331
554.9946, 1304.250
555.4767, 1308.289
555.9588, 1307.331
556.4409, 1295.034
556.9230, 1279.785
557.4052, 1276.418
557.8873, 1284.096
558.3694, 1290.627
558.8515, 1291.351
559.3336, 1290.565
559.8157, 1295.773
560.2979, 1310.980
560.7800, 1314.258
561.2621, 1290.643
561.7442, 1269.768
562.2263, 1269.489
562.7084, 1281.986
563.1906, 1291.926
563.6727, 1292.824
564.1548, 1290.290
564.6369, 1294.122
565.1190, 1304.689
565.6011, 1307.188
566.0833, 1296.462
566.5654, 1284.571
567.0475, 1278.775
567.5296, 1277.909
568.0117, 1280.053
568.4938, 1286.884
568.9760, 1293.918
569.4581, 1300.659
569.9402, 1305.653
570.4223, 1306.236
570.9044, 1302.286
571.3865, 1296.348
571.8687, 1289.743
572.3508, 1283.246
572.8329, 1286.396
573.3150, 1308.098
573.7971, 1323.687
574.2792, 1326.958
574.7614, 1322.448
575.2435, 1309.980
575.7256, 1290.363
576.2077, 1277.243
576.6898, 1284.856
577.1719, 1299.494
577.6541, 1300.357
578.1362, 1289.212
578.6183, 1283.432
579.1004, 1292.286
579.5825, 1307.615
580.0646, 1312.381
580.5468, 1298.647
581.0289, 1292.338
581.5110, 1297.686
581.9931, 1305.183
582.4752, 1310.497
582.9573, 1314.517
583.4395, 1320.239
583.9216, 1329.721
584.4037, 1338.378
584.8858, 1340.478
585.3679, 1336.804
585.8500, 1329.700
586.3322, 1318.331
586.8143, 1310.020
587.2964, 1312.381
587.7785, 1324.355
588.2606, 1330.732
588.7427, 1327.154
589.2249, 1324.152
589.7070, 1321.056
590.1891, 1321.392
590.6712, 1331.798
591.1533, 1351.064
591.6354, 1367.881
592.1176, 1372.690
592.5997, 1367.947
593.0818, 1359.897
593.5639, 1347.376
594.0460, 1340.083
594.5281, 1343.725
595.0103, 1352.010
595.4924, 1355.970
595.9745, 1355.531
596.4566, 1353.796
596.9387, 1349.905
597.4208, 1346.112
597.9030, 1343.397
598.3851, 1341.945
598.8672, 1341.825
599.3493, 1343.074
599.8314, 1345.873
600.3135, 1352.223
600.7957, 1362.626
601.2778, 1364.470
601.7599, 1349.782
602.2420, 1340.496
602.7241, 1358.073
603.2062, 1387.674
603.6884, 1401.136
604.1705, 1389.262
604.6526, 1375.210
605.1347, 1365.182
605.6168, 1359.449
606.0989, 1359.909
606.5811, 1365.476
607.0632, 1371.889
607.5453, 1376.817
608.0274, 1378.864
608.5095, 1371.906
608.9916, 1351.251
609.4738, 1337.127
609.9559, 1334.649
610.4380, 1337.980
610.9201, 1342.547
611.4022, 1348.912
611.8843, 1359.673
612.3665, 1387.910
612.8486, 1408.440
613.3307, 1395.661
613.8128, 1365.796
614.2949, 1348.749
614.7770, 1351.893
615.2592, 1365.344
615.7413, 1380.907
616.2234, 1398.183
616.7055, 1404.124
617.1876, 1390.300
617.6697, 1380.559
618.1519, 1382.917
618.6340, 1391.134
619.1161, 1402.464
619.5982, 1416.402
620.0803, 1424.542
620.5624, 1419.911
621.0446, 1410.156
621.5267, 1399.997
622.0088, 1391.265
622.4909, 1390.331
622.9730, 1400.067
623.4551, 1411.832
623.9373, 1411.142
624.4194, 1394.331
624.9015, 1384.801
625.3836, 1384.890
625.8657, 1389.574
626.3478, 1400.302
626.8300, 1412.788
627.3121, 1419.850
627.7942, 1418.713
628.2763, 1420.983
628.7584, 1439.598
629.2405, 1462.125
629.7227, 1468.267
