##NAMES=Columbite-(Mn)
##RRUFFID=R040083
##IDEAL CHEMISTRY=Mn^2+^Nb^5+^_2_O_6_
##LOCALITY=Mina Miramica, Santa Cruz, Bolivia
##OWNER=RRUFF
##SOURCE=University of Arizona Mineral Museum
##DESCRIPTION=Fragment consisting of multiple phases as shown by both X-ray diffraction and microprobe.
##STATUS=The identification of this mineral has been confirmed by X-ray diffraction and chemical analysis
##URL=rruff.info/R040083
##MEASURED CHEMISTRY=Light bands: (Mn^2+^_0.78_Fe^2+^_0.21_Ti_0.01_)(Nb_0.74_Ta_0.25_Ti_0.01_)_2_O_6_; Dark bands:(Mn^2+^_0.73_Fe^2+^_0.26_Ti_0.01_)(Nb_0.86_Ta_0.13_Ti_0.01_)_2_O_6_
129.7605, 14782.30
130.2426, 14742.32
130.7247, 14707.41
131.2068, 14670.88
131.6889, 14630.09
132.1711, 14582.23
132.6532, 14522.47
133.1353, 14447.23
133.6174, 14362.43
134.0995, 14268.45
134.5816, 14164.19
135.0638, 14063.43
135.5459, 13963.65
136.0280, 13863.64
136.5101, 13799.25
136.9922, 13781.52
137.4743, 13779.15
137.9565, 13731.30
138.4386, 13625.93
138.9207, 13524.95
139.4028, 13466.64
139.8849, 13466.73
140.3670, 13440.35
140.8492, 13379.01
141.3313, 13292.01
141.8134, 13209.58
142.2955, 13131.85
142.7776, 13060.17
143.2597, 12996.61
143.7419, 12951.26
144.2240, 12895.59
144.7061, 12820.29
145.1882, 12723.75
145.6703, 12652.84
146.1524, 12630.13
146.6346, 12614.81
147.1167, 12562.42
147.5988, 12423.40
148.0809, 12307.14
148.5630, 12245.59
149.0451, 12266.37
149.5273, 12252.98
150.0094, 12178.80
150.4915, 12074.09
150.9736, 11988.63
151.4557, 11930.92
151.9378, 11884.89
152.4200, 11845.28
152.9021, 11816.51
153.3842, 11786.24
153.8663, 11756.81
154.3484, 11725.55
154.8305, 11684.37
155.3127, 11623.45
155.7948, 11557.95
156.2769, 11496.71
156.7590, 11445.18
157.2411, 11394.12
157.7232, 11342.54
158.2053, 11290.74
158.6875, 11238.96
159.1696, 11187.48
159.6517, 11137.03
160.1338, 11088.28
160.6159, 11043.45
161.0980, 10999.22
161.5802, 10951.11
162.0623, 10898.49
162.5444, 10855.91
163.0265, 10846.58
163.5086, 10847.65
163.9907, 10827.65
164.4729, 10750.43
164.9550, 10664.09
165.4371, 10600.02
165.9192, 10567.80
166.4013, 10538.80
166.8834, 10491.16
167.3656, 10433.69
167.8477, 10386.71
168.3298, 10368.42
168.8119, 10361.35
169.2940, 10350.22
169.7761, 10333.71
170.2583, 10309.08
170.7404, 10272.38
171.2225, 10224.96
171.7046, 10173.24
172.1867, 10112.22
172.6688, 10051.12
173.1510, 10004.63
173.6331, 9987.641
174.1152, 9977.032
174.5973, 9949.036
175.0794, 9904.475
175.5615, 9851.178
176.0437, 9789.204
176.5258, 9722.989
177.0079, 9662.837
177.4900, 9615.130
177.9721, 9574.705
178.4542, 9534.310
178.9364, 9494.015
179.4185, 9453.479
179.9006, 9411.295
180.3827, 9368.477
180.8648, 9329.647
181.3469, 9297.021
181.8291, 9269.624
182.3112, 9247.816
182.7933, 9233.570
183.2754, 9217.582
183.7575, 9182.320
184.2396, 9130.652
184.7218, 9082.616
185.2039, 9049.626
185.6860, 9029.373
186.1681, 9015.954
186.6502, 9009.085
187.1323, 9006.993
187.6144, 9012.898
188.0966, 9026.441
188.5787, 9028.279
189.0608, 8994.066
189.5429, 8930.038
190.0250, 8884.014
190.5071, 8871.923
190.9893, 8877.204
191.4714, 8856.569
191.9535, 8808.451
192.4356, 8750.898
192.9177, 8694.566
193.3998, 8639.543
193.8820, 8597.291
194.3641, 8574.265
194.8462, 8566.253
195.3283, 8554.015
195.8104, 8537.387
196.2925, 8517.736
196.7747, 8494.642
197.2568, 8467.701
197.7389, 8444.064
198.2210, 8427.494
198.7031, 8417.219
199.1852, 8402.466
199.6674, 8381.937
200.1495, 8359.065
200.6316, 8338.270
201.1137, 8319.616
201.5958, 8302.099
202.0779, 8286.466
202.5601, 8273.008
203.0422, 8255.310
203.5243, 8231.353
204.0064, 8205.762
204.4885, 8189.635
204.9706, 8187.378
205.4528, 8178.578
205.9349, 8149.392
206.4170, 8093.661
206.8991, 8053.181
207.3812, 8032.616
207.8633, 8025.191
208.3455, 8016.687
208.8276, 8009.078
209.3097, 7995.415
209.7918, 7969.042
210.2739, 7924.664
210.7560, 7888.490
211.2382, 7862.654
211.7203, 7846.032
212.2024, 7836.886
212.6845, 7839.054
213.1666, 7840.933
213.6487, 7836.616
214.1309, 7828.455
214.6130, 7804.541
215.0951, 7755.131
215.5772, 7687.170
216.0593, 7645.870
216.5414, 7642.723
217.0236, 7648.352
217.5057, 7639.152
217.9878, 7609.074
218.4699, 7579.079
218.9520, 7549.750
219.4341, 7521.609
219.9162, 7509.803
220.3984, 7524.616
220.8805, 7543.005
221.3626, 7542.322
221.8447, 7513.713
222.3268, 7484.824
222.8089, 7458.076
223.2911, 7433.344
223.7732, 7421.954
224.2553, 7427.851
224.7374, 7442.916
225.2195, 7460.299
225.7016, 7488.817
226.1838, 7501.609
226.6659, 7486.070
227.1480, 7436.194
227.6301, 7405.277
228.1122, 7403.004
228.5943, 7411.543
229.0765, 7405.709
229.5586, 7375.303
230.0407, 7348.765
230.5228, 7336.295
231.0049, 7343.690
231.4870, 7339.838
231.9692, 7318.145
232.4513, 7289.668
232.9334, 7273.538
233.4155, 7280.120
233.8976, 7282.269
234.3797, 7267.591
234.8619, 7224.346
235.3440, 7203.703
235.8261, 7217.628
236.3082, 7248.456
236.7903, 7260.357
237.2724, 7243.474
237.7546, 7222.785
238.2367, 7207.733
238.7188, 7202.339
239.2009, 7192.882
239.6830, 7179.464
240.1651, 7161.762
240.6473, 7137.570
241.1294, 7098.541
241.6115, 7065.041
242.0936, 7047.016
242.5757, 7053.648
243.0578, 7055.985
243.5400, 7054.658
244.0221, 7048.843
244.5042, 7035.669
244.9863, 7012.798
245.4684, 6986.122
245.9505, 6957.022
246.4327, 6919.411
246.9148, 6892.999
247.3969, 6880.198
247.8790, 6879.086
248.3611, 6884.658
248.8432, 6903.815
249.3253, 6920.003
249.8075, 6922.900
250.2896, 6904.584
250.7717, 6890.665
251.2538, 6882.794
251.7359, 6880.310
252.2180, 6880.913
252.7002, 6886.413
253.1823, 6892.003
253.6644, 6894.583
254.1465, 6892.523
254.6286, 6890.908
255.1107, 6890.770
255.5929, 6891.325
256.0750, 6888.830
256.5571, 6882.683
257.0392, 6874.247
257.5213, 6862.384
258.0034, 6840.621
258.4856, 6833.505
258.9677, 6851.364
259.4498, 6887.181
259.9319, 6901.008
260.4140, 6884.772
260.8961, 6859.964
261.3783, 6841.744
261.8604, 6832.732
262.3425, 6822.668
262.8246, 6809.423
263.3067, 6794.135
263.7888, 6782.814
264.2710, 6775.953
264.7531, 6772.481
265.2352, 6772.789
265.7173, 6778.979
266.1994, 6781.358
266.6815, 6775.785
267.1637, 6764.835
267.6458, 6767.621
268.1279, 6792.109
268.6100, 6813.187
269.0921, 6805.425
269.5742, 6757.483
270.0564, 6728.213
270.5385, 6729.876
271.0206, 6757.271
271.5027, 6783.024
271.9848, 6808.991
272.4669, 6828.483
272.9491, 6833.588
273.4312, 6821.560
273.9133, 6812.373
274.3954, 6811.612
274.8775, 6816.368
275.3596, 6810.084
275.8418, 6790.091
276.3239, 6768.682
276.8060, 6756.267
277.2881, 6753.585
277.7702, 6753.997
278.2523, 6757.598
278.7345, 6763.148
279.2166, 6763.296
279.6987, 6755.748
280.1808, 6752.161
280.6629, 6766.316
281.1451, 6798.894
281.6272, 6823.900
282.1093, 6836.404
282.5914, 6837.791
283.0735, 6829.250
283.5556, 6808.481
284.0378, 6790.578
284.5199, 6792.386
285.0020, 6812.621
285.4841, 6823.146
285.9662, 6814.004
286.4483, 6795.000
286.9305, 6796.549
287.4126, 6820.445
287.8947, 6844.939
288.3768, 6851.719
288.8589, 6843.123
289.3410, 6835.357
289.8232, 6833.854
290.3053, 6833.084
290.7874, 6816.158
291.2695, 6783.040
291.7516, 6753.521
292.2337, 6746.415
292.7159, 6757.065
293.1980, 6766.893
293.6801, 6772.257
294.1622, 6774.900
294.6443, 6779.494
295.1264, 6785.521
295.6085, 6786.804
296.0906, 6768.765
296.5728, 6741.813
297.0549, 6735.966
297.5370, 6765.211
298.0191, 6805.060
298.5012, 6818.430
298.9833, 6808.421
299.4655, 6797.052
299.9476, 6805.645
300.4297, 6822.636
300.9118, 6824.562
301.3939, 6800.870
301.8760, 6772.958
302.3582, 6763.814
302.8403, 6771.741
303.3224, 6789.563
303.8045, 6825.750
304.2866, 6864.921
304.7687, 6884.044
305.2509, 6871.992
305.7330, 6854.762
306.2151, 6859.528
306.6972, 6879.290
307.1793, 6892.710
307.6614, 6876.338
308.1436, 6852.454
308.6257, 6844.404
309.1078, 6860.242
309.5899, 6880.798
310.0720, 6895.230
310.5541, 6904.331
311.0363, 6910.232
311.5184, 6910.873
312.0005, 6910.707
312.4826, 6913.054
312.9647, 6918.441
313.4468, 6926.305
313.9290, 6932.762
314.4111, 6941.771
314.8932, 6960.547
315.3753, 7008.779
315.8574, 7055.452
316.3395, 7081.672
316.8217, 7081.931
317.3038, 7075.753
317.7859, 7057.674
318.2680, 7040.077
318.7501, 7041.115
319.2322, 7082.783
319.7144, 7130.462
320.1965, 7171.219
320.6786, 7204.595
321.1607, 7228.462
321.6428, 7234.968
322.1249, 7233.880
322.6071, 7236.923
323.0892, 7247.832
323.5713, 7261.622
324.0534, 7277.989
324.5355, 7297.636
325.0176, 7314.396
325.4998, 7325.638
325.9819, 7334.435
326.4640, 7343.912
326.9461, 7350.628
327.4282, 7361.855
327.9103, 7380.776
328.3925, 7408.148
328.8746, 7431.857
329.3567, 7453.663
329.8388, 7470.736
330.3209, 7479.945
330.8030, 7469.777
331.2852, 7469.427
331.7673, 7485.823
332.2494, 7517.663
332.7315, 7546.813
333.2136, 7575.821
333.6957, 7599.597
334.1779, 7612.122
334.6600, 7602.119
335.1421, 7608.726
335.6242, 7643.110
336.1063, 7697.463
336.5884, 7733.398
337.0706, 7743.985
337.5527, 7751.049
338.0348, 7767.799
338.5169, 7795.492
338.9990, 7827.133
339.4811, 7864.097
339.9633, 7903.314
340.4454, 7936.531
340.9275, 7962.889
341.4096, 7988.196
341.8917, 8015.891
342.3738, 8045.660
342.8560, 8075.676
343.3381, 8105.478
343.8202, 8135.559
344.3023, 8167.786
344.7844, 8201.972
345.2665, 8234.333
345.7487, 8258.588
346.2308, 8278.161
346.7129, 8310.496
347.1950, 8358.326
347.6771, 8409.403
348.1592, 8448.646
348.6414, 8477.064
349.1235, 8498.519
349.6056, 8509.547
350.0877, 8515.980
350.5698, 8529.831
351.0519, 8551.706
351.5341, 8576.381
352.0162, 8594.127
352.4983, 8610.880
352.9804, 8639.022
353.4625, 8696.326
353.9446, 8758.986
354.4268, 8798.001
354.9089, 8814.521
355.3910, 8829.407
355.8731, 8850.947
356.3552, 8880.701
356.8373, 8921.575
357.3195, 8987.684
357.8015, 9050.385
358.2837, 9084.423
358.7658, 9095.919
359.2479, 9113.758
359.7300, 9160.830
360.2121, 9215.274
360.6942, 9260.865
361.1764, 9289.135
361.6585, 9316.102
362.1406, 9348.993
362.6227, 9385.625
363.1048, 9419.571
363.5869, 9444.037
364.0691, 9469.584
364.5512, 9500.487
365.0333, 9534.140
365.5154, 9580.254
365.9975, 9649.333
366.4796, 9730.154
366.9618, 9804.012
367.4439, 9869.472
367.9260, 9925.591
368.4081, 9967.540
368.8902, 9988.814
369.3723, 10021.32
369.8545, 10078.87
370.3366, 10139.04
370.8187, 10173.65
371.3008, 10148.66
371.7829, 10152.15
372.2650, 10213.07
372.7472, 10331.76
373.2293, 10417.79
373.7114, 10463.71
374.1935, 10487.51
374.6756, 10498.33
375.1577, 10487.43
375.6399, 10498.05
376.1220, 10543.63
376.6041, 10614.37
377.0862, 10670.34
377.5683, 10708.04
378.0504, 10743.89
378.5326, 10789.84
379.0147, 10846.00
379.4968, 10897.31
379.9789, 10939.15
380.4610, 10979.12
380.9431, 11033.96
381.4253, 11103.54
381.9074, 11172.12
382.3895, 11228.02
382.8716, 11275.64
383.3537, 11327.90
383.8358, 11386.41
384.3180, 11447.57
384.8001, 11518.10
385.2822, 11591.13
385.7643, 11645.39
386.2464, 11651.51
386.7285, 11642.85
387.2107, 11669.17
387.6928, 11731.99
388.1749, 11795.05
388.6570, 11829.63
389.1391, 11848.17
389.6212, 11867.25
390.1034, 11882.71
390.5855, 11909.88
391.0676, 11963.36
391.5497, 12040.33
392.0318, 12122.04
392.5139, 12214.76
392.9961, 12300.33
393.4782, 12363.87
393.9603, 12383.30
394.4424, 12409.40
394.9245, 12460.29
395.4066, 12530.01
395.8888, 12602.66
396.3709, 12674.92
396.8530, 12749.77
397.3351, 12827.33
397.8172, 12904.27
398.2993, 12992.11
398.7815, 13104.25
399.2636, 13223.21
399.7457, 13324.50
400.2278, 13372.60
400.7099, 13447.21
401.1920, 13574.28
401.6742, 13756.53
402.1563, 13920.49
402.6384, 14049.51
403.1205, 14180.17
403.6026, 14351.06
404.0847, 14578.01
404.5669, 14787.62
405.0490, 14962.18
405.5311, 15112.44
406.0132, 15281.42
406.4953, 15467.79
406.9774, 15671.77
407.4596, 15897.98
407.9417, 16146.97
408.4238, 16394.58
408.9059, 16636.55
409.3880, 16878.82
409.8701, 17125.68
410.3523, 17378.90
410.8344, 17645.36
411.3165, 17935.59
411.7986, 18245.24
412.2807, 18555.52
412.7628, 18869.11
413.2450, 19179.81
413.7271, 19480.16
414.2092, 19770.76
414.6913, 20051.09
415.1734, 20310.59
415.6555, 20565.23
416.1377, 20838.98
416.6198, 21128.93
417.1019, 21394.41
417.5840, 21606.66
418.0661, 21789.66
418.5482, 21962.91
419.0303, 22132.60
419.5125, 22294.85
419.9946, 22458.57
420.4767, 22614.57
420.9588, 22739.60
421.4409, 22840.43
421.9230, 22899.00
422.4052, 22898.08
422.8873, 22812.21
423.3694, 22741.82
423.8515, 22728.60
424.3336, 22726.89
424.8157, 22680.94
425.2979, 22550.00
425.7800, 22427.37
426.2621, 22334.19
426.7442, 22270.59
427.2263, 22187.51
427.7084, 22070.60
428.1906, 21952.28
428.6727, 21850.89
429.1548, 21763.00
429.6369, 21709.56
430.1190, 21703.89
430.6011, 21726.99
431.0833, 21719.31
431.5654, 21671.95
432.0475, 21647.53
432.5296, 21686.75
433.0117, 21783.15
433.4938, 21880.82
433.9760, 21978.30
434.4581, 22073.28
434.9402, 22152.44
435.4223, 22222.67
435.9044, 22316.29
436.3865, 22452.49
436.8687, 22614.52
437.3508, 22776.07
437.8329, 22938.01
438.3150, 23111.01
438.7971, 23290.81
439.2792, 23491.40
439.7614, 23731.69
440.2435, 24033.60
440.7256, 24348.45
441.2077, 24630.31
441.6898, 24899.90
442.1719, 25209.34
442.6541, 25596.21
443.1362, 26018.64
443.6183, 26447.12
444.1004, 26876.37
444.5825, 27337.97
445.0646, 27856.41
445.5468, 28407.73
446.0289, 28965.14
446.5110, 29477.72
446.9931, 30051.04
447.4752, 30733.75
447.9573, 31511.07
448.4395, 32248.28
448.9216, 32896.58
449.4037, 33551.65
449.8858, 34277.59
450.3679, 35093.21
450.8500, 35901.23
451.3322, 36704.33
451.8143, 37488.39
452.2964, 38262.48
452.7785, 39032.63
453.2606, 39772.07
453.7427, 40478.18
454.2249, 41146.64
454.7070, 41794.76
455.1891, 42429.45
455.6712, 43024.50
456.1533, 43558.04
456.6354, 44030.74
457.1176, 44454.68
457.5997, 44834.71
458.0818, 45161.05
458.5639, 45431.33
459.0460, 45639.84
459.5281, 45738.25
460.0103, 45652.99
460.4924, 45464.48
460.9745, 45267.12
461.4566, 45089.50
461.9387, 44832.44
462.4208, 44407.26
462.9030, 43866.21
463.3851, 43306.25
463.8672, 42749.26
464.3493, 42174.14
464.8314, 41565.09
465.3135, 40924.67
465.7957, 40286.13
466.2778, 39647.91
466.7599, 39025.51
467.2420, 38428.98
467.7241, 37869.59
468.2062, 37321.98
468.6884, 36774.76
469.1705, 36245.30
469.6526, 35768.29
470.1347, 35357.64
470.6168, 34978.95
471.0989, 34612.78
471.5811, 34260.36
472.0632, 33970.44
472.5453, 33750.18
473.0274, 33571.67
473.5095, 33409.98
473.9916, 33263.21
474.4738, 33126.38
474.9559, 32993.52
475.4380, 32873.48
475.9201, 32796.44
476.4022, 32757.30
476.8843, 32717.32
477.3665, 32635.99
477.8486, 32541.85
478.3307, 32487.81
478.8128, 32487.99
479.2949, 32485.39
479.7770, 32432.65
480.2592, 32347.69
480.7413, 32258.53
481.2234, 32154.31
481.7055, 32067.67
482.1876, 32031.01
482.6697, 32037.71
483.1518, 32019.13
483.6339, 31914.00
484.1161, 31805.03
484.5982, 31743.60
485.0803, 31779.71
485.5624, 31792.01
486.0445, 31753.41
486.5266, 31695.31
487.0088, 31673.29
487.4909, 31704.08
487.9730, 31743.48
488.4551, 31781.74
488.9372, 31818.81
489.4193, 31856.04
489.9015, 31894.19
490.3836, 31932.21
490.8657, 31969.64
491.3478, 32006.04
491.8299, 32040.49
492.3120, 32067.03
492.7942, 32101.88
493.2763, 32196.80
493.7584, 32339.05
494.2405, 32447.38
494.7226, 32456.57
495.2047, 32411.44
495.6869, 32383.23
496.1690, 32374.63
496.6511, 32360.27
497.1332, 32315.03
497.6153, 32255.31
498.0974, 32203.21
498.5796, 32197.98
499.0617, 32160.71
499.5438, 32023.24
500.0259, 31822.04
500.5080, 31654.34
500.9901, 31596.91
501.4723, 31539.08
501.9544, 31422.90
502.4365, 31215.37
502.9186, 31055.73
503.4007, 30978.59
503.8828, 30927.47
504.3650, 30847.29
504.8471, 30714.08
505.3292, 30602.69
505.8113, 30529.53
506.2934, 30483.68
506.7755, 30422.35
507.2577, 30339.79
507.7398, 30272.64
508.2219, 30255.08
508.7040, 30280.19
509.1861, 30272.18
509.6682, 30225.45
510.1504, 30174.50
510.6325, 30153.28
511.1146, 30159.81
511.5967, 30188.90
512.0788, 30256.22
512.5609, 30327.09
513.0430, 30355.86
513.5251, 30352.21
514.0073, 30354.40
514.4894, 30383.95
514.9715, 30426.51
515.4536, 30475.74
515.9357, 30534.37
516.4178, 30577.51
516.9000, 30605.33
517.3821, 30607.90
517.8642, 30575.05
518.3463, 30499.88
518.8284, 30392.09
519.3105, 30242.74
519.7927, 30059.24
520.2748, 29879.72
520.7569, 29715.27
521.2390, 29538.01
521.7211, 29330.64
522.2032, 29088.09
522.6854, 28857.30
523.1675, 28652.30
523.6496, 28432.90
524.1317, 28131.18
524.6138, 27750.75
525.0959, 27392.59
525.5781, 27087.26
526.0602, 26809.78
526.5423, 26513.94
527.0244, 26206.13
527.5065, 25893.59
527.9886, 25574.30
528.4708, 25258.17
528.9529, 24950.70
529.4350, 24655.26
529.9171, 24369.07
530.3992, 24086.78
530.8813, 23818.66
531.3635, 23572.93
531.8456, 23387.96
532.3277, 23190.43
532.8098, 22947.37
533.2919, 22671.63
533.7740, 22425.66
534.2562, 22232.33
534.7383, 22049.27
535.2204, 21859.20
535.7025, 21660.81
536.1846, 21463.67
536.6667, 21256.98
537.1489, 21064.23
537.6310, 20915.14
538.1131, 20817.16
538.5952, 20701.10
539.0773, 20546.93
539.5594, 20375.62
540.0416, 20232.54
540.5237, 20114.80
541.0058, 20002.16
541.4879, 19887.94
541.9700, 19770.12
542.4521, 19639.43
542.9343, 19495.71
543.4164, 19362.42
543.8985, 19263.84
544.3806, 19182.54
544.8627, 19098.75
545.3448, 18997.73
545.8270, 18908.85
546.3091, 18857.28
546.7912, 18826.44
547.2733, 18782.11
547.7554, 18702.62
548.2375, 18623.35
548.7197, 18555.51
549.2018, 18499.60
549.6839, 18437.24
550.1660, 18348.93
550.6481, 18279.97
551.1302, 18274.20
551.6124, 18352.58
552.0945, 18381.58
552.5766, 18341.61
553.0587, 18266.71
553.5408, 18206.30
554.0229, 18159.97
554.5051, 18128.64
554.9872, 18124.26
555.4693, 18127.36
555.9514, 18088.90
556.4335, 18015.05
556.9156, 17959.93
557.3978, 17996.93
557.8799, 18052.66
558.3620, 18036.26
558.8441, 17913.67
559.3262, 17815.27
559.8083, 17835.89
560.2905, 17906.00
560.7726, 17944.51
561.2547, 17893.58
561.7368, 17854.14
562.2189, 17855.51
562.7010, 17886.38
563.1832, 17900.75
563.6653, 17878.49
564.1474, 17870.42
564.6295, 17905.07
565.1116, 17988.30
565.5938, 18034.35
566.0759, 18031.91
566.5580, 18022.87
567.0401, 18054.95
567.5222, 18122.66
568.0043, 18180.16
568.4865, 18215.69
568.9686, 18242.82
569.4507, 18281.68
569.9328, 18328.28
570.4149, 18372.23
570.8970, 18396.16
571.3792, 18423.08
571.8613, 18475.79
572.3434, 18553.47
572.8255, 18631.61
573.3076, 18698.71
573.7897, 18762.01
574.2719, 18826.79
574.7540, 18900.08
575.2361, 18962.72
575.7182, 18997.20
576.2003, 19027.62
576.6824, 19085.24
577.1646, 19183.56
577.6467, 19280.43
578.1288, 19366.98
578.6109, 19446.54
579.0930, 19535.65
579.5751, 19636.01
580.0573, 19733.02
580.5394, 19811.22
581.0215, 19878.80
581.5036, 19965.56
581.9857, 20071.99
582.4678, 20190.39
582.9500, 20322.68
583.4321, 20459.80
583.9142, 20583.83
584.3963, 20683.89
584.8784, 20781.90
585.3605, 20883.50
585.8427, 20992.76
586.3248, 21117.00
586.8069, 21260.51
587.2890, 21417.87
587.7711, 21597.42
588.2532, 21799.49
588.7354, 21976.86
589.2175, 22110.24
589.6996, 22243.81
590.1817, 22401.68
590.6638, 22586.90
591.1459, 22785.54
591.6281, 23000.88
592.1102, 23221.53
592.5923, 23429.84
593.0744, 23628.08
593.5565, 23835.41
594.0386, 24060.07
594.5208, 24291.85
595.0029, 24521.04
595.4850, 24744.07
595.9671, 24956.97
596.4492, 25128.31
596.9313, 25308.82
597.4135, 25559.04
597.8956, 25877.84
598.3777, 26173.39
598.8598, 26396.53
599.3419, 26595.56
599.8240, 26799.88
600.3062, 27010.67
600.7883, 27237.60
601.2704, 27479.98
601.7525, 27735.04
602.2346, 28001.73
602.7167, 28286.32
603.1989, 28550.58
603.6810, 28778.29
604.1631, 28983.29
604.6452, 29216.51
605.1273, 29473.20
605.6094, 29739.08
606.0916, 30028.52
606.5737, 30312.92
607.0558, 30533.13
607.5379, 30686.04
608.0200, 30823.13
608.5021, 30972.43
608.9843, 31129.57
609.4664, 31293.50
609.9485, 31480.31
610.4306, 31643.98
610.9127, 31754.20
611.3948, 31838.36
611.8770, 31932.97
612.3591, 32073.88
612.8412, 32190.89
613.3233, 32268.68
613.8054, 32316.61
614.2875, 32374.76
614.7697, 32451.61
615.2518, 32510.62
615.7339, 32528.09
616.2160, 32507.59
616.6981, 32485.73
617.1802, 32460.90
617.6624, 32440.07
618.1445, 32442.39
618.6266, 32450.09
619.1087, 32427.89
619.5908, 32366.61
620.0729, 32282.89
620.5551, 32185.98
621.0372, 32077.60
