##NAMES=Colusite
##RRUFFID=R070568
##IDEAL CHEMISTRY=Cu^1+^_12_Cu^2+^V^3+^As^5+^_3_S^2-^_16_
##LOCALITY=East Colusa mine, Butte, Silver Bow County, Montana, USA
##OWNER=RRUFF
##SOURCE=James Shigley
##DESCRIPTION=Metallic bronze massive associated with quartz and pyrite
##STATUS=The identification of this mineral has been confirmed only by single crystal X-ray diffraction.
##URL=rruff.info/R070568
134.5997, 2522.479
135.0819, 2575.925
135.5640, 2636.934
136.0461, 2699.243
136.5282, 2747.867
137.0103, 2782.066
137.4924, 2808.458
137.9746, 2827.238
138.4567, 2837.570
138.9388, 2860.849
139.4209, 2910.278
139.9030, 2982.457
140.3851, 3024.611
140.8673, 3027.995
141.3494, 3014.932
141.8315, 3017.547
142.3136, 3039.701
142.7957, 3065.195
143.2778, 3089.139
143.7600, 3112.963
144.2421, 3127.767
144.7242, 3126.445
145.2063, 3116.100
145.6884, 3120.821
146.1705, 3131.188
146.6527, 3148.339
147.1348, 3153.003
147.6169, 3134.287
148.0990, 3124.203
148.5811, 3133.529
149.0633, 3165.547
149.5454, 3171.123
150.0275, 3129.739
150.5096, 3074.351
150.9917, 3044.018
151.4738, 3065.760
151.9560, 3083.023
152.4381, 3081.312
152.9202, 3052.183
153.4023, 3020.644
153.8844, 2975.099
154.3665, 2925.979
154.8487, 2900.938
155.3308, 2924.671
155.8129, 2955.657
156.2950, 2974.100
156.7771, 2980.061
157.2592, 2972.632
157.7414, 2944.774
158.2235, 2897.526
158.7056, 2858.650
159.1877, 2836.429
159.6698, 2823.104
160.1519, 2811.481
160.6341, 2796.960
161.1162, 2786.259
161.5983, 2783.628
162.0804, 2792.128
162.5625, 2797.867
163.0446, 2793.955
163.5268, 2784.638
164.0089, 2777.921
164.4910, 2782.635
164.9731, 2787.034
165.4552, 2783.308
165.9373, 2762.862
166.4195, 2743.615
166.9016, 2732.675
167.3837, 2729.430
167.8658, 2730.965
168.3479, 2738.237
168.8300, 2748.648
169.3122, 2759.607
169.7943, 2771.241
170.2764, 2782.080
170.7585, 2791.250
171.2406, 2798.708
171.7227, 2804.435
172.2049, 2809.132
172.6870, 2812.074
173.1691, 2811.943
173.6512, 2799.540
174.1333, 2787.827
174.6154, 2790.691
175.0976, 2813.021
175.5797, 2841.728
176.0618, 2870.933
176.5439, 2898.587
177.0260, 2917.816
177.5081, 2918.734
177.9903, 2909.405
178.4724, 2901.579
178.9545, 2894.009
179.4366, 2892.906
179.9187, 2911.583
180.4008, 2949.134
180.8830, 2984.917
181.3651, 2993.083
181.8472, 2984.406
182.3293, 2985.932
182.8114, 3023.056
183.2935, 3074.109
183.7757, 3094.696
184.2578, 3079.575
184.7399, 3056.932
185.2220, 3061.061
185.7041, 3088.148
186.1862, 3117.488
186.6684, 3137.353
187.1505, 3150.680
187.6326, 3167.853
188.1147, 3193.039
188.5968, 3217.183
189.0790, 3219.700
189.5611, 3201.100
190.0432, 3183.676
190.5253, 3186.275
191.0074, 3205.836
191.4895, 3225.729
191.9717, 3244.592
192.4538, 3260.537
192.9359, 3266.095
193.4180, 3259.760
193.9001, 3252.557
194.3822, 3257.596
194.8644, 3274.389
195.3465, 3290.477
195.8286, 3303.271
196.3107, 3312.410
196.7928, 3313.541
197.2749, 3304.618
197.7571, 3292.840
198.2392, 3289.350
198.7213, 3294.526
199.2034, 3303.031
199.6855, 3314.579
200.1676, 3329.252
200.6498, 3337.397
201.1319, 3337.287
201.6140, 3331.191
202.0961, 3324.947
202.5782, 3318.910
203.0603, 3310.527
203.5425, 3296.586
204.0246, 3276.313
204.5067, 3257.931
204.9888, 3243.766
205.4709, 3232.552
205.9530, 3216.407
206.4352, 3193.442
206.9173, 3170.023
207.3994, 3152.457
207.8815, 3141.714
208.3636, 3132.239
208.8457, 3123.492
209.3279, 3115.550
209.8100, 3105.087
210.2921, 3093.245
210.7742, 3077.418
211.2563, 3052.314
211.7384, 3015.080
212.2206, 2977.987
212.7027, 2945.676
213.1848, 2918.896
213.6669, 2893.072
214.1490, 2866.394
214.6311, 2841.841
215.1133, 2828.235
215.5954, 2830.714
216.0775, 2832.226
216.5596, 2823.193
217.0417, 2801.142
217.5238, 2776.286
218.0060, 2746.005
218.4881, 2712.881
218.9702, 2692.688
219.4523, 2688.136
219.9344, 2691.120
220.4165, 2697.882
220.8987, 2713.993
221.3808, 2718.694
221.8629, 2705.272
222.3450, 2673.943
222.8271, 2647.839
223.3092, 2625.318
223.7914, 2609.948
224.2735, 2608.392
224.7556, 2630.089
225.2377, 2645.709
225.7198, 2646.753
226.2020, 2630.727
226.6841, 2615.880
227.1662, 2601.961
227.6483, 2589.732
228.1304, 2580.679
228.6125, 2574.625
229.0947, 2571.907
229.5768, 2573.334
230.0589, 2581.229
230.5410, 2586.583
231.0231, 2588.143
231.5052, 2587.386
231.9874, 2587.965
232.4695, 2589.210
232.9516, 2592.667
233.4337, 2599.870
233.9158, 2614.532
234.3979, 2624.389
234.8801, 2625.670
235.3622, 2620.957
235.8443, 2625.498
236.3264, 2647.297
236.8085, 2668.718
237.2906, 2676.921
237.7728, 2664.192
238.2549, 2653.365
238.7370, 2646.650
239.2191, 2644.072
239.7012, 2646.244
240.1833, 2654.997
240.6655, 2666.615
241.1476, 2677.824
241.6297, 2689.640
242.1118, 2699.113
242.5939, 2704.529
243.0760, 2704.973
243.5582, 2708.866
244.0403, 2713.704
244.5224, 2723.992
245.0045, 2747.797
245.4866, 2797.329
245.9688, 2839.610
246.4509, 2863.253
246.9330, 2862.616
247.4151, 2864.742
247.8972, 2870.966
248.3793, 2879.211
248.8615, 2884.144
249.3436, 2877.842
249.8257, 2880.726
250.3078, 2904.130
250.7899, 2964.869
251.2720, 3003.621
251.7542, 3006.116
252.2363, 2989.564
252.7184, 3005.223
253.2005, 3073.465
253.6826, 3142.932
254.1647, 3185.512
254.6469, 3186.801
255.1290, 3194.423
255.6111, 3212.554
256.0932, 3239.117
256.5753, 3264.447
257.0574, 3289.505
257.5396, 3311.963
258.0217, 3329.131
258.5038, 3335.818
258.9859, 3350.248
259.4680, 3378.099
259.9501, 3417.384
260.4323, 3444.324
260.9144, 3450.705
261.3965, 3455.749
261.8786, 3478.352
262.3607, 3528.396
262.8428, 3570.960
263.3250, 3597.556
263.8071, 3608.520
264.2892, 3622.597
264.7713, 3642.838
265.2534, 3662.393
265.7355, 3671.335
266.2177, 3662.918
266.6998, 3662.004
267.1819, 3678.492
267.6640, 3713.774
268.1461, 3736.799
268.6282, 3744.919
269.1104, 3743.399
269.5925, 3735.728
270.0746, 3716.155
270.5567, 3707.830
271.0388, 3725.374
271.5209, 3774.870
272.0031, 3796.630
272.4852, 3781.972
272.9673, 3750.185
273.4494, 3732.982
273.9315, 3734.155
274.4136, 3737.998
274.8958, 3741.864
275.3779, 3748.307
275.8600, 3735.143
276.3421, 3695.725
276.8242, 3643.673
277.3063, 3605.710
277.7885, 3583.548
278.2706, 3568.251
278.7527, 3557.573
279.2348, 3552.417
279.7169, 3541.102
280.1990, 3520.896
280.6812, 3496.286
281.1633, 3477.651
281.6454, 3465.253
282.1275, 3456.102
282.6096, 3450.458
283.0917, 3448.562
283.5739, 3440.556
284.0560, 3423.700
284.5381, 3401.895
285.0202, 3387.068
285.5023, 3380.681
285.9844, 3371.115
286.4666, 3346.607
286.9487, 3308.036
287.4308, 3275.959
287.9129, 3254.283
288.3950, 3240.892
288.8771, 3232.863
289.3593, 3230.819
289.8414, 3227.852
290.3235, 3216.572
290.8056, 3198.240
291.2877, 3183.008
291.7699, 3174.085
292.2520, 3168.633
292.7341, 3157.186
293.2162, 3139.183
293.6983, 3125.248
294.1805, 3130.683
294.6626, 3150.661
295.1447, 3160.883
295.6268, 3150.554
296.1089, 3129.225
296.5910, 3116.142
297.0732, 3111.372
297.5553, 3111.284
298.0374, 3119.293
298.5195, 3130.792
299.0016, 3129.212
299.4837, 3099.847
299.9659, 3059.715
300.4480, 3040.301
300.9301, 3041.919
301.4122, 3047.792
301.8943, 3042.151
302.3764, 3029.066
302.8586, 3018.516
303.3407, 3015.608
303.8228, 3016.664
304.3049, 3016.991
304.7870, 3016.618
305.2691, 3015.764
305.7513, 3012.897
306.2334, 3009.752
306.7155, 3009.664
307.1976, 3014.742
307.6797, 3023.176
308.1618, 3036.471
308.6440, 3055.033
309.1261, 3066.124
309.6082, 3045.873
310.0903, 3013.136
310.5724, 2999.413
311.0545, 3036.647
311.5367, 3086.168
312.0188, 3114.070
312.5009, 3118.960
312.9830, 3119.855
313.4651, 3129.171
313.9472, 3142.298
314.4294, 3152.394
314.9115, 3150.755
315.3936, 3149.696
315.8757, 3155.849
316.3578, 3169.583
316.8399, 3191.999
317.3221, 3229.603
317.8042, 3274.681
318.2863, 3317.819
318.7684, 3363.504
319.2505, 3399.733
319.7326, 3412.400
320.2148, 3395.275
320.6969, 3395.540
321.1790, 3442.797
321.6611, 3512.963
322.1432, 3575.673
322.6253, 3618.612
323.1075, 3655.493
323.5896, 3689.375
324.0717, 3718.784
324.5538, 3752.723
325.0359, 3797.911
325.5180, 3847.101
326.0002, 3891.530
326.4823, 3920.719
326.9644, 3953.514
327.4465, 3996.733
327.9286, 4053.856
328.4107, 4109.250
328.8929, 4170.549
329.3750, 4227.085
329.8571, 4266.623
330.3392, 4278.930
330.8213, 4284.120
331.3034, 4283.605
331.7856, 4273.809
332.2677, 4273.368
332.7498, 4294.559
333.2319, 4318.816
333.7140, 4322.761
334.1961, 4294.570
334.6783, 4261.866
335.1604, 4229.699
335.6425, 4196.809
336.1246, 4170.985
336.6067, 4159.656
337.0888, 4149.019
337.5710, 4120.139
338.0531, 4064.044
338.5352, 4008.691
339.0173, 3962.074
339.4994, 3924.996
339.9815, 3882.047
340.4637, 3830.054
340.9458, 3777.050
341.4279, 3734.678
341.9100, 3706.719
342.3921, 3672.588
342.8742, 3621.928
343.3564, 3556.640
343.8385, 3505.420
344.3206, 3471.453
344.8027, 3445.625
345.2848, 3418.036
345.7669, 3388.277
346.2491, 3362.480
346.7312, 3341.667
347.2133, 3326.191
347.6954, 3321.431
348.1775, 3330.039
348.6596, 3334.636
349.1418, 3307.486
349.6239, 3254.391
350.1060, 3215.686
350.5881, 3211.298
351.0702, 3228.382
351.5523, 3236.296
352.0345, 3234.691
352.5166, 3230.575
352.9987, 3228.912
353.4808, 3229.741
353.9629, 3233.107
354.4450, 3236.003
354.9272, 3243.197
355.4093, 3263.588
355.8914, 3296.959
356.3735, 3333.032
356.8556, 3363.779
357.3377, 3392.281
357.8199, 3424.026
358.3020, 3467.785
358.7841, 3509.695
359.2662, 3535.425
359.7483, 3546.617
360.2304, 3558.098
360.7126, 3574.576
361.1947, 3597.661
361.6768, 3629.342
362.1589, 3672.159
362.6410, 3721.672
363.1231, 3777.545
363.6053, 3839.372
364.0874, 3902.286
364.5695, 3968.474
365.0516, 4033.096
365.5337, 4092.487
366.0158, 4145.063
366.4980, 4192.864
366.9801, 4233.835
367.4622, 4269.166
367.9443, 4304.439
368.4264, 4338.170
368.9085, 4373.309
369.3907, 4411.400
369.8728, 4474.452
370.3549, 4514.726
370.8370, 4514.096
371.3191, 4484.677
371.8012, 4472.870
372.2834, 4494.770
372.7655, 4519.750
373.2476, 4534.646
373.7297, 4535.773
374.2119, 4534.170
374.6940, 4529.371
375.1761, 4522.297
375.6582, 4513.796
376.1403, 4499.038
376.6224, 4491.292
377.1046, 4498.435
377.5867, 4526.320
378.0688, 4547.427
378.5509, 4560.594
379.0330, 4567.822
379.5151, 4571.123
379.9973, 4568.696
380.4794, 4569.472
380.9615, 4574.613
381.4436, 4583.997
381.9257, 4609.510
382.4078, 4654.377
382.8900, 4707.538
383.3721, 4720.257
383.8542, 4816.784
384.3363, 4894.255
384.8184, 4953.689
385.3005, 4941.076
385.7827, 5021.511
386.2648, 5064.646
386.7469, 5106.253
387.2290, 5199.771
387.7111, 5197.635
388.1932, 5290.330
388.6754, 5345.181
389.1575, 5417.343
389.6396, 5454.099
390.1217, 5526.738
390.6038, 5602.152
391.0859, 5677.809
391.5681, 5752.009
392.0502, 5822.108
392.5323, 5887.320
393.0144, 5948.148
393.4965, 6004.319
393.9786, 6056.450
394.4608, 6105.378
394.9429, 6144.649
395.4250, 6184.160
395.9071, 6233.116
396.3892, 6316.215
396.8713, 6385.193
397.3535, 6424.136
397.8356, 6434.874
398.3177, 6427.302
398.7998, 6396.225
399.2819, 6352.397
399.7640, 6301.910
400.2462, 6249.519
400.7283, 6185.056
401.2104, 6106.458
401.6925, 6014.880
402.1746, 5914.585
402.6567, 5814.010
403.1389, 5696.945
403.6210, 5554.411
404.1031, 5367.480
404.5852, 5197.282
405.0673, 5052.677
405.5494, 4919.002
406.0316, 4767.994
406.5137, 4590.308
406.9958, 4414.794
407.4779, 4248.848
407.9600, 4090.708
408.4421, 3954.917
408.9243, 3843.867
409.4064, 3748.242
409.8885, 3659.143
410.3706, 3576.509
410.8527, 3494.117
411.3348, 3407.190
411.8170, 3318.823
412.2991, 3238.598
412.7812, 3166.989
413.2633, 3104.876
413.7454, 3055.448
414.2275, 3017.359
414.7097, 2986.981
415.1918, 2967.164
415.6739, 2951.347
416.1560, 2929.181
416.6381, 2901.155
417.1202, 2870.932
417.6024, 2837.640
418.0845, 2804.955
418.5666, 2777.639
419.0487, 2757.546
419.5308, 2742.077
420.0129, 2731.238
420.4951, 2723.827
420.9772, 2715.583
421.4593, 2699.098
421.9414, 2684.272
422.4235, 2680.193
422.9056, 2695.864
423.3878, 2705.716
423.8699, 2696.176
424.3520, 2675.298
424.8341, 2659.130
425.3162, 2650.003
425.7983, 2647.012
426.2805, 2652.229
426.7626, 2671.639
427.2447, 2681.156
427.7268, 2672.795
428.2089, 2657.416
428.6910, 2647.424
429.1732, 2643.038
429.6553, 2643.791
430.1374, 2650.969
430.6195, 2664.925
431.1016, 2676.964
431.5837, 2687.837
432.0659, 2695.695
432.5480, 2695.801
433.0301, 2684.579
433.5122, 2685.101
433.9943, 2705.351
434.4764, 2738.726
434.9586, 2761.348
435.4407, 2771.701
435.9228, 2781.688
436.4049, 2804.082
436.8870, 2835.337
437.3691, 2849.824
437.8513, 2833.328
438.3334, 2821.306
438.8155, 2886.900
439.2976, 3014.852
439.7797, 3119.438
440.2618, 3136.796
440.7440, 3107.290
441.2261, 3082.809
441.7082, 3066.937
442.1903, 3063.267
442.6724, 3082.998
443.1545, 3116.152
443.6367, 3144.919
444.1188, 3156.250
444.6009, 3165.522
445.0830, 3174.347
445.5651, 3182.416
446.0472, 3214.731
446.5294, 3325.169
447.0115, 3443.063
447.4936, 3504.244
447.9757, 3448.407
448.4578, 3387.060
448.9399, 3333.375
449.4221, 3288.288
449.9042, 3259.329
450.3863, 3262.461
450.8684, 3266.997
451.3505, 3257.371
451.8326, 3227.601
452.3148, 3195.451
452.7969, 3159.568
453.2790, 3122.077
453.7611, 3089.102
454.2432, 3062.161
454.7253, 3034.808
455.2075, 3004.790
455.6896, 2971.688
456.1717, 2935.689
456.6538, 2894.545
457.1360, 2855.677
457.6181, 2829.253
458.1002, 2814.537
458.5823, 2806.267
459.0644, 2804.798
459.5465, 2807.478
460.0287, 2810.896
460.5108, 2814.866
460.9929, 2813.020
461.4750, 2791.608
461.9571, 2762.338
462.4392, 2746.803
462.9214, 2759.555
463.4035, 2774.221
463.8856, 2765.805
464.3677, 2740.420
464.8498, 2718.313
465.3319, 2713.001
465.8141, 2711.697
466.2962, 2705.950
466.7783, 2693.724
467.2604, 2678.864
467.7425, 2658.715
468.2246, 2637.432
468.7068, 2621.754
469.1889, 2613.287
469.6710, 2610.056
470.1531, 2613.417
470.6352, 2624.502
471.1173, 2632.462
471.5995, 2639.375
472.0816, 2641.429
472.5637, 2634.117
473.0458, 2612.847
473.5279, 2594.667
474.0100, 2582.663
474.4922, 2575.406
474.9743, 2566.012
475.4564, 2553.011
475.9385, 2544.522
476.4206, 2550.219
476.9027, 2568.048
477.3849, 2575.665
477.8670, 2570.115
478.3491, 2556.578
478.8312, 2537.449
479.3133, 2514.881
479.7954, 2499.711
480.2776, 2501.793
480.7597, 2512.115
481.2418, 2519.537
481.7239, 2523.746
482.2060, 2524.560
482.6881, 2520.067
483.1703, 2512.677
483.6524, 2505.453
484.1345, 2499.223
484.6166, 2493.513
485.0987, 2489.356
485.5808, 2486.024
486.0630, 2479.989
486.5451, 2464.125
487.0272, 2449.776
487.5093, 2442.998
487.9914, 2447.148
488.4735, 2454.592
488.9557, 2472.705
489.4378, 2491.515
489.9199, 2492.922
490.4020, 2465.804
490.8841, 2439.990
491.3662, 2422.777
491.8484, 2414.445
492.3305, 2414.746
492.8126, 2426.380
493.2947, 2440.602
493.7768, 2450.183
494.2589, 2455.168
494.7411, 2454.326
495.2232, 2444.548
495.7053, 2432.014
496.1874, 2431.643
496.6695, 2442.389
497.1516, 2451.713
497.6338, 2449.588
498.1159, 2440.946
498.5980, 2433.949
499.0801, 2429.574
499.5622, 2426.917
500.0443, 2423.354
500.5265, 2421.099
501.0086, 2424.004
501.4907, 2441.525
501.9728, 2457.985
502.4549, 2463.249
502.9370, 2457.054
503.4192, 2451.859
503.9013, 2453.818
504.3834, 2456.538
504.8655, 2455.506
505.3476, 2444.275
505.8297, 2436.546
506.3119, 2433.302
506.7940, 2433.949
507.2761, 2437.451
507.7582, 2447.584
508.2403, 2454.255
508.7224, 2452.296
509.2046, 2440.435
509.6867, 2431.534
510.1688, 2425.245
510.6509, 2422.672
511.1330, 2426.930
511.6151, 2437.714
512.0973, 2446.716
512.5794, 2450.229
513.0615, 2451.444
513.5436, 2459.750
514.0258, 2474.209
514.5079, 2483.770
514.9900, 2473.561
515.4721, 2455.552
515.9542, 2448.371
516.4363, 2458.408
516.9185, 2469.274
517.4006, 2469.134
517.8827, 2461.871
518.3648, 2454.513
518.8469, 2450.232
519.3290, 2446.108
519.8112, 2440.212
520.2933, 2432.320
520.7754, 2426.831
521.2575, 2426.139
521.7396, 2427.352
522.2217, 2428.683
522.7039, 2433.787
523.1860, 2432.799
523.6681, 2421.485
524.1502, 2404.581
524.6323, 2396.771
525.1144, 2400.534
525.5966, 2405.513
526.0787, 2407.229
526.5608, 2405.639
527.0429, 2403.119
527.5250, 2399.450
528.0071, 2395.453
528.4893, 2390.733
528.9714, 2386.096
529.4535, 2385.459
529.9356, 2392.542
530.4177, 2401.600
530.8998, 2404.067
531.3820, 2401.268
531.8641, 2399.512
532.3462, 2405.705
532.8283, 2412.932
533.3104, 2415.663
533.7925, 2413.175
534.2747, 2405.871
534.7568, 2385.601
535.2389, 2363.002
535.7210, 2352.648
536.2031, 2373.214
536.6852, 2389.065
537.1674, 2387.842
537.6495, 2370.850
538.1316, 2367.065
538.6137, 2385.175
539.0958, 2405.150
539.5779, 2414.926
540.0601, 2413.205
540.5422, 2405.959
541.0243, 2391.342
541.5064, 2374.573
541.9885, 2365.167
542.4706, 2363.112
542.9528, 2362.033
543.4349, 2358.954
543.9170, 2355.130
544.3991, 2353.676
544.8812, 2354.611
545.3633, 2356.219
545.8455, 2357.246
546.3276, 2358.151
546.8097, 2360.184
547.2918, 2366.355
547.7739, 2368.641
548.2560, 2356.459
548.7382, 2337.045
549.2203, 2326.270
549.7024, 2337.244
550.1845, 2350.241
550.6666, 2355.753
551.1487, 2350.875
551.6309, 2353.569
552.1130, 2371.760
552.5951, 2391.063
553.0772, 2399.589
553.5593, 2392.525
554.0414, 2387.365
554.5236, 2386.379
555.0057, 2388.060
555.4878, 2389.063
555.9699, 2389.490
556.4520, 2388.655
556.9341, 2386.981
557.4163, 2383.942
557.8984, 2376.051
558.3805, 2362.855
558.8626, 2350.444
559.3447, 2343.114
559.8268, 2340.595
560.3090, 2343.041
560.7911, 2354.747
561.2732, 2365.422
561.7553, 2367.919
562.2374, 2363.818
562.7195, 2357.614
563.2017, 2346.376
563.6838, 2337.360
564.1659, 2334.556
564.6480, 2339.799
565.1301, 2344.742
565.6122, 2347.549
566.0944, 2350.810
566.5765, 2357.479
567.0586, 2371.240
567.5407, 2379.058
568.0228, 2377.139
568.5049, 2369.191
568.9871, 2366.451
569.4692, 2369.439
569.9513, 2373.053
570.4334, 2374.185
570.9155, 2373.571
571.3976, 2373.737
571.8798, 2374.656
572.3619, 2376.897
572.8440, 2383.821
573.3261, 2391.967
573.8082, 2394.798
574.2903, 2386.898
574.7725, 2377.916
575.2546, 2372.365
575.7367, 2370.515
576.2188, 2372.883
576.7009, 2384.761
577.1830, 2396.639
577.6652, 2406.442
578.1473, 2415.924
578.6294, 2412.868
579.1115, 2387.163
579.5936, 2357.340
580.0757, 2337.842
580.5579, 2328.572
581.0400, 2331.768
581.5221, 2352.052
582.0042, 2381.410
582.4863, 2399.729
582.9684, 2406.947
583.4506, 2407.552
583.9327, 2400.708
584.4148, 2389.141
584.8969, 2378.809
585.3790, 2369.644
585.8611, 2365.516
586.3433, 2371.603
586.8254, 2383.864
587.3075, 2397.237
587.7896, 2412.408
588.2717, 2424.964
588.7538, 2436.176
589.2360, 2442.980
589.7181, 2438.819
590.2002, 2403.680
590.6823, 2375.158
591.1644, 2367.907
591.6465, 2382.981
592.1287, 2397.858
592.6108, 2415.873
593.0929, 2429.483
593.5750, 2431.494
594.0571, 2419.688
594.5392, 2411.137
595.0214, 2407.943
595.5035, 2407.328
595.9856, 2404.429
596.4677, 2399.621
596.9498, 2395.730
597.4319, 2393.420
597.9141, 2393.055
598.3962, 2396.083
598.8783, 2402.108
599.3604, 2408.030
599.8425, 2409.467
600.3246, 2411.197
600.8068, 2418.577
601.2889, 2436.488
601.7710, 2449.540
602.2531, 2450.994
602.7352, 2445.755
603.2173, 2440.528
603.6995, 2433.405
604.1816, 2429.636
604.6637, 2431.584
605.1458, 2437.902
605.6279, 2441.150
606.1100, 2441.418
606.5922, 2438.504
607.0743, 2429.386
607.5564, 2415.216
608.0385, 2410.435
608.5206, 2416.404
609.0027, 2426.284
609.4849, 2434.377
609.9670, 2440.608
610.4491, 2444.472
610.9312, 2445.831
611.4133, 2444.911
611.8954, 2440.368
612.3776, 2433.592
612.8597, 2428.194
613.3418, 2426.058
613.8239, 2425.387
614.3060, 2426.073
614.7881, 2428.550
615.2703, 2429.048
615.7524, 2427.133
616.2345, 2423.447
616.7166, 2416.569
617.1987, 2402.252
617.6808, 2400.748
618.1630, 2417.479
618.6451, 2442.093
619.1272, 2456.072
619.6093, 2459.811
620.0914, 2461.077
620.5735, 2461.808
621.0557, 2462.687
621.5378, 2466.507
622.0199, 2472.605
622.5020, 2475.607
622.9841, 2469.510
623.4662, 2460.118
623.9484, 2451.996
624.4305, 2445.002
624.9126, 2442.006
625.3947, 2445.290
625.8768, 2452.441
626.3589, 2460.818
626.8411, 2474.631
627.3232, 2483.351
627.8053, 2484.094
628.2874, 2479.269
628.7695, 2477.017
629.2516, 2478.086
629.7338, 2479.235
630.2159, 2479.794
630.6980, 2479.472
631.1801, 2473.212
