##NAMES=Columbite-(Mn)
##RRUFFID=R040083
##IDEAL CHEMISTRY=Mn^2+^Nb^5+^_2_O_6_
##LOCALITY=Mina Miramica, Santa Cruz, Bolivia
##OWNER=RRUFF
##SOURCE=University of Arizona Mineral Museum
##DESCRIPTION=Fragment consisting of multiple phases as shown by both X-ray diffraction and microprobe.
##STATUS=The identification of this mineral has been confirmed by X-ray diffraction and chemical analysis
##URL=rruff.info/R040083
##MEASURED CHEMISTRY=Light bands: (Mn^2+^_0.78_Fe^2+^_0.21_Ti_0.01_)(Nb_0.74_Ta_0.25_Ti_0.01_)_2_O_6_; Dark bands:(Mn^2+^_0.73_Fe^2+^_0.26_Ti_0.01_)(Nb_0.86_Ta_0.13_Ti_0.01_)_2_O_6_
153.9312, 20330.93
154.4133, 20242.89
154.8954, 20220.83
155.3775, 20246.31
155.8597, 20264.96
156.3418, 20257.85
156.8239, 20260.60
157.3060, 20286.93
157.7881, 20334.61
158.2702, 20403.25
158.7524, 20501.29
159.2345, 20613.63
159.7166, 20700.05
160.1987, 20737.08
160.6808, 20781.03
161.1629, 20880.61
161.6451, 21028.70
162.1272, 21168.55
162.6093, 21277.16
163.0914, 21358.97
163.5735, 21427.60
164.0556, 21472.66
164.5378, 21522.89
165.0199, 21615.27
165.5020, 21748.61
165.9841, 21858.48
166.4662, 21901.05
166.9483, 21905.10
167.4305, 21925.89
167.9126, 21978.80
168.3947, 22039.13
168.8768, 22086.93
169.3589, 22122.45
169.8410, 22146.75
170.3232, 22147.18
170.8053, 22140.11
171.2874, 22151.96
171.7695, 22187.42
172.2516, 22239.93
172.7337, 22310.32
173.2159, 22400.59
173.6980, 22478.85
174.1801, 22515.29
174.6622, 22531.69
175.1443, 22559.09
175.6264, 22605.38
176.1086, 22660.78
176.5907, 22715.43
177.0728, 22768.59
177.5549, 22820.00
178.0370, 22853.22
178.5191, 22888.57
179.0013, 22955.30
179.4834, 23070.55
179.9655, 23207.60
180.4476, 23334.04
180.9297, 23448.42
181.4118, 23559.53
181.8940, 23681.74
182.3761, 23800.57
182.8582, 23895.65
183.3403, 23953.58
183.8224, 23995.79
184.3046, 24048.52
184.7867, 24112.18
185.2688, 24184.72
185.7509, 24260.66
186.2330, 24346.80
186.7151, 24457.63
187.1973, 24610.86
187.6794, 24770.27
188.1615, 24884.25
188.6436, 24943.55
189.1257, 24995.45
189.6078, 25057.47
190.0900, 25123.72
190.5721, 25189.05
191.0542, 25250.52
191.5363, 25312.41
192.0184, 25380.38
192.5005, 25454.36
192.9827, 25534.80
193.4648, 25628.08
193.9469, 25726.40
194.4290, 25823.52
194.9111, 25918.53
195.3932, 26010.62
195.8754, 26095.88
196.3575, 26171.96
196.8396, 26254.57
197.3217, 26362.33
197.8038, 26474.63
198.2859, 26575.33
198.7681, 26662.64
199.2502, 26732.60
199.7323, 26767.36
200.2144, 26754.08
200.6965, 26771.92
201.1786, 26881.72
201.6608, 27021.85
202.1429, 27145.22
202.6250, 27241.61
203.1071, 27317.16
203.5892, 27377.63
204.0713, 27422.22
204.5535, 27455.69
205.0356, 27449.61
205.5177, 27448.16
205.9998, 27499.12
206.4819, 27620.98
206.9640, 27749.78
207.4462, 27806.78
207.9283, 27783.50
208.4104, 27764.65
208.8925, 27768.60
209.3746, 27791.03
209.8567, 27833.08
210.3388, 27896.56
210.8210, 27965.97
211.3031, 28028.26
211.7852, 28083.54
212.2673, 28129.94
212.7494, 28164.04
213.2315, 28189.92
213.7137, 28204.54
214.1958, 28206.52
214.6779, 28219.07
215.1600, 28276.49
215.6421, 28377.67
216.1242, 28449.78
216.6064, 28463.42
217.0885, 28453.42
217.5706, 28443.77
218.0527, 28436.29
218.5348, 28437.99
219.0169, 28464.51
219.4991, 28512.16
219.9812, 28538.13
220.4633, 28525.36
220.9454, 28498.45
221.4275, 28473.79
221.9096, 28452.25
222.3918, 28441.59
222.8739, 28453.17
223.3560, 28482.21
223.8381, 28503.99
224.3202, 28516.76
224.8023, 28517.43
225.2845, 28503.77
225.7666, 28476.59
226.2487, 28442.11
226.7308, 28388.42
227.2129, 28328.05
227.6950, 28304.67
228.1772, 28334.64
228.6593, 28379.66
229.1414, 28425.45
229.6235, 28465.73
230.1056, 28468.43
230.5877, 28380.39
231.0699, 28251.40
231.5520, 28194.32
232.0341, 28237.10
232.5162, 28296.07
232.9983, 28303.17
233.4804, 28276.26
233.9626, 28257.35
234.4447, 28268.76
234.9268, 28292.97
235.4089, 28301.98
235.8910, 28292.11
236.3731, 28283.29
236.8553, 28289.64
237.3374, 28307.63
237.8195, 28330.07
238.3016, 28371.85
238.7837, 28407.79
239.2658, 28401.61
239.7480, 28351.61
240.2301, 28307.33
240.7122, 28302.62
241.1943, 28324.99
241.6764, 28340.06
242.1585, 28357.80
242.6407, 28355.59
243.1228, 28298.34
243.6049, 28193.81
244.0870, 28110.59
244.5691, 28091.26
245.0512, 28113.05
245.5334, 28109.97
246.0155, 28065.51
246.4976, 28021.23
246.9797, 28005.52
247.4618, 28009.58
247.9439, 28002.40
248.4261, 27967.38
248.9082, 27918.42
249.3903, 27886.68
249.8724, 27877.03
250.3545, 27869.24
250.8366, 27844.61
251.3188, 27818.01
251.8009, 27827.78
252.2830, 27894.51
252.7651, 27973.85
253.2472, 27978.15
253.7293, 27877.83
254.2115, 27808.32
254.6936, 27817.85
255.1757, 27861.71
255.6578, 27882.67
256.1399, 27866.70
256.6220, 27840.26
257.1042, 27838.79
257.5863, 27875.27
258.0684, 27893.22
258.5505, 27880.62
259.0326, 27855.84
259.5147, 27834.89
259.9969, 27819.41
260.4790, 27799.10
260.9611, 27759.87
261.4432, 27695.56
261.9253, 27662.82
262.4074, 27693.35
262.8896, 27724.82
263.3717, 27720.26
263.8538, 27684.18
264.3359, 27644.70
264.8180, 27623.85
265.3001, 27621.42
265.7823, 27608.27
266.2644, 27582.23
266.7465, 27549.44
267.2286, 27508.29
267.7107, 27461.77
268.1928, 27410.68
268.6750, 27353.20
269.1571, 27296.38
269.6392, 27278.01
270.1213, 27365.48
270.6034, 27415.54
271.0855, 27389.47
271.5677, 27326.12
272.0498, 27268.71
272.5319, 27235.77
273.0140, 27221.44
273.4961, 27213.05
273.9782, 27207.76
274.4604, 27214.35
274.9425, 27247.82
275.4246, 27282.87
275.9067, 27299.17
276.3888, 27292.17
276.8709, 27271.68
277.3531, 27249.11
277.8352, 27222.62
278.3173, 27201.07
278.7994, 27196.26
279.2815, 27187.53
279.7636, 27157.46
280.2458, 27109.84
280.7279, 27067.38
281.2100, 27060.68
281.6921, 27092.09
282.1742, 27087.28
282.6563, 27001.51
283.1385, 26928.67
283.6206, 26929.22
284.1027, 26975.24
284.5848, 26997.73
285.0669, 26942.24
285.5490, 26832.92
286.0312, 26758.19
286.5133, 26729.33
286.9954, 26713.21
287.4775, 26703.77
287.9596, 26694.51
288.4417, 26675.19
288.9239, 26639.04
289.4060, 26595.37
289.8881, 26554.25
290.3702, 26514.46
290.8523, 26485.89
291.3344, 26478.84
291.8166, 26482.22
292.2987, 26484.23
292.7808, 26484.87
293.2629, 26478.96
293.7450, 26459.14
294.2271, 26427.48
294.7093, 26396.98
295.1914, 26372.26
295.6735, 26348.40
296.1556, 26316.71
296.6377, 26275.69
297.1198, 26239.52
297.6020, 26207.04
298.0841, 26184.47
298.5662, 26189.61
299.0483, 26230.09
299.5304, 26272.60
300.0125, 26277.08
300.4947, 26242.41
300.9768, 26222.35
301.4589, 26235.67
301.9410, 26257.25
302.4231, 26269.29
302.9052, 26270.26
303.3874, 26259.86
303.8695, 26232.57
304.3516, 26191.30
304.8337, 26182.01
305.3158, 26244.20
305.7979, 26292.73
306.2801, 26281.54
306.7622, 26232.88
307.2443, 26196.07
307.7264, 26197.52
308.2085, 26224.30
308.6906, 26234.73
309.1728, 26209.31
309.6549, 26190.54
310.1370, 26181.61
310.6191, 26179.72
311.1012, 26187.39
311.5833, 26203.59
312.0655, 26214.88
312.5476, 26195.36
313.0297, 26114.79
313.5118, 26076.67
313.9939, 26106.46
314.4760, 26150.06
314.9582, 26180.33
315.4403, 26194.79
315.9224, 26203.67
316.4045, 26216.87
316.8866, 26234.29
317.3687, 26242.45
317.8509, 26229.78
318.3330, 26220.21
318.8151, 26226.97
319.2972, 26241.38
319.7793, 26247.02
320.2614, 26232.10
320.7436, 26206.95
321.2257, 26192.63
321.7078, 26182.99
322.1899, 26202.39
322.6720, 26291.52
323.1541, 26399.14
323.6363, 26478.47
324.1184, 26518.26
324.6005, 26534.02
325.0826, 26534.07
325.5647, 26519.82
326.0468, 26509.55
326.5290, 26511.46
327.0111, 26515.27
327.4932, 26503.23
327.9753, 26474.96
328.4574, 26466.44
328.9395, 26510.04
329.4217, 26579.57
329.9038, 26632.31
330.3859, 26663.17
330.8680, 26672.80
331.3501, 26649.97
331.8322, 26598.57
332.3144, 26571.62
332.7965, 26589.12
333.2786, 26618.36
333.7607, 26641.60
334.2428, 26657.47
334.7249, 26663.31
335.2070, 26654.96
335.6891, 26637.41
336.1713, 26633.97
336.6534, 26656.79
337.1355, 26676.10
337.6176, 26677.50
338.0997, 26675.33
338.5818, 26690.10
339.0640, 26728.06
339.5461, 26775.82
340.0282, 26812.14
340.5103, 26833.25
340.9924, 26849.68
341.4745, 26856.79
341.9567, 26863.45
342.4388, 26876.29
342.9209, 26894.26
343.4030, 26911.45
343.8851, 26923.43
344.3672, 26930.17
344.8494, 26928.99
345.3315, 26894.88
345.8136, 26885.43
346.2957, 26940.33
346.7778, 27023.16
347.2599, 27078.59
347.7421, 27078.69
348.2242, 27049.80
348.7063, 27039.69
349.1884, 27052.07
349.6705, 27068.60
350.1526, 27091.27
350.6348, 27112.01
351.1169, 27122.35
351.5990, 27121.05
352.0811, 27119.29
352.5632, 27119.71
353.0453, 27125.43
353.5275, 27151.32
354.0096, 27205.80
354.4917, 27266.59
354.9738, 27312.31
355.4559, 27345.63
355.9380, 27374.61
356.4202, 27405.48
356.9023, 27429.52
357.3844, 27421.01
357.8665, 27386.33
358.3486, 27390.64
358.8307, 27488.85
359.3129, 27650.14
359.7950, 27733.00
360.2771, 27680.77
360.7592, 27630.83
361.2413, 27617.86
361.7234, 27628.67
362.2056, 27650.40
362.6877, 27678.42
363.1698, 27701.16
363.6519, 27696.50
364.1340, 27634.67
364.6161, 27621.82
365.0983, 27694.75
365.5804, 27778.59
366.0625, 27833.11
366.5446, 27858.24
367.0267, 27871.77
367.5089, 27886.46
367.9910, 27902.47
368.4731, 27920.80
368.9552, 27950.82
369.4373, 27969.31
369.9194, 27959.66
370.4016, 27940.58
370.8837, 27934.50
371.3658, 27950.05
371.8479, 27977.54
372.3300, 28010.39
372.8121, 28050.49
373.2943, 28067.75
373.7764, 28031.62
374.2585, 27993.45
374.7406, 28011.29
375.2227, 28081.40
375.7048, 28124.46
376.1870, 28076.39
376.6691, 27981.15
377.1512, 27923.76
377.6333, 27914.53
378.1154, 27909.98
378.5975, 27882.69
379.0797, 27832.41
379.5618, 27770.79
380.0439, 27675.17
380.5260, 27590.79
381.0081, 27547.24
381.4902, 27531.05
381.9724, 27512.53
382.4545, 27479.93
382.9366, 27436.25
383.4187, 27387.60
383.9008, 27334.37
384.3829, 27272.60
384.8651, 27199.62
385.3472, 27119.73
385.8293, 27030.13
386.3114, 26934.25
386.7935, 26846.04
387.2756, 26779.98
387.7578, 26735.23
388.2399, 26678.02
388.7220, 26599.65
389.2041, 26519.87
389.6862, 26439.35
390.1683, 26362.83
390.6505, 26299.17
391.1326, 26254.38
391.6147, 26210.56
392.0968, 26140.12
392.5789, 26040.94
393.0610, 25938.00
393.5432, 25838.88
394.0253, 25735.21
394.5074, 25614.38
394.9895, 25478.77
395.4716, 25358.65
395.9537, 25281.16
396.4359, 25223.81
396.9180, 25149.60
397.4001, 25055.37
397.8822, 24955.14
398.3643, 24855.92
398.8464, 24758.23
399.3286, 24662.87
399.8107, 24579.58
400.2928, 24487.74
400.7749, 24370.16
401.2570, 24239.95
401.7391, 24121.25
402.2213, 24021.15
402.7034, 23929.71
403.1855, 23832.12
403.6676, 23725.13
404.1497, 23619.02
404.6318, 23518.66
405.1140, 23414.07
405.5961, 23288.68
406.0782, 23153.44
406.5603, 23039.65
407.0424, 22973.26
407.5245, 22939.69
408.0067, 22879.45
408.4888, 22788.72
408.9709, 22677.15
409.4530, 22521.63
409.9351, 22362.35
410.4172, 22240.46
410.8994, 22164.69
411.3815, 22103.63
411.8636, 22032.73
412.3457, 21953.48
412.8278, 21868.12
413.3099, 21770.95
413.7921, 21681.53
414.2742, 21640.72
414.7563, 21627.56
415.2384, 21561.22
415.7205, 21369.90
416.2026, 21167.08
416.6848, 21052.94
417.1669, 21006.53
417.6490, 20945.15
418.1311, 20828.14
418.6132, 20681.94
419.0953, 20564.62
419.5775, 20483.98
420.0596, 20421.08
420.5417, 20399.73
421.0238, 20378.52
421.5059, 20325.66
421.9880, 20239.03
422.4702, 20132.15
422.9523, 20014.04
423.4344, 19885.50
423.9165, 19769.97
424.3986, 19667.73
424.8807, 19580.30
425.3629, 19520.92
425.8450, 19469.21
426.3271, 19401.33
426.8092, 19309.49
427.2913, 19207.26
427.7734, 19102.71
428.2556, 18997.23
428.7377, 18912.10
429.2198, 18861.72
429.7019, 18814.70
430.1840, 18737.98
430.6661, 18639.43
431.1483, 18551.73
431.6304, 18495.46
432.1125, 18445.07
432.5946, 18375.91
433.0767, 18291.12
433.5588, 18206.33
434.0410, 18126.70
434.5231, 18055.11
435.0052, 17999.77
435.4873, 17974.59
435.9694, 17941.15
436.4515, 17893.74
436.9337, 17839.88
437.4158, 17790.27
437.8979, 17742.32
438.3800, 17679.77
438.8621, 17583.04
439.3442, 17457.37
439.8264, 17365.22
440.3085, 17334.00
440.7906, 17295.86
441.2727, 17230.30
441.7548, 17151.89
442.2369, 17072.40
442.7191, 16994.47
443.2012, 16927.60
443.6833, 16893.85
444.1654, 16885.59
444.6475, 16845.05
445.1296, 16753.42
445.6118, 16652.33
446.0939, 16578.14
446.5760, 16524.38
447.0581, 16468.82
447.5402, 16396.39
448.0223, 16331.24
448.5045, 16295.84
448.9866, 16281.24
449.4687, 16264.84
449.9508, 16238.82
450.4329, 16199.29
450.9150, 16136.78
451.3972, 16026.82
451.8793, 15948.53
452.3614, 15927.83
452.8435, 15914.53
453.3256, 15881.56
453.8077, 15829.55
454.2899, 15768.41
454.7720, 15702.55
455.2541, 15636.14
455.7362, 15585.93
456.2183, 15561.19
456.7004, 15528.52
457.1826, 15465.69
457.6647, 15399.43
458.1468, 15353.67
458.6289, 15330.51
459.1110, 15306.42
459.5931, 15259.34
460.0753, 15202.60
460.5574, 15170.46
461.0395, 15167.94
461.5216, 15157.23
462.0037, 15109.76
462.4858, 15033.63
462.9680, 14970.34
463.4501, 14927.75
463.9322, 14887.26
464.4143, 14842.61
464.8964, 14797.98
465.3785, 14759.67
465.8607, 14728.78
466.3428, 14701.11
466.8249, 14672.76
467.3070, 14644.30
467.7891, 14609.80
468.2712, 14562.06
468.7534, 14516.20
469.2355, 14470.88
469.7176, 14431.47
470.1997, 14409.33
470.6818, 14411.33
471.1639, 14412.38
471.6461, 14377.39
472.1282, 14308.76
472.6103, 14245.22
473.0924, 14192.80
473.5745, 14145.99
474.0566, 14104.82
474.5388, 14066.41
475.0209, 14017.04
475.5030, 13932.64
475.9851, 13855.53
476.4672, 13822.51
476.9493, 13820.07
477.4315, 13814.78
477.9136, 13793.83
478.3957, 13758.85
478.8778, 13711.72
479.3599, 13643.89
479.8420, 13585.24
480.3242, 13534.85
480.8063, 13493.09
481.2884, 13468.81
481.7705, 13453.32
482.2526, 13428.54
482.7347, 13383.95
483.2169, 13326.03
483.6990, 13264.33
484.1811, 13196.12
484.6632, 13142.02
485.1453, 13114.88
485.6274, 13096.68
486.1096, 13071.58
486.5917, 13039.85
487.0738, 13006.12
487.5559, 12968.40
488.0380, 12932.02
488.5201, 12911.22
489.0023, 12901.16
489.4844, 12871.62
489.9665, 12804.25
490.4486, 12714.01
490.9307, 12635.85
491.4128, 12570.67
491.8950, 12518.27
492.3771, 12491.80
492.8592, 12467.28
493.3413, 12424.08
493.8234, 12366.43
494.3055, 12314.54
494.7877, 12284.60
495.2698, 12267.90
495.7519, 12234.33
496.2340, 12176.73
496.7161, 12125.37
497.1982, 12101.63
497.6804, 12078.06
498.1625, 12024.35
498.6446, 11938.81
499.1267, 11862.21
499.6088, 11817.41
500.0909, 11790.00
500.5730, 11763.40
501.0551, 11736.46
501.5373, 11710.80
502.0194, 11688.79
502.5015, 11666.94
502.9836, 11634.53
503.4657, 11593.58
503.9478, 11538.38
504.4300, 11451.22
504.9121, 11363.25
505.3942, 11296.22
505.8763, 11251.20
506.3584, 11218.56
506.8405, 11194.38
507.3227, 11175.09
507.8048, 11145.49
508.2869, 11099.39
508.7690, 11064.73
509.2511, 11067.41
509.7332, 11073.13
510.2154, 11048.18
510.6975, 10990.42
511.1796, 10925.47
511.6617, 10856.62
512.1439, 10791.03
512.6260, 10736.99
513.1081, 10694.71
513.5902, 10664.10
514.0723, 10648.35
514.5544, 10638.42
515.0366, 10608.24
515.5187, 10536.46
516.0008, 10474.18
516.4829, 10429.33
516.9650, 10387.45
517.4471, 10334.91
517.9293, 10275.55
518.4114, 10226.75
518.8935, 10202.67
519.3756, 10193.31
519.8577, 10171.39
520.3398, 10134.68
520.8220, 10098.93
521.3041, 10076.96
521.7862, 10049.90
522.2683, 9988.365
522.7504, 9892.066
523.2325, 9820.477
523.7147, 9812.047
524.1968, 9821.923
524.6789, 9813.609
525.1610, 9786.603
525.6431, 9745.551
526.1252, 9690.710
526.6074, 9632.762
527.0895, 9596.843
527.5716, 9600.400
528.0537, 9589.325
528.5358, 9549.533
529.0179, 9510.386
529.5001, 9496.172
529.9822, 9494.445
530.4643, 9471.780
530.9464, 9405.246
531.4285, 9323.459
531.9106, 9273.089
532.3928, 9253.103
532.8749, 9224.856
533.3570, 9173.184
533.8391, 9121.899
534.3212, 9104.354
534.8033, 9117.908
535.2855, 9110.080
535.7676, 9057.100
536.2497, 8999.697
536.7318, 8959.040
537.2139, 8930.312
537.6960, 8908.688
538.1782, 8891.539
538.6603, 8865.759
539.1424, 8807.402
539.6245, 8708.277
540.1066, 8631.403
540.5887, 8587.573
541.0709, 8554.622
541.5530, 8527.675
542.0351, 8504.597
542.5172, 8483.086
542.9993, 8463.617
543.4814, 8441.629
543.9636, 8409.996
544.4457, 8373.231
544.9278, 8346.034
545.4099, 8331.322
545.8920, 8310.871
546.3741, 8267.602
546.8563, 8204.868
547.3384, 8154.997
547.8205, 8123.865
548.3026, 8096.125
548.7847, 8077.042
549.2668, 8055.464
549.7490, 8016.382
550.2311, 7961.171
550.7132, 7908.646
551.1953, 7876.736
551.6774, 7860.313
552.1595, 7838.018
552.6417, 7808.079
553.1238, 7780.471
553.6059, 7762.467
554.0880, 7746.206
554.5701, 7720.828
555.0522, 7685.456
555.5344, 7650.308
556.0165, 7615.220
556.4986, 7584.434
556.9807, 7567.890
557.4628, 7559.974
557.9449, 7540.221
558.4271, 7497.206
558.9092, 7443.850
559.3913, 7408.818
559.8734, 7403.648
560.3555, 7386.318
560.8376, 7339.673
561.3198, 7296.009
561.8019, 7273.049
562.2840, 7263.024
562.7661, 7248.794
563.2482, 7223.454
563.7303, 7192.348
564.2125, 7157.627
564.6946, 7121.223
565.1767, 7091.391
565.6588, 7070.366
566.1409, 7051.996
566.6230, 7031.583
567.1052, 7009.107
567.5873, 6981.573
568.0694, 6937.760
568.5515, 6903.444
569.0336, 6890.268
569.5157, 6886.022
569.9979, 6880.758
570.4800, 6871.446
570.9621, 6856.707
571.4442, 6835.983
571.9263, 6808.838
572.4084, 6771.442
572.8906, 6721.627
573.3727, 6672.873
573.8548, 6624.715
574.3369, 6585.876
574.8190, 6574.664
575.3011, 6596.515
575.7833, 6604.537
576.2654, 6581.704
576.7475, 6546.894
577.2296, 6508.705
577.7117, 6470.883
578.1938, 6439.484
578.6760, 6417.256
579.1581, 6401.331
579.6402, 6388.277
580.1223, 6380.309
580.6044, 6363.935
581.0865, 6331.106
581.5686, 6299.345
582.0507, 6278.811
582.5328, 6264.852
583.0150, 6248.848
583.4971, 6228.570
583.9792, 6206.433
584.4613, 6178.428
584.9434, 6151.413
585.4255, 6143.044
585.9077, 6153.715
586.3898, 6157.664
586.8719, 6133.309
587.3540, 6086.702
587.8361, 6053.842
588.3182, 6058.729
588.8004, 6037.931
589.2825, 5956.512
589.7646, 5873.621
590.2467, 5832.907
590.7288, 5830.658
591.2109, 5835.057
591.6931, 5833.147
592.1752, 5824.131
592.6573, 5804.340
593.1394, 5775.391
593.6215, 5745.395
594.1036, 5715.246
594.5858, 5690.541
595.0679, 5680.069
595.5500, 5686.577
596.0321, 5678.927
596.5142, 5648.557
596.9963, 5616.090
597.4785, 5585.681
597.9606, 5557.472
598.4427, 5531.479
598.9248, 5507.514
599.4069, 5484.536
599.8890, 5461.669
600.3712, 5439.011
600.8533, 5416.298
601.3354, 5393.295
601.8175, 5373.158
602.2996, 5358.248
602.7817, 5346.107
603.2639, 5334.083
603.7460, 5324.734
604.2281, 5304.958
604.7102, 5258.588
605.1923, 5215.630
605.6744, 5198.964
606.1566, 5198.166
606.6387, 5192.117
607.1208, 5172.219
607.6029, 5145.780
608.0850, 5121.691
608.5671, 5099.959
609.0493, 5079.697
609.5314, 5061.325
610.0135, 5042.859
610.4956, 5021.226
610.9777, 4999.505
611.4598, 4985.825
611.9420, 4987.613
612.4241, 4978.589
612.9062, 4945.107
613.3883, 4901.931
613.8704, 4857.433
614.3525, 4815.163
614.8347, 4781.287
615.3168, 4759.149
615.7989, 4746.619
616.2810, 4742.245
616.7631, 4748.593
617.2452, 4745.821
617.7274, 4730.621
618.2095, 4707.871
618.6916, 4676.161
619.1737, 4639.912
619.6558, 4609.356
620.1379, 4589.326
620.6201, 4569.586
621.1022, 4543.379
621.5843, 4515.891
622.0664, 4494.440
622.5485, 4479.235
623.0306, 4465.941
623.5128, 4451.896
623.9949, 4436.489
624.4770, 4416.995
624.9591, 4392.029
625.4412, 4367.917
625.9233, 4342.930
626.4055, 4322.103
626.8876, 4311.364
627.3697, 4307.599
627.8518, 4300.416
628.3339, 4286.911
628.8160, 4269.841
629.2982, 4251.735
629.7803, 4230.774
630.2624, 4200.926
630.7445, 4162.869
631.2266, 4129.100
631.7087, 4111.218
632.1909, 4104.843
632.6730, 4086.154
633.1551, 4047.230
633.6372, 4016.226
634.1193, 4005.779
634.6014, 3998.377
635.0836, 3979.474
635.5657, 3951.925
636.0478, 3930.700
636.5299, 3926.457
637.0120, 3923.662
637.4941, 3912.817
637.9763, 3895.615
638.4584, 3873.431
638.9405, 3847.244
639.4226, 3822.243
639.9047, 3803.974
640.3868, 3790.903
640.8690, 3770.515
641.3511, 3737.344
641.8332, 3709.851
642.3153, 3699.031
642.7974, 3689.666
643.2795, 3667.552
643.7617, 3635.188
644.2438, 3609.750
644.7259, 3599.663
645.2080, 3595.310
