##NAMES=Congolite
##RRUFFID=R070149
##IDEAL CHEMISTRY=Fe^2+^_3_B_7_O_13_Cl
##LOCALITY=Lower Saxony, Germany
##OWNER=RRUFF
##SOURCE=James Shigley
##DESCRIPTION=Light brown pseudocubic crystal
##STATUS=The identification of this mineral is confirmed by single-crystal X-ray diffraction and chemical analysis.
##URL=rruff.info/R070149
##MEASURED CHEMISTRY=light core: (Fe^2+^_2.32_Mg_0.52_Mn_0.16_)_Σ=3_B_7_O_13_Cl_1.00_ ; gray rim: (Fe^2+^_2.16_Mg_0.77_Mn_0.17_)_Σ=3_B_7_O_13_Cl_1.00_ ; B estimated by difference and stoichiometry
174.3426, 31196.45
174.8247, 31230.77
175.3068, 31250.04
175.7889, 31238.74
176.2710, 31205.29
176.7531, 31184.09
177.2353, 31182.47
177.7174, 31196.19
178.1995, 31223.54
178.6816, 31263.79
179.1637, 31300.49
179.6458, 31319.26
180.1280, 31324.48
180.6101, 31337.81
181.0922, 31361.83
181.5743, 31397.42
182.0564, 31450.64
182.5385, 31518.65
183.0207, 31577.02
183.5028, 31609.63
183.9849, 31619.00
184.4670, 31614.84
184.9491, 31577.57
185.4312, 31555.29
185.9134, 31586.86
186.3955, 31663.92
186.8776, 31744.71
187.3597, 31804.02
187.8418, 31844.09
188.3239, 31879.65
188.8061, 31908.88
189.2882, 31937.18
189.7703, 31962.21
190.2524, 31987.44
190.7345, 32024.60
191.2166, 32088.66
191.6988, 32174.53
192.1809, 32250.04
192.6630, 32319.93
193.1451, 32369.89
193.6272, 32385.29
194.1093, 32376.87
194.5915, 32371.19
195.0736, 32384.07
195.5557, 32413.54
196.0378, 32450.08
196.5199, 32500.72
197.0020, 32548.09
197.4842, 32579.26
197.9663, 32601.63
198.4484, 32631.11
198.9305, 32686.00
199.4126, 32754.44
199.8947, 32785.71
200.3769, 32750.89
200.8590, 32723.59
201.3411, 32746.87
201.8232, 32794.48
202.3053, 32823.96
202.7874, 32808.87
203.2696, 32762.22
203.7517, 32724.06
204.2338, 32694.02
204.7159, 32674.52
205.1980, 32673.96
205.6801, 32680.43
206.1623, 32676.42
206.6444, 32650.28
207.1265, 32614.13
207.6086, 32600.61
208.0907, 32624.39
208.5728, 32640.64
209.0549, 32638.66
209.5371, 32622.13
210.0192, 32591.20
210.5013, 32543.47
210.9834, 32489.71
211.4655, 32450.37
211.9476, 32427.34
212.4298, 32415.48
212.9119, 32419.93
213.3940, 32430.53
213.8761, 32434.98
214.3582, 32428.21
214.8403, 32426.21
215.3225, 32459.69
215.8046, 32543.10
216.2867, 32615.19
216.7688, 32663.70
217.2509, 32696.68
217.7330, 32714.86
218.2152, 32718.84
218.6973, 32718.90
219.1794, 32729.50
219.6615, 32754.04
220.1436, 32773.90
220.6257, 32774.36
221.1079, 32777.52
221.5900, 32799.16
222.0721, 32840.17
222.5542, 32885.46
223.0363, 32924.79
223.5184, 32960.63
224.0006, 32970.02
224.4827, 32921.20
224.9648, 32868.06
225.4469, 32836.38
225.9290, 32826.20
226.4111, 32822.92
226.8933, 32817.36
227.3754, 32809.62
227.8575, 32793.58
228.3396, 32770.73
228.8217, 32736.19
229.3038, 32672.26
229.7860, 32592.30
230.2681, 32533.17
230.7502, 32530.01
231.2323, 32574.93
231.7144, 32605.52
232.1965, 32619.53
232.6787, 32620.38
233.1608, 32606.98
233.6429, 32583.56
234.1250, 32555.99
234.6071, 32519.45
235.0892, 32484.03
235.5714, 32489.60
236.0535, 32564.32
236.5356, 32626.71
237.0177, 32646.15
237.4998, 32636.01
237.9819, 32606.57
238.4641, 32551.52
238.9462, 32496.96
239.4283, 32504.35
239.9104, 32602.54
240.3925, 32676.70
240.8746, 32662.07
241.3568, 32615.56
241.8389, 32585.63
242.3210, 32585.78
242.8031, 32607.44
243.2852, 32654.05
243.7673, 32735.98
244.2495, 32776.98
244.7316, 32714.03
245.2137, 32625.96
245.6958, 32572.08
246.1779, 32562.51
246.6600, 32565.66
247.1422, 32554.35
247.6243, 32528.64
248.1064, 32499.43
248.5885, 32468.88
249.0706, 32434.34
249.5527, 32385.52
250.0349, 32324.71
250.5170, 32280.56
250.9991, 32287.55
251.4812, 32332.84
251.9633, 32348.43
252.4454, 32314.53
252.9276, 32268.54
253.4097, 32232.33
253.8918, 32206.18
254.3739, 32193.60
254.8560, 32198.41
255.3382, 32217.63
255.8203, 32251.29
256.3024, 32309.22
256.7845, 32352.57
257.2666, 32338.57
257.7487, 32291.85
258.2308, 32256.06
258.7130, 32248.01
259.1951, 32254.27
259.6772, 32261.30
260.1593, 32269.76
260.6414, 32270.29
261.1235, 32236.32
261.6057, 32199.73
262.0878, 32223.63
262.5699, 32362.59
263.0520, 32489.63
263.5341, 32482.67
264.0162, 32358.55
264.4984, 32249.95
264.9805, 32210.61
265.4626, 32214.20
265.9447, 32215.70
266.4268, 32219.47
266.9089, 32207.85
267.3911, 32154.72
267.8732, 32079.33
268.3553, 32031.45
268.8374, 32027.38
269.3195, 32047.32
269.8016, 32075.45
270.2838, 32114.96
270.7659, 32126.29
271.2480, 32068.45
271.7301, 31989.30
272.2122, 31958.57
272.6943, 31989.41
273.1765, 32028.40
273.6586, 32021.01
274.1407, 31965.26
274.6228, 31924.65
275.1049, 31917.29
275.5870, 31914.69
276.0692, 31895.40
276.5513, 31859.49
277.0334, 31814.85
277.5155, 31760.21
277.9976, 31701.14
278.4797, 31681.11
278.9619, 31738.91
279.4440, 31789.73
279.9261, 31785.17
280.4082, 31748.16
280.8903, 31736.58
281.3724, 31782.62
281.8546, 31859.38
282.3367, 31885.54
282.8188, 31816.43
283.3009, 31760.87
283.7830, 31726.33
284.2651, 31713.59
284.7473, 31731.94
285.2294, 31782.63
285.7115, 31842.09
286.1936, 31874.26
286.6757, 31868.11
287.1578, 31856.14
287.6400, 31841.15
288.1221, 31818.92
288.6042, 31785.14
289.0863, 31740.35
289.5684, 31689.08
290.0505, 31634.77
290.5327, 31576.69
291.0148, 31523.03
291.4969, 31453.02
291.9790, 31407.48
292.4611, 31424.41
292.9432, 31475.55
293.4254, 31503.68
293.9075, 31470.41
294.3896, 31389.74
294.8717, 31335.48
295.3538, 31337.41
295.8359, 31325.88
296.3181, 31268.06
296.8002, 31201.67
297.2823, 31173.57
297.7644, 31200.84
298.2465, 31250.62
298.7286, 31259.65
299.2108, 31202.81
299.6929, 31176.62
300.1750, 31240.48
300.6571, 31300.69
301.1392, 31284.72
301.6213, 31193.56
302.1035, 31099.21
302.5856, 31080.56
303.0677, 31139.52
303.5498, 31174.51
304.0319, 31170.73
304.5140, 31155.05
304.9962, 31131.41
305.4783, 31106.70
305.9604, 31097.35
306.4425, 31122.42
306.9246, 31165.03
307.4067, 31183.36
307.8889, 31174.14
308.3710, 31149.33
308.8531, 31090.53
309.3352, 31027.48
309.8173, 31001.42
310.2994, 31035.53
310.7816, 31080.01
311.2637, 31082.39
311.7458, 31044.71
312.2279, 31003.16
312.7100, 30965.32
313.1921, 30932.91
313.6743, 30910.93
314.1564, 30902.04
314.6385, 30883.20
315.1206, 30836.87
315.6027, 30773.79
316.0848, 30710.13
316.5670, 30644.56
317.0491, 30597.92
317.5312, 30605.91
318.0133, 30664.03
318.4954, 30694.97
318.9775, 30672.63
319.4597, 30630.87
319.9418, 30592.17
320.4239, 30558.79
320.9060, 30531.86
321.3881, 30512.72
321.8702, 30500.98
322.3524, 30493.71
322.8345, 30499.71
323.3166, 30499.42
323.7987, 30474.68
324.2808, 30442.38
324.7629, 30434.09
325.2451, 30462.57
325.7272, 30507.26
326.2093, 30530.74
326.6914, 30524.93
327.1735, 30508.89
327.6556, 30479.51
328.1378, 30442.64
328.6199, 30396.77
329.1020, 30345.11
329.5841, 30299.14
330.0662, 30269.41
330.5483, 30256.25
331.0305, 30255.67
331.5126, 30287.54
331.9947, 30311.20
332.4768, 30314.67
332.9589, 30301.68
333.4410, 30279.89
333.9232, 30253.45
334.4053, 30221.40
334.8874, 30179.34
335.3695, 30118.84
335.8516, 30065.74
336.3337, 30019.18
336.8159, 29983.81
337.2980, 29969.38
337.7801, 29976.63
338.2622, 29986.06
338.7443, 29967.04
339.2264, 29917.71
339.7086, 29906.60
340.1907, 29983.68
340.6728, 30048.57
341.1549, 30034.71
341.6370, 29957.69
342.1191, 29872.02
342.6013, 29788.46
343.0834, 29719.43
343.5655, 29700.08
344.0476, 29740.12
344.5297, 29778.06
345.0118, 29775.24
345.4940, 29750.28
345.9761, 29735.66
346.4582, 29736.79
346.9403, 29744.69
347.4224, 29759.31
347.9045, 29776.72
348.3867, 29783.26
348.8688, 29773.57
349.3509, 29753.78
349.8330, 29731.18
350.3151, 29705.58
350.7972, 29679.79
351.2794, 29652.75
351.7615, 29626.77
352.2436, 29601.36
352.7257, 29577.54
353.2078, 29563.21
353.6899, 29568.56
354.1721, 29592.69
354.6542, 29590.42
355.1363, 29545.32
355.6184, 29497.81
356.1005, 29454.68
356.5826, 29418.89
357.0648, 29398.45
357.5469, 29396.87
358.0290, 29401.00
358.5111, 29380.80
358.9932, 29309.88
359.4753, 29262.28
359.9575, 29258.55
360.4396, 29260.04
360.9217, 29236.60
361.4038, 29190.07
361.8859, 29147.84
362.3680, 29141.74
362.8502, 29169.56
363.3322, 29157.82
363.8144, 29064.13
364.2965, 28987.55
364.7786, 28971.24
365.2607, 28988.90
365.7428, 29006.30
366.2249, 29013.05
366.7071, 29004.11
367.1892, 28958.13
367.6713, 28868.21
368.1534, 28815.23
368.6355, 28843.55
369.1176, 28899.36
369.5998, 28925.79
370.0819, 28920.86
370.5640, 28929.70
371.0461, 29013.28
371.5282, 29119.20
372.0103, 29121.41
372.4925, 28992.31
372.9746, 28863.07
373.4567, 28842.22
373.9388, 28912.09
374.4209, 28954.03
374.9030, 28939.26
375.3852, 28918.71
375.8673, 28930.91
376.3494, 28959.46
376.8315, 28958.62
377.3136, 28906.35
377.7957, 28828.90
378.2779, 28776.74
378.7600, 28765.06
379.2421, 28752.23
379.7242, 28737.76
380.2063, 28721.97
380.6884, 28707.17
381.1706, 28692.08
381.6527, 28670.54
382.1348, 28634.95
382.6169, 28586.25
383.0990, 28555.35
383.5811, 28584.01
384.0633, 28581.94
384.5454, 28502.94
385.0275, 28394.83
385.5096, 28317.35
385.9917, 28293.23
386.4738, 28296.14
386.9560, 28288.46
387.4381, 28269.21
387.9202, 28245.32
388.4023, 28219.00
388.8844, 28186.38
389.3665, 28130.01
389.8487, 28060.08
390.3308, 28020.43
390.8129, 28066.81
391.2950, 28152.17
391.7771, 28170.64
392.2592, 28111.55
392.7414, 28052.48
393.2235, 28033.94
393.7056, 28043.75
394.1877, 28056.10
394.6698, 28078.10
395.1519, 28086.47
395.6341, 28053.39
396.1162, 28000.90
396.5983, 27978.09
397.0804, 27999.24
397.5625, 28028.87
398.0446, 28027.28
398.5268, 27989.54
399.0089, 27936.21
399.4910, 27824.62
399.9731, 27738.02
400.4552, 27748.84
400.9373, 27821.90
401.4195, 27867.57
401.9016, 27834.26
402.3837, 27748.68
402.8658, 27691.07
403.3479, 27684.75
403.8300, 27669.81
404.3122, 27632.30
404.7943, 27593.07
405.2764, 27573.50
405.7585, 27571.75
406.2406, 27562.15
406.7227, 27509.76
407.2049, 27420.78
407.6870, 27379.55
408.1691, 27417.85
408.6512, 27449.50
409.1333, 27432.25
409.6154, 27387.49
410.0976, 27340.98
410.5797, 27297.04
411.0618, 27261.39
411.5439, 27247.81
412.0260, 27251.39
412.5081, 27237.75
412.9903, 27190.62
413.4724, 27137.73
413.9545, 27113.36
414.4366, 27114.92
414.9187, 27125.36
415.4008, 27157.94
415.8830, 27185.83
416.3651, 27182.05
416.8472, 27150.80
417.3293, 27115.95
417.8114, 27090.91
418.2935, 27072.53
418.7757, 27050.38
419.2578, 27019.08
419.7399, 26990.94
420.2220, 26951.96
420.7041, 26925.69
421.1862, 26945.28
421.6684, 27007.08
422.1505, 27067.60
422.6326, 27084.38
423.1147, 27057.58
423.5968, 27019.97
424.0789, 26961.89
424.5611, 26905.44
425.0432, 26855.75
425.5253, 26812.05
426.0074, 26773.42
426.4895, 26739.56
426.9716, 26710.36
427.4538, 26689.63
427.9359, 26676.36
428.4180, 26649.68
428.9001, 26591.48
429.3822, 26541.53
429.8643, 26553.51
430.3465, 26611.48
430.8286, 26636.62
431.3107, 26578.63
431.7928, 26501.18
432.2749, 26462.56
432.7570, 26457.67
433.2392, 26455.99
433.7213, 26444.00
434.2034, 26425.33
434.6855, 26407.49
435.1676, 26382.78
435.6497, 26374.45
436.1319, 26414.41
436.6140, 26448.87
437.0961, 26424.19
437.5782, 26347.88
438.0603, 26272.63
438.5424, 26241.61
439.0246, 26247.98
439.5067, 26241.25
439.9888, 26211.36
440.4709, 26183.56
440.9530, 26160.73
441.4352, 26143.04
441.9173, 26128.95
442.3994, 26118.57
442.8815, 26116.91
443.3636, 26140.89
443.8457, 26182.81
444.3279, 26188.96
444.8100, 26145.51
445.2921, 26089.36
445.7742, 26038.20
446.2563, 25992.78
446.7384, 25956.54
447.2206, 25940.51
447.7027, 25920.07
448.1848, 25868.88
448.6669, 25801.41
449.1490, 25756.67
449.6311, 25747.35
450.1133, 25749.03
450.5954, 25728.37
451.0775, 25676.13
451.5596, 25646.23
452.0417, 25648.12
452.5238, 25660.86
453.0060, 25684.20
453.4881, 25709.52
453.9702, 25724.22
454.4523, 25722.31
454.9344, 25703.77
455.4165, 25664.46
455.8987, 25592.72
456.3808, 25534.21
456.8629, 25505.14
457.3450, 25480.90
457.8271, 25448.94
458.3092, 25410.74
458.7914, 25374.88
459.2735, 25341.28
459.7556, 25316.05
460.2377, 25313.69
460.7198, 25335.39
461.2019, 25359.61
461.6841, 25385.61
462.1662, 25401.83
462.6483, 25383.24
463.1304, 25319.82
463.6125, 25276.36
464.0946, 25295.71
464.5768, 25327.97
465.0589, 25317.53
465.5410, 25265.30
466.0231, 25211.15
466.5052, 25183.15
466.9873, 25174.77
467.4695, 25153.03
467.9516, 25095.68
468.4337, 25054.09
468.9158, 25044.74
469.3979, 25043.21
469.8800, 25026.15
470.3622, 24992.92
470.8443, 24963.59
471.3264, 24961.78
471.8085, 24980.72
472.2906, 24971.07
472.7727, 24917.43
473.2549, 24871.46
473.7370, 24873.77
474.2191, 24888.15
474.7012, 24871.04
475.1833, 24810.03
475.6654, 24750.45
476.1476, 24730.61
476.6297, 24729.35
477.1118, 24697.88
477.5939, 24628.46
478.0760, 24567.96
478.5581, 24558.87
479.0403, 24594.62
479.5224, 24598.19
480.0045, 24555.46
480.4866, 24503.45
480.9687, 24427.85
481.4508, 24358.41
481.9330, 24334.35
482.4151, 24361.40
482.8972, 24410.59
483.3793, 24459.11
483.8614, 24507.84
484.3435, 24505.58
484.8257, 24408.35
485.3078, 24322.60
485.7899, 24289.81
486.2720, 24283.98
486.7541, 24271.60
487.2362, 24242.42
487.7183, 24217.77
488.2004, 24229.22
488.6826, 24261.91
489.1647, 24256.02
489.6468, 24195.49
490.1289, 24133.06
490.6110, 24110.87
491.0931, 24125.60
491.5753, 24137.51
492.0574, 24163.85
492.5395, 24167.63
493.0216, 24108.85
493.5037, 24029.98
493.9858, 23996.58
494.4680, 24022.17
494.9501, 24061.67
495.4322, 24064.03
495.9143, 24027.36
496.3964, 23985.36
496.8785, 23928.58
497.3607, 23878.61
497.8428, 23838.67
498.3249, 23809.43
498.8070, 23795.15
499.2891, 23797.70
499.7712, 23801.10
500.2534, 23789.19
500.7355, 23764.48
501.2176, 23739.08
501.6997, 23714.78
502.1818, 23686.75
502.6639, 23644.07
503.1461, 23594.72
503.6282, 23568.97
504.1103, 23578.35
504.5924, 23597.35
505.0745, 23635.53
505.5566, 23669.52
506.0388, 23660.01
506.5209, 23602.48
507.0030, 23531.44
507.4851, 23479.15
507.9672, 23445.74
508.4493, 23431.14
508.9315, 23453.07
509.4136, 23471.29
509.8957, 23481.93
510.3778, 23482.61
510.8599, 23463.50
511.3420, 23424.37
511.8242, 23394.42
512.3063, 23417.48
512.7884, 23472.93
513.2705, 23475.60
513.7526, 23410.55
514.2347, 23346.50
514.7169, 23327.37
515.1990, 23336.72
515.6811, 23327.13
516.1632, 23292.64
516.6453, 23252.02
517.1274, 23195.45
517.6096, 23144.64
518.0917, 23135.20
518.5738, 23162.74
519.0559, 23179.68
519.5380, 23146.14
520.0201, 23071.96
520.5023, 23015.94
520.9844, 22978.47
521.4665, 22960.05
521.9486, 22977.05
522.4307, 22998.61
522.9128, 23005.39
523.3950, 22993.91
523.8771, 22964.79
524.3592, 22902.01
524.8413, 22827.05
525.3234, 22787.05
525.8055, 22782.78
526.2877, 22788.06
526.7698, 22800.47
527.2519, 22806.74
527.7340, 22772.44
528.2161, 22681.55
528.6982, 22624.94
529.1804, 22641.27
529.6625, 22673.86
530.1446, 22691.34
530.6267, 22689.52
531.1088, 22663.99
531.5909, 22610.81
532.0731, 22547.80
532.5552, 22517.53
533.0373, 22535.42
533.5194, 22535.59
534.0015, 22496.97
534.4836, 22454.79
534.9658, 22421.85
535.4479, 22399.45
535.9300, 22388.71
536.4121, 22393.59
536.8942, 22404.94
537.3763, 22422.56
537.8585, 22440.34
538.3406, 22430.46
538.8227, 22382.93
539.3048, 22322.97
539.7869, 22276.05
540.2690, 22242.59
540.7512, 22214.89
541.2333, 22189.74
541.7154, 22173.25
542.1975, 22177.46
542.6796, 22186.78
543.1617, 22179.92
543.6439, 22152.46
544.1260, 22120.27
544.6081, 22101.28
545.0902, 22094.46
545.5723, 22086.54
546.0544, 22084.46
546.5366, 22064.68
547.0187, 21987.89
547.5008, 21900.83
547.9829, 21866.61
548.4650, 21900.39
548.9471, 21939.00
549.4293, 21958.76
549.9114, 21964.86
550.3935, 21966.20
550.8756, 21961.49
551.3577, 21935.50
551.8398, 21875.05
552.3220, 21796.43
552.8041, 21749.62
553.2862, 21761.55
553.7683, 21757.59
554.2504, 21722.64
554.7325, 21685.39
555.2147, 21658.65
555.6968, 21643.48
556.1789, 21637.64
556.6610, 21639.94
557.1431, 21651.12
557.6252, 21684.72
558.1074, 21736.11
558.5895, 21748.03
559.0716, 21697.43
559.5537, 21629.46
560.0358, 21584.92
560.5179, 21564.46
561.0001, 21553.01
561.4822, 21567.35
561.9643, 21571.21
562.4464, 21541.80
562.9285, 21497.84
563.4106, 21465.39
563.8928, 21449.79
564.3749, 21435.88
564.8570, 21407.52
565.3391, 21365.97
565.8212, 21323.87
566.3033, 21274.60
566.7855, 21239.53
567.2676, 21239.35
567.7497, 21249.77
568.2318, 21250.67
568.7139, 21240.39
569.1960, 21218.32
569.6782, 21164.54
570.1603, 21111.91
570.6424, 21108.16
571.1245, 21143.53
571.6066, 21164.89
572.0887, 21146.27
572.5709, 21103.44
573.0530, 21067.23
573.5351, 21042.07
574.0172, 21010.69
574.4993, 20952.90
574.9814, 20910.10
575.4636, 20911.07
575.9457, 20935.08
576.4278, 20946.35
576.9099, 20930.70
577.3920, 20908.26
577.8741, 20909.50
578.3563, 20922.74
578.8384, 20891.12
579.3205, 20799.04
579.8026, 20727.27
580.2847, 20743.14
580.7668, 20822.53
581.2490, 20854.96
581.7311, 20806.28
582.2132, 20769.01
582.6953, 20764.05
583.1774, 20768.83
583.6595, 20766.54
584.1417, 20756.50
584.6238, 20745.66
585.1059, 20738.69
585.5880, 20733.22
586.0701, 20724.08
586.5522, 20711.04
587.0344, 20695.71
587.5165, 20677.61
587.9986, 20658.31
588.4807, 20644.13
588.9628, 20631.29
589.4449, 20602.19
589.9271, 20531.28
590.4092, 20468.69
590.8913, 20449.86
591.3734, 20450.54
591.8555, 20430.57
592.3376, 20384.17
592.8198, 20338.89
593.3019, 20320.82
593.7840, 20326.94
594.2661, 20335.18
594.7482, 20356.66
595.2303, 20356.74
595.7125, 20296.68
596.1946, 20234.10
596.6767, 20215.96
597.1588, 20240.47
597.6409, 20268.16
598.1230, 20300.15
598.6052, 20313.05
599.0873, 20264.06
599.5694, 20175.01
600.0515, 20118.55
600.5336, 20119.30
601.0157, 20136.28
601.4979, 20116.03
601.9800, 20052.49
602.4621, 20019.48
602.9442, 20039.98
603.4263, 20064.18
603.9084, 20092.68
604.3906, 20113.77
604.8727, 20110.92
605.3548, 20083.41
605.8369, 20055.90
606.3190, 20048.04
606.8011, 20049.90
607.2833, 20044.87
607.7654, 20032.84
608.2475, 20018.74
608.7296, 20006.64
609.2117, 19985.98
609.6938, 19934.25
610.1760, 19831.60
610.6581, 19780.32
611.1402, 19826.35
611.6223, 19867.16
612.1044, 19864.95
612.5865, 19835.12
613.0687, 19797.54
613.5508, 19758.55
614.0329, 19721.65
614.5150, 19685.48
614.9971, 19654.40
615.4792, 19650.82
615.9614, 19678.21
616.4435, 19689.96
616.9256, 19661.01
617.4077, 19608.60
617.8898, 19560.58
618.3719, 19509.05
618.8541, 19488.97
619.3362, 19537.21
619.8183, 19580.96
620.3004, 19573.06
620.7825, 19537.22
621.2646, 19520.95
621.7468, 19539.73
622.2289, 19557.30
622.7110, 19519.28
623.1931, 19438.10
623.6752, 19397.98
624.1573, 19409.40
624.6395, 19424.56
625.1216, 19426.44
625.6037, 19413.35
626.0858, 19374.26
626.5679, 19294.24
627.0500, 19247.55
627.5322, 19267.99
628.0143, 19302.73
628.4964, 19329.31
628.9785, 19342.71
629.4606, 19335.36
629.9427, 19304.89
630.4249, 19266.91
630.9070, 19240.62
631.3891, 19225.53
631.8712, 19214.75
632.3533, 19208.09
632.8354, 19206.84
633.3176, 19221.13
633.7997, 19235.38
634.2818, 19216.38
634.7639, 19153.20
635.2460, 19104.49
635.7281, 19086.35
636.2103, 19082.23
636.6924, 19089.68
637.1745, 19100.82
637.6566, 19104.39
638.1387, 19095.75
638.6208, 19072.60
639.1030, 19019.87
639.5851, 18939.74
640.0672, 18905.41
640.5493, 18932.02
641.0314, 18961.09
641.5135, 18969.30
641.9957, 18961.38
642.4778, 18942.47
642.9599, 18907.67
643.4420, 18887.01
643.9241, 18901.77
644.4063, 18918.47
644.8884, 18915.87
645.3705, 18897.66
645.8526, 18873.02
646.3347, 18845.53
646.8168, 18815.59
647.2990, 18783.57
647.7811, 18749.48
648.2632, 18711.26
648.7453, 18665.03
649.2274, 18629.93
649.7095, 18624.11
650.1917, 18626.20
650.6738, 18601.51
651.1559, 18547.21
651.6380, 18492.27
652.1201, 18428.07
652.6022, 18377.35
653.0844, 18353.89
653.5665, 18353.06
654.0486, 18375.16
654.5307, 18416.81
655.0128, 18450.40
655.4949, 18440.33
655.9771, 18394.55
656.4592, 18359.41
656.9413, 18333.85
657.4234, 18328.05
657.9055, 18363.91
658.3876, 18401.57
658.8698, 18371.75
659.3519, 18269.08
659.8340, 18211.05
660.3161, 18241.96
660.7982, 18282.28
661.2803, 18304.31
661.7625, 18310.54
662.2446, 18305.51
662.7267, 18290.83
663.2088, 18266.85
663.6909, 18228.27
664.1730, 18183.59
664.6552, 18159.07
665.1373, 18155.56
665.6194, 18162.80
666.1015, 18186.04
666.5836, 18202.44
667.0657, 18183.65
667.5479, 18128.15
