##NAMES=Congolite
##RRUFFID=R070149
##IDEAL CHEMISTRY=Fe^2+^_3_B_7_O_13_Cl
##LOCALITY=Lower Saxony, Germany
##OWNER=RRUFF
##SOURCE=James Shigley
##DESCRIPTION=Light brown pseudocubic crystal
##STATUS=The identification of this mineral is confirmed by single-crystal X-ray diffraction and chemical analysis.
##URL=rruff.info/R070149
##MEASURED CHEMISTRY=light core: (Fe^2+^_2.32_Mg_0.52_Mn_0.16_)_Σ=3_B_7_O_13_Cl_1.00_ ; gray rim: (Fe^2+^_2.16_Mg_0.77_Mn_0.17_)_Σ=3_B_7_O_13_Cl_1.00_ ; B estimated by difference and stoichiometry
164.6452, 35475.27
165.1273, 35487.39
165.6094, 35546.20
166.0915, 35628.80
166.5736, 35708.30
167.0558, 35780.42
167.5379, 35842.11
168.0200, 35878.70
168.5021, 35887.09
168.9842, 35915.21
169.4663, 36020.05
169.9485, 36166.09
170.4306, 36290.63
170.9127, 36358.45
171.3948, 36392.23
171.8769, 36408.72
172.3590, 36406.83
172.8412, 36400.94
173.3233, 36398.42
173.8054, 36401.02
174.2875, 36413.59
174.7696, 36443.13
175.2517, 36483.23
175.7339, 36523.91
176.2160, 36562.43
176.6981, 36605.26
177.1802, 36669.45
177.6623, 36749.65
178.1444, 36817.54
178.6266, 36842.55
179.1087, 36843.14
179.5908, 36862.72
180.0729, 36923.71
180.5550, 36988.28
181.0371, 36971.88
181.5193, 36881.89
182.0014, 36823.53
182.4835, 36926.46
182.9656, 37137.29
183.4477, 37280.24
183.9299, 37279.66
184.4120, 37203.29
184.8941, 37187.07
185.3762, 37232.10
185.8583, 37308.99
186.3404, 37412.03
186.8226, 37532.41
187.3047, 37620.83
187.7868, 37638.27
188.2689, 37613.73
188.7510, 37652.13
189.2331, 37760.82
189.7153, 37885.98
190.1974, 37953.59
190.6795, 37967.65
191.1616, 38003.55
191.6437, 38103.87
192.1258, 38256.89
192.6080, 38380.17
193.0901, 38474.36
193.5722, 38543.20
194.0543, 38582.92
194.5364, 38592.07
195.0185, 38606.90
195.5007, 38643.48
195.9828, 38701.67
196.4649, 38767.80
196.9470, 38846.01
197.4291, 38926.43
197.9112, 38990.16
198.3934, 39035.00
198.8755, 39078.60
199.3576, 39133.91
199.8397, 39202.43
200.3218, 39251.86
200.8039, 39274.20
201.2861, 39283.96
201.7682, 39315.70
202.2503, 39373.96
202.7324, 39435.77
203.2145, 39486.16
203.6966, 39522.44
204.1788, 39566.81
204.6609, 39619.77
205.1430, 39682.09
205.6251, 39763.80
206.1072, 39877.78
206.5893, 39975.18
207.0715, 40010.21
207.5536, 39961.28
208.0357, 39954.74
208.5178, 40014.83
208.9999, 40126.14
209.4820, 40230.81
209.9642, 40335.88
210.4463, 40419.32
210.9284, 40457.79
211.4105, 40435.64
211.8926, 40421.88
212.3748, 40422.73
212.8569, 40439.12
213.3390, 40484.36
213.8211, 40574.45
214.3032, 40665.55
214.7853, 40719.12
215.2675, 40723.48
215.7496, 40720.94
216.2317, 40710.85
216.7138, 40695.22
217.1959, 40715.33
217.6780, 40790.17
218.1602, 40875.28
218.6423, 40925.81
219.1244, 40929.13
219.6065, 40927.58
220.0886, 40920.23
220.5707, 40905.82
221.0529, 40942.14
221.5350, 41063.56
222.0171, 41197.37
222.4992, 41263.08
222.9813, 41228.64
223.4634, 41192.27
223.9456, 41174.23
224.4277, 41175.33
224.9098, 41185.34
225.3919, 41205.36
225.8740, 41233.29
226.3561, 41265.26
226.8383, 41292.82
227.3204, 41341.35
227.8025, 41430.24
228.2846, 41573.10
228.7667, 41656.72
229.2488, 41653.95
229.7310, 41612.04
230.2131, 41592.42
230.6952, 41604.09
231.1773, 41622.61
231.6594, 41642.76
232.1415, 41665.20
232.6237, 41683.36
233.1058, 41684.51
233.5879, 41689.98
234.0700, 41736.82
234.5521, 41856.54
235.0342, 41964.30
235.5164, 42033.70
235.9985, 42058.98
236.4806, 42065.09
236.9627, 42034.27
237.4448, 41994.94
237.9269, 41997.06
238.4091, 42066.95
238.8912, 42136.41
239.3733, 42180.36
239.8554, 42186.23
240.3375, 42209.58
240.8196, 42259.14
241.3018, 42321.55
241.7839, 42374.18
242.2660, 42414.32
242.7481, 42449.04
243.2302, 42480.71
243.7124, 42509.67
244.1945, 42533.34
244.6766, 42544.43
245.1587, 42553.73
245.6408, 42583.85
246.1229, 42646.57
246.6051, 42710.86
247.0872, 42763.99
247.5693, 42799.15
248.0514, 42844.50
248.5335, 42908.62
249.0156, 42979.42
249.4978, 43028.73
249.9799, 43044.33
250.4620, 43059.03
250.9441, 43085.82
251.4262, 43129.55
251.9083, 43172.12
252.3905, 43214.16
252.8726, 43254.54
253.3547, 43290.71
253.8368, 43325.96
254.3189, 43351.61
254.8010, 43359.27
255.2832, 43332.83
255.7653, 43338.02
256.2474, 43388.80
256.7295, 43464.38
257.2116, 43514.70
257.6937, 43523.72
258.1758, 43538.71
258.6580, 43587.55
259.1401, 43696.14
259.6222, 43749.77
260.1043, 43720.20
260.5865, 43651.72
261.0686, 43645.77
261.5507, 43726.15
262.0328, 43816.83
262.5149, 43885.18
262.9970, 43922.18
263.4792, 43973.11
263.9613, 44052.39
264.4434, 44135.93
264.9255, 44167.90
265.4076, 44130.44
265.8897, 44086.87
266.3719, 44059.79
266.8540, 44047.52
267.3361, 44063.05
267.8182, 44114.83
268.3003, 44186.79
268.7824, 44250.30
269.2646, 44306.22
269.7467, 44349.96
270.2288, 44376.77
270.7109, 44382.55
271.1930, 44395.38
271.6751, 44417.46
272.1573, 44444.38
272.6394, 44468.42
273.1215, 44489.49
273.6036, 44508.10
274.0857, 44521.40
274.5678, 44527.78
275.0500, 44547.53
275.5321, 44585.15
276.0142, 44630.04
276.4963, 44663.32
276.9784, 44683.50
277.4605, 44701.07
277.9427, 44718.09
278.4248, 44734.25
278.9069, 44760.10
279.3890, 44796.99
279.8711, 44840.83
280.3532, 44887.23
280.8354, 44936.71
281.3175, 44983.27
281.7996, 45024.00
282.2817, 45059.21
282.7638, 45088.51
283.2459, 45109.62
283.7281, 45130.98
284.2102, 45176.82
284.6923, 45247.66
285.1744, 45288.79
285.6565, 45243.50
286.1386, 45134.12
286.6208, 45122.44
287.1029, 45224.95
287.5850, 45364.78
288.0671, 45448.91
288.5492, 45480.55
289.0313, 45500.54
289.5135, 45525.50
289.9956, 45551.93
290.4777, 45562.44
290.9598, 45554.44
291.4419, 45547.70
291.9240, 45565.41
292.4062, 45605.16
292.8883, 45651.93
293.3704, 45704.94
293.8525, 45760.11
294.3346, 45813.23
294.8167, 45864.77
295.2989, 45901.98
295.7810, 45886.69
296.2631, 45840.48
296.7452, 45837.36
297.2273, 45945.68
297.7094, 46093.64
298.1916, 46149.55
298.6737, 46113.38
299.1558, 46061.20
299.6379, 46055.28
300.1200, 46083.25
300.6021, 46116.95
301.0843, 46142.96
301.5664, 46172.86
302.0485, 46228.48
302.5306, 46307.89
303.0127, 46382.02
303.4948, 46427.70
303.9770, 46454.34
304.4591, 46478.25
304.9412, 46507.22
305.4233, 46532.00
305.9054, 46539.43
306.3875, 46532.25
306.8697, 46526.54
307.3518, 46521.51
307.8339, 46527.75
308.3160, 46561.42
308.7981, 46647.66
309.2802, 46733.75
309.7624, 46773.80
310.2445, 46777.36
310.7266, 46780.25
311.2087, 46798.52
311.6908, 46826.54
312.1729, 46860.14
312.6551, 46902.46
313.1372, 46943.88
313.6193, 46978.45
314.1014, 47007.81
314.5835, 47035.79
315.0656, 47059.09
315.5478, 47085.05
316.0299, 47123.68
316.5120, 47193.37
316.9941, 47238.07
317.4762, 47206.99
317.9583, 47137.46
318.4405, 47101.81
318.9226, 47147.13
319.4047, 47213.43
319.8868, 47275.91
320.3690, 47334.94
320.8511, 47380.02
321.3332, 47387.46
321.8153, 47383.50
322.2974, 47408.34
322.7795, 47521.70
323.2617, 47617.97
323.7438, 47653.00
324.2259, 47603.25
324.7080, 47576.67
325.1901, 47612.65
325.6722, 47667.77
326.1544, 47690.42
326.6365, 47628.84
327.1186, 47585.20
327.6007, 47583.27
328.0828, 47628.96
328.5649, 47674.13
329.0471, 47722.61
329.5292, 47768.30
330.0113, 47806.00
330.4934, 47835.65
330.9755, 47857.12
331.4576, 47862.26
331.9398, 47852.16
332.4219, 47872.16
332.9040, 47944.25
333.3861, 48022.11
333.8682, 48068.42
334.3503, 48065.85
334.8325, 48073.45
335.3146, 48094.66
335.7967, 48131.46
336.2788, 48197.64
336.7609, 48307.64
337.2430, 48417.98
337.7252, 48500.46
338.2073, 48555.15
338.6894, 48582.71
339.1715, 48568.38
339.6536, 48538.84
340.1357, 48571.72
340.6179, 48678.54
341.1000, 48792.32
341.5821, 48881.99
342.0642, 48946.18
342.5463, 48989.57
343.0284, 49007.25
343.5106, 49013.92
343.9927, 49026.91
344.4748, 49046.30
344.9569, 49086.82
345.4390, 49161.10
345.9211, 49263.63
346.4033, 49376.76
346.8854, 49503.18
347.3675, 49621.89
347.8496, 49707.59
348.3317, 49762.43
348.8138, 49796.91
349.2960, 49805.21
349.7781, 49798.56
350.2602, 49804.25
350.7423, 49822.80
351.2244, 49825.43
351.7065, 49774.25
352.1887, 49689.11
352.6708, 49610.04
353.1529, 49539.48
353.6350, 49490.66
354.1171, 49497.51
354.5992, 49549.97
355.0814, 49580.62
355.5635, 49507.93
356.0456, 49402.99
356.5277, 49351.21
357.0098, 49403.23
357.4919, 49466.90
357.9741, 49482.18
358.4562, 49461.30
358.9383, 49440.66
359.4204, 49402.21
359.9025, 49392.64
360.3846, 49461.14
360.8668, 49663.07
361.3489, 49823.37
361.8310, 49825.47
362.3131, 49745.64
362.7952, 49717.88
363.2773, 49847.97
363.7595, 49980.34
364.2416, 50044.37
364.7237, 50013.56
365.2058, 50005.29
365.6879, 50059.09
366.1700, 50137.68
366.6522, 50198.89
367.1343, 50181.21
367.6164, 50205.87
368.0985, 50325.09
368.5806, 50547.49
369.0627, 50697.79
369.5449, 50731.78
370.0270, 50726.59
370.5091, 50739.48
370.9912, 50781.91
371.4733, 50822.11
371.9554, 50850.57
372.4376, 50872.70
372.9197, 50921.67
373.4018, 51015.69
373.8839, 51104.64
374.3660, 51156.34
374.8481, 51159.88
375.3303, 51168.79
375.8124, 51184.19
376.2945, 51208.09
376.7766, 51248.23
377.2587, 51307.16
377.7408, 51367.86
378.2230, 51427.42
378.7051, 51484.89
379.1872, 51521.39
379.6693, 51531.54
380.1514, 51536.18
380.6335, 51573.16
381.1157, 51638.35
381.5978, 51678.52
382.0799, 51659.65
382.5620, 51605.48
383.0442, 51578.71
383.5263, 51579.73
384.0084, 51584.91
384.4905, 51568.43
384.9726, 51539.51
385.4547, 51523.10
385.9369, 51536.78
386.4190, 51552.32
386.9011, 51529.24
387.3832, 51474.62
387.8653, 51424.82
388.3474, 51415.80
388.8296, 51418.47
389.3117, 51393.66
389.7938, 51316.32
390.2759, 51257.50
390.7580, 51280.82
391.2401, 51355.24
391.7223, 51415.43
392.2044, 51427.59
392.6865, 51422.19
393.1686, 51407.79
393.6507, 51380.01
394.1328, 51376.83
394.6150, 51439.74
395.0971, 51522.76
395.5792, 51575.37
396.0613, 51550.11
396.5434, 51531.28
397.0255, 51553.44
397.5077, 51616.96
397.9898, 51640.15
398.4719, 51569.20
398.9540, 51488.78
399.4361, 51450.81
399.9182, 51489.33
400.4004, 51519.55
400.8825, 51532.50
401.3646, 51534.31
401.8467, 51548.16
402.3288, 51587.72
402.8109, 51615.74
403.2931, 51606.05
403.7752, 51539.02
404.2573, 51522.57
404.7394, 51571.60
405.2215, 51652.07
405.7036, 51717.12
406.1858, 51768.21
406.6679, 51791.15
407.1500, 51770.20
407.6321, 51714.40
408.1142, 51671.63
408.5963, 51639.18
409.0785, 51639.50
409.5606, 51720.48
410.0427, 51864.20
410.5248, 51969.30
411.0069, 51993.46
411.4890, 51992.29
411.9712, 52085.31
412.4533, 52255.01
412.9354, 52383.45
413.4175, 52346.58
413.8996, 52230.81
414.3817, 52164.56
414.8639, 52176.21
415.3460, 52204.37
415.8281, 52185.98
416.3102, 52147.11
416.7923, 52139.06
417.2744, 52238.08
417.7566, 52336.89
418.2387, 52348.73
418.7208, 52266.39
419.2029, 52202.11
419.6850, 52202.83
420.1671, 52244.00
420.6493, 52302.82
421.1314, 52416.07
421.6135, 52500.39
422.0956, 52526.42
422.5777, 52503.28
423.0598, 52483.08
423.5420, 52450.67
424.0241, 52439.80
424.5062, 52467.38
424.9883, 52556.70
425.4704, 52641.48
425.9525, 52730.55
426.4347, 52812.39
426.9168, 52865.99
427.3989, 52880.36
427.8810, 52888.41
428.3631, 52898.57
428.8452, 52910.82
429.3274, 52923.82
429.8095, 52936.34
430.2916, 52951.93
430.7737, 52972.39
431.2558, 52997.26
431.7379, 53036.57
432.2201, 53102.25
432.7022, 53174.39
433.1843, 53196.22
433.6664, 53167.98
434.1485, 53131.28
434.6306, 53104.30
435.1128, 53089.77
435.5949, 53098.29
436.0770, 53133.37
436.5591, 53179.36
437.0412, 53222.76
437.5233, 53263.09
438.0055, 53298.75
438.4876, 53332.02
438.9697, 53358.48
439.4518, 53374.07
439.9339, 53378.88
440.4160, 53373.74
440.8982, 53340.20
441.3803, 53305.93
441.8624, 53297.36
442.3445, 53334.70
442.8266, 53380.61
443.3088, 53425.22
443.7909, 53468.97
444.2730, 53512.22
444.7551, 53582.98
445.2372, 53630.07
445.7194, 53619.75
446.2015, 53506.14
446.6836, 53461.11
447.1657, 53541.62
447.6478, 53662.92
448.1299, 53727.63
448.6121, 53690.93
449.0942, 53674.94
449.5763, 53708.56
450.0584, 53785.85
450.5405, 53850.17
451.0226, 53905.14
451.5048, 53939.99
451.9869, 53939.23
452.4690, 53898.55
452.9511, 53877.23
453.4332, 53885.41
453.9153, 53905.13
454.3975, 53892.55
454.8796, 53850.78
455.3617, 53839.39
455.8438, 53917.50
456.3259, 54042.60
456.8080, 54106.27
457.2902, 54106.22
457.7723, 54081.54
458.2544, 54050.79
458.7365, 54021.29
459.2186, 54006.04
459.7007, 54005.98
460.1829, 54025.02
460.6650, 54091.42
461.1471, 54184.59
461.6292, 54239.79
462.1113, 54181.50
462.5934, 54106.90
463.0756, 54083.95
463.5577, 54134.88
464.0398, 54180.18
464.5219, 54187.38
465.0040, 54179.47
465.4861, 54183.39
465.9683, 54202.60
466.4504, 54234.52
466.9325, 54286.66
467.4146, 54356.20
467.8967, 54411.53
468.3788, 54441.49
468.8610, 54470.24
469.3431, 54517.45
469.8252, 54604.96
470.3073, 54639.67
470.7894, 54599.98
471.2715, 54527.39
471.7537, 54494.85
472.2358, 54505.70
472.7179, 54531.63
473.2000, 54564.79
473.6821, 54604.84
474.1642, 54659.38
474.6464, 54730.84
475.1285, 54784.63
475.6106, 54772.68
476.0927, 54717.23
476.5748, 54683.27
477.0569, 54686.84
477.5391, 54709.09
478.0212, 54740.50
478.5033, 54775.14
478.9854, 54795.99
479.4675, 54754.47
479.9496, 54722.00
480.4318, 54775.46
480.9139, 54926.22
481.3960, 55050.45
481.8781, 55073.07
482.3602, 55051.15
482.8423, 55038.74
483.3245, 55056.35
483.8066, 55075.30
484.2887, 55078.28
484.7708, 55074.98
485.2529, 55108.07
485.7350, 55244.66
486.2172, 55346.60
486.6993, 55347.39
487.1814, 55205.07
487.6635, 55142.03
488.1456, 55188.52
488.6277, 55279.07
489.1099, 55335.35
489.5920, 55349.71
490.0741, 55376.43
490.5562, 55437.45
491.0383, 55513.35
491.5204, 55532.85
492.0026, 55494.19
492.4847, 55451.27
492.9668, 55432.63
493.4489, 55437.34
493.9310, 55467.60
494.4131, 55526.03
494.8953, 55593.38
495.3774, 55650.70
495.8595, 55702.27
496.3416, 55754.54
496.8237, 55825.44
497.3058, 55886.27
497.7880, 55917.20
498.2701, 55920.08
498.7522, 55906.29
499.2343, 55830.93
499.7164, 55775.21
500.1985, 55803.41
500.6807, 55981.31
501.1628, 56107.73
501.6449, 56108.88
502.1270, 56052.34
502.6091, 56033.95
503.0912, 56070.53
503.5734, 56126.66
504.0555, 56210.44
504.5376, 56314.98
505.0197, 56373.75
505.5019, 56370.07
505.9840, 56353.53
506.4661, 56354.16
506.9482, 56373.36
507.4303, 56393.26
507.9124, 56411.82
508.3946, 56433.56
508.8767, 56465.77
509.3588, 56507.72
509.8409, 56553.38
510.3230, 56603.79
510.8051, 56654.63
511.2873, 56695.32
511.7694, 56727.00
512.2515, 56759.06
512.7336, 56804.71
513.2157, 56851.55
513.6978, 56879.72
514.1799, 56874.36
514.6620, 56887.29
515.1442, 56964.78
515.6263, 57074.57
516.1084, 57167.57
516.5905, 57223.47
517.0726, 57268.10
517.5547, 57305.43
518.0369, 57336.20
518.5190, 57367.70
519.0011, 57403.80
519.4832, 57437.43
519.9653, 57463.82
520.4474, 57475.99
520.9296, 57498.51
521.4117, 57532.32
521.8938, 57575.50
522.3759, 57628.66
522.8580, 57694.38
523.3401, 57755.54
523.8223, 57819.14
524.3044, 57869.68
524.7865, 57841.38
525.2686, 57735.77
525.7507, 57636.29
526.2328, 57612.17
526.7150, 57634.95
527.1971, 57649.30
527.6792, 57648.71
528.1613, 57640.00
528.6434, 57634.68
529.1255, 57624.00
529.6077, 57594.23
530.0898, 57508.46
530.5719, 57432.04
531.0540, 57402.13
531.5361, 57411.43
532.0182, 57418.82
532.5004, 57394.75
532.9825, 57381.25
533.4646, 57401.88
533.9467, 57473.17
534.4288, 57537.80
534.9109, 57609.68
535.3931, 57664.84
535.8752, 57666.79
536.3574, 57584.76
536.8395, 57545.79
537.3216, 57584.87
537.8037, 57674.30
538.2858, 57724.43
538.7679, 57732.92
539.2501, 57734.50
539.7322, 57749.18
540.2143, 57773.04
540.6964, 57787.85
541.1785, 57791.48
541.6606, 57806.30
542.1428, 57866.59
542.6249, 57950.11
543.1070, 58019.57
543.5891, 58066.94
544.0712, 58093.25
544.5533, 58075.08
545.0355, 58035.21
545.5176, 58029.68
545.9997, 58131.38
546.4818, 58225.67
546.9639, 58239.11
547.4460, 58149.95
547.9282, 58138.38
548.4103, 58297.29
548.8924, 58476.20
549.3745, 58572.46
549.8566, 58530.91
550.3387, 58536.26
550.8209, 58615.98
551.3030, 58730.57
551.7851, 58802.01
552.2672, 58827.27
552.7493, 58836.96
553.2314, 58829.39
553.7136, 58817.64
554.1957, 58864.91
554.6778, 58969.86
555.1599, 59050.15
555.6420, 59015.45
556.1241, 58920.48
556.6063, 58856.83
557.0884, 58842.37
557.5705, 58839.63
558.0526, 58809.61
558.5347, 58776.75
559.0168, 58776.06
559.4990, 58878.01
559.9811, 58954.82
560.4632, 58942.44
560.9453, 58859.14
561.4274, 58801.35
561.9095, 58804.66
562.3917, 58815.64
562.8738, 58812.88
563.3559, 58789.45
563.8380, 58787.95
564.3201, 58811.54
564.8022, 58852.56
565.2844, 58913.09
565.7665, 58997.92
566.2486, 59052.70
566.7307, 59064.87
567.2128, 59050.17
567.6949, 59031.94
568.1771, 59011.35
568.6592, 58997.67
569.1413, 58992.73
569.6234, 58998.56
570.1055, 59032.14
570.5876, 59089.86
571.0698, 59121.80
571.5519, 59052.34
572.0340, 58967.18
572.5161, 58949.74
572.9982, 59047.27
573.4803, 59135.41
573.9625, 59178.39
574.4446, 59190.55
574.9267, 59190.04
575.4088, 59169.77
575.8909, 59147.47
576.3730, 59112.00
576.8552, 59074.27
577.3373, 59100.29
577.8194, 59218.02
578.3015, 59325.89
578.7836, 59358.06
579.2657, 59317.58
579.7479, 59333.88
580.2300, 59413.47
580.7121, 59507.38
581.1942, 59568.15
581.6763, 59602.35
582.1584, 59630.61
582.6406, 59663.37
583.1227, 59678.10
583.6048, 59623.75
584.0869, 59535.02
584.5690, 59487.10
585.0511, 59537.73
585.5333, 59614.82
586.0154, 59699.28
586.4975, 59787.69
586.9796, 59838.57
587.4617, 59793.52
587.9438, 59751.44
588.4260, 59768.65
588.9081, 59887.46
589.3902, 59941.25
589.8723, 59895.00
590.3544, 59825.65
590.8365, 59835.68
591.3187, 59935.36
591.8008, 60011.27
592.2829, 60037.39
592.7650, 60031.71
593.2471, 60014.46
593.7292, 59990.84
594.2114, 59999.35
594.6935, 60091.80
595.1756, 60211.68
595.6577, 60285.58
596.1398, 60313.87
596.6219, 60333.80
597.1041, 60366.66
597.5862, 60401.41
598.0683, 60428.84
598.5504, 60443.54
599.0325, 60459.10
599.5146, 60461.84
599.9968, 60473.48
600.4789, 60523.84
600.9610, 60646.23
601.4431, 60751.02
601.9252, 60824.32
602.4073, 60870.26
602.8895, 60908.48
603.3716, 60940.98
603.8537, 60955.40
604.3358, 60921.73
604.8179, 60861.25
605.3000, 60882.46
605.7822, 60988.41
606.2643, 61119.21
606.7464, 61265.77
607.2285, 61393.27
607.7106, 61436.14
608.1927, 61357.24
608.6749, 61272.96
609.1570, 61263.89
609.6391, 61295.91
610.1212, 61320.63
610.6033, 61319.04
611.0854, 61314.38
611.5676, 61301.46
612.0497, 61287.48
612.5318, 61306.22
613.0139, 61386.88
613.4960, 61455.25
613.9781, 61478.61
614.4603, 61457.32
614.9424, 61441.09
615.4245, 61426.63
615.9066, 61430.92
616.3887, 61487.90
616.8708, 61581.73
617.3530, 61625.47
617.8351, 61595.84
618.3172, 61568.08
618.7993, 61629.01
619.2814, 61748.28
619.7635, 61870.30
620.2457, 62008.46
620.7278, 62107.83
621.2099, 62112.61
621.6920, 62051.45
622.1741, 62011.80
622.6563, 62047.40
623.1384, 62077.20
623.6205, 62060.93
624.1026, 61994.33
624.5847, 61978.91
625.0668, 62037.22
625.5490, 62110.07
626.0311, 62156.55
626.5132, 62175.00
626.9953, 62198.73
627.4774, 62229.71
627.9595, 62264.82
628.4417, 62307.41
628.9238, 62352.21
629.4059, 62373.25
629.8880, 62334.20
630.3701, 62317.32
630.8522, 62440.64
631.3344, 62650.86
631.8165, 62822.05
632.2986, 62823.47
632.7807, 62844.13
633.2628, 63015.28
633.7449, 63331.23
634.2271, 63534.76
634.7092, 63517.54
635.1913, 63467.85
635.6734, 63461.36
636.1555, 63497.23
636.6376, 63587.68
637.1198, 63750.96
637.6019, 63931.27
638.0840, 64084.03
638.5661, 64208.73
639.0482, 64287.80
639.5303, 64299.34
640.0125, 64313.13
640.4946, 64456.33
640.9767, 64675.61
641.4588, 64843.36
641.9409, 64866.91
642.4230, 64850.61
642.9052, 64864.26
643.3873, 64895.85
643.8694, 64897.09
644.3515, 64846.40
644.8336, 64768.60
645.3157, 64671.96
645.7979, 64557.91
646.2800, 64424.60
646.7621, 64265.86
647.2442, 64098.88
647.7263, 63926.63
648.2084, 63743.06
648.6906, 63626.56
649.1727, 63597.83
649.6548, 63581.26
650.1369, 63455.41
650.6190, 63261.98
651.1011, 63131.42
651.5833, 63122.73
652.0654, 63153.64
652.5475, 63165.38
653.0296, 63158.14
653.5117, 63132.32
653.9938, 63048.09
654.4760, 62984.39
654.9581, 62992.57
655.4402, 63065.18
655.9223, 63095.30
656.4044, 63021.92
656.8865, 62978.70
657.3687, 63037.81
657.8508, 63211.79
