##NAMES=Conichalcite
##RRUFFID=R120017
##IDEAL CHEMISTRY=CaCu^2+^As^5+^O_4_(OH)
##LOCALITY=New Cornelia mine, Ajo, Arizona, USA
##OWNER=RRUFF
##SOURCE=Ron Gibbs
##DESCRIPTION=Elongated tufts of yellowish-green crystals, associated with ajoite, R120018
##STATUS=The identification of this mineral has been confirmed by single-crystal X-ray diffraction.
##URL=rruff.info/R120017
90.01007, 0.0000000E+00
90.49219, 51.17250
90.97430, 51.60677
91.45642, 51.56310
91.93854, 51.06590
92.42065, 50.31996
92.90277, 49.33608
93.38489, 48.21766
93.86700, 47.21078
94.34912, 46.41196
94.83124, 45.78301
95.31335, 45.36997
95.79547, 45.21691
96.27759, 44.94454
96.75970, 43.81879
97.24182, 41.93169
97.72394, 40.48127
98.20605, 40.19335
98.68817, 40.96226
99.17029, 41.46491
99.65240, 41.63778
100.1345, 41.62438
100.6166, 41.78210
101.0988, 42.21394
101.5809, 42.37037
102.0630, 41.82658
102.5451, 40.37803
103.0272, 39.23095
103.5093, 38.49537
103.9915, 38.11064
104.4736, 37.81311
104.9557, 37.65035
105.4378, 37.50939
105.9199, 37.31364
106.4020, 37.03465
106.8842, 36.75297
107.3663, 36.50332
107.8484, 36.29010
108.3305, 35.94056
108.8126, 35.21951
109.2947, 34.49830
109.7769, 34.12028
110.2590, 34.58640
110.7411, 34.88811
111.2232, 34.81200
111.7053, 34.26812
112.1874, 33.73785
112.6696, 33.21592
113.1517, 32.73417
113.6338, 32.33387
114.1159, 32.11128
114.5980, 31.89849
115.0801, 31.63952
115.5623, 31.33349
116.0444, 30.97008
116.5265, 30.44781
117.0086, 29.85972
117.4907, 29.41890
117.9728, 29.37274
118.4550, 29.38673
118.9371, 29.24841
119.4192, 28.87105
119.9013, 28.40091
120.3834, 27.73468
120.8655, 26.97572
121.3477, 26.52685
121.8298, 26.99456
122.3119, 27.75567
122.7940, 28.13952
123.2761, 27.70865
123.7582, 27.03632
124.2404, 26.53725
124.7225, 26.20959
125.2046, 26.02994
125.6867, 26.17355
126.1688, 26.44500
126.6509, 26.48723
127.1331, 25.97689
127.6152, 25.22104
128.0973, 24.63218
128.5794, 24.20947
129.0615, 23.96448
129.5436, 24.02640
130.0258, 24.32353
130.5079, 24.54023
130.9900, 24.50965
131.4721, 24.28583
131.9542, 24.00091
132.4363, 23.63334
132.9185, 23.28709
133.4006, 23.13854
133.8827, 23.18709
134.3648, 23.27716
134.8469, 23.36177
135.3290, 23.43542
135.8112, 23.41442
136.2933, 23.28569
136.7754, 23.06877
137.2575, 22.80105
137.7396, 22.47625
138.2217, 22.11840
138.7039, 21.69073
139.1860, 21.15934
139.6681, 20.80606
140.1502, 20.71249
140.6323, 20.81067
141.1144, 20.77904
141.5966, 20.54412
142.0787, 20.31948
142.5608, 20.28608
143.0429, 20.52115
143.5250, 20.72936
144.0071, 20.86810
144.4893, 20.93812
144.9714, 21.00022
145.4535, 21.12568
145.9356, 21.17184
146.4177, 20.97504
146.8998, 20.26135
147.3820, 19.73495
147.8641, 19.59154
148.3462, 19.91254
148.8283, 20.05212
149.3104, 19.92240
149.7925, 19.65368
150.2747, 19.38838
150.7568, 18.99012
151.2389, 18.74183
151.7210, 18.73870
152.2031, 19.06993
152.6852, 19.36019
153.1674, 19.57488
153.6495, 19.75386
154.1316, 19.95627
154.6137, 20.23010
155.0958, 20.49057
155.5779, 20.67980
156.0601, 20.68240
156.5422, 20.87422
157.0243, 21.37410
157.5064, 22.09554
157.9885, 22.87099
158.4706, 23.45351
158.9528, 24.23636
159.4349, 25.41676
159.9170, 27.14759
160.3991, 29.05926
160.8812, 31.11159
161.3633, 33.27668
161.8455, 35.48127
162.3276, 37.31161
162.8097, 39.39607
163.2918, 42.21783
163.7739, 46.31188
164.2560, 50.54099
164.7382, 54.35320
165.2203, 57.87044
165.7024, 61.55943
166.1845, 65.99683
166.6666, 70.56530
167.1487, 74.63923
167.6309, 77.63347
168.1130, 80.58518
168.5951, 84.40475
169.0772, 88.90670
169.5593, 92.86089
170.0414, 94.97762
170.5236, 96.30721
171.0057, 98.08829
171.4878, 101.2017
171.9699, 104.5881
172.4520, 107.2303
172.9341, 109.1982
173.4163, 111.2239
173.8984, 113.7096
174.3805, 116.6472
174.8626, 119.9313
175.3447, 123.4799
175.8268, 127.4306
176.3090, 132.1189
176.7911, 137.5103
177.2732, 143.0298
177.7553, 147.1696
178.2374, 150.3285
178.7195, 154.1126
179.2017, 159.8423
179.6838, 166.3919
180.1659, 171.7052
180.6480, 175.7389
181.1301, 179.8103
181.6122, 185.4699
182.0944, 192.3659
182.5765, 199.2030
183.0586, 205.8830
183.5407, 212.0751
184.0228, 217.2927
184.5049, 221.4425
184.9871, 224.9696
185.4692, 228.2600
185.9513, 231.3310
186.4334, 234.0798
186.9155, 236.2153
187.3976, 237.9788
187.8798, 240.2867
188.3619, 243.2359
188.8440, 246.4187
189.3261, 249.1970
189.8082, 251.6224
190.2903, 254.0500
190.7725, 256.5123
191.2546, 259.1021
191.7367, 262.2114
192.2188, 265.9399
192.7009, 269.9906
193.1830, 273.8117
193.6652, 277.3870
194.1473, 280.9993
194.6294, 284.9956
195.1115, 289.2990
195.5936, 292.8077
196.0757, 295.3286
196.5579, 297.2708
197.0400, 299.1888
197.5221, 301.0266
198.0042, 303.3786
198.4863, 306.7367
198.9684, 311.0966
199.4506, 315.6138
199.9327, 320.2662
200.4148, 324.9416
200.8969, 329.3577
201.3790, 333.5591
201.8611, 337.5162
202.3433, 341.1786
202.8254, 344.5287
203.3075, 347.9508
203.7896, 351.6836
204.2717, 355.2894
204.7538, 357.5601
205.2360, 358.3624
205.7181, 358.3309
206.2002, 357.9651
206.6823, 357.4120
207.1644, 355.4948
207.6465, 351.8746
208.1287, 346.9727
208.6108, 341.8871
209.0929, 336.6322
209.5750, 331.1279
210.0571, 325.3296
210.5392, 319.1329
211.0214, 312.9889
211.5035, 306.8627
211.9856, 300.8615
212.4677, 295.0623
212.9498, 289.2791
213.4319, 284.0958
213.9140, 279.9874
214.3962, 277.3405
214.8783, 274.3472
215.3604, 270.7171
215.8425, 266.6529
216.3246, 263.2405
216.8067, 260.8666
217.2889, 258.3372
217.7710, 254.7369
218.2531, 249.4940
218.7352, 244.8564
219.2173, 241.1681
219.6994, 238.1703
220.1816, 234.8150
220.6637, 230.8082
221.1458, 226.8463
221.6279, 223.4370
222.1100, 220.7515
222.5921, 218.0967
223.0743, 215.4538
223.5564, 212.8042
224.0385, 209.8508
224.5206, 206.4068
225.0027, 203.0658
225.4848, 200.1952
225.9670, 197.9006
226.4491, 195.9280
226.9312, 194.4906
227.4133, 193.3885
227.8954, 191.5060
228.3775, 188.5505
228.8597, 185.3027
229.3418, 182.2275
229.8239, 179.3105
230.3060, 176.6170
230.7881, 174.2487
231.2702, 172.1140
231.7524, 169.8430
232.2345, 167.2204
232.7166, 164.7943
233.1987, 162.9856
233.6808, 162.2183
234.1629, 161.0995
234.6451, 159.3087
235.1272, 157.0759
235.6093, 155.3975
236.0914, 154.4724
236.5735, 153.8270
237.0556, 153.2239
237.5378, 152.7052
238.0199, 152.1251
238.5020, 151.3581
238.9841, 150.5212
239.4662, 150.1606
239.9483, 150.6239
240.4305, 151.0969
240.9126, 151.0995
241.3947, 150.2495
241.8768, 149.8159
242.3589, 150.1374
242.8410, 150.9003
243.3232, 150.8865
243.8053, 149.3991
244.2874, 148.0928
244.7695, 147.8787
245.2516, 149.3431
245.7337, 150.5818
246.2159, 151.5560
246.6980, 152.2627
247.1801, 152.6170
247.6622, 152.2883
248.1443, 152.1053
248.6264, 152.5125
249.1086, 153.8528
249.5907, 154.9315
250.0728, 155.5180
250.5549, 155.8924
251.0370, 156.8618
251.5191, 158.8180
252.0013, 160.7569
252.4834, 162.2117
252.9655, 162.8828
253.4476, 163.8255
253.9297, 165.0980
254.4118, 166.6158
254.8940, 168.2101
255.3761, 169.8232
255.8582, 171.6217
256.3403, 173.6544
256.8224, 175.9020
257.3046, 178.4523
257.7867, 181.4620
258.2688, 184.6440
258.7509, 187.3912
259.2330, 189.4744
259.7151, 191.5204
260.1973, 193.7005
260.6794, 195.8821
261.1615, 198.6623
261.6436, 202.2649
262.1257, 206.2390
262.6078, 209.6981
263.0900, 212.1975
263.5721, 215.1954
264.0542, 219.3175
264.5363, 224.8589
265.0184, 229.9057
265.5005, 234.3967
265.9827, 238.5794
266.4648, 242.8753
266.9469, 247.2700
267.4290, 251.7227
267.9111, 256.1255
268.3932, 260.4058
268.8754, 265.7227
269.3575, 272.5561
269.8396, 279.6664
270.3217, 285.0977
270.8038, 288.2215
271.2859, 292.0692
271.7681, 297.8426
272.2502, 305.4064
272.7323, 311.4767
273.2144, 315.6402
273.6965, 318.9292
274.1786, 322.2343
274.6608, 325.5161
275.1429, 329.2597
275.6250, 333.8925
276.1071, 339.1623
276.5892, 343.2553
277.0714, 345.9479
277.5535, 347.9169
278.0356, 349.6465
278.5177, 351.1088
278.9998, 352.5964
279.4819, 354.1446
279.9641, 355.7698
280.4462, 357.5649
280.9283, 359.6075
281.4104, 361.5015
281.8925, 363.0405
282.3746, 364.2309
282.8568, 364.8784
283.3389, 365.0281
283.8210, 364.5750
284.3031, 363.0396
284.7852, 360.3345
285.2673, 357.3163
285.7495, 354.7055
286.2316, 352.4354
286.7137, 349.6019
287.1958, 346.1703
287.6779, 342.0150
288.1600, 336.7502
288.6422, 330.3654
289.1243, 323.3577
289.6064, 315.9779
290.0885, 308.2499
290.5706, 300.4905
291.0527, 292.5398
291.5349, 285.0064
292.0170, 279.1559
292.4991, 274.9003
292.9812, 270.7050
293.4633, 265.6224
293.9454, 259.9629
294.4276, 254.6513
294.9097, 249.7287
295.3918, 245.4224
295.8739, 242.2991
296.3560, 240.1964
296.8381, 238.1930
297.3203, 235.5030
297.8024, 232.7060
298.2845, 230.9277
298.7666, 230.1994
299.2487, 230.3737
299.7308, 231.6767
300.2130, 233.8198
300.6951, 235.9447
301.1772, 237.4706
301.6593, 238.8913
302.1414, 240.8515
302.6235, 243.3343
303.1057, 246.4031
303.5878, 250.2505
304.0699, 254.6953
304.5520, 259.3317
305.0341, 264.0299
305.5162, 268.8473
305.9984, 273.5593
306.4805, 278.2659
306.9626, 283.9688
307.4447, 291.6238
307.9268, 300.5629
308.4089, 309.8460
308.8911, 319.3174
309.3732, 328.9500
309.8553, 338.4793
310.3374, 348.0424
310.8195, 358.3331
311.3016, 369.8739
311.7838, 382.0939
312.2659, 394.5475
312.7480, 406.8968
313.2301, 419.9409
313.7122, 434.2142
314.1943, 449.6785
314.6765, 465.9487
315.1586, 482.6019
315.6407, 500.1281
316.1228, 519.0926
316.6049, 539.5816
317.0870, 561.0676
317.5692, 583.2862
318.0513, 606.2063
318.5334, 629.6599
319.0155, 654.1915
319.4976, 678.7480
319.9797, 702.7870
320.4619, 726.2855
320.9440, 749.2474
321.4261, 772.3842
321.9082, 794.4692
322.3903, 814.2360
322.8724, 830.5516
323.3546, 845.3773
323.8367, 860.0388
324.3188, 874.4033
324.8009, 884.8085
325.2830, 888.5693
325.7651, 889.3996
326.2473, 889.6854
326.7294, 891.1048
327.2115, 890.3527
327.6936, 886.6105
328.1757, 880.3066
328.6578, 873.3544
329.1400, 864.6306
329.6221, 856.2589
330.1042, 849.1387
330.5863, 844.4871
331.0684, 839.0112
331.5505, 831.8805
332.0327, 824.0908
332.5148, 818.0339
332.9969, 815.0776
333.4790, 811.9445
333.9611, 807.2965
334.4432, 800.5406
334.9254, 794.6610
335.4075, 790.6328
335.8896, 786.6853
336.3717, 780.1082
336.8538, 769.7853
337.3359, 759.6793
337.8180, 751.2356
338.3001, 744.4503
338.7823, 736.1954
339.2644, 726.5478
339.7465, 715.5169
340.2286, 702.7115
340.7107, 687.9101
341.1928, 673.3105
341.6750, 659.5087
342.1571, 646.3458
342.6392, 634.3256
343.1213, 623.6116
343.6034, 612.6625
344.0855, 599.6317
344.5677, 584.7585
345.0498, 571.2568
345.5319, 559.7343
346.0140, 549.5524
346.4961, 539.6403
346.9782, 530.0364
347.4604, 520.6723
347.9425, 511.5518
348.4246, 502.6642
348.9067, 494.4720
349.3888, 487.1256
349.8709, 479.8288
350.3531, 471.0771
350.8352, 461.3934
351.3173, 452.7596
351.7994, 446.5790
352.2815, 441.7198
352.7636, 436.1162
353.2458, 429.7635
353.7279, 423.7224
354.2100, 419.0743
354.6921, 415.3174
355.1742, 411.6113
355.6563, 407.6660
356.1385, 403.6351
356.6206, 399.4589
357.1027, 395.2132
357.5848, 391.3915
358.0669, 388.6889
358.5490, 386.3075
359.0312, 383.3986
359.5133, 379.4161
359.9954, 375.6973
360.4775, 373.2461
360.9596, 371.6104
361.4417, 369.8667
361.9239, 367.6217
362.4060, 365.1674
362.8881, 362.6364
363.3702, 360.0323
363.8523, 357.4201
364.3344, 354.9637
364.8166, 352.4615
365.2987, 349.6604
365.7808, 346.0294
366.2629, 342.6421
366.7450, 340.0192
367.2271, 338.1558
367.7093, 335.8084
368.1914, 332.5741
368.6735, 328.9693
369.1556, 325.2916
369.6377, 320.9961
370.1198, 317.4380
370.6020, 315.1347
371.0841, 313.6682
371.5662, 311.4931
372.0483, 308.0922
372.5304, 304.6405
373.0125, 301.6909
373.4947, 299.6508
373.9768, 296.9330
374.4589, 293.1318
374.9410, 288.9471
375.4231, 285.6472
375.9052, 283.5905
376.3874, 281.3323
376.8695, 278.2322
377.3516, 274.3029
377.8337, 271.6102
378.3158, 270.3208
378.7979, 269.7016
379.2801, 269.1753
379.7622, 268.7493
380.2443, 268.2057
380.7264, 267.4947
381.2085, 266.6380
381.6906, 265.5907
382.1728, 264.3472
382.6549, 263.2416
383.1370, 262.6921
383.6191, 262.5076
384.1012, 261.9011
384.5833, 260.6940
385.0655, 259.3426
385.5476, 258.6137
386.0297, 258.3020
386.5118, 257.7069
386.9939, 256.0789
387.4760, 254.1260
387.9582, 253.1192
388.4403, 253.0869
388.9224, 252.7724
389.4045, 251.1327
389.8866, 248.5996
390.3687, 245.7170
390.8509, 242.2527
391.3330, 238.9922
391.8151, 236.7951
392.2972, 235.3725
392.7793, 233.5050
393.2614, 230.1786
393.7436, 226.4569
394.2257, 223.0410
394.7078, 220.2061
395.1899, 217.3657
395.6720, 214.1239
396.1541, 210.7737
396.6363, 207.7874
397.1184, 205.3810
397.6005, 203.2589
398.0826, 201.5068
398.5647, 200.2240
399.0468, 198.4388
399.5290, 195.5286
400.0111, 192.3769
400.4932, 189.6800
400.9753, 187.4657
401.4574, 185.6761
401.9395, 184.3990
402.4217, 183.5674
402.9038, 182.8932
403.3859, 182.3393
403.8680, 181.9994
404.3501, 181.9969
404.8322, 182.5260
405.3144, 182.6532
405.7965, 182.1692
406.2786, 181.5301
406.7607, 181.5476
407.2428, 182.3524
407.7249, 183.0923
408.2071, 183.4168
408.6892, 183.4180
409.1713, 183.6614
409.6534, 184.1571
410.1355, 184.8461
410.6176, 185.7561
411.0998, 186.8459
411.5819, 187.8098
412.0640, 188.4795
412.5461, 189.1825
413.0282, 190.6306
413.5103, 192.6966
413.9925, 194.6591
414.4746, 195.8988
414.9567, 196.8522
415.4388, 198.2785
415.9209, 200.3087
416.4030, 202.2658
416.8852, 203.3094
417.3673, 203.9658
417.8494, 205.0928
418.3315, 207.3696
418.8136, 209.9481
419.2957, 212.3604
419.7779, 214.6117
420.2600, 216.8990
420.7421, 219.4333
421.2242, 221.9578
421.7063, 224.1885
422.1884, 225.8788
422.6706, 227.7320
423.1527, 229.9991
423.6348, 232.5497
424.1169, 235.1414
424.5990, 238.2957
425.0811, 240.9841
425.5633, 242.7430
426.0454, 243.4153
426.5275, 244.2853
427.0096, 245.5889
427.4917, 246.9047
427.9738, 247.9237
428.4560, 248.7322
428.9381, 248.9966
429.4202, 248.3666
429.9023, 247.2266
430.3844, 247.1275
430.8665, 248.6412
431.3487, 249.5644
431.8308, 248.4961
432.3129, 245.3242
432.7950, 242.6246
433.2771, 240.4284
433.7592, 238.7237
434.2414, 237.6238
434.7235, 237.0823
435.2056, 236.5160
435.6877, 235.6972
436.1698, 234.7757
436.6519, 234.1233
437.1341, 233.7228
437.6162, 233.2467
438.0983, 232.2656
438.5804, 231.0847
439.0625, 230.2439
439.5446, 229.8712
440.0268, 229.7155
440.5089, 229.5314
440.9910, 229.3992
441.4731, 229.4845
441.9552, 230.1407
442.4373, 230.8148
442.9195, 231.1826
443.4016, 231.2309
443.8837, 231.0737
444.3658, 230.4429
444.8479, 229.7943
445.3300, 229.5117
445.8122, 230.3701
446.2943, 230.6709
446.7764, 229.7021
447.2585, 227.9547
447.7406, 226.6908
448.2227, 226.9863
448.7049, 226.7835
449.1870, 225.3987
449.6691, 222.6597
450.1512, 219.8337
450.6333, 216.8474
451.1154, 213.8969
451.5976, 211.2530
452.0797, 209.1515
452.5618, 206.6690
453.0439, 203.6252
453.5260, 200.1478
454.0081, 196.2845
454.4903, 191.9249
454.9724, 187.8178
455.4545, 184.3147
455.9366, 181.4094
456.4187, 178.9858
456.9008, 177.1508
457.3830, 175.2828
457.8651, 172.5243
458.3472, 169.1270
458.8293, 166.0242
459.3114, 163.4217
459.7935, 161.3190
460.2757, 159.7910
460.7578, 158.7796
461.2399, 157.9564
461.7220, 157.1334
462.2041, 156.3919
462.6862, 155.7710
463.1684, 155.2299
463.6505, 155.0307
464.1326, 155.4547
464.6147, 156.2616
465.0968, 157.1518
465.5789, 157.9375
466.0611, 158.8769
466.5432, 159.8125
467.0253, 160.8256
467.5074, 162.7559
467.9895, 166.0656
468.4716, 170.0335
468.9538, 174.2718
469.4359, 178.4416
469.9180, 183.5352
470.4001, 189.9161
470.8822, 197.0213
471.3643, 203.9748
471.8465, 210.5081
472.3286, 217.6646
472.8107, 225.7736
473.2928, 234.6561
473.7749, 244.0389
474.2570, 253.8976
474.7392, 264.1417
475.2213, 274.5782
475.7034, 285.2815
476.1855, 296.6461
476.6676, 308.5940
477.1497, 321.6794
477.6319, 336.4972
478.1140, 352.9631
478.5961, 370.6293
479.0782, 389.5166
479.5603, 409.3740
480.0424, 429.8538
480.5246, 451.0844
481.0067, 473.2899
481.4888, 496.6034
481.9709, 520.9450
482.4530, 546.6036
482.9352, 574.8513
483.4173, 601.3310
483.8994, 624.6335
484.3815, 645.0985
484.8636, 663.0124
485.3457, 680.5341
485.8279, 693.3497
486.3100, 700.6883
486.7921, 702.3678
487.2742, 697.8883
487.7563, 687.0822
488.2384, 670.2496
488.7206, 647.0677
489.2027, 615.4567
489.6848, 583.3533
490.1669, 550.5260
490.6490, 517.5754
491.1311, 484.4299
491.6133, 451.1482
492.0954, 419.1758
492.5775, 388.6003
493.0596, 359.7805
493.5417, 333.6133
494.0238, 310.1936
494.5060, 288.9654
494.9881, 269.7914
495.4702, 252.6219
495.9523, 236.7724
496.4344, 222.2135
496.9165, 209.2074
497.3987, 198.4579
497.8808, 189.3656
498.3629, 181.0179
498.8450, 173.0219
499.3271, 165.6321
499.8092, 159.1845
500.2914, 153.5432
500.7735, 148.4803
501.2556, 143.9713
501.7377, 139.8323
502.2198, 135.9662
502.7019, 132.3254
503.1841, 128.9472
503.6662, 125.7901
504.1483, 122.9133
504.6304, 120.4146
505.1125, 118.3219
505.5946, 116.6229
506.0768, 115.4266
506.5589, 114.6276
507.0410, 113.6077
507.5231, 112.2046
508.0052, 111.0347
508.4873, 110.5413
508.9695, 110.7377
509.4516, 110.5148
509.9337, 109.7295
510.4158, 109.0919
510.8979, 109.5337
511.3800, 110.8726
511.8622, 112.3068
512.3443, 113.7149
512.8264, 114.9876
513.3085, 115.7648
513.7906, 116.2365
514.2728, 117.0833
514.7549, 118.9371
515.2370, 121.1709
515.7191, 123.2190
516.2012, 125.0310
516.6833, 127.0126
517.1655, 129.3818
517.6476, 132.0087
518.1297, 134.7826
518.6118, 137.6505
519.0939, 140.7037
519.5760, 143.9892
520.0582, 147.4597
520.5403, 151.0710
521.0224, 154.6051
521.5045, 158.5393
521.9866, 163.1721
522.4688, 168.5199
522.9509, 173.2618
523.4330, 177.2288
523.9151, 181.0451
524.3972, 185.1989
524.8793, 189.6781
525.3615, 194.2113
525.8436, 198.8438
526.3257, 203.4182
526.8078, 207.7186
527.2899, 211.7401
527.7720, 215.3684
528.2542, 218.3087
528.7363, 220.9760
529.2184, 223.9712
529.7005, 227.2210
530.1826, 230.4757
530.6647, 233.8031
531.1469, 236.9229
531.6290, 239.7131
532.1111, 242.1991
532.5932, 244.0522
533.0753, 245.0469
533.5574, 245.3970
534.0396, 245.3085
534.5217, 245.3578
535.0038, 244.3428
535.4859, 241.8242
535.9680, 238.1135
536.4501, 234.1656
536.9323, 230.3394
537.4144, 225.6846
537.8965, 219.8542
538.3786, 212.8653
538.8607, 205.0633
539.3428, 196.3516
539.8250, 187.3102
540.3071, 178.3450
540.7892, 169.6032
541.2713, 161.3666
541.7534, 153.7226
542.2355, 146.6551
542.7177, 140.1376
543.1998, 134.1444
543.6819, 128.7728
544.1640, 124.1953
544.6461, 120.2354
545.1282, 116.6939
545.6104, 113.6048
546.0925, 111.0682
546.5746, 109.4360
547.0567, 108.1701
547.5388, 106.8955
548.0209, 105.5190
548.5031, 104.2954
548.9852, 103.2004
549.4673, 102.3113
549.9494, 101.7208
550.4315, 101.7142
550.9136, 101.5468
551.3958, 101.0514
551.8779, 100.3659
552.3600, 99.98528
552.8421, 100.0632
553.3242, 99.89580
553.8063, 99.08965
554.2885, 97.74078
554.7706, 96.67846
555.2527, 95.93989
555.7348, 95.09993
556.2169, 93.60304
556.6990, 91.72926
557.1812, 90.17700
557.6633, 89.09032
558.1454, 88.21240
558.6275, 87.25465
559.1096, 86.34229
559.5917, 85.67490
560.0739, 85.64549
560.5560, 85.59634
561.0381, 85.07049
561.5202, 84.20632
562.0023, 83.60072
562.4844, 83.73128
562.9666, 83.87006
563.4487, 83.60864
563.9308, 82.77874
564.4129, 82.37475
564.8950, 82.58415
565.3771, 83.01331
565.8593, 83.40637
566.3414, 83.83413
566.8235, 83.87294
567.3056, 83.36895
567.7877, 82.63177
568.2698, 82.15372
568.7520, 81.93205
569.2341, 82.00687
569.7162, 82.61914
570.1983, 83.38536
570.6804, 83.56255
571.1625, 83.21172
571.6447, 82.76324
572.1268, 82.33996
572.6089, 82.04707
573.0910, 82.07792
573.5731, 82.50976
574.0552, 82.81196
574.5374, 82.75436
575.0195, 82.44876
575.5016, 82.00053
575.9837, 80.92476
576.4658, 80.33740
576.9479, 80.71366
577.4301, 81.54662
577.9122, 81.80993
578.3943, 81.16149
578.8764, 80.62621
579.3585, 80.51643
579.8406, 80.76318
580.3228, 80.89165
580.8049, 80.89098
581.2870, 80.84103
581.7691, 80.85320
582.2512, 80.87107
582.7333, 80.56186
583.2155, 79.86313
583.6975, 79.27792
584.1796, 79.40599
584.6617, 79.93213
585.1439, 80.34232
585.6260, 80.50650
586.1081, 80.50735
586.5902, 80.38229
587.0723, 80.13044
