##NAMES=Conichalcite
##RRUFFID=R070430
##IDEAL CHEMISTRY=CaCu^2+^As^5+^O_4_(OH)
##LOCALITY=Maria Catalina mine, Pampa Larga Mining District, Tierra Amarilla, Chile
##OWNER=RRUFF
##SOURCE=Bob Jenkins
##DESCRIPTION=Apple-green prismatic crystals, associated with pale blue blocky rruffite (R070431), and pale blue granular barahonite-(Al)
##STATUS=The identification of this mineral is confirmed by single-crystal X-ray diffraction and chemical analysis.
##URL=rruff.info/R070430
##MEASURED CHEMISTRY=Ca_1.00_(Cu_0.99_Zn_0.01_)_Î£=1_As_1.00_O_4_(OH); OH estimated by charge balance
157.1879, 1280.670
157.6700, 1279.120
158.1522, 1283.434
158.6343, 1298.898
159.1164, 1321.141
159.5985, 1339.531
160.0806, 1348.203
160.5627, 1352.680
161.0449, 1361.984
161.5270, 1378.116
162.0091, 1392.106
162.4912, 1397.538
162.9733, 1396.339
163.4554, 1390.588
163.9376, 1380.319
164.4197, 1366.086
164.9018, 1347.071
165.3839, 1320.284
165.8660, 1297.356
166.3481, 1288.259
166.8303, 1287.506
167.3124, 1286.457
167.7945, 1282.417
168.2766, 1275.612
168.7587, 1265.159
169.2408, 1247.772
169.7230, 1234.342
170.2051, 1233.956
170.6872, 1240.452
171.1693, 1244.065
171.6514, 1238.039
172.1335, 1227.226
172.6157, 1224.814
173.0978, 1235.491
173.5799, 1245.276
174.0620, 1246.988
174.5441, 1244.186
175.0262, 1241.560
175.5084, 1240.620
175.9905, 1241.781
176.4726, 1247.500
176.9547, 1263.076
177.4368, 1273.050
177.9189, 1269.005
178.4010, 1257.309
178.8832, 1245.812
179.3653, 1237.051
179.8474, 1232.031
180.3295, 1235.261
180.8116, 1255.176
181.2937, 1268.053
181.7759, 1262.493
182.2580, 1248.029
182.7401, 1236.069
183.2222, 1232.015
183.7043, 1234.139
184.1864, 1237.895
184.6686, 1244.313
185.1507, 1250.582
185.6328, 1254.113
186.1149, 1257.671
186.5970, 1265.347
187.0791, 1279.808
187.5613, 1297.284
188.0434, 1308.045
188.5255, 1310.081
189.0076, 1307.882
189.4897, 1297.620
189.9718, 1286.368
190.4540, 1281.770
190.9361, 1287.506
191.4182, 1300.123
191.9003, 1311.196
192.3824, 1318.707
192.8645, 1328.472
193.3467, 1342.796
193.8288, 1358.844
194.3109, 1373.578
194.7930, 1385.759
195.2751, 1397.223
195.7572, 1412.440
196.2394, 1436.016
196.7215, 1454.682
197.2036, 1465.033
197.6857, 1471.632
198.1678, 1477.896
198.6499, 1485.072
199.1321, 1492.876
199.6142, 1499.782
200.0963, 1500.649
200.5784, 1511.852
201.0605, 1546.979
201.5426, 1583.652
202.0248, 1602.287
202.5069, 1598.278
202.9890, 1584.191
203.4711, 1581.864
203.9532, 1602.896
204.4353, 1608.964
204.9175, 1588.987
205.3996, 1562.495
205.8817, 1542.195
206.3638, 1530.745
206.8459, 1522.903
207.3280, 1512.336
207.8102, 1500.599
208.2923, 1481.726
208.7744, 1451.066
209.2565, 1417.801
209.7386, 1386.180
210.2207, 1357.352
210.7029, 1330.767
211.1850, 1305.985
211.6671, 1283.447
212.1492, 1261.679
212.6313, 1239.415
213.1134, 1219.007
213.5956, 1204.263
214.0777, 1193.566
214.5598, 1180.419
215.0419, 1156.664
215.5240, 1119.259
216.0061, 1092.179
216.4883, 1084.231
216.9704, 1078.153
217.4525, 1067.941
217.9346, 1053.921
218.4167, 1039.155
218.8988, 1026.136
219.3810, 1014.913
219.8631, 1003.693
220.3452, 992.1074
220.8273, 980.8840
221.3094, 969.6056
221.7915, 958.8568
222.2737, 949.6921
222.7558, 942.9836
223.2379, 938.5298
223.7200, 934.7951
224.2021, 934.2709
224.6842, 931.6165
225.1664, 925.7661
225.6485, 917.1009
226.1306, 905.4289
226.6127, 890.1105
227.0948, 873.0122
227.5770, 862.2484
228.0591, 863.3239
228.5412, 863.6780
229.0233, 861.1661
229.5054, 856.8450
229.9875, 851.9395
230.4697, 846.9916
230.9518, 841.8682
231.4339, 836.3712
231.9160, 831.6264
232.3981, 824.3191
232.8802, 811.8209
233.3624, 798.2229
233.8445, 786.5590
234.3266, 777.9390
234.8087, 772.0500
235.2908, 768.3702
235.7729, 766.7056
236.2551, 767.9611
236.7372, 776.0226
237.2193, 784.0316
237.7014, 786.7061
238.1835, 783.3690
238.6656, 778.0979
239.1478, 776.1351
239.6299, 778.6817
240.1120, 780.0824
240.5941, 780.4817
241.0762, 779.4219
241.5583, 774.9114
242.0405, 767.9290
242.5226, 762.6216
243.0047, 764.2487
243.4868, 773.7358
243.9689, 778.9922
244.4510, 776.1215
244.9332, 772.4285
245.4153, 769.9251
245.8974, 768.7666
246.3795, 768.7821
246.8616, 770.2435
247.3437, 772.9033
247.8259, 774.0798
248.3080, 770.1229
248.7901, 769.8626
249.2722, 780.0629
249.7543, 795.0151
250.2364, 804.7966
250.7186, 802.4621
251.2007, 793.3852
251.6828, 793.9370
252.1649, 809.5224
252.6470, 823.9222
253.1291, 830.8217
253.6113, 834.4105
254.0934, 839.4738
254.5755, 848.1287
255.0576, 857.3285
255.5397, 861.6675
256.0219, 859.6901
256.5040, 858.3242
256.9861, 860.6418
257.4682, 863.6885
257.9503, 864.9395
258.4324, 863.7968
258.9146, 862.8037
259.3967, 863.7076
259.8788, 866.4205
260.3609, 873.8162
260.8430, 891.7707
261.3251, 910.0145
261.8073, 920.2242
262.2894, 922.5604
262.7715, 924.7401
263.2536, 933.1813
263.7357, 946.6516
264.2178, 957.2410
264.7000, 961.4131
265.1821, 966.9583
265.6642, 980.5645
266.1463, 1000.283
266.6284, 1019.640
267.1105, 1036.906
267.5927, 1051.525
268.0748, 1060.851
268.5569, 1062.755
269.0390, 1066.101
269.5211, 1082.111
270.0032, 1103.337
270.4854, 1116.231
270.9675, 1110.233
271.4496, 1100.276
271.9317, 1104.737
272.4138, 1124.064
272.8959, 1143.184
273.3781, 1155.068
273.8602, 1161.661
274.3423, 1167.124
274.8244, 1170.822
275.3065, 1174.898
275.7886, 1179.788
276.2708, 1185.950
276.7529, 1196.357
277.2350, 1214.438
277.7171, 1233.969
278.1992, 1244.433
278.6813, 1245.043
279.1635, 1243.229
279.6456, 1239.837
280.1277, 1236.127
280.6098, 1234.248
281.0919, 1234.685
281.5740, 1236.908
282.0562, 1241.515
282.5383, 1248.990
283.0204, 1252.345
283.5025, 1248.233
283.9846, 1241.280
284.4667, 1236.476
284.9489, 1233.897
285.4310, 1228.355
285.9131, 1213.723
286.3952, 1190.593
286.8773, 1178.931
287.3594, 1191.697
287.8416, 1202.277
288.3237, 1196.465
288.8058, 1177.833
289.2879, 1156.255
289.7700, 1136.452
290.2521, 1119.060
290.7343, 1107.447
291.2164, 1106.169
291.6985, 1104.572
292.1806, 1103.098
292.6627, 1099.734
293.1448, 1089.659
293.6270, 1071.431
294.1091, 1052.284
294.5912, 1045.713
295.0733, 1062.722
295.5554, 1071.752
296.0375, 1068.621
296.5197, 1061.157
297.0018, 1051.596
297.4839, 1042.065
297.9660, 1037.861
298.4481, 1045.438
298.9302, 1067.032
299.4124, 1085.111
299.8945, 1098.387
300.3766, 1109.562
300.8587, 1115.681
301.3408, 1120.503
301.8229, 1132.056
302.3050, 1156.912
302.7871, 1191.380
303.2693, 1216.098
303.7514, 1223.289
304.2335, 1231.740
304.7156, 1244.802
305.1977, 1261.180
305.6798, 1279.755
306.1620, 1300.162
306.6441, 1321.729
307.1262, 1342.309
307.6083, 1359.855
308.0904, 1383.807
308.5725, 1421.298
309.0547, 1462.046
309.5368, 1500.876
310.0189, 1537.097
310.5010, 1570.903
310.9831, 1599.383
311.4652, 1623.710
311.9474, 1657.466
312.4295, 1707.509
312.9116, 1758.529
313.3937, 1797.630
313.8758, 1829.902
314.3579, 1868.483
314.8401, 1924.539
315.3222, 1988.249
315.8043, 2041.466
316.2864, 2082.478
316.7685, 2122.609
317.2506, 2166.819
317.7328, 2214.028
318.2149, 2262.912
318.6970, 2315.411
319.1791, 2365.388
319.6612, 2409.129
320.1433, 2446.411
320.6255, 2476.052
321.1076, 2495.320
321.5897, 2509.996
322.0718, 2532.335
322.5539, 2565.593
323.0360, 2586.894
323.5182, 2584.046
324.0003, 2568.146
324.4824, 2552.449
324.9645, 2539.144
325.4466, 2526.614
325.9287, 2513.961
326.4109, 2501.249
326.8930, 2484.241
327.3751, 2459.677
327.8572, 2433.915
328.3393, 2410.479
328.8214, 2388.808
329.3036, 2366.955
329.7857, 2343.809
330.2678, 2319.297
330.7499, 2293.815
331.2320, 2267.189
331.7141, 2239.633
332.1963, 2212.109
332.6784, 2183.148
333.1605, 2149.834
333.6426, 2111.756
334.1247, 2073.088
334.6068, 2040.689
335.0890, 2019.617
335.5711, 1991.220
336.0532, 1947.951
336.5353, 1904.982
337.0174, 1872.407
337.4995, 1847.896
337.9817, 1821.553
338.4638, 1785.294
338.9459, 1740.266
339.4280, 1696.599
339.9101, 1654.808
340.3922, 1614.184
340.8744, 1572.530
341.3565, 1532.254
341.8386, 1497.267
342.3207, 1469.515
342.8028, 1444.515
343.2849, 1414.000
343.7671, 1376.273
344.2492, 1345.072
344.7313, 1328.430
345.2134, 1315.843
345.6955, 1299.125
346.1776, 1277.847
346.6598, 1255.481
347.1419, 1231.614
347.6240, 1208.368
348.1061, 1192.090
348.5882, 1184.475
349.0703, 1180.481
349.5525, 1177.115
350.0346, 1174.332
350.5167, 1172.119
350.9988, 1170.323
351.4809, 1169.212
351.9630, 1171.214
352.4452, 1175.017
352.9273, 1172.511
353.4094, 1157.314
353.8915, 1136.406
354.3736, 1129.542
354.8557, 1143.311
355.3379, 1153.916
355.8200, 1152.290
356.3021, 1146.457
356.7842, 1147.424
357.2663, 1157.089
357.7484, 1166.848
358.2306, 1166.644
358.7127, 1154.116
359.1948, 1144.398
359.6769, 1136.738
360.1590, 1132.147
360.6411, 1131.757
361.1233, 1134.770
361.6054, 1140.314
362.0875, 1148.328
362.5696, 1157.038
363.0517, 1159.665
363.5338, 1151.137
364.0160, 1144.491
364.4981, 1139.825
364.9802, 1138.302
365.4623, 1144.790
365.9444, 1158.725
366.4265, 1168.432
366.9087, 1155.784
367.3908, 1118.500
367.8729, 1096.354
368.3550, 1103.023
368.8371, 1110.763
369.3192, 1103.358
369.8014, 1086.002
370.2835, 1071.844
370.7656, 1069.198
371.2477, 1071.467
371.7298, 1066.746
372.2119, 1054.194
372.6941, 1042.936
373.1762, 1037.782
373.6583, 1035.612
374.1404, 1032.166
374.6225, 1027.910
375.1046, 1020.282
375.5868, 1004.920
376.0689, 985.7977
376.5510, 970.8811
377.0331, 961.8959
377.5152, 956.3735
377.9973, 952.4730
378.4795, 950.4302
378.9616, 947.3885
379.4437, 941.8394
379.9258, 936.6218
380.4079, 934.8498
380.8900, 934.9709
381.3722, 932.2427
381.8543, 923.7964
382.3364, 911.8373
382.8185, 902.8585
383.3006, 896.3032
383.7827, 894.1319
384.2649, 897.7300
384.7470, 904.7487
385.2291, 917.3464
385.7112, 933.4920
386.1933, 943.3674
386.6754, 934.5635
387.1576, 905.8296
387.6397, 882.9955
388.1218, 864.9360
388.6039, 854.8687
389.0860, 860.3010
389.5681, 872.5636
390.0503, 877.5879
390.5324, 868.1036
391.0145, 852.7424
391.4966, 845.6945
391.9787, 848.0059
392.4608, 848.9207
392.9430, 845.3111
393.4251, 839.4292
393.9072, 833.7863
394.3893, 828.3770
394.8714, 821.5255
395.3535, 810.2168
395.8357, 797.6976
396.3178, 789.9114
396.7999, 787.5917
397.2820, 786.1921
397.7641, 782.0942
398.2462, 776.3330
398.7284, 774.0001
399.2105, 776.4267
399.6926, 780.6883
400.1747, 788.3599
400.6568, 796.5029
401.1389, 799.8245
401.6211, 796.5689
402.1032, 789.7368
402.5853, 783.3685
403.0674, 776.7491
403.5495, 773.1757
404.0316, 775.6627
404.5138, 777.9286
404.9959, 773.1418
405.4780, 765.3073
405.9601, 765.2629
406.4422, 780.9282
406.9243, 806.9842
407.4065, 824.5612
407.8886, 831.8182
408.3707, 833.9370
408.8528, 823.9606
409.3349, 814.8967
409.8170, 819.9551
410.2992, 840.1725
410.7813, 860.4177
411.2634, 864.8583
411.7455, 857.2462
412.2276, 857.1594
412.7097, 867.6260
413.1919, 881.3419
413.6740, 893.7440
414.1561, 905.7996
414.6382, 919.3704
415.1203, 936.2821
415.6024, 953.0968
416.0846, 966.6982
416.5667, 978.0936
417.0488, 990.9579
417.5309, 1007.056
418.0130, 1022.936
418.4951, 1032.801
418.9773, 1033.810
419.4594, 1038.432
419.9415, 1046.610
420.4236, 1058.891
420.9057, 1079.563
421.3878, 1105.287
421.8700, 1126.037
422.3521, 1134.921
422.8342, 1134.958
423.3163, 1138.894
423.7984, 1145.521
424.2805, 1158.599
424.7627, 1188.364
425.2448, 1217.553
425.7269, 1230.957
426.2090, 1227.170
426.6911, 1216.854
427.1732, 1205.368
427.6554, 1193.815
428.1375, 1199.609
428.6196, 1235.414
429.1017, 1264.102
429.5838, 1258.447
430.0659, 1235.935
430.5481, 1221.491
431.0302, 1221.053
431.5123, 1229.591
431.9944, 1247.534
432.4765, 1271.788
432.9586, 1291.089
433.4408, 1302.197
433.9229, 1308.755
434.4050, 1313.490
434.8871, 1315.844
435.3692, 1323.331
435.8513, 1341.367
436.3335, 1360.118
436.8156, 1372.085
437.2977, 1379.780
437.7798, 1391.782
438.2619, 1413.004
438.7440, 1437.623
439.2262, 1450.180
439.7083, 1441.039
440.1904, 1436.725
440.6725, 1441.868
441.1546, 1448.042
441.6367, 1447.523
442.1189, 1442.223
442.6010, 1441.888
443.0831, 1457.499
443.5652, 1482.358
444.0473, 1488.379
444.5294, 1468.568
445.0116, 1449.510
445.4937, 1443.947
445.9758, 1442.664
446.4579, 1436.029
446.9400, 1422.110
447.4221, 1409.175
447.9043, 1407.265
448.3864, 1408.936
448.8685, 1396.634
449.3506, 1367.183
449.8327, 1335.184
450.3148, 1312.376
450.7970, 1297.453
451.2791, 1276.977
451.7612, 1245.572
452.2433, 1215.342
452.7254, 1190.150
453.2076, 1168.615
453.6897, 1148.282
454.1718, 1128.617
454.6539, 1112.430
455.1360, 1104.688
455.6181, 1108.264
456.1003, 1104.052
456.5824, 1082.239
457.0645, 1062.493
457.5466, 1050.875
458.0287, 1045.245
458.5108, 1041.870
458.9930, 1039.321
459.4751, 1037.777
459.9572, 1036.454
460.4393, 1035.282
460.9214, 1039.608
461.4035, 1052.601
461.8857, 1068.577
462.3678, 1083.572
462.8499, 1097.468
463.3320, 1109.374
463.8141, 1117.571
464.2962, 1124.907
464.7784, 1131.468
465.2605, 1138.779
465.7426, 1152.669
466.2247, 1175.912
466.7068, 1206.132
467.1889, 1238.371
467.6711, 1272.430
468.1532, 1309.598
468.6353, 1355.610
469.1174, 1399.778
469.5995, 1429.823
470.0816, 1451.550
470.5638, 1482.272
471.0459, 1534.408
471.5280, 1599.361
472.0101, 1652.736
472.4922, 1690.151
472.9743, 1726.980
473.4565, 1764.691
473.9386, 1803.942
474.4207, 1844.048
474.9028, 1885.490
475.3849, 1932.075
475.8670, 1988.517
476.3492, 2050.378
476.8313, 2113.310
477.3134, 2177.118
477.7955, 2232.067
478.2776, 2271.447
478.7597, 2300.274
479.2419, 2330.118
479.7240, 2358.845
480.2061, 2392.779
480.6882, 2447.819
481.1703, 2498.713
481.6524, 2519.402
482.1346, 2510.962
482.6167, 2493.554
483.0988, 2482.496
483.5809, 2474.836
484.0630, 2453.934
484.5451, 2417.713
485.0273, 2370.334
485.5094, 2310.840
485.9915, 2243.206
486.4736, 2170.419
486.9557, 2092.760
487.4378, 2010.210
487.9200, 1919.313
488.4021, 1823.577
488.8842, 1733.247
489.3663, 1648.593
489.8484, 1569.020
490.3305, 1495.014
490.8127, 1426.223
491.2948, 1361.601
491.7769, 1301.987
492.2590, 1243.703
492.7411, 1181.321
493.2232, 1122.507
493.7054, 1078.531
494.1875, 1049.085
494.6696, 1022.145
495.1517, 988.0106
495.6338, 949.0077
496.1159, 919.6021
496.5981, 909.3213
497.0802, 895.7486
497.5623, 874.9686
498.0444, 851.2902
498.5265, 826.8041
499.0086, 802.6489
499.4908, 781.3942
499.9729, 766.0687
500.4550, 755.2739
500.9371, 743.8084
501.4192, 731.1862
501.9013, 719.7260
502.3835, 708.7535
502.8656, 700.7081
503.3477, 700.6057
503.8298, 711.4910
504.3119, 717.7350
504.7940, 710.8467
505.2762, 697.7474
505.7583, 684.8900
506.2404, 673.3956
506.7225, 664.4333
507.2046, 658.8514
507.6867, 656.2160
508.1689, 654.8879
508.6510, 660.1703
509.1331, 658.6333
509.6152, 641.1234
510.0973, 623.3735
510.5794, 618.4860
511.0616, 625.4480
511.5437, 633.3134
512.0258, 634.1046
512.5079, 630.2343
512.9901, 627.4848
513.4722, 625.4925
513.9543, 627.5404
514.4364, 639.1847
514.9185, 651.5626
515.4006, 651.2834
515.8828, 637.0184
516.3649, 627.6965
516.8470, 634.2518
517.3291, 644.3796
517.8112, 644.4948
518.2933, 636.9933
518.7755, 634.7562
519.2576, 645.0741
519.7397, 662.6547
520.2218, 674.8318
520.7039, 678.3822
521.1860, 682.6152
521.6682, 687.9246
522.1503, 693.4600
522.6324, 697.4390
523.1145, 701.2999
523.5966, 708.9265
524.0787, 723.5669
524.5609, 740.3642
525.0430, 751.1518
525.5251, 755.9630
526.0072, 759.9439
526.4893, 763.7156
526.9714, 767.9972
527.4536, 774.3228
527.9357, 782.3500
528.4178, 788.4814
528.8999, 789.4921
529.3820, 791.1755
529.8641, 798.3368
530.3463, 808.3975
530.8284, 817.2475
531.3105, 823.3734
531.7926, 824.8950
532.2747, 817.7006
532.7568, 798.9543
533.2390, 789.2072
533.7211, 799.8238
534.2032, 806.4599
534.6853, 801.9751
535.1674, 789.1306
535.6495, 770.0452
536.1317, 744.4323
536.6138, 720.4984
537.0959, 708.4890
537.5780, 704.4194
538.0601, 694.5437
538.5422, 676.5797
539.0244, 658.6122
539.5065, 646.6079
539.9886, 639.4215
540.4707, 631.4211
540.9528, 623.2740
541.4349, 613.4240
541.9171, 600.7281
542.3992, 586.7426
542.8813, 571.2963
543.3634, 555.4845
543.8455, 543.0741
544.3276, 537.2952
544.8098, 537.0674
545.2919, 538.3076
545.7740, 542.4712
546.2561, 544.1132
546.7382, 541.0438
547.2203, 535.4087
547.7024, 526.1746
548.1845, 514.3144
548.6666, 508.5492
549.1487, 518.9535
549.6309, 532.9901
550.1130, 535.9486
550.5951, 529.8735
551.0772, 524.8813
551.5593, 525.1337
552.0414, 527.5110
552.5236, 527.2239
553.0057, 524.4326
553.4878, 518.1702
553.9699, 500.9690
554.4520, 488.7246
554.9341, 491.1132
555.4163, 501.6400
555.8984, 510.6573
556.3805, 514.7231
556.8626, 514.6870
557.3447, 509.1384
557.8268, 499.2525
558.3090, 495.5485
558.7911, 500.7987
559.2732, 506.4208
559.7553, 505.8638
560.2374, 501.4897
560.7195, 501.1310
561.2017, 507.7928
561.6838, 513.3021
562.1659, 515.6387
562.6480, 515.2391
563.1301, 511.2197
563.6122, 504.4688
564.0944, 498.7514
564.5765, 497.0097
565.0586, 497.9901
565.5407, 496.4225
566.0228, 490.6947
566.5049, 486.5023
566.9871, 486.3109
567.4692, 486.7654
567.9513, 485.0930
568.4334, 481.9588
568.9155, 480.7910
569.3976, 484.4603
569.8798, 489.4413
570.3619, 493.5672
570.8440, 496.1705
571.3261, 493.6019
571.8082, 484.2281
572.2903, 474.7157
572.7725, 473.7181
573.2546, 482.5631
573.7367, 487.3175
574.2188, 484.8741
574.7009, 482.3246
575.1830, 481.7683
575.6652, 481.8448
576.1473, 480.3072
576.6294, 476.9198
577.1115, 474.6445
577.5936, 477.6667
578.0757, 483.9330
578.5579, 485.9420
579.0400, 483.0881
579.5221, 480.3195
580.0042, 479.5083
580.4863, 480.4247
580.9684, 483.6997
581.4506, 491.0839
581.9327, 493.5461
582.4148, 486.8722
582.8969, 477.5783
583.3790, 467.3721
583.8611, 458.3458
584.3433, 454.1826
584.8254, 456.6507
585.3075, 462.7601
585.7896, 468.9739
586.2717, 475.6635
586.7538, 476.9752
587.2360, 467.8149
587.7181, 461.2379
588.2002, 469.6015
588.6823, 484.1228
589.1644, 489.8103
589.6465, 481.7659
590.1287, 472.6456
590.6108, 469.1327
591.0929, 467.6348
591.5750, 462.4173
592.0571, 453.9520
592.5392, 448.2951
593.0214, 449.7937
593.5035, 456.0390
593.9856, 459.3553
594.4677, 457.5250
594.9498, 458.0063
595.4319, 464.3956
595.9141, 470.5028
596.3962, 473.4228
596.8783, 473.5673
597.3604, 472.2168
597.8425, 469.2943
598.3246, 466.1011
598.8068, 462.4005
599.2889, 459.4571
599.7710, 462.3641
600.2531, 472.1420
600.7352, 479.5632
601.2173, 475.7195
601.6995, 462.6187
602.1816, 456.7555
602.6637, 467.5568
603.1458, 472.7691
603.6279, 463.1945
604.1100, 453.4655
604.5922, 457.7407
605.0743, 473.0955
605.5564, 483.6349
606.0385, 478.1762
606.5206, 465.8455
607.0027, 460.1306
607.4849, 460.2961
607.9670, 460.5435
608.4491, 459.3799
608.9312, 458.2164
609.4133, 458.5756
609.8954, 460.4674
610.3776, 461.8371
610.8597, 461.8847
611.3418, 462.4659
611.8239, 464.2964
612.3060, 466.6877
612.7881, 469.5275
613.2703, 472.3945
613.7524, 473.8482
614.2345, 472.4437
614.7166, 469.1513
615.1987, 465.4693
615.6808, 461.2354
616.1630, 461.0975
616.6451, 468.7265
617.1272, 476.7159
617.6093, 475.6042
618.0914, 465.1581
618.5735, 458.0930
619.0557, 457.6535
619.5378, 457.4815
620.0199, 453.4331
620.5020, 449.1207
620.9841, 449.8334
621.4662, 456.0780
621.9484, 463.3547
622.4305, 467.4044
622.9126, 469.3461
623.3947, 474.0196
623.8768, 482.1560
624.3589, 488.9607
624.8411, 493.9853
625.3232, 495.9319
625.8053, 491.4609
626.2874, 481.0054
626.7695, 473.1602
627.2516, 469.2299
627.7338, 468.0538
628.2159, 472.5377
628.6980, 478.0438
629.1801, 475.4626
629.6622, 464.1146
630.1443, 455.4302
630.6265, 463.3014
631.1086, 483.0418
631.5907, 486.1470
632.0728, 467.1805
632.5549, 452.8091
633.0370, 451.6293
633.5192, 457.9850
634.0013, 468.4323
634.4834, 482.5211
634.9655, 489.5470
635.4476, 481.4698
635.9297, 471.9566
636.4119, 467.3915
636.8940, 466.8892
637.3761, 470.1741
637.8582, 476.4210
638.3403, 481.3811
638.8224, 480.2682
639.3046, 474.2713
639.7867, 470.2153
640.2688, 467.5614
640.7509, 469.1711
641.2330, 480.6187
641.7151, 492.0606
642.1973, 492.0964
642.6794, 481.7076
643.1615, 472.8134
643.6436, 465.8259
644.1257, 463.1095
644.6078, 469.6726
645.0900, 479.8808
645.5721, 485.3265
646.0542, 484.2601
646.5363, 480.0362
647.0184, 475.1520
647.5005, 470.0878
647.9827, 467.0458
648.4648, 466.0456
648.9469, 467.1049
649.4290, 470.4344
