##NAMES=Conichalcite
##RRUFFID=R070430
##IDEAL CHEMISTRY=CaCu^2+^As^5+^O_4_(OH)
##LOCALITY=Maria Catalina mine, Pampa Larga Mining District, Tierra Amarilla, Chile
##OWNER=RRUFF
##SOURCE=Bob Jenkins
##DESCRIPTION=Apple-green prismatic crystals, associated with pale blue blocky rruffite (R070431), and pale blue granular barahonite-(Al)
##STATUS=The identification of this mineral is confirmed by single-crystal X-ray diffraction and chemical analysis.
##URL=rruff.info/R070430
##MEASURED CHEMISTRY=Ca_1.00_(Cu_0.99_Zn_0.01_)_Î£=1_As_1.00_O_4_(OH); OH estimated by charge balance
150.8870, 1924.459
151.3692, 1992.118
151.8513, 2052.022
152.3334, 2094.448
152.8155, 2133.574
153.2976, 2181.027
153.7797, 2246.575
154.2619, 2310.466
154.7440, 2366.839
155.2261, 2412.460
155.7082, 2468.293
156.1903, 2549.774
156.6724, 2639.446
157.1546, 2714.355
157.6367, 2760.614
158.1188, 2800.730
158.6009, 2841.888
159.0830, 2885.889
159.5651, 2929.122
160.0473, 2978.762
160.5294, 3027.041
161.0115, 3058.230
161.4936, 3063.966
161.9757, 3054.246
162.4578, 3033.019
162.9400, 2994.465
163.4221, 2955.611
163.9042, 2927.562
164.3863, 2905.915
164.8684, 2875.777
165.3505, 2822.513
165.8327, 2762.177
166.3148, 2707.744
166.7969, 2661.874
167.2790, 2623.746
167.7611, 2595.754
168.2433, 2576.839
168.7254, 2558.888
169.2075, 2534.325
169.6896, 2508.890
170.1717, 2489.464
170.6538, 2479.671
171.1360, 2476.151
171.6181, 2476.604
172.1002, 2481.012
172.5823, 2489.546
173.0644, 2507.599
173.5465, 2529.591
174.0287, 2545.868
174.5108, 2545.030
174.9929, 2539.417
175.4750, 2541.595
175.9571, 2552.381
176.4392, 2571.137
176.9214, 2606.889
177.4035, 2651.832
177.8856, 2684.748
178.3677, 2686.516
178.8498, 2670.647
179.3319, 2658.291
179.8141, 2652.688
180.2962, 2649.125
180.7783, 2640.209
181.2604, 2627.403
181.7425, 2617.534
182.2246, 2618.920
182.7068, 2626.604
183.1889, 2627.563
183.6710, 2615.640
184.1531, 2601.406
184.6352, 2605.231
185.1173, 2626.208
185.5995, 2647.115
186.0816, 2652.185
186.5637, 2645.333
187.0458, 2641.105
187.5279, 2643.743
188.0100, 2650.684
188.4922, 2655.096
188.9743, 2656.698
189.4564, 2660.526
189.9385, 2673.090
190.4206, 2693.293
190.9027, 2712.719
191.3849, 2729.659
191.8670, 2743.943
192.3491, 2752.210
192.8312, 2752.588
193.3133, 2756.607
193.7954, 2782.143
194.2776, 2828.699
194.7597, 2871.497
195.2418, 2898.382
195.7239, 2911.810
196.2060, 2932.951
196.6881, 2962.823
197.1703, 2997.611
197.6524, 3031.601
198.1345, 3064.083
198.6166, 3099.668
199.0987, 3140.757
199.5808, 3187.354
200.0630, 3233.720
200.5451, 3278.376
201.0272, 3324.756
201.5093, 3381.887
201.9914, 3451.880
202.4735, 3521.480
202.9557, 3585.968
203.4378, 3645.546
203.9199, 3698.179
204.4020, 3745.133
204.8841, 3783.912
205.3662, 3808.525
205.8484, 3818.773
206.3305, 3815.478
206.8126, 3799.328
207.2947, 3770.477
207.7768, 3727.106
208.2589, 3666.937
208.7411, 3592.875
209.2232, 3513.119
209.7053, 3424.018
210.1874, 3337.016
210.6695, 3258.331
211.1517, 3189.158
211.6338, 3123.204
212.1159, 3059.543
212.5980, 2998.437
213.0801, 2941.291
213.5622, 2888.892
214.0444, 2839.897
214.5265, 2795.012
215.0086, 2755.752
215.4907, 2713.856
215.9728, 2664.684
216.4549, 2609.644
216.9371, 2569.110
217.4192, 2549.534
217.9013, 2535.479
218.3834, 2511.730
218.8655, 2473.378
219.3476, 2439.069
219.8298, 2413.483
220.3119, 2396.923
220.7940, 2378.534
221.2761, 2356.842
221.7582, 2335.007
222.2403, 2316.774
222.7225, 2305.275
223.2046, 2290.724
223.6867, 2268.873
224.1688, 2238.099
224.6509, 2213.776
225.1330, 2166.480
225.6152, 2181.287
226.0973, 2186.481
226.5794, 2182.577
227.0615, 2142.324
227.5436, 2149.008
228.0257, 2136.881
228.5079, 2123.982
228.9900, 2137.272
229.4721, 2102.305
229.9542, 2115.180
230.4363, 2108.957
230.9184, 2090.100
231.4006, 2076.168
231.8827, 2064.744
232.3648, 2054.408
232.8469, 2046.141
233.3290, 2038.287
233.8111, 2027.795
234.2933, 2013.438
234.7754, 1998.466
235.2575, 1983.676
235.7396, 1968.561
236.2217, 1955.478
236.7038, 1945.437
237.1860, 1936.861
237.6681, 1925.829
238.1502, 1908.263
238.6323, 1894.701
239.1144, 1889.308
239.5965, 1894.907
240.0787, 1902.102
240.5608, 1915.740
241.0429, 1929.193
241.5250, 1925.294
242.0071, 1889.743
242.4892, 1858.477
242.9714, 1848.324
243.4535, 1871.685
243.9356, 1886.536
244.4177, 1890.017
244.8998, 1885.703
245.3819, 1883.023
245.8641, 1883.536
246.3462, 1883.379
246.8283, 1879.960
247.3104, 1869.223
247.7925, 1865.250
248.2746, 1870.998
248.7568, 1883.010
249.2389, 1891.856
249.7210, 1897.978
250.2031, 1900.265
250.6852, 1896.473
251.1674, 1879.765
251.6495, 1874.368
252.1316, 1887.019
252.6137, 1910.403
253.0958, 1920.201
253.5779, 1908.828
254.0601, 1895.613
254.5422, 1890.746
255.0243, 1896.952
255.5064, 1904.440
255.9885, 1912.914
256.4706, 1922.357
256.9528, 1933.534
257.4349, 1948.505
257.9170, 1961.830
258.3991, 1969.649
258.8812, 1968.042
259.3633, 1972.218
259.8455, 1985.832
260.3276, 2005.334
260.8097, 2016.462
261.2918, 2013.010
261.7739, 2012.706
262.2560, 2028.094
262.7382, 2067.928
263.2203, 2096.900
263.7024, 2110.408
264.1845, 2112.469
264.6666, 2116.013
265.1487, 2118.618
265.6309, 2127.677
266.1130, 2150.443
266.5951, 2193.811
267.0772, 2226.099
267.5593, 2241.317
268.0414, 2245.525
268.5236, 2258.874
269.0057, 2283.753
269.4878, 2312.271
269.9699, 2341.006
270.4520, 2370.499
270.9341, 2396.880
271.4163, 2419.385
271.8984, 2438.796
272.3805, 2456.701
272.8626, 2472.291
273.3447, 2489.289
273.8268, 2512.516
274.3090, 2544.138
274.7911, 2565.407
275.2732, 2570.875
275.7553, 2567.246
276.2374, 2573.125
276.7195, 2590.231
277.2017, 2610.434
277.6838, 2630.984
278.1659, 2652.523
278.6480, 2664.941
279.1301, 2663.775
279.6122, 2656.358
280.0944, 2662.006
280.5765, 2682.710
281.0586, 2705.164
281.5407, 2722.296
282.0228, 2734.096
282.5049, 2741.150
282.9871, 2742.279
283.4692, 2740.253
283.9513, 2742.225
284.4334, 2748.771
284.9155, 2752.603
285.3976, 2746.981
285.8798, 2732.854
286.3619, 2723.746
286.8440, 2722.230
287.3261, 2723.815
287.8082, 2721.087
288.2903, 2714.045
288.7725, 2702.621
289.2546, 2686.330
289.7367, 2665.534
290.2188, 2640.318
290.7009, 2609.225
291.1830, 2576.997
291.6652, 2553.253
292.1473, 2537.182
292.6294, 2520.470
293.1115, 2495.384
293.5936, 2465.278
294.0757, 2442.369
294.5579, 2428.483
295.0400, 2419.107
295.5221, 2408.995
296.0042, 2398.077
296.4863, 2386.544
296.9684, 2370.925
297.4506, 2354.874
297.9327, 2347.465
298.4148, 2349.723
298.8969, 2358.538
299.3790, 2372.779
299.8611, 2391.088
300.3433, 2408.470
300.8254, 2421.452
301.3075, 2432.027
301.7896, 2440.952
302.2717, 2447.270
302.7538, 2459.357
303.2360, 2491.436
303.7181, 2536.183
304.2002, 2576.452
304.6823, 2596.412
305.1644, 2610.674
305.6465, 2636.026
306.1287, 2673.850
306.6108, 2717.998
307.0929, 2765.508
307.5750, 2815.634
308.0571, 2869.072
308.5392, 2926.864
309.0214, 2986.772
309.5035, 3046.795
309.9856, 3106.534
310.4677, 3169.445
310.9498, 3234.110
311.4319, 3304.563
311.9141, 3387.315
312.3962, 3494.293
312.8783, 3608.081
313.3604, 3719.549
313.8426, 3827.982
314.3247, 3933.935
314.8068, 4027.640
315.2889, 4121.451
315.7710, 4229.049
316.2531, 4366.500
316.7353, 4509.549
317.2174, 4650.927
317.6995, 4790.034
318.1816, 4922.396
318.6637, 5039.055
319.1458, 5151.899
319.6280, 5270.479
320.1101, 5406.977
320.5922, 5539.579
321.0743, 5664.228
321.5564, 5780.564
322.0385, 5886.725
322.5207, 5998.729
323.0028, 6090.339
323.4849, 6144.175
323.9670, 6141.070
324.4491, 6120.822
324.9312, 6089.251
325.4134, 6045.034
325.8955, 5983.198
326.3776, 5893.996
326.8597, 5793.884
327.3418, 5689.249
327.8239, 5569.016
328.3061, 5462.141
328.7882, 5374.783
329.2703, 5300.869
329.7524, 5224.620
330.2345, 5137.985
330.7166, 5056.929
331.1988, 4987.948
331.6809, 4940.262
332.1630, 4886.193
332.6451, 4819.587
333.1272, 4748.564
333.6093, 4690.569
334.0915, 4656.714
334.5736, 4617.861
335.0557, 4563.073
335.5378, 4488.792
336.0199, 4417.031
336.5020, 4349.098
336.9842, 4281.833
337.4663, 4208.596
337.9484, 4125.648
338.4305, 4046.525
338.9126, 3975.694
339.3947, 3913.536
339.8769, 3846.653
340.3590, 3772.627
340.8411, 3697.645
341.3232, 3625.874
341.8053, 3557.435
342.2874, 3496.361
342.7696, 3446.546
343.2517, 3404.985
343.7338, 3357.869
344.2159, 3302.719
344.6980, 3251.691
345.1801, 3218.924
345.6623, 3203.215
346.1444, 3181.785
346.6265, 3147.462
347.1086, 3107.069
347.5907, 3076.392
348.0728, 3055.900
348.5550, 3037.509
349.0371, 3014.539
349.5192, 2989.020
350.0013, 2965.983
350.4834, 2944.594
350.9655, 2929.754
351.4477, 2931.580
351.9298, 2947.744
352.4119, 2966.798
352.8940, 2984.875
353.3761, 3000.558
353.8582, 3010.401
354.3404, 3013.036
354.8225, 3013.536
355.3046, 3018.961
355.7867, 3026.215
356.2688, 3027.861
356.7509, 3015.525
357.2331, 2998.573
357.7152, 2984.104
358.1973, 2972.364
358.6794, 2966.167
359.1615, 2974.612
359.6436, 2988.102
360.1258, 2993.204
360.6079, 2977.461
361.0900, 2957.952
361.5721, 2944.473
362.0542, 2937.207
362.5363, 2927.856
363.0185, 2907.899
363.5006, 2886.632
363.9827, 2872.611
364.4648, 2874.915
364.9469, 2877.353
365.4290, 2873.590
365.9112, 2865.019
366.3933, 2861.543
366.8754, 2873.886
367.3575, 2885.926
367.8396, 2888.395
368.3217, 2870.348
368.8039, 2855.271
369.2860, 2844.405
369.7681, 2837.455
370.2502, 2833.542
370.7323, 2840.917
371.2144, 2843.004
371.6966, 2832.344
372.1787, 2801.805
372.6608, 2775.925
373.1429, 2751.557
373.6250, 2733.623
374.1071, 2733.241
374.5893, 2764.522
375.0714, 2784.782
375.5535, 2777.532
376.0356, 2740.758
376.5177, 2707.686
376.9998, 2677.086
377.4820, 2652.807
377.9641, 2642.709
378.4462, 2649.429
378.9283, 2652.004
379.4104, 2642.957
379.8925, 2625.830
380.3747, 2618.768
380.8568, 2623.332
381.3389, 2627.906
381.8210, 2621.010
382.3031, 2604.167
382.7852, 2589.807
383.2674, 2581.482
383.7495, 2575.082
384.2316, 2562.097
384.7137, 2543.080
385.1958, 2524.977
385.6779, 2510.641
386.1601, 2500.542
386.6422, 2496.703
387.1243, 2500.121
387.6064, 2506.911
388.0885, 2519.745
388.5706, 2533.554
389.0528, 2534.857
389.5349, 2504.875
390.0170, 2466.264
390.4991, 2441.344
390.9812, 2432.290
391.4633, 2425.627
391.9455, 2410.316
392.4276, 2392.901
392.9097, 2381.695
393.3918, 2391.210
393.8739, 2397.246
394.3561, 2383.652
394.8382, 2352.856
395.3203, 2328.374
395.8024, 2326.371
396.2845, 2329.369
396.7667, 2325.278
397.2488, 2302.478
397.7309, 2284.280
398.2130, 2275.214
398.6951, 2273.894
399.1772, 2275.954
399.6594, 2284.357
400.1415, 2293.147
400.6236, 2300.722
401.1057, 2308.855
401.5878, 2311.120
402.0699, 2301.662
402.5521, 2289.191
403.0342, 2287.092
403.5163, 2301.138
403.9984, 2315.463
404.4805, 2327.038
404.9626, 2335.807
405.4448, 2338.200
405.9269, 2330.149
406.4090, 2323.194
406.8911, 2330.313
407.3732, 2353.993
407.8553, 2374.887
408.3375, 2387.812
408.8196, 2396.558
409.3017, 2416.363
409.7838, 2448.774
410.2659, 2474.902
410.7480, 2473.072
411.2302, 2450.618
411.7123, 2445.842
412.1944, 2465.539
412.6765, 2496.487
413.1586, 2520.144
413.6407, 2539.172
414.1229, 2564.507
414.6050, 2608.819
415.0871, 2660.688
415.5692, 2700.144
416.0513, 2726.474
416.5334, 2752.023
417.0156, 2782.426
417.4977, 2819.682
417.9798, 2866.298
418.4619, 2936.053
418.9440, 3004.751
419.4261, 3054.114
419.9083, 3086.887
420.3904, 3124.784
420.8725, 3186.409
421.3546, 3250.816
421.8367, 3300.595
422.3188, 3318.261
422.8010, 3346.977
423.2831, 3405.927
423.7652, 3482.920
424.2473, 3553.076
424.7294, 3616.477
425.2115, 3669.849
425.6937, 3708.756
426.1758, 3726.035
426.6579, 3756.809
427.1400, 3815.036
427.6221, 3877.702
428.1042, 3922.075
428.5864, 3941.989
429.0685, 3955.033
429.5506, 3959.146
430.0327, 3957.262
430.5148, 3973.273
430.9969, 4011.623
431.4791, 4057.318
431.9612, 4100.520
432.4433, 4141.118
432.9254, 4181.688
433.4075, 4222.437
433.8896, 4262.782
434.3718, 4299.470
434.8539, 4332.745
435.3360, 4371.390
435.8181, 4421.553
436.3002, 4479.875
436.7823, 4539.793
437.2645, 4601.439
437.7466, 4658.603
438.2287, 4701.809
438.7108, 4736.018
439.1929, 4772.706
439.6750, 4820.514
440.1572, 4867.235
440.6393, 4901.473
441.1214, 4924.147
441.6035, 4939.794
442.0856, 4941.543
442.5677, 4942.736
443.0499, 4956.521
443.5320, 4991.560
444.0141, 5023.362
444.4962, 5043.870
444.9783, 5054.567
445.4604, 5057.946
445.9426, 5054.778
446.4247, 5044.229
446.9068, 5027.479
447.3889, 5005.672
447.8710, 4969.710
448.3531, 4910.376
448.8353, 4842.400
449.3174, 4776.570
449.7995, 4722.074
450.2816, 4654.102
450.7637, 4570.926
451.2458, 4472.475
451.7280, 4357.818
452.2101, 4218.276
452.6922, 4084.385
453.1743, 3975.380
453.6564, 3895.601
454.1385, 3800.884
454.6207, 3681.765
455.1028, 3566.948
455.5849, 3508.224
456.0670, 3501.917
456.5491, 3477.767
457.0313, 3391.452
457.5134, 3279.740
457.9955, 3250.959
458.4776, 3301.462
458.9597, 3339.296
459.4418, 3266.012
459.9240, 3136.532
460.4061, 3044.614
460.8882, 3018.002
461.3703, 3015.200
461.8524, 3006.650
462.3345, 2995.066
462.8167, 2986.932
463.2988, 2983.096
463.7809, 2985.438
464.2630, 2996.327
464.7451, 3016.342
465.2272, 3039.151
465.7094, 3064.112
466.1915, 3089.892
466.6736, 3115.595
467.1557, 3134.364
467.6378, 3160.391
468.1199, 3196.975
468.6021, 3243.186
469.0842, 3293.293
469.5663, 3347.810
470.0484, 3405.347
470.5305, 3465.108
471.0126, 3524.892
471.4948, 3593.689
471.9769, 3670.935
472.4590, 3758.428
472.9411, 3861.795
473.4232, 3983.303
473.9053, 4102.677
474.3875, 4208.901
474.8696, 4309.458
475.3517, 4435.471
475.8338, 4588.616
476.3159, 4745.208
476.7981, 4886.286
477.2802, 5016.045
477.7623, 5145.479
478.2444, 5274.130
478.7265, 5409.847
479.2086, 5570.101
479.6908, 5744.391
480.1729, 5904.674
480.6550, 6033.736
481.1371, 6146.111
481.6192, 6250.075
482.1013, 6346.613
482.5835, 6439.215
483.0656, 6538.667
483.5477, 6629.159
484.0298, 6697.505
484.5119, 6745.820
484.9940, 6764.887
485.4762, 6754.977
485.9583, 6714.844
486.4404, 6641.289
486.9225, 6530.367
487.4046, 6388.398
487.8867, 6212.358
488.3689, 5997.802
488.8510, 5769.124
489.3331, 5516.817
489.8152, 5259.762
490.2973, 5015.734
490.7794, 4788.534
491.2616, 4562.349
491.7437, 4331.891
492.2258, 4103.694
492.7079, 3897.191
493.1900, 3714.311
493.6721, 3548.463
494.1543, 3398.836
494.6364, 3264.597
495.1185, 3145.758
495.6006, 3044.886
496.0827, 2955.128
496.5648, 2873.279
497.0470, 2798.451
497.5291, 2731.072
498.0112, 2673.438
498.4933, 2619.671
498.9754, 2564.112
499.4576, 2507.745
499.9397, 2457.470
500.4218, 2417.321
500.9039, 2383.223
501.3860, 2353.199
501.8681, 2329.009
502.3503, 2302.835
502.8324, 2268.486
503.3145, 2232.859
503.7966, 2204.332
504.2787, 2185.773
504.7608, 2171.115
505.2430, 2161.409
505.7251, 2155.654
506.2072, 2145.823
506.6893, 2128.419
507.1714, 2113.287
507.6535, 2107.060
508.1357, 2111.283
508.6178, 2111.749
509.0999, 2107.770
509.5820, 2100.763
510.0641, 2090.251
510.5462, 2076.856
511.0284, 2069.292
511.5105, 2073.819
511.9926, 2083.105
512.4747, 2081.088
512.9568, 2069.185
513.4389, 2059.253
513.9210, 2061.360
514.4031, 2069.374
514.8853, 2075.483
515.3674, 2077.938
515.8495, 2081.202
516.3316, 2088.474
516.8137, 2098.093
517.2958, 2107.763
517.7780, 2116.098
518.2601, 2125.073
518.7422, 2135.065
519.2244, 2146.144
519.7065, 2158.538
520.1886, 2170.227
520.6707, 2184.902
521.1528, 2204.105
521.6349, 2227.936
522.1171, 2256.779
522.5992, 2294.352
523.0813, 2333.215
523.5634, 2363.041
524.0455, 2381.672
524.5276, 2402.596
525.0098, 2428.623
525.4919, 2459.599
525.9740, 2498.011
526.4561, 2544.411
526.9382, 2589.612
527.4203, 2624.182
527.9025, 2654.188
528.3846, 2696.383
528.8667, 2754.768
529.3488, 2811.064
529.8309, 2842.588
530.3130, 2860.873
530.7952, 2885.095
531.2773, 2933.049
531.7594, 2979.151
532.2415, 3008.383
532.7236, 3023.519
533.2057, 3035.234
533.6879, 3048.054
534.1700, 3057.576
534.6521, 3062.522
535.1342, 3064.821
535.6163, 3056.628
536.0984, 3042.380
536.5806, 3014.656
537.0627, 2962.674
537.5448, 2870.868
538.0269, 2792.099
538.5090, 2740.726
538.9911, 2705.535
539.4733, 2651.055
539.9554, 2574.526
540.4375, 2495.275
540.9196, 2421.993
541.4017, 2354.064
541.8839, 2290.941
542.3660, 2232.097
542.8481, 2181.474
543.3302, 2145.691
543.8123, 2119.449
544.2944, 2091.656
544.7766, 2057.417
545.2587, 2023.712
545.7408, 1994.666
546.2229, 1970.770
546.7050, 1952.495
547.1871, 1943.863
547.6693, 1937.647
548.1514, 1930.893
548.6335, 1923.361
549.1156, 1915.411
549.5977, 1906.427
550.0798, 1897.461
550.5620, 1889.115
551.0441, 1879.935
551.5262, 1874.623
552.0083, 1876.006
552.4904, 1879.443
552.9725, 1874.655
553.4547, 1859.770
553.9368, 1846.420
554.4189, 1838.923
554.9010, 1836.115
555.3831, 1834.943
555.8652, 1835.483
556.3474, 1833.842
556.8295, 1822.448
557.3116, 1807.377
557.7937, 1803.136
558.2758, 1814.062
558.7579, 1825.381
559.2401, 1821.956
559.7222, 1811.146
560.2043, 1804.341
560.6864, 1812.727
561.1685, 1819.320
561.6506, 1812.422
562.1328, 1795.549
562.6149, 1787.727
563.0970, 1801.991
563.5791, 1817.747
564.0612, 1826.736
564.5433, 1827.557
565.0255, 1826.396
565.5076, 1820.993
565.9897, 1816.306
566.4718, 1819.800
566.9539, 1834.175
567.4360, 1838.420
567.9182, 1826.233
568.4003, 1805.859
568.8824, 1793.846
569.3645, 1789.943
569.8466, 1789.823
570.3287, 1794.831
570.8109, 1800.909
571.2930, 1799.557
571.7751, 1791.028
572.2572, 1783.536
572.7393, 1781.853
573.2214, 1784.531
573.7036, 1791.807
574.1857, 1809.455
574.6678, 1818.242
575.1499, 1801.901
575.6320, 1774.772
576.1141, 1757.641
576.5963, 1763.442
577.0784, 1768.751
577.5605, 1768.951
578.0426, 1764.991
578.5247, 1763.039
579.0068, 1763.929
579.4890, 1765.153
579.9711, 1765.661
580.4532, 1765.461
580.9353, 1764.311
581.4174, 1762.260
581.8995, 1759.051
582.3817, 1753.013
582.8638, 1745.301
583.3459, 1740.241
583.8280, 1739.184
584.3101, 1740.567
584.7922, 1745.409
585.2744, 1751.497
585.7565, 1753.272
586.2386, 1742.473
586.7207, 1731.250
587.2028, 1727.212
587.6849, 1730.467
588.1671, 1734.306
588.6492, 1741.984
589.1313, 1746.047
589.6134, 1740.712
590.0955, 1717.256
590.5776, 1703.920
591.0598, 1704.414
591.5419, 1711.699
592.0240, 1716.064
592.5061, 1716.127
592.9882, 1721.289
593.4703, 1736.657
593.9525, 1755.262
594.4346, 1756.537
594.9167, 1741.756
595.3988, 1728.848
595.8809, 1731.770
596.3630, 1741.772
596.8452, 1744.609
597.3273, 1739.775
597.8094, 1732.641
598.2915, 1723.895
598.7736, 1716.085
599.2557, 1711.864
599.7379, 1713.109
600.2200, 1715.377
600.7021, 1718.366
601.1842, 1721.374
601.6663, 1723.268
602.1484, 1723.465
602.6306, 1723.291
603.1127, 1722.525
603.5948, 1721.501
604.0769, 1722.019
604.5590, 1724.294
605.0411, 1727.400
605.5233, 1732.351
606.0054, 1738.469
606.4875, 1737.552
606.9696, 1728.894
607.4517, 1720.330
607.9338, 1720.156
608.4160, 1725.505
608.8981, 1730.379
609.3802, 1733.110
609.8623, 1736.421
610.3444, 1745.892
610.8265, 1756.727
611.3087, 1761.070
611.7908, 1744.910
612.2729, 1733.170
612.7550, 1738.686
613.2371, 1758.537
613.7192, 1770.550
614.2014, 1771.366
614.6835, 1767.423
615.1656, 1759.903
615.6477, 1748.041
616.1298, 1740.237
616.6119, 1736.993
617.0941, 1736.665
617.5762, 1736.853
618.0583, 1738.053
618.5404, 1746.163
619.0225, 1764.516
619.5046, 1782.427
619.9868, 1784.858
620.4689, 1776.321
620.9510, 1767.960
621.4331, 1761.599
621.9152, 1759.541
622.3973, 1766.792
622.8795, 1780.659
623.3616, 1790.060
623.8437, 1790.075
624.3258, 1785.893
624.8079, 1777.891
625.2900, 1764.529
625.7722, 1758.419
626.2543, 1763.378
626.7364, 1770.845
627.2185, 1773.871
627.7006, 1771.293
628.1827, 1772.178
628.6649, 1777.953
629.1470, 1785.386
629.6291, 1791.486
630.1112, 1795.657
630.5933, 1794.191
631.0754, 1781.933
631.5576, 1768.207
632.0397, 1766.853
632.5218, 1774.158
633.0039, 1778.519
633.4860, 1770.133
633.9681, 1760.338
634.4503, 1754.176
634.9324, 1751.976
635.4145, 1756.005
635.8966, 1777.931
636.3787, 1797.133
636.8608, 1801.573
637.3430, 1783.739
637.8251, 1772.282
638.3072, 1769.524
638.7893, 1769.780
639.2714, 1764.458
639.7535, 1753.487
640.2357, 1749.726
640.7178, 1757.389
641.1999, 1770.301
641.6820, 1780.687
642.1641, 1788.391
642.6462, 1792.712
643.1284, 1792.681
