##NAMES=Conichalcite
##RRUFFID=R040167
##IDEAL CHEMISTRY=CaCu^2+^As^5+^O_4_(OH)
##LOCALITY=Ojuela mine, Mapimi, Durango, Mexico
##OWNER=RRUFF
##SOURCE=University of Arizona Mineral Museum
##DESCRIPTION=Green druse
##STATUS=The identification of this mineral is confirmed by single-crystal X-ray diffraction and chemical analysis.
##URL=rruff.info/R040167
##MEASURED CHEMISTRY=Ca_1.00_(Cu_0.70_Zn_0.30_)_Î£=1_(As_1.00_O_4_)(OH) ; OH estimated by difference and stoichiometry
123.1454, 153.6236
123.6275, 161.6487
124.1096, 174.8733
124.5917, 192.0866
125.0739, 208.3423
125.5560, 219.1020
126.0381, 226.6661
126.5202, 235.6169
127.0023, 246.5698
127.4844, 259.7511
127.9666, 276.5137
128.4487, 296.8178
128.9308, 317.5528
129.4129, 335.7635
129.8950, 351.9092
130.3772, 367.3637
130.8593, 382.4385
131.3414, 397.2508
131.8235, 412.1709
132.3056, 427.0113
132.7877, 442.1524
133.2699, 457.9600
133.7520, 474.5117
134.2341, 491.6202
134.7162, 509.7117
135.1983, 528.8702
135.6804, 546.5220
136.1626, 562.4163
136.6447, 576.8710
137.1268, 589.9352
137.6089, 600.9642
138.0910, 612.5373
138.5731, 627.1091
139.0553, 646.8513
139.5374, 659.7807
140.0195, 663.1531
140.5016, 659.4873
140.9837, 658.4473
141.4658, 661.0790
141.9480, 664.6748
142.4301, 667.2396
142.9122, 667.7005
143.3943, 669.4234
143.8764, 673.1027
144.3585, 678.6662
144.8407, 684.1668
145.3228, 688.7629
145.8049, 693.9049
146.2870, 700.9218
146.7691, 710.2741
147.2512, 720.7500
147.7334, 731.7606
148.2155, 742.9943
148.6976, 756.7214
149.1797, 776.1982
149.6618, 797.2743
150.1439, 814.3065
150.6261, 821.6476
151.1082, 829.8179
151.5903, 841.9107
152.0724, 860.7413
152.5545, 877.2567
153.0366, 886.9589
153.5188, 893.9762
154.0009, 906.3676
154.4830, 931.6714
154.9651, 957.9594
155.4472, 979.9771
155.9293, 993.2447
156.4115, 1007.743
156.8936, 1026.031
157.3757, 1047.280
157.8578, 1068.845
158.3399, 1092.862
158.8221, 1115.248
159.3042, 1133.584
159.7863, 1145.782
160.2684, 1155.299
160.7505, 1162.394
161.2326, 1167.363
161.7148, 1171.985
162.1969, 1177.195
162.6790, 1182.379
163.1611, 1186.884
163.6432, 1195.031
164.1253, 1198.916
164.6075, 1190.878
165.0896, 1170.519
165.5717, 1153.483
166.0538, 1151.579
166.5359, 1157.976
167.0180, 1162.851
167.5002, 1159.697
167.9823, 1155.045
168.4644, 1153.874
168.9465, 1156.808
169.4286, 1161.418
169.9107, 1165.357
170.3929, 1169.621
170.8750, 1176.418
171.3571, 1190.535
171.8392, 1206.102
172.3213, 1215.831
172.8034, 1217.199
173.2856, 1217.723
173.7677, 1225.180
174.2498, 1237.939
174.7319, 1250.255
175.2140, 1256.932
175.6961, 1261.372
176.1783, 1269.523
176.6604, 1284.340
177.1425, 1299.611
177.6246, 1305.446
178.1067, 1303.304
178.5888, 1303.082
179.0710, 1314.304
179.5531, 1332.668
180.0352, 1349.214
180.5173, 1363.585
180.9994, 1373.116
181.4815, 1370.721
181.9637, 1356.683
182.4458, 1340.594
182.9279, 1331.584
183.4100, 1327.565
183.8921, 1320.243
184.3742, 1305.090
184.8564, 1286.042
185.3385, 1274.030
185.8206, 1269.519
186.3027, 1265.152
186.7848, 1250.214
187.2669, 1226.663
187.7491, 1209.124
188.2312, 1207.259
188.7133, 1215.580
189.1954, 1211.380
189.6775, 1192.381
190.1596, 1171.152
190.6418, 1162.852
191.1239, 1167.334
191.6060, 1175.702
192.0881, 1186.482
192.5702, 1199.064
193.0524, 1207.601
193.5345, 1211.350
194.0166, 1212.949
194.4987, 1214.513
194.9808, 1215.693
195.4629, 1222.123
195.9451, 1237.516
196.4272, 1261.904
196.9093, 1287.684
197.3914, 1315.250
197.8735, 1343.219
198.3556, 1368.565
198.8378, 1390.768
199.3199, 1413.112
199.8020, 1437.159
200.2841, 1462.758
200.7662, 1488.509
201.2483, 1512.825
201.7305, 1538.619
202.2126, 1574.080
202.6947, 1620.916
203.1768, 1671.051
203.6589, 1721.328
204.1410, 1771.998
204.6232, 1817.450
205.1053, 1855.938
205.5874, 1889.415
206.0695, 1923.564
206.5516, 1957.540
207.0337, 1994.408
207.5159, 2040.099
207.9980, 2098.359
208.4801, 2143.198
208.9622, 2169.084
209.4443, 2179.133
209.9264, 2189.639
210.4086, 2203.931
210.8907, 2211.980
211.3728, 2204.473
211.8549, 2177.100
212.3370, 2149.096
212.8191, 2125.203
213.3013, 2103.890
213.7834, 2068.668
214.2655, 2013.983
214.7476, 1954.089
215.2297, 1901.836
215.7118, 1858.895
216.1940, 1817.553
216.6761, 1776.571
217.1582, 1735.838
217.6403, 1697.069
218.1224, 1661.486
218.6045, 1626.834
219.0867, 1589.530
219.5688, 1545.122
220.0509, 1509.569
220.5330, 1489.105
221.0151, 1483.845
221.4972, 1475.216
221.9794, 1462.738
222.4615, 1447.360
222.9436, 1429.164
223.4257, 1405.377
223.9078, 1384.498
224.3899, 1370.567
224.8721, 1364.508
225.3542, 1350.458
225.8363, 1325.285
226.3184, 1294.993
226.8005, 1265.827
227.2827, 1237.628
227.7648, 1211.386
228.2469, 1188.650
228.7290, 1170.695
229.2111, 1146.247
229.6932, 1110.347
230.1754, 1072.262
230.6575, 1044.284
231.1396, 1031.800
231.6217, 1020.250
232.1038, 1005.218
232.5859, 985.3967
233.0681, 969.1703
233.5502, 957.3115
234.0323, 948.5291
234.5144, 941.2294
234.9965, 937.0827
235.4786, 931.5868
235.9608, 922.2219
236.4429, 907.0159
236.9250, 898.0366
237.4071, 898.7010
237.8892, 903.5464
238.3713, 903.8998
238.8535, 897.9516
239.3356, 890.4913
239.8177, 882.5118
240.2998, 873.2537
240.7819, 866.3262
241.2640, 861.6806
241.7462, 859.2793
242.2283, 859.5847
242.7104, 865.4827
243.1925, 869.2784
243.6746, 867.3500
244.1567, 856.4070
244.6389, 851.1838
245.1210, 853.5109
245.6031, 860.4381
246.0852, 867.0209
246.5673, 873.4906
247.0494, 879.2275
247.5316, 884.1102
248.0137, 888.3217
248.4958, 890.9831
248.9779, 891.6130
249.4600, 890.9450
249.9421, 890.2126
250.4243, 889.1381
250.9064, 888.4869
251.3885, 888.6235
251.8706, 889.8311
252.3527, 890.5665
252.8348, 889.2594
253.3170, 888.4307
253.7991, 894.0332
254.2812, 910.7052
254.7633, 924.7800
255.2454, 930.0807
255.7275, 923.1809
256.2097, 919.9350
256.6918, 920.5704
257.1739, 924.7299
257.6560, 932.7353
258.1381, 947.4379
258.6202, 960.1123
259.1024, 966.8234
259.5845, 965.5305
260.0666, 966.5457
260.5487, 970.5503
261.0308, 976.3491
261.5129, 981.4774
261.9951, 984.5181
262.4772, 990.2393
262.9593, 1002.261
263.4414, 1023.753
263.9235, 1035.928
264.4056, 1035.104
264.8878, 1028.516
265.3699, 1029.572
265.8520, 1041.086
266.3341, 1052.260
266.8162, 1059.045
267.2983, 1060.883
267.7805, 1060.992
268.2626, 1057.999
268.7447, 1054.817
269.2268, 1056.616
269.7089, 1064.137
270.1910, 1074.009
270.6732, 1086.564
271.1553, 1102.569
271.6374, 1112.408
272.1195, 1114.519
272.6016, 1112.762
273.0837, 1113.067
273.5659, 1115.705
274.0480, 1119.013
274.5301, 1122.724
275.0122, 1126.868
275.4943, 1129.463
275.9764, 1129.506
276.4586, 1129.891
276.9407, 1136.539
277.4228, 1150.394
277.9049, 1161.619
278.3870, 1165.089
278.8691, 1161.224
279.3513, 1159.833
279.8334, 1161.301
280.3155, 1164.253
280.7976, 1166.897
281.2798, 1169.178
281.7619, 1171.984
282.2440, 1176.922
282.7261, 1183.219
283.2082, 1183.758
283.6903, 1177.283
284.1725, 1169.674
284.6546, 1169.948
285.1367, 1177.698
285.6188, 1182.041
286.1009, 1176.594
286.5830, 1164.379
287.0652, 1159.095
287.5473, 1161.551
288.0294, 1166.397
288.5115, 1170.740
288.9936, 1173.779
289.4757, 1168.586
289.9579, 1147.103
290.4400, 1117.137
290.9221, 1101.076
291.4042, 1099.690
291.8863, 1102.598
292.3684, 1099.631
292.8506, 1092.059
293.3327, 1085.381
293.8148, 1081.585
294.2969, 1079.556
294.7790, 1077.165
295.2611, 1074.400
295.7433, 1071.583
296.2254, 1070.119
296.7075, 1068.900
297.1896, 1064.499
297.6717, 1052.743
298.1538, 1039.958
298.6360, 1036.813
299.1181, 1042.673
299.6002, 1050.364
300.0823, 1054.759
300.5644, 1057.088
301.0465, 1059.402
301.5287, 1060.883
302.0108, 1064.260
302.4929, 1073.157
302.9750, 1087.087
303.4571, 1102.730
303.9392, 1118.879
304.4214, 1135.174
304.9035, 1151.297
305.3856, 1166.012
305.8677, 1181.827
306.3498, 1200.828
306.8319, 1222.526
307.3141, 1245.682
307.7962, 1267.251
308.2783, 1290.665
308.7604, 1320.065
309.2425, 1357.015
309.7246, 1397.142
310.2068, 1438.909
310.6889, 1481.969
311.1710, 1525.859
311.6531, 1571.593
312.1352, 1617.390
312.6173, 1660.276
313.0995, 1696.598
313.5816, 1737.936
314.0637, 1793.420
314.5458, 1857.703
315.0279, 1921.110
315.5100, 1973.652
315.9922, 2029.078
316.4743, 2095.184
316.9564, 2174.329
317.4385, 2258.101
317.9206, 2347.022
318.4027, 2438.168
318.8849, 2527.454
319.3670, 2612.543
319.8491, 2696.679
320.3312, 2782.615
320.8133, 2872.315
321.2954, 2954.628
321.7776, 3026.414
322.2597, 3090.792
322.7418, 3151.088
323.2239, 3209.499
323.7060, 3262.149
324.1881, 3312.365
324.6703, 3361.679
325.1524, 3389.186
325.6345, 3381.280
326.1166, 3357.070
326.5987, 3331.880
327.0808, 3312.346
327.5630, 3284.194
328.0451, 3244.736
328.5272, 3194.267
329.0093, 3138.193
329.4914, 3070.835
329.9735, 3004.341
330.4557, 2946.776
330.9378, 2899.574
331.4199, 2859.018
331.9020, 2826.902
332.3841, 2801.384
332.8662, 2772.866
333.3484, 2738.394
333.8305, 2705.830
334.3126, 2679.721
334.7947, 2662.605
335.2768, 2645.137
335.7589, 2627.503
336.2411, 2608.947
336.7232, 2586.312
337.2053, 2558.258
337.6874, 2530.500
338.1695, 2506.416
338.6516, 2487.077
339.1338, 2463.100
339.6159, 2432.922
340.0980, 2400.634
340.5801, 2374.836
341.0622, 2356.045
341.5443, 2336.042
342.0265, 2310.184
342.5086, 2279.396
342.9907, 2248.627
343.4728, 2217.086
343.9549, 2189.718
344.4370, 2178.718
344.9192, 2181.745
345.4013, 2175.077
345.8834, 2144.782
346.3655, 2100.487
346.8476, 2067.416
347.3297, 2045.758
347.8119, 2032.234
348.2940, 2026.941
348.7761, 2027.956
349.2582, 2030.378
349.7403, 2036.754
350.2225, 2039.900
350.7046, 2025.386
351.1867, 1995.309
351.6688, 1966.833
352.1509, 1955.304
352.6331, 1952.454
353.1152, 1945.104
353.5973, 1927.337
354.0794, 1910.039
354.5615, 1904.597
355.0436, 1907.978
355.5258, 1910.955
356.0079, 1910.588
356.4900, 1906.418
356.9721, 1897.453
357.4542, 1882.587
357.9363, 1866.153
358.4185, 1852.567
358.9006, 1838.848
359.3827, 1819.838
359.8648, 1785.929
360.3469, 1752.233
360.8290, 1726.814
361.3112, 1711.016
361.7933, 1698.226
362.2754, 1692.135
362.7575, 1685.671
363.2396, 1671.087
363.7217, 1634.453
364.2039, 1601.900
364.6860, 1582.840
365.1681, 1577.505
365.6502, 1568.409
366.1323, 1550.859
366.6144, 1530.500
367.0966, 1511.122
367.5787, 1492.840
368.0608, 1475.787
368.5429, 1459.281
369.0250, 1443.743
369.5071, 1432.049
369.9893, 1428.546
370.4714, 1423.893
370.9535, 1412.435
371.4356, 1387.397
371.9177, 1371.785
372.3998, 1369.590
372.8820, 1375.078
373.3641, 1375.030
373.8462, 1366.812
374.3283, 1359.993
374.8104, 1360.352
375.2925, 1369.215
375.7747, 1368.668
376.2568, 1356.601
376.7389, 1339.306
377.2210, 1323.935
377.7031, 1310.334
378.1852, 1301.179
378.6674, 1299.185
379.1495, 1302.167
379.6316, 1299.236
380.1137, 1289.658
380.5958, 1281.021
381.0779, 1283.505
381.5601, 1294.278
382.0422, 1298.337
382.5243, 1289.318
383.0064, 1275.987
383.4885, 1274.485
383.9706, 1283.303
384.4528, 1291.399
384.9349, 1290.463
385.4170, 1284.134
385.8991, 1278.475
386.3812, 1274.590
386.8633, 1270.607
387.3455, 1262.921
387.8276, 1253.708
388.3097, 1247.848
388.7918, 1250.039
389.2739, 1255.230
389.7560, 1260.323
390.2382, 1265.268
390.7203, 1267.764
391.2024, 1263.905
391.6845, 1257.820
392.1666, 1254.226
392.6487, 1256.881
393.1309, 1260.295
393.6130, 1264.206
394.0951, 1268.116
394.5772, 1266.820
395.0593, 1254.764
395.5414, 1239.760
396.0236, 1226.778
396.5057, 1210.869
396.9878, 1203.665
397.4699, 1212.908
397.9520, 1232.610
398.4341, 1243.865
398.9163, 1241.758
399.3984, 1236.252
399.8805, 1230.454
400.3626, 1223.925
400.8447, 1218.258
401.3268, 1212.553
401.8090, 1208.386
402.2911, 1207.602
402.7732, 1209.671
403.2553, 1216.760
403.7374, 1231.201
404.2195, 1252.389
404.7017, 1268.678
405.1838, 1278.736
405.6659, 1287.632
406.1480, 1301.438
406.6301, 1320.366
407.1122, 1333.104
407.5944, 1333.968
408.0765, 1331.311
408.5586, 1347.766
409.0407, 1383.030
409.5228, 1419.142
410.0049, 1441.542
410.4871, 1455.242
410.9692, 1475.187
411.4513, 1503.795
411.9334, 1535.250
412.4155, 1561.425
412.8976, 1585.304
413.3798, 1614.273
413.8619, 1655.311
414.3440, 1701.549
414.8261, 1747.283
415.3082, 1792.518
415.7903, 1836.342
416.2725, 1876.689
416.7546, 1916.215
417.2367, 1958.891
417.7188, 2007.281
418.2009, 2056.452
418.6830, 2106.623
419.1652, 2156.366
419.6473, 2198.479
420.1294, 2217.915
420.6115, 2238.806
421.0937, 2276.909
421.5758, 2346.163
422.0579, 2405.342
422.5400, 2441.651
423.0221, 2466.378
423.5042, 2498.721
423.9864, 2538.966
424.4685, 2586.941
424.9506, 2646.845
425.4327, 2719.519
425.9148, 2782.654
426.3969, 2831.638
426.8791, 2876.320
427.3612, 2924.420
427.8433, 2976.612
428.3254, 3030.389
428.8075, 3087.824
429.2896, 3145.501
429.7718, 3192.901
430.2539, 3231.378
430.7360, 3253.794
431.2181, 3250.724
431.7002, 3223.855
432.1823, 3200.013
432.6645, 3183.094
433.1466, 3160.465
433.6287, 3112.543
434.1108, 3042.896
434.5929, 2968.191
435.0750, 2894.143
435.5572, 2820.437
436.0393, 2747.418
436.5214, 2674.954
437.0035, 2599.935
437.4856, 2517.520
437.9677, 2432.466
438.4499, 2351.851
438.9320, 2277.934
439.4141, 2208.081
439.8962, 2138.398
440.3783, 2071.447
440.8604, 2011.768
441.3426, 1966.824
441.8247, 1926.465
442.3068, 1882.851
442.7889, 1832.002
443.2710, 1793.097
443.7531, 1778.387
444.2353, 1775.532
444.7174, 1770.636
445.1995, 1756.464
445.6816, 1746.059
446.1637, 1741.605
446.6458, 1742.888
447.1280, 1747.787
447.6101, 1756.154
448.0922, 1768.365
448.5743, 1783.947
449.0564, 1801.127
449.5385, 1827.997
450.0207, 1868.693
450.5028, 1915.430
450.9849, 1951.530
451.4670, 1973.747
451.9491, 2000.034
452.4312, 2037.067
452.9134, 2084.123
453.3955, 2137.149
453.8776, 2196.169
454.3597, 2259.466
454.8418, 2327.150
455.3239, 2398.061
455.8061, 2463.903
456.2882, 2521.531
456.7703, 2576.636
457.2524, 2635.079
457.7345, 2697.284
458.2166, 2766.654
458.6988, 2849.289
459.1809, 2937.533
459.6630, 3022.697
460.1451, 3104.871
460.6272, 3183.068
461.1093, 3248.884
461.5915, 3312.449
462.0736, 3385.109
462.5557, 3494.897
463.0378, 3590.747
463.5199, 3646.095
464.0020, 3665.628
464.4842, 3687.996
464.9663, 3742.540
465.4484, 3785.691
465.9305, 3794.830
466.4126, 3762.411
466.8947, 3707.528
467.3769, 3621.666
467.8590, 3517.464
468.3411, 3413.291
468.8232, 3308.998
469.3053, 3205.943
469.7874, 3104.040
470.2696, 3003.213
470.7517, 2900.162
471.2338, 2792.623
471.7159, 2690.620
472.1980, 2605.655
472.6801, 2537.102
473.1623, 2471.052
473.6444, 2404.272
474.1265, 2340.544
474.6086, 2289.598
475.0907, 2249.412
475.5728, 2206.922
476.0550, 2148.029
476.5371, 2084.724
477.0192, 2038.220
477.5013, 2009.093
477.9834, 1986.518
478.4655, 1964.768
478.9477, 1943.657
479.4298, 1923.385
479.9119, 1905.738
480.3940, 1886.405
480.8761, 1862.260
481.3582, 1834.625
481.8404, 1807.571
482.3225, 1778.033
482.8046, 1753.023
483.2867, 1736.464
483.7688, 1731.169
484.2509, 1725.726
484.7331, 1722.790
485.2152, 1717.414
485.6973, 1704.646
486.1794, 1681.825
486.6615, 1655.617
487.1436, 1624.108
487.6258, 1589.657
488.1079, 1564.371
488.5900, 1551.109
489.0721, 1539.551
489.5542, 1522.980
490.0363, 1501.239
490.5185, 1485.750
491.0006, 1478.275
491.4827, 1472.580
491.9648, 1460.171
492.4470, 1442.163
492.9291, 1424.772
493.4112, 1410.747
493.8933, 1398.306
494.3754, 1383.926
494.8575, 1368.215
495.3397, 1355.871
495.8218, 1355.707
496.3039, 1357.557
496.7860, 1348.464
497.2681, 1322.976
497.7502, 1300.170
498.2324, 1293.211
498.7145, 1294.071
499.1966, 1291.704
499.6787, 1278.103
500.1608, 1265.648
500.6429, 1258.725
501.1251, 1257.057
501.6072, 1254.858
502.0893, 1249.924
502.5714, 1245.930
503.0535, 1244.700
503.5356, 1247.331
504.0178, 1250.354
504.4999, 1254.824
504.9820, 1258.682
505.4641, 1257.464
505.9462, 1249.430
506.4283, 1245.820
506.9105, 1252.305
507.3926, 1265.145
507.8747, 1268.503
508.3568, 1261.963
508.8389, 1253.569
509.3210, 1248.149
509.8032, 1245.426
510.2853, 1245.603
510.7674, 1249.691
511.2495, 1252.429
511.7316, 1246.322
512.2137, 1234.955
512.6959, 1225.731
513.1780, 1224.870
513.6601, 1224.484
514.1422, 1217.885
514.6243, 1206.224
515.1064, 1197.622
515.5886, 1197.536
516.0707, 1199.892
516.5528, 1201.479
517.0349, 1203.565
517.5170, 1201.389
517.9991, 1187.851
518.4813, 1172.404
518.9634, 1167.764
519.4455, 1182.037
519.9276, 1193.279
520.4097, 1197.175
520.8918, 1194.351
521.3740, 1188.638
521.8561, 1179.336
522.3382, 1169.460
522.8203, 1159.797
523.3024, 1150.636
523.7845, 1147.100
524.2667, 1150.923
524.7488, 1154.745
525.2309, 1147.193
525.7130, 1131.525
526.1951, 1119.349
526.6772, 1116.453
527.1594, 1117.164
527.6415, 1116.448
528.1236, 1114.071
528.6057, 1108.905
529.0878, 1099.263
529.5699, 1087.292
530.0521, 1074.296
530.5342, 1059.923
531.0163, 1046.387
531.4984, 1033.720
531.9805, 1022.399
532.4626, 1012.862
532.9448, 1014.748
533.4269, 1006.549
533.9090, 979.5775
534.3911, 940.0942
534.8732, 913.8425
535.3553, 904.9628
535.8375, 901.2371
536.3196, 899.5367
536.8017, 900.2835
537.2838, 892.4085
537.7659, 873.8468
538.2480, 853.2148
538.7302, 840.4865
539.2123, 834.4007
539.6944, 826.7311
540.1765, 814.7800
540.6586, 802.1419
541.1407, 793.6848
541.6229, 788.6830
542.1050, 784.3675
542.5871, 779.1649
543.0692, 774.0318
543.5513, 769.1445
544.0334, 764.5929
544.5156, 762.8166
544.9977, 769.3102
545.4798, 776.5513
545.9619, 778.2428
546.4440, 767.0839
546.9261, 759.4595
547.4083, 761.0255
547.8904, 766.8342
548.3725, 767.7978
548.8546, 760.5927
549.3367, 754.0036
549.8188, 750.1841
550.3010, 748.9349
550.7831, 747.6790
551.2652, 745.9771
551.7473, 745.7415
552.2294, 749.9787
552.7115, 757.9211
553.1937, 760.5676
553.6758, 756.1081
554.1579, 750.9150
554.6400, 754.7720
555.1221, 764.5169
555.6042, 770.9543
556.0864, 769.1046
556.5685, 764.3442
557.0506, 761.5800
557.5327, 760.2496
558.0148, 758.3040
558.4969, 752.5847
558.9791, 747.5611
559.4612, 747.2877
559.9433, 753.8889
560.4254, 756.2436
560.9075, 746.8844
561.3896, 735.4916
561.8718, 730.5951
562.3539, 736.6981
562.8360, 741.7741
563.3181, 745.1595
563.8002, 746.8510
564.2823, 745.8058
564.7645, 740.7690
565.2466, 738.9548
565.7287, 746.0161
566.2108, 758.8577
566.6929, 760.8224
567.1750, 751.5434
567.6572, 739.3269
568.1393, 728.2961
568.6214, 719.9161
569.1035, 718.6829
569.5856, 726.7373
570.0677, 735.9135
570.5499, 740.1425
571.0320, 740.9353
571.5141, 740.7339
571.9962, 739.7873
572.4783, 738.6597
572.9604, 737.9791
573.4426, 737.4743
573.9247, 735.7083
574.4068, 731.9563
574.8889, 727.2854
575.3710, 720.9828
575.8531, 711.5280
576.3353, 709.5274
576.8174, 718.7432
577.2995, 729.8627
577.7816, 733.2124
578.2637, 727.8486
578.7458, 724.9238
579.2280, 726.8135
579.7101, 730.4214
580.1922, 729.0279
580.6743, 723.7639
581.1564, 721.0164
581.6385, 727.2302
582.1207, 735.7674
582.6028, 737.3953
583.0849, 732.7769
583.5670, 727.2481
584.0491, 722.9595
584.5313, 719.6521
585.0134, 717.1182
585.4955, 715.2953
585.9776, 714.3597
586.4597, 714.5059
586.9418, 715.5261
587.4240, 717.2889
587.9061, 721.5712
588.3882, 723.6469
588.8703, 721.5538
589.3524, 717.3265
589.8345, 718.2682
590.3167, 726.7117
590.7988, 731.1235
591.2809, 723.5145
591.7630, 707.2911
592.2451, 701.4819
592.7272, 706.4249
593.2094, 713.5339
593.6915, 716.0344
594.1736, 715.5453
594.6557, 715.0682
595.1378, 715.1075
595.6199, 715.1221
596.1021, 714.4414
596.5842, 713.5522
597.0663, 713.1468
597.5485, 713.3666
598.0306, 714.2081
598.5127, 716.7615
598.9948, 720.2320
599.4769, 721.2590
599.9590, 719.7035
600.4412, 715.5975
600.9233, 707.2852
601.4054, 693.9853
601.8875, 689.1464
602.3696, 695.3911
602.8517, 703.7645
603.3339, 706.0115
603.8160, 702.7263
604.2981, 701.5317
604.7802, 703.5829
605.2623, 706.8136
605.7444, 708.8394
606.2266, 709.9231
606.7087, 710.7398
607.1908, 712.6006
607.6729, 713.2260
608.1550, 708.6329
608.6371, 700.9232
609.1193, 696.7708
609.6014, 702.7310
610.0835, 709.5959
610.5656, 713.3316
611.0477, 713.5512
611.5298, 711.2496
612.0120, 702.7640
612.4941, 695.5200
612.9762, 695.1174
613.4583, 703.9573
613.9404, 710.8998
614.4225, 715.1957
614.9047, 717.9944
615.3868, 721.6317
615.8689, 725.8804
616.3510, 727.2348
616.8331, 724.1348
617.3152, 718.3502
617.7974, 709.4083
