##NAMES=Conichalcite
##RRUFFID=R040167
##IDEAL CHEMISTRY=CaCu^2+^As^5+^O_4_(OH)
##LOCALITY=Ojuela mine, Mapimi, Durango, Mexico
##OWNER=RRUFF
##SOURCE=University of Arizona Mineral Museum
##DESCRIPTION=Green druse
##STATUS=The identification of this mineral is confirmed by single-crystal X-ray diffraction and chemical analysis.
##URL=rruff.info/R040167
##MEASURED CHEMISTRY=Ca_1.00_(Cu_0.70_Zn_0.30_)_Î£=1_(As_1.00_O_4_)(OH) ; OH estimated by difference and stoichiometry
63.64752, 28.12685
64.12964, 26.44633
64.61176, 24.61848
65.09387, 23.52919
65.57599, 23.19640
66.05811, 22.86426
66.54022, 21.79210
67.02234, 21.38582
67.50446, 22.82968
67.98657, 25.62225
68.46869, 28.11171
68.95081, 28.29912
69.43292, 24.92519
69.91504, 23.24533
70.39716, 24.30540
70.87927, 25.93722
71.36139, 26.92297
71.84351, 26.95151
72.32562, 26.31535
72.80774, 25.43605
73.28986, 24.27111
73.77197, 22.86300
74.25409, 20.15069
74.73621, 17.55560
75.21832, 17.09232
75.70044, 19.69115
76.18256, 23.86901
76.66467, 25.96465
77.14679, 25.21796
77.62891, 24.63169
78.11102, 25.49721
78.59314, 27.31545
79.07526, 28.72727
79.55737, 29.24911
80.03949, 28.80659
80.52161, 27.40291
81.00372, 24.09101
81.48584, 21.26378
81.96796, 21.03691
82.45007, 23.43425
82.93219, 26.06499
83.41431, 28.43280
83.89642, 30.03519
84.37854, 29.96034
84.86066, 27.14958
85.34277, 23.41072
85.82489, 21.49670
86.30701, 21.84541
86.78912, 22.87023
87.27124, 24.38797
87.75336, 25.95836
88.23547, 26.95693
88.71759, 26.90024
89.19971, 26.08743
89.68182, 25.65546
90.16394, 25.76566
90.64606, 26.10298
91.12817, 26.87999
91.61029, 27.77605
92.09241, 28.21474
92.57452, 27.63787
93.05664, 26.02962
93.53876, 24.92314
94.02087, 24.96725
94.50299, 24.95243
94.98511, 24.17822
95.46722, 22.92868
95.94934, 22.12752
96.43146, 22.88105
96.91357, 25.89182
97.39569, 27.18777
97.87781, 24.71501
98.35992, 22.52374
98.84204, 23.31475
99.32416, 27.06984
99.80627, 31.48552
100.2884, 33.68923
100.7705, 32.67717
101.2526, 31.66254
101.7347, 30.64991
102.2169, 29.63505
102.6990, 28.44470
103.1811, 27.06401
103.6632, 25.92488
104.1453, 25.81918
104.6274, 27.17169
105.1096, 28.49627
105.5917, 29.80851
106.0738, 30.97138
106.5559, 31.79360
107.0380, 32.20982
107.5201, 32.27798
108.0023, 31.82970
108.4844, 30.44826
108.9665, 29.96139
109.4486, 31.18855
109.9307, 33.81223
110.4128, 37.24900
110.8950, 41.95034
111.3771, 46.53582
111.8592, 48.50238
112.3413, 46.96200
112.8234, 45.66884
113.3055, 47.39308
113.7877, 51.81046
114.2698, 55.79511
114.7519, 57.15640
115.2340, 58.27314
115.7161, 62.20421
116.1982, 69.89512
116.6804, 78.52802
117.1625, 85.86658
117.6446, 92.04287
118.1267, 96.07458
118.6088, 94.80479
119.0909, 92.37476
119.5731, 92.11430
120.0552, 95.03078
120.5373, 100.0528
121.0194, 105.3653
121.5015, 110.3065
121.9836, 117.5698
122.4658, 129.0867
122.9479, 142.6686
123.4300, 156.5722
123.9121, 170.3065
124.3942, 183.6085
124.8763, 195.6332
125.3585, 205.8508
125.8406, 215.7690
126.3227, 224.7688
126.8048, 234.0382
127.2869, 245.2031
127.7690, 259.1697
128.2512, 275.2767
128.7333, 290.0860
129.2154, 298.8222
129.6975, 312.5529
130.1796, 338.0223
130.6617, 368.5343
131.1439, 394.4971
131.6260, 409.7591
132.1081, 415.8508
132.5902, 424.7436
133.0723, 438.1498
133.5544, 452.8595
134.0366, 472.2544
134.5187, 492.3185
135.0008, 506.1003
135.4829, 508.3433
135.9650, 499.6732
136.4471, 492.9262
136.9293, 487.5253
137.4114, 484.3894
137.8935, 485.5998
138.3756, 489.5052
138.8577, 492.4302
139.3398, 491.5769
139.8220, 486.8824
140.3041, 482.7701
140.7862, 479.2497
141.2683, 476.1427
141.7504, 470.8441
142.2325, 465.1377
142.7147, 464.9081
143.1968, 475.1889
143.6789, 496.4494
144.1610, 518.5930
144.6431, 540.2540
145.1252, 563.6946
145.6074, 590.8219
146.0895, 621.3320
146.5716, 653.2822
147.0537, 686.2765
147.5358, 719.8582
148.0179, 747.3994
148.5001, 765.3332
148.9822, 779.9949
149.4643, 796.3915
149.9464, 814.7545
150.4285, 831.5656
150.9106, 844.9955
151.3928, 854.2769
151.8749, 857.4911
152.3570, 851.6924
152.8391, 841.4523
153.3212, 830.3907
153.8033, 818.7631
154.2855, 806.3069
154.7676, 791.6770
155.2497, 775.7161
155.7318, 762.2642
156.2139, 750.7508
156.6960, 742.6218
157.1782, 739.8545
157.6603, 742.7810
158.1424, 749.4286
158.6245, 760.5522
159.1066, 774.4808
159.5887, 787.2173
160.0709, 797.3878
160.5530, 805.9158
161.0351, 814.2327
161.5172, 822.6494
161.9993, 829.6444
162.4814, 832.5256
162.9636, 833.1997
163.4457, 835.2259
163.9278, 841.5662
164.4099, 849.5129
164.8920, 853.7298
165.3741, 853.1078
165.8563, 851.8105
166.3384, 854.1068
166.8205, 857.4498
167.3026, 857.0933
167.7847, 848.9673
168.2668, 836.6004
168.7490, 827.7391
169.2311, 823.3785
169.7132, 820.3209
170.1953, 815.2941
170.6774, 810.4611
171.1595, 809.9984
171.6417, 819.2233
172.1238, 832.6312
172.6059, 834.8835
173.0880, 819.4775
173.5701, 805.8689
174.0522, 804.1194
174.5344, 809.1086
175.0165, 813.8170
175.4986, 814.9445
175.9807, 813.5353
176.4628, 812.2050
176.9449, 810.2693
177.4271, 809.8237
177.9092, 814.3007
178.3913, 819.9274
178.8734, 821.0597
179.3555, 813.6915
179.8376, 801.2119
180.3197, 793.4968
180.8019, 791.7990
181.2840, 793.1697
181.7661, 798.9963
182.2482, 806.0819
182.7303, 810.2304
183.2124, 809.0387
183.6946, 804.2337
184.1767, 800.8494
184.6588, 800.2885
185.1409, 798.6990
185.6230, 792.8338
186.1051, 786.3140
186.5873, 783.8358
187.0694, 788.1190
187.5515, 796.1668
188.0336, 799.6949
188.5157, 794.8507
188.9978, 792.0463
189.4800, 794.6354
189.9621, 799.5982
190.4442, 803.3225
190.9263, 803.9768
191.4084, 803.9566
191.8905, 809.5697
192.3727, 825.1146
192.8548, 838.8404
193.3369, 847.6940
193.8190, 854.6275
194.3011, 861.5598
194.7832, 869.1854
195.2654, 879.0840
195.7475, 895.3732
196.2296, 923.6678
196.7117, 948.0676
197.1938, 966.6669
197.6759, 981.2263
198.1581, 991.3399
198.6402, 997.1795
199.1223, 1002.861
199.6044, 1016.858
200.0865, 1045.222
200.5686, 1070.033
201.0508, 1086.151
201.5329, 1100.998
202.0150, 1120.681
202.4971, 1146.786
202.9792, 1175.333
203.4613, 1199.176
203.9435, 1213.314
204.4256, 1234.200
204.9077, 1265.306
205.3898, 1300.363
205.8719, 1336.861
206.3540, 1373.587
206.8362, 1408.602
207.3183, 1439.698
207.8004, 1466.681
208.2825, 1489.135
208.7646, 1505.274
209.2467, 1518.973
209.7289, 1533.816
210.2110, 1549.318
210.6931, 1561.114
211.1752, 1564.027
211.6573, 1557.013
212.1395, 1544.384
212.6216, 1521.808
213.1037, 1497.836
213.5858, 1477.957
214.0679, 1461.340
214.5500, 1442.600
215.0322, 1415.872
215.5143, 1379.868
215.9964, 1344.772
216.4785, 1304.793
216.9606, 1270.865
217.4427, 1252.402
217.9249, 1244.640
218.4070, 1233.632
218.8891, 1205.927
219.3712, 1160.734
219.8533, 1127.726
220.3354, 1116.213
220.8176, 1108.636
221.2997, 1103.965
221.7818, 1099.665
222.2639, 1091.878
222.7460, 1077.590
223.2281, 1057.346
223.7103, 1038.232
224.1924, 1016.570
224.6745, 1000.520
225.1566, 997.1037
225.6387, 999.2643
226.1208, 996.8046
226.6030, 983.7686
227.0851, 961.9553
227.5672, 938.5165
228.0493, 908.8344
228.5314, 883.9525
229.0135, 866.7483
229.4957, 854.6647
229.9778, 845.5991
230.4599, 838.7401
230.9420, 832.6746
231.4241, 823.4937
231.9062, 808.0657
232.3884, 794.9932
232.8705, 787.2560
233.3526, 780.9929
233.8347, 772.0403
234.3168, 759.1932
234.7989, 745.5922
235.2811, 736.6306
235.7632, 733.1912
236.2453, 732.5886
236.7274, 737.8581
237.2095, 743.2471
237.6916, 744.2017
238.1738, 740.1846
238.6559, 734.9100
239.1380, 733.9824
239.6201, 740.0063
240.1022, 740.5559
240.5843, 728.7867
241.0665, 716.7108
241.5486, 709.9392
242.0307, 708.6288
242.5128, 709.7778
242.9949, 711.5602
243.4770, 714.3242
243.9592, 713.3551
244.4413, 702.4656
244.9234, 693.6301
245.4055, 692.3427
245.8876, 696.9365
246.3697, 702.5259
246.8519, 705.8688
247.3340, 707.1666
247.8161, 708.1541
248.2982, 709.6258
248.7803, 709.5573
249.2624, 705.3306
249.7446, 699.5646
250.2267, 696.6100
250.7088, 699.2333
251.1909, 705.6741
251.6730, 711.4099
252.1551, 717.8392
252.6373, 720.4622
253.1194, 713.9519
253.6015, 704.9312
254.0836, 701.3187
254.5657, 706.7921
255.0478, 715.4804
255.5300, 716.9348
256.0121, 708.4016
256.4942, 703.1138
256.9763, 708.2437
257.4584, 716.1633
257.9406, 722.1088
258.4227, 725.1132
258.9048, 725.5137
259.3869, 722.0086
259.8690, 714.2718
260.3511, 710.4609
260.8333, 716.0966
261.3154, 722.6545
261.7975, 723.0845
262.2796, 717.5434
262.7617, 712.5422
263.2438, 712.4588
263.7260, 716.8538
264.2081, 724.4412
264.6902, 740.1312
265.1723, 750.8270
265.6544, 743.6282
266.1365, 723.3696
266.6187, 706.0322
267.1008, 699.2617
267.5829, 700.4704
268.0650, 705.7271
268.5471, 716.6345
269.0292, 726.0099
269.5114, 727.1238
269.9935, 723.4058
270.4756, 720.2157
270.9577, 718.1043
271.4398, 717.7565
271.9219, 720.9821
272.4041, 727.9179
272.8862, 734.0167
273.3683, 737.5399
273.8504, 738.3627
274.3325, 736.3676
274.8146, 729.5662
275.2968, 723.5386
275.7789, 722.5067
276.2610, 725.5438
276.7431, 729.0194
277.2252, 732.0075
277.7073, 734.3914
278.1895, 736.4413
278.6716, 738.7598
279.1537, 738.5386
279.6358, 732.8757
280.1179, 724.4207
280.6000, 716.6880
281.0822, 709.9525
281.5643, 707.0095
282.0464, 713.6532
282.5285, 731.0721
283.0106, 742.3585
283.4927, 742.1843
283.9749, 737.2435
284.4570, 732.4206
284.9391, 728.4293
285.4212, 725.7667
285.9033, 724.8782
286.3854, 725.8549
286.8676, 727.9958
287.3497, 735.0337
287.8318, 739.5510
288.3139, 735.9797
288.7960, 726.7629
289.2781, 718.9827
289.7603, 716.9764
290.2424, 718.6818
290.7245, 715.3565
291.2066, 698.6174
291.6887, 687.5026
292.1708, 689.1621
292.6530, 696.4738
293.1351, 700.2643
293.6172, 697.3541
294.0993, 691.4984
294.5814, 689.3455
295.0635, 693.0144
295.5457, 696.7004
296.0278, 703.3683
296.5099, 707.9421
296.9920, 704.8412
297.4741, 694.6911
297.9562, 684.2219
298.4384, 680.8566
298.9205, 686.1356
299.4026, 687.7578
299.8847, 679.4451
300.3668, 673.8375
300.8489, 676.3981
301.3310, 685.1150
301.8131, 695.3079
302.2953, 704.1354
302.7774, 711.7091
303.2595, 718.7677
303.7416, 726.9660
304.2237, 731.8745
304.7058, 730.2477
305.1880, 726.2760
305.6701, 723.9451
306.1522, 724.6818
306.6343, 728.4214
307.1164, 736.5182
307.5985, 751.3369
308.0807, 761.5396
308.5628, 757.4296
309.0449, 753.4388
309.5270, 758.8427
310.0091, 774.1943
310.4912, 792.6701
310.9734, 810.2631
311.4555, 826.7131
311.9376, 837.9564
312.4197, 839.7582
312.9018, 841.9297
313.3839, 851.6766
313.8661, 866.6190
314.3482, 880.3821
314.8303, 886.7498
315.3124, 891.6585
315.7945, 907.5399
316.2766, 936.4388
316.7588, 964.0372
317.2409, 979.1785
317.7230, 989.1346
318.2051, 1006.688
318.6872, 1037.744
319.1693, 1068.612
319.6515, 1086.484
320.1336, 1094.408
320.6157, 1106.657
321.0978, 1128.608
321.5799, 1155.896
322.0620, 1183.734
322.5442, 1213.396
323.0263, 1236.759
323.5084, 1247.214
323.9905, 1252.005
324.4726, 1261.349
324.9547, 1276.971
325.4369, 1292.168
325.9190, 1300.103
326.4011, 1299.865
326.8832, 1301.788
327.3653, 1311.921
327.8474, 1318.647
328.3296, 1313.854
328.8117, 1299.880
329.2938, 1284.448
329.7759, 1272.055
330.2580, 1261.613
330.7401, 1248.567
331.2223, 1228.541
331.7044, 1211.254
332.1865, 1198.600
332.6686, 1188.714
333.1507, 1179.836
333.6328, 1171.376
334.1150, 1163.360
334.5971, 1155.888
335.0792, 1149.471
335.5613, 1142.268
336.0434, 1133.523
336.5255, 1124.771
337.0077, 1116.434
337.4898, 1108.783
337.9719, 1102.317
338.4540, 1097.915
338.9361, 1095.153
339.4182, 1090.539
339.9004, 1086.359
340.3825, 1076.440
340.8646, 1054.629
341.3467, 1028.314
341.8288, 1007.656
342.3109, 997.1727
342.7931, 989.7986
343.2752, 973.0144
343.7573, 944.5672
344.2394, 922.8312
344.7215, 917.1527
345.2036, 915.9814
345.6858, 909.6634
346.1679, 897.8318
346.6500, 886.7993
347.1321, 882.4680
347.6142, 881.9567
348.0963, 876.5538
348.5785, 864.0963
349.0606, 850.7907
349.5427, 841.6168
350.0248, 835.5115
350.5069, 829.5956
350.9890, 823.5815
351.4712, 817.3789
351.9533, 809.9252
352.4354, 801.7824
352.9175, 796.2106
353.3996, 795.4503
353.8817, 797.3958
354.3639, 796.4940
354.8460, 792.3533
355.3281, 787.0421
355.8102, 777.8620
356.2923, 769.1654
356.7744, 767.0386
357.2566, 772.5190
357.7387, 781.3032
358.2208, 789.3850
358.7029, 797.8088
359.1850, 798.8328
359.6671, 787.4797
360.1493, 774.8740
360.6314, 764.5262
361.1135, 756.8903
361.5956, 752.4460
362.0777, 751.8155
362.5598, 753.3242
363.0420, 750.3158
363.5241, 736.3340
364.0062, 728.4570
364.4883, 731.9897
364.9704, 739.6329
365.4525, 746.6918
365.9347, 751.6127
366.4168, 753.3089
366.8989, 748.7944
367.3810, 737.4141
367.8631, 730.3323
368.3452, 729.9415
368.8274, 731.8017
369.3095, 734.5357
369.7916, 737.5787
370.2737, 739.6107
370.7558, 739.1952
371.2379, 738.0918
371.7201, 739.5866
372.2022, 743.9503
372.6843, 748.2422
373.1664, 750.9321
373.6485, 753.0308
374.1306, 756.7043
374.6128, 763.1523
375.0949, 767.0641
375.5770, 761.8135
376.0591, 752.7030
376.5412, 751.6104
377.0233, 761.6781
377.5055, 774.2354
377.9876, 781.1414
378.4697, 781.7184
378.9518, 779.1009
379.4339, 769.3488
379.9160, 759.9719
380.3982, 754.0944
380.8803, 752.2390
381.3624, 756.3870
381.8445, 768.4335
382.3266, 784.2733
382.8087, 791.5289
383.2909, 783.0167
383.7730, 774.5582
384.2551, 765.2233
384.7372, 756.9244
385.2193, 750.2318
385.7014, 745.7878
386.1836, 745.5320
386.6657, 753.2148
387.1478, 769.6025
387.6299, 778.5166
388.1120, 775.0751
388.5941, 769.2939
389.0763, 763.1660
389.5584, 757.2464
390.0405, 751.7147
390.5226, 746.0276
391.0047, 742.4318
391.4868, 746.0705
391.9690, 757.9825
392.4511, 767.1985
392.9332, 771.2888
393.4153, 770.8233
393.8974, 764.4321
394.3795, 752.3007
394.8617, 744.0471
395.3438, 748.8458
395.8259, 758.9955
396.3080, 760.1490
396.7901, 750.5653
397.2722, 741.4486
397.7544, 741.1898
398.2365, 748.0831
398.7186, 751.8529
399.2007, 749.6797
399.6828, 747.5865
400.1649, 748.7321
400.6471, 751.2932
401.1292, 751.0087
401.6113, 746.4484
402.0934, 742.5824
402.5755, 747.0326
403.0576, 762.8470
403.5398, 778.1332
404.0219, 796.1663
404.5040, 810.9034
404.9861, 817.1598
405.4682, 817.4918
405.9503, 818.6522
406.4325, 825.3051
406.9146, 835.0707
407.3967, 838.4055
407.8788, 829.2505
408.3609, 826.2704
408.8430, 836.4615
409.3252, 851.4341
409.8073, 866.0742
410.2894, 879.2047
410.7715, 889.8213
411.2536, 893.1351
411.7357, 891.9879
412.2179, 902.7758
412.7000, 931.0679
413.1821, 960.3176
413.6642, 975.9529
414.1463, 984.5801
414.6284, 998.9818
415.1106, 1023.872
415.5927, 1052.412
416.0748, 1080.142
416.5569, 1107.522
417.0390, 1136.269
417.5211, 1167.247
418.0033, 1198.401
418.4854, 1226.269
418.9675, 1249.095
419.4496, 1274.529
419.9317, 1303.156
420.4138, 1334.017
420.8960, 1366.775
421.3781, 1401.323
421.8602, 1437.781
422.3423, 1476.625
422.8244, 1517.134
423.3065, 1555.790
423.7887, 1588.750
424.2708, 1626.253
424.7529, 1674.808
425.2350, 1724.292
425.7171, 1764.646
426.1992, 1795.522
426.6814, 1825.859
427.1635, 1865.514
427.6456, 1913.694
428.1277, 1956.967
428.6098, 1993.770
429.0919, 2028.496
429.5741, 2068.947
430.0562, 2107.677
430.5383, 2131.915
431.0204, 2135.691
431.5025, 2130.894
431.9846, 2128.822
432.4668, 2126.603
432.9489, 2113.952
433.4310, 2088.075
433.9131, 2051.573
434.3952, 2005.886
434.8773, 1950.433
435.3595, 1892.269
435.8416, 1825.081
436.3237, 1761.485
436.8058, 1715.313
437.2879, 1679.114
437.7701, 1631.354
438.2522, 1560.221
438.7343, 1476.331
439.2164, 1406.027
439.6985, 1346.043
440.1806, 1307.663
440.6628, 1314.777
441.1449, 1320.883
441.6270, 1290.955
442.1091, 1229.871
442.5912, 1167.668
443.0733, 1125.620
443.5555, 1100.805
444.0376, 1083.173
444.5197, 1074.711
445.0018, 1067.843
445.4839, 1058.151
445.9660, 1049.486
446.4482, 1047.643
446.9303, 1054.602
447.4124, 1058.279
447.8945, 1045.842
448.3766, 1025.933
448.8587, 1017.058
449.3409, 1021.991
449.8230, 1032.869
450.3051, 1044.575
450.7872, 1057.130
451.2693, 1070.170
451.7514, 1084.654
452.2336, 1098.464
452.7157, 1108.010
453.1978, 1117.474
453.6799, 1134.146
454.1620, 1159.634
454.6441, 1186.779
455.1263, 1205.397
455.6084, 1212.691
456.0905, 1227.202
456.5726, 1255.431
457.0547, 1284.427
457.5368, 1309.628
458.0190, 1333.204
458.5011, 1358.866
458.9832, 1388.228
459.4653, 1420.179
459.9474, 1454.811
460.4295, 1492.084
460.9117, 1525.327
461.3938, 1550.338
461.8759, 1574.967
462.3580, 1609.607
462.8401, 1651.536
463.3222, 1685.929
463.8044, 1708.227
464.2865, 1721.923
464.7686, 1729.054
465.2507, 1730.000
465.7328, 1725.609
466.2149, 1716.053
466.6971, 1702.157
467.1792, 1686.327
467.6613, 1673.862
468.1434, 1646.507
468.6255, 1587.858
469.1076, 1528.778
469.5898, 1494.174
470.0719, 1476.799
470.5540, 1451.649
471.0361, 1401.420
471.5182, 1336.421
472.0003, 1286.076
472.4825, 1255.238
472.9646, 1226.754
473.4467, 1199.965
473.9288, 1172.476
474.4109, 1141.400
474.8930, 1107.297
475.3752, 1075.201
475.8573, 1046.124
476.3394, 1021.657
476.8215, 1006.850
477.3036, 1001.919
477.7857, 994.8793
478.2679, 978.2346
478.7500, 956.9846
479.2321, 943.5459
479.7142, 940.4412
480.1963, 937.5209
480.6784, 933.4547
481.1606, 928.3621
481.6427, 922.2917
482.1248, 915.2720
482.6069, 907.0565
483.0890, 896.9845
483.5711, 886.0154
484.0533, 879.5394
484.5354, 881.0228
485.0175, 881.3967
485.4996, 878.8521
485.9817, 875.1912
486.4638, 872.2072
486.9460, 869.8813
487.4281, 866.3633
487.9102, 858.8253
488.3923, 849.0410
488.8744, 842.4171
489.3565, 839.2174
489.8387, 838.2495
490.3208, 841.4250
490.8029, 845.1102
491.2850, 841.4381
491.7671, 827.1366
492.2492, 815.0515
492.7314, 811.7170
493.2135, 811.6958
493.6956, 808.6508
494.1777, 802.1981
494.6598, 796.1514
495.1419, 793.8929
495.6241, 794.2173
496.1062, 788.9390
496.5883, 769.7283
497.0704, 756.7437
497.5525, 755.4892
498.0346, 758.4425
498.5168, 760.2475
498.9989, 759.8676
499.4810, 758.2385
499.9631, 755.9456
500.4452, 753.0238
500.9273, 749.5156
501.4095, 745.2582
501.8916, 741.0323
502.3737, 736.6880
502.8558, 732.8846
503.3379, 730.4412
503.8200, 729.3506
504.3022, 729.7736
504.7843, 734.2181
505.2664, 738.8128
505.7485, 738.5016
506.2306, 733.3501
506.7127, 727.0259
507.1949, 721.8461
507.6770, 717.5870
508.1591, 713.3065
508.6412, 708.2831
509.1233, 704.3300
509.6054, 702.3487
510.0876, 700.7925
510.5697, 698.8395
511.0518, 696.2719
511.5339, 692.6783
512.0161, 686.1703
512.4982, 679.4400
512.9803, 682.1185
513.4624, 696.5672
513.9445, 705.8777
514.4266, 702.8024
514.9088, 692.6777
515.3909, 682.1174
515.8730, 670.9937
516.3551, 660.8387
516.8372, 650.0363
517.3193, 641.8950
517.8015, 640.2042
518.2836, 644.1755
518.7657, 651.3446
519.2478, 661.1657
519.7299, 669.8570
520.2120, 667.4789
520.6942, 643.2838
521.1763, 628.5977
521.6584, 628.3328
522.1405, 631.7768
522.6226, 635.8341
523.1047, 638.7870
523.5869, 637.5630
524.0690, 629.2792
524.5511, 618.8766
525.0332, 614.5394
525.5153, 616.2377
525.9974, 619.7432
526.4796, 625.9727
526.9617, 630.5852
527.4438, 626.1274
527.9259, 614.0372
528.4080, 608.0142
528.8901, 617.3472
529.3723, 625.9561
529.8544, 621.7742
530.3365, 610.4807
530.8186, 604.2798
531.3007, 607.1852
531.7828, 612.3539
532.2650, 609.8397
532.7471, 597.8560
533.2292, 589.2842
533.7113, 587.1859
534.1934, 585.0696
534.6755, 579.8751
535.1577, 573.9152
535.6398, 570.3593
536.1219, 570.1621
536.6040, 571.8557
537.0861, 575.1805
537.5682, 579.3330
538.0504, 581.8864
538.5325, 582.6198
539.0146, 581.0288
539.4967, 575.6414
539.9788, 567.6795
540.4609, 563.3198
540.9431, 565.5099
541.4252, 566.7802
541.9073, 564.4112
542.3894, 561.2375
542.8715, 560.5037
543.3536, 562.0724
543.8358, 562.9189
544.3179, 560.3215
544.8000, 555.3623
545.2821, 552.8660
545.7642, 553.4798
546.2463, 554.7908
546.7285, 556.5249
547.2106, 558.5219
547.6926, 560.9171
548.1747, 563.6158
548.6569, 565.7825
549.1390, 566.7286
549.6211, 567.1697
550.1032, 568.1464
550.5853, 569.3902
551.0674, 569.5320
551.5496, 567.9180
552.0317, 565.4153
552.5138, 562.9559
552.9959, 558.8862
553.4780, 560.7291
553.9601, 575.7468
554.4423, 588.0568
554.9244, 590.0834
555.4065, 585.5747
555.8886, 580.2285
556.3707, 576.0514
556.8528, 573.3458
557.3350, 573.7448
557.8171, 576.5649
558.2992, 575.4119
