##NAMES=Conichalcite
##RRUFFID=R070447
##IDEAL CHEMISTRY=CaCu^2+^As^5+^O_4_(OH)
##LOCALITY=Copper Creek District, Mammoth, Arizona, USA
##OWNER=RRUFF
##SOURCE=Bob Jenkins
##DESCRIPTION=Green prismatic crystals scattered over quartz
##STATUS=The identification of this mineral is confirmed by single-crystal X-ray diffraction and chemical analysis.
##URL=rruff.info/R070447
##MEASURED CHEMISTRY=Ca_1.00_(Cu_0.99_Fe_0.01_)(As_0.94_V_0.03_S_0.02_Al_0.01_)_Î£=1_O_4_(OH); OH estimated by charge balance
139.8317, 710.4299
140.3138, 725.2040
140.7960, 729.2477
141.2781, 738.7595
141.7602, 762.1228
142.2423, 797.6841
142.7244, 838.5756
143.2065, 880.8976
143.6887, 924.3699
144.1708, 963.1637
144.6529, 990.2930
145.1350, 1018.993
145.6171, 1056.261
146.0992, 1102.210
146.5814, 1154.091
147.0635, 1210.569
147.5456, 1271.973
148.0277, 1334.037
148.5098, 1399.177
148.9919, 1463.141
149.4741, 1523.551
149.9562, 1580.548
150.4383, 1633.699
150.9204, 1682.025
151.4025, 1725.648
151.8846, 1769.977
152.3668, 1821.478
152.8489, 1870.013
153.3310, 1903.602
153.8131, 1920.882
154.2952, 1936.883
154.7773, 1963.554
155.2595, 1999.240
155.7416, 2036.303
156.2237, 2081.742
156.7058, 2123.998
157.1879, 2146.480
157.6700, 2145.998
158.1522, 2142.060
158.6343, 2150.193
159.1164, 2166.444
159.5985, 2181.836
160.0806, 2192.109
160.5627, 2200.991
161.0449, 2215.545
161.5270, 2238.158
162.0091, 2257.761
162.4912, 2266.765
162.9733, 2267.229
163.4554, 2260.898
163.9376, 2243.864
164.4197, 2221.588
164.9018, 2202.519
165.3839, 2185.060
165.8660, 2175.731
166.3481, 2183.130
166.8303, 2200.616
167.3124, 2217.936
167.7945, 2234.263
168.2766, 2246.821
168.7587, 2247.154
169.2408, 2228.634
169.7230, 2212.989
170.2051, 2213.543
170.6872, 2223.911
171.1693, 2234.713
171.6514, 2241.765
172.1335, 2246.469
172.6157, 2252.358
173.0978, 2259.948
173.5799, 2267.741
174.0620, 2271.524
174.5441, 2275.659
175.0262, 2287.375
175.5084, 2313.155
175.9905, 2347.014
176.4726, 2372.878
176.9547, 2388.923
177.4368, 2399.535
177.9189, 2401.023
178.4010, 2400.219
178.8832, 2406.708
179.3653, 2426.231
179.8474, 2455.208
180.3295, 2484.733
180.8116, 2520.301
181.2937, 2545.674
181.7759, 2554.745
182.2580, 2553.067
182.7401, 2546.485
183.2222, 2536.920
183.7043, 2525.713
184.1864, 2516.194
184.6686, 2506.645
185.1507, 2502.508
185.6328, 2503.093
186.1149, 2509.469
186.5970, 2525.986
187.0791, 2557.105
187.5613, 2592.589
188.0434, 2603.017
188.5255, 2567.771
189.0076, 2542.534
189.4897, 2538.672
189.9718, 2549.388
190.4540, 2569.477
190.9361, 2597.204
191.4182, 2629.500
191.9003, 2659.279
192.3824, 2687.303
192.8645, 2711.081
193.3467, 2725.528
193.8288, 2738.539
194.3109, 2758.877
194.7930, 2790.133
195.2751, 2826.681
195.7572, 2855.854
196.2394, 2873.471
196.7215, 2891.591
197.2036, 2911.000
197.6857, 2931.942
198.1678, 2953.725
198.6499, 2976.287
199.1321, 3001.547
199.6142, 3033.603
200.0963, 3076.098
200.5784, 3118.650
201.0605, 3163.167
201.5426, 3205.811
202.0248, 3243.674
202.5069, 3276.012
202.9890, 3302.799
203.4711, 3322.851
203.9532, 3330.856
204.4353, 3344.092
204.9175, 3376.591
205.3996, 3404.898
205.8817, 3412.787
206.3638, 3397.259
206.8459, 3366.782
207.3280, 3331.865
207.8102, 3292.656
208.2923, 3248.765
208.7744, 3197.061
209.2565, 3143.692
209.7386, 3091.788
210.2207, 3042.147
210.7029, 2993.779
211.1850, 2945.250
211.6671, 2895.907
212.1492, 2849.950
212.6313, 2804.259
213.1134, 2764.435
213.5956, 2736.982
214.0777, 2719.709
214.5598, 2703.336
215.0419, 2677.701
215.5240, 2640.428
216.0061, 2610.296
216.4883, 2587.441
216.9704, 2571.301
217.4525, 2566.423
217.9346, 2569.020
218.4167, 2569.538
218.8988, 2559.133
219.3810, 2537.365
219.8631, 2520.686
220.3452, 2518.934
220.8273, 2512.797
221.3094, 2490.162
221.7915, 2459.085
222.2737, 2436.365
222.7558, 2435.148
223.2379, 2452.966
223.7200, 2463.275
224.2021, 2460.021
224.6842, 2455.138
225.1664, 2451.246
225.6485, 2447.284
226.1306, 2440.760
226.6127, 2429.798
227.0948, 2416.264
227.5770, 2408.510
228.0591, 2415.132
228.5412, 2415.763
229.0233, 2398.926
229.5054, 2377.587
229.9875, 2368.268
230.4697, 2378.784
230.9518, 2400.118
231.4339, 2410.072
231.9160, 2403.459
232.3981, 2393.211
232.8802, 2375.666
233.3624, 2358.700
233.8445, 2349.806
234.3266, 2351.346
234.8087, 2358.528
235.2908, 2363.513
235.7729, 2366.077
236.2551, 2366.817
236.7372, 2362.800
237.2193, 2359.265
237.7014, 2360.944
238.1835, 2368.188
238.6656, 2376.191
239.1478, 2378.171
239.6299, 2371.601
240.1120, 2368.425
240.5941, 2374.957
241.0762, 2380.139
241.5583, 2374.546
242.0405, 2360.449
242.5226, 2350.565
243.0047, 2361.819
243.4868, 2397.450
243.9689, 2414.995
244.4510, 2394.231
244.9332, 2373.580
245.4153, 2367.592
245.8974, 2373.606
246.3795, 2382.429
246.8616, 2388.968
247.3437, 2392.919
247.8259, 2390.329
248.3080, 2371.601
248.7901, 2359.465
249.2722, 2367.026
249.7543, 2384.847
250.2364, 2396.780
250.7186, 2392.137
251.2007, 2378.327
251.6828, 2378.250
252.1649, 2400.592
252.6470, 2419.090
253.1291, 2421.000
253.6113, 2416.885
254.0934, 2418.916
254.5755, 2432.478
255.0576, 2449.824
255.5397, 2457.761
256.0219, 2453.450
256.5040, 2450.417
256.9861, 2453.684
257.4682, 2459.044
257.9503, 2463.070
258.4324, 2464.962
258.9146, 2468.042
259.3967, 2477.231
259.8788, 2492.938
260.3609, 2505.506
260.8430, 2510.661
261.3251, 2514.289
261.8073, 2520.992
262.2894, 2530.748
262.7715, 2540.289
263.2536, 2545.424
263.7357, 2547.598
264.2178, 2555.246
264.7000, 2570.145
265.1821, 2589.617
265.6642, 2614.133
266.1463, 2641.839
266.6284, 2666.017
267.1105, 2680.094
267.5927, 2689.133
268.0748, 2705.173
268.5569, 2730.970
269.0390, 2755.589
269.5211, 2770.271
270.0032, 2778.604
270.4854, 2785.871
270.9675, 2791.049
271.4496, 2797.652
271.9317, 2811.814
272.4138, 2833.867
272.8959, 2852.584
273.3781, 2860.123
273.8602, 2861.725
274.3423, 2868.306
274.8244, 2883.837
275.3065, 2898.040
275.7886, 2904.000
276.2708, 2902.822
276.7529, 2898.368
277.2350, 2890.455
277.7171, 2881.927
278.1992, 2877.402
278.6813, 2876.980
279.1635, 2878.578
279.6456, 2881.129
280.1277, 2885.313
280.6098, 2893.866
281.0919, 2908.268
281.5740, 2921.828
282.0562, 2926.249
282.5383, 2920.996
283.0204, 2913.207
283.5025, 2900.250
283.9846, 2887.230
284.4667, 2879.848
284.9489, 2878.122
285.4310, 2876.246
285.9131, 2869.181
286.3952, 2857.032
286.8773, 2847.490
287.3594, 2840.222
287.8416, 2835.573
288.3237, 2836.491
288.8058, 2840.437
289.2879, 2840.397
289.7700, 2831.899
290.2521, 2817.467
290.7343, 2807.925
291.2164, 2809.560
291.6985, 2807.971
292.1806, 2801.072
292.6627, 2789.757
293.1448, 2773.289
293.6270, 2751.604
294.1091, 2729.348
294.5912, 2714.752
295.0733, 2709.841
295.5554, 2709.890
296.0375, 2724.154
296.5197, 2736.389
297.0018, 2731.231
297.4839, 2709.480
297.9660, 2686.188
298.4481, 2676.589
298.9302, 2681.984
299.4124, 2692.642
299.8945, 2712.835
300.3766, 2733.832
300.8587, 2756.180
301.3408, 2777.011
301.8229, 2789.798
302.3050, 2788.392
302.7871, 2777.524
303.2693, 2782.082
303.7514, 2812.857
304.2335, 2844.077
304.7156, 2868.685
305.1977, 2891.624
305.6798, 2918.756
306.1620, 2952.340
306.6441, 2988.875
307.1262, 3022.376
307.6083, 3051.448
308.0904, 3082.213
308.5725, 3119.884
309.0547, 3156.582
309.5368, 3183.184
310.0189, 3200.578
310.5010, 3223.282
310.9831, 3269.221
311.4652, 3335.595
311.9474, 3390.170
312.4295, 3426.544
312.9116, 3456.045
313.3937, 3481.713
313.8758, 3506.490
314.3579, 3537.987
314.8401, 3579.633
315.3222, 3630.111
315.8043, 3690.514
316.2864, 3763.168
316.7685, 3831.489
317.2506, 3881.788
317.7328, 3922.962
318.2149, 3969.928
318.6970, 4026.845
319.1791, 4084.987
319.6612, 4137.821
320.1433, 4185.971
320.6255, 4234.701
321.1076, 4288.508
321.5897, 4338.676
322.0718, 4371.183
322.5539, 4385.975
323.0360, 4391.789
323.5182, 4388.480
324.0003, 4378.687
324.4824, 4365.439
324.9645, 4349.197
325.4466, 4330.006
325.9287, 4307.607
326.4109, 4281.642
326.8930, 4254.712
327.3751, 4233.347
327.8572, 4205.064
328.3393, 4152.940
328.8214, 4086.438
329.3036, 4034.419
329.7857, 4014.868
330.2678, 4020.372
330.7499, 4017.983
331.2320, 4005.296
331.7141, 3987.541
332.1963, 3961.816
332.6784, 3932.776
333.1605, 3906.255
333.6426, 3883.778
334.1247, 3860.823
334.6068, 3828.885
335.0890, 3780.015
335.5711, 3744.556
336.0532, 3734.068
336.5353, 3725.152
337.0174, 3711.353
337.4995, 3689.247
337.9817, 3652.584
338.4638, 3591.879
338.9459, 3511.589
339.4280, 3452.988
339.9101, 3431.153
340.3922, 3410.226
340.8744, 3375.462
341.3565, 3336.681
341.8386, 3308.890
342.3207, 3299.602
342.8028, 3293.543
343.2849, 3262.478
343.7671, 3200.689
344.2492, 3154.737
344.7313, 3145.405
345.2134, 3148.818
345.6955, 3148.536
346.1776, 3143.403
346.6598, 3132.956
347.1419, 3112.976
347.6240, 3087.532
348.1061, 3067.761
348.5882, 3055.197
349.0703, 3046.845
349.5525, 3040.446
350.0346, 3036.410
350.5167, 3036.687
350.9988, 3043.300
351.4809, 3053.041
351.9630, 3065.730
352.4452, 3080.225
352.9273, 3090.147
353.4094, 3091.348
353.8915, 3087.444
354.3736, 3088.793
354.8557, 3101.052
355.3379, 3105.914
355.8200, 3091.561
356.3021, 3071.159
356.7842, 3062.647
357.2663, 3069.141
357.7484, 3077.216
358.2306, 3070.750
358.7127, 3045.226
359.1948, 3030.532
359.6769, 3034.446
360.1590, 3039.773
360.6411, 3040.273
361.1233, 3036.088
361.6054, 3028.977
362.0875, 3019.835
362.5696, 3008.865
363.0517, 2996.173
363.5338, 2976.146
364.0160, 2963.958
364.4981, 2971.742
364.9802, 2980.777
365.4623, 2971.662
365.9444, 2941.909
366.4265, 2909.763
366.9087, 2897.297
367.3908, 2905.763
367.8729, 2911.838
368.3550, 2916.439
368.8371, 2915.980
369.3192, 2905.609
369.8014, 2889.205
370.2835, 2875.901
370.7656, 2869.799
371.2477, 2869.341
371.7298, 2874.588
372.2119, 2886.666
372.6941, 2893.144
373.1762, 2884.522
373.6583, 2869.733
374.1404, 2863.052
374.6225, 2867.120
375.1046, 2871.276
375.5868, 2870.047
376.0689, 2865.003
376.5510, 2858.990
377.0331, 2852.507
377.5152, 2845.624
377.9973, 2838.216
378.4795, 2830.229
378.9616, 2822.940
379.4437, 2818.387
379.9258, 2812.741
380.4079, 2800.166
380.8900, 2784.298
381.3722, 2776.345
381.8543, 2783.201
382.3364, 2799.118
382.8185, 2806.723
383.3006, 2797.738
383.7827, 2790.679
384.2649, 2781.624
384.7470, 2777.407
385.2291, 2790.256
385.7112, 2818.116
386.1933, 2840.372
386.6754, 2831.478
387.1576, 2788.969
387.6397, 2763.925
388.1218, 2772.887
388.6039, 2780.803
389.0860, 2771.362
389.5681, 2754.553
390.0503, 2748.320
390.5324, 2762.905
391.0145, 2783.407
391.4966, 2785.286
391.9787, 2766.764
392.4608, 2745.669
392.9430, 2719.540
393.4251, 2699.514
393.9072, 2698.249
394.3893, 2715.576
394.8714, 2732.942
395.3535, 2743.509
395.8357, 2747.583
396.3178, 2744.929
396.7999, 2735.353
397.2820, 2721.093
397.7641, 2699.825
398.2462, 2675.243
398.7284, 2664.369
399.2105, 2682.766
399.6926, 2697.241
400.1747, 2688.710
400.6568, 2669.266
401.1389, 2658.556
401.6211, 2663.031
402.1032, 2678.152
402.5853, 2699.674
403.0674, 2737.188
403.5495, 2749.590
404.0316, 2711.529
404.5138, 2675.582
404.9959, 2673.049
405.4780, 2695.582
405.9601, 2716.649
406.4422, 2718.602
406.9243, 2708.613
407.4065, 2713.503
407.8886, 2743.822
408.3707, 2767.306
408.8528, 2775.086
409.3349, 2776.074
409.8170, 2772.916
410.2992, 2767.315
410.7813, 2769.541
411.2634, 2798.138
411.7455, 2845.180
412.2276, 2864.200
412.7097, 2839.923
413.1919, 2817.069
413.6740, 2834.647
414.1561, 2875.258
414.6382, 2904.737
415.1203, 2910.460
415.6024, 2911.303
416.0846, 2919.734
416.5667, 2934.408
417.0488, 2951.819
417.5309, 2971.251
418.0130, 2991.093
418.4951, 3008.896
418.9773, 3024.011
419.4594, 3038.995
419.9415, 3046.752
420.4236, 3060.219
420.9057, 3095.337
421.3878, 3145.213
421.8700, 3186.434
422.3521, 3202.972
422.8342, 3201.563
423.3163, 3211.557
423.7984, 3242.135
424.2805, 3270.252
424.7627, 3293.231
425.2448, 3313.260
425.7269, 3331.629
426.2090, 3348.805
426.6911, 3364.940
427.1732, 3379.393
427.6554, 3392.550
428.1375, 3408.025
428.6196, 3427.201
429.1017, 3445.999
429.5838, 3462.483
430.0659, 3477.324
430.5481, 3491.558
431.0302, 3506.182
431.5123, 3518.625
431.9944, 3522.333
432.4765, 3521.326
432.9586, 3531.351
433.4408, 3558.118
433.9229, 3591.184
434.4050, 3618.640
434.8871, 3639.666
435.3692, 3661.993
435.8513, 3691.490
436.3335, 3717.358
436.8156, 3725.291
437.2977, 3724.042
437.7798, 3739.053
438.2619, 3784.708
438.7440, 3845.428
439.2262, 3880.653
439.7083, 3872.337
440.1904, 3869.779
440.6725, 3875.850
441.1546, 3885.779
441.6367, 3897.002
442.1189, 3909.194
442.6010, 3923.183
443.0831, 3940.277
443.5652, 3959.314
444.0473, 3976.496
444.5294, 3993.071
445.0116, 4004.261
445.4937, 4003.693
445.9758, 3999.109
446.4579, 4002.640
446.9400, 4018.785
447.4221, 4018.680
447.9043, 3975.024
448.3864, 3904.366
448.8685, 3841.745
449.3506, 3792.036
449.8327, 3742.598
450.3148, 3682.277
450.7970, 3612.453
451.2791, 3548.901
451.7612, 3499.700
452.2433, 3446.961
452.7254, 3378.545
453.2076, 3305.473
453.6897, 3243.533
454.1718, 3197.204
454.6539, 3160.515
455.1360, 3126.204
455.6181, 3094.267
456.1003, 3064.960
456.5824, 3043.819
457.0645, 3019.877
457.5466, 2982.642
458.0287, 2942.134
458.5108, 2915.637
458.9930, 2911.845
459.4751, 2917.582
459.9572, 2915.086
460.4393, 2904.292
460.9214, 2889.459
461.4035, 2865.987
461.8857, 2846.212
462.3678, 2842.078
462.8499, 2851.344
463.3320, 2863.563
463.8141, 2880.312
464.2962, 2895.433
464.7784, 2899.896
465.2605, 2897.001
465.7426, 2901.248
466.2247, 2920.158
466.7068, 2944.953
467.1889, 2957.419
467.6711, 2944.454
468.1532, 2947.458
468.6353, 2974.120
469.1174, 3009.692
469.5995, 3050.367
470.0816, 3092.093
470.5638, 3125.805
471.0459, 3144.270
471.5280, 3155.539
472.0101, 3186.140
472.4922, 3245.425
472.9743, 3297.986
473.4565, 3326.816
473.9386, 3353.144
474.4207, 3391.137
474.9028, 3440.784
475.3849, 3492.393
475.8670, 3540.633
476.3492, 3587.131
476.8313, 3630.894
477.3134, 3671.755
477.7955, 3728.361
478.2776, 3817.698
478.7597, 3922.254
479.2419, 3998.217
479.7240, 4034.012
480.2061, 4074.117
480.6882, 4124.189
481.1703, 4183.992
481.6524, 4265.784
482.1346, 4361.738
482.6167, 4437.205
483.0988, 4465.025
483.5809, 4452.745
484.0630, 4443.801
484.5451, 4453.005
485.0273, 4439.858
485.5094, 4399.639
485.9915, 4337.422
486.4736, 4251.010
486.9557, 4143.204
487.4378, 4031.767
487.9200, 3931.363
488.4021, 3837.844
488.8842, 3736.425
489.3663, 3624.873
489.8484, 3518.552
490.3305, 3425.371
490.8127, 3343.126
491.2948, 3265.925
491.7769, 3193.530
492.2590, 3126.270
492.7411, 3064.324
493.2232, 3008.163
493.7054, 2959.559
494.1875, 2918.204
494.6696, 2880.154
495.1517, 2842.301
495.6338, 2805.387
496.1159, 2773.240
496.5981, 2746.896
497.0802, 2724.577
497.5623, 2707.485
498.0444, 2693.054
498.5265, 2678.136
499.0086, 2663.082
499.4908, 2652.464
499.9729, 2655.046
500.4550, 2664.892
500.9371, 2655.732
501.4192, 2621.455
501.9013, 2594.040
502.3835, 2589.580
502.8656, 2599.133
503.3477, 2610.181
503.8298, 2625.222
504.3119, 2629.982
504.7940, 2609.859
505.2762, 2581.913
505.7583, 2566.337
506.2404, 2563.831
506.7225, 2564.148
507.2046, 2560.397
507.6867, 2554.011
508.1689, 2551.446
508.6510, 2558.438
509.1331, 2560.754
509.6152, 2553.968
510.0973, 2545.310
510.5794, 2538.679
511.0616, 2535.114
511.5437, 2535.859
512.0258, 2545.490
512.5079, 2557.731
512.9901, 2550.260
513.4722, 2517.722
513.9543, 2499.384
514.4364, 2518.373
514.9185, 2550.241
515.4006, 2560.813
515.8828, 2548.101
516.3649, 2540.961
516.8470, 2555.633
517.3291, 2574.137
517.8112, 2578.880
518.2933, 2571.648
518.7755, 2563.840
519.2576, 2561.394
519.7397, 2562.508
520.2218, 2563.022
520.7039, 2563.209
521.1860, 2562.202
521.6682, 2554.948
522.1503, 2551.298
522.6324, 2559.395
523.1145, 2575.501
523.5966, 2589.583
524.0787, 2596.223
524.5609, 2598.719
525.0430, 2599.835
525.5251, 2599.634
526.0072, 2609.149
526.4893, 2635.759
526.9714, 2665.170
527.4536, 2681.805
527.9357, 2687.113
528.4178, 2690.212
528.8999, 2686.391
529.3820, 2686.596
529.8641, 2701.079
530.3463, 2723.557
530.8284, 2741.638
531.3105, 2751.177
531.7926, 2756.779
532.2747, 2766.086
532.7568, 2781.816
533.2390, 2784.198
533.7211, 2758.115
534.2032, 2735.732
534.6853, 2727.109
535.1674, 2727.789
535.6495, 2734.537
536.1317, 2747.822
536.6138, 2753.824
537.0959, 2732.562
537.5780, 2693.444
538.0601, 2668.452
538.5422, 2662.783
539.0244, 2660.986
539.5065, 2654.337
539.9886, 2642.489
540.4707, 2624.309
540.9528, 2589.788
541.4349, 2563.081
541.9171, 2552.995
542.3992, 2550.333
542.8813, 2548.734
543.3634, 2545.989
543.8455, 2539.396
544.3276, 2525.744
544.8098, 2507.535
545.2919, 2495.227
545.7740, 2488.337
546.2561, 2488.815
546.7382, 2505.667
547.2203, 2523.850
547.7024, 2531.476
548.1845, 2528.718
548.6666, 2523.898
549.1487, 2520.953
549.6309, 2517.502
550.1130, 2510.704
550.5951, 2500.984
551.0772, 2489.879
551.5593, 2477.501
552.0414, 2466.192
552.5236, 2460.405
553.0057, 2463.802
553.4878, 2460.071
553.9699, 2434.606
554.4520, 2418.593
554.9341, 2435.124
555.4163, 2466.089
555.8984, 2480.630
556.3805, 2467.070
556.8626, 2446.878
557.3447, 2447.007
557.8268, 2464.874
558.3090, 2481.698
558.7911, 2499.156
559.2732, 2503.889
559.7553, 2475.294
560.2374, 2428.667
560.7195, 2413.360
561.2017, 2449.762
561.6838, 2482.262
562.1659, 2492.877
562.6480, 2491.401
563.1301, 2485.307
563.6122, 2477.173
564.0944, 2470.056
564.5765, 2465.943
565.0586, 2464.906
565.5407, 2468.460
566.0228, 2481.502
566.5049, 2486.712
566.9871, 2471.264
567.4692, 2454.948
567.9513, 2451.968
568.4334, 2459.991
568.9155, 2465.724
569.3976, 2463.327
569.8798, 2456.431
570.3619, 2444.268
570.8440, 2430.170
571.3261, 2427.594
571.8082, 2441.511
572.2903, 2459.448
572.7725, 2466.472
573.2546, 2461.535
573.7367, 2455.602
574.2188, 2447.403
574.7009, 2439.697
575.1830, 2426.490
575.6652, 2417.633
576.1473, 2428.541
576.6294, 2460.707
577.1115, 2492.653
577.5936, 2505.174
578.0757, 2501.923
578.5579, 2492.806
579.0400, 2476.959
579.5221, 2464.520
580.0042, 2461.208
580.4863, 2463.070
580.9684, 2462.174
581.4506, 2457.070
581.9327, 2455.534
582.4148, 2461.831
582.8969, 2469.127
583.3790, 2472.590
583.8611, 2473.454
584.3433, 2475.603
584.8254, 2480.810
585.3075, 2486.412
585.7896, 2489.179
586.2717, 2489.400
586.7538, 2482.105
587.2360, 2461.253
587.7181, 2442.327
588.2002, 2435.301
588.6823, 2435.641
589.1644, 2436.531
589.6465, 2436.980
590.1287, 2438.170
590.6108, 2443.635
591.0929, 2448.559
591.5750, 2444.795
592.0571, 2433.240
592.5392, 2422.240
593.0214, 2416.909
593.5035, 2417.363
593.9856, 2425.082
594.4677, 2445.486
594.9498, 2460.160
595.4319, 2467.989
595.9141, 2469.070
596.3962, 2455.949
596.8783, 2436.137
597.3604, 2429.313
597.8425, 2449.813
598.3246, 2471.683
598.8068, 2467.713
599.2889, 2447.148
599.7710, 2435.067
600.2531, 2436.283
600.7352, 2437.608
601.2173, 2426.789
601.6995, 2406.165
602.1816, 2394.829
602.6637, 2396.255
603.1458, 2402.907
603.6279, 2424.095
604.1100, 2442.459
604.5922, 2440.465
605.0743, 2422.225
605.5564, 2408.722
606.0385, 2414.404
606.5206, 2427.985
607.0027, 2433.424
607.4849, 2431.305
607.9670, 2424.468
608.4491, 2411.578
608.9312, 2402.258
609.4133, 2407.917
609.8954, 2428.649
610.3776, 2442.408
610.8597, 2445.713
611.3418, 2447.146
611.8239, 2450.777
612.3060, 2452.165
612.7881, 2443.940
613.2703, 2427.387
613.7524, 2413.548
614.2345, 2412.331
614.7166, 2418.430
615.1987, 2418.097
615.6808, 2410.970
616.1630, 2405.366
616.6451, 2403.163
617.1272, 2404.292
617.6093, 2409.874
618.0914, 2420.035
618.5735, 2428.016
619.0557, 2435.172
619.5378, 2438.246
620.0199, 2434.229
620.5020, 2426.269
620.9841, 2416.823
621.4662, 2407.210
621.9484, 2400.161
622.4305, 2398.714
622.9126, 2401.541
623.3947, 2404.126
623.8768, 2406.904
624.3589, 2406.005
624.8411, 2395.243
625.3232, 2386.027
625.8053, 2396.377
626.2874, 2424.963
626.7695, 2444.496
627.2516, 2446.017
627.7338, 2443.249
628.2159, 2439.947
628.6980, 2437.917
629.1801, 2441.289
629.6622, 2449.929
630.1443, 2456.411
630.6265, 2452.214
631.1086, 2439.788
631.5907, 2433.152
632.0728, 2433.549
632.5549, 2434.808
633.0370, 2434.940
633.5192, 2435.322
634.0013, 2439.384
