##NAMES=Conichalcite
##RRUFFID=R070447
##IDEAL CHEMISTRY=CaCu^2+^As^5+^O_4_(OH)
##LOCALITY=Copper Creek District, Mammoth, Arizona, USA
##OWNER=RRUFF
##SOURCE=Bob Jenkins
##DESCRIPTION=Green prismatic crystals scattered over quartz
##STATUS=The identification of this mineral is confirmed by single-crystal X-ray diffraction and chemical analysis.
##URL=rruff.info/R070447
##MEASURED CHEMISTRY=Ca_1.00_(Cu_0.99_Fe_0.01_)(As_0.94_V_0.03_S_0.02_Al_0.01_)_Î£=1_O_4_(OH); OH estimated by charge balance
167.2790, 6601.233
167.7611, 6576.933
168.2433, 6553.318
168.7254, 6537.640
169.2075, 6536.878
169.6896, 6545.477
170.1717, 6556.977
170.6538, 6570.676
171.1360, 6585.270
171.6181, 6596.799
172.1002, 6604.962
172.5823, 6620.829
173.0644, 6658.730
173.5465, 6709.628
174.0287, 6758.016
174.5108, 6798.563
174.9929, 6832.112
175.4750, 6856.917
175.9571, 6870.938
176.4392, 6887.566
176.9214, 6922.766
177.4035, 6971.177
177.8856, 7018.494
178.3677, 7054.468
178.8498, 7084.838
179.3319, 7119.160
179.8141, 7159.005
180.2962, 7202.117
180.7783, 7253.907
181.2604, 7310.158
181.7425, 7353.719
182.2246, 7363.127
182.7068, 7351.204
183.1889, 7348.588
183.6710, 7362.596
184.1531, 7385.720
184.6352, 7409.116
185.1173, 7432.684
185.5995, 7450.851
186.0816, 7460.430
186.5637, 7461.335
187.0458, 7451.677
187.5279, 7424.710
188.0100, 7390.951
188.4922, 7374.674
188.9743, 7376.174
189.4564, 7388.841
189.9385, 7410.794
190.4206, 7440.649
190.9027, 7467.077
191.3849, 7481.778
191.8670, 7490.783
192.3491, 7522.540
192.8312, 7581.813
193.3133, 7641.820
193.7954, 7668.627
194.2776, 7662.834
194.7597, 7653.946
195.2418, 7650.724
195.7239, 7653.053
196.2060, 7658.876
196.6881, 7666.640
197.1703, 7681.912
197.6524, 7717.205
198.1345, 7773.414
198.6166, 7829.063
199.0987, 7872.310
199.5808, 7903.137
200.0630, 7938.781
200.5451, 7979.055
201.0272, 8024.668
201.5093, 8079.147
201.9914, 8143.825
202.4735, 8210.299
202.9557, 8278.919
203.4378, 8351.190
203.9199, 8407.372
204.4020, 8445.556
204.8841, 8467.918
205.3662, 8480.520
205.8484, 8484.548
206.3305, 8474.587
206.8126, 8446.702
207.2947, 8399.853
207.7768, 8340.625
208.2589, 8266.975
208.7411, 8182.251
209.2232, 8096.394
209.7053, 8006.227
210.1874, 7921.628
210.6695, 7849.568
211.1517, 7793.642
211.6338, 7733.354
212.1159, 7659.706
212.5980, 7578.744
213.0801, 7528.422
213.5622, 7517.394
214.0444, 7521.574
214.5265, 7524.526
215.0086, 7528.545
215.4907, 7522.903
215.9728, 7500.409
216.4549, 7463.501
216.9371, 7447.474
217.4192, 7462.342
217.9013, 7483.538
218.3834, 7486.695
218.8655, 7464.822
219.3476, 7443.754
219.8298, 7427.333
220.3119, 7415.664
220.7940, 7411.741
221.2761, 7419.040
221.7582, 7430.105
222.2403, 7436.375
222.7225, 7434.600
223.2046, 7435.707
223.6867, 7446.084
224.1688, 7468.263
224.6509, 7468.748
225.1330, 7433.882
225.6152, 7390.098
226.0973, 7373.800
226.5794, 7398.667
227.0615, 7423.504
227.5436, 7439.271
228.0257, 7446.859
228.5079, 7438.144
228.9900, 7399.952
229.4721, 7355.314
229.9542, 7340.670
230.4363, 7375.417
230.9184, 7404.661
231.4006, 7409.517
231.8827, 7382.101
232.3648, 7363.304
232.8469, 7355.697
233.3290, 7355.055
233.8111, 7354.109
234.2933, 7352.036
234.7754, 7350.964
235.2575, 7350.465
235.7396, 7347.723
236.2217, 7356.352
236.7038, 7387.538
237.1860, 7425.042
237.6681, 7433.993
238.1502, 7394.854
238.6323, 7357.997
239.1144, 7342.310
239.5965, 7355.937
240.0787, 7369.778
240.5608, 7385.971
241.0429, 7401.593
241.5250, 7409.058
242.0071, 7401.959
242.4892, 7396.428
242.9714, 7400.030
243.4535, 7419.000
243.9356, 7432.631
244.4177, 7439.992
244.8998, 7442.247
245.3819, 7441.686
245.8641, 7434.789
246.3462, 7430.259
246.8283, 7431.439
247.3104, 7436.837
247.7925, 7452.832
248.2746, 7488.593
248.7568, 7532.975
249.2389, 7551.392
249.7210, 7525.814
250.2031, 7501.577
250.6852, 7502.569
251.1674, 7543.594
251.6495, 7574.443
252.1316, 7591.543
252.6137, 7597.804
253.0958, 7600.947
253.5779, 7597.353
254.0601, 7596.282
254.5422, 7602.901
255.0243, 7619.521
255.5064, 7637.609
255.9885, 7656.365
256.4706, 7676.359
256.9528, 7702.250
257.4349, 7742.243
257.9170, 7774.598
258.3991, 7785.334
258.8812, 7763.861
259.3633, 7749.510
259.8455, 7743.285
260.3276, 7745.764
260.8097, 7760.896
261.2918, 7795.764
261.7739, 7830.546
262.2560, 7853.500
262.7382, 7860.208
263.2203, 7868.000
263.7024, 7875.983
264.1845, 7886.286
264.6666, 7906.610
265.1487, 7937.098
265.6309, 7976.990
266.1130, 8029.863
266.5951, 8104.896
267.0772, 8161.230
267.5593, 8192.678
268.0414, 8205.180
268.5236, 8214.914
269.0057, 8217.848
269.4878, 8227.940
269.9699, 8255.896
270.4520, 8305.658
270.9341, 8355.075
271.4163, 8402.946
271.8984, 8449.045
272.3805, 8490.818
272.8626, 8525.978
273.3447, 8564.827
273.8268, 8620.707
274.3090, 8699.648
274.7911, 8749.938
275.2732, 8757.431
275.7553, 8739.279
276.2374, 8742.357
276.7195, 8770.057
277.2017, 8806.036
277.6838, 8842.439
278.1659, 8879.601
278.6480, 8912.893
279.1301, 8941.782
279.6122, 8966.571
280.0944, 8987.574
280.5765, 9003.688
281.0586, 9021.721
281.5407, 9049.240
282.0228, 9086.393
282.5049, 9113.098
282.9871, 9125.907
283.4692, 9129.554
283.9513, 9130.358
284.4334, 9127.313
284.9155, 9133.250
285.3976, 9167.915
285.8798, 9227.271
286.3619, 9253.939
286.8440, 9236.919
287.3261, 9195.342
287.8082, 9159.737
288.2903, 9130.085
288.7725, 9108.875
289.2546, 9106.478
289.7367, 9117.434
290.2188, 9109.656
290.7009, 9079.288
291.1830, 9031.799
291.6652, 8966.799
292.1473, 8885.784
292.6294, 8817.803
293.1115, 8788.388
293.5936, 8786.137
294.0757, 8768.219
294.5579, 8726.574
295.0400, 8682.889
295.5221, 8672.715
296.0042, 8690.668
296.4863, 8705.385
296.9684, 8694.410
297.4506, 8668.444
297.9327, 8654.555
298.4148, 8656.553
298.8969, 8661.556
299.3790, 8647.096
299.8611, 8620.455
300.3433, 8607.443
300.8254, 8632.612
301.3075, 8676.966
301.7896, 8706.373
302.2717, 8716.874
302.7538, 8727.842
303.2360, 8762.037
303.7181, 8811.911
304.2002, 8859.878
304.6823, 8895.580
305.1644, 8925.424
305.6465, 8952.189
306.1287, 8975.189
306.6108, 9008.187
307.0929, 9068.771
307.5750, 9146.763
308.0571, 9226.071
308.5392, 9300.916
309.0214, 9372.089
309.5035, 9439.814
309.9856, 9503.699
310.4677, 9568.082
310.9498, 9623.206
311.4319, 9683.872
311.9141, 9771.222
312.3962, 9920.449
312.8783, 10079.22
313.3604, 10210.60
313.8426, 10314.64
314.3247, 10423.41
314.8068, 10559.74
315.2889, 10706.02
315.7710, 10844.91
316.2531, 10960.70
316.7353, 11078.61
317.2174, 11211.28
317.6995, 11357.76
318.1816, 11507.11
318.6637, 11652.38
319.1458, 11800.09
319.6280, 11955.47
320.1101, 12150.78
320.5922, 12322.43
321.0743, 12441.26
321.5564, 12515.68
322.0385, 12592.90
322.5207, 12712.08
323.0028, 12821.22
323.4849, 12887.01
323.9670, 12886.29
324.4491, 12864.62
324.9312, 12823.08
325.4134, 12764.25
325.8955, 12697.85
326.3776, 12636.42
326.8597, 12559.15
327.3418, 12453.95
327.8239, 12273.63
328.3061, 12132.85
328.7882, 12052.89
329.2703, 12014.10
329.7524, 11965.95
330.2345, 11892.00
330.7166, 11824.83
331.1988, 11777.49
331.6809, 11762.67
332.1630, 11740.55
332.6451, 11708.15
333.1272, 11669.34
333.6093, 11631.30
334.0915, 11591.64
334.5736, 11556.33
335.0557, 11531.37
335.5378, 11523.90
336.0199, 11491.94
336.5020, 11425.95
336.9842, 11344.49
337.4663, 11273.72
337.9484, 11219.88
338.4305, 11159.15
338.9126, 11083.15
339.3947, 10992.09
339.8769, 10897.77
340.3590, 10797.21
340.8411, 10697.81
341.3232, 10604.57
341.8053, 10517.78
342.2874, 10440.74
342.7696, 10374.48
343.2517, 10318.67
343.7338, 10278.33
344.2159, 10254.40
344.6980, 10237.79
345.1801, 10222.88
345.6623, 10209.37
346.1444, 10189.28
346.6265, 10156.16
347.1086, 10119.96
347.5907, 10104.77
348.0728, 10110.77
348.5550, 10124.90
349.0371, 10143.11
349.5192, 10162.34
350.0013, 10170.40
350.4834, 10160.07
350.9655, 10147.83
351.4477, 10157.39
351.9298, 10186.48
352.4119, 10223.59
352.8940, 10269.73
353.3761, 10317.40
353.8582, 10352.27
354.3404, 10370.69
354.8225, 10383.67
355.3046, 10404.35
355.7867, 10428.00
356.2688, 10443.21
356.7509, 10440.14
357.2331, 10428.42
357.7152, 10416.69
358.1973, 10405.78
358.6794, 10392.70
359.1615, 10377.80
359.6436, 10359.03
360.1258, 10333.50
360.6079, 10294.44
361.0900, 10252.99
361.5721, 10217.35
362.0542, 10187.52
362.5363, 10151.07
363.0185, 10093.86
363.5006, 10031.69
363.9827, 9979.368
364.4648, 9929.753
364.9469, 9900.903
365.4290, 9914.419
365.9112, 9961.879
366.3933, 9984.700
366.8754, 9945.212
367.3575, 9895.711
367.8396, 9866.217
368.3217, 9878.354
368.8039, 9886.885
369.2860, 9889.346
369.7681, 9886.463
370.2502, 9880.358
370.7323, 9867.296
371.2144, 9854.704
371.6966, 9845.438
372.1787, 9840.402
372.6608, 9837.125
373.1429, 9840.397
373.6250, 9842.813
374.1071, 9829.157
374.5893, 9786.202
375.0714, 9754.112
375.5535, 9750.366
376.0356, 9777.763
376.5177, 9788.458
376.9998, 9776.221
377.4820, 9757.772
377.9641, 9752.819
378.4462, 9762.985
378.9283, 9775.888
379.4104, 9789.836
379.8925, 9803.927
380.3747, 9812.501
380.8568, 9814.625
381.3389, 9817.470
381.8210, 9825.813
382.3031, 9839.724
382.7852, 9862.660
383.2674, 9899.968
383.7495, 9939.740
384.2316, 9955.049
384.7137, 9948.225
385.1958, 9939.521
385.6779, 9944.704
386.1601, 9957.111
386.6422, 9962.356
387.1243, 9958.035
387.6064, 9948.957
388.0885, 9933.790
388.5706, 9917.070
389.0528, 9910.955
389.5349, 9937.631
390.0170, 9968.431
390.4991, 9975.485
390.9812, 9956.255
391.4633, 9925.297
391.9455, 9880.380
392.4276, 9832.662
392.9097, 9796.322
393.3918, 9790.975
393.8739, 9785.156
394.3561, 9760.061
394.8382, 9718.031
395.3203, 9681.846
395.8024, 9664.900
396.2845, 9654.021
396.7667, 9640.365
397.2488, 9622.115
397.7309, 9601.253
398.2130, 9579.061
398.6951, 9554.732
399.1772, 9525.595
399.6594, 9471.333
400.1415, 9430.048
400.6236, 9419.591
401.1057, 9462.976
401.5878, 9481.715
402.0699, 9459.288
402.5521, 9420.265
403.0342, 9401.486
403.5163, 9414.099
403.9984, 9426.845
404.4805, 9428.918
404.9626, 9419.877
405.4448, 9427.711
405.9269, 9457.734
406.4090, 9494.881
406.8911, 9527.399
407.3732, 9556.348
407.8553, 9572.278
408.3375, 9568.277
408.8196, 9553.242
409.3017, 9554.412
409.7838, 9572.392
410.2659, 9599.914
410.7480, 9639.645
411.2302, 9687.048
411.7123, 9713.922
412.1944, 9710.977
412.6765, 9704.164
413.1586, 9733.597
413.6407, 9792.385
414.1229, 9849.220
414.6050, 9879.237
415.0871, 9901.927
415.5692, 9950.354
416.0513, 10027.53
416.5334, 10103.22
417.0156, 10156.05
417.4977, 10192.38
417.9798, 10220.95
418.4619, 10223.04
418.9440, 10237.69
419.4261, 10299.67
419.9083, 10400.64
420.3904, 10497.87
420.8725, 10573.94
421.3546, 10637.41
421.8367, 10691.46
422.3188, 10726.76
422.8010, 10771.13
423.2831, 10840.50
423.7652, 10923.36
424.2473, 10996.63
424.7294, 11043.36
425.2115, 11093.21
425.6937, 11161.33
426.1758, 11258.38
426.6579, 11330.87
427.1400, 11369.29
427.6221, 11389.98
428.1042, 11412.50
428.5864, 11452.00
429.0685, 11461.03
429.5506, 11418.50
430.0327, 11334.50
430.5148, 11286.28
430.9969, 11286.56
431.4791, 11292.93
431.9612, 11272.86
432.4433, 11224.15
432.9254, 11185.67
433.4075, 11160.03
433.8896, 11148.28
434.3718, 11155.70
434.8539, 11181.92
435.3360, 11213.89
435.8181, 11250.94
436.3002, 11288.32
436.7823, 11310.36
437.2645, 11315.60
437.7466, 11317.20
438.2287, 11328.98
438.7108, 11346.77
439.1929, 11360.42
439.6750, 11354.51
440.1572, 11354.63
440.6393, 11394.53
441.1214, 11466.50
441.6035, 11532.44
442.0856, 11574.62
442.5677, 11598.78
443.0499, 11607.12
443.5320, 11591.79
444.0141, 11581.01
444.4962, 11592.21
444.9783, 11614.26
445.4604, 11628.55
445.9426, 11619.74
446.4247, 11612.29
446.9068, 11620.45
447.3889, 11649.72
447.8710, 11655.54
448.3531, 11623.57
448.8353, 11575.00
449.3174, 11525.63
449.7995, 11486.41
450.2816, 11426.92
450.7637, 11338.21
451.2458, 11227.21
451.7280, 11122.42
452.2101, 11022.63
452.6922, 10932.78
453.1743, 10856.78
453.6564, 10796.32
454.1385, 10740.19
454.6207, 10689.42
455.1028, 10639.88
455.5849, 10581.76
456.0670, 10516.28
456.5491, 10460.61
457.0313, 10421.51
457.5134, 10396.39
457.9955, 10386.15
458.4776, 10390.02
458.9597, 10389.15
459.4418, 10362.52
459.9240, 10322.47
460.4061, 10288.08
460.8882, 10261.44
461.3703, 10246.56
461.8524, 10252.58
462.3345, 10273.56
462.8167, 10295.71
463.2988, 10307.56
463.7809, 10321.99
464.2630, 10350.95
464.7451, 10397.12
465.2272, 10434.60
465.7094, 10438.02
466.1915, 10436.32
466.6736, 10455.68
467.1557, 10521.47
467.6378, 10585.26
468.1199, 10631.69
468.6021, 10668.36
469.0842, 10728.07
469.5663, 10827.07
470.0484, 10929.60
470.5305, 11017.59
471.0126, 11076.89
471.4948, 11171.17
471.9769, 11310.91
472.4590, 11473.23
472.9411, 11627.88
473.4232, 11773.13
473.9053, 11917.58
474.3875, 12058.54
474.8696, 12201.20
475.3517, 12361.85
475.8338, 12541.18
476.3159, 12736.93
476.7981, 12953.98
477.2802, 13186.57
477.7623, 13417.62
478.2444, 13644.89
478.7265, 13870.24
479.2086, 14096.39
479.6908, 14320.84
480.1729, 14534.81
480.6550, 14722.01
481.1371, 14906.04
481.6192, 15109.85
482.1013, 15333.92
482.5835, 15548.26
483.0656, 15737.88
483.5477, 15908.95
484.0298, 16068.04
484.5119, 16260.14
484.9940, 16381.87
485.4762, 16403.34
485.9583, 16339.15
486.4404, 16226.94
486.9225, 16092.10
487.4046, 15885.39
487.8867, 15575.35
488.3689, 15140.40
488.8510, 14722.87
489.3331, 14326.58
489.8152, 13939.20
490.2973, 13538.50
490.7794, 13111.93
491.2616, 12736.62
491.7437, 12430.40
492.2258, 12179.14
492.7079, 11950.48
493.1900, 11746.37
493.6721, 11563.35
494.1543, 11403.50
494.6364, 11264.77
495.1185, 11143.57
495.6006, 11042.39
496.0827, 10954.06
496.5648, 10870.23
497.0470, 10795.21
497.5291, 10741.11
498.0112, 10728.25
498.4933, 10719.92
498.9754, 10684.17
499.4576, 10626.14
499.9397, 10567.08
500.4218, 10509.74
500.9039, 10459.35
501.3860, 10417.53
501.8681, 10383.22
502.3503, 10363.01
502.8324, 10372.71
503.3145, 10392.01
503.7966, 10396.66
504.2787, 10373.99
504.7608, 10350.33
505.2430, 10329.05
505.7251, 10309.80
506.2072, 10287.87
506.6893, 10256.77
507.1714, 10234.88
507.6535, 10236.15
508.1357, 10264.56
508.6178, 10281.82
509.0999, 10284.50
509.5820, 10281.45
510.0641, 10283.19
510.5462, 10289.74
511.0284, 10301.54
511.5105, 10322.29
511.9926, 10345.90
512.4747, 10362.42
512.9568, 10371.80
513.4389, 10373.81
513.9210, 10362.75
514.4031, 10346.52
514.8853, 10331.72
515.3674, 10315.87
515.8495, 10315.70
516.3316, 10356.93
516.8137, 10416.02
517.2958, 10460.40
517.7780, 10472.62
518.2601, 10475.73
518.7422, 10467.21
519.2244, 10450.45
519.7065, 10456.53
520.1886, 10516.67
520.6707, 10576.26
521.1528, 10608.01
521.6349, 10590.21
522.1171, 10601.83
522.5992, 10653.17
523.0813, 10723.74
523.5634, 10790.32
524.0455, 10853.94
524.5276, 10907.04
525.0098, 10943.65
525.4919, 10969.99
525.9740, 11008.31
526.4561, 11059.23
526.9382, 11114.43
527.4203, 11168.74
527.9025, 11224.22
528.3846, 11286.81
528.8667, 11358.79
529.3488, 11429.09
529.8309, 11481.79
530.3130, 11526.03
530.7952, 11577.43
531.2773, 11657.71
531.7594, 11731.88
532.2415, 11780.09
532.7236, 11805.66
533.2057, 11820.69
533.6879, 11819.24
534.1700, 11816.32
534.6521, 11821.25
535.1342, 11842.15
535.6163, 11850.42
536.0984, 11856.16
536.5806, 11841.93
537.0627, 11786.28
537.5448, 11671.57
538.0269, 11555.38
538.5090, 11445.63
538.9911, 11341.38
539.4733, 11244.03
539.9554, 11152.39
540.4375, 11070.34
540.9196, 11004.34
541.4017, 10950.24
541.8839, 10889.58
542.3660, 10820.73
542.8481, 10756.27
543.3302, 10707.65
543.8123, 10670.99
544.2944, 10637.89
544.7766, 10604.45
545.2587, 10576.48
545.7408, 10560.15
546.2229, 10553.33
546.7050, 10550.30
547.1871, 10561.70
547.6693, 10565.24
548.1514, 10546.12
548.6335, 10500.98
549.1156, 10460.30
549.5977, 10421.87
550.0798, 10394.08
550.5620, 10383.18
551.0441, 10395.39
551.5262, 10413.12
552.0083, 10440.13
552.4904, 10469.08
552.9725, 10485.70
553.4547, 10489.05
553.9368, 10484.17
554.4189, 10467.84
554.9010, 10445.38
555.3831, 10438.94
555.8652, 10448.72
556.3474, 10465.31
556.8295, 10491.23
557.3116, 10517.10
557.7937, 10518.51
558.2758, 10486.45
558.7579, 10455.06
559.2401, 10457.35
559.7222, 10478.70
560.2043, 10496.57
560.6864, 10499.37
561.1685, 10499.96
561.6506, 10502.08
562.1328, 10506.12
562.6149, 10513.80
563.0970, 10527.87
563.5791, 10543.55
564.0612, 10559.13
564.5433, 10574.69
565.0255, 10590.36
565.5076, 10608.53
565.9897, 10623.74
566.4718, 10630.09
566.9539, 10626.68
567.4360, 10618.62
567.9182, 10604.05
568.4003, 10588.88
568.8824, 10588.75
569.3645, 10602.39
569.8466, 10614.14
570.3287, 10607.17
570.8109, 10596.12
571.2930, 10613.67
571.7751, 10658.64
572.2572, 10693.35
572.7393, 10685.81
573.2214, 10657.79
573.7036, 10629.34
574.1857, 10599.32
574.6678, 10581.75
575.1499, 10595.15
575.6320, 10620.85
576.1141, 10631.69
576.5963, 10600.68
577.0784, 10580.31
577.5605, 10583.63
578.0426, 10606.69
578.5247, 10625.00
579.0068, 10637.27
579.4890, 10647.12
579.9711, 10657.38
580.4532, 10668.37
580.9353, 10671.56
581.4174, 10665.47
581.8995, 10657.77
582.3817, 10653.83
582.8638, 10654.86
583.3459, 10668.18
583.8280, 10703.49
584.3101, 10736.26
584.7922, 10731.20
585.2744, 10700.50
585.7565, 10675.45
586.2386, 10677.62
586.7207, 10684.29
587.2028, 10681.92
587.6849, 10670.23
588.1671, 10658.99
588.6492, 10652.27
589.1313, 10645.70
589.6134, 10635.15
590.0955, 10609.72
590.5776, 10605.20
591.0598, 10633.08
591.5419, 10671.55
592.0240, 10690.42
592.5061, 10685.30
592.9882, 10683.06
593.4703, 10690.84
593.9525, 10703.70
594.4346, 10707.77
594.9167, 10703.82
595.3988, 10702.60
595.8809, 10713.71
596.3630, 10730.24
596.8452, 10744.32
597.3273, 10755.23
597.8094, 10754.79
598.2915, 10721.07
598.7736, 10681.63
599.2557, 10664.71
599.7379, 10687.77
600.2200, 10710.60
600.7021, 10729.24
601.1842, 10738.80
601.6663, 10730.40
602.1484, 10675.86
602.6306, 10642.86
603.1127, 10648.98
603.5948, 10686.20
604.0769, 10715.91
604.5590, 10738.15
605.0411, 10751.94
605.5233, 10753.64
606.0054, 10744.76
606.4875, 10738.25
606.9696, 10734.30
607.4517, 10731.31
607.9338, 10725.04
608.4160, 10719.04
608.8981, 10722.73
609.3802, 10742.81
609.8623, 10760.15
610.3444, 10750.20
610.8265, 10729.67
611.3087, 10726.41
611.7908, 10776.74
612.2729, 10819.08
612.7550, 10821.90
613.2371, 10792.23
613.7192, 10784.85
614.2014, 10824.55
614.6835, 10857.93
615.1656, 10859.05
615.6477, 10822.55
616.1298, 10806.03
616.6119, 10812.98
617.0941, 10831.28
617.5762, 10859.52
618.0583, 10894.03
618.5404, 10894.88
619.0225, 10846.14
619.5046, 10792.91
619.9868, 10800.25
620.4689, 10847.67
620.9510, 10885.32
621.4331, 10879.02
621.9152, 10867.23
622.3973, 10877.32
622.8795, 10904.08
623.3616, 10925.62
623.8437, 10930.75
624.3258, 10932.54
624.8079, 10938.24
625.2900, 10950.03
625.7722, 10952.36
626.2543, 10939.75
626.7364, 10924.47
627.2185, 10916.26
627.7006, 10916.57
628.1827, 10913.39
628.6649, 10903.68
629.1470, 10895.63
629.6291, 10906.31
630.1112, 10931.28
630.5933, 10946.44
631.0754, 10935.02
631.5576, 10920.87
632.0397, 10945.16
632.5218, 10993.59
633.0039, 11020.94
633.4860, 10971.62
633.9681, 10921.53
634.4503, 10924.88
634.9324, 10986.09
635.4145, 11024.04
635.8966, 10998.04
636.3787, 10963.79
636.8608, 10951.45
637.3430, 10970.30
637.8251, 10986.01
638.3072, 10998.88
638.7893, 11007.96
639.2714, 11010.36
639.7535, 11006.01
640.2357, 11003.96
640.7178, 11006.82
641.1999, 11011.30
641.6820, 11010.78
642.1641, 11007.04
642.6462, 11006.33
643.1284, 11019.15
643.6105, 11030.61
644.0926, 11021.28
644.5747, 10995.88
645.0568, 10984.10
645.5389, 11004.55
646.0211, 11035.83
646.5032, 11071.55
646.9853, 11118.05
647.4674, 11139.38
647.9495, 11121.78
648.4316, 11094.65
648.9138, 11081.83
649.3959, 11086.36
649.8780, 11087.28
650.3601, 11081.85
650.8422, 11074.52
651.3243, 11070.24
651.8065, 11069.42
652.2886, 11074.60
652.7707, 11090.70
653.2528, 11108.01
653.7349, 11115.22
654.2170, 11114.48
654.6992, 11111.82
655.1813, 11103.79
655.6634, 11100.18
656.1455, 11109.44
656.6276, 11131.78
657.1097, 11147.88
657.5919, 11152.48
658.0740, 11153.06
658.5561, 11151.40
659.0382, 11144.79
659.5203, 11150.45
660.0024, 11173.79
660.4846, 11196.71
660.9667, 11196.26
661.4488, 11175.36
