##NAMES=Conichalcite
##RRUFFID=R120017
##IDEAL CHEMISTRY=CaCu^2+^As^5+^O_4_(OH)
##LOCALITY=New Cornelia mine, Ajo, Arizona, USA
##OWNER=RRUFF
##SOURCE=Ron Gibbs
##DESCRIPTION=Elongated tufts of yellowish-green crystals, associated with ajoite, R120018
##STATUS=The identification of this mineral has been confirmed by single-crystal X-ray diffraction.
##URL=rruff.info/R120017
91.12140, 0.0000000E+00
91.60352, 324.7865
92.08563, 321.9099
92.56775, 321.5534
93.04987, 324.9688
93.53198, 329.3154
94.01410, 329.9521
94.49622, 327.1257
94.97833, 322.4352
95.46045, 317.0757
95.94257, 311.0008
96.42468, 305.4440
96.90680, 301.1404
97.38892, 296.8928
97.87103, 292.3038
98.35315, 287.0594
98.83527, 281.2130
99.31738, 275.5267
99.79950, 269.8338
100.2816, 265.3454
100.7637, 262.3952
101.2458, 260.1787
101.7280, 257.9070
102.2101, 255.2957
102.6922, 252.9115
103.1743, 251.6796
103.6564, 251.3767
104.1385, 251.8968
104.6207, 253.6081
105.1028, 256.1857
105.5849, 258.6162
106.0670, 260.7302
106.5491, 262.2556
107.0313, 262.9413
107.5134, 262.6856
107.9955, 262.0892
108.4776, 261.7206
108.9597, 261.6084
109.4418, 261.5567
109.9240, 260.7939
110.4061, 260.3999
110.8882, 261.4011
111.3703, 264.2437
111.8524, 268.2938
112.3345, 271.8303
112.8167, 274.0371
113.2988, 276.8337
113.7809, 281.1225
114.2630, 285.9894
114.7451, 290.2319
115.2272, 293.0088
115.7094, 294.4490
116.1915, 296.5799
116.6736, 300.4166
117.1557, 303.8509
117.6378, 305.8589
118.1199, 306.7211
118.6021, 307.5188
119.0842, 309.1518
119.5663, 311.7102
120.0484, 314.1475
120.5305, 316.3592
121.0126, 318.5206
121.4948, 321.0200
121.9769, 323.9937
122.4590, 326.5161
122.9411, 328.0949
123.4232, 328.6940
123.9053, 326.9863
124.3875, 322.0255
124.8696, 314.3669
125.3517, 305.4456
125.8338, 294.8368
126.3159, 283.6465
126.7980, 272.6339
127.2802, 261.7748
127.7623, 251.0678
128.2444, 240.2081
128.7265, 229.1332
129.2086, 219.0662
129.6907, 210.4113
130.1729, 202.6124
130.6550, 195.5606
131.1371, 189.2174
131.6192, 183.5719
132.1013, 178.7021
132.5834, 174.9835
133.0656, 171.2796
133.5477, 166.9602
134.0298, 162.9792
134.5119, 160.1582
134.9940, 158.7520
135.4761, 158.3054
135.9583, 157.8219
136.4404, 157.2204
136.9225, 156.6877
137.4046, 156.3283
137.8867, 156.0240
138.3688, 155.6477
138.8510, 155.1631
139.3331, 154.5112
139.8152, 153.4619
140.2973, 151.5984
140.7794, 150.0021
141.2615, 149.2562
141.7437, 149.2206
142.2258, 149.2346
142.7079, 148.8753
143.1900, 148.4111
143.6721, 148.3824
144.1542, 148.9901
144.6364, 149.8224
145.1185, 150.4283
145.6006, 150.7420
146.0827, 151.2295
146.5648, 152.6180
147.0469, 154.1643
147.5291, 155.0094
148.0112, 154.6477
148.4933, 153.6261
148.9754, 153.1369
149.4575, 153.2468
149.9396, 153.8670
150.4218, 155.1086
150.9039, 156.7043
151.3860, 158.3527
151.8681, 159.9446
152.3502, 161.4361
152.8323, 162.3664
153.3145, 161.6791
153.7966, 161.4403
154.2787, 162.2451
154.7608, 163.8299
155.2429, 165.6467
155.7250, 167.3067
156.2072, 168.8091
156.6893, 170.0591
157.1714, 170.6958
157.6535, 171.4624
158.1356, 172.8368
158.6177, 174.7113
159.0999, 176.5302
159.5820, 177.7258
160.0641, 178.1574
160.5462, 179.0469
161.0283, 180.9735
161.5104, 182.9396
161.9926, 184.4101
162.4747, 185.2966
162.9568, 185.3001
163.4389, 183.6488
163.9210, 180.4416
164.4031, 177.7460
164.8853, 176.4552
165.3674, 175.7170
165.8495, 174.3468
166.3316, 172.1440
166.8137, 169.3498
167.2958, 165.8754
167.7780, 161.9100
168.2601, 158.2299
168.7422, 155.3176
169.2243, 153.0185
169.7064, 150.7382
170.1885, 148.2389
170.6707, 146.0225
171.1528, 144.3474
171.6349, 143.1787
172.1170, 142.3315
172.5991, 141.7525
173.0812, 141.4563
173.5634, 141.1140
174.0455, 140.5195
174.5276, 140.0327
175.0097, 139.8493
175.4918, 139.9458
175.9739, 140.1528
176.4561, 140.2952
176.9382, 140.3571
177.4203, 140.4074
177.9024, 140.3541
178.3845, 140.3585
178.8666, 140.5437
179.3488, 140.9038
179.8309, 141.3221
180.3130, 141.6315
180.7951, 141.7538
181.2772, 141.9403
181.7593, 142.2498
182.2415, 142.5768
182.7236, 142.8819
183.2057, 143.1441
183.6878, 143.3014
184.1699, 143.2389
184.6520, 142.7290
185.1342, 142.4644
185.6163, 142.7899
186.0984, 143.2278
186.5805, 143.2469
187.0626, 142.6815
187.5447, 141.7783
188.0269, 140.7866
188.5090, 139.4735
188.9911, 138.9015
189.4732, 140.0107
189.9553, 141.9128
190.4374, 142.9525
190.9196, 142.4655
191.4017, 141.4043
191.8838, 141.1075
192.3659, 141.5573
192.8480, 142.2916
193.3301, 143.1743
193.8123, 144.1886
194.2944, 145.2982
194.7765, 146.5625
195.2586, 147.8305
195.7407, 148.8997
196.2228, 149.7627
196.7050, 150.6985
197.1871, 152.0018
197.6692, 153.6497
198.1513, 155.1111
198.6334, 156.1291
199.1155, 157.0504
199.5977, 158.0033
200.0798, 159.0247
200.5619, 160.2861
201.0440, 162.1388
201.5261, 164.7517
202.0082, 166.8957
202.4904, 167.9053
202.9725, 168.7716
203.4546, 170.1659
203.9367, 172.0842
204.4188, 173.8589
204.9009, 174.6220
205.3831, 174.1110
205.8652, 173.3452
206.3473, 172.4815
206.8294, 171.3244
207.3115, 169.6696
207.7936, 167.5308
208.2758, 165.1400
208.7579, 162.8610
209.2400, 160.9287
209.7221, 158.5602
210.2042, 155.3254
210.6863, 152.0416
211.1685, 149.2923
211.6506, 147.1722
212.1327, 145.3331
212.6148, 143.2702
213.0969, 140.9627
213.5790, 138.4477
214.0612, 135.2252
214.5433, 132.1198
215.0254, 129.8439
215.5075, 128.5549
215.9896, 127.7367
216.4717, 126.6944
216.9539, 125.3124
217.4360, 123.9365
217.9181, 122.5699
218.4002, 121.2103
218.8823, 119.8955
219.3644, 118.6396
219.8466, 117.2861
220.3287, 115.5039
220.8108, 113.1202
221.2929, 111.2585
221.7750, 110.4829
222.2571, 110.1519
222.7393, 109.3948
223.2214, 107.9774
223.7035, 106.4702
224.1856, 105.8056
224.6677, 105.9195
225.1498, 105.5561
225.6320, 103.8422
226.1141, 101.5866
226.5962, 100.1952
227.0783, 100.0549
227.5604, 100.3097
228.0425, 100.1875
228.5247, 99.75700
229.0068, 99.19458
229.4889, 98.49659
229.9710, 97.72273
230.4531, 96.99796
230.9352, 96.34006
231.4174, 95.72886
231.8995, 95.15784
232.3816, 94.61956
232.8637, 94.09880
233.3458, 93.60079
233.8279, 93.11564
234.3101, 92.57133
234.7922, 91.85451
235.2743, 91.29079
235.7564, 91.01107
236.2385, 90.98979
236.7206, 91.20695
237.2028, 91.83411
237.6849, 92.70301
238.1670, 93.06935
238.6491, 92.65286
239.1312, 92.11463
239.6133, 91.84582
240.0955, 91.65189
240.5776, 91.13113
241.0597, 89.85551
241.5418, 88.11545
242.0239, 87.40993
242.5060, 88.59488
242.9882, 89.69570
243.4703, 90.19308
243.9524, 90.23404
244.4345, 89.98893
244.9166, 89.48272
245.3987, 88.84859
245.8809, 88.76189
246.3630, 89.87032
246.8451, 90.70506
247.3272, 90.93355
247.8093, 90.74210
248.2914, 90.30469
248.7736, 89.68682
249.2557, 89.00477
249.7378, 88.74254
250.2199, 89.24448
250.7020, 89.77956
251.1841, 90.39454
251.6663, 90.94198
252.1484, 91.20895
252.6305, 91.08933
253.1126, 90.72523
253.5947, 90.56094
254.0768, 90.71127
254.5590, 90.95547
255.0411, 91.34032
255.5232, 91.78695
256.0053, 92.19344
256.4874, 92.51634
256.9695, 92.82664
257.4517, 93.29600
257.9338, 94.39384
258.4159, 95.07162
258.8980, 94.81311
259.3801, 94.35184
259.8622, 94.54053
260.3444, 95.66298
260.8265, 97.24100
261.3086, 98.38200
261.7907, 98.89409
262.2728, 99.20914
262.7549, 98.95390
263.2371, 98.68865
263.7192, 99.05779
264.2013, 100.2193
264.6834, 101.7102
265.1655, 102.8476
265.6476, 103.4298
266.1298, 104.1120
266.6119, 104.9059
267.0940, 105.8090
267.5761, 106.8489
268.0582, 108.0296
268.5403, 109.2466
269.0225, 110.3522
269.5046, 111.2823
269.9867, 112.4616
270.4688, 114.3877
270.9509, 116.2601
271.4330, 117.2573
271.9152, 117.3162
272.3973, 117.1959
272.8794, 117.6953
273.3615, 118.8613
273.8436, 119.3895
274.3257, 118.6299
274.8079, 117.6714
275.2900, 117.4556
275.7721, 117.9923
276.2542, 118.5925
276.7363, 118.8330
277.2184, 118.6566
277.7006, 118.1254
278.1827, 116.8423
278.6648, 115.5218
279.1469, 114.7115
279.6290, 114.3674
280.1111, 114.0637
280.5933, 113.5428
281.0754, 112.8762
281.5575, 112.3276
282.0396, 111.9916
282.5217, 111.6594
283.0038, 111.2099
283.4860, 110.6546
283.9681, 110.0300
284.4502, 109.2952
284.9323, 108.5536
285.4144, 108.0314
285.8965, 107.8435
286.3787, 107.5898
286.8608, 106.9758
287.3429, 106.0987
287.8250, 105.2881
288.3071, 104.6232
288.7892, 104.1181
289.2714, 103.9001
289.7535, 104.0518
290.2356, 103.8709
290.7177, 102.6046
291.1998, 100.7410
291.6819, 99.64247
292.1641, 99.81201
292.6462, 100.4201
293.1283, 100.5783
293.6104, 100.3406
294.0925, 100.0472
294.5746, 99.74392
295.0568, 99.49023
295.5389, 99.40331
296.0210, 99.50076
296.5031, 99.75475
296.9852, 100.1029
297.4673, 100.5716
297.9495, 101.3203
298.4316, 102.7236
298.9137, 104.3097
299.3958, 105.2392
299.8779, 105.3405
300.3600, 105.5343
300.8422, 106.3727
301.3243, 107.7371
301.8064, 109.5399
302.2885, 112.2298
302.7706, 114.9217
303.2527, 116.1991
303.7349, 115.9141
304.2170, 116.4394
304.6991, 119.4250
305.1812, 123.6632
305.6633, 127.5496
306.1454, 130.8718
306.6276, 133.8599
307.1097, 136.5201
307.5918, 138.8812
308.0739, 141.5804
308.5560, 144.9438
309.0381, 148.6236
309.5203, 152.1126
310.0024, 155.3736
310.4845, 158.8624
310.9666, 163.1204
311.4487, 167.9502
311.9308, 172.2669
312.4130, 175.5138
312.8951, 178.6688
313.3772, 182.4616
313.8593, 186.8684
314.3414, 191.7592
314.8235, 197.2167
315.3057, 203.1096
315.7878, 209.2397
316.2699, 215.6723
316.7520, 222.0829
317.2341, 228.0694
317.7162, 233.8156
318.1984, 239.7896
318.6805, 246.1950
319.1626, 252.8829
319.6447, 259.8446
320.1268, 267.2600
320.6089, 274.0385
321.0911, 279.2296
321.5732, 283.4984
322.0553, 287.7765
322.5374, 292.6690
323.0195, 296.9693
323.5016, 299.4065
323.9838, 299.9929
324.4659, 299.4570
324.9480, 297.8221
325.4301, 295.2617
325.9122, 292.1178
326.3943, 288.3774
326.8765, 284.0636
327.3586, 279.0887
327.8407, 273.4955
328.3228, 267.5901
328.8049, 261.2906
329.2870, 254.9034
329.7692, 248.6791
330.2513, 242.6327
330.7334, 236.8837
331.2155, 231.7049
331.6976, 226.8673
332.1797, 221.7015
332.6619, 215.9056
333.1440, 210.4422
333.6261, 206.3672
334.1082, 203.2496
334.5903, 200.1319
335.0724, 196.9727
335.5546, 193.5707
336.0367, 189.4707
336.5188, 184.6060
337.0009, 179.9182
337.4830, 175.9210
337.9651, 172.4913
338.4473, 169.4394
338.9294, 166.9753
339.4115, 164.5279
339.8936, 161.4241
340.3757, 157.7946
340.8578, 154.8175
341.3400, 153.2973
341.8221, 152.2443
342.3042, 149.9973
342.7863, 146.2968
343.2684, 142.8683
343.7505, 140.7353
344.2327, 139.4887
344.7148, 138.1401
345.1969, 136.4470
345.6790, 134.7094
346.1611, 133.3450
346.6432, 132.2890
347.1254, 131.1218
347.6075, 129.5018
348.0896, 127.8273
348.5717, 126.6437
349.0538, 126.0017
349.5359, 125.5786
350.0181, 125.2961
350.5002, 125.0402
350.9823, 124.3739
351.4644, 122.9426
351.9465, 121.3813
352.4286, 119.9584
352.9108, 118.7201
353.3929, 117.8732
353.8750, 117.5683
354.3571, 117.6885
354.8392, 117.9767
355.3214, 118.6197
355.8035, 119.0042
356.2856, 118.8651
356.7677, 118.3275
357.2498, 117.5072
357.7319, 116.3805
358.2141, 115.2939
358.6962, 114.8337
359.1783, 115.1644
359.6604, 115.0663
360.1425, 113.8198
360.6246, 112.4434
361.1068, 112.0791
361.5889, 112.7614
362.0710, 113.4518
362.5531, 113.2686
363.0352, 112.2066
363.5173, 111.2818
363.9995, 110.4553
364.4816, 109.7827
364.9637, 109.4599
365.4458, 109.3257
365.9279, 108.9491
366.4100, 108.0758
366.8922, 106.8817
367.3743, 105.9553
367.8564, 105.5107
368.3385, 105.0075
368.8206, 104.5033
369.3027, 103.8504
369.7849, 102.6894
370.2670, 100.9651
370.7491, 99.28712
371.2312, 98.55653
371.7133, 99.23935
372.1954, 99.50281
372.6776, 99.07386
373.1597, 98.49084
373.6418, 98.20122
374.1239, 98.11077
374.6060, 97.69031
375.0881, 96.42833
375.5703, 94.37300
376.0524, 93.04729
376.5345, 93.37721
377.0166, 93.35461
377.4987, 92.13378
377.9808, 90.37984
378.4630, 89.05344
378.9451, 88.59726
379.4272, 88.78230
379.9093, 89.10051
380.3914, 89.77763
380.8735, 90.20020
381.3557, 90.27143
381.8378, 90.16549
382.3199, 90.04915
382.8020, 89.92268
383.2841, 89.61852
383.7662, 88.88931
384.2484, 87.63477
384.7305, 86.63836
385.2126, 85.96369
385.6947, 85.50048
386.1768, 85.38559
386.6589, 85.45155
387.1411, 85.38853
387.6232, 84.99578
388.1053, 84.35961
388.5874, 83.75377
389.0695, 83.02080
389.5516, 82.64321
390.0338, 83.05669
390.5159, 83.64271
390.9980, 83.79719
391.4801, 83.35630
391.9622, 82.70190
392.4443, 82.30681
392.9265, 82.20464
393.4086, 82.04724
393.8907, 81.81072
394.3728, 81.48446
394.8549, 80.90295
395.3370, 80.18447
395.8192, 79.75476
396.3013, 80.05007
396.7834, 80.83900
397.2655, 81.37584
397.7476, 81.64583
398.2297, 81.69704
398.7119, 81.52841
399.1940, 81.16607
399.6761, 80.53725
400.1582, 79.44263
400.6403, 78.48145
401.1224, 78.50191
401.6046, 79.42703
402.0867, 79.87437
402.5688, 79.07484
403.0509, 78.02724
403.5330, 78.01414
404.0151, 79.05283
404.4973, 80.01782
404.9794, 80.31989
405.4615, 80.25699
405.9436, 80.34823
406.4257, 80.66560
406.9078, 81.03298
407.3900, 81.36420
407.8721, 81.62841
408.3542, 81.70987
408.8363, 81.22279
409.3184, 80.88962
409.8005, 81.25496
410.2827, 82.18495
410.7648, 83.27452
411.2469, 84.42747
411.7290, 85.47575
412.2111, 85.94548
412.6932, 85.57005
413.1754, 85.37891
413.6575, 85.55986
414.1396, 86.00107
414.6217, 86.67747
415.1038, 87.55253
415.5859, 88.40190
416.0681, 88.96960
416.5502, 89.20586
417.0323, 89.73400
417.5144, 91.03490
417.9965, 92.08095
418.4786, 92.16624
418.9608, 91.72193
419.4429, 91.65525
419.9250, 92.45139
420.4071, 93.75741
420.8892, 94.59212
421.3713, 94.58492
421.8535, 94.63345
422.3356, 94.57732
422.8177, 94.71068
423.2998, 95.39559
423.7819, 96.59362
424.2640, 97.83703
424.7462, 98.62067
425.2283, 98.90942
425.7104, 99.30647
426.1925, 99.91773
426.6746, 100.5286
427.1567, 101.2530
427.6389, 101.8982
428.1210, 102.0836
428.6031, 101.5558
429.0852, 100.7757
429.5673, 100.7257
430.0494, 101.6030
430.5316, 102.4927
431.0137, 103.3868
431.4958, 104.0763
431.9779, 104.3566
432.4600, 104.2370
432.9421, 103.9593
433.4243, 103.5803
433.9064, 103.1686
434.3885, 103.0295
434.8706, 103.2206
435.3527, 103.5840
435.8348, 104.0426
436.3170, 104.5982
436.7991, 105.3246
437.2812, 106.4883
437.7633, 107.4727
438.2454, 107.4882
438.7275, 106.6883
439.2097, 106.1342
439.6918, 106.1912
440.1739, 106.6515
440.6560, 107.3188
441.1381, 108.2336
441.6202, 108.9278
442.1024, 109.3433
442.5845, 109.4312
443.0666, 108.9904
443.5487, 108.0466
444.0308, 107.0837
444.5129, 106.4485
444.9951, 106.1232
445.4772, 105.8668
445.9593, 105.8299
446.4414, 105.6803
446.9235, 105.2377
447.4056, 104.6421
447.8878, 104.1987
448.3699, 104.0007
448.8520, 103.6803
449.3341, 102.5937
449.8162, 100.2254
450.2983, 98.58213
450.7805, 98.28299
451.2626, 98.02684
451.7447, 97.15343
452.2268, 95.73860
452.7089, 94.11780
453.1910, 92.48379
453.6732, 90.89690
454.1553, 89.66067
454.6374, 89.08820
455.1195, 88.33253
455.6016, 87.07578
456.0837, 85.72450
456.5659, 84.69160
457.0480, 84.01676
457.5301, 83.34511
458.0122, 82.22154
458.4943, 80.65515
458.9764, 79.35442
459.4586, 78.38622
459.9407, 77.63741
460.4228, 77.00841
460.9049, 76.53557
461.3870, 76.28911
461.8691, 76.29699
462.3513, 76.53468
462.8334, 77.20596
463.3155, 78.27479
463.7976, 78.73311
464.2797, 77.99712
464.7618, 76.83177
465.2440, 76.12502
465.7261, 75.85889
466.2082, 75.95171
466.6903, 76.58031
467.1724, 77.44262
467.6545, 78.21542
468.1367, 78.86539
468.6188, 79.37344
469.1009, 79.61570
469.5830, 79.73112
470.0651, 80.43356
470.5472, 82.14138
471.0294, 83.81016
471.5115, 85.12179
471.9936, 86.26909
472.4757, 87.46382
472.9578, 88.76755
473.4399, 90.19913
473.9221, 91.78349
474.4042, 93.52816
474.8863, 95.38718
475.3684, 97.73113
475.8505, 99.80265
476.3326, 100.9691
476.8148, 101.7368
477.2969, 102.9629
477.7790, 105.0573
478.2611, 107.7342
478.7432, 110.3970
479.2253, 113.0249
479.7075, 115.6690
480.1896, 118.1694
480.6717, 120.8144
481.1538, 123.9015
481.6359, 127.3243
482.1180, 130.6539
482.6002, 133.6224
483.0823, 136.2720
483.5644, 138.7753
484.0465, 141.1406
484.5286, 143.3037
485.0107, 145.8003
485.4929, 147.7366
485.9750, 147.8912
486.4571, 145.9080
486.9392, 143.3179
487.4213, 141.0232
487.9034, 138.7861
488.3856, 136.2298
488.8677, 133.3303
489.3498, 129.6408
489.8319, 124.4789
490.3140, 117.9651
490.7961, 112.2767
491.2783, 107.7863
491.7604, 103.6655
492.2425, 99.40583
492.7246, 95.25151
493.2067, 91.74955
493.6888, 89.10385
494.1710, 86.81706
494.6531, 84.11791
495.1352, 80.63979
495.6173, 77.95484
496.0994, 76.44881
496.5815, 75.23776
497.0637, 74.03362
497.5458, 72.78416
498.0279, 71.47021
498.5100, 70.07007
498.9921, 68.64784
499.4742, 67.33598
499.9564, 66.14454
500.4385, 65.04731
500.9206, 63.90114
501.4027, 62.94901
501.8848, 62.38982
502.3669, 62.19921
502.8491, 62.19378
503.3312, 62.25866
503.8133, 62.41375
504.2954, 62.84208
504.7775, 63.68275
505.2596, 64.12399
505.7418, 63.64177
506.2239, 62.59919
506.7060, 61.45151
507.1881, 60.13785
507.6702, 59.08439
508.1523, 58.65785
508.6345, 58.57990
509.1166, 58.36742
509.5987, 57.94712
510.0808, 57.56314
510.5629, 57.39073
511.0450, 57.43388
511.5272, 57.67085
512.0093, 58.43115
512.4914, 58.96969
512.9735, 59.01655
513.4556, 58.74099
513.9377, 58.27485
514.4199, 57.69091
514.9020, 57.17678
515.3841, 57.00129
515.8662, 57.23134
516.3483, 57.34079
516.8304, 56.92450
517.3126, 56.82473
517.7947, 57.56834
518.2768, 58.69213
518.7589, 59.50939
519.2410, 59.74145
519.7231, 59.69698
520.2053, 59.80700
520.6874, 60.08437
521.1695, 60.33271
521.6516, 60.57982
522.1337, 60.71682
522.6158, 60.53593
523.0980, 60.18549
523.5801, 60.10980
524.0622, 60.68970
524.5443, 61.38912
525.0264, 61.54697
525.5085, 61.27056
525.9907, 61.22246
526.4728, 61.70130
526.9549, 62.35607
527.4370, 62.64773
527.9191, 62.51834
528.4012, 62.44513
528.8834, 62.34921
529.3655, 62.43163
529.8476, 63.08324
530.3297, 64.05235
530.8118, 64.54935
531.2939, 64.11045
531.7761, 63.19868
532.2582, 63.02492
532.7403, 64.16647
533.2224, 64.99474
533.7045, 65.28633
534.1866, 65.46828
534.6688, 65.93203
535.1509, 66.53153
535.6330, 66.76385
536.1151, 66.23429
536.5972, 65.20344
537.0793, 64.37160
537.5615, 63.81048
538.0436, 63.16445
538.5257, 62.15086
539.0078, 61.16502
539.4899, 60.61419
539.9720, 60.48548
540.4542, 60.32832
540.9363, 59.84314
541.4184, 59.24284
541.9005, 58.85353
542.3826, 58.67655
542.8647, 58.48973
543.3469, 58.15714
543.8290, 57.75981
544.3111, 57.52688
544.7932, 57.57410
545.2753, 57.49188
545.7574, 57.08868
546.2396, 56.62746
546.7217, 56.28556
547.2038, 56.09746
547.6859, 56.07820
548.1680, 56.24675
548.6501, 56.57354
549.1323, 56.94396
549.6144, 57.47905
550.0965, 57.83610
550.5786, 58.00185
551.0607, 57.98841
551.5428, 57.69339
552.0250, 57.18607
552.5071, 56.77104
552.9892, 56.71830
553.4713, 56.90464
553.9534, 57.00365
554.4355, 57.03070
554.9177, 56.86061
555.3998, 56.17720
555.8819, 55.47050
556.3640, 55.46975
556.8461, 56.28584
557.3282, 56.97299
557.8104, 57.00299
558.2925, 56.80762
558.7746, 57.01504
559.2567, 57.58442
559.7388, 57.85707
560.2209, 57.38864
560.7031, 56.41983
561.1852, 55.71637
561.6673, 55.26031
562.1494, 55.11758
562.6315, 55.64238
563.1136, 56.20503
563.5958, 56.36275
564.0779, 56.11981
564.5600, 55.65577
565.0421, 55.03219
565.5242, 54.39500
566.0063, 54.35445
566.4885, 55.26973
566.9706, 55.73091
567.4527, 54.88456
567.9348, 53.85510
568.4169, 53.35756
568.8990, 53.40894
569.3812, 53.71696
569.8633, 54.29996
570.3454, 54.96222
570.8275, 55.47540
571.3096, 55.82915
571.7917, 55.91123
572.2739, 55.62000
572.7560, 55.11766
573.2381, 54.66181
573.7202, 54.21894
574.2023, 53.93821
574.6844, 53.88765
575.1666, 53.95536
575.6487, 54.04348
576.1308, 54.18463
576.6129, 54.53394
577.0950, 55.18846
577.5771, 55.92532
578.0593, 56.24007
578.5414, 56.00486
579.0235, 55.69410
579.5056, 55.14854
579.9877, 54.69987
580.4698, 54.44965
580.9520, 54.41951
581.4341, 54.68172
581.9162, 55.40295
582.3983, 56.14695
582.8804, 56.25269
583.3625, 55.77968
583.8447, 55.34420
584.3268, 55.06550
584.8089, 54.91731
585.2910, 54.97307
585.7731, 55.19545
586.2552, 55.18110
586.7374, 54.50217
587.2195, 53.99001
587.7016, 54.35851
588.1837, 55.11510
