##NAMES=Conichalcite
##RRUFFID=R050028
##IDEAL CHEMISTRY=CaCu^2+^As^5+^O_4_(OH)
##LOCALITY=Mapimi, Durango, Mexico
##OWNER=RRUFF
##SOURCE=Eugene Schlepp
##DESCRIPTION=Green botryoidal groups covering adamite
##STATUS=The identification of this mineral has been confirmed by X-ray diffraction and chemical analysis
##URL=rruff.info/R050028
##MEASURED CHEMISTRY=Ca_1.00_(Cu_0.70_Zn_0.30_)_Î£=1_(As_1.00_O_4_)(OH)
137.6089, 2380.061
138.0910, 2455.262
138.5731, 2524.785
139.0553, 2590.687
139.5374, 2644.439
140.0195, 2681.675
140.5016, 2706.852
140.9837, 2735.442
141.4658, 2768.262
141.9480, 2803.655
142.4301, 2840.010
142.9122, 2876.020
143.3943, 2915.788
143.8764, 2961.750
144.3585, 3013.333
144.8407, 3061.677
145.3228, 3102.755
145.8049, 3143.343
146.2870, 3189.872
146.7691, 3249.530
147.2512, 3304.820
147.7334, 3348.689
148.2155, 3376.115
148.6976, 3416.795
149.1797, 3479.881
149.6618, 3553.780
150.1439, 3622.546
150.6261, 3671.172
151.1082, 3727.348
151.5903, 3801.203
152.0724, 3907.947
152.5545, 3998.121
153.0366, 4051.442
153.5188, 4085.977
154.0009, 4137.014
154.4830, 4229.728
154.9651, 4325.499
155.4472, 4407.791
155.9293, 4465.645
156.4115, 4522.613
156.8936, 4587.024
157.3757, 4655.270
157.8578, 4715.906
158.3399, 4766.333
158.8221, 4807.574
159.3042, 4840.785
159.7863, 4859.006
160.2684, 4876.248
160.7505, 4901.441
161.2326, 4932.644
161.7148, 4952.929
162.1969, 4952.845
162.6790, 4939.310
163.1611, 4919.120
163.6432, 4894.127
164.1253, 4863.280
164.6075, 4821.656
165.0896, 4768.923
165.5717, 4721.806
166.0538, 4688.700
166.5359, 4667.291
167.0180, 4654.008
167.5002, 4655.377
167.9823, 4659.151
168.4644, 4654.641
168.9465, 4639.828
169.4286, 4625.335
169.9107, 4618.920
170.3929, 4618.586
170.8750, 4619.967
171.3571, 4616.519
171.8392, 4615.520
172.3213, 4626.159
172.8034, 4651.479
173.2856, 4681.817
173.7677, 4710.394
174.2498, 4737.200
174.7319, 4761.706
175.2140, 4784.509
175.6961, 4804.676
176.1783, 4819.306
176.6604, 4824.617
177.1425, 4829.800
177.6246, 4849.340
178.1067, 4880.901
178.5888, 4910.627
179.0710, 4929.349
179.5531, 4938.511
180.0352, 4940.008
180.5173, 4931.835
180.9994, 4918.689
181.4815, 4907.895
181.9637, 4899.310
182.4458, 4891.503
182.9279, 4885.542
183.4100, 4879.905
183.8921, 4868.370
184.3742, 4845.828
184.8564, 4817.677
185.3385, 4798.343
185.8206, 4788.275
186.3027, 4779.538
186.7848, 4757.655
187.2669, 4725.979
187.7491, 4709.472
188.2312, 4725.269
188.7133, 4763.282
189.1954, 4785.121
189.6775, 4788.372
190.1596, 4785.534
190.6418, 4789.486
191.1239, 4800.249
191.6060, 4817.751
192.0881, 4845.927
192.5702, 4882.987
193.0524, 4911.129
193.5345, 4927.440
194.0166, 4942.208
194.4987, 4968.910
194.9808, 5007.557
195.4629, 5058.276
195.9451, 5126.749
196.4272, 5213.294
196.9093, 5286.535
197.3914, 5343.034
197.8735, 5390.099
198.3556, 5438.169
198.8378, 5485.715
199.3199, 5542.568
199.8020, 5616.893
200.2841, 5709.327
200.7662, 5800.445
201.2483, 5890.062
201.7305, 5976.897
202.2126, 6054.488
202.6947, 6118.847
203.1768, 6188.848
203.6589, 6281.615
204.1410, 6401.560
204.6232, 6506.768
205.1053, 6592.020
205.5874, 6660.816
206.0695, 6725.842
206.5516, 6789.736
207.0337, 6842.929
207.5159, 6878.472
207.9980, 6894.179
208.4801, 6899.847
208.9622, 6896.881
209.4443, 6884.748
209.9264, 6861.050
210.4086, 6826.092
210.8907, 6778.707
211.3728, 6714.951
211.8549, 6627.294
212.3370, 6547.558
212.8191, 6481.969
213.3013, 6429.016
213.7834, 6370.543
214.2655, 6304.243
214.7476, 6235.854
215.2297, 6169.702
215.7118, 6102.687
216.1940, 6045.401
216.6761, 6003.567
217.1582, 5975.944
217.6403, 5938.219
218.1224, 5888.238
218.6045, 5831.666
219.0867, 5773.214
219.5688, 5712.553
220.0509, 5651.789
220.5330, 5593.042
221.0151, 5535.638
221.4972, 5475.366
221.9794, 5408.184
222.4615, 5342.062
222.9436, 5285.733
223.4257, 5244.716
223.9078, 5201.258
224.3899, 5149.862
224.8721, 5088.497
225.3542, 5037.441
225.8363, 5000.181
226.3184, 4969.491
226.8005, 4936.392
227.2827, 4900.374
227.7648, 4863.123
228.2469, 4823.445
228.7290, 4780.128
229.2111, 4745.586
229.6932, 4725.177
230.1754, 4709.608
230.6575, 4685.567
231.1396, 4646.698
231.6217, 4611.116
232.1038, 4586.494
232.5859, 4577.375
233.0681, 4552.876
233.5502, 4500.822
234.0323, 4442.258
234.5144, 4408.420
234.9965, 4412.051
235.4786, 4419.474
235.9608, 4420.950
236.4429, 4415.018
236.9250, 4409.748
237.4071, 4404.531
237.8892, 4400.403
238.3713, 4399.121
238.8535, 4401.586
239.3356, 4405.388
239.8177, 4409.742
240.2998, 4414.469
240.7819, 4421.230
241.2640, 4434.452
241.7462, 4447.246
242.2283, 4446.041
242.7104, 4419.416
243.1925, 4397.625
243.6746, 4391.854
244.1567, 4407.602
244.6389, 4420.982
245.1210, 4432.253
245.6031, 4441.001
246.0852, 4445.092
246.5673, 4438.503
247.0494, 4437.681
247.5316, 4451.457
248.0137, 4488.788
248.4958, 4509.364
248.9779, 4505.474
249.4600, 4489.027
249.9421, 4481.680
250.4243, 4484.835
250.9064, 4494.475
251.3885, 4510.510
251.8706, 4536.100
252.3527, 4557.857
252.8348, 4575.439
253.3170, 4589.392
253.7991, 4599.578
254.2812, 4602.356
254.7633, 4608.162
255.2454, 4622.026
255.7275, 4646.963
256.2097, 4668.048
256.6918, 4683.271
257.1739, 4695.790
257.6560, 4712.368
258.1381, 4736.134
258.6202, 4757.496
259.1024, 4771.024
259.5845, 4772.281
260.0666, 4784.568
260.5487, 4812.956
261.0308, 4848.508
261.5129, 4875.420
261.9951, 4890.093
262.4772, 4904.148
262.9593, 4921.639
263.4414, 4943.102
263.9235, 4966.602
264.4056, 4993.728
264.8878, 5021.690
265.3699, 5045.913
265.8520, 5065.552
266.3341, 5084.418
266.8162, 5103.616
267.2983, 5122.568
267.7805, 5145.164
268.2626, 5173.185
268.7447, 5202.661
269.2268, 5225.117
269.7089, 5237.521
270.1910, 5253.729
270.6732, 5281.208
271.1553, 5321.502
271.6374, 5357.711
272.1195, 5391.091
272.6016, 5418.597
273.0837, 5431.192
273.5659, 5425.513
274.0480, 5422.447
274.5301, 5430.677
275.0122, 5450.556
275.4943, 5472.448
275.9764, 5498.099
276.4586, 5522.470
276.9407, 5537.501
277.4228, 5542.344
277.9049, 5543.844
278.3870, 5543.698
278.8691, 5541.991
279.3513, 5540.764
279.8334, 5540.107
280.3155, 5539.697
280.7976, 5539.053
281.2798, 5538.167
281.7619, 5537.472
282.2440, 5537.715
282.7261, 5538.542
283.2082, 5536.781
283.6903, 5531.938
284.1725, 5526.314
284.6546, 5523.701
285.1367, 5523.924
285.6188, 5521.667
286.1009, 5513.854
286.5830, 5501.926
287.0652, 5491.909
287.5473, 5483.991
288.0294, 5477.407
288.5115, 5472.083
288.9936, 5467.758
289.4757, 5462.920
289.9579, 5460.580
290.4400, 5456.512
290.9221, 5433.677
291.4042, 5390.454
291.8863, 5348.740
292.3684, 5333.736
292.8506, 5340.354
293.3327, 5346.133
293.8148, 5343.078
294.2969, 5335.389
294.7790, 5330.957
295.2611, 5329.778
295.7433, 5330.075
296.2254, 5332.151
296.7075, 5334.669
297.1896, 5332.866
297.6717, 5318.635
298.1538, 5305.170
298.6360, 5313.062
299.1181, 5341.490
299.6002, 5379.813
300.0823, 5426.268
300.5644, 5476.447
301.0465, 5523.058
301.5287, 5566.645
302.0108, 5602.789
302.4929, 5619.544
302.9750, 5620.561
303.4571, 5625.813
303.9392, 5640.983
304.4214, 5670.832
304.9035, 5725.007
305.3856, 5814.656
305.8677, 5913.048
306.3498, 5992.263
306.8319, 6058.066
307.3141, 6132.762
307.7962, 6228.218
308.2783, 6338.353
308.7604, 6461.071
309.2425, 6599.011
309.7246, 6737.207
310.2068, 6861.038
310.6889, 6977.450
311.1710, 7105.745
311.6531, 7263.093
312.1352, 7431.305
312.6173, 7594.850
313.0995, 7745.937
313.5816, 7902.471
314.0637, 8074.385
314.5458, 8258.277
315.0279, 8448.984
315.5100, 8645.357
315.9922, 8847.398
316.4743, 9055.993
316.9564, 9272.390
317.4385, 9490.561
317.9206, 9713.997
318.4027, 9936.778
318.8849, 10150.62
319.3670, 10358.75
319.8491, 10552.78
320.3312, 10726.30
320.8133, 10876.45
321.2954, 11024.57
321.7776, 11207.40
322.2597, 11379.05
322.7418, 11490.65
323.2239, 11500.52
323.7060, 11484.28
324.1881, 11462.25
324.6703, 11437.30
325.1524, 11377.22
325.6345, 11259.35
326.1166, 11116.89
326.5987, 10975.58
327.0808, 10850.40
327.5630, 10708.98
328.0451, 10539.61
328.5272, 10344.10
329.0093, 10159.77
329.4914, 9986.418
329.9735, 9828.556
330.4557, 9692.274
330.9378, 9595.888
331.4199, 9488.297
331.9020, 9359.337
332.3841, 9214.658
332.8662, 9080.849
333.3484, 8959.116
333.8305, 8848.400
334.3126, 8749.792
334.7947, 8671.240
335.2768, 8581.829
335.7589, 8473.425
336.2411, 8357.169
336.7232, 8260.141
337.2053, 8188.725
337.6874, 8119.916
338.1695, 8039.095
338.6516, 7943.997
339.1338, 7865.068
339.6159, 7808.893
340.0980, 7760.436
340.5801, 7692.771
341.0622, 7602.479
341.5443, 7516.939
342.0265, 7447.937
342.5086, 7394.109
342.9907, 7334.165
343.4728, 7265.991
343.9549, 7201.991
344.4370, 7162.652
344.9192, 7145.636
345.4013, 7126.778
345.8834, 7096.430
346.3655, 7058.830
346.8476, 7023.374
347.3297, 6989.938
347.8119, 6964.944
348.2940, 6961.816
348.7761, 6973.250
349.2582, 6976.651
349.7403, 6960.211
350.2225, 6938.413
350.7046, 6931.291
351.1867, 6937.837
351.6688, 6950.782
352.1509, 6975.784
352.6331, 7001.064
353.1152, 7005.835
353.5973, 6975.292
354.0794, 6942.421
354.5615, 6941.646
355.0436, 6963.839
355.5258, 6981.218
356.0079, 6977.683
356.4900, 6963.119
356.9721, 6943.621
357.4542, 6916.962
357.9363, 6896.104
358.4185, 6902.155
358.9006, 6917.479
359.3827, 6911.563
359.8648, 6855.115
360.3469, 6788.150
360.8290, 6729.647
361.3112, 6681.479
361.7933, 6639.152
362.2754, 6601.066
362.7575, 6567.716
363.2396, 6539.521
363.7217, 6517.391
364.2039, 6500.008
364.6860, 6491.618
365.1681, 6492.245
365.6502, 6482.312
366.1323, 6443.253
366.6144, 6402.753
367.0966, 6379.920
367.5787, 6392.514
368.0608, 6402.201
368.5429, 6410.721
369.0250, 6415.747
369.5071, 6404.203
369.9893, 6360.808
370.4714, 6318.704
370.9535, 6294.786
371.4356, 6298.869
371.9177, 6299.417
372.3998, 6295.482
372.8820, 6288.068
373.3641, 6280.371
373.8462, 6274.762
374.3283, 6262.698
374.8104, 6238.058
375.2925, 6198.818
375.7747, 6169.301
376.2568, 6151.577
376.7389, 6138.971
377.2210, 6122.725
377.7031, 6102.547
378.1852, 6082.938
378.6674, 6064.312
379.1495, 6047.368
379.6316, 6035.886
380.1137, 6030.618
380.5958, 6024.869
381.0779, 6009.677
381.5601, 5987.493
382.0422, 5972.202
382.5243, 5969.043
383.0064, 5971.023
383.4885, 5966.361
383.9706, 5955.753
384.4528, 5944.667
384.9349, 5936.701
385.4170, 5930.648
385.8991, 5924.476
386.3812, 5917.950
386.8633, 5910.865
387.3455, 5899.727
387.8276, 5887.716
388.3097, 5882.000
388.7918, 5890.950
389.2739, 5904.715
389.7560, 5918.701
390.2382, 5933.424
390.7203, 5937.653
391.2024, 5912.553
391.6845, 5878.001
392.1666, 5856.619
392.6487, 5867.962
393.1309, 5882.796
393.6130, 5891.911
394.0951, 5895.118
394.5772, 5892.729
395.0593, 5879.849
395.5414, 5864.547
396.0236, 5851.981
396.5057, 5843.510
396.9878, 5836.989
397.4699, 5831.235
397.9520, 5827.222
398.4341, 5828.119
398.9163, 5839.436
399.3984, 5849.948
399.8805, 5855.258
400.3626, 5853.059
400.8447, 5852.323
401.3268, 5852.372
401.8090, 5854.393
402.2911, 5860.143
402.7732, 5869.903
403.2553, 5882.486
403.7374, 5897.572
404.2195, 5915.181
404.7017, 5937.078
405.1838, 5965.542
405.6659, 5992.350
406.1480, 6005.857
406.6301, 6005.746
407.1122, 6017.555
407.5944, 6048.401
408.0765, 6091.316
408.5586, 6130.619
409.0407, 6166.507
409.5228, 6200.151
410.0049, 6228.341
410.4871, 6254.443
410.9692, 6288.825
411.4513, 6333.304
411.9334, 6383.474
412.4155, 6440.395
412.8976, 6500.729
413.3798, 6552.766
413.8619, 6574.618
414.3440, 6596.095
414.8261, 6657.771
415.3082, 6760.405
415.7903, 6855.854
416.2725, 6898.743
416.7546, 6922.918
417.2367, 6968.076
417.7188, 7063.802
418.2009, 7162.840
418.6830, 7240.217
419.1652, 7302.148
419.6473, 7368.408
420.1294, 7447.128
420.6115, 7531.407
421.0937, 7619.737
421.5758, 7713.644
422.0579, 7804.118
422.5400, 7889.711
423.0221, 7971.408
423.5042, 8052.596
423.9864, 8131.256
424.4685, 8211.037
424.9506, 8297.393
425.4327, 8390.928
425.9148, 8466.920
426.3969, 8513.735
426.8791, 8556.237
427.3612, 8616.059
427.8433, 8698.262
428.3254, 8782.590
428.8075, 8870.563
429.2896, 8956.848
429.7718, 9020.925
430.2539, 9061.312
430.7360, 9088.829
431.2181, 9104.726
431.7002, 9110.094
432.1823, 9123.091
432.6645, 9147.062
433.1466, 9170.543
433.6287, 9179.758
434.1108, 9175.257
434.5929, 9158.791
435.0750, 9125.401
435.5572, 9082.988
436.0393, 9047.769
436.5214, 9019.136
437.0035, 8984.075
437.4856, 8934.278
437.9677, 8871.578
438.4499, 8797.209
438.9320, 8705.277
439.4141, 8612.343
439.8962, 8527.644
440.3783, 8451.274
440.8604, 8380.974
441.3426, 8309.295
441.8247, 8249.338
442.3068, 8213.017
442.7889, 8207.303
443.2710, 8197.629
443.7531, 8175.582
444.2353, 8144.619
444.7174, 8108.167
445.1995, 8035.050
445.6816, 7991.736
446.1637, 8004.759
446.6458, 8067.196
447.1280, 8106.633
447.6101, 8109.002
448.0922, 8103.895
448.5743, 8105.986
449.0564, 8113.878
449.5385, 8134.665
450.0207, 8174.832
450.5028, 8222.081
450.9849, 8250.092
451.4670, 8253.979
451.9491, 8262.376
452.4312, 8289.972
452.9134, 8333.088
453.3955, 8361.148
453.8776, 8372.063
454.3597, 8382.181
454.8418, 8412.913
455.3239, 8458.023
455.8061, 8488.554
456.2882, 8492.255
456.7703, 8488.054
457.2524, 8501.897
457.7345, 8531.213
458.2166, 8566.076
458.6988, 8596.742
459.1809, 8631.599
459.6630, 8682.604
460.1451, 8753.844
460.6272, 8823.527
461.1093, 8874.899
461.5915, 8917.370
462.0736, 8961.579
462.5557, 9008.942
463.0378, 9060.781
463.5199, 9115.450
464.0020, 9173.499
464.4842, 9241.234
464.9663, 9337.564
465.4484, 9430.271
465.9305, 9501.704
466.4126, 9535.089
466.8947, 9577.594
467.3769, 9638.883
467.8590, 9704.882
468.3411, 9753.701
468.8232, 9782.918
469.3053, 9798.599
469.7874, 9799.993
470.2696, 9787.827
470.7517, 9773.947
471.2338, 9756.631
471.7159, 9742.965
472.1980, 9745.287
472.6801, 9762.834
473.1623, 9760.658
473.6444, 9728.214
474.1265, 9685.053
474.6086, 9671.396
475.0907, 9681.579
475.5728, 9678.939
476.0550, 9632.607
476.5371, 9564.898
477.0192, 9512.563
477.5013, 9476.707
477.9834, 9444.983
478.4655, 9409.008
478.9477, 9370.941
479.4298, 9334.407
479.9119, 9304.361
480.3940, 9270.566
480.8761, 9225.359
481.3582, 9172.031
481.8404, 9120.554
482.3225, 9077.646
482.8046, 9034.494
483.2867, 8988.633
483.7688, 8942.906
484.2509, 8883.827
484.7331, 8800.333
485.2152, 8708.272
485.6973, 8620.222
486.1794, 8537.359
486.6615, 8456.426
487.1436, 8377.496
487.6258, 8299.783
488.1079, 8219.528
488.5900, 8137.378
489.0721, 8052.079
489.5542, 7960.742
490.0363, 7862.862
490.5185, 7773.190
491.0006, 7693.979
491.4827, 7619.230
491.9648, 7542.581
492.4470, 7464.466
492.9291, 7387.835
493.4112, 7310.961
493.8933, 7240.199
494.3754, 7194.103
494.8575, 7168.339
495.3397, 7138.433
495.8218, 7082.052
496.3039, 7015.401
496.7860, 6955.807
497.2681, 6904.798
497.7502, 6861.388
498.2324, 6825.537
498.7145, 6796.464
499.1966, 6772.425
499.6787, 6760.775
500.1608, 6746.504
500.6429, 6722.478
501.1251, 6689.511
501.6072, 6662.078
502.0893, 6646.987
502.5714, 6632.121
503.0535, 6610.561
503.5356, 6574.423
504.0178, 6551.775
504.4999, 6549.812
504.9820, 6554.985
505.4641, 6544.006
505.9462, 6512.479
506.4283, 6488.091
506.9105, 6480.559
507.3926, 6485.979
507.8747, 6488.115
508.3568, 6486.622
508.8389, 6488.621
509.3210, 6506.354
509.8032, 6531.703
510.2853, 6538.609
510.7674, 6519.552
511.2495, 6500.387
511.7316, 6511.687
512.2137, 6542.334
512.6959, 6569.466
513.1780, 6584.328
513.6601, 6592.077
514.1422, 6592.457
514.6243, 6586.947
515.1064, 6585.070
515.5886, 6595.147
516.0707, 6606.804
516.5528, 6612.726
517.0349, 6605.714
517.5170, 6606.205
517.9991, 6620.044
518.4813, 6640.899
518.9634, 6661.263
519.4455, 6681.968
519.9276, 6700.764
520.4097, 6717.349
520.8918, 6731.516
521.3740, 6741.294
521.8561, 6743.110
522.3382, 6752.376
522.8203, 6788.929
523.3024, 6849.484
523.7845, 6879.756
524.2667, 6873.314
524.7488, 6849.783
525.2309, 6820.366
525.7130, 6791.473
526.1951, 6787.413
526.6772, 6836.054
527.1594, 6894.915
527.6415, 6912.113
528.1236, 6894.452
528.6057, 6871.917
529.0878, 6861.529
529.5699, 6852.918
530.0521, 6839.435
530.5342, 6820.554
531.0163, 6794.721
531.4984, 6751.877
531.9805, 6705.670
532.4626, 6670.412
532.9448, 6661.952
533.4269, 6648.007
533.9090, 6626.861
534.3911, 6597.834
534.8732, 6557.642
535.3553, 6498.541
535.8375, 6441.898
536.3196, 6400.255
536.8017, 6374.295
537.2838, 6334.191
537.7659, 6274.704
538.2480, 6217.124
538.7302, 6186.166
539.2123, 6178.633
539.6944, 6175.163
540.1765, 6173.163
540.6586, 6170.424
541.1407, 6165.298
541.6229, 6157.071
542.1050, 6143.205
542.5871, 6113.408
543.0692, 6083.181
543.5513, 6070.725
544.0334, 6076.854
544.5156, 6077.440
544.9977, 6051.740
545.4798, 6021.283
545.9619, 6003.423
546.4440, 6007.930
546.9261, 6015.419
547.4083, 6026.845
547.8904, 6038.968
548.3725, 6045.942
548.8546, 6047.207
549.3367, 6044.157
549.8188, 6035.693
550.3010, 6022.477
550.7831, 6011.669
551.2652, 6002.804
551.7473, 5997.905
552.2294, 5999.601
552.7115, 6007.300
553.1937, 6015.451
553.6758, 6023.774
554.1579, 6031.873
554.6400, 6043.258
555.1221, 6054.447
555.6042, 6055.067
556.0864, 6036.120
556.5685, 6010.417
557.0506, 5981.784
557.5327, 5954.571
558.0148, 5945.720
558.4969, 5981.612
558.9791, 6024.840
559.4612, 6054.291
559.9433, 6067.369
560.4254, 6068.227
560.9075, 6038.349
561.3896, 6007.467
561.8718, 6002.661
562.3539, 6051.809
562.8360, 6078.251
563.3181, 6065.424
563.8002, 6031.551
564.2823, 6022.466
564.7645, 6043.742
565.2466, 6065.187
565.7287, 6074.977
566.2108, 6075.128
566.6929, 6076.647
567.1750, 6079.849
567.6572, 6076.974
568.1393, 6046.727
568.6214, 6008.196
569.1035, 6007.428
569.5856, 6060.772
570.0677, 6114.264
570.5499, 6115.819
571.0320, 6089.833
571.5141, 6075.007
571.9962, 6099.698
572.4783, 6124.101
572.9604, 6136.979
573.4426, 6137.423
573.9247, 6122.294
574.4068, 6061.637
574.8889, 6012.591
575.3710, 6001.267
575.8531, 6037.418
576.3353, 6060.068
576.8174, 6064.835
577.2995, 6062.269
577.7816, 6062.608
578.2637, 6066.471
578.7458, 6064.682
579.2280, 6052.317
579.7101, 6040.338
580.1922, 6056.200
580.6743, 6093.881
581.1564, 6119.363
581.6385, 6104.903
582.1207, 6075.783
582.6028, 6065.014
583.0849, 6070.925
583.5670, 6079.562
584.0491, 6087.232
584.5313, 6091.463
585.0134, 6088.487
585.4955, 6073.719
585.9776, 6065.057
586.4597, 6074.610
586.9418, 6089.472
587.4240, 6094.604
587.9061, 6080.450
588.3882, 6070.655
588.8703, 6066.769
589.3524, 6069.115
589.8345, 6081.098
590.3167, 6106.350
590.7988, 6127.153
591.2809, 6132.421
591.7630, 6126.261
592.2451, 6132.488
592.7272, 6151.742
593.2094, 6167.760
593.6915, 6165.341
594.1736, 6150.402
594.6557, 6131.757
595.1378, 6108.957
595.6199, 6092.140
596.1021, 6087.881
596.5842, 6094.813
597.0663, 6111.062
597.5485, 6157.080
598.0306, 6189.802
598.5127, 6187.720
598.9948, 6158.775
599.4769, 6137.896
599.9590, 6129.431
600.4412, 6126.346
600.9233, 6126.999
601.4054, 6131.500
601.8875, 6138.824
602.3696, 6150.729
602.8517, 6160.988
603.3339, 6161.344
603.8160, 6152.986
604.2981, 6152.604
604.7802, 6163.267
605.2623, 6177.923
605.7444, 6188.940
606.2266, 6196.726
606.7087, 6201.878
607.1908, 6204.180
607.6729, 6204.600
608.1550, 6202.847
608.6371, 6199.680
609.1193, 6197.498
609.6014, 6200.430
610.0835, 6201.853
610.5656, 6197.315
611.0477, 6185.343
611.5298, 6176.563
612.0120, 6163.314
612.4941, 6161.227
612.9762, 6186.478
613.4583, 6254.521
613.9404, 6290.770
614.4225, 6283.579
614.9047, 6258.844
615.3868, 6255.397
615.8689, 6271.252
616.3510, 6279.834
616.8331, 6269.954
617.3152, 6253.352
617.7974, 6248.550
618.2795, 6253.009
618.7616, 6256.527
619.2437, 6251.271
619.7258, 6244.605
620.2079, 6241.251
620.6901, 6241.549
621.1722, 6245.345
621.6543, 6257.708
622.1364, 6269.993
622.6185, 6276.062
623.1006, 6271.987
623.5828, 6270.050
624.0649, 6272.048
624.5470, 6274.536
625.0291, 6273.230
625.5112, 6267.562
625.9933, 6259.952
626.4755, 6248.086
626.9576, 6238.337
627.4397, 6247.163
627.9218, 6272.441
628.4039, 6297.977
628.8860, 6319.183
629.3682, 6334.325
629.8503, 6336.149
630.3324, 6326.875
630.8145, 6322.884
631.2966, 6345.416
631.7787, 6368.523
632.2609, 6369.087
632.7430, 6334.313
633.2251, 6316.248
633.7072, 6346.874
634.1893, 6384.870
