##NAMES=Connellite
##RRUFFID=R060503
##IDEAL CHEMISTRY=Cu^2+^_36_(S^6+^O_4_)(OH)_62_Cl_8_&#183;6H_2_O
##LOCALITY=Shattuck mine, Bisbee, Cochise County, Arizona, USA
##OWNER=RRUFF
##SOURCE=University of Arizona Mineral Museum
##DESCRIPTION=Blue thin prismatic crystals
##STATUS=The identification of this mineral is confirmed by single-crystal X-ray diffraction and chemical analysis.
##URL=rruff.info/R060503
##MEASURED CHEMISTRY=Cu_33.68_(SO_4_)_1.83_(OH)_62_Cl_7.55_Â·6H_2_O
103.685, 825.459
104.167, 938.713
104.649, 1070.192
105.131, 1238.036
105.613, 1392.596
106.095, 1526.720
106.577, 1638.634
107.060, 1741.797
107.542, 1835.820
108.024, 1922.193
108.506, 2004.333
108.988, 2071.740
109.470, 2143.938
109.952, 2226.150
110.434, 2324.417
110.916, 2420.725
111.399, 2499.770
111.881, 2574.607
112.363, 2679.677
112.845, 2838.202
113.327, 3015.167
113.809, 3192.111
114.291, 3369.512
114.773, 3546.429
115.256, 3727.325
115.738, 3910.301
116.220, 4077.701
116.702, 4219.985
117.184, 4343.752
117.666, 4455.358
118.148, 4546.807
118.630, 4634.560
119.113, 4722.007
119.595, 4808.319
120.077, 4904.880
120.559, 5035.117
121.041, 5180.174
121.523, 5304.181
122.005, 5381.272
122.487, 5432.335
122.969, 5475.121
123.451, 5509.738
123.934, 5543.125
124.416, 5574.237
124.898, 5606.099
125.380, 5653.648
125.862, 5742.223
126.344, 5852.572
126.826, 5946.517
127.308, 5995.447
127.791, 6033.488
128.273, 6123.474
128.755, 6266.993
129.237, 6414.020
129.719, 6520.790
130.201, 6589.940
130.683, 6634.792
131.165, 6651.037
131.648, 6645.045
132.130, 6642.260
132.612, 6644.497
133.094, 6645.013
133.576, 6629.872
134.058, 6598.403
134.540, 6568.843
135.022, 6555.437
135.504, 6558.143
135.986, 6548.737
136.469, 6521.031
136.951, 6482.313
137.433, 6460.871
137.915, 6465.437
138.397, 6458.479
138.879, 6402.588
139.361, 6282.542
139.844, 6182.485
140.326, 6122.601
140.808, 6099.407
141.290, 6061.356
141.772, 5999.227
142.254, 5933.875
142.736, 5890.230
143.218, 5876.974
143.700, 5867.222
144.182, 5854.110
144.665, 5836.619
145.147, 5820.590
145.629, 5809.929
146.111, 5798.846
146.593, 5777.314
147.075, 5743.748
147.557, 5700.579
148.040, 5648.157
148.522, 5582.051
149.004, 5513.580
149.486, 5435.808
149.968, 5353.584
150.450, 5286.244
150.932, 5246.042
151.414, 5211.865
151.896, 5173.991
152.378, 5124.296
152.861, 5079.465
153.343, 5049.183
153.825, 5032.202
154.307, 4997.042
154.789, 4917.925
155.271, 4830.762
155.753, 4762.985
156.235, 4730.455
156.718, 4709.027
157.200, 4696.107
157.682, 4693.006
158.164, 4685.567
158.646, 4667.479
159.128, 4643.350
159.610, 4619.195
160.092, 4600.787
160.574, 4579.427
161.057, 4549.914
161.539, 4507.981
162.021, 4466.278
162.503, 4429.084
162.985, 4395.372
163.467, 4363.046
163.949, 4331.973
164.431, 4301.560
164.913, 4271.595
165.396, 4244.760
165.878, 4214.481
166.360, 4173.260
166.842, 4124.188
167.324, 4079.742
167.806, 4046.401
168.288, 4021.588
168.770, 4002.332
169.253, 3985.424
169.735, 3975.577
170.217, 3978.396
170.699, 3993.435
171.181, 4012.308
171.663, 4035.744
172.145, 4058.223
172.627, 4071.835
173.109, 4056.648
173.592, 4039.312
174.074, 4051.587
174.556, 4096.428
175.038, 4148.590
175.520, 4186.270
176.002, 4214.022
176.484, 4242.457
176.966, 4278.091
177.449, 4317.890
177.931, 4359.479
178.413, 4405.323
178.895, 4444.347
179.377, 4452.369
179.859, 4437.066
180.341, 4433.414
180.823, 4478.301
181.305, 4550.118
181.788, 4596.558
182.270, 4603.226
182.752, 4594.015
183.234, 4606.416
183.716, 4639.229
184.198, 4673.972
184.680, 4692.998
185.162, 4701.383
185.645, 4720.792
186.127, 4761.071
186.609, 4811.086
187.091, 4843.886
187.573, 4858.723
188.055, 4869.457
188.537, 4895.937
189.019, 4933.975
189.501, 4952.457
189.984, 4943.236
190.466, 4907.646
190.948, 4850.943
191.430, 4772.858
191.912, 4672.693
192.394, 4539.427
192.876, 4375.948
193.358, 4215.650
193.840, 4073.822
194.323, 3948.907
194.805, 3820.822
195.287, 3687.821
195.769, 3558.134
196.251, 3442.516
196.733, 3341.037
197.215, 3252.782
197.697, 3180.306
198.180, 3123.646
198.662, 3068.190
199.144, 3012.056
199.626, 2959.581
200.108, 2919.886
200.590, 2894.990
201.072, 2873.528
201.554, 2847.847
202.036, 2816.885
202.519, 2794.376
203.001, 2784.140
203.483, 2780.621
203.965, 2767.028
204.447, 2739.933
204.929, 2713.386
205.411, 2697.558
205.893, 2694.068
206.376, 2690.943
206.858, 2688.120
207.340, 2684.430
207.822, 2673.360
208.304, 2651.949
208.786, 2629.897
209.268, 2616.058
209.750, 2613.201
210.232, 2607.280
210.715, 2594.447
211.197, 2576.030
211.679, 2565.779
212.161, 2569.038
212.643, 2571.724
213.125, 2557.011
213.607, 2514.890
214.089, 2486.993
214.572, 2487.412
215.054, 2515.923
215.536, 2527.750
216.018, 2514.367
216.500, 2494.728
216.982, 2493.575
217.464, 2523.820
217.946, 2539.875
218.428, 2522.519
218.911, 2464.936
219.393, 2438.482
219.875, 2455.385
220.357, 2491.621
220.839, 2513.655
221.321, 2517.006
221.803, 2515.497
222.285, 2512.175
222.768, 2506.067
223.250, 2503.331
223.732, 2506.274
224.214, 2511.174
224.696, 2510.128
225.178, 2495.976
225.660, 2488.804
226.142, 2498.659
226.624, 2535.686
227.107, 2557.678
227.589, 2559.510
228.071, 2548.526
228.553, 2539.815
229.035, 2531.620
229.517, 2528.179
229.999, 2533.241
230.481, 2556.554
230.964, 2564.303
231.446, 2548.607
231.928, 2519.020
232.410, 2503.952
232.892, 2513.964
233.374, 2523.330
233.856, 2517.406
234.338, 2481.511
234.820, 2463.595
235.303, 2472.499
235.785, 2500.313
236.267, 2518.172
236.749, 2525.975
237.231, 2524.053
237.713, 2509.775
238.195, 2469.113
238.677, 2446.503
239.160, 2453.611
239.642, 2482.364
240.124, 2490.167
240.606, 2458.376
241.088, 2429.221
241.570, 2431.605
242.052, 2489.796
242.534, 2529.701
243.016, 2538.905
243.499, 2522.307
243.981, 2513.453
244.463, 2514.438
244.945, 2520.541
245.427, 2528.622
245.909, 2538.056
246.391, 2550.454
246.873, 2567.191
247.355, 2587.701
247.838, 2604.805
248.320, 2615.038
248.802, 2626.065
249.284, 2644.568
249.766, 2675.172
250.248, 2703.531
250.730, 2730.094
251.212, 2754.441
251.695, 2764.502
252.177, 2750.909
252.659, 2734.818
253.141, 2735.474
253.623, 2763.193
254.105, 2785.329
254.587, 2795.472
255.069, 2794.201
255.551, 2797.771
256.034, 2815.209
256.516, 2826.430
256.998, 2808.913
257.480, 2744.309
257.962, 2694.326
258.444, 2676.283
258.926, 2689.053
259.408, 2678.665
259.891, 2634.362
260.373, 2580.897
260.855, 2542.413
261.337, 2524.439
261.819, 2508.493
262.301, 2493.632
262.783, 2479.493
263.265, 2451.203
263.747, 2399.910
264.229, 2346.616
264.712, 2314.169
265.194, 2310.774
265.676, 2304.781
266.158, 2288.264
266.640, 2261.405
267.122, 2237.386
267.604, 2214.338
268.086, 2197.311
268.569, 2195.745
269.051, 2216.759
269.533, 2228.208
270.015, 2221.513
270.497, 2197.263
270.979, 2167.103
271.461, 2127.478
271.943, 2088.979
272.426, 2066.120
272.908, 2062.893
273.390, 2056.037
273.872, 2034.920
274.354, 2001.943
274.836, 1993.100
275.318, 2015.107
275.800, 2045.366
276.282, 2058.858
276.765, 2053.730
277.247, 2043.903
277.729, 2031.599
278.211, 2017.257
278.693, 2006.655
279.175, 2001.734
279.657, 1994.778
280.139, 1970.629
280.621, 1926.727
281.104, 1901.702
281.586, 1914.599
282.068, 1956.923
282.550, 1976.308
283.032, 1968.866
283.514, 1954.050
283.996, 1950.876
284.478, 1959.325
284.961, 1974.917
285.443, 2001.780
285.925, 2034.742
286.407, 2050.557
286.889, 2048.490
287.371, 2035.081
287.853, 2007.365
288.335, 1967.915
288.818, 1948.151
289.300, 1964.206
289.782, 2004.790
290.264, 2037.374
290.746, 2062.121
291.228, 2079.203
291.710, 2087.073
292.192, 2086.637
292.674, 2082.534
293.156, 2072.668
293.639, 2061.729
294.121, 2063.325
294.603, 2077.638
295.085, 2092.302
295.567, 2093.260
296.049, 2084.874
296.531, 2081.817
297.013, 2090.568
297.496, 2105.448
297.978, 2116.543
298.460, 2124.061
298.942, 2131.938
299.424, 2144.361
299.906, 2159.501
300.388, 2173.268
300.870, 2182.636
301.353, 2191.658
301.835, 2205.299
302.317, 2223.169
302.799, 2244.438
303.281, 2273.634
303.763, 2304.719
304.245, 2326.465
304.727, 2331.924
305.209, 2332.007
305.691, 2335.157
306.174, 2341.780
306.656, 2354.183
307.138, 2381.735
307.620, 2413.451
308.102, 2434.693
308.584, 2435.823
309.066, 2435.243
309.548, 2445.710
310.031, 2466.331
310.513, 2493.634
310.995, 2536.147
311.477, 2579.746
311.959, 2610.136
312.441, 2617.274
312.923, 2622.924
313.405, 2640.853
313.888, 2667.681
314.370, 2692.871
314.852, 2710.655
315.334, 2726.182
315.816, 2743.566
316.298, 2765.469
316.780, 2785.371
317.262, 2800.865
317.744, 2812.582
318.227, 2821.320
318.709, 2817.878
319.191, 2818.723
319.673, 2836.619
320.155, 2886.586
320.637, 2920.440
321.119, 2912.346
321.601, 2881.122
322.083, 2860.375
322.566, 2872.854
323.048, 2884.636
323.530, 2880.096
324.012, 2848.501
324.494, 2827.654
324.976, 2825.530
325.458, 2836.184
325.940, 2851.115
326.422, 2880.500
326.905, 2903.513
327.387, 2913.692
327.869, 2907.625
328.351, 2899.805
328.833, 2881.511
329.315, 2865.151
329.797, 2865.436
330.280, 2894.401
330.762, 2924.993
331.244, 2952.763
331.726, 2977.625
332.208, 3000.476
332.690, 3019.393
333.172, 3037.937
333.654, 3060.388
334.136, 3090.843
334.618, 3116.929
335.101, 3131.593
335.583, 3136.196
336.065, 3165.254
336.547, 3229.121
337.029, 3301.661
337.511, 3359.675
337.993, 3399.907
338.475, 3439.824
338.958, 3484.674
339.440, 3531.303
339.922, 3558.429
340.404, 3560.060
340.886, 3561.781
341.368, 3585.860
341.850, 3633.825
342.332, 3676.127
342.815, 3707.104
343.297, 3731.031
343.779, 3759.509
344.261, 3793.847
344.743, 3820.995
345.225, 3835.017
345.707, 3835.638
346.189, 3819.361
346.671, 3783.837
347.154, 3736.334
347.636, 3684.305
348.118, 3628.491
348.600, 3574.865
349.082, 3529.273
349.564, 3487.808
350.046, 3439.749
350.528, 3383.639
351.010, 3323.485
351.493, 3263.202
351.975, 3202.722
352.457, 3140.666
352.939, 3074.126
353.421, 3007.172
353.903, 2943.313
354.385, 2882.414
354.867, 2830.096
355.349, 2796.095
355.832, 2773.238
356.314, 2749.454
356.796, 2721.300
357.278, 2689.625
357.760, 2648.466
358.242, 2599.284
358.724, 2562.938
359.207, 2560.608
359.689, 2573.573
360.171, 2582.662
360.653, 2576.776
361.135, 2570.456
361.617, 2567.660
362.099, 2568.845
362.581, 2576.686
363.063, 2599.950
363.546, 2625.278
364.028, 2643.396
364.510, 2640.962
364.992, 2646.495
365.474, 2667.376
365.956, 2701.001
366.438, 2739.113
366.920, 2786.183
367.402, 2833.260
367.885, 2878.279
368.367, 2931.007
368.849, 2963.072
369.331, 2951.920
369.813, 2924.602
370.295, 2929.886
370.777, 2995.958
371.259, 3059.333
371.741, 3100.458
372.224, 3113.019
372.706, 3133.604
373.188, 3162.873
373.670, 3199.173
374.152, 3241.082
374.634, 3288.360
375.116, 3339.549
375.598, 3395.777
376.081, 3456.078
376.563, 3513.773
377.045, 3569.792
377.527, 3621.215
378.009, 3661.584
378.491, 3688.369
378.973, 3729.333
379.455, 3791.147
379.938, 3869.489
380.420, 3947.607
380.902, 4025.418
381.384, 4114.349
381.866, 4230.313
382.348, 4367.784
382.830, 4497.860
383.312, 4612.488
383.794, 4727.819
384.276, 4865.735
384.759, 5025.371
385.241, 5194.582
385.723, 5368.218
386.205, 5546.548
386.687, 5727.325
387.169, 5907.877
387.651, 6101.564
388.134, 6321.761
388.616, 6561.045
389.098, 6808.783
389.580, 7065.500
390.062, 7323.251
390.544, 7567.327
391.026, 7800.815
391.508, 8041.622
391.990, 8288.753
392.473, 8552.563
392.955, 8847.134
393.437, 9218.605
393.919, 9580.658
394.401, 9885.154
394.883, 10144.150
395.365, 10414.250
395.847, 10731.520
396.329, 11052.380
396.812, 11349.680
397.294, 11627.410
397.776, 11870.980
398.258, 12065.420
398.740, 12222.710
399.222, 12370.230
399.704, 12555.020
400.186, 12684.930
400.668, 12727.960
401.151, 12667.960
401.633, 12571.520
402.115, 12429.860
402.597, 12258.120
403.079, 12078.810
403.561, 11913.300
404.043, 11690.440
404.525, 11384.240
405.008, 10997.400
405.490, 10611.840
405.972, 10225.730
406.454, 9842.963
406.936, 9460.148
407.418, 9074.872
407.900, 8701.309
408.382, 8337.045
408.865, 7986.194
409.347, 7660.527
409.829, 7363.033
410.311, 7078.335
410.793, 6799.052
411.275, 6525.485
411.757, 6268.743
412.239, 6028.449
412.721, 5803.512
413.203, 5593.119
413.686, 5397.388
414.168, 5223.552
414.650, 5082.653
415.132, 4961.533
415.614, 4848.400
416.096, 4743.891
416.578, 4639.375
417.060, 4521.201
417.543, 4401.539
418.025, 4300.277
418.507, 4231.059
418.989, 4173.258
419.471, 4115.342
419.953, 4059.107
420.435, 4011.185
420.917, 3978.491
421.400, 3952.770
421.882, 3929.988
422.364, 3916.247
422.846, 3894.608
423.328, 3857.937
423.810, 3811.514
424.292, 3766.876
424.774, 3715.167
425.256, 3674.395
425.738, 3650.752
426.221, 3647.188
426.703, 3648.848
427.185, 3661.319
427.667, 3674.391
428.149, 3674.525
428.631, 3652.297
429.113, 3640.733
429.595, 3651.080
430.078, 3678.693
430.560, 3688.358
431.042, 3676.149
431.524, 3659.287
432.006, 3646.946
432.488, 3639.109
432.970, 3648.539
433.452, 3683.450
433.935, 3724.259
434.417, 3725.594
434.899, 3692.224
435.381, 3670.834
435.863, 3699.816
436.345, 3757.022
436.827, 3792.157
437.309, 3802.264
437.791, 3801.781
438.274, 3798.398
438.756, 3794.774
439.238, 3795.958
439.720, 3804.354
440.202, 3817.803
440.684, 3839.642
441.166, 3867.483
441.648, 3886.941
442.130, 3881.661
442.613, 3869.597
443.095, 3865.692
443.577, 3880.818
444.059, 3889.538
444.541, 3884.915
445.023, 3868.491
445.505, 3843.098
445.987, 3786.720
446.470, 3743.069
446.952, 3732.883
447.434, 3769.226
447.916, 3783.755
448.398, 3772.887
448.880, 3743.102
449.362, 3695.903
449.844, 3610.101
450.327, 3552.391
450.809, 3543.170
451.291, 3569.314
451.773, 3565.270
452.255, 3521.773
452.737, 3474.110
453.219, 3448.011
453.701, 3444.524
454.183, 3419.586
454.665, 3364.425
455.148, 3301.593
455.630, 3268.480
456.112, 3261.901
456.594, 3251.528
457.076, 3213.549
457.558, 3165.673
458.040, 3153.111
458.522, 3175.245
459.005, 3192.990
459.487, 3168.728
459.969, 3120.506
460.451, 3074.585
460.933, 3038.166
461.415, 3006.144
461.897, 2969.388
462.379, 2933.900
462.862, 2915.881
463.344, 2940.061
463.826, 2971.196
464.308, 2990.220
464.790, 2994.774
465.272, 2987.809
465.754, 2955.371
466.236, 2917.419
466.718, 2896.092
467.201, 2909.444
467.683, 2921.862
468.165, 2929.367
468.647, 2931.890
469.129, 2927.802
469.611, 2909.642
470.093, 2894.425
470.575, 2894.417
471.057, 2917.420
471.540, 2925.150
472.022, 2910.765
472.504, 2887.445
472.986, 2881.144
473.468, 2893.671
473.950, 2904.434
474.432, 2904.230
474.914, 2896.144
475.397, 2892.915
475.879, 2894.867
476.361, 2897.171
476.843, 2891.712
477.325, 2883.353
477.807, 2886.264
478.289, 2910.248
478.771, 2934.123
479.254, 2928.767
479.736, 2904.074
480.218, 2888.563
480.700, 2914.739
481.182, 2944.102
481.664, 2941.684
482.146, 2900.543
482.628, 2865.500
483.110, 2862.728
483.592, 2871.083
484.075, 2869.516
484.557, 2840.199
485.039, 2814.972
485.521, 2802.710
486.003, 2800.807
486.485, 2794.350
486.967, 2782.276
487.449, 2766.861
487.931, 2750.419
488.414, 2737.125
488.896, 2706.901
489.378, 2648.922
489.860, 2587.261
490.342, 2557.330
490.824, 2564.609
491.306, 2566.446
491.789, 2549.685
492.271, 2519.599
492.753, 2491.738
493.235, 2465.832
493.717, 2444.381
494.199, 2432.670
494.681, 2426.243
495.163, 2412.333
495.645, 2387.668
496.128, 2361.292
496.610, 2340.537
497.092, 2325.151
497.574, 2315.398
498.056, 2317.203
498.538, 2319.776
499.020, 2316.421
499.502, 2307.072
499.984, 2293.830
500.467, 2268.771
500.949, 2245.407
501.431, 2234.917
501.913, 2257.580
502.395, 2264.339
502.877, 2235.499
503.359, 2188.620
503.841, 2158.815
504.323, 2152.225
504.806, 2154.529
505.288, 2166.953
505.770, 2189.820
506.252, 2193.096
506.734, 2170.889
507.216, 2141.653
507.698, 2118.422
508.181, 2101.006
508.663, 2094.453
509.145, 2100.618
509.627, 2115.820
510.109, 2138.490
510.591, 2167.084
511.073, 2189.766
511.555, 2195.281
512.037, 2192.994
512.519, 2200.697
513.002, 2218.495
513.484, 2233.168
513.966, 2228.903
514.448, 2218.287
514.930, 2216.540
515.412, 2232.041
515.894, 2249.982
516.376, 2265.888
516.859, 2279.136
517.341, 2288.116
517.823, 2286.427
518.305, 2285.957
518.787, 2290.753
519.269, 2301.463
519.751, 2315.911
520.233, 2339.260
520.716, 2361.932
521.198, 2375.519
521.680, 2375.797
522.162, 2379.221
522.644, 2389.204
523.126, 2401.717
523.608, 2408.088
524.090, 2408.397
524.572, 2401.789
525.055, 2382.248
525.537, 2354.853
526.019, 2343.523
526.501, 2349.188
526.983, 2355.682
527.465, 2349.835
527.947, 2333.987
528.429, 2311.765
528.911, 2281.747
529.394, 2250.482
529.876, 2218.479
530.358, 2189.225
530.840, 2169.828
531.322, 2180.896
531.804, 2188.096
532.286, 2171.688
532.768, 2129.607
533.250, 2085.221
533.733, 2037.992
534.215, 1993.844
534.697, 1957.558
535.179, 1930.911
535.661, 1909.389
536.143, 1897.735
536.625, 1888.817
537.107, 1866.506
537.589, 1825.642
538.072, 1786.708
538.554, 1754.627
539.036, 1729.780
539.518, 1721.226
540.000, 1730.878
540.482, 1740.055
540.964, 1731.697
541.446, 1709.821
541.929, 1685.152
542.411, 1658.341
542.893, 1632.825
543.375, 1611.499
543.857, 1594.162
544.339, 1580.837
544.821, 1571.796
545.303, 1566.657
545.786, 1568.138
546.268, 1575.175
546.750, 1577.717
547.232, 1569.293
547.714, 1557.435
548.196, 1546.911
548.678, 1541.683
549.160, 1530.839
549.643, 1506.682
550.125, 1481.043
550.607, 1470.787
551.089, 1483.222
551.571, 1493.232
552.053, 1493.642
552.535, 1487.855
553.017, 1493.346
553.499, 1512.009
553.982, 1528.516
554.464, 1534.068
554.946, 1529.723
555.428, 1516.756
555.910, 1493.780
556.392, 1472.872
556.874, 1466.143
557.356, 1469.924
557.838, 1477.555
558.321, 1488.771
558.803, 1500.820
559.285, 1514.487
559.767, 1527.981
560.249, 1535.762
560.731, 1524.447
561.213, 1516.846
561.695, 1526.882
562.177, 1560.296
562.660, 1582.841
563.142, 1584.022
563.624, 1580.162
564.106, 1581.853
564.588, 1586.357
565.070, 1604.776
565.552, 1644.267
566.034, 1692.388
566.516, 1723.432
566.999, 1736.277
567.481, 1744.653
567.963, 1750.660
568.445, 1757.219
568.927, 1773.265
569.409, 1798.555
569.891, 1830.435
570.373, 1875.467
570.856, 1922.637
571.338, 1953.365
571.820, 1961.580
572.302, 1966.917
572.784, 1978.766
573.266, 1996.428
573.748, 2019.188
574.230, 2052.066
574.713, 2084.256
575.195, 2111.148
575.677, 2133.913
576.159, 2160.467
576.641, 2198.363
577.123, 2230.906
577.605, 2249.982
578.087, 2252.736
578.570, 2262.254
579.052, 2280.681
579.534, 2301.624
580.016, 2316.031
580.498, 2324.643
580.980, 2343.436
581.462, 2379.345
581.944, 2417.993
582.426, 2439.379
582.909, 2444.885
583.391, 2438.842
583.873, 2409.806
584.355, 2379.501
584.837, 2375.984
585.319, 2396.100
585.801, 2402.337
586.283, 2355.085
586.765, 2302.022
587.248, 2280.377
587.730, 2320.947
588.212, 2334.967
588.694, 2303.229
589.176, 2244.246
589.658, 2174.086
590.140, 2078.865
590.622, 2002.016
591.104, 1952.903
591.587, 1925.893
592.069, 1905.330
592.551, 1892.111
593.033, 1876.904
593.515, 1854.344
593.997, 1825.948
594.479, 1795.182
594.961, 1761.787
595.443, 1732.637
595.926, 1714.974
596.408, 1704.341
596.890, 1696.058
597.372, 1692.563
597.854, 1682.207
598.336, 1651.438
598.818, 1610.615
599.300, 1577.289
599.783, 1555.335
600.265, 1541.227
600.747, 1541.645
601.229, 1552.524
601.711, 1545.972
602.193, 1509.433
602.675, 1474.848
603.157, 1455.644
603.640, 1452.562
604.122, 1462.075
604.604, 1487.909
605.086, 1513.703
605.568, 1521.368
606.050, 1513.922
606.532, 1506.878
607.014, 1504.091
607.497, 1500.733
607.979, 1485.092
608.461, 1464.406
608.943, 1455.611
609.425, 1483.924
609.907, 1510.900
610.389, 1506.795
610.871, 1476.363
611.353, 1458.946
611.836, 1480.616
612.318, 1505.304
612.800, 1516.297
613.282, 1512.815
613.764, 1497.192
614.246, 1460.907
614.728, 1422.895
615.210, 1402.090
615.692, 1400.455
616.175, 1402.153
616.657, 1407.110
617.139, 1410.743
617.621, 1405.642
618.103, 1392.063
618.585, 1371.270
619.067, 1334.402
619.549, 1296.842
620.031, 1280.791
620.514, 1282.865
620.996, 1284.407
621.478, 1276.305
621.960, 1263.153
622.442, 1244.836
622.924, 1217.678
623.406, 1203.251
623.888, 1224.597
624.370, 1248.248
624.853, 1246.152
625.335, 1203.633
