##NAMES=Copper
##RRUFFID=R061078
##IDEAL CHEMISTRY=Cu
##LOCALITY=Afton mine, Kamloops, British Columbia, Canada
##OWNER=RRUFF
##SOURCE=Lloyd Twaites
##DESCRIPTION=Rose-brass colored massive metallic
##STATUS=The identification of this mineral has been confirmed by X-ray diffraction.
##URL=rruff.info/R061078
124.4208, 2668.672
124.9029, 2897.508
125.3851, 3148.472
125.8672, 3422.440
126.3493, 3700.806
126.8314, 3964.595
127.3135, 4251.892
127.7956, 4585.534
128.2778, 4956.506
128.7599, 5346.602
129.2420, 5745.483
129.7241, 6164.894
130.2062, 6516.619
130.6884, 6813.600
131.1705, 7042.525
131.6526, 7207.379
132.1347, 7301.300
132.6168, 7302.052
133.0989, 7173.423
133.5811, 6860.257
134.0632, 6580.120
134.5453, 6339.951
135.0274, 6120.880
135.5095, 5904.973
135.9916, 5692.396
136.4738, 5499.132
136.9559, 5346.508
137.4380, 5237.371
137.9201, 5177.855
138.4022, 5183.008
138.8843, 5224.341
139.3665, 5272.782
139.8486, 5322.328
140.3307, 5398.062
140.8128, 5539.691
141.2949, 5783.306
141.7770, 6039.470
142.2592, 6311.932
142.7413, 6592.934
143.2234, 6876.100
143.7055, 7158.508
144.1876, 7442.152
144.6697, 7734.395
145.1519, 8045.339
145.6340, 8343.004
146.1161, 8623.035
146.5982, 8775.234
147.0803, 8778.209
147.5624, 8739.448
148.0446, 8667.328
148.5267, 8569.760
149.0088, 8448.818
149.4909, 8312.310
149.9730, 8159.431
150.4551, 7990.874
150.9372, 7804.648
151.4194, 7592.908
151.9015, 7370.391
152.3836, 7166.093
152.8657, 6973.266
153.3478, 6796.650
153.8299, 6632.560
154.3121, 6483.583
154.7942, 6360.208
155.2763, 6271.226
155.7584, 6204.255
156.2405, 6131.292
156.7226, 6043.470
157.2048, 5964.758
157.6869, 5904.968
158.1690, 5863.047
158.6511, 5837.747
159.1332, 5837.626
159.6153, 5846.519
160.0975, 5833.660
160.5796, 5793.749
161.0617, 5745.676
161.5438, 5706.098
162.0259, 5672.711
162.5080, 5623.212
162.9902, 5542.236
163.4723, 5445.055
163.9544, 5358.045
164.4365, 5284.200
164.9186, 5217.946
165.4007, 5156.951
165.8829, 5101.206
166.3650, 5048.550
166.8471, 4998.172
167.3292, 4951.494
167.8113, 4911.047
168.2934, 4882.005
168.7756, 4850.658
169.2577, 4800.889
169.7398, 4732.283
170.2219, 4668.489
170.7040, 4619.783
171.1861, 4581.234
171.6683, 4547.046
172.1504, 4517.963
172.6325, 4489.841
173.1146, 4455.525
173.5967, 4413.506
174.0788, 4379.572
174.5610, 4368.096
175.0431, 4364.345
175.5252, 4353.523
176.0073, 4334.231
176.4894, 4303.872
176.9715, 4252.949
177.4537, 4177.314
177.9358, 4110.299
178.4179, 4069.021
178.9000, 4042.757
179.3821, 4023.612
179.8642, 4012.114
180.3464, 4002.374
180.8285, 3987.367
181.3106, 3966.667
181.7927, 3943.411
182.2748, 3915.809
182.7569, 3887.391
183.2391, 3860.073
183.7212, 3832.745
184.2033, 3811.119
184.6854, 3807.661
185.1675, 3827.843
185.6496, 3838.508
186.1318, 3819.486
186.6139, 3788.422
187.0960, 3757.357
187.5781, 3727.922
188.0602, 3703.691
188.5423, 3693.434
189.0245, 3702.368
189.5066, 3701.272
189.9887, 3665.147
190.4708, 3621.585
190.9529, 3593.359
191.4350, 3588.422
191.9172, 3593.360
192.3993, 3591.759
192.8814, 3582.884
193.3635, 3571.031
193.8456, 3550.052
194.3277, 3530.439
194.8099, 3523.692
195.2920, 3534.777
195.7741, 3548.127
196.2562, 3543.440
196.7383, 3518.076
197.2204, 3488.052
197.7026, 3444.423
198.1847, 3405.450
198.6668, 3388.453
199.1489, 3399.098
199.6310, 3418.596
200.1131, 3422.841
200.5953, 3408.586
201.0774, 3397.627
201.5595, 3404.873
202.0416, 3412.516
202.5237, 3404.773
203.0058, 3377.312
203.4880, 3348.092
203.9701, 3341.660
204.4522, 3362.462
204.9343, 3373.854
205.4164, 3359.062
205.8985, 3335.919
206.3807, 3314.538
206.8628, 3296.516
207.3449, 3281.075
207.8270, 3266.014
208.3091, 3250.643
208.7912, 3242.841
209.2734, 3255.104
209.7555, 3267.800
210.2376, 3264.419
210.7197, 3243.375
211.2018, 3222.643
211.6839, 3225.673
212.1661, 3253.934
212.6482, 3264.204
213.1303, 3232.566
213.6124, 3193.757
214.0945, 3170.687
214.5766, 3164.580
215.0588, 3163.554
215.5409, 3156.550
216.0230, 3143.930
216.5051, 3138.901
216.9872, 3152.288
217.4693, 3164.786
217.9515, 3161.022
218.4336, 3142.453
218.9157, 3124.942
219.3978, 3122.812
219.8799, 3134.062
220.3620, 3140.019
220.8442, 3138.934
221.3263, 3131.393
221.8084, 3115.809
222.2905, 3093.829
222.7726, 3073.609
223.2547, 3060.367
223.7369, 3053.177
224.2190, 3047.065
224.7011, 3040.330
225.1832, 3037.000
225.6653, 3042.809
226.1474, 3054.490
226.6296, 3061.490
227.1117, 3055.439
227.5938, 3040.243
228.0759, 3026.741
228.5580, 3013.973
229.0401, 3005.811
229.5223, 3010.016
230.0044, 3020.692
230.4865, 3024.199
230.9686, 3006.912
231.4507, 2980.203
231.9328, 2969.993
232.4150, 2982.855
232.8971, 2993.155
233.3792, 2975.212
233.8613, 2944.606
234.3434, 2928.406
234.8255, 2946.810
235.3077, 2977.010
235.7898, 2984.720
236.2719, 2966.348
236.7540, 2946.404
237.2361, 2937.881
237.7182, 2937.005
238.2004, 2938.716
238.6825, 2946.071
239.1646, 2951.432
239.6467, 2943.632
240.1288, 2922.320
240.6109, 2905.416
241.0931, 2905.667
241.5752, 2913.865
242.0573, 2912.869
242.5394, 2896.010
243.0215, 2878.694
243.5036, 2874.692
243.9858, 2882.150
244.4679, 2886.734
244.9500, 2881.202
245.4321, 2870.822
245.9142, 2866.088
246.3963, 2869.816
246.8785, 2871.854
247.3606, 2863.750
247.8427, 2849.155
248.3248, 2840.140
248.8069, 2842.677
249.2890, 2849.247
249.7712, 2846.736
250.2533, 2833.396
250.7354, 2821.292
251.2175, 2816.559
251.6996, 2815.618
252.1817, 2811.116
252.6639, 2800.382
253.1460, 2789.104
253.6281, 2787.158
254.1102, 2796.417
254.5923, 2798.867
255.0744, 2784.281
255.5566, 2764.375
256.0387, 2752.772
256.5208, 2751.915
257.0029, 2757.034
257.4850, 2765.462
257.9671, 2778.443
258.4492, 2782.051
258.9314, 2767.548
259.4135, 2749.424
259.8956, 2738.695
260.3777, 2735.887
260.8598, 2735.573
261.3419, 2733.291
261.8241, 2729.002
262.3062, 2727.261
262.7883, 2731.275
263.2704, 2734.589
263.7525, 2732.623
264.2346, 2726.944
264.7168, 2723.447
265.1989, 2726.750
265.6810, 2735.316
266.1631, 2735.218
266.6452, 2718.892
267.1273, 2703.706
267.6095, 2695.935
268.0916, 2691.960
268.5737, 2684.559
269.0558, 2669.841
269.5379, 2651.458
270.0201, 2641.291
270.5022, 2648.080
270.9843, 2653.280
271.4664, 2655.306
271.9485, 2655.690
272.4306, 2656.180
272.9128, 2657.328
273.3949, 2658.278
273.8770, 2657.716
274.3591, 2656.721
274.8412, 2651.758
275.3233, 2637.486
275.8055, 2623.539
276.2876, 2617.981
276.7697, 2621.206
277.2518, 2626.548
277.7339, 2625.621
278.2160, 2616.035
278.6982, 2610.296
279.1803, 2613.078
279.6624, 2615.498
280.1445, 2613.010
280.6266, 2606.604
281.1087, 2600.716
281.5909, 2600.396
282.0730, 2605.117
282.5551, 2600.818
283.0372, 2574.850
283.5193, 2555.124
284.0014, 2557.459
284.4836, 2571.215
284.9657, 2577.054
285.4478, 2561.418
285.9299, 2533.805
286.4120, 2523.349
286.8941, 2538.493
287.3763, 2552.147
287.8584, 2554.348
288.3405, 2550.522
288.8226, 2545.887
289.3047, 2542.056
289.7868, 2537.967
290.2690, 2530.920
290.7511, 2520.117
291.2332, 2513.178
291.7153, 2513.349
292.1974, 2518.033
292.6795, 2527.063
293.1617, 2541.236
293.6438, 2551.271
294.1259, 2544.926
294.6080, 2526.302
295.0901, 2519.146
295.5722, 2535.005
296.0544, 2553.051
296.5365, 2549.337
297.0186, 2525.705
297.5007, 2505.173
297.9828, 2498.225
298.4649, 2499.497
298.9471, 2501.022
299.4292, 2502.176
299.9113, 2501.941
300.3934, 2496.709
300.8755, 2488.186
301.3576, 2488.504
301.8398, 2512.396
302.3219, 2535.492
302.8040, 2535.709
303.2861, 2515.329
303.7682, 2492.718
304.2503, 2477.664
304.7325, 2469.766
305.2146, 2465.740
305.6967, 2465.985
306.1788, 2468.997
306.6609, 2475.029
307.1430, 2483.416
307.6252, 2494.861
308.1073, 2510.285
308.5894, 2524.583
309.0715, 2526.213
309.5536, 2503.688
310.0357, 2484.959
310.5179, 2472.052
311.0000, 2462.387
311.4821, 2453.608
311.9642, 2445.209
312.4463, 2438.075
312.9284, 2432.931
313.4106, 2428.574
313.8927, 2431.019
314.3748, 2450.119
314.8569, 2465.962
315.3390, 2466.022
315.8211, 2453.645
316.3033, 2441.142
316.7854, 2438.409
317.2675, 2444.332
317.7496, 2445.390
318.2317, 2439.578
318.7138, 2430.742
319.1960, 2416.065
319.6781, 2400.246
320.1602, 2389.254
320.6423, 2385.830
321.1244, 2388.427
321.6065, 2395.310
322.0887, 2408.958
322.5708, 2419.114
323.0529, 2421.611
323.5350, 2420.670
324.0171, 2417.770
324.4992, 2413.209
324.9814, 2410.728
325.4635, 2416.816
325.9456, 2430.366
326.4277, 2435.645
326.9098, 2425.555
327.3919, 2412.914
327.8741, 2408.153
328.3562, 2410.277
328.8383, 2413.896
329.3204, 2419.511
329.8025, 2424.274
330.2846, 2420.839
330.7668, 2407.408
331.2489, 2397.429
331.7310, 2403.717
332.2131, 2421.547
332.6952, 2431.977
333.1773, 2429.730
333.6595, 2423.258
334.1416, 2416.092
334.6237, 2408.722
335.1058, 2402.733
335.5879, 2398.597
336.0700, 2396.619
336.5522, 2398.346
337.0343, 2407.821
337.5164, 2413.271
337.9985, 2407.499
338.4806, 2398.999
338.9627, 2399.390
339.4449, 2410.894
339.9270, 2423.627
340.4091, 2424.577
340.8912, 2408.937
341.3733, 2398.624
341.8554, 2394.143
342.3376, 2393.563
342.8197, 2399.062
343.3018, 2407.974
343.7839, 2413.621
344.2660, 2410.397
344.7481, 2399.925
345.2303, 2395.483
345.7124, 2403.073
346.1945, 2409.053
346.6766, 2410.363
347.1587, 2408.980
347.6408, 2406.545
348.1230, 2403.550
348.6051, 2401.766
349.0872, 2406.542
349.5693, 2421.396
350.0514, 2426.103
350.5335, 2405.794
351.0157, 2382.715
351.4978, 2370.513
351.9799, 2369.705
352.4620, 2373.479
352.9441, 2378.934
353.4262, 2385.387
353.9084, 2390.647
354.3905, 2395.146
354.8726, 2397.055
355.3547, 2390.887
355.8368, 2380.811
356.3189, 2376.963
356.8011, 2390.561
357.2832, 2404.409
357.7653, 2399.269
358.2474, 2378.013
358.7295, 2360.814
359.2116, 2357.332
359.6938, 2363.647
360.1759, 2369.878
360.6580, 2375.722
361.1401, 2381.940
361.6222, 2390.430
362.1043, 2398.678
362.5865, 2403.465
363.0686, 2404.049
363.5507, 2401.473
364.0328, 2396.385
364.5149, 2387.166
364.9970, 2382.778
365.4792, 2384.232
365.9613, 2388.781
366.4434, 2398.391
366.9255, 2410.128
367.4076, 2417.622
367.8897, 2416.610
368.3719, 2408.397
368.8540, 2398.063
369.3361, 2376.355
369.8182, 2367.801
370.3003, 2385.725
370.7824, 2412.179
371.2646, 2430.958
371.7467, 2437.383
372.2288, 2437.069
372.7109, 2437.119
373.1930, 2437.896
373.6751, 2432.090
374.1573, 2408.619
374.6394, 2390.220
375.1215, 2395.804
375.6036, 2419.955
376.0857, 2440.521
376.5678, 2446.058
377.0500, 2441.251
377.5321, 2431.353
378.0142, 2415.439
378.4963, 2404.582
378.9784, 2407.640
379.4605, 2419.789
379.9427, 2426.775
380.4248, 2426.038
380.9069, 2423.808
381.3890, 2421.646
381.8711, 2420.267
382.3532, 2421.774
382.8354, 2427.058
383.3175, 2433.289
383.7996, 2436.891
384.2817, 2438.146
384.7638, 2434.674
385.2459, 2419.139
385.7281, 2405.045
386.2102, 2402.591
386.6923, 2409.872
387.1744, 2418.120
387.6565, 2420.969
388.1386, 2419.334
388.6208, 2419.682
389.1029, 2422.878
389.5850, 2427.096
390.0671, 2433.715
390.5492, 2440.330
391.0313, 2444.103
391.5135, 2444.260
391.9956, 2443.394
392.4777, 2446.337
392.9598, 2453.995
393.4419, 2454.294
393.9240, 2438.499
394.4062, 2423.657
394.8883, 2423.433
395.3704, 2433.867
395.8525, 2440.277
396.3346, 2429.562
396.8167, 2413.364
397.2989, 2412.084
397.7810, 2426.449
398.2631, 2440.856
398.7452, 2449.018
399.2273, 2450.942
399.7094, 2447.029
400.1916, 2432.027
400.6737, 2421.690
401.1558, 2426.730
401.6379, 2438.718
402.1200, 2443.819
402.6021, 2438.808
403.0843, 2431.400
403.5664, 2431.033
404.0485, 2440.015
404.5306, 2443.698
405.0127, 2435.300
405.4948, 2428.951
405.9770, 2434.192
406.4591, 2446.150
406.9412, 2454.435
407.4233, 2453.302
407.9054, 2444.838
408.3875, 2433.822
408.8697, 2415.271
409.3518, 2405.006
409.8339, 2407.612
410.3160, 2416.801
410.7981, 2432.159
411.2802, 2451.962
411.7624, 2466.929
412.2445, 2467.440
412.7266, 2456.029
413.2087, 2443.601
413.6908, 2427.937
414.1729, 2417.710
414.6551, 2424.029
415.1372, 2439.058
415.6193, 2448.767
416.1014, 2448.170
416.5835, 2444.603
417.0656, 2441.085
417.5478, 2438.668
418.0299, 2441.547
418.5120, 2451.990
418.9941, 2465.379
419.4762, 2475.267
419.9583, 2481.958
420.4405, 2483.260
420.9226, 2469.898
421.4047, 2458.483
421.8868, 2465.631
422.3689, 2486.542
422.8510, 2502.238
423.3332, 2499.326
423.8153, 2480.702
424.2974, 2460.601
424.7795, 2430.073
425.2616, 2412.584
425.7437, 2418.227
426.2259, 2432.878
426.7080, 2446.104
427.1901, 2455.006
427.6722, 2459.196
428.1543, 2456.411
428.6364, 2447.293
429.1186, 2439.521
429.6007, 2430.665
430.0828, 2428.410
430.5649, 2443.701
431.0470, 2468.500
431.5291, 2486.297
432.0113, 2492.242
432.4934, 2490.377
432.9755, 2479.498
433.4576, 2462.574
433.9397, 2452.293
434.4218, 2454.268
434.9040, 2461.548
435.3861, 2462.497
435.8682, 2453.721
436.3503, 2449.610
436.8324, 2456.893
437.3145, 2464.368
437.7967, 2462.039
438.2788, 2452.041
438.7609, 2443.687
439.2430, 2443.129
439.7251, 2449.496
440.2072, 2459.035
440.6894, 2478.089
441.1715, 2489.868
441.6536, 2487.960
442.1357, 2481.501
442.6178, 2477.526
443.0999, 2477.433
443.5821, 2479.236
444.0642, 2482.515
444.5463, 2486.627
445.0284, 2487.608
445.5105, 2485.509
445.9926, 2479.679
446.4748, 2462.519
446.9569, 2442.213
447.4390, 2435.813
447.9211, 2454.230
448.4032, 2475.427
448.8853, 2485.208
449.3675, 2486.886
449.8496, 2488.558
450.3317, 2492.649
450.8138, 2496.616
451.2959, 2496.965
451.7780, 2492.588
452.2602, 2488.915
452.7423, 2488.691
453.2244, 2486.488
453.7065, 2475.996
454.1886, 2461.790
454.6707, 2453.888
455.1529, 2458.046
455.6350, 2468.920
456.1171, 2473.088
456.5992, 2466.406
457.0813, 2464.863
457.5634, 2479.859
458.0455, 2493.575
458.5276, 2491.759
459.0098, 2476.873
459.4919, 2466.155
459.9740, 2471.150
460.4561, 2486.836
460.9382, 2507.391
461.4203, 2533.805
461.9025, 2548.971
462.3846, 2538.273
462.8667, 2514.776
463.3488, 2510.562
463.8309, 2534.813
464.3130, 2554.573
464.7952, 2558.951
465.2773, 2555.096
465.7594, 2549.243
466.2415, 2542.959
466.7236, 2536.819
467.2057, 2530.428
467.6879, 2524.224
468.1700, 2528.037
468.6521, 2560.477
469.1342, 2580.257
469.6163, 2572.928
470.0984, 2554.061
470.5806, 2537.228
471.0627, 2526.708
471.5448, 2523.869
472.0269, 2534.003
472.5090, 2555.647
472.9911, 2570.727
473.4733, 2576.279
473.9554, 2579.058
474.4375, 2583.354
474.9196, 2588.150
475.4017, 2591.171
475.8839, 2590.822
476.3660, 2590.208
476.8481, 2593.444
477.3302, 2597.700
477.8123, 2595.806
478.2944, 2585.553
478.7766, 2571.708
479.2587, 2559.510
479.7408, 2547.996
480.2229, 2543.655
480.7050, 2553.967
481.1871, 2562.479
481.6693, 2561.395
482.1514, 2554.359
482.6335, 2546.961
483.1156, 2541.565
483.5977, 2539.418
484.0798, 2544.356
484.5620, 2558.058
485.0441, 2566.930
485.5262, 2565.644
486.0083, 2563.478
486.4904, 2568.799
486.9725, 2578.826
487.4547, 2583.686
487.9368, 2571.664
488.4189, 2559.696
488.9010, 2571.102
489.3831, 2599.626
489.8652, 2614.511
490.3474, 2601.586
490.8295, 2578.969
491.3116, 2575.475
491.7937, 2600.084
492.2758, 2620.210
492.7579, 2638.585
493.2401, 2649.987
493.7222, 2649.105
494.2043, 2638.987
494.6864, 2625.835
495.1685, 2612.559
495.6506, 2600.723
496.1328, 2593.100
496.6149, 2588.611
497.0970, 2592.585
497.5791, 2618.621
498.0612, 2641.788
498.5433, 2639.943
499.0255, 2618.258
499.5076, 2604.726
499.9897, 2620.562
500.4718, 2645.711
500.9539, 2655.408
501.4360, 2651.406
501.9182, 2646.541
502.4003, 2646.133
502.8824, 2647.732
503.3645, 2647.086
503.8466, 2644.189
504.3287, 2638.779
504.8109, 2624.166
505.2930, 2612.919
505.7751, 2615.651
506.2572, 2628.529
506.7393, 2640.878
507.2214, 2646.452
507.7036, 2647.319
508.1857, 2647.420
508.6678, 2645.220
509.1499, 2648.265
509.6320, 2667.969
510.1141, 2684.170
510.5963, 2678.318
511.0784, 2654.526
511.5605, 2637.139
512.0426, 2640.709
512.5247, 2653.114
513.0068, 2663.818
513.4890, 2671.879
513.9711, 2670.719
514.4532, 2655.248
514.9353, 2636.174
515.4174, 2633.580
515.8995, 2658.354
516.3817, 2672.737
516.8638, 2670.571
517.3459, 2663.929
517.8280, 2654.122
518.3101, 2645.687
518.7922, 2648.801
519.2744, 2670.352
519.7565, 2698.002
520.2386, 2705.209
520.7207, 2688.017
521.2028, 2674.675
521.6849, 2668.319
522.1671, 2668.909
522.6492, 2680.136
523.1313, 2698.801
523.6134, 2710.847
524.0955, 2709.109
524.5776, 2701.313
525.0598, 2691.211
525.5419, 2680.115
526.0240, 2672.604
526.5061, 2670.504
526.9882, 2670.075
527.4703, 2665.770
527.9525, 2656.107
528.4346, 2648.119
528.9167, 2642.653
529.3988, 2637.767
529.8809, 2632.044
530.3630, 2626.623
530.8452, 2622.882
531.3273, 2621.308
531.8094, 2622.887
532.2915, 2634.439
532.7736, 2654.759
533.2557, 2653.455
533.7379, 2615.774
534.2200, 2579.584
534.7021, 2577.437
535.1842, 2600.680
535.6663, 2621.523
536.1484, 2640.827
536.6306, 2652.917
537.1127, 2651.895
537.5948, 2643.101
538.0769, 2632.214
538.5590, 2621.353
539.0411, 2615.303
539.5233, 2620.454
540.0054, 2636.916
540.4875, 2645.325
540.9696, 2638.431
541.4517, 2633.138
541.9338, 2634.938
542.4160, 2639.388
542.8981, 2643.030
543.3802, 2645.035
543.8623, 2642.913
544.3444, 2631.348
544.8265, 2614.904
545.3087, 2604.538
545.7908, 2601.098
546.2729, 2599.831
546.7550, 2598.597
547.2371, 2597.138
547.7192, 2594.607
548.2014, 2590.683
548.6835, 2586.301
549.1656, 2580.313
549.6477, 2574.856
550.1298, 2570.140
550.6119, 2567.331
551.0941, 2570.412
551.5762, 2583.742
552.0583, 2601.153
552.5404, 2603.830
553.0225, 2588.130
553.5046, 2574.953
553.9868, 2568.784
554.4689, 2567.138
554.9510, 2568.058
555.4331, 2571.371
555.9152, 2575.617
556.3973, 2580.956
556.8795, 2586.565
557.3616, 2594.676
557.8437, 2602.513
558.3258, 2601.387
558.8079, 2587.918
559.2900, 2570.248
559.7722, 2559.738
560.2543, 2557.393
560.7364, 2557.192
561.2185, 2559.786
561.7006, 2563.964
562.1827, 2572.999
562.6649, 2582.082
563.1470, 2583.379
563.6291, 2574.018
564.1112, 2563.456
564.5933, 2563.480
565.0754, 2569.423
565.5576, 2563.482
566.0397, 2542.209
566.5218, 2525.322
567.0039, 2527.344
567.4860, 2544.069
567.9681, 2556.854
568.4503, 2563.546
568.9324, 2569.905
569.4145, 2579.795
569.8966, 2587.249
570.3787, 2584.431
570.8608, 2573.527
571.3430, 2565.128
571.8251, 2567.891
572.3072, 2576.520
572.7893, 2575.186
573.2714, 2561.602
573.7535, 2552.033
574.2357, 2550.606
574.7178, 2554.663
575.1999, 2562.877
575.6820, 2574.731
576.1641, 2585.807
576.6462, 2598.246
577.1284, 2606.579
577.6105, 2604.463
578.0926, 2596.135
578.5747, 2588.265
579.0568, 2583.322
579.5389, 2584.615
580.0211, 2598.517
580.5032, 2626.824
580.9853, 2644.323
581.4674, 2647.219
581.9495, 2644.251
582.4316, 2633.484
582.9138, 2621.437
583.3959, 2617.906
583.8780, 2625.648
584.3601, 2629.097
584.8422, 2608.590
585.3243, 2581.920
585.8065, 2581.817
586.2886, 2607.631
586.7707, 2631.664
587.2528, 2638.291
587.7349, 2632.832
588.2170, 2628.630
588.6992, 2624.058
589.1813, 2624.039
589.6634, 2632.937
590.1455, 2641.761
590.6276, 2647.207
591.1097, 2648.656
591.5919, 2645.182
592.0740, 2635.354
592.5561, 2623.781
593.0382, 2617.628
593.5203, 2615.233
594.0024, 2605.094
594.4846, 2582.507
594.9667, 2565.899
595.4488, 2573.091
595.9309, 2600.944
596.4130, 2618.508
596.8951, 2616.385
597.3773, 2617.628
597.8594, 2628.606
598.3415, 2643.258
598.8236, 2660.423
599.3057, 2676.851
599.7878, 2682.198
600.2700, 2664.501
600.7521, 2635.103
601.2342, 2625.093
601.7163, 2636.269
602.1984, 2645.354
602.6805, 2646.170
603.1627, 2642.324
603.6448, 2636.579
604.1269, 2629.058
604.6090, 2623.086
605.0911, 2622.996
605.5732, 2620.259
606.0554, 2601.089
606.5375, 2580.373
607.0196, 2584.768
607.5017, 2618.963
607.9838, 2657.342
608.4659, 2671.606
608.9481, 2664.418
609.4302, 2664.337
609.9123, 2676.745
610.3944, 2680.271
610.8765, 2658.072
611.3586, 2628.823
611.8408, 2617.369
612.3229, 2625.705
612.8050, 2632.276
613.2871, 2628.709
613.7692, 2622.821
614.2513, 2618.125
614.7335, 2616.349
615.2156, 2622.402
615.6977, 2638.124
616.1798, 2655.709
616.6619, 2663.211
617.1440, 2659.743
617.6262, 2654.652
618.1083, 2646.421
618.5904, 2639.139
619.0725, 2634.717
619.5546, 2632.264
620.0367, 2630.356
620.5189, 2628.336
621.0010, 2629.582
621.4831, 2636.918
621.9652, 2647.440
622.4473, 2662.274
622.9294, 2678.077
623.4116, 2682.823
