##NAMES=Coquimbite
##RRUFFID=R060638
##IDEAL CHEMISTRY=AlFe^3+^_3_(S^6+^O_4_)_6_(H_2_O)_12_&#183;6H_2_O
##LOCALITY=Dexter no. 7 mine, Calf Mesa, San Rafael Swell, Emery County, Utah, USA
##OWNER=RRUFF
##SOURCE=University of Arizona Mineral Museum
##DESCRIPTION=Purple blocky crystals
##STATUS=The identification of this mineral is confirmed by single-crystal X-ray diffraction and chemical analysis.
##URL=rruff.info/R060638
##MEASURED CHEMISTRY=(Fe^3+^_1.43_Al_0.57_)_Σ=2_(S_1.00_O_4_)_3_·9H_2_O; trace amounts of As; H_2_O estimated by difference
150.4142, 133.7178
150.8963, 137.7863
151.3785, 141.6433
151.8606, 145.2004
152.3427, 148.7234
152.8248, 151.4953
153.3069, 153.5562
153.7890, 154.8622
154.2712, 154.8740
154.7533, 152.0613
155.2354, 149.1546
155.7175, 146.7179
156.1996, 144.7023
156.6817, 143.3777
157.1639, 142.9836
157.6460, 143.2728
158.1281, 143.7446
158.6102, 144.0127
159.0923, 144.6204
159.5744, 145.8854
160.0566, 148.2482
160.5387, 150.5992
161.0208, 152.4984
161.5029, 154.1217
161.9850, 155.9797
162.4671, 158.6321
162.9493, 161.3560
163.4314, 163.7008
163.9135, 165.8344
164.3956, 167.2543
164.8777, 167.4870
165.3598, 166.7509
165.8420, 165.9355
166.3241, 165.5823
166.8062, 165.2803
167.2883, 164.6363
167.7704, 163.0163
168.2525, 161.5514
168.7346, 161.1141
169.2168, 161.5495
169.6989, 161.8905
170.1810, 161.4590
170.6631, 160.6377
171.1452, 159.8834
171.6273, 159.5212
172.1095, 159.1581
172.5916, 158.4037
173.0737, 157.2898
173.5558, 156.1672
174.0379, 155.3578
174.5201, 154.7015
175.0022, 153.9234
175.4843, 152.7605
175.9664, 151.5066
176.4485, 150.4860
176.9306, 149.6844
177.4128, 149.1199
177.8949, 148.7557
178.3770, 148.6360
178.8591, 148.8548
179.3412, 149.6890
179.8233, 150.8039
180.3055, 151.6066
180.7876, 152.0827
181.2697, 152.6008
181.7518, 153.4641
182.2339, 154.6553
182.7160, 156.1561
183.1982, 158.0242
183.6803, 160.1760
184.1624, 162.4645
184.6445, 164.8942
185.1266, 167.3559
185.6087, 169.6174
186.0909, 171.7641
186.5730, 174.1237
187.0551, 177.3716
187.5372, 181.0081
188.0193, 183.1776
188.5014, 183.6039
188.9836, 183.6233
189.4657, 184.9728
189.9478, 187.5488
190.4299, 190.3669
190.9120, 192.9983
191.3941, 195.4676
191.8763, 197.9461
192.3584, 200.3858
192.8405, 202.9476
193.3226, 206.0178
193.8047, 209.5855
194.2868, 213.2101
194.7690, 216.5353
195.2511, 219.6177
195.7332, 223.4635
196.2153, 228.1582
196.6974, 233.4676
197.1795, 238.8891
197.6617, 244.4476
198.1438, 250.1460
198.6259, 256.0903
199.1080, 262.2571
199.5901, 268.2290
200.0722, 274.0073
200.5544, 279.5309
201.0365, 284.7354
201.5186, 289.7282
202.0007, 293.9161
202.4828, 296.9438
202.9649, 298.7657
203.4471, 299.9864
203.9292, 300.4936
204.4113, 300.5684
204.8934, 300.5716
205.3755, 300.3167
205.8576, 300.7121
206.3398, 302.1508
206.8219, 304.6516
207.3040, 308.1909
207.7861, 313.0688
208.2682, 318.6380
208.7503, 323.6161
209.2325, 327.9575
209.7146, 331.7232
210.1967, 335.3013
210.6788, 339.1923
211.1609, 340.4608
211.6430, 338.7889
212.1252, 334.6971
212.6073, 329.3660
213.0894, 322.9047
213.5715, 315.0425
214.0536, 305.4927
214.5357, 293.8450
215.0179, 281.8010
215.5000, 268.9794
215.9821, 255.9303
216.4642, 243.7450
216.9463, 232.3606
217.4284, 222.1759
217.9105, 213.3375
218.3927, 206.1300
218.8748, 199.6201
219.3569, 193.8982
219.8390, 188.8318
220.3211, 183.9622
220.8032, 179.0645
221.2854, 174.7551
221.7675, 171.2692
222.2496, 168.8715
222.7317, 166.5611
223.2138, 164.2348
223.6959, 162.0498
224.1781, 160.3178
224.6602, 159.1929
225.1423, 158.2699
225.6244, 157.3934
226.1065, 156.4714
226.5886, 155.8390
227.0708, 155.5737
227.5529, 155.5537
228.0350, 155.5286
228.5171, 155.4817
228.9992, 155.4587
229.4813, 155.4984
229.9635, 155.6660
230.4456, 155.6727
230.9277, 155.3670
231.4098, 154.9793
231.8919, 154.9684
232.3740, 155.5156
232.8562, 156.1529
233.3383, 156.7530
233.8204, 157.3776
234.3025, 157.7466
234.7846, 157.7146
235.2667, 157.5083
235.7489, 157.5306
236.2310, 157.8207
236.7131, 158.2752
237.1952, 158.8831
237.6773, 159.6633
238.1594, 160.4939
238.6416, 161.3391
239.1237, 162.2582
239.6058, 163.3688
240.0879, 164.8511
240.5700, 166.2518
241.0521, 167.3807
241.5343, 168.1035
242.0164, 169.1211
242.4985, 170.6088
242.9806, 172.2684
243.4627, 173.6407
243.9448, 174.5064
244.4270, 175.4500
244.9091, 176.6359
245.3912, 178.1020
245.8733, 179.6145
246.3554, 181.1616
246.8375, 182.7688
247.3197, 184.5233
247.8018, 186.6901
248.2839, 188.5127
248.7660, 189.6763
249.2481, 190.0567
249.7302, 190.8024
250.2124, 191.9743
250.6945, 193.4634
251.1766, 195.2003
251.6587, 197.3340
252.1408, 199.4219
252.6229, 201.2753
253.1051, 202.8692
253.5872, 204.9328
254.0693, 207.6543
254.5514, 210.6705
255.0335, 213.6247
255.5156, 216.4307
255.9978, 219.2991
256.4799, 222.3032
256.9620, 225.4520
257.4441, 228.4515
257.9262, 231.2146
258.4083, 233.9322
258.8904, 236.7012
259.3726, 239.4694
259.8547, 242.5017
260.3368, 246.0228
260.8189, 249.9572
261.3010, 253.0629
261.7831, 255.1094
262.2653, 256.6888
262.7474, 258.2016
263.2295, 259.6549
263.7116, 261.0354
264.1937, 262.2285
264.6758, 263.3336
265.1580, 264.9521
265.6401, 267.0323
266.1222, 269.7129
266.6043, 273.1412
267.0864, 277.4950
267.5685, 282.0757
268.0507, 286.8791
268.5328, 291.8806
269.0149, 297.0034
269.4970, 302.2488
269.9791, 307.7549
270.4612, 313.6958
270.9434, 320.0268
271.4255, 326.8633
271.9076, 334.3226
272.3897, 342.2878
272.8718, 350.5218
273.3539, 358.9861
273.8361, 367.8284
274.3182, 377.2007
274.8003, 387.1216
275.2824, 397.0565
275.7645, 406.8213
276.2466, 416.6797
276.7288, 427.2621
277.2109, 438.6559
277.6930, 450.1804
278.1751, 461.3034
278.6572, 472.0541
279.1393, 482.8785
279.6215, 493.8622
280.1036, 504.7682
280.5857, 515.4525
281.0678, 525.9640
281.5499, 535.5798
282.0320, 544.0803
282.5142, 551.4573
282.9963, 556.8762
283.4784, 560.3104
283.9605, 561.8978
284.4426, 561.9271
284.9247, 560.4118
285.4069, 556.7123
285.8890, 550.2480
286.3711, 541.4172
286.8532, 531.8013
287.3353, 521.4016
287.8174, 510.1469
288.2996, 497.7716
288.7817, 484.3336
289.2638, 471.0773
289.7459, 458.2578
290.2280, 445.9123
290.7101, 433.7187
291.1923, 421.6099
291.6744, 409.9978
292.1565, 399.4152
292.6386, 389.6292
293.1207, 379.3846
293.6028, 368.0650
294.0850, 356.5410
294.5671, 345.9017
295.0492, 336.1333
295.5313, 327.0285
296.0134, 318.7986
296.4955, 311.1932
296.9777, 303.5276
297.4598, 295.6888
297.9419, 287.9272
298.4240, 280.7065
298.9061, 274.0273
299.3882, 267.7078
299.8704, 261.8138
300.3525, 256.2178
300.8346, 250.4789
301.3167, 244.5346
301.7988, 238.7148
302.2809, 233.2667
302.7631, 228.2076
303.2452, 223.4041
303.7273, 218.9287
304.2094, 214.6543
304.6915, 210.4196
305.1736, 206.1519
305.6558, 202.2216
306.1379, 199.1970
306.6200, 196.7119
307.1021, 194.0894
307.5842, 190.7641
308.0663, 187.3240
308.5485, 184.2830
309.0306, 181.6492
309.5127, 179.1478
309.9948, 176.6794
310.4769, 174.2032
310.9590, 171.6677
311.4412, 168.8013
311.9233, 166.0806
312.4054, 163.8962
312.8875, 162.1624
313.3696, 160.5339
313.8517, 159.0034
314.3339, 157.4230
314.8160, 155.6329
315.2981, 153.4846
315.7802, 151.3257
316.2623, 149.3223
316.7444, 147.4535
317.2266, 145.6206
317.7087, 143.6643
318.1908, 141.8374
318.6729, 140.2912
319.1550, 139.1038
319.6371, 138.0507
320.1193, 137.1452
320.6014, 136.3142
321.0835, 135.4251
321.5656, 134.3056
322.0477, 133.2401
322.5298, 132.3822
323.0120, 131.8010
323.4941, 131.1065
323.9762, 130.2062
324.4583, 129.1556
324.9404, 128.0150
325.4225, 126.6458
325.9047, 125.3270
326.3868, 124.1381
326.8689, 123.0709
327.3510, 122.1238
327.8331, 121.5877
328.3152, 121.0032
328.7974, 120.0508
329.2795, 118.0704
329.7616, 116.4997
330.2437, 115.7081
330.7258, 115.5169
331.2079, 114.9057
331.6901, 113.5632
332.1722, 112.1075
332.6543, 110.8357
333.1364, 109.9086
333.6185, 108.8742
334.1006, 107.6260
334.5828, 106.2993
335.0649, 105.2716
335.5470, 104.7024
336.0291, 104.1310
336.5112, 103.3489
336.9933, 102.2620
337.4755, 101.4480
337.9576, 101.0048
338.4397, 100.7331
338.9218, 100.3561
339.4039, 99.84560
339.8860, 99.34998
340.3681, 98.94559
340.8503, 98.61353
341.3324, 98.09011
341.8145, 97.28739
342.2966, 96.52750
342.7787, 96.13737
343.2608, 96.13894
343.7430, 96.12715
344.2251, 96.04086
344.7072, 95.87927
345.1893, 95.60806
345.6714, 95.21415
346.1535, 94.84361
346.6357, 94.66298
347.1178, 94.62332
347.5999, 94.40199
348.0820, 93.91666
348.5641, 93.34524
349.0462, 92.93530
349.5284, 92.67964
350.0105, 92.50941
350.4926, 92.37302
350.9747, 92.29750
351.4568, 92.42919
351.9389, 92.80602
352.4211, 93.07891
352.9032, 92.70959
353.3853, 91.94518
353.8674, 91.38537
354.3495, 91.40220
354.8316, 91.65952
355.3138, 91.81695
355.7959, 91.87556
356.2780, 91.84079
356.7601, 91.71265
357.2422, 91.49510
357.7243, 91.16237
358.2065, 90.56057
358.6886, 90.07454
359.1707, 90.19788
359.6528, 90.69875
360.1349, 90.87792
360.6170, 89.85545
361.0992, 88.73257
361.5813, 88.41281
362.0634, 89.32638
362.5455, 90.05301
363.0276, 89.80333
363.5097, 89.05412
363.9919, 88.51533
364.4740, 88.68275
364.9561, 88.83887
365.4382, 88.61764
365.9203, 87.95205
366.4024, 87.54041
366.8846, 87.72842
367.3667, 88.11030
367.8488, 88.35759
368.3309, 88.46329
368.8130, 88.39952
369.2951, 88.12566
369.7773, 87.65966
370.2594, 87.13806
370.7415, 86.33569
371.2236, 85.68394
371.7057, 85.40797
372.1878, 85.86938
372.6700, 85.99344
373.1521, 85.54845
373.6342, 84.86644
374.1163, 84.62375
374.5984, 85.05403
375.0805, 85.47084
375.5627, 85.65422
376.0448, 85.58584
376.5269, 85.50191
377.0090, 85.40951
377.4911, 85.28611
377.9732, 85.09855
378.4554, 84.83957
378.9375, 84.55269
379.4196, 84.19883
379.9017, 83.84042
380.3838, 83.73479
380.8659, 83.90969
381.3481, 84.12940
381.8302, 84.28041
382.3123, 84.34947
382.7944, 84.18752
383.2765, 83.71352
383.7586, 83.17131
384.2408, 82.90318
384.7229, 82.89291
385.2050, 83.02446
385.6871, 83.36082
386.1692, 83.76870
386.6513, 83.98097
387.1335, 83.98307
387.6156, 83.93233
388.0977, 83.93742
388.5798, 83.99281
389.0619, 84.09704
389.5440, 84.33243
390.0262, 84.52923
390.5083, 84.41734
390.9904, 84.08183
391.4725, 83.92979
391.9546, 84.37942
392.4367, 85.01365
392.9189, 85.48878
393.4010, 85.72691
393.8831, 85.82091
394.3652, 85.72031
394.8473, 85.51930
395.3294, 85.37203
395.8116, 85.34074
396.2937, 85.36608
396.7758, 85.43931
397.2579, 85.56517
397.7400, 85.68107
398.2221, 85.87411
398.7043, 85.99873
399.1864, 85.93533
399.6685, 85.38177
400.1506, 84.97674
400.6327, 84.75143
401.1148, 84.71277
401.5970, 84.93054
402.0791, 85.78065
402.5612, 86.44877
403.0433, 86.52204
403.5254, 85.69964
404.0075, 85.12325
404.4897, 84.83469
404.9718, 84.75801
405.4539, 84.80559
405.9360, 85.02280
406.4181, 85.22852
406.9002, 85.37632
407.3824, 85.46914
407.8645, 85.56709
408.3466, 85.69588
408.8287, 85.73035
409.3108, 85.46769
409.7929, 84.92885
410.2751, 84.60448
410.7572, 84.62527
411.2393, 84.79198
411.7214, 84.69122
412.2035, 84.35364
412.6856, 84.07668
413.1678, 84.15591
413.6499, 84.39626
414.1320, 84.31168
414.6141, 83.85126
415.0962, 83.39211
415.5783, 83.38062
416.0605, 83.61308
416.5426, 83.69809
417.0247, 83.34705
417.5068, 82.92920
417.9889, 82.84570
418.4710, 83.01271
418.9532, 83.03762
419.4353, 82.38268
419.9174, 81.68684
420.3995, 81.56590
420.8816, 82.44446
421.3637, 83.05689
421.8459, 82.59077
422.3280, 81.61597
422.8101, 80.99361
423.2922, 81.30555
423.7743, 81.65541
424.2564, 81.70721
424.7386, 81.41869
425.2207, 81.31493
425.7028, 81.58755
426.1849, 81.96600
426.6670, 82.27449
427.1491, 82.44127
427.6313, 82.66553
428.1134, 83.05959
428.5955, 83.49885
429.0776, 83.59969
429.5597, 83.15714
430.0418, 82.78981
430.5240, 82.76966
431.0061, 83.12897
431.4882, 83.39659
431.9703, 83.56518
432.4524, 83.65282
432.9345, 83.57790
433.4167, 83.32690
433.8988, 83.39898
434.3809, 83.99229
434.8630, 84.90614
435.3451, 85.70295
435.8272, 86.38196
436.3094, 86.92708
436.7915, 87.22212
437.2736, 87.38459
437.7557, 87.67009
438.2378, 88.09386
438.7199, 88.69283
439.2020, 89.71712
439.6841, 90.93645
440.1663, 91.87857
440.6484, 92.07713
441.1305, 92.11764
441.6126, 92.42870
442.0947, 92.99483
442.5768, 93.72094
443.0590, 94.62067
443.5411, 95.62156
444.0232, 96.67269
444.5053, 97.77650
444.9874, 98.90484
445.4695, 100.0542
445.9517, 101.2088
446.4338, 102.3563
446.9159, 103.4572
447.3980, 104.5910
447.8801, 105.8002
448.3622, 107.1012
448.8444, 108.3092
449.3265, 109.5020
449.8086, 110.5369
450.2907, 111.3116
450.7728, 111.7489
451.2549, 112.1086
451.7371, 112.3733
452.2192, 112.5860
452.7013, 112.8504
453.1834, 113.1909
453.6655, 113.4940
454.1476, 113.7694
454.6298, 113.9945
455.1119, 113.8194
455.5940, 113.1745
456.0761, 112.5056
456.5582, 112.3961
457.0403, 112.7084
457.5225, 112.6275
458.0046, 111.8178
458.4867, 110.8711
458.9688, 110.6942
459.4509, 111.1702
459.9330, 111.8259
460.4152, 112.6940
460.8973, 113.4575
461.3794, 113.6016
461.8615, 113.0910
462.3436, 112.6205
462.8257, 112.8220
463.3079, 113.2425
463.7900, 113.3691
464.2721, 112.8764
464.7542, 112.2820
465.2363, 111.7160
465.7184, 111.1994
466.2006, 110.7911
466.6827, 110.5646
467.1648, 110.3981
467.6469, 110.2951
468.1290, 110.3302
468.6111, 110.1248
469.0933, 109.5072
469.5754, 108.7578
470.0575, 108.0983
470.5396, 107.4862
471.0217, 107.0603
471.5038, 106.8869
471.9860, 106.8965
472.4681, 106.8514
472.9502, 106.7391
473.4323, 106.6114
473.9144, 106.4192
474.3965, 106.1723
474.8787, 106.3032
475.3608, 106.8683
475.8429, 107.5356
476.3250, 107.8251
476.8071, 107.8458
477.2892, 108.1687
477.7714, 109.0036
478.2535, 110.1077
478.7356, 111.1878
479.2177, 112.2491
479.6998, 113.2867
480.1819, 114.2544
480.6641, 115.2386
481.1462, 116.2952
481.6283, 117.4309
482.1104, 118.7014
482.5925, 120.2166
483.0746, 121.8523
483.5568, 123.4868
484.0389, 124.8789
484.5210, 126.4700
485.0031, 128.5444
485.4852, 130.9259
485.9673, 133.1338
486.4495, 134.6462
486.9316, 136.3706
487.4137, 138.6605
487.8958, 141.6565
488.3779, 144.5322
488.8600, 147.1777
489.3422, 149.8367
489.8243, 152.7852
490.3064, 156.0614
490.7885, 159.3836
491.2706, 162.7140
491.7527, 166.0634
492.2349, 169.6049
492.7170, 173.3285
493.1991, 177.0135
493.6812, 180.4776
494.1633, 183.7688
494.6454, 187.2330
495.1276, 190.8580
495.6097, 194.3689
496.0918, 197.2846
496.5739, 199.9104
497.0560, 202.7934
497.5381, 206.2186
498.0203, 209.6981
498.5024, 212.9038
498.9845, 215.8515
499.4666, 218.6596
499.9487, 221.2094
500.4308, 223.7433
500.9130, 226.6001
501.3951, 229.7695
501.8772, 232.3433
502.3593, 233.5878
502.8414, 234.4105
503.3235, 235.4359
503.8057, 237.3490
504.2878, 238.5418
504.7699, 238.7893
505.2520, 238.3685
505.7341, 237.7535
506.2162, 237.0830
506.6984, 235.9469
507.1805, 234.2727
507.6626, 232.0515
508.1447, 229.1671
508.6268, 225.5543
509.1089, 221.5146
509.5911, 217.1847
510.0732, 212.5805
510.5553, 207.8946
511.0374, 203.1590
511.5195, 198.2834
512.0016, 192.9896
512.4838, 187.4091
512.9659, 182.1156
513.4480, 177.2937
513.9301, 172.7367
514.4122, 168.1635
514.8943, 163.6185
515.3765, 159.2871
515.8586, 155.3149
516.3407, 151.5535
516.8228, 147.8949
517.3049, 144.2626
517.7870, 140.9466
518.2692, 138.3105
518.7513, 135.9431
519.2334, 133.4616
519.7155, 130.4101
520.1976, 127.7184
520.6797, 125.5527
521.1619, 123.8115
521.6440, 122.2708
522.1261, 121.1326
522.6082, 119.8587
523.0903, 118.1706
523.5724, 116.0546
524.0546, 114.3176
524.5367, 113.0074
525.0188, 111.9678
525.5009, 111.1395
525.9830, 110.4960
526.4651, 109.7667
526.9473, 108.9060
527.4294, 107.9499
527.9115, 106.8672
528.3936, 105.7250
528.8757, 104.7271
529.3578, 104.1295
529.8400, 103.6279
530.3221, 102.8463
530.8042, 101.8411
531.2863, 100.9355
531.7684, 100.3922
532.2505, 99.97230
532.7327, 99.47901
533.2148, 98.81718
533.6969, 98.30813
534.1790, 98.27415
534.6611, 98.34502
535.1432, 98.10519
535.6254, 97.24311
536.1075, 96.40712
536.5896, 95.60238
537.0717, 94.87383
537.5538, 94.45728
538.0359, 94.49635
538.5181, 94.50816
539.0002, 94.27791
539.4823, 93.81165
539.9644, 93.34293
540.4465, 92.86034
540.9286, 92.43289
541.4108, 92.10222
541.8929, 91.87392
542.3750, 91.82730
542.8571, 92.03330
543.3392, 92.24982
543.8214, 92.21165
544.3035, 91.95744
544.7856, 91.58411
545.2677, 90.95203
545.7498, 90.36281
546.2319, 90.07552
546.7141, 90.05253
547.1962, 90.05804
547.6783, 90.12886
548.1604, 90.09878
548.6425, 89.82201
549.1246, 89.13389
549.6068, 88.66161
550.0889, 88.62663
550.5710, 88.72646
551.0531, 88.68192
551.5352, 88.40237
552.0173, 88.17614
552.4995, 88.06226
552.9816, 88.00626
553.4637, 87.83878
553.9458, 87.52872
554.4279, 87.33118
554.9100, 87.42601
555.3922, 87.71622
555.8743, 87.79382
556.3564, 87.65849
556.8385, 87.49276
557.3206, 87.49195
557.8027, 87.54649
558.2849, 87.39706
558.7670, 86.93054
559.2491, 86.62238
559.7312, 87.10616
560.2133, 87.89693
560.6954, 88.33238
561.1776, 87.87630
561.6597, 87.34807
562.1418, 86.96349
562.6239, 86.71360
563.1060, 86.56548
563.5881, 86.59055
564.0703, 86.63885
564.5524, 86.66387
565.0345, 86.66161
565.5166, 86.67699
565.9987, 86.68044
566.4808, 86.75302
566.9630, 87.01624
567.4451, 87.49623
567.9272, 87.79594
568.4093, 87.87984
568.8914, 87.79555
569.3735, 87.43537
569.8557, 86.90852
570.3378, 86.74642
570.8199, 87.30820
571.3020, 88.14174
571.7841, 88.78139
572.2662, 89.21464
572.7484, 89.39474
573.2305, 88.91647
573.7126, 88.46218
574.1947, 88.57203
574.6768, 89.31448
575.1589, 90.06576
575.6411, 90.70407
576.1232, 91.22089
576.6053, 91.58862
577.0874, 91.61804
577.5695, 91.81018
578.0516, 92.24355
578.5338, 92.78452
579.0159, 93.22603
579.4980, 93.49967
579.9801, 93.89091
580.4622, 94.45171
580.9443, 95.18111
581.4265, 96.11943
581.9086, 97.26643
582.3907, 98.38166
582.8728, 99.30098
583.3549, 100.1047
583.8370, 101.0142
584.3192, 102.0309
584.8013, 103.0090
585.2834, 103.6485
585.7655, 104.2905
586.2476, 105.3741
586.7297, 107.1512
587.2118, 108.9107
587.6939, 110.2595
588.1760, 111.4635
588.6581, 112.8614
589.1403, 114.7122
589.6224, 116.5222
590.1045, 118.1989
590.5866, 119.7813
591.0687, 121.4027
591.5508, 123.0487
592.0330, 124.7313
592.5151, 126.4851
592.9972, 128.2937
593.4793, 129.9272
593.9614, 131.3609
594.4435, 132.8089
594.9257, 134.5569
595.4078, 136.4539
595.8899, 138.1032
596.3720, 139.4454
596.8541, 140.5571
597.3362, 141.4023
597.8184, 142.0873
598.3005, 142.7816
598.7826, 143.5982
599.2647, 144.3350
599.7468, 145.0232
600.2289, 145.5564
600.7111, 145.6988
601.1932, 145.1693
601.6753, 144.4699
602.1574, 143.7617
602.6395, 143.0298
603.1216, 142.0041
603.6038, 140.5616
604.0859, 139.0266
604.5680, 137.5281
605.0501, 136.0556
605.5322, 134.6670
606.0143, 133.3394
606.4965, 132.1392
606.9786, 131.2728
607.4607, 130.6057
607.9428, 129.6667
608.4249, 128.3310
608.9070, 126.8011
609.3892, 125.1247
609.8713, 123.4157
610.3534, 121.8409
610.8355, 120.6565
611.3176, 119.4867
611.7997, 118.0747
612.2819, 116.5180
612.7640, 115.1328
613.2461, 113.9916
613.7282, 113.0484
614.2103, 112.3029
614.6924, 111.7747
615.1746, 111.2792
615.6567, 110.8509
616.1388, 110.3959
616.6209, 109.8184
617.1030, 109.1152
617.5851, 108.4847
618.0673, 107.9407
618.5494, 107.4579
619.0315, 107.0265
619.5136, 106.6439
619.9957, 106.3249
620.4778, 106.1181
620.9600, 105.8757
621.4421, 105.3676
621.9242, 104.7244
622.4063, 104.2203
622.8884, 104.0252
623.3705, 103.9211
623.8527, 103.7992
624.3348, 103.6759
624.8169, 103.6886
625.2990, 104.1189
625.7811, 104.3914
626.2632, 104.2533
626.7454, 103.6694
627.2275, 103.1953
627.7096, 102.8387
628.1917, 102.5737
628.6738, 102.4632
629.1559, 102.4781
629.6381, 102.2095
630.1202, 101.5691
630.6023, 100.9163
631.0844, 100.7138
631.5665, 100.7895
632.0486, 100.7750
632.5308, 100.5102
633.0129, 100.2199
633.4950, 99.97360
633.9771, 99.82370
634.4592, 99.86466
634.9413, 100.5526
635.4235, 100.9884
635.9056, 100.7066
636.3877, 99.84245
636.8698, 99.33836
637.3519, 99.34931
637.8340, 99.48056
638.3162, 99.64133
638.7983, 99.82622
639.2804, 99.68279
639.7625, 99.16350
640.2446, 98.58070
640.7267, 98.14318
641.2089, 97.84843
641.6910, 97.71885
642.1731, 97.76468
642.6552, 97.90592
643.1373, 98.21219
