##NAMES=Coquimbite
##RRUFFID=R070666
##IDEAL CHEMISTRY=AlFe^3+^_3_(S^6+^O_4_)_6_(H_2_O)_12_&#183;6H_2_O
##LOCALITY=United Verde Mine, Jerome, Verde District, Black Hills (Black Hill Range), Yavapai County, Arizona, USA
##OWNER=RRUFF
##SOURCE=Michael Scott
##DESCRIPTION=Massive, globular, chalky-white; associated with yellow copiapite
##STATUS=The identification of this mineral has been confirmed by X-ray diffraction.
##URL=rruff.info/R070666
125.5809, 10796.34
126.0631, 10814.61
126.5452, 10839.83
127.0273, 10873.07
127.5094, 10911.11
127.9915, 10950.18
128.4736, 10988.13
128.9558, 11025.06
129.4379, 11063.47
129.9200, 11102.77
130.4021, 11144.38
130.8842, 11193.50
131.3663, 11246.52
131.8485, 11294.25
132.3306, 11325.64
132.8127, 11331.74
133.2948, 11364.62
133.7769, 11444.59
134.2590, 11530.95
134.7412, 11595.93
135.2233, 11635.73
135.7054, 11668.84
136.1875, 11720.24
136.6696, 11793.34
137.1517, 11881.98
137.6339, 12005.46
138.1160, 12139.04
138.5981, 12247.08
139.0802, 12314.30
139.5623, 12359.97
140.0444, 12426.02
140.5266, 12521.59
141.0087, 12611.49
141.4908, 12672.85
141.9729, 12712.95
142.4550, 12765.30
142.9371, 12851.74
143.4193, 12956.93
143.9014, 13048.20
144.3835, 13114.26
144.8656, 13179.24
145.3477, 13265.28
145.8298, 13373.62
146.3120, 13496.46
146.7941, 13654.35
147.2762, 13818.90
147.7583, 13959.45
148.2404, 14079.08
148.7225, 14160.98
149.2047, 14156.89
149.6868, 14033.15
150.1689, 13868.57
150.6510, 13698.97
151.1331, 13519.65
151.6152, 13321.23
152.0974, 13087.16
152.5795, 12817.39
153.0616, 12574.65
153.5437, 12367.70
154.0258, 12181.51
154.5080, 12013.74
154.9901, 11862.94
155.4722, 11729.04
155.9543, 11611.40
156.4364, 11507.13
156.9185, 11428.08
157.4007, 11375.64
157.8828, 11341.89
158.3649, 11329.34
158.8470, 11335.65
159.3291, 11348.75
159.8112, 11349.28
160.2934, 11324.43
160.7755, 11306.50
161.2576, 11292.47
161.7397, 11286.12
162.2218, 11293.08
162.7039, 11315.75
163.1861, 11348.60
163.6682, 11378.04
164.1503, 11411.97
164.6324, 11433.22
165.1145, 11418.72
165.5966, 11390.39
166.0788, 11392.34
166.5609, 11451.53
167.0430, 11551.41
167.5251, 11623.77
168.0072, 11643.23
168.4893, 11665.71
168.9715, 11729.76
169.4536, 11826.20
169.9357, 11906.65
170.4178, 11934.29
170.8999, 11921.25
171.3820, 11919.98
171.8642, 11950.85
172.3463, 11983.34
172.8284, 11985.66
173.3105, 11954.72
173.7926, 11917.53
174.2747, 11888.94
174.7569, 11867.82
175.2390, 11853.43
175.7211, 11849.15
176.2032, 11851.10
176.6853, 11852.41
177.1674, 11854.08
177.6496, 11852.78
178.1317, 11848.01
178.6138, 11839.38
179.0959, 11825.07
179.5780, 11797.83
180.0602, 11761.04
180.5423, 11739.40
181.0244, 11749.97
181.5065, 11756.71
181.9886, 11734.40
182.4707, 11690.13
182.9529, 11650.41
183.4350, 11645.92
183.9171, 11682.92
184.3992, 11694.29
184.8813, 11650.74
185.3634, 11600.42
185.8456, 11561.94
186.3277, 11536.79
186.8098, 11516.30
187.2919, 11489.69
187.7740, 11453.65
188.2561, 11421.52
188.7383, 11387.41
189.2204, 11360.72
189.7025, 11349.23
190.1846, 11353.95
190.6667, 11368.67
191.1488, 11382.05
191.6310, 11380.56
192.1131, 11403.00
192.5952, 11463.99
193.0773, 11538.30
193.5594, 11605.53
194.0415, 11658.10
194.5237, 11702.36
195.0058, 11753.09
195.4879, 11812.99
195.9700, 11876.86
196.4521, 11957.62
196.9342, 12038.43
197.4164, 12100.18
197.8985, 12134.13
198.3806, 12143.94
198.8627, 12140.35
199.3448, 12099.33
199.8270, 12073.58
200.3091, 12088.70
200.7912, 12124.55
201.2733, 12145.67
201.7554, 12132.97
202.2375, 12091.56
202.7197, 12044.99
203.2018, 11976.89
203.6839, 11921.79
204.1660, 11890.87
204.6481, 11883.06
205.1302, 11898.17
205.6124, 11943.46
206.0945, 12010.59
206.5766, 12053.17
207.0587, 12063.67
207.5408, 12058.75
208.0229, 12047.29
208.5051, 12029.06
208.9872, 12000.29
209.4693, 11956.64
209.9514, 11899.08
210.4335, 11837.92
210.9156, 11778.64
211.3978, 11712.14
211.8799, 11626.20
212.3620, 11519.75
212.8441, 11411.78
213.3262, 11313.24
213.8083, 11223.42
214.2905, 11143.73
214.7726, 11078.45
215.2547, 11021.19
215.7368, 10963.56
216.2189, 10904.09
216.7010, 10849.38
217.1832, 10807.75
217.6653, 10774.46
218.1474, 10742.21
218.6295, 10705.43
219.1116, 10668.79
219.5937, 10640.75
220.0759, 10621.53
220.5580, 10611.61
221.0401, 10621.59
221.5222, 10641.04
222.0043, 10647.38
222.4864, 10612.40
222.9686, 10554.86
223.4507, 10537.42
223.9328, 10582.63
224.4149, 10632.44
224.8970, 10656.72
225.3791, 10660.26
225.8613, 10653.29
226.3434, 10632.12
226.8255, 10601.85
227.3076, 10594.24
227.7897, 10624.34
228.2718, 10659.43
228.7540, 10681.90
229.2361, 10695.32
229.7182, 10710.10
230.2003, 10736.22
230.6824, 10772.66
231.1645, 10799.77
231.6467, 10804.32
232.1288, 10813.14
232.6109, 10840.32
233.0930, 10881.99
233.5751, 10925.43
234.0572, 10961.78
234.5394, 10990.99
235.0215, 11014.63
235.5036, 11031.92
235.9857, 11043.49
236.4678, 11035.82
236.9500, 11018.84
237.4321, 11021.85
237.9142, 11085.41
238.3963, 11221.76
238.8784, 11302.67
239.3605, 11261.83
239.8427, 11218.73
240.3248, 11218.94
240.8069, 11258.97
241.2890, 11308.35
241.7711, 11336.76
242.2532, 11338.57
242.7354, 11353.59
243.2175, 11404.85
243.6996, 11449.35
244.1817, 11462.22
244.6638, 11448.03
245.1459, 11431.27
245.6281, 11437.83
246.1102, 11473.54
246.5923, 11503.70
247.0744, 11533.32
247.5565, 11553.55
248.0386, 11543.52
248.5208, 11513.52
249.0029, 11502.97
249.4850, 11564.96
249.9671, 11735.94
250.4492, 11820.18
250.9313, 11751.81
251.4135, 11665.07
251.8956, 11616.54
252.3777, 11611.94
252.8598, 11628.46
253.3419, 11642.72
253.8240, 11652.37
254.3062, 11670.21
254.7883, 11706.87
255.2704, 11741.37
255.7525, 11757.96
256.2346, 11759.34
256.7167, 11763.39
257.1989, 11790.75
257.6810, 11851.00
258.1631, 11894.50
258.6452, 11903.18
259.1273, 11913.83
259.6094, 11952.79
260.0916, 12016.40
260.5737, 12077.22
261.0558, 12104.53
261.5379, 12085.86
262.0200, 12089.18
262.5021, 12129.40
262.9843, 12174.00
263.4664, 12196.69
263.9485, 12202.67
264.4306, 12222.17
264.9127, 12287.64
265.3948, 12410.86
265.8770, 12523.24
266.3591, 12625.60
266.8412, 12718.80
267.3233, 12795.73
267.8054, 12860.70
268.2875, 12929.12
268.7697, 13015.99
269.2518, 13124.10
269.7339, 13233.50
270.2160, 13341.68
270.6981, 13452.49
271.1802, 13571.02
271.6624, 13695.14
272.1445, 13817.03
272.6266, 13928.34
273.1087, 14026.29
273.5908, 14138.39
274.0729, 14264.88
274.5551, 14402.27
275.0372, 14557.12
275.5193, 14723.30
276.0014, 14885.78
276.4835, 15030.64
276.9656, 15158.01
277.4478, 15281.64
277.9299, 15410.97
278.4120, 15529.71
278.8941, 15638.82
279.3762, 15733.56
279.8583, 15800.70
280.3405, 15827.67
280.8226, 15813.83
281.3047, 15805.37
281.7868, 15833.49
282.2689, 15835.58
282.7510, 15783.29
283.2332, 15684.98
283.7153, 15565.07
284.1974, 15440.62
284.6795, 15310.95
285.1616, 15152.73
285.6437, 14928.96
286.1259, 14720.72
286.6080, 14561.71
287.0901, 14436.66
287.5722, 14315.97
288.0543, 14181.24
288.5364, 14033.36
289.0186, 13874.04
289.5007, 13688.96
289.9828, 13509.80
290.4649, 13343.61
290.9470, 13189.30
291.4291, 13049.48
291.9113, 12927.67
292.3934, 12816.40
292.8755, 12679.07
293.3576, 12465.64
293.8397, 12284.97
294.3218, 12177.03
294.8040, 12107.23
295.2861, 12022.84
295.7682, 11896.83
296.2503, 11748.06
296.7325, 11637.11
297.2146, 11607.01
297.6967, 11566.27
298.1788, 11502.50
298.6609, 11426.71
299.1430, 11351.05
299.6252, 11280.35
300.1073, 11213.62
300.5894, 11147.74
301.0715, 11077.26
301.5536, 11015.20
302.0357, 10966.23
302.5179, 10923.49
303.0000, 10880.59
303.4821, 10835.67
303.9642, 10790.94
304.4463, 10751.78
304.9284, 10726.90
305.4106, 10693.25
305.8927, 10646.21
306.3748, 10594.40
306.8569, 10543.43
307.3390, 10495.14
307.8211, 10448.76
308.3033, 10402.67
308.7854, 10351.90
309.2675, 10314.38
309.7496, 10297.76
310.2317, 10286.30
310.7138, 10276.19
311.1960, 10263.58
311.6781, 10239.10
312.1602, 10188.20
312.6423, 10099.09
313.1244, 10031.31
313.6065, 9988.818
314.0887, 9960.874
314.5708, 9950.567
315.0529, 9952.454
315.5350, 9952.804
316.0171, 9939.075
316.4992, 9910.367
316.9814, 9877.784
317.4635, 9836.272
317.9456, 9795.451
318.4277, 9755.972
318.9098, 9719.671
319.3919, 9689.685
319.8741, 9668.849
320.3562, 9656.659
320.8383, 9646.342
321.3204, 9648.177
321.8025, 9640.224
322.2846, 9610.777
322.7668, 9569.438
323.2489, 9530.841
323.7310, 9503.471
324.2131, 9485.555
324.6952, 9470.626
325.1773, 9461.189
325.6595, 9451.218
326.1416, 9435.069
326.6237, 9419.357
327.1058, 9413.984
327.5879, 9424.444
328.0700, 9440.348
328.5522, 9437.287
329.0343, 9403.413
329.5164, 9376.267
329.9985, 9368.593
330.4806, 9366.785
330.9627, 9361.289
331.4449, 9349.251
331.9270, 9330.479
332.4091, 9300.395
332.8912, 9253.098
333.3733, 9219.713
333.8554, 9226.204
334.3376, 9234.793
334.8197, 9218.925
335.3018, 9176.306
335.7839, 9130.391
336.2660, 9101.286
336.7481, 9088.917
337.2303, 9095.083
337.7124, 9142.883
338.1945, 9187.074
338.6766, 9198.925
339.1587, 9180.987
339.6408, 9155.190
340.1230, 9134.984
340.6051, 9119.468
341.0872, 9103.498
341.5693, 9085.363
342.0514, 9068.941
342.5335, 9056.004
343.0157, 9046.261
343.4978, 9039.279
343.9799, 9035.231
344.4620, 9033.608
344.9441, 9032.928
345.4262, 9032.479
345.9084, 9034.979
346.3905, 9048.461
346.8726, 9065.332
347.3547, 9072.201
347.8368, 9059.947
348.3189, 9041.439
348.8011, 9030.875
349.2832, 9028.373
349.7653, 9027.698
350.2474, 9025.768
350.7295, 9024.040
351.2116, 9025.666
351.6938, 9034.228
352.1759, 9040.371
352.6580, 9039.495
353.1401, 9031.468
353.6222, 9012.876
354.1043, 8976.233
354.5865, 8936.746
355.0686, 8924.170
355.5507, 8945.763
356.0328, 8963.950
356.5149, 8958.429
356.9970, 8942.094
357.4792, 8939.688
357.9613, 8959.249
358.4434, 8984.345
358.9255, 8993.177
359.4076, 8983.410
359.8897, 8970.743
360.3719, 8953.477
360.8540, 8935.888
361.3361, 8921.949
361.8182, 8912.122
362.3003, 8905.752
362.7824, 8904.254
363.2646, 8908.917
363.7467, 8899.197
364.2288, 8858.934
364.7109, 8820.500
365.1930, 8805.123
365.6751, 8807.603
366.1573, 8807.261
366.6394, 8788.508
367.1215, 8755.259
367.6036, 8743.547
368.0857, 8781.826
368.5678, 8807.428
369.0500, 8790.688
369.5321, 8756.848
370.0142, 8747.392
370.4963, 8781.762
370.9784, 8838.449
371.4605, 8861.456
371.9427, 8819.896
372.4248, 8788.174
372.9069, 8775.590
373.3890, 8769.721
373.8711, 8757.375
374.3532, 8736.578
374.8354, 8719.280
375.3175, 8725.135
375.7996, 8766.479
376.2817, 8792.432
376.7638, 8796.947
377.2459, 8791.690
377.7281, 8775.361
378.2102, 8752.438
378.6923, 8734.298
379.1744, 8731.081
379.6566, 8742.313
380.1387, 8758.824
380.6208, 8796.556
381.1029, 8817.773
381.5850, 8797.654
382.0671, 8754.428
382.5493, 8720.702
383.0314, 8717.067
383.5135, 8727.862
383.9956, 8713.554
384.4777, 8660.973
384.9598, 8624.232
385.4420, 8637.962
385.9241, 8672.759
386.4062, 8704.698
386.8883, 8731.055
387.3704, 8745.122
387.8525, 8734.818
388.3347, 8701.677
388.8168, 8671.197
389.2989, 8647.289
389.7810, 8632.602
390.2631, 8632.368
390.7452, 8647.765
391.2274, 8658.541
391.7095, 8646.912
392.1916, 8625.546
392.6737, 8621.693
393.1558, 8642.161
393.6379, 8668.778
394.1201, 8687.108
394.6022, 8696.965
395.0843, 8696.192
395.5664, 8670.596
396.0485, 8644.079
396.5306, 8642.876
397.0128, 8663.560
397.4949, 8673.634
397.9770, 8645.470
398.4591, 8589.408
398.9412, 8576.813
399.4233, 8646.740
399.9055, 8707.866
400.3876, 8726.288
400.8697, 8718.215
401.3518, 8712.720
401.8339, 8721.991
402.3160, 8735.529
402.7982, 8730.815
403.2803, 8684.317
403.7624, 8655.282
404.2445, 8652.822
404.7266, 8661.116
405.2087, 8672.303
405.6909, 8682.857
406.1730, 8687.399
406.6551, 8677.638
407.1372, 8649.271
407.6193, 8634.067
408.1014, 8642.474
408.5836, 8653.984
409.0657, 8663.215
409.5478, 8670.058
410.0299, 8676.461
410.5120, 8684.731
410.9941, 8692.374
411.4763, 8687.940
411.9584, 8661.665
412.4405, 8641.821
412.9226, 8638.497
413.4047, 8643.633
413.8868, 8650.502
414.3690, 8657.469
414.8511, 8662.676
415.3332, 8662.118
415.8153, 8655.418
416.2974, 8602.548
416.7795, 8661.879
417.2617, 8696.261
417.7438, 8707.032
418.2259, 8623.483
418.7080, 8661.730
419.1901, 8651.167
419.6722, 8638.602
420.1544, 8693.991
420.6365, 8624.161
421.1186, 8678.473
421.6007, 8683.229
422.0828, 8710.665
422.5649, 8688.990
423.0471, 8682.484
423.5292, 8725.105
424.0113, 8740.524
424.4934, 8713.195
424.9755, 8742.074
425.4576, 8670.527
425.9398, 8687.105
426.4219, 8741.705
426.9040, 8716.845
427.3861, 8697.504
427.8682, 8718.813
428.3503, 8744.461
428.8325, 8740.024
429.3146, 8699.477
429.7967, 8654.002
430.2788, 8645.202
430.7609, 8686.646
431.2430, 8716.410
431.7252, 8721.004
432.2073, 8728.870
432.6894, 8759.668
433.1715, 8805.782
433.6536, 8846.206
434.1357, 8866.035
434.6179, 8868.066
435.1000, 8867.195
435.5821, 8863.623
436.0642, 8856.295
436.5463, 8831.568
437.0284, 8809.808
437.5106, 8817.047
437.9927, 8862.336
438.4748, 8917.216
438.9569, 8940.951
439.4390, 8930.842
439.9211, 8932.403
440.4033, 8958.009
440.8854, 8993.117
441.3675, 9030.301
441.8496, 9068.159
442.3317, 9099.850
442.8138, 9121.304
443.2960, 9134.468
443.7781, 9138.098
444.2602, 9129.122
444.7423, 9132.498
445.2244, 9172.285
445.7065, 9237.497
446.1887, 9288.174
446.6708, 9313.747
447.1529, 9333.871
447.6350, 9361.419
448.1171, 9391.789
448.5992, 9411.783
449.0814, 9414.896
449.5635, 9411.541
450.0456, 9421.584
450.5277, 9458.271
451.0098, 9479.451
451.4919, 9403.695
451.9741, 9477.644
452.4562, 9525.226
452.9383, 9547.782
453.4204, 9474.604
453.9025, 9521.808
454.3846, 9518.786
454.8668, 9512.351
455.3489, 9572.453
455.8310, 9505.922
456.3131, 9562.118
456.7952, 9567.345
457.2773, 9593.837
457.7595, 9569.803
458.2416, 9559.523
458.7237, 9596.957
459.2058, 9605.774
459.6879, 9528.420
460.1700, 9527.625
460.6522, 9539.020
461.1343, 9547.669
461.6164, 9553.239
462.0985, 9563.542
462.5807, 9593.514
463.0628, 9631.590
463.5449, 9645.325
464.0270, 9630.947
464.5091, 9600.305
464.9912, 9548.189
465.4734, 9486.336
465.9555, 9444.357
466.4376, 9435.400
466.9197, 9435.315
467.4018, 9430.555
467.8839, 9422.623
468.3661, 9413.681
468.8482, 9402.942
469.3303, 9397.587
469.8124, 9411.910
470.2945, 9459.296
470.7766, 9492.004
471.2588, 9508.463
471.7409, 9509.564
472.2230, 9485.995
472.7051, 9444.441
473.1872, 9409.306
473.6693, 9400.560
474.1515, 9416.016
474.6336, 9429.387
475.1157, 9429.672
475.5978, 9441.977
476.0799, 9479.586
476.5620, 9526.858
477.0442, 9568.372
477.5263, 9598.807
478.0084, 9620.536
478.4905, 9631.389
478.9726, 9628.450
479.4547, 9643.833
479.9369, 9688.293
480.4190, 9745.465
480.9011, 9811.279
481.3832, 9881.324
481.8653, 9940.925
482.3474, 9977.531
482.8296, 10001.99
483.3117, 10026.56
483.7938, 10050.90
484.2759, 10089.51
484.7580, 10156.02
485.2401, 10238.33
485.7223, 10305.80
486.2044, 10354.69
486.6865, 10397.01
487.1686, 10437.91
487.6507, 10474.27
488.1328, 10497.88
488.6150, 10507.63
489.0971, 10516.83
489.5792, 10539.95
490.0613, 10578.44
490.5434, 10619.86
491.0255, 10671.81
491.5077, 10717.92
491.9898, 10746.82
492.4719, 10766.22
492.9540, 10790.26
493.4361, 10825.99
493.9182, 10867.96
494.4004, 10905.92
494.8825, 10942.76
495.3646, 10967.58
495.8467, 10974.94
496.3288, 10972.57
496.8109, 10957.36
497.2931, 10933.14
497.7752, 10918.42
498.2573, 10939.66
498.7394, 10978.91
499.2215, 10981.39
499.7036, 10937.97
500.1858, 10896.94
500.6679, 10894.58
501.1500, 10911.19
501.6321, 10900.73
502.1142, 10845.71
502.5963, 10789.25
503.0785, 10767.78
503.5606, 10756.49
504.0427, 10699.83
504.5248, 10581.95
505.0069, 10450.28
505.4890, 10364.50
505.9712, 10341.05
506.4533, 10281.81
506.9354, 10147.41
507.4175, 10020.69
507.8996, 9949.525
508.3817, 9913.446
508.8639, 9868.175
509.3460, 9789.928
509.8281, 9691.101
510.3102, 9600.601
510.7923, 9519.946
511.2744, 9445.194
511.7566, 9378.270
512.2387, 9315.440
512.7208, 9255.551
513.2029, 9197.870
513.6851, 9139.972
514.1672, 9073.350
514.6493, 9006.021
515.1314, 8960.400
515.6135, 8939.476
516.0956, 8927.715
516.5778, 8929.233
517.0599, 8929.174
517.5420, 8892.851
518.0241, 8793.057
518.5062, 8706.813
518.9883, 8683.019
519.4705, 8689.304
519.9526, 8672.862
520.4347, 8622.153
520.9168, 8560.182
521.3989, 8510.106
521.8810, 8472.022
522.3632, 8444.735
522.8453, 8437.898
523.3274, 8429.652
523.8095, 8408.081
524.2916, 8381.436
524.7737, 8363.573
525.2559, 8360.653
525.7380, 8365.631
526.2201, 8367.932
526.7022, 8368.420
527.1843, 8361.563
527.6664, 8340.147
528.1486, 8317.169
528.6307, 8302.934
529.1128, 8294.389
529.5949, 8279.038
530.0770, 8239.819
530.5591, 8196.803
531.0413, 8185.864
531.5234, 8205.443
532.0055, 8213.540
532.4876, 8187.582
532.9697, 8143.923
533.4518, 8118.148
533.9340, 8116.989
534.4161, 8110.639
534.8982, 8078.039
535.3803, 8048.038
535.8624, 8061.282
536.3445, 8111.170
536.8267, 8143.425
537.3088, 8111.621
537.7909, 8026.270
538.2730, 7976.422
538.7551, 7983.776
539.2372, 7998.588
539.7194, 8025.359
540.2015, 8048.723
540.6836, 8051.092
541.1657, 8030.041
541.6478, 8003.799
542.1299, 7989.770
542.6121, 7986.226
543.0942, 7981.841
543.5763, 7976.089
544.0584, 7969.277
544.5405, 7962.729
545.0226, 7955.010
545.5048, 7942.160
545.9869, 7916.204
546.4690, 7896.180
546.9511, 7899.359
547.4332, 7915.492
547.9153, 7923.151
548.3975, 7916.589
548.8796, 7904.392
549.3617, 7896.341
549.8438, 7893.372
550.3259, 7889.345
550.8080, 7885.984
551.2902, 7879.965
551.7723, 7864.334
552.2544, 7846.741
552.7365, 7842.305
553.2186, 7857.857
553.7007, 7876.601
554.1829, 7866.309
554.6650, 7820.744
555.1471, 7791.862
555.6292, 7793.153
556.1113, 7803.873
556.5934, 7809.771
557.0756, 7813.080
557.5577, 7821.714
558.0398, 7843.472
558.5219, 7867.694
559.0040, 7889.550
559.4861, 7906.349
559.9683, 7900.203
560.4504, 7859.768
560.9325, 7807.620
561.4146, 7781.719
561.8967, 7795.049
562.3788, 7799.548
562.8610, 7777.691
563.3431, 7762.098
563.8252, 7782.131
564.3073, 7824.968
564.7894, 7857.714
565.2715, 7861.381
565.7537, 7843.202
566.2358, 7815.728
566.7179, 7767.801
567.2000, 7744.756
567.6821, 7778.365
568.1642, 7819.856
568.6464, 7842.987
569.1285, 7847.310
569.6106, 7841.394
570.0927, 7821.861
570.5748, 7798.727
571.0569, 7782.186
571.5391, 7772.943
572.0212, 7784.636
572.5033, 7830.744
572.9854, 7890.515
573.4675, 7921.089
573.9496, 7912.761
574.4318, 7904.073
574.9139, 7896.375
575.3960, 7891.315
575.8781, 7886.987
576.3602, 7885.982
576.8423, 7897.930
577.3245, 7931.429
577.8066, 7975.839
578.2887, 7993.980
578.7708, 7970.951
579.2529, 7958.436
579.7350, 7973.290
580.2172, 7996.070
580.6993, 8015.480
581.1814, 8031.048
581.6635, 8047.456
582.1456, 8065.468
582.6277, 8086.660
583.1099, 8118.408
583.5920, 8159.666
584.0741, 8187.503
584.5562, 8186.485
585.0383, 8172.133
585.5204, 8179.456
586.0026, 8221.160
586.4847, 8252.526
586.9668, 8259.609
587.4489, 8263.250
587.9310, 8276.078
588.4131, 8299.210
588.8953, 8332.430
589.3774, 8378.043
589.8595, 8427.313
590.3416, 8448.095
590.8237, 8420.795
591.3058, 8422.869
591.7880, 8505.944
592.2701, 8594.438
592.7522, 8634.939
593.2343, 8630.559
593.7164, 8621.113
594.1985, 8622.794
594.6807, 8631.156
595.1628, 8640.454
595.6449, 8651.011
596.1270, 8666.501
596.6091, 8689.612
597.0912, 8715.633
597.5734, 8735.434
598.0555, 8747.087
598.5376, 8755.908
599.0197, 8760.998
599.5018, 8764.030
599.9839, 8775.984
600.4661, 8786.194
600.9482, 8766.161
601.4303, 8696.607
601.9124, 8607.455
602.3945, 8565.052
602.8766, 8580.111
603.3588, 8574.599
603.8409, 8521.968
604.3230, 8460.662
604.8051, 8420.118
605.2872, 8396.990
605.7693, 8376.405
606.2515, 8353.321
606.7336, 8331.615
607.2157, 8318.285
607.6978, 8309.085
608.1799, 8290.322
608.6620, 8256.617
609.1442, 8218.530
609.6263, 8193.001
610.1084, 8187.896
610.5905, 8161.590
611.0726, 8087.705
611.5547, 8022.883
612.0369, 7994.266
612.5190, 7985.358
613.0011, 7968.385
613.4832, 7932.227
613.9653, 7894.580
614.4474, 7881.714
614.9296, 7889.879
615.4117, 7885.233
615.8938, 7860.279
616.3759, 7831.269
616.8580, 7808.923
617.3401, 7792.524
617.8223, 7778.520
618.3044, 7773.210
618.7865, 7762.600
619.2686, 7729.149
619.7507, 7692.800
620.2328, 7687.711
620.7150, 7716.351
621.1971, 7743.538
