##NAMES=Coquimbite
##RRUFFID=R070666
##IDEAL CHEMISTRY=AlFe^3+^_3_(S^6+^O_4_)_6_(H_2_O)_12_&#183;6H_2_O
##LOCALITY=United Verde Mine, Jerome, Verde District, Black Hills (Black Hill Range), Yavapai County, Arizona, USA
##OWNER=RRUFF
##SOURCE=Michael Scott
##DESCRIPTION=Massive, globular, chalky-white; associated with yellow copiapite
##STATUS=The identification of this mineral has been confirmed by X-ray diffraction.
##URL=rruff.info/R070666
158.8235, 4099.399
159.3056, 4078.202
159.7877, 4073.880
160.2698, 4085.170
160.7519, 4095.739
161.2340, 4091.910
161.7162, 4088.303
162.1983, 4099.162
162.6804, 4151.366
163.1625, 4200.991
163.6446, 4220.582
164.1267, 4203.549
164.6089, 4196.614
165.0910, 4233.670
165.5731, 4293.205
166.0552, 4340.588
166.5373, 4345.072
167.0194, 4341.712
167.5016, 4355.563
167.9837, 4393.353
168.4658, 4440.972
168.9479, 4497.194
169.4300, 4557.906
169.9121, 4611.229
170.3943, 4652.258
170.8764, 4681.494
171.3585, 4697.847
171.8406, 4691.624
172.3227, 4683.067
172.8048, 4691.819
173.2870, 4715.813
173.7691, 4739.013
174.2512, 4748.922
174.7333, 4750.618
175.2154, 4752.382
175.6975, 4760.932
176.1797, 4769.342
176.6618, 4767.743
177.1439, 4755.538
177.6260, 4742.241
178.1081, 4737.554
178.5902, 4738.729
179.0724, 4738.384
179.5545, 4724.887
180.0366, 4709.321
180.5187, 4714.342
181.0008, 4745.080
181.4829, 4781.752
181.9651, 4808.307
182.4472, 4823.523
182.9293, 4820.392
183.4114, 4776.180
183.8935, 4709.413
184.3756, 4673.602
184.8578, 4687.118
185.3399, 4718.334
185.8220, 4714.668
186.3041, 4677.160
186.7862, 4630.626
187.2683, 4587.299
187.7504, 4548.879
188.2326, 4521.251
188.7147, 4505.826
189.1968, 4502.475
189.6789, 4513.856
190.1610, 4540.628
190.6431, 4573.911
191.1253, 4606.067
191.6074, 4636.958
192.0895, 4667.355
192.5716, 4696.056
193.0537, 4723.764
193.5358, 4753.375
194.0180, 4784.151
194.5001, 4818.829
194.9822, 4859.164
195.4643, 4905.402
195.9464, 4961.974
196.4285, 5040.800
196.9107, 5139.025
197.3928, 5210.963
197.8749, 5249.847
198.3570, 5272.744
198.8391, 5313.285
199.3212, 5375.213
199.8034, 5428.672
200.2855, 5455.847
200.7676, 5454.946
201.2497, 5451.100
201.7318, 5447.104
202.2139, 5440.031
202.6961, 5418.265
203.1782, 5376.866
203.6603, 5338.226
204.1424, 5320.324
204.6245, 5326.629
205.1066, 5327.499
205.5888, 5312.692
206.0709, 5289.681
206.5530, 5299.475
207.0351, 5351.364
207.5172, 5414.262
207.9993, 5466.974
208.4815, 5514.000
208.9636, 5532.274
209.4457, 5512.073
209.9278, 5455.259
210.4099, 5400.807
210.8920, 5353.669
211.3742, 5300.953
211.8563, 5225.216
212.3384, 5119.353
212.8205, 5010.652
213.3026, 4903.518
213.7847, 4798.368
214.2669, 4699.713
214.7490, 4606.845
215.2311, 4521.069
215.7132, 4444.296
216.1953, 4377.846
216.6774, 4318.806
217.1596, 4266.998
217.6417, 4223.052
218.1238, 4184.693
218.6059, 4152.422
219.0880, 4125.604
219.5701, 4101.382
220.0523, 4076.803
220.5344, 4060.282
221.0165, 4057.575
221.4986, 4075.911
221.9807, 4087.385
222.4628, 4087.428
222.9450, 4080.840
223.4271, 4084.932
223.9092, 4106.689
224.3913, 4128.031
224.8734, 4137.658
225.3555, 4129.594
225.8377, 4123.481
226.3198, 4118.634
226.8019, 4116.271
227.2840, 4125.554
227.7661, 4154.856
228.2482, 4184.903
228.7303, 4200.295
229.2125, 4191.336
229.6946, 4188.694
230.1767, 4197.562
230.6588, 4217.465
231.1409, 4237.354
231.6230, 4259.009
232.1052, 4278.845
232.5873, 4292.181
233.0694, 4291.959
233.5515, 4299.071
234.0336, 4320.244
234.5157, 4356.690
234.9979, 4384.818
235.4800, 4402.349
235.9621, 4413.937
236.4442, 4423.540
236.9263, 4425.502
237.4084, 4435.851
237.8906, 4462.773
238.3727, 4511.188
238.8548, 4541.682
239.3369, 4542.811
239.8190, 4534.293
240.3011, 4543.993
240.7833, 4583.441
241.2654, 4622.794
241.7475, 4653.210
242.2296, 4671.642
242.7117, 4692.672
243.1938, 4715.520
243.6760, 4741.295
244.1581, 4772.685
244.6402, 4813.714
245.1223, 4854.086
245.6044, 4889.910
246.0865, 4920.653
246.5687, 4948.744
247.0508, 4974.259
247.5329, 4996.953
248.0150, 5016.047
248.4971, 5029.858
248.9792, 5042.553
249.4614, 5053.834
249.9435, 5056.891
250.4256, 5076.879
250.9077, 5126.534
251.3898, 5190.692
251.8719, 5222.153
252.3541, 5200.868
252.8362, 5177.062
253.3183, 5174.282
253.8004, 5194.809
254.2825, 5232.637
254.7646, 5297.055
255.2468, 5377.953
255.7289, 5434.741
256.2110, 5456.597
256.6931, 5471.143
257.1752, 5494.147
257.6573, 5527.765
258.1395, 5563.616
258.6216, 5598.930
259.1037, 5635.986
259.5858, 5688.110
260.0679, 5766.292
260.5500, 5842.791
261.0322, 5894.921
261.5143, 5910.135
261.9964, 5935.975
262.4785, 5980.812
262.9606, 6041.175
263.4427, 6097.047
263.9249, 6145.077
264.4070, 6194.054
264.8891, 6250.973
265.3712, 6315.995
265.8533, 6388.055
266.3354, 6468.985
266.8176, 6557.506
267.2997, 6650.613
267.7818, 6750.150
268.2639, 6849.616
268.7460, 6942.492
269.2281, 7028.371
269.7103, 7108.157
270.1924, 7175.604
270.6745, 7234.590
271.1566, 7322.268
271.6387, 7445.588
272.1208, 7582.847
272.6030, 7712.756
273.0851, 7834.418
273.5672, 7952.569
274.0493, 8065.618
274.5314, 8174.837
275.0135, 8296.296
275.4957, 8434.020
275.9778, 8573.507
276.4599, 8692.814
276.9420, 8786.892
277.4241, 8894.991
277.9063, 9032.273
278.3884, 9195.365
278.8705, 9335.258
279.3526, 9448.652
279.8347, 9547.966
280.3168, 9647.880
280.7990, 9749.453
281.2811, 9841.531
281.7632, 9930.474
282.2453, 10010.11
282.7274, 10030.38
283.2095, 9986.664
283.6917, 9900.398
284.1738, 9786.769
284.6559, 9645.504
285.1380, 9501.782
285.6201, 9367.165
286.1022, 9238.157
286.5844, 9086.327
287.0665, 8908.161
287.5486, 8722.125
288.0307, 8551.088
288.5128, 8393.998
288.9949, 8233.565
289.4771, 8062.211
289.9592, 7883.125
290.4413, 7699.110
290.9234, 7510.243
291.4055, 7325.389
291.8876, 7153.433
292.3697, 6994.408
292.8518, 6848.215
293.3340, 6721.287
293.8161, 6607.171
294.2982, 6490.413
294.7803, 6369.270
295.2624, 6251.691
295.7445, 6148.947
296.2267, 6056.947
296.7088, 5960.592
297.1909, 5844.917
297.6730, 5720.725
298.1551, 5614.761
298.6372, 5526.356
299.1194, 5450.433
299.6015, 5391.737
300.0836, 5343.589
300.5657, 5287.169
301.0478, 5197.032
301.5299, 5100.350
302.0121, 5045.282
302.4942, 5033.672
302.9763, 5029.206
303.4584, 4999.614
303.9405, 4952.561
304.4226, 4903.901
304.9048, 4862.532
305.3869, 4821.899
305.8690, 4774.209
306.3511, 4718.403
306.8332, 4663.094
307.3153, 4615.576
307.7975, 4572.737
308.2796, 4530.441
308.7617, 4482.549
309.2438, 4436.546
309.7259, 4400.748
310.2080, 4374.961
310.6902, 4351.457
311.1723, 4324.270
311.6544, 4296.399
312.1365, 4272.326
312.6186, 4261.671
313.1007, 4249.528
313.5829, 4225.382
314.0650, 4189.115
314.5471, 4149.929
315.0292, 4108.199
315.5113, 4067.171
315.9934, 4030.328
316.4756, 3996.096
316.9577, 3968.571
317.4398, 3954.794
317.9219, 3954.666
318.4040, 3946.639
318.8861, 3916.065
319.3683, 3876.347
319.8504, 3840.239
320.3325, 3808.604
320.8146, 3783.569
321.2967, 3768.075
321.7788, 3762.121
322.2610, 3755.949
322.7431, 3748.114
323.2252, 3738.789
323.7073, 3728.111
324.1894, 3709.553
324.6715, 3696.488
325.1537, 3698.263
325.6358, 3714.000
326.1179, 3714.063
326.6000, 3676.562
327.0821, 3633.399
327.5642, 3606.376
328.0464, 3612.243
328.5285, 3616.743
329.0106, 3617.418
329.4927, 3614.235
329.9748, 3607.094
330.4569, 3593.046
330.9391, 3577.378
331.4212, 3563.237
331.9033, 3550.609
332.3854, 3540.081
332.8675, 3533.952
333.3496, 3530.870
333.8318, 3520.869
334.3139, 3498.790
334.7960, 3476.852
335.2781, 3462.609
335.7602, 3458.260
336.2423, 3456.622
336.7245, 3457.617
337.2066, 3460.878
337.6887, 3465.979
338.1708, 3474.892
338.6529, 3481.214
339.1350, 3479.912
339.6172, 3468.976
340.0993, 3461.697
340.5814, 3460.990
341.0635, 3463.012
341.5456, 3456.665
342.0277, 3440.178
342.5099, 3423.745
342.9920, 3411.289
343.4741, 3402.726
343.9562, 3405.123
344.4383, 3422.637
344.9204, 3444.927
345.4026, 3452.424
345.8847, 3444.771
346.3668, 3434.278
346.8489, 3425.057
347.3310, 3417.808
347.8131, 3417.310
348.2953, 3425.649
348.7774, 3434.701
349.2595, 3429.236
349.7416, 3412.197
350.2237, 3401.932
350.7058, 3416.977
351.1880, 3443.302
351.6701, 3449.111
352.1522, 3430.842
352.6343, 3408.133
353.1164, 3398.681
353.5985, 3400.628
354.0807, 3409.056
354.5628, 3429.661
355.0449, 3451.838
355.5270, 3464.687
356.0091, 3467.910
356.4912, 3461.920
356.9734, 3435.965
357.4555, 3402.733
357.9376, 3382.526
358.4197, 3390.992
358.9018, 3409.014
359.3839, 3429.298
359.8661, 3451.147
360.3482, 3461.311
360.8303, 3439.185
361.3124, 3407.230
361.7945, 3388.176
362.2766, 3403.238
362.7588, 3419.186
363.2409, 3420.426
363.7230, 3408.966
364.2051, 3404.183
364.6872, 3419.830
365.1693, 3439.638
365.6515, 3452.354
366.1336, 3451.813
366.6157, 3448.396
367.0978, 3443.632
367.5799, 3437.375
368.0620, 3428.735
368.5442, 3414.319
369.0263, 3400.110
369.5084, 3388.964
369.9905, 3381.822
370.4726, 3376.743
370.9547, 3373.528
371.4369, 3372.444
371.9190, 3374.355
372.4011, 3380.990
372.8832, 3388.424
373.3653, 3395.352
373.8474, 3402.290
374.3295, 3407.170
374.8116, 3409.132
375.2938, 3409.694
375.7759, 3411.539
376.2580, 3414.706
376.7401, 3418.901
377.2222, 3424.182
377.7043, 3430.657
378.1865, 3436.315
378.6686, 3440.507
379.1507, 3445.254
379.6328, 3453.500
380.1149, 3465.392
380.5970, 3478.798
381.0792, 3496.004
381.5613, 3514.384
382.0434, 3522.070
382.5255, 3518.488
383.0076, 3507.469
383.4897, 3487.367
383.9719, 3461.405
384.4540, 3443.349
384.9361, 3436.688
385.4182, 3440.962
385.9003, 3461.451
386.3824, 3496.964
386.8646, 3528.417
387.3467, 3540.641
387.8288, 3539.202
388.3109, 3532.477
388.7930, 3520.046
389.2751, 3507.042
389.7573, 3498.185
390.2394, 3493.054
390.7215, 3490.229
391.2036, 3492.697
391.6857, 3495.085
392.1678, 3490.885
392.6500, 3474.548
393.1321, 3462.821
393.6142, 3469.310
394.0963, 3486.406
394.5784, 3498.987
395.0605, 3497.953
395.5427, 3493.881
396.0248, 3490.925
396.5069, 3488.946
396.9890, 3490.285
397.4711, 3494.185
397.9532, 3502.020
398.4354, 3515.577
398.9175, 3548.839
399.3996, 3574.021
399.8817, 3582.110
400.3638, 3571.149
400.8459, 3562.489
401.3281, 3552.008
401.8102, 3546.879
402.2923, 3554.802
402.7744, 3588.966
403.2565, 3611.760
403.7386, 3614.374
404.2208, 3600.185
404.7029, 3593.372
405.1850, 3597.089
405.6671, 3602.219
406.1492, 3600.079
406.6313, 3587.818
407.1135, 3588.634
407.5956, 3609.936
408.0777, 3640.405
408.5598, 3650.674
409.0419, 3638.861
409.5240, 3626.564
410.0062, 3628.182
410.4883, 3640.950
410.9704, 3646.774
411.4525, 3643.375
411.9346, 3637.991
412.4167, 3640.403
412.8989, 3649.312
413.3810, 3659.085
413.8631, 3667.356
414.3452, 3674.590
414.8273, 3682.975
415.3094, 3692.686
415.7916, 3698.407
416.2737, 3690.000
416.7558, 3675.909
417.2379, 3669.375
417.7200, 3682.633
418.2021, 3698.822
418.6843, 3706.674
419.1664, 3707.098
419.6485, 3705.893
420.1306, 3703.316
420.6127, 3701.784
421.0948, 3703.276
421.5770, 3709.341
422.0591, 3716.850
422.5412, 3728.236
423.0233, 3740.733
423.5054, 3746.880
423.9875, 3730.079
424.4697, 3719.258
424.9518, 3728.266
425.4339, 3772.516
425.9160, 3803.052
426.3981, 3813.324
426.8802, 3812.421
427.3624, 3812.905
427.8445, 3815.971
428.3266, 3818.436
428.8087, 3818.424
429.2908, 3815.720
429.7729, 3819.881
430.2551, 3834.829
430.7372, 3850.066
431.2193, 3852.630
431.7014, 3839.103
432.1835, 3836.598
432.6656, 3852.865
433.1478, 3882.052
433.6299, 3905.759
434.1120, 3923.409
434.5941, 3940.874
435.0762, 3964.831
435.5583, 3992.764
436.0405, 4013.539
436.5226, 4024.800
437.0047, 4031.161
437.4868, 4036.038
437.9689, 4040.499
438.4510, 4048.454
438.9332, 4060.534
439.4153, 4077.903
439.8974, 4105.556
440.3795, 4144.814
440.8616, 4179.881
441.3438, 4193.512
441.8259, 4197.514
442.3080, 4208.100
442.7901, 4233.812
443.2722, 4265.001
443.7543, 4299.528
444.2365, 4336.434
444.7186, 4370.797
445.2007, 4398.452
445.6828, 4424.493
446.1649, 4452.506
446.6470, 4484.492
447.1292, 4516.465
447.6113, 4550.835
448.0934, 4585.210
448.5755, 4613.166
449.0576, 4631.367
449.5397, 4646.993
450.0219, 4662.989
450.5040, 4681.328
450.9861, 4692.185
451.4682, 4692.346
451.9503, 4688.899
452.4324, 4690.521
452.9146, 4697.553
453.3967, 4708.795
453.8788, 4726.636
454.3609, 4748.393
454.8430, 4755.682
455.3251, 4746.210
455.8072, 4738.458
456.2893, 4752.504
456.7715, 4783.756
457.2536, 4807.856
457.7357, 4820.408
458.2178, 4824.484
458.6999, 4818.591
459.1820, 4805.975
459.6642, 4800.710
460.1463, 4820.918
460.6284, 4848.743
461.1105, 4860.431
461.5926, 4851.920
462.0747, 4840.764
462.5569, 4840.070
463.0390, 4843.829
463.5211, 4843.710
464.0032, 4824.753
464.4853, 4812.186
464.9674, 4825.252
465.4496, 4861.300
465.9317, 4882.925
466.4138, 4870.769
466.8959, 4847.555
467.3780, 4827.308
467.8601, 4799.630
468.3423, 4790.774
468.8244, 4814.231
469.3065, 4855.950
469.7886, 4878.599
470.2707, 4874.070
470.7528, 4863.521
471.2350, 4850.302
471.7171, 4831.239
472.1992, 4836.361
472.6813, 4874.266
473.1634, 4921.229
473.6455, 4945.280
474.1277, 4945.030
474.6098, 4950.929
475.0919, 4974.608
475.5740, 5007.384
476.0561, 5019.957
476.5382, 5012.641
477.0204, 5012.206
477.5025, 5043.578
477.9846, 5096.035
478.4667, 5147.473
478.9488, 5195.161
479.4309, 5239.341
479.9131, 5276.108
480.3952, 5309.424
480.8773, 5348.502
481.3594, 5401.050
481.8415, 5457.999
482.3236, 5513.920
482.8058, 5567.896
483.2879, 5620.646
483.7700, 5669.394
484.2521, 5718.171
484.7342, 5770.766
485.2163, 5834.717
485.6985, 5893.871
486.1806, 5940.569
486.6627, 5978.762
487.1448, 6028.500
487.6269, 6099.268
488.1090, 6170.148
488.5912, 6232.608
489.0733, 6285.226
489.5554, 6334.515
490.0375, 6377.955
490.5196, 6422.476
491.0017, 6480.046
491.4839, 6554.052
491.9660, 6622.280
492.4481, 6679.099
492.9302, 6726.040
493.4123, 6764.895
493.8944, 6795.892
494.3766, 6825.148
494.8587, 6861.680
495.3408, 6900.438
495.8229, 6926.112
496.3050, 6930.487
496.7871, 6935.390
497.2693, 6970.754
497.7514, 7026.030
498.2335, 7073.501
498.7156, 7100.142
499.1977, 7114.058
499.6798, 7119.509
500.1620, 7116.505
500.6441, 7110.688
501.1262, 7105.547
501.6083, 7098.192
502.0904, 7085.987
502.5725, 7074.401
503.0547, 7051.370
503.5368, 7011.523
504.0189, 6957.820
504.5010, 6902.663
504.9831, 6854.702
505.4652, 6795.321
505.9474, 6715.099
506.4295, 6608.303
506.9116, 6507.237
507.3937, 6411.708
507.8758, 6320.388
508.3579, 6234.631
508.8401, 6155.332
509.3222, 6063.894
509.8043, 5945.763
510.2864, 5815.913
510.7685, 5719.217
511.2506, 5654.793
511.7328, 5594.676
512.2148, 5515.777
512.6970, 5427.840
513.1791, 5347.530
513.6612, 5277.391
514.1433, 5214.126
514.6254, 5157.090
515.1075, 5104.769
515.5897, 5054.408
516.0718, 5009.700
516.5539, 4962.477
517.0360, 4903.591
517.5181, 4833.901
518.0002, 4777.453
518.4824, 4750.407
518.9645, 4732.616
519.4466, 4711.444
519.9287, 4685.740
520.4108, 4656.075
520.8929, 4619.090
521.3751, 4579.767
521.8572, 4548.136
522.3393, 4525.074
522.8214, 4508.210
523.3035, 4500.448
523.7856, 4501.060
524.2678, 4485.843
524.7499, 4451.700
525.2320, 4414.141
525.7141, 4389.642
526.1962, 4375.867
526.6783, 4356.666
527.1605, 4326.196
527.6426, 4295.223
528.1247, 4281.524
528.6068, 4281.719
529.0889, 4282.241
529.5710, 4275.498
530.0532, 4265.747
530.5353, 4255.992
531.0174, 4246.265
531.4995, 4239.229
531.9816, 4237.363
532.4637, 4238.281
532.9459, 4239.690
533.4280, 4246.628
533.9101, 4247.749
534.3922, 4240.759
534.8743, 4226.271
535.3564, 4205.898
535.8386, 4165.459
536.3207, 4136.192
536.8028, 4132.454
537.2849, 4159.464
537.7670, 4174.509
538.2491, 4176.154
538.7313, 4168.813
539.2134, 4150.895
539.6955, 4120.928
540.1776, 4110.954
540.6597, 4134.033
541.1418, 4171.604
541.6240, 4187.389
542.1061, 4182.669
542.5882, 4167.524
543.0703, 4138.813
543.5524, 4106.926
544.0345, 4087.160
544.5167, 4080.747
544.9988, 4082.360
545.4809, 4097.731
545.9630, 4115.422
546.4451, 4122.205
546.9272, 4100.870
547.4094, 4081.823
547.8915, 4076.526
548.3736, 4081.835
548.8557, 4086.683
549.3378, 4089.908
549.8199, 4091.969
550.3021, 4093.339
550.7842, 4094.565
551.2663, 4092.009
551.7484, 4082.560
552.2305, 4073.288
552.7126, 4071.346
553.1948, 4077.435
553.6769, 4087.638
554.1590, 4104.180
554.6411, 4121.435
555.1232, 4124.897
555.6053, 4115.071
556.0875, 4102.011
556.5696, 4088.793
557.0517, 4076.943
557.5338, 4071.030
558.0159, 4071.559
558.4980, 4070.551
558.9802, 4057.003
559.4623, 4039.898
559.9444, 4031.148
560.4265, 4039.724
560.9086, 4049.616
561.3907, 4052.864
561.8729, 4052.600
562.3550, 4057.128
562.8371, 4071.365
563.3192, 4087.766
563.8013, 4106.389
564.2834, 4129.556
564.7656, 4136.849
565.2477, 4118.748
565.7298, 4096.772
566.2119, 4090.320
566.6940, 4102.309
567.1761, 4111.792
567.6583, 4115.179
568.1404, 4116.300
568.6225, 4124.690
569.1046, 4139.558
569.5867, 4150.786
570.0688, 4149.791
570.5510, 4143.544
571.0331, 4145.779
571.5152, 4156.263
571.9973, 4164.735
572.4794, 4159.721
572.9615, 4150.996
573.4437, 4149.091
573.9258, 4158.964
574.4079, 4170.720
574.8900, 4180.449
575.3721, 4189.686
575.8542, 4200.751
576.3364, 4216.628
576.8185, 4231.563
577.3006, 4243.330
577.7827, 4252.167
578.2648, 4263.997
578.7469, 4279.930
579.2291, 4296.738
579.7112, 4314.007
580.1933, 4332.464
580.6754, 4337.574
581.1575, 4323.188
581.6396, 4310.665
582.1218, 4336.348
582.6039, 4392.522
583.0860, 4442.819
583.5681, 4471.235
584.0502, 4490.189
584.5323, 4513.912
585.0145, 4541.494
585.4966, 4568.707
585.9787, 4591.349
586.4608, 4614.194
586.9429, 4640.434
587.4250, 4669.943
587.9072, 4704.006
588.3893, 4751.829
588.8714, 4800.200
589.3535, 4834.823
589.8356, 4839.721
590.3177, 4855.589
590.7999, 4893.288
591.2820, 4942.835
591.7641, 4972.915
592.2462, 4978.409
592.7283, 4983.686
593.2104, 4998.490
593.6926, 5022.210
594.1747, 5053.412
594.6568, 5093.195
595.1389, 5129.807
595.6210, 5151.638
596.1031, 5162.748
596.5853, 5171.015
597.0674, 5178.379
597.5495, 5182.582
598.0316, 5179.613
598.5137, 5172.448
598.9958, 5166.644
599.4780, 5165.674
599.9601, 5165.104
600.4422, 5167.315
600.9243, 5171.638
601.4064, 5161.102
601.8885, 5114.166
602.3707, 5072.465
602.8528, 5060.049
603.3349, 5091.696
603.8170, 5099.823
604.2991, 5077.283
604.7813, 5042.949
605.2634, 5021.651
605.7455, 5013.186
606.2276, 4999.646
606.7097, 4976.115
607.1918, 4945.674
607.6740, 4909.568
608.1561, 4869.641
608.6382, 4832.590
609.1203, 4807.831
609.6024, 4784.879
610.0845, 4748.999
610.5667, 4698.586
611.0488, 4662.320
611.5309, 4667.340
612.0130, 4682.732
612.4951, 4683.601
612.9772, 4644.035
613.4594, 4621.304
613.9415, 4627.083
614.4236, 4646.678
614.9057, 4655.354
615.3878, 4651.455
615.8699, 4640.607
616.3521, 4622.101
616.8342, 4597.914
617.3163, 4576.373
617.7984, 4557.213
618.2805, 4545.403
618.7626, 4554.362
619.2448, 4571.629
619.7269, 4566.066
620.2090, 4533.424
620.6911, 4497.959
621.1732, 4474.594
621.6553, 4461.382
622.1375, 4455.823
622.6196, 4462.076
623.1017, 4469.846
623.5838, 4481.121
624.0659, 4491.655
624.5480, 4490.193
625.0302, 4457.688
625.5123, 4434.505
625.9944, 4435.228
626.4765, 4458.824
626.9586, 4467.260
627.4407, 4455.329
627.9229, 4442.193
628.4050, 4444.195
628.8871, 4459.436
629.3692, 4465.929
629.8513, 4460.590
630.3334, 4452.545
630.8156, 4455.458
631.2977, 4463.221
631.7798, 4462.111
632.2619, 4441.938
632.7440, 4418.329
633.2261, 4399.342
633.7083, 4385.310
634.1904, 4377.629
634.6725, 4382.846
635.1546, 4388.641
635.6367, 4388.814
636.1188, 4382.117
636.6010, 4381.865
637.0831, 4389.951
637.5652, 4402.054
638.0473, 4417.875
638.5294, 4439.553
639.0115, 4446.691
639.4937, 4434.040
639.9758, 4416.989
640.4579, 4420.235
640.9400, 4439.119
641.4221, 4450.239
641.9042, 4442.683
642.3864, 4428.288
642.8685, 4417.780
643.3506, 4411.347
643.8327, 4409.945
644.3148, 4416.749
644.7969, 4426.403
645.2791, 4438.646
645.7612, 4453.869
646.2433, 4460.691
646.7254, 4450.705
647.2075, 4437.096
647.6896, 4427.192
648.1718, 4422.713
648.6539, 4416.094
649.1360, 4404.381
649.6181, 4394.815
650.1002, 4399.005
650.5823, 4416.441
651.0645, 4436.042
651.5466, 4461.529
652.0287, 4478.981
652.5108, 4452.448
652.9929, 4394.505
653.4750, 4354.178
653.9572, 4374.628
654.4393, 4408.856
