##NAMES=Cordierite
##RRUFFID=R040082
##IDEAL CHEMISTRY=Mg_2_Al_3_(AlSi_5_)O_18_
##LOCALITY=Madagascar
##OWNER=RRUFF
##SOURCE=University of Arizona Mineral Museum
##DESCRIPTION=Dark gray coarsely crystalline massive
##STATUS=The identification of this mineral has been confirmed by X-ray diffraction and chemical analysis
##URL=rruff.info/R040082
##MEASURED CHEMISTRY=(Mg_1.60_Fe^2+^_0.39_Mn_0.01_)_Σ=2_Al_4.00_(Si_4.95_Al_0.05_)_Σ=5_O_18_·1.05H_2_O·Na_0.05_ ; H_2_O estimated by difference and verified by Raman spectroscopy
91.72394, 0.0000000E+00
92.20605, 248.7117
92.68817, 253.5885
93.17029, 257.4635
93.65240, 255.2173
94.13452, 251.2166
94.61664, 247.5848
95.09875, 245.4717
95.58087, 244.2643
96.06299, 241.6534
96.54510, 236.4984
97.02721, 231.6095
97.50933, 227.6000
97.99145, 224.2879
98.47356, 221.4397
98.95568, 218.8063
99.43780, 216.0625
99.91991, 213.0176
100.4020, 208.6956
100.8841, 205.0620
101.3663, 203.0895
101.8484, 202.6022
102.3305, 202.6467
102.8126, 202.2844
103.2947, 201.3464
103.7768, 200.7752
104.2590, 200.8281
104.7411, 201.0978
105.2232, 201.0082
105.7053, 200.3100
106.1874, 199.7482
106.6695, 200.4445
107.1517, 202.2748
107.6338, 204.1201
108.1159, 205.1715
108.5980, 205.6770
109.0801, 207.0285
109.5622, 210.2778
110.0444, 213.8674
110.5265, 216.3462
111.0086, 217.5793
111.4907, 218.6919
111.9728, 220.7840
112.4549, 223.7772
112.9371, 228.0877
113.4192, 233.4681
113.9013, 240.1812
114.3834, 248.5148
114.8655, 258.5383
115.3476, 270.2242
115.8298, 283.3824
116.3119, 299.5520
116.7940, 315.6376
117.2761, 333.3094
117.7582, 350.3506
118.2403, 364.5186
118.7225, 374.7219
119.2046, 380.7539
119.6867, 379.1775
120.1688, 367.5476
120.6509, 352.6541
121.1330, 334.8586
121.6152, 315.2415
122.0973, 296.5854
122.5794, 280.9461
123.0615, 268.7714
123.5436, 258.5664
124.0257, 250.9552
124.5079, 244.9246
124.9900, 240.1748
125.4721, 236.9083
125.9542, 233.3784
126.4363, 227.8329
126.9184, 220.8243
127.4006, 213.2045
127.8827, 204.8587
128.3648, 196.1108
128.8469, 188.0506
129.3290, 180.6852
129.8111, 174.2082
130.2932, 168.6157
130.7754, 163.8237
131.2575, 159.5910
131.7396, 155.6373
132.2217, 151.9030
132.7038, 149.0130
133.1859, 147.5167
133.6681, 146.4908
134.1502, 145.7213
134.6323, 145.1126
135.1144, 144.5710
135.5965, 143.9486
136.0786, 143.0957
136.5608, 142.4802
137.0429, 142.2654
137.5250, 142.1427
138.0071, 141.8368
138.4892, 141.2762
138.9713, 140.6405
139.4535, 140.3150
139.9356, 140.5362
140.4177, 140.7585
140.8998, 141.0612
141.3819, 141.3251
141.8640, 141.3237
142.3462, 140.9082
142.8283, 140.2938
143.3104, 140.1074
143.7925, 140.4478
144.2746, 140.9151
144.7567, 141.4274
145.2388, 141.9599
145.7210, 142.3911
146.2031, 142.5655
146.6852, 142.6664
147.1673, 143.0181
147.6494, 143.6541
148.1315, 144.5103
148.6137, 145.5778
149.0958, 146.8832
149.5779, 148.2222
150.0600, 149.2173
150.5421, 150.3063
151.0242, 152.0151
151.5064, 154.6422
151.9885, 157.8004
152.4706, 160.6029
152.9527, 162.6682
153.4348, 165.1758
153.9169, 168.7915
154.3991, 172.8989
154.8812, 176.9042
155.3633, 180.5731
155.8454, 183.7806
156.3275, 185.7110
156.8096, 186.2227
157.2918, 185.3259
157.7739, 182.3515
158.2560, 178.0028
158.7381, 173.4021
159.2202, 169.3600
159.7023, 165.8917
160.1845, 162.4260
160.6666, 159.0224
161.1487, 155.5622
161.6308, 151.9093
162.1129, 148.1391
162.5950, 144.4623
163.0772, 141.0613
163.5593, 137.9385
164.0414, 135.2550
164.5235, 132.9741
165.0056, 131.1113
165.4877, 129.8011
165.9698, 129.0270
166.4520, 128.4904
166.9341, 127.9809
167.4162, 127.4934
167.8983, 126.8025
168.3804, 125.6274
168.8625, 124.3344
169.3447, 123.4224
169.8268, 123.0184
170.3089, 122.7564
170.7910, 122.1581
171.2731, 121.3411
171.7552, 120.8185
172.2374, 121.0940
172.7195, 121.8381
173.2016, 122.0226
173.6837, 121.1128
174.1658, 120.2823
174.6479, 120.4652
175.1301, 121.4591
175.6122, 122.4975
176.0943, 123.1691
176.5764, 123.4739
177.0585, 123.3163
177.5406, 122.0406
178.0228, 120.8894
178.5049, 120.5206
178.9870, 120.8610
179.4691, 121.4338
179.9512, 121.8247
180.4333, 122.0213
180.9155, 122.0862
181.3976, 122.0931
181.8797, 121.9162
182.3618, 121.3070
182.8439, 120.3489
183.3260, 119.4644
183.8082, 119.2571
184.2903, 120.2440
184.7724, 120.5322
185.2545, 119.3312
185.7366, 118.1479
186.2187, 118.1775
186.7009, 119.5319
187.1830, 121.2243
187.6651, 121.8014
188.1472, 120.4239
188.6293, 119.6252
189.1114, 119.9723
189.5936, 120.5643
190.0757, 120.4653
190.5578, 119.4449
191.0399, 118.2302
191.5220, 118.0692
192.0041, 119.5176
192.4863, 120.4740
192.9684, 120.4626
193.4505, 119.9223
193.9326, 119.3664
194.4147, 118.9272
194.8968, 118.5674
195.3790, 118.1899
195.8611, 117.7439
196.3432, 117.5235
196.8253, 117.7406
197.3074, 118.2419
197.7895, 118.6627
198.2717, 118.8293
198.7538, 119.0316
199.2359, 119.7277
199.7180, 120.9347
200.2001, 122.0128
200.6822, 122.6216
201.1644, 122.8140
201.6465, 122.7807
202.1286, 122.2517
202.6107, 121.8817
203.0928, 122.4453
203.5749, 123.9231
204.0571, 125.2122
204.5392, 125.3150
205.0213, 124.2508
205.5034, 123.3312
205.9855, 123.1257
206.4676, 122.8171
206.9497, 121.7908
207.4319, 120.0668
207.9140, 118.2396
208.3961, 116.8722
208.8782, 115.9982
209.3603, 115.3778
209.8424, 115.2522
210.3246, 115.1892
210.8067, 114.9982
211.2888, 114.6543
211.7709, 114.2373
212.2530, 113.8138
212.7351, 113.3428
213.2173, 113.0097
213.6994, 112.8425
214.1815, 112.7780
214.6636, 112.8125
215.1457, 112.9304
215.6278, 113.0878
216.1100, 113.2322
216.5921, 113.3697
217.0742, 113.4751
217.5563, 113.4597
218.0384, 113.4828
218.5205, 113.6960
219.0027, 114.0972
219.4848, 114.5228
219.9669, 114.7395
220.4490, 114.6038
220.9311, 114.6160
221.4132, 114.6550
221.8954, 114.8998
222.3775, 115.5815
222.8596, 116.7030
223.3417, 117.9654
223.8238, 119.0071
224.3059, 119.7906
224.7881, 120.3603
225.2702, 120.3684
225.7523, 120.3721
226.2344, 120.9779
226.7165, 122.2747
227.1986, 123.6640
227.6807, 124.3328
228.1629, 124.0369
228.6450, 124.2902
229.1271, 125.4637
229.6092, 127.0874
230.0913, 128.6996
230.5734, 130.2150
231.0556, 131.7561
231.5377, 133.3781
232.0198, 135.0763
232.5019, 137.1751
232.9840, 140.1279
233.4661, 143.3354
233.9483, 145.9268
234.4304, 147.6885
234.9125, 149.4587
235.3946, 152.3284
235.8767, 156.0172
236.3588, 159.3416
236.8410, 162.0942
237.3231, 164.2756
237.8052, 165.8932
238.2873, 166.9405
238.7694, 167.4630
239.2515, 167.4151
239.7337, 166.8883
240.2158, 165.9370
240.6979, 164.2662
241.1800, 162.2518
241.6621, 160.6037
242.1442, 159.3877
242.6264, 158.3735
243.1085, 157.3937
243.5906, 156.5015
244.0727, 155.8062
244.5548, 155.2858
245.0369, 155.0217
245.5191, 155.2541
246.0012, 156.1560
246.4833, 157.1557
246.9654, 157.7187
247.4475, 158.2522
247.9296, 159.2881
248.4117, 160.9809
248.8939, 163.3758
249.3760, 166.7596
249.8581, 171.5961
250.3402, 176.4529
250.8223, 180.5036
251.3044, 184.3878
251.7866, 188.7464
252.2687, 193.8136
252.7508, 199.6030
253.2329, 206.2611
253.7150, 213.9523
254.1971, 222.1886
254.6793, 230.5321
255.1614, 239.3790
255.6435, 249.5881
256.1256, 261.5704
256.6077, 274.0237
257.0898, 284.6596
257.5720, 294.5978
258.0541, 299.9044
258.5362, 300.8475
259.0183, 297.5254
259.5004, 289.3907
259.9825, 276.3517
260.4647, 259.8992
260.9468, 242.3504
261.4289, 221.8232
261.9110, 204.0987
262.3931, 189.5868
262.8752, 177.2948
263.3574, 166.6743
263.8395, 157.4604
264.3216, 149.6015
264.8037, 143.0493
265.2858, 138.3985
265.7679, 133.9663
266.2501, 129.3130
266.7322, 125.1144
267.2143, 121.8292
267.6964, 119.5495
268.1785, 118.1101
268.6606, 117.4113
269.1428, 117.9548
269.6249, 117.9266
270.1070, 117.0365
270.5891, 115.9226
271.0712, 114.8963
271.5533, 114.0256
272.0355, 113.2571
272.5176, 112.5090
272.9997, 111.7084
273.4818, 111.2996
273.9639, 111.4009
274.4460, 111.7017
274.9282, 112.0936
275.4103, 112.5437
275.8924, 113.0200
276.3745, 113.4782
276.8566, 113.8950
277.3387, 114.5505
277.8208, 115.7449
278.3029, 116.8371
278.7851, 117.4918
279.2672, 117.7950
279.7493, 118.0145
280.2314, 118.3116
280.7135, 118.6944
281.1956, 119.4973
281.6778, 120.9994
282.1599, 122.5383
282.6420, 123.9916
283.1241, 125.3112
283.6062, 126.3850
284.0883, 127.1056
284.5705, 127.5770
285.0526, 128.3879
285.5347, 129.1445
286.0168, 130.6185
286.4989, 133.6236
286.9810, 137.3833
287.4632, 140.4983
287.9453, 142.2580
288.4274, 143.2160
288.9095, 144.9996
289.3916, 148.3295
289.8737, 151.3404
290.3559, 153.5861
290.8380, 155.3847
291.3201, 157.2555
291.8022, 159.4045
292.2843, 161.3792
292.7664, 162.3172
293.2486, 161.8567
293.7307, 161.2070
294.2128, 160.7175
294.6949, 159.9846
295.1770, 158.4984
295.6591, 156.1370
296.1413, 153.3003
296.6234, 150.4093
297.1055, 147.3900
297.5876, 144.6853
298.0697, 142.5230
298.5518, 140.5489
299.0340, 138.4383
299.5161, 136.1688
299.9982, 133.9163
300.4803, 131.7872
300.9624, 129.8012
301.4445, 128.2894
301.9267, 127.6711
302.4088, 127.1855
302.8909, 126.2720
303.3730, 124.9733
303.8551, 123.7510
304.3372, 122.9797
304.8194, 122.5798
305.3015, 121.8111
305.7836, 120.5549
306.2657, 119.0901
306.7478, 117.5832
307.2299, 115.9814
307.7121, 114.0278
308.1942, 111.4586
308.6763, 108.5911
309.1584, 106.5923
309.6405, 105.9007
310.1227, 105.2150
310.6048, 104.1956
311.0869, 102.8920
311.5690, 101.2421
312.0511, 99.11118
312.5332, 97.02905
313.0154, 96.23511
313.4975, 97.16014
313.9796, 97.79037
314.4617, 97.61060
314.9438, 96.96715
315.4259, 96.17670
315.9081, 95.29863
316.3902, 94.59650
316.8723, 94.41586
317.3544, 94.81701
317.8365, 95.44827
318.3186, 96.56569
318.8007, 97.72892
319.2828, 98.52145
319.7650, 98.91138
320.2471, 99.11465
320.7292, 99.18990
321.2113, 99.17458
321.6934, 99.82116
322.1755, 101.6470
322.6577, 103.6650
323.1398, 105.4040
323.6219, 106.8269
324.1040, 107.9727
324.5861, 108.8796
325.0682, 109.5005
325.5504, 109.6271
326.0325, 109.0751
326.5146, 108.3255
326.9967, 107.5537
327.4788, 106.7057
327.9609, 105.6232
328.4431, 104.2040
328.9252, 102.6047
329.4073, 101.1917
329.8894, 100.0464
330.3715, 98.87792
330.8536, 97.62792
331.3358, 96.33200
331.8179, 94.96917
332.3000, 93.53087
332.7821, 92.20918
333.2642, 91.26259
333.7463, 90.78474
334.2285, 90.43159
334.7106, 90.43667
335.1927, 90.40164
335.6748, 89.81963
336.1569, 88.73158
336.6390, 87.84587
337.1212, 87.88121
337.6033, 88.88889
338.0854, 89.28680
338.5675, 88.50464
339.0496, 87.74026
339.5317, 87.64507
340.0139, 88.07104
340.4960, 88.49773
340.9781, 88.59543
341.4602, 88.47343
341.9423, 88.69558
342.4244, 89.51134
342.9066, 90.31288
343.3887, 91.00962
343.8708, 91.60999
344.3529, 92.11639
344.8350, 92.52724
345.3171, 92.86539
345.7993, 93.17714
346.2814, 93.54729
346.7635, 93.71866
347.2456, 93.36829
347.7277, 93.01286
348.2098, 93.17759
348.6920, 93.90575
349.1741, 94.77080
349.6562, 95.27016
350.1383, 95.28349
350.6204, 95.55157
351.1025, 96.62437
351.5847, 97.40853
352.0668, 97.02450
352.5489, 95.81743
353.0310, 94.86716
353.5131, 94.99718
353.9952, 96.07099
354.4774, 96.67374
354.9595, 96.13893
355.4416, 95.90659
355.9237, 96.41012
356.4058, 97.33220
356.8879, 98.24364
357.3701, 98.95101
357.8522, 99.54700
358.3343, 100.2438
358.8164, 100.9729
359.2985, 101.9392
359.7806, 103.0464
360.2627, 104.4333
360.7448, 106.3070
361.2270, 108.6531
361.7091, 111.1514
362.1912, 113.4285
362.6733, 115.4085
363.1554, 117.5085
363.6375, 120.2484
364.1197, 122.6044
364.6018, 124.2325
365.0839, 125.1295
365.5660, 125.3996
366.0481, 125.1527
366.5302, 124.3391
367.0124, 122.5347
367.4945, 119.0149
367.9766, 115.3644
368.4587, 111.7737
368.9408, 108.2925
369.4229, 104.9062
369.9051, 101.6217
370.3872, 98.55724
370.8693, 95.91299
371.3514, 93.68826
371.8335, 91.93728
372.3156, 90.95043
372.7978, 90.18562
373.2799, 89.29274
373.7620, 88.24641
374.2441, 87.24138
374.7262, 86.56218
375.2083, 86.23596
375.6905, 85.61967
376.1726, 84.44170
376.6547, 83.26400
377.1368, 82.32686
377.6189, 81.57050
378.1010, 80.85928
378.5832, 80.09523
379.0653, 79.33750
379.5474, 78.74175
380.0295, 78.32961
380.5116, 78.02728
380.9937, 77.96450
381.4759, 77.92017
381.9580, 77.63089
382.4401, 76.99913
382.9222, 76.33081
383.4043, 76.02142
383.8864, 76.06589
384.3686, 75.94273
384.8507, 75.39196
385.3328, 74.79610
385.8149, 74.58777
386.2970, 74.70823
386.7791, 74.61033
387.2613, 73.57934
387.7434, 72.16222
388.2255, 71.84826
388.7076, 73.05405
389.1897, 74.26191
389.6718, 74.17990
390.1540, 73.34032
390.6361, 72.79996
391.1182, 73.09942
391.6003, 73.42219
392.0824, 72.77673
392.5645, 71.30601
393.0467, 70.35093
393.5288, 70.66225
394.0109, 71.60865
394.4930, 72.00761
394.9751, 71.76206
395.4572, 71.43518
395.9394, 71.16655
396.4215, 70.97891
396.9036, 70.95432
397.3857, 71.12456
397.8678, 71.31451
398.3499, 71.36081
398.8321, 71.25173
399.3142, 71.00904
399.7963, 70.43188
400.2784, 69.88222
400.7605, 69.59957
401.2426, 69.57159
401.7247, 69.70039
402.2068, 69.94810
402.6890, 70.28765
403.1711, 70.59569
403.6532, 70.90998
404.1353, 71.15184
404.6174, 71.31284
405.0995, 71.39196
405.5817, 71.30787
406.0638, 71.05380
406.5459, 70.85879
407.0280, 71.06293
407.5101, 71.81405
407.9922, 72.51919
408.4744, 73.06722
408.9565, 73.67098
409.4386, 74.67736
409.9207, 75.87862
410.4028, 76.64487
410.8849, 76.46789
411.3671, 75.51077
411.8492, 75.03117
412.3313, 75.36008
412.8134, 75.79727
413.2955, 76.26711
413.7776, 76.78654
414.2598, 77.38799
414.7419, 78.08010
415.2240, 78.83231
415.7061, 79.59309
416.1882, 80.34982
416.6703, 81.17269
417.1525, 82.05972
417.6346, 83.01724
418.1167, 84.05069
418.5988, 85.16422
419.0809, 86.34511
419.5630, 87.59517
420.0452, 88.90858
420.5273, 90.28313
421.0094, 91.70351
421.4915, 93.20876
421.9736, 94.86111
422.4557, 96.57096
422.9379, 98.21068
423.4200, 99.72582
423.9021, 101.2717
424.3842, 103.2641
424.8663, 105.6518
425.3484, 107.2389
425.8306, 107.6174
426.3127, 107.2747
426.7948, 106.7149
427.2769, 105.9208
427.7590, 104.7231
428.2411, 102.9889
428.7233, 100.8292
429.2054, 98.29528
429.6875, 95.34505
430.1696, 92.49912
430.6517, 90.06260
431.1339, 87.99592
431.6160, 86.07444
432.0981, 84.25810
432.5802, 82.64723
433.0623, 81.33080
433.5444, 80.25910
434.0266, 79.37354
434.5087, 78.68650
434.9908, 78.01916
435.4729, 77.09366
435.9550, 75.80666
436.4371, 74.75298
436.9193, 74.00607
437.4014, 73.45432
437.8835, 73.10638
438.3656, 72.90573
438.8477, 72.68351
439.3298, 72.31949
439.8120, 71.85510
440.2941, 71.52320
440.7762, 71.23278
441.2583, 71.19545
441.7404, 71.69920
442.2225, 72.33022
442.7046, 72.66730
443.1867, 72.60742
443.6689, 72.33524
444.1510, 72.05993
444.6331, 71.75965
445.1152, 71.56330
445.5973, 71.48077
446.0794, 71.49567
446.5616, 71.50785
447.0437, 71.62663
447.5258, 72.12861
448.0079, 73.24777
448.4900, 74.61858
448.9721, 75.21098
449.4543, 74.60517
449.9364, 74.43202
450.4185, 75.53806
450.9006, 76.90334
451.3827, 77.89956
451.8648, 78.44052
452.3470, 78.68143
452.8291, 78.59605
453.3112, 78.27882
453.7933, 78.17336
454.2754, 78.38071
454.7575, 78.61417
455.2397, 78.81884
455.7218, 78.90138
456.2039, 78.60574
456.6860, 77.53793
457.1681, 76.56329
457.6502, 76.68511
458.1324, 77.62022
458.6145, 78.00279
459.0966, 77.24150
459.5787, 76.03977
460.0608, 75.44945
460.5429, 75.49461
461.0251, 75.55946
461.5072, 75.50997
461.9893, 75.45466
462.4714, 75.44064
462.9535, 75.49580
463.4356, 75.71059
463.9178, 76.14864
464.3999, 76.79568
464.8820, 77.59779
465.3641, 78.85696
465.8462, 79.87553
466.3283, 80.51572
466.8105, 80.89690
467.2926, 81.01474
467.7747, 80.93013
468.2568, 80.97153
468.7389, 81.59976
469.2210, 82.98241
469.7032, 83.86571
470.1853, 83.96519
470.6674, 83.84715
471.1495, 83.53605
471.6316, 83.14503
472.1137, 82.85045
472.5959, 82.74780
473.0780, 82.69300
473.5601, 82.30391
474.0422, 81.38956
474.5243, 80.96452
475.0064, 81.55793
475.4886, 82.43383
475.9707, 83.26225
476.4528, 83.99156
476.9349, 84.56889
477.4170, 84.99791
477.8991, 85.23994
478.3813, 85.10825
478.8634, 84.51963
479.3455, 84.04920
479.8276, 83.89613
480.3097, 84.11404
480.7918, 84.82456
481.2740, 86.24907
481.7561, 87.54548
482.2382, 88.09859
482.7203, 88.27840
483.2024, 88.78593
483.6845, 89.76607
484.1666, 90.95354
484.6487, 92.22960
485.1309, 93.58168
485.6130, 94.25823
486.0951, 93.80851
486.5772, 93.20886
487.0593, 92.86346
487.5414, 92.65783
488.0236, 92.46954
488.5057, 92.24735
488.9878, 91.70761
489.4699, 90.27273
489.9520, 87.28503
490.4341, 84.99398
490.9163, 83.75658
491.3984, 82.76302
491.8805, 81.68046
492.3626, 80.50217
492.8447, 79.34537
493.3268, 78.30222
493.8090, 77.30103
494.2911, 76.08402
494.7732, 74.50146
495.2553, 73.12075
495.7374, 72.17260
496.2195, 71.41735
496.7017, 70.69900
497.1838, 70.00819
497.6659, 69.42835
498.1480, 69.10144
498.6301, 68.92879
499.1122, 68.60838
499.5944, 68.08578
500.0765, 67.62683
500.5586, 67.46203
501.0407, 67.43290
501.5228, 67.18362
502.0049, 66.53957
502.4871, 66.01490
502.9692, 65.96925
503.4513, 66.18747
503.9334, 66.31631
504.4155, 66.28078
504.8976, 66.06102
505.3798, 65.54488
505.8619, 64.69405
506.3440, 64.43864
506.8261, 65.47676
507.3082, 66.26931
507.7903, 66.10396
508.2725, 65.37057
508.7546, 64.60633
509.2367, 64.02824
509.7188, 63.70548
510.2009, 63.81474
510.6830, 64.57055
511.1652, 65.03242
511.6473, 64.75694
512.1294, 64.62561
512.6115, 65.22196
513.0936, 66.19469
513.5757, 66.78461
514.0579, 66.53899
514.5400, 65.91791
515.0221, 65.79955
515.5042, 66.25975
515.9863, 66.63573
516.4684, 66.69232
516.9506, 66.70213
517.4327, 66.93422
517.9148, 67.35464
518.3969, 67.69694
518.8790, 67.88641
519.3611, 67.91673
519.8433, 67.54745
520.3254, 66.84524
520.8075, 66.75298
521.2896, 67.92641
521.7717, 69.74753
522.2538, 70.71956
522.7360, 70.59689
523.2181, 70.53208
523.7002, 70.75219
524.1823, 71.08176
524.6644, 71.38663
525.1465, 71.64909
525.6287, 71.89123
526.1108, 72.12105
526.5929, 72.35075
527.0750, 72.65169
527.5571, 73.01510
528.0392, 73.47008
528.5214, 74.09298
529.0035, 74.75380
529.4856, 75.25736
529.9677, 75.63846
530.4498, 76.20420
530.9319, 77.30800
531.4141, 78.84306
531.8962, 80.12430
532.3783, 80.95908
532.8604, 81.97922
533.3425, 83.41883
533.8246, 85.20271
534.3068, 87.43057
534.7889, 90.19640
535.2710, 92.80952
535.7531, 94.64379
536.2352, 96.04509
536.7173, 97.80167
537.1995, 100.0311
537.6816, 102.3441
538.1637, 104.3369
538.6458, 106.1650
539.1279, 108.6480
539.6100, 112.5923
540.0922, 116.1530
540.5743, 118.6226
541.0564, 120.5288
541.5385, 122.2509
542.0206, 123.9904
542.5027, 126.3243
542.9849, 129.9213
543.4670, 134.8123
543.9491, 139.5870
544.4312, 143.3918
544.9133, 148.1161
545.3954, 154.5232
545.8775, 161.8257
546.3596, 169.0231
546.8417, 175.8839
547.3239, 183.1292
547.8060, 191.5606
548.2881, 201.1245
548.7702, 210.8758
549.2523, 220.8979
549.7344, 230.7929
550.2166, 240.3088
550.6987, 249.5237
551.1808, 258.8162
551.6629, 268.8388
552.1450, 277.4874
552.6271, 283.5987
553.1093, 287.3942
553.5914, 289.2923
554.0735, 289.3721
554.5556, 287.7115
555.0377, 284.2371
555.5198, 278.9420
556.0020, 272.9951
556.4841, 265.8935
556.9662, 258.8527
557.4483, 251.7279
557.9304, 245.0090
558.4125, 239.5470
558.8947, 235.4153
559.3768, 231.7320
559.8589, 227.3227
560.3410, 222.1660
560.8231, 218.3232
561.3052, 216.6857
561.7874, 215.1558
562.2695, 213.1074
562.7516, 210.7650
563.2337, 208.3359
563.7158, 205.8703
564.1979, 203.4305
564.6801, 200.7691
565.1622, 198.1618
565.6443, 196.6499
566.1264, 196.4720
566.6085, 196.6447
567.0906, 196.2710
567.5728, 195.7783
568.0549, 196.6067
568.5370, 199.1479
569.0191, 202.3690
569.5012, 206.0448
569.9833, 210.1446
570.4655, 214.6965
570.9476, 219.6580
571.4297, 224.9900
571.9118, 230.6223
572.3939, 236.5562
572.8760, 242.5419
573.3582, 249.0191
573.8403, 254.9444
574.3224, 260.6281
574.8045, 265.4616
575.2866, 269.1678
575.7687, 271.5927
576.2509, 272.2708
576.7330, 270.6964
577.2151, 267.0638
577.6972, 262.0594
578.1793, 255.6563
578.6614, 247.9950
579.1436, 238.7049
579.6257, 228.4766
580.1078, 218.3788
580.5899, 208.4446
581.0720, 198.5484
581.5541, 188.3474
582.0363, 178.3501
582.5184, 168.9106
583.0005, 160.1481
583.4826, 152.2378
583.9647, 145.3128
584.4468, 139.2473
584.9290, 133.6432
