##NAMES=Cordierite
##RRUFFID=R040082
##IDEAL CHEMISTRY=Mg_2_Al_3_(AlSi_5_)O_18_
##LOCALITY=Madagascar
##OWNER=RRUFF
##SOURCE=University of Arizona Mineral Museum
##DESCRIPTION=Dark gray coarsely crystalline massive
##STATUS=The identification of this mineral has been confirmed by X-ray diffraction and chemical analysis
##URL=rruff.info/R040082
##MEASURED CHEMISTRY=(Mg_1.60_Fe^2+^_0.39_Mn_0.01_)_Σ=2_Al_4.00_(Si_4.95_Al_0.05_)_Σ=5_O_18_·1.05H_2_O·Na_0.05_ ; H_2_O estimated by difference and verified by Raman spectroscopy
92.10938, 11.21830
92.59149, 11.02262
93.07361, 11.10275
93.55573, 11.43617
94.03784, 11.74168
94.51996, 11.76094
95.00208, 11.54902
95.48419, 11.29382
95.96631, 10.97576
96.44843, 10.66891
96.93054, 10.61366
97.41266, 10.83376
97.89478, 11.18024
98.37689, 11.48940
98.85901, 11.75523
99.34113, 12.03805
99.82324, 12.41237
100.3054, 12.87497
100.7875, 13.11516
101.2696, 13.04433
101.7517, 12.86572
102.2338, 12.93695
102.7159, 13.26768
103.1981, 13.82435
103.6802, 14.64942
104.1623, 15.88392
104.6444, 16.91893
105.1265, 17.56160
105.6086, 18.00214
106.0908, 19.03682
106.5729, 21.01930
107.0550, 23.17364
107.5371, 25.04380
108.0192, 26.39640
108.5013, 27.82627
108.9835, 29.16019
109.4656, 30.42228
109.9477, 32.56261
110.4298, 36.25495
110.9119, 40.46104
111.3940, 44.55885
111.8762, 47.96148
112.3583, 51.78361
112.8404, 56.09395
113.3225, 60.83804
113.8046, 66.54720
114.2867, 73.99145
114.7689, 82.28731
115.2510, 90.40017
115.7331, 97.83436
116.2152, 105.3488
116.6973, 113.1162
117.1794, 121.1285
117.6616, 129.5244
118.1437, 138.8170
118.6258, 148.5608
119.1079, 157.6993
119.5900, 165.7226
120.0721, 173.1631
120.5543, 180.4690
121.0364, 187.9488
121.5185, 194.6775
122.0006, 199.3600
122.4827, 202.7036
122.9648, 206.8102
123.4470, 212.6759
123.9291, 219.9788
124.4112, 228.4305
124.8933, 238.2486
125.3754, 248.7725
125.8575, 259.7503
126.3397, 271.0561
126.8218, 281.9618
127.3039, 292.2487
127.7860, 301.6688
128.2681, 309.5176
128.7502, 315.0081
129.2324, 319.2731
129.7145, 324.3657
130.1966, 330.3128
130.6787, 335.7994
131.1608, 339.2461
131.6429, 340.9779
132.1251, 342.7609
132.6072, 345.3033
133.0893, 348.3255
133.5714, 350.7611
134.0535, 352.4532
134.5356, 354.2796
135.0178, 357.4496
135.4999, 361.9760
135.9820, 366.7722
136.4641, 371.4584
136.9462, 376.0643
137.4283, 380.7425
137.9105, 385.3111
138.3926, 390.3473
138.8747, 396.8842
139.3568, 405.2533
139.8389, 414.0250
140.3210, 422.6958
140.8032, 431.3731
141.2853, 439.5516
141.7674, 446.8111
142.2495, 453.7838
142.7316, 461.5390
143.2137, 468.9052
143.6959, 473.9267
144.1780, 478.3780
144.6601, 482.1323
145.1422, 485.9225
145.6243, 489.9118
146.1064, 493.9773
146.5886, 497.7591
147.0707, 501.0563
147.5528, 504.3050
148.0349, 507.7549
148.5170, 512.4496
148.9991, 515.7482
149.4813, 516.5898
149.9634, 515.3830
150.4455, 515.8715
150.9276, 518.9187
151.4097, 523.0117
151.8918, 527.1270
152.3740, 531.3520
152.8561, 535.5756
153.3382, 539.6954
153.8203, 543.6955
154.3024, 547.9792
154.7845, 552.4104
155.2667, 557.1591
155.7488, 562.4300
156.2309, 570.8484
156.7130, 577.0976
157.1951, 579.8214
157.6772, 578.9300
158.1594, 576.4239
158.6415, 571.8345
159.1236, 566.1967
159.6057, 560.4965
160.0878, 555.2855
160.5699, 549.8751
161.0521, 543.6861
161.5342, 536.5583
162.0163, 530.1027
162.4984, 524.9089
162.9805, 520.6866
163.4626, 517.0724
163.9448, 514.3649
164.4269, 511.9077
164.9090, 509.2539
165.3911, 506.2775
165.8732, 503.6001
166.3553, 501.4933
166.8375, 499.8903
167.3196, 498.6825
167.8017, 497.8383
168.2838, 497.3560
168.7659, 497.4579
169.2480, 498.4276
169.7302, 498.9312
170.2123, 497.4691
170.6944, 494.8128
171.1765, 492.7252
171.6586, 492.2325
172.1407, 492.6549
172.6229, 493.4940
173.1050, 494.9000
173.5871, 496.0379
174.0692, 495.6842
174.5513, 494.3413
175.0334, 493.5113
175.5156, 494.7569
175.9977, 496.8696
176.4798, 498.0391
176.9619, 497.7767
177.4440, 497.0125
177.9261, 496.6770
178.4083, 496.7110
178.8904, 496.8637
179.3725, 496.9390
179.8546, 497.0238
180.3367, 497.3343
180.8188, 498.0346
181.3010, 498.7604
181.7831, 498.9474
182.2652, 498.6454
182.7473, 498.2576
183.2294, 497.7379
183.7115, 497.3223
184.1937, 497.8351
184.6758, 499.8829
185.1579, 502.3847
185.6400, 503.4755
186.1221, 503.1864
186.6042, 502.4471
187.0864, 501.8127
187.5685, 501.2966
188.0506, 501.0053
188.5327, 501.0335
189.0148, 501.2378
189.4969, 501.3040
189.9791, 501.2315
190.4612, 501.1113
190.9433, 500.9349
191.4254, 500.7352
191.9075, 500.7699
192.3896, 501.1503
192.8718, 501.7821
193.3539, 502.5067
193.8360, 503.3707
194.3181, 504.0172
194.8002, 503.9992
195.2823, 503.3297
195.7645, 502.7203
196.2466, 502.2826
196.7287, 502.0238
197.2108, 501.9205
197.6929, 501.9099
198.1750, 502.2877
198.6572, 503.6773
199.1393, 506.1485
199.6214, 507.8470
200.1035, 508.0135
200.5856, 506.9942
201.0677, 506.9546
201.5499, 508.0918
202.0320, 509.5494
202.5141, 510.5621
202.9962, 511.1218
203.4783, 511.3531
203.9604, 511.2549
204.4426, 510.8566
204.9247, 510.2440
205.4068, 509.2965
205.8889, 508.4840
206.3710, 508.5308
206.8531, 509.7520
207.3353, 510.1836
207.8174, 508.9347
208.2995, 506.2316
208.7816, 505.2445
209.2637, 506.3444
209.7458, 508.4378
210.2280, 510.9373
210.7101, 514.5246
211.1922, 515.8416
211.6743, 513.1498
212.1564, 506.6862
212.6385, 503.3200
213.1207, 503.9949
213.6028, 506.2760
214.0849, 507.7316
214.5670, 508.1159
215.0491, 508.3834
215.5313, 508.7566
216.0134, 509.2344
216.4955, 509.4389
216.9776, 509.1929
217.4597, 508.9201
217.9418, 509.0583
218.4239, 509.6841
218.9061, 510.5227
219.3882, 511.5869
219.8703, 512.8688
220.3524, 513.9992
220.8345, 514.8794
221.3166, 515.7098
221.7988, 516.7057
222.2809, 517.9039
222.7630, 519.1414
223.2451, 520.2463
223.7272, 521.2189
224.2093, 523.0230
224.6915, 526.3092
225.1736, 529.7304
225.6557, 531.7249
226.1378, 531.4276
226.6199, 531.6415
227.1020, 532.9904
227.5842, 535.4924
228.0663, 537.9935
228.5484, 540.6219
229.0305, 543.1408
229.5126, 545.2169
229.9947, 546.2649
230.4769, 548.0500
230.9590, 551.0067
231.4411, 555.1202
231.9232, 559.4179
232.4053, 564.0375
232.8874, 568.7484
233.3696, 573.2158
233.8517, 576.6746
234.3338, 581.4634
234.8159, 588.4744
235.2980, 597.7028
235.7801, 605.5770
236.2623, 611.8031
236.7444, 617.0115
237.2265, 621.7014
237.7086, 625.8998
238.1907, 629.5759
238.6728, 632.9563
239.1550, 635.9750
239.6371, 637.3441
240.1192, 636.3732
240.6013, 634.5287
241.0834, 632.9380
241.5655, 631.7971
242.0477, 630.5186
242.5298, 628.8915
243.0119, 626.9798
243.4940, 625.5067
243.9761, 624.5608
244.4582, 623.9343
244.9404, 623.4352
245.4225, 622.8034
245.9046, 622.8322
246.3867, 623.7117
246.8688, 625.3560
247.3509, 627.1273
247.8331, 628.7438
248.3152, 630.8519
248.7973, 633.9521
249.2794, 638.5847
249.7615, 643.0276
250.2436, 646.5774
250.7258, 649.7719
251.2079, 655.1277
251.6900, 663.1202
252.1721, 672.5999
252.6542, 683.0009
253.1363, 694.2617
253.6185, 706.3643
254.1006, 719.0889
254.5827, 732.6062
255.0648, 747.2916
255.5469, 762.5510
256.0291, 779.6644
256.5112, 799.8104
256.9933, 825.1962
257.4754, 848.4763
257.9575, 870.0852
258.4396, 889.3098
258.9218, 904.3517
259.4039, 918.0433
259.8860, 922.6547
260.3681, 913.8757
260.8502, 888.4235
261.3323, 858.1445
261.8145, 820.9423
262.2966, 780.4308
262.7787, 743.5343
263.2608, 709.7720
263.7429, 680.4865
264.2250, 656.0157
264.7072, 636.8752
265.1893, 621.5215
265.6714, 610.8848
266.1535, 603.3646
266.6356, 596.3075
267.1177, 589.7006
267.5999, 583.3777
268.0820, 577.0984
268.5641, 570.6310
269.0462, 565.6633
269.5283, 562.4457
270.0104, 560.3719
270.4926, 558.5793
270.9747, 557.1293
271.4568, 555.7341
271.9389, 554.1736
272.4210, 552.4186
272.9031, 551.6641
273.3853, 552.3104
273.8674, 553.2571
274.3495, 552.8153
274.8316, 550.5623
275.3137, 549.1464
275.7958, 549.5854
276.2780, 551.6947
276.7601, 552.9063
277.2422, 552.9551
277.7243, 552.7562
278.2064, 553.3235
278.6885, 554.7448
279.1707, 556.0840
279.6528, 556.9889
280.1349, 557.6351
280.6170, 559.0089
281.0991, 561.2185
281.5812, 563.7549
282.0634, 566.4788
282.5455, 569.4669
283.0276, 571.2875
283.5097, 571.3828
283.9918, 570.3168
284.4739, 569.6144
284.9561, 569.2208
285.4382, 569.5965
285.9203, 571.2519
286.4024, 574.1164
286.8845, 577.3955
287.3666, 581.0484
287.8488, 584.8895
288.3309, 588.4485
288.8130, 591.7108
289.2951, 595.0149
289.7772, 598.6161
290.2593, 602.4418
290.7415, 606.3981
291.2236, 610.5714
291.7057, 614.5419
292.1878, 617.6083
292.6699, 619.8027
293.1520, 621.4757
293.6342, 622.8604
294.1163, 623.8881
294.5984, 624.2728
295.0805, 624.0024
295.5626, 623.1304
296.0447, 621.7181
296.5269, 619.7605
297.0090, 617.2134
297.4911, 613.4835
297.9732, 609.2297
298.4553, 605.9996
298.9374, 603.8526
299.4196, 602.3087
299.9017, 601.2914
300.3838, 600.5549
300.8659, 599.4285
301.3480, 597.1935
301.8301, 594.6453
302.3123, 593.0651
302.7944, 592.4109
303.2765, 591.9457
303.7586, 590.9603
304.2407, 589.7528
304.7228, 588.8718
305.2050, 588.7706
305.6871, 588.8031
306.1692, 588.5229
306.6513, 587.8730
307.1334, 586.4980
307.6155, 583.4155
308.0977, 579.7100
308.5798, 576.8225
309.0619, 575.3867
309.5440, 574.2504
310.0261, 572.5764
310.5082, 570.4479
310.9904, 568.1303
311.4725, 565.3444
311.9546, 562.6331
312.4367, 560.4301
312.9188, 558.7850
313.4009, 557.7191
313.8831, 557.6010
314.3652, 558.0695
314.8473, 558.4367
315.3294, 558.5490
315.8115, 558.3778
316.2936, 557.7030
316.7758, 556.3713
317.2579, 555.5031
317.7400, 555.9512
318.2221, 557.0403
318.7042, 557.9145
319.1863, 558.0976
319.6685, 558.2010
320.1506, 558.3375
320.6327, 558.5119
321.1148, 559.1107
321.5969, 560.2966
322.0790, 561.9195
322.5612, 563.8813
323.0433, 566.4519
323.5254, 569.0305
324.0075, 571.4948
324.4896, 573.8567
324.9717, 576.1504
325.4539, 579.1386
325.9360, 581.5717
326.4181, 582.7177
326.9002, 581.7316
327.3823, 580.4791
327.8644, 579.2787
328.3466, 577.9238
328.8287, 575.7732
329.3108, 571.2762
329.7929, 567.3161
330.2750, 565.1096
330.7571, 565.7082
331.2393, 565.5766
331.7214, 564.1864
332.2035, 562.2520
332.6856, 560.9578
333.1677, 560.6588
333.6498, 560.4548
334.1320, 560.0324
334.6141, 559.3093
335.0962, 559.1415
335.5783, 560.0583
336.0604, 560.9810
336.5425, 560.5045
337.0247, 557.5562
337.5068, 556.0379
337.9889, 557.3368
338.4710, 560.9552
338.9531, 562.2986
339.4352, 560.5477
339.9173, 558.4205
340.3994, 558.2806
340.8816, 560.5604
341.3637, 561.9675
341.8458, 561.7604
342.3279, 560.7403
342.8100, 561.0406
343.2921, 562.7670
343.7743, 565.0911
344.2564, 568.0284
344.7385, 571.5035
345.2206, 573.2971
345.7027, 572.9726
346.1848, 571.7964
346.6670, 571.4133
347.1491, 571.8282
347.6312, 573.1592
348.1133, 576.3344
348.5954, 580.5086
349.0775, 582.5848
349.5597, 582.4254
350.0418, 581.7657
350.5239, 582.6436
351.0060, 584.5363
351.4881, 585.7413
351.9702, 585.3412
352.4524, 584.2858
352.9345, 583.9076
353.4166, 584.1781
353.8987, 584.8272
354.3808, 585.6835
354.8629, 586.7834
355.3451, 588.2483
355.8272, 590.3160
356.3093, 592.3095
356.7914, 593.2898
357.2735, 593.6600
357.7556, 594.4971
358.2378, 596.5618
358.7199, 599.2202
359.2020, 601.8942
359.6841, 604.4539
360.1662, 607.3843
360.6483, 611.1048
361.1305, 615.3284
361.6126, 619.6544
362.0947, 623.9805
362.5768, 628.3378
363.0589, 632.5449
363.5410, 636.6212
364.0232, 641.4768
364.5053, 649.0558
364.9874, 656.6581
365.4695, 662.1865
365.9516, 665.0412
366.4337, 665.9813
366.9159, 665.1984
367.3980, 662.6494
367.8801, 658.1346
368.3622, 650.5331
368.8443, 641.8680
369.3264, 632.8326
369.8086, 622.2878
370.2907, 613.4269
370.7728, 606.7344
371.2549, 601.5680
371.7370, 596.9844
372.2191, 593.2322
372.7013, 589.6868
373.1834, 586.0775
373.6655, 582.2789
374.1476, 579.5719
374.6297, 578.5046
375.1118, 577.9380
375.5940, 576.7482
376.0761, 574.6720
376.5582, 572.9082
377.0403, 571.7988
377.5224, 571.1483
378.0045, 569.8232
378.4867, 567.5665
378.9688, 565.6846
379.4509, 565.3340
379.9330, 566.5543
380.4151, 567.2185
380.8972, 567.1846
381.3794, 566.4789
381.8615, 564.8134
382.3436, 562.1930
382.8257, 559.9120
383.3078, 558.4748
383.7899, 557.8023
384.2721, 557.8709
384.7542, 558.7607
385.2363, 559.4734
385.7184, 558.6757
386.2005, 556.8894
386.6826, 555.5077
387.1648, 555.0134
387.6469, 555.0971
388.1290, 555.5609
388.6111, 556.3424
389.0932, 557.0726
389.5753, 557.7741
390.0575, 558.1949
390.5396, 557.9449
391.0217, 556.7611
391.5038, 555.5176
391.9859, 554.7145
392.4680, 554.2910
392.9502, 554.1273
393.4323, 554.3033
393.9144, 554.6182
394.3965, 555.1277
394.8786, 555.8583
395.3607, 556.0779
395.8429, 554.9188
396.3250, 553.4174
396.8071, 552.4966
397.2892, 552.6549
397.7713, 553.0920
398.2534, 553.7903
398.7356, 554.6827
399.2177, 555.4345
399.6998, 555.9098
400.1819, 556.3282
400.6640, 556.8267
401.1461, 557.6920
401.6283, 558.0312
402.1104, 557.4279
402.5925, 556.4893
403.0746, 556.1652
403.5567, 556.8057
404.0388, 557.4313
404.5210, 557.8768
405.0031, 558.1400
405.4852, 557.7278
405.9673, 556.1034
406.4494, 554.8109
406.9315, 555.5082
407.4137, 558.5424
407.8958, 560.8373
408.3779, 561.8176
408.8600, 561.9606
409.3421, 562.5344
409.8242, 563.5855
410.3064, 564.3292
410.7885, 563.7922
411.2706, 562.4307
411.7527, 562.6963
412.2348, 564.8749
412.7169, 567.5349
413.1991, 569.0166
413.6812, 569.5797
414.1633, 570.0277
414.6454, 570.5239
415.1275, 571.1500
415.6096, 571.9201
416.0918, 572.8580
416.5739, 574.2070
417.0560, 576.5522
417.5381, 579.2317
418.0202, 581.4547
418.5023, 582.9504
418.9845, 584.2621
419.4666, 585.4694
419.9487, 586.7483
420.4308, 588.3973
420.9129, 590.5251
421.3951, 593.0773
421.8772, 596.2453
422.3593, 600.0359
422.8414, 603.6423
423.3235, 606.9095
423.8056, 609.8495
424.2878, 612.4341
424.7699, 614.2658
425.2520, 616.2070
425.7341, 618.7553
426.2162, 621.5438
426.6983, 623.3531
427.1805, 624.0984
427.6626, 623.9430
428.1447, 622.9504
428.6268, 621.1507
429.1089, 618.3112
429.5910, 613.9025
430.0732, 608.9622
430.5553, 604.7737
431.0374, 601.5741
431.5195, 598.1355
432.0016, 593.9208
432.4837, 589.2487
432.9659, 585.6053
433.4480, 583.0713
433.9301, 581.0385
434.4122, 579.1664
434.8943, 577.4466
435.3764, 575.7860
435.8586, 574.1387
436.3407, 572.6755
436.8228, 571.5406
437.3049, 570.7668
437.7870, 570.4992
438.2691, 571.3479
438.7513, 572.4969
439.2334, 572.6644
439.7155, 571.9036
440.1976, 571.0590
440.6797, 570.8495
441.1618, 570.8705
441.6440, 570.5318
442.1261, 569.2509
442.6082, 568.4206
443.0903, 569.4048
443.5724, 571.4269
444.0545, 572.8122
444.5367, 572.2806
445.0188, 571.4979
445.5009, 571.2296
445.9830, 571.5833
446.4651, 572.0226
446.9472, 572.3924
447.4294, 572.8207
447.9115, 573.4095
448.3936, 574.3629
448.8757, 575.2143
449.3578, 575.6821
449.8399, 576.0060
450.3221, 577.1456
450.8042, 579.8051
451.2863, 582.1735
451.7684, 583.4677
452.2505, 583.5136
452.7326, 583.6536
453.2148, 583.9229
453.6969, 584.2482
454.1790, 584.6262
454.6611, 585.0892
455.1432, 585.2190
455.6253, 584.9554
456.1075, 584.2618
456.5896, 582.7121
457.0717, 580.3182
457.5538, 578.3517
458.0359, 577.9825
458.5180, 578.6105
459.0002, 578.8421
459.4823, 578.5175
459.9644, 578.0403
460.4465, 577.6996
460.9286, 577.5032
461.4107, 577.4809
461.8929, 577.9319
462.3750, 578.3198
462.8571, 577.9237
463.3392, 576.9934
463.8213, 576.6901
464.3034, 577.9667
464.7856, 579.7982
465.2677, 581.5779
465.7498, 583.3269
466.2319, 584.7162
466.7140, 585.5022
467.1961, 585.9340
467.6783, 586.3387
468.1604, 586.3661
468.6425, 586.7903
469.1246, 587.9740
469.6067, 589.8134
470.0888, 591.0672
470.5710, 591.3280
471.0531, 591.5473
471.5352, 592.3299
472.0173, 593.9877
472.4994, 595.0885
472.9815, 595.5579
473.4637, 595.5434
473.9458, 594.9063
474.4279, 593.5428
474.9100, 593.2243
475.3921, 594.7668
475.8742, 597.6559
476.3564, 600.8531
476.8385, 604.3458
477.3206, 606.7222
477.8027, 606.1385
478.2848, 603.7574
478.7669, 601.9074
479.2491, 600.8772
479.7312, 600.4724
480.2133, 600.8593
480.6954, 601.6985
481.1775, 602.3641
481.6596, 602.4919
482.1418, 602.4235
482.6239, 602.1736
483.1060, 601.8147
483.5881, 601.8379
484.0702, 602.8080
484.5523, 603.9535
485.0345, 604.7961
485.5166, 605.1262
485.9987, 605.4704
486.4808, 606.1164
486.9629, 606.7496
487.4450, 606.9798
487.9272, 607.2518
488.4093, 606.4622
488.8914, 603.9030
489.3735, 599.8712
489.8556, 597.2467
490.3377, 596.3719
490.8199, 596.0534
491.3020, 595.8943
491.7841, 595.9967
492.2662, 594.8090
492.7483, 592.0018
493.2304, 588.6696
493.7126, 586.2676
494.1947, 584.7174
494.6768, 583.7010
495.1589, 583.4142
495.6410, 583.3306
496.1231, 582.2371
496.6053, 580.3103
497.0874, 578.8532
497.5695, 579.0422
498.0516, 579.9528
498.5337, 580.6575
499.0158, 581.0833
499.4980, 580.9615
499.9801, 579.4149
500.4622, 577.4838
500.9443, 576.3718
501.4264, 577.5740
501.9085, 578.5043
502.3907, 578.0905
502.8728, 576.7011
503.3549, 575.8701
503.8370, 576.5378
504.3191, 577.1237
504.8012, 576.9525
505.2834, 575.7318
505.7655, 575.1057
506.2476, 575.3378
506.7297, 575.8683
507.2118, 576.2250
507.6939, 576.4512
508.1761, 576.1872
508.6582, 575.0725
509.1403, 573.7313
509.6224, 573.9554
510.1045, 575.7864
510.5866, 577.4251
511.0688, 577.8795
511.5509, 577.4431
512.0330, 576.7609
512.5151, 575.8191
512.9973, 575.2917
513.4794, 575.9449
513.9615, 577.3350
514.4436, 578.7955
514.9257, 580.2253
515.4078, 581.5782
515.8900, 583.1891
516.3721, 584.6555
516.8542, 585.2215
517.3363, 583.6317
517.8184, 582.0002
518.3005, 581.2018
518.7827, 581.2610
519.2648, 581.5932
519.7469, 582.2877
520.2290, 583.0920
520.7111, 583.8801
521.1932, 584.6879
521.6754, 585.3987
522.1575, 586.0880
522.6396, 586.6161
523.1217, 586.5477
523.6038, 585.4438
524.0859, 585.4401
524.5681, 587.4186
525.0502, 590.7012
525.5323, 593.0235
526.0144, 594.3670
526.4965, 595.1345
526.9786, 595.2718
527.4608, 595.0485
527.9429, 595.2054
528.4250, 595.7843
528.9071, 596.8049
529.3892, 598.7869
529.8713, 601.1271
530.3535, 602.7370
530.8356, 602.7981
531.3177, 602.8185
531.7998, 603.8635
532.2819, 605.6309
532.7640, 607.3431
533.2462, 608.0881
533.7283, 609.3266
534.2104, 611.9177
534.6925, 616.0206
535.1746, 619.8132
535.6567, 622.4423
536.1389, 625.2589
536.6210, 629.1006
537.1031, 634.8985
537.5852, 639.6699
538.0673, 643.0023
538.5494, 645.6796
539.0316, 648.9528
539.5137, 652.8944
539.9958, 657.1511
540.4779, 661.5563
540.9600, 666.2482
541.4421, 671.6936
541.9243, 677.8535
542.4064, 684.4412
542.8885, 691.2314
543.3706, 698.2578
543.8527, 705.4228
544.3348, 712.6669
544.8170, 720.6752
545.2991, 730.0278
545.7812, 740.4005
546.2633, 751.4980
546.7454, 762.7497
547.2275, 775.2267
547.7097, 789.7900
548.1918, 805.9631
548.6739, 822.3676
549.1560, 838.7510
549.6381, 855.4506
550.1202, 872.5206
550.6024, 889.9593
551.0845, 907.6174
551.5666, 926.1768
552.0487, 944.1136
552.5308, 960.9979
553.0129, 977.7360
553.4951, 988.6494
553.9772, 992.7839
554.4593, 992.6283
554.9414, 991.5809
555.4235, 989.5156
555.9056, 984.8265
556.3878, 976.6663
556.8699, 966.1185
557.3520, 954.1505
557.8341, 941.1730
558.3162, 929.1896
558.7983, 919.4974
559.2805, 911.2809
559.7626, 903.9088
560.2447, 897.3780
560.7268, 891.3685
561.2089, 884.9991
561.6910, 879.4634
562.1732, 875.8543
562.6553, 876.6505
563.1374, 875.8617
563.6195, 871.1525
564.1016, 864.9271
564.5837, 860.7341
565.0659, 859.2695
565.5480, 858.4589
566.0301, 857.6778
566.5122, 857.2068
566.9943, 858.7796
567.4764, 862.7190
567.9586, 867.0809
568.4407, 870.0731
568.9228, 872.2481
569.4049, 877.1233
569.8870, 884.8375
570.3691, 893.9013
570.8513, 902.4181
571.3334, 911.3011
571.8155, 922.2216
572.2976, 936.4633
572.7797, 951.0380
573.2618, 964.3844
573.7440, 976.4753
574.2261, 987.5688
574.7082, 998.1161
575.1903, 1007.225
575.6724, 1014.945
576.1545, 1021.090
576.6367, 1023.907
577.1188, 1023.143
577.6009, 1019.139
578.0830, 1011.884
578.5651, 1001.315
579.0472, 987.9100
579.5294, 971.0297
580.0115, 952.1505
580.4936, 932.0115
580.9757, 910.4104
581.4578, 889.2709
581.9399, 868.7543
582.4221, 849.1083
582.9042, 830.1957
583.3863, 812.3350
583.8684, 795.7859
584.3505, 780.9109
584.8326, 767.2396
585.3148, 754.2627
585.7969, 741.9550
