##NAMES=Cordierite
##RRUFFID=R100141
##IDEAL CHEMISTRY=Mg_2_Al_3_(AlSi_5_)O_18_
##LOCALITY=Madagascar
##OWNER=RRUFF
##SOURCE=William W. Pinch
##DESCRIPTION=Blue cut gemstone
##STATUS=The identification of this mineral has been confirmed by single-crystal X-ray diffraction.
##URL=rruff.info/R100141
108.4438, 57.42240
108.9259, 57.29702
109.4080, 58.08548
109.8901, 59.20455
110.3722, 59.81559
110.8544, 59.76699
111.3365, 59.51826
111.8186, 59.25917
112.3007, 59.03393
112.7828, 58.94986
113.2649, 59.03265
113.7471, 59.28908
114.2292, 59.80706
114.7113, 60.61475
115.1934, 61.71471
115.6755, 63.03428
116.1576, 64.61881
116.6397, 66.59708
117.1219, 69.11082
117.6040, 72.19900
118.0861, 75.80624
118.5682, 79.74987
119.0503, 84.21793
119.5324, 89.85526
120.0146, 96.57059
120.4967, 103.2859
120.9788, 108.1774
121.4609, 110.6332
121.9430, 111.6966
122.4251, 110.8572
122.9073, 108.7973
123.3894, 105.8836
123.8715, 102.0439
124.3536, 98.20415
124.8357, 96.98762
125.3178, 98.57655
125.8000, 101.2923
126.2821, 105.1896
126.7642, 109.9244
127.2463, 114.3338
127.7284, 118.7085
128.2105, 121.6504
128.6927, 121.4429
129.1748, 117.5076
129.6569, 111.2534
130.1390, 103.3831
130.6211, 93.56105
131.1032, 84.15943
131.5854, 75.78883
132.0675, 68.49146
132.5496, 62.62873
133.0317, 58.50484
133.5138, 55.64100
133.9959, 52.87996
134.4781, 50.13373
134.9602, 47.64964
135.4423, 45.34782
135.9244, 43.32465
136.4065, 41.73957
136.8886, 40.71088
137.3708, 40.20127
137.8529, 39.77628
138.3350, 39.65516
138.8171, 39.40236
139.2992, 38.81493
139.7813, 37.99784
140.2635, 37.17392
140.7456, 36.51650
141.2277, 36.02016
141.7098, 35.82115
142.1919, 36.29673
142.6740, 36.69728
143.1561, 36.50090
143.6383, 35.72279
144.1204, 34.86532
144.6025, 34.39929
145.0846, 34.38481
145.5667, 34.68645
146.0488, 35.72363
146.5310, 36.88568
147.0131, 37.44246
147.4952, 37.19773
147.9773, 36.71011
148.4594, 36.50507
148.9415, 36.54215
149.4237, 36.90798
149.9058, 37.74799
150.3879, 38.95163
150.8700, 40.19357
151.3521, 41.40045
151.8342, 42.69919
152.3164, 44.12526
152.7985, 45.68320
153.2806, 47.47004
153.7627, 49.52447
154.2448, 51.84874
154.7269, 54.49893
155.2091, 57.87606
155.6912, 61.29407
156.1733, 64.72388
156.6554, 68.04705
157.1375, 70.68671
157.6196, 71.96137
158.1018, 71.72517
158.5839, 70.40231
159.0660, 67.63774
159.5481, 64.22501
160.0302, 60.41089
160.5123, 56.34439
160.9945, 52.29907
161.4766, 48.77683
161.9587, 45.84279
162.4408, 43.40376
162.9229, 41.68181
163.4050, 40.30410
163.8871, 38.94654
164.3693, 37.48232
164.8514, 36.01209
165.3335, 34.78671
165.8156, 33.91505
166.2977, 33.14214
166.7798, 32.47261
167.2620, 31.87828
167.7441, 31.31410
168.2262, 30.75551
168.7083, 30.22830
169.1904, 29.82075
169.6725, 29.57011
170.1547, 29.33859
170.6368, 29.08387
171.1189, 28.80842
171.6010, 28.50260
172.0831, 28.10117
172.5652, 27.72714
173.0474, 27.61723
173.5295, 27.92052
174.0116, 28.20362
174.4937, 28.06365
174.9758, 27.50174
175.4579, 27.01263
175.9401, 26.82337
176.4222, 26.82088
176.9043, 26.92599
177.3864, 27.17732
177.8685, 27.40854
178.3506, 27.37396
178.8328, 26.99339
179.3149, 26.63087
179.7970, 26.35782
180.2791, 26.18033
180.7612, 26.14640
181.2433, 26.29244
181.7255, 26.51473
182.2076, 26.58522
182.6897, 26.42418
183.1718, 26.24603
183.6539, 26.01111
184.1360, 25.81692
184.6181, 25.79983
185.1003, 26.03656
185.5824, 26.42727
186.0645, 26.60986
186.5466, 26.32528
187.0287, 26.13867
187.5108, 26.21222
187.9930, 26.40124
188.4751, 26.51881
188.9572, 26.45801
189.4393, 26.25048
189.9214, 26.06951
190.4035, 25.93866
190.8857, 25.80887
191.3678, 25.54978
191.8499, 25.29525
192.3320, 25.33850
192.8141, 25.91359
193.2962, 26.89282
193.7784, 27.25529
194.2605, 26.54252
194.7426, 25.86270
195.2247, 25.63933
195.7068, 25.76314
196.1889, 25.88622
196.6711, 25.78974
197.1532, 25.52496
197.6353, 25.37444
198.1174, 25.28106
198.5995, 25.33521
199.0816, 25.70074
199.5638, 26.32424
200.0459, 26.83322
200.5280, 26.94220
201.0101, 26.79334
201.4922, 26.82974
201.9743, 27.14716
202.4565, 27.57264
202.9386, 27.98670
203.4207, 28.39086
203.9028, 28.76434
204.3849, 29.05015
204.8670, 29.31342
205.3492, 29.64762
205.8313, 30.08849
206.3134, 30.58186
206.7955, 31.11567
207.2776, 31.73858
207.7597, 32.17220
208.2419, 32.35349
208.7240, 32.25491
209.2061, 31.73713
209.6882, 30.65817
210.1703, 29.34177
210.6524, 28.35628
211.1346, 27.82438
211.6167, 27.33109
212.0988, 26.69203
212.5809, 26.04660
213.0630, 25.54412
213.5451, 25.25957
214.0273, 25.09622
214.5094, 24.81745
214.9915, 24.27269
215.4736, 23.89598
215.9557, 23.77359
216.4378, 23.82429
216.9200, 24.01213
217.4021, 24.32745
217.8842, 24.68675
218.3663, 24.84749
218.8484, 24.67294
219.3305, 24.47708
219.8127, 24.17084
220.2948, 23.91283
220.7769, 23.92325
221.2590, 24.30285
221.7411, 24.88476
222.2232, 25.17254
222.7054, 24.79731
223.1875, 24.54961
223.6696, 24.56327
224.1517, 24.69625
224.6338, 24.75110
225.1159, 24.63824
225.5980, 24.46678
226.0802, 24.55811
226.5623, 25.24109
227.0444, 25.80201
227.5265, 26.09298
228.0086, 26.26127
228.4907, 26.44770
228.9729, 26.70219
229.4550, 27.08097
229.9371, 27.74452
230.4192, 28.71909
230.9013, 29.90635
231.3834, 31.35147
231.8656, 32.98715
232.3477, 34.66328
232.8298, 36.29309
233.3119, 38.05047
233.7940, 40.32376
234.2761, 42.88763
234.7583, 46.26670
235.2404, 50.77868
235.7225, 56.16040
236.2046, 62.12551
236.6867, 68.75969
237.1688, 75.58080
237.6510, 82.13928
238.1331, 88.78101
238.6152, 93.87528
239.0973, 97.01273
239.5794, 98.20891
240.0615, 97.31023
240.5437, 93.98012
241.0258, 89.07187
241.5079, 83.27344
241.9900, 76.55471
242.4721, 70.41325
242.9542, 65.53481
243.4364, 61.71863
243.9185, 58.50323
244.4006, 55.90054
244.8827, 53.74069
245.3648, 51.79008
245.8469, 50.04932
246.3290, 48.72582
246.8112, 48.05815
247.2933, 47.90130
247.7754, 47.76641
248.2575, 47.46661
248.7396, 47.42965
249.2217, 47.95937
249.7039, 48.97706
250.1860, 50.26810
250.6681, 51.63552
251.1502, 53.16634
251.6323, 55.14280
252.1144, 57.32677
252.5966, 60.45271
253.0787, 64.85447
253.5608, 70.34439
254.0429, 76.57288
254.5250, 82.90855
255.0071, 89.76976
255.4893, 98.94511
255.9714, 110.8754
256.4535, 124.6522
256.9356, 140.3520
257.4177, 157.1723
257.8998, 174.3036
258.3820, 192.3672
258.8641, 209.8454
259.3462, 221.6138
259.8283, 228.1072
260.3104, 227.1018
260.7925, 217.3799
261.2747, 201.4131
261.7568, 181.7563
262.2389, 158.8023
262.7210, 134.3627
263.2031, 113.3105
263.6852, 95.97756
264.1674, 81.98399
264.6495, 71.61077
265.1316, 63.73809
265.6137, 57.46964
266.0958, 52.46330
266.5779, 48.46135
267.0601, 44.90110
267.5422, 41.80674
268.0243, 39.21075
268.5064, 37.14695
268.9885, 35.46223
269.4706, 34.05669
269.9528, 32.89006
270.4349, 31.95133
270.9170, 31.26426
271.3991, 31.07553
271.8812, 30.65462
272.3633, 29.74838
272.8455, 28.76134
273.3276, 28.00419
273.8097, 27.54880
274.2918, 27.26092
274.7739, 26.94146
275.2560, 26.55630
275.7382, 26.21325
276.2202, 25.83740
276.7024, 25.54637
277.1845, 25.47275
277.6666, 25.60043
278.1487, 25.75315
278.6308, 25.70354
279.1129, 25.35977
279.5951, 25.13190
280.0772, 25.11401
280.5593, 25.10837
281.0414, 24.97293
281.5235, 24.73315
282.0056, 24.53834
282.4878, 24.54601
282.9699, 24.79850
283.4520, 24.94744
283.9341, 24.89282
284.4162, 24.84829
284.8983, 24.90854
285.3805, 25.05460
285.8626, 25.20893
286.3447, 25.30507
286.8268, 25.34527
287.3089, 25.49710
287.7910, 25.78705
288.2732, 26.14781
288.7553, 26.61553
289.2374, 27.13743
289.7195, 27.61239
290.2016, 27.97532
290.6837, 28.25076
291.1659, 28.58684
291.6480, 28.99521
292.1301, 29.44724
292.6122, 29.92812
293.0943, 30.45288
293.5764, 31.08493
294.0586, 31.86315
294.5407, 32.67756
295.0228, 33.23230
295.5049, 33.56698
295.9870, 33.55986
296.4691, 32.91350
296.9513, 32.04850
297.4334, 31.38123
297.9155, 31.05303
298.3976, 30.98331
298.8797, 31.05334
299.3618, 31.39201
299.8440, 31.63303
300.3261, 31.67933
300.8082, 31.68918
301.2903, 31.82213
301.7724, 32.09433
302.2545, 32.35201
302.7367, 32.37116
303.2188, 31.98175
303.7009, 32.09071
304.1830, 33.17397
304.6651, 34.32050
305.1472, 35.07613
305.6294, 35.37203
306.1115, 35.23156
306.5936, 34.62052
307.0757, 33.50175
307.5578, 32.55503
308.0399, 32.17479
308.5221, 31.55042
309.0042, 30.13756
309.4863, 28.16777
309.9684, 26.27347
310.4505, 24.85903
310.9326, 23.86745
311.4148, 22.96361
311.8969, 22.04269
312.3790, 21.30659
312.8611, 20.87895
313.3432, 20.65613
313.8253, 20.42931
314.3075, 20.09203
314.7896, 19.78638
315.2717, 19.89826
315.7538, 20.94587
316.2359, 21.66284
316.7180, 21.75645
317.2001, 21.55638
317.6823, 21.36487
318.1644, 21.27730
318.6465, 21.31985
319.1286, 21.54951
319.6107, 22.10068
320.0928, 22.51473
320.5750, 22.48159
321.0571, 22.52805
321.5392, 23.13892
322.0213, 24.32149
322.5034, 25.65882
322.9855, 26.70685
323.4677, 27.39757
323.9498, 28.39204
324.4319, 30.10855
324.9140, 31.69736
325.3961, 32.95197
325.8782, 33.74779
326.3604, 33.82667
326.8425, 32.93346
327.3246, 31.16287
327.8067, 29.55882
328.2888, 28.06805
328.7709, 26.77311
329.2531, 25.75626
329.7352, 24.94458
330.2173, 24.23403
330.6994, 23.57789
331.1815, 22.97387
331.6636, 22.41146
332.1458, 21.65341
332.6279, 21.25390
333.1100, 21.58729
333.5921, 22.11175
334.0742, 22.23579
334.5563, 21.81220
335.0385, 21.20859
335.5206, 20.97910
336.0027, 21.37460
336.4848, 21.49829
336.9669, 21.11294
337.4490, 20.67346
337.9312, 20.50901
338.4133, 20.60830
338.8954, 20.72439
339.3775, 20.62223
339.8596, 20.27949
340.3417, 19.99335
340.8239, 19.66500
341.3060, 19.48351
341.7881, 19.58924
342.2702, 19.89129
342.7523, 20.21526
343.2344, 20.45590
343.7166, 20.62346
344.1987, 20.76490
344.6808, 20.83150
345.1629, 20.92765
345.6450, 21.03565
346.1271, 21.18833
346.6093, 21.43194
347.0914, 21.77938
347.5735, 22.19401
348.0556, 22.58285
348.5377, 22.78944
349.0198, 23.28067
349.5020, 24.32013
349.9841, 25.40777
350.4662, 26.20734
350.9483, 26.67934
351.4304, 26.97859
351.9125, 27.24435
352.3947, 27.45755
352.8768, 27.76346
353.3589, 28.17774
353.8410, 28.66641
354.3231, 29.27182
354.8052, 29.94194
355.2874, 30.58310
355.7695, 31.12741
356.2516, 31.58982
356.7337, 32.05635
357.2158, 32.37329
357.6979, 32.92501
358.1800, 33.89782
358.6621, 35.07317
359.1443, 36.15296
359.6264, 37.03020
360.1085, 37.94014
360.5906, 39.27169
361.0727, 40.96646
361.5548, 43.28200
362.0370, 46.58916
362.5191, 50.20770
363.0012, 53.63167
363.4833, 56.89400
363.9654, 60.43066
364.4475, 65.06615
364.9297, 70.94885
365.4118, 75.44840
365.8939, 78.33484
366.3760, 79.89803
366.8581, 80.31596
367.3402, 79.55180
367.8224, 77.43507
368.3045, 73.65095
368.7866, 68.64538
369.2687, 63.61642
369.7508, 58.42451
370.2329, 53.56041
370.7151, 48.99867
371.1972, 44.89200
371.6793, 41.40213
372.1614, 38.62776
372.6435, 36.32645
373.1256, 34.25663
373.6078, 32.42101
374.0899, 30.82853
374.5720, 29.58780
375.0541, 28.51716
375.5362, 27.44765
376.0183, 26.38707
376.5005, 25.49289
376.9826, 24.97449
377.4647, 24.71805
377.9468, 24.27476
378.4289, 23.53609
378.9110, 22.79242
379.3932, 22.22363
379.8753, 21.78741
380.3574, 21.42512
380.8395, 21.15837
381.3216, 20.92025
381.8037, 20.62868
382.2859, 20.28216
382.7680, 19.92838
383.2501, 19.56931
383.7322, 19.22964
384.2143, 18.93607
384.6964, 18.69185
385.1786, 18.49011
385.6607, 18.34240
386.1428, 18.23673
386.6249, 18.16227
387.1070, 18.14425
387.5891, 18.07882
388.0713, 17.75727
388.5534, 17.20852
389.0355, 16.83436
389.5176, 16.90917
389.9997, 17.07512
390.4818, 16.90932
390.9640, 16.41228
391.4461, 15.98606
391.9282, 15.93301
392.4103, 16.17886
392.8924, 16.28227
393.3745, 16.04837
393.8567, 15.89721
394.3388, 16.14044
394.8209, 16.56618
395.3030, 16.72713
395.7851, 16.43888
396.2672, 15.93717
396.7494, 15.64539
397.2315, 15.71374
397.7136, 15.63395
398.1957, 15.14533
398.6778, 14.65961
399.1599, 14.55123
399.6420, 14.83036
400.1241, 15.24568
400.6063, 15.59303
401.0884, 15.87477
401.5705, 16.04041
402.0526, 16.05139
402.5347, 16.00850
403.0168, 15.94548
403.4990, 15.84819
403.9811, 15.65514
404.4632, 15.33440
404.9453, 14.98712
405.4274, 14.86920
405.9095, 15.14184
406.3917, 15.38502
406.8738, 15.66095
407.3559, 15.85230
407.8380, 15.88481
408.3201, 15.74554
408.8022, 15.43882
409.2844, 14.86077
409.7665, 13.96090
410.2486, 13.67696
410.7307, 14.75510
411.2128, 15.66082
411.6949, 15.86031
412.1771, 15.60644
412.6592, 15.31970
413.1413, 15.19576
413.6234, 15.18928
414.1055, 15.18939
414.5876, 15.15444
415.0698, 15.25632
415.5519, 15.79722
416.0340, 16.31288
416.5161, 16.39930
416.9982, 16.03644
417.4803, 15.66271
417.9625, 15.65416
418.4446, 15.96795
418.9267, 16.32198
419.4088, 16.72467
419.8909, 17.11509
420.3730, 17.52637
420.8552, 17.89456
421.3373, 18.03863
421.8194, 17.65049
422.3015, 17.26820
422.7836, 17.64474
423.2657, 18.77000
423.7479, 19.86373
424.2300, 20.57997
424.7121, 21.13386
425.1942, 21.90807
425.6763, 22.96177
426.1584, 23.91774
426.6406, 24.54847
427.1227, 24.99676
427.6048, 25.58280
428.0869, 26.38972
428.5690, 26.99361
429.0511, 26.99485
429.5333, 26.35604
430.0154, 25.56573
430.4975, 24.46539
430.9796, 23.36278
431.4617, 22.42857
431.9438, 21.63445
432.4260, 20.87083
432.9081, 20.08157
433.3902, 19.33143
433.8723, 18.78600
434.3544, 18.62760
434.8365, 18.37927
435.3187, 17.95507
435.8008, 17.48190
436.2829, 17.03614
436.7650, 16.64323
437.2471, 16.32962
437.7292, 16.12678
438.2114, 16.03650
438.6935, 15.95677
439.1756, 15.82504
439.6577, 15.77504
440.1398, 15.92500
440.6219, 16.14756
441.1040, 16.25785
441.5862, 16.17838
442.0683, 16.01398
442.5504, 15.97754
443.0325, 16.15379
443.5146, 16.19623
443.9967, 15.90621
444.4789, 15.61707
444.9610, 15.52482
445.4431, 15.60107
445.9252, 15.68268
446.4073, 15.64211
446.8894, 15.51635
447.3716, 15.45750
447.8537, 15.50110
448.3358, 15.52256
448.8179, 15.36696
449.3000, 15.20328
449.7821, 15.24040
450.2643, 15.54904
450.7464, 15.92630
451.2285, 16.25231
451.7106, 16.51353
452.1927, 16.60786
452.6748, 16.46375
453.1570, 16.25383
453.6391, 16.06323
454.1212, 15.91632
454.6033, 16.02555
455.0854, 16.73877
455.5675, 17.50767
456.0497, 17.79712
456.5318, 17.65960
457.0139, 17.50982
457.4960, 17.59295
457.9781, 17.75458
458.4602, 17.51502
458.9424, 16.54334
459.4245, 15.92336
459.9066, 16.14735
460.3887, 16.64545
460.8708, 16.78211
461.3529, 16.49469
461.8351, 16.21032
462.3172, 16.35524
462.7993, 16.94876
463.2814, 17.33954
463.7635, 17.29073
464.2456, 17.32541
464.7278, 17.60342
465.2099, 18.03583
465.6920, 18.50437
466.1741, 18.96309
466.6562, 19.41099
467.1383, 19.87868
467.6205, 20.45461
468.1026, 20.78186
468.5847, 20.54011
469.0668, 20.32384
469.5489, 20.44766
470.0310, 20.82809
470.5132, 21.19184
470.9953, 21.37287
471.4774, 21.42456
471.9595, 21.45401
472.4416, 21.42630
472.9237, 21.50923
473.4059, 21.94026
473.8880, 22.40031
474.3701, 22.50194
474.8522, 22.18400
475.3343, 22.02812
475.8164, 22.61553
476.2986, 23.62467
476.7807, 24.25454
477.2628, 24.38265
477.7449, 24.29490
478.2270, 24.09123
478.7091, 23.83702
479.1913, 23.79279
479.6734, 24.24426
480.1555, 24.60474
480.6376, 24.51050
481.1197, 24.11231
481.6018, 23.67136
482.0839, 23.25961
482.5660, 22.98049
483.0482, 22.98663
483.5303, 23.34777
484.0124, 23.79172
484.4945, 24.46125
484.9766, 25.07361
485.4587, 25.42515
485.9409, 25.59738
486.4230, 25.81802
486.9051, 26.22266
487.3872, 26.72028
487.8693, 27.04828
488.3514, 27.18499
488.8336, 27.18209
489.3157, 27.09019
489.7978, 26.84938
490.2799, 26.35288
490.7620, 25.64558
491.2441, 24.92435
491.7263, 24.37448
492.2084, 23.94178
492.6905, 23.35042
493.1726, 22.54542
493.6547, 21.71761
494.1368, 20.93718
494.6190, 20.18320
495.1011, 19.40389
495.5832, 18.57321
496.0653, 17.86090
496.5474, 17.52862
497.0295, 17.42629
497.5117, 17.02725
497.9938, 16.16700
498.4759, 15.37875
498.9580, 15.15653
499.4401, 15.40490
499.9222, 15.55611
500.4044, 15.59013
500.8865, 15.50675
501.3686, 15.16591
501.8507, 14.72511
502.3328, 14.54848
502.8149, 14.76877
503.2971, 15.11899
503.7792, 15.21424
504.2613, 14.95635
504.7434, 14.78963
505.2255, 14.78241
505.7076, 14.78857
506.1898, 14.79063
506.6719, 14.74672
507.1540, 14.53617
507.6361, 14.08130
508.1182, 13.57818
508.6003, 13.55151
509.0825, 14.30071
509.5646, 14.72140
510.0467, 14.30986
510.5288, 13.88317
511.0109, 13.98068
511.4930, 14.48844
511.9752, 14.87436
512.4573, 14.72077
512.9394, 14.27852
513.4215, 14.16397
513.9036, 14.43811
514.3857, 14.64642
514.8679, 14.55400
515.3500, 14.35335
515.8321, 14.30432
516.3142, 14.42875
516.7963, 14.54895
517.2784, 14.58869
517.7606, 14.57960
518.2427, 14.52645
518.7248, 14.43900
519.2069, 14.45288
519.6890, 14.68977
520.1711, 15.09046
520.6533, 15.34883
521.1354, 15.31455
521.6175, 15.36317
522.0996, 15.58932
522.5817, 15.90710
523.0638, 16.28847
523.5460, 16.69382
524.0281, 16.99210
524.5102, 17.02812
524.9923, 16.81295
525.4744, 16.75839
525.9565, 17.11048
526.4387, 17.29839
526.9208, 17.02703
527.4029, 16.63742
527.8850, 16.49447
528.3671, 16.68681
528.8492, 17.02081
529.3314, 17.30671
529.8135, 17.55313
530.2956, 17.87055
530.7777, 18.32326
531.2598, 18.72384
531.7419, 18.87541
532.2241, 18.91410
532.7062, 19.07209
533.1883, 19.44689
533.6704, 19.83225
534.1525, 20.00170
534.6346, 20.08498
535.1168, 20.43762
535.5989, 21.15863
536.0810, 21.94623
536.5631, 22.47034
537.0452, 22.71664
537.5273, 23.15930
538.0095, 24.03621
538.4916, 24.82706
538.9737, 25.17583
539.4558, 25.37476
539.9379, 25.87114
540.4200, 26.80458
540.9022, 27.98158
541.3843, 29.14115
541.8664, 30.27549
542.3485, 31.44074
542.8306, 32.71516
543.3127, 33.92635
543.7948, 34.79501
544.2769, 35.62910
544.7590, 36.87703
545.2411, 38.70974
545.7233, 40.94873
546.2054, 43.36048
546.6875, 45.96059
547.1696, 48.81970
547.6517, 51.88564
548.1339, 55.31908
548.6160, 59.39899
549.0981, 63.95775
549.5802, 68.65194
550.0623, 73.16325
550.5444, 78.03472
551.0266, 84.02012
551.5087, 90.61308
551.9908, 96.78435
552.4729, 102.2379
552.9550, 106.9386
553.4371, 110.8506
553.9193, 113.9965
554.4014, 116.1621
554.8835, 117.5525
555.3656, 117.9023
555.8477, 116.9248
556.3298, 114.9132
556.8120, 112.1786
557.2941, 108.8475
557.7762, 105.1790
558.2583, 101.3745
558.7404, 97.37589
559.2225, 93.90325
559.7047, 91.23232
560.1868, 88.81797
560.6689, 86.16898
561.1510, 83.62183
561.6331, 81.78895
562.1152, 81.01419
562.5974, 80.56269
563.0795, 79.74944
563.5616, 78.69265
564.0437, 77.79525
564.5258, 77.11522
565.0079, 76.69658
565.4901, 76.65037
565.9722, 76.96317
566.4543, 77.16570
566.9364, 76.79809
567.4185, 76.84345
567.9006, 77.58874
568.3828, 79.00727
568.8649, 81.19617
569.3470, 84.10942
569.8291, 87.33488
570.3112, 90.26319
570.7933, 92.83013
571.2755, 96.49389
571.7576, 102.1622
572.2397, 107.8542
572.7218, 112.8502
573.2039, 117.7578
573.6860, 123.3435
574.1682, 129.8086
574.6503, 136.5313
575.1324, 143.5894
575.6145, 150.5432
576.0966, 155.2243
576.5787, 157.1553
577.0609, 158.1996
577.5430, 159.8712
578.0251, 161.2092
578.5072, 160.1232
578.9893, 156.0381
579.4714, 150.7328
579.9536, 144.3538
580.4357, 137.4075
580.9178, 130.4662
581.3999, 123.6150
581.8820, 116.4833
582.3641, 108.6808
582.8463, 100.4571
583.3284, 93.19873
583.8105, 87.42854
584.2926, 81.89268
584.7747, 76.34129
585.2568, 71.06494
585.7390, 66.18694
586.2211, 61.77468
586.7032, 57.97658
587.1853, 55.05839
587.6674, 52.71152
588.1495, 50.05447
588.6317, 46.97078
589.1138, 44.29303
589.5959, 42.43560
590.0780, 40.96051
590.5601, 39.32043
591.0422, 37.51683
591.5244, 35.93232
592.0065, 34.84168
592.4886, 33.90029
592.9707, 32.78174
593.4528, 31.54803
593.9349, 30.45069
594.4171, 29.60999
594.8992, 28.91909
595.3813, 28.19095
595.8634, 27.40937
596.3455, 26.63355
596.8276, 25.80756
597.3098, 25.04478
597.7919, 24.32233
598.2740, 23.71145
598.7561, 23.38559
599.2382, 23.42893
599.7203, 23.51277
600.2025, 23.09319
600.6846, 22.18972
601.1667, 21.63424
601.6488, 21.67855
602.1309, 21.73987
602.6130, 21.30805
603.0952, 20.62337
603.5773, 20.19843
604.0594, 20.24784
604.5415, 20.27628
605.0236, 19.95947
605.5057, 19.48731
605.9879, 19.17161
606.4700, 19.05274
606.9521, 18.93827
607.4342, 18.65482
