##NAMES=Cordierite
##RRUFFID=R100141
##IDEAL CHEMISTRY=Mg_2_Al_3_(AlSi_5_)O_18_
##LOCALITY=Madagascar
##OWNER=RRUFF
##SOURCE=William W. Pinch
##DESCRIPTION=Blue cut gemstone
##STATUS=The identification of this mineral has been confirmed by single-crystal X-ray diffraction.
##URL=rruff.info/R100141
132.4972, 10.61466
132.9794, 11.58288
133.4615, 12.54936
133.9436, 12.81019
134.4257, 12.42686
134.9078, 12.17334
135.3899, 12.08455
135.8721, 12.23974
136.3542, 12.98440
136.8363, 14.43028
137.3184, 15.97508
137.8005, 17.08501
138.2826, 17.70298
138.7648, 18.37350
139.2469, 19.15031
139.7290, 20.05434
140.2111, 21.18871
140.6932, 22.58365
141.1753, 24.17119
141.6575, 25.92317
142.1396, 27.97714
142.6217, 29.85387
143.1038, 31.34785
143.5859, 32.43567
144.0681, 33.91079
144.5502, 35.89146
145.0323, 38.16416
145.5144, 40.60860
145.9965, 43.71288
146.4786, 46.19493
146.9608, 47.51356
147.4429, 47.29708
147.9250, 47.58299
148.4071, 48.26075
148.8892, 49.48323
149.3713, 51.46325
149.8535, 54.79121
150.3356, 58.32340
150.8177, 61.78612
151.2998, 65.17419
151.7819, 68.49344
152.2640, 71.46720
152.7462, 74.41127
153.2283, 77.83369
153.7104, 81.48267
154.1925, 85.84459
154.6746, 91.21135
155.1567, 98.39182
155.6389, 105.0626
156.1210, 111.1594
156.6031, 116.5911
157.0852, 121.2132
157.5673, 125.3075
158.0495, 128.3554
158.5316, 130.1324
159.0137, 130.4812
159.4958, 129.6728
159.9779, 127.3322
160.4600, 123.7880
160.9422, 120.1133
161.4243, 116.0607
161.9064, 112.3469
162.3885, 109.5071
162.8706, 108.3928
163.3527, 107.2800
163.8349, 105.1718
164.3170, 102.3193
164.7991, 99.92422
165.2812, 98.66026
165.7633, 98.06107
166.2454, 97.70005
166.7276, 97.18586
167.2097, 97.11403
167.6918, 98.15516
168.1739, 100.1609
168.6560, 101.9749
169.1381, 102.6601
169.6203, 102.8053
170.1024, 102.4749
170.5845, 102.3381
171.0666, 102.5530
171.5487, 103.0785
172.0309, 103.8885
172.5130, 104.6624
172.9951, 105.3588
173.4772, 105.8543
173.9593, 105.9494
174.4414, 105.2189
174.9236, 104.2426
175.4057, 103.7307
175.8878, 103.6836
176.3699, 103.6090
176.8520, 103.1116
177.3341, 102.2795
177.8163, 101.2972
178.2984, 99.99515
178.7805, 98.67855
179.2626, 97.85401
179.7447, 97.56152
180.2268, 97.48507
180.7090, 97.39036
181.1911, 97.27444
181.6732, 97.12791
182.1553, 96.85294
182.6374, 96.55665
183.1195, 96.45383
183.6017, 96.54327
184.0838, 96.84423
184.5659, 97.52038
185.0480, 98.48854
185.5301, 99.36160
186.0123, 100.0716
186.4944, 100.5531
186.9765, 100.4243
187.4586, 99.54209
187.9407, 98.53574
188.4228, 98.37735
188.9050, 98.99065
189.3871, 99.60012
189.8692, 99.79521
190.3513, 99.64286
190.8334, 99.43542
191.3155, 99.14880
191.7977, 98.91097
192.2798, 99.09290
192.7619, 99.69500
193.2440, 100.0031
193.7261, 99.42374
194.2082, 98.06262
194.6904, 97.17139
195.1725, 96.91269
195.6546, 96.94931
196.1367, 96.57108
196.6188, 95.72743
197.1009, 95.10343
197.5831, 95.22059
198.0652, 96.07470
198.5473, 96.60641
199.0294, 96.69557
199.5115, 96.52389
199.9937, 96.42487
200.4758, 96.39443
200.9579, 96.45403
201.4400, 96.67030
201.9221, 97.06336
202.4042, 97.30569
202.8864, 97.34213
203.3685, 97.25412
203.8506, 97.20669
204.3327, 97.18454
204.8148, 97.26088
205.2969, 97.50583
205.7791, 97.94643
206.2612, 98.33944
206.7433, 98.62591
207.2254, 98.89011
207.7075, 99.45896
208.1896, 100.5345
208.6718, 101.3331
209.1539, 101.3662
209.6360, 100.4942
210.1181, 99.55882
210.6002, 98.54411
211.0823, 97.52792
211.5645, 96.73450
212.0466, 96.19524
212.5287, 95.80251
213.0108, 95.53748
213.4929, 95.45876
213.9750, 95.26575
214.4572, 94.88675
214.9393, 94.40707
215.4214, 94.06166
215.9035, 93.85770
216.3856, 93.76988
216.8678, 93.79823
217.3499, 93.96854
217.8320, 94.16389
218.3141, 94.37797
218.7962, 94.60881
219.2783, 94.83978
219.7605, 95.02613
220.2426, 95.28405
220.7247, 95.66497
221.2068, 96.15782
221.6889, 96.82185
222.1710, 97.78162
222.6532, 98.88472
223.1353, 99.56496
223.6174, 99.54433
224.0995, 99.58102
224.5816, 100.1098
225.0637, 101.4363
225.5459, 102.4690
226.0280, 103.0060
226.5101, 103.2689
226.9922, 103.9267
227.4743, 105.1418
227.9564, 106.5023
228.4386, 107.8518
228.9207, 109.2045
229.4028, 110.4272
229.8849, 111.3820
230.3670, 112.2388
230.8492, 113.5428
231.3313, 115.5049
231.8134, 117.5727
232.2955, 119.4291
232.7776, 120.5521
233.2597, 122.6353
233.7419, 125.9210
234.2240, 130.1170
234.7061, 134.3491
235.1882, 138.3868
235.6703, 142.7941
236.1524, 147.8895
236.6346, 153.8948
237.1167, 160.1266
237.5988, 167.0271
238.0809, 174.0154
238.5630, 179.9417
239.0451, 185.1096
239.5273, 188.6861
240.0094, 190.3077
240.4915, 189.7691
240.9736, 187.7116
241.4557, 183.6897
241.9378, 178.3360
242.4200, 172.9095
242.9021, 167.1520
243.3842, 161.6169
243.8663, 156.3686
244.3484, 151.0581
244.8306, 147.1432
245.3127, 145.2088
245.7948, 144.3898
246.2769, 143.0193
246.7590, 140.4111
247.2411, 138.4486
247.7233, 137.9472
248.2054, 139.4158
248.6875, 140.3857
249.1696, 140.3828
249.6517, 140.1901
250.1338, 141.1242
250.6160, 143.6229
251.0981, 146.4760
251.5802, 149.3179
252.0623, 152.1508
252.5444, 154.9673
253.0265, 157.3445
253.5087, 160.0343
253.9908, 164.1431
254.4729, 170.2605
254.9550, 176.6209
255.4371, 182.5085
255.9192, 187.6037
256.4014, 194.5148
256.8835, 204.0878
257.3656, 214.6426
257.8477, 224.5681
258.3298, 234.1114
258.8120, 242.5749
259.2941, 250.2489
259.7762, 257.2946
260.2583, 261.2285
260.7404, 262.5625
261.2225, 260.1938
261.7047, 252.4389
262.1868, 237.6797
262.6689, 221.5123
263.1510, 204.1405
263.6331, 185.8088
264.1152, 170.1772
264.5974, 157.6455
265.0795, 147.3684
265.5616, 139.0844
266.0437, 133.0636
266.5258, 127.7000
267.0079, 122.6372
267.4901, 117.9200
267.9722, 114.3805
268.4543, 112.1213
268.9364, 110.7648
269.4185, 110.2620
269.9006, 110.9488
270.3828, 110.9757
270.8649, 109.8041
271.3470, 107.7809
271.8291, 106.5878
272.3112, 106.4209
272.7933, 106.5307
273.2755, 106.2654
273.7576, 105.4833
274.2397, 105.3211
274.7218, 106.0880
275.2039, 107.4566
275.6860, 108.4167
276.1682, 108.8974
276.6503, 109.2709
277.1324, 109.7308
277.6145, 110.2692
278.0966, 110.9843
278.5787, 111.9327
279.0609, 113.0065
279.5430, 113.9598
280.0251, 114.7637
280.5072, 115.6211
280.9893, 116.6884
281.4715, 117.9566
281.9536, 119.0711
282.4357, 119.8980
282.9178, 120.7974
283.3999, 122.5593
283.8820, 125.2361
284.3642, 127.7997
284.8463, 129.5815
285.3284, 130.6873
285.8105, 132.2346
286.2926, 134.2231
286.7747, 136.6841
287.2569, 139.7015
287.7390, 143.2666
288.2211, 147.2085
288.7032, 151.5285
289.1853, 156.1774
289.6674, 161.0366
290.1496, 166.1437
290.6317, 171.3641
291.1138, 176.6048
291.5959, 181.8750
292.0780, 187.0642
292.5602, 192.3959
293.0423, 197.5782
293.5244, 202.1874
294.0065, 206.2357
294.4886, 208.8593
294.9707, 208.9922
295.4529, 206.9942
295.9350, 204.1749
296.4171, 200.8494
296.8992, 196.8838
297.3813, 191.8693
297.8634, 185.8951
298.3456, 179.6555
298.8277, 173.6043
299.3098, 167.7347
299.7919, 161.9997
300.2740, 156.2827
300.7561, 150.9672
301.2383, 146.8991
301.7204, 143.8570
302.2025, 141.1153
302.6846, 138.0594
303.1667, 135.0322
303.6488, 132.5306
304.1310, 130.7307
304.6131, 129.2255
305.0952, 127.7655
305.5773, 126.3176
306.0594, 124.7993
306.5415, 122.9342
307.0237, 121.0809
307.5058, 119.7542
307.9879, 119.1157
308.4700, 118.2625
308.9521, 116.0804
309.4343, 113.2482
309.9164, 110.9134
310.3985, 109.6053
310.8806, 108.9386
311.3627, 108.9419
311.8448, 109.6238
312.3270, 109.8587
312.8091, 108.2034
313.2912, 105.9666
313.7733, 104.6945
314.2554, 105.9941
314.7375, 107.4815
315.2197, 107.8789
315.7018, 107.2870
316.1839, 106.6061
316.6660, 106.1764
317.1481, 105.8627
317.6302, 105.5432
318.1124, 104.8832
318.5945, 104.5866
319.0766, 105.1341
319.5587, 106.2926
320.0408, 107.2589
320.5229, 107.4738
321.0051, 107.6426
321.4872, 108.1809
321.9693, 109.3520
322.4514, 110.5061
322.9335, 111.2804
323.4156, 111.9671
323.8978, 113.1296
324.3799, 115.6892
324.8620, 118.0241
325.3441, 119.5809
325.8262, 120.2166
326.3083, 120.3526
326.7905, 120.1076
327.2726, 119.3489
327.7547, 117.9218
328.2368, 114.8677
328.7189, 112.1309
329.2010, 110.1198
329.6832, 108.9079
330.1653, 107.7922
330.6474, 106.8679
331.1295, 105.9725
331.6116, 104.9325
332.0938, 103.3957
332.5759, 102.2822
333.0580, 101.8473
333.5401, 101.9894
334.0222, 101.9527
334.5043, 101.5301
334.9865, 101.2126
335.4686, 101.4293
335.9507, 102.6935
336.4328, 102.9789
336.9149, 101.6534
337.3970, 99.53445
337.8792, 99.07726
338.3613, 100.9734
338.8434, 102.5574
339.3255, 102.3556
339.8076, 100.0088
340.2898, 98.73492
340.7719, 98.80296
341.2540, 99.46218
341.7361, 99.57754
342.2182, 99.08427
342.7003, 98.64973
343.1825, 98.48442
343.6646, 98.57201
344.1467, 98.82700
344.6288, 99.25985
345.1109, 99.81591
345.5930, 100.5235
346.0752, 101.3499
346.5573, 102.0314
347.0394, 102.3985
347.5215, 102.6766
348.0036, 103.3446
348.4857, 104.3995
348.9679, 105.7757
349.4500, 107.8656
349.9321, 110.2822
350.4142, 111.7859
350.8963, 111.9873
351.3784, 111.7663
351.8606, 112.3049
352.3427, 113.4121
352.8248, 114.3956
353.3069, 114.6600
353.7890, 114.6383
354.2711, 115.0329
354.7533, 115.9569
355.2354, 116.7428
355.7175, 116.5906
356.1996, 115.9260
356.6817, 115.4914
357.1638, 115.7500
357.6460, 116.2460
358.1281, 116.5809
358.6102, 116.7761
359.0923, 117.1885
359.5744, 118.0721
360.0565, 119.2449
360.5387, 120.5427
361.0208, 122.0579
361.5029, 123.5230
361.9850, 124.7101
362.4671, 125.7270
362.9492, 126.8911
363.4314, 128.0741
363.9135, 129.6069
364.3956, 131.7807
364.8777, 135.0376
365.3598, 137.9889
365.8419, 140.6576
366.3241, 142.7831
366.8062, 143.9478
367.2883, 143.9836
367.7704, 143.1607
368.2526, 141.4436
368.7347, 138.7293
369.2168, 135.6714
369.6989, 132.1249
370.1810, 128.3311
370.6631, 124.4046
371.1453, 119.7838
371.6274, 115.8700
372.1095, 112.9689
372.5916, 110.9367
373.0737, 108.8846
373.5558, 106.6079
374.0380, 104.5875
374.5201, 103.1018
375.0022, 102.3036
375.4843, 101.5826
375.9664, 100.9219
376.4485, 100.3280
376.9307, 99.83201
377.4128, 99.47844
377.8949, 99.04842
378.3770, 98.42005
378.8591, 97.60962
379.3412, 96.83501
379.8234, 96.05542
380.3055, 95.47771
380.7876, 95.48984
381.2697, 96.05186
381.7518, 96.45788
382.2339, 96.54855
382.7161, 96.34869
383.1982, 95.74142
383.6803, 94.75072
384.1624, 93.91863
384.6445, 93.76176
385.1266, 94.07528
385.6088, 94.39851
386.0909, 94.70809
386.5730, 94.87031
387.0551, 94.72514
387.5372, 94.30372
388.0193, 93.68642
388.5015, 92.46230
388.9836, 91.30943
389.4657, 91.13156
389.9478, 92.00368
390.4299, 92.90322
390.9120, 93.17756
391.3942, 93.06127
391.8763, 92.83676
392.3584, 92.53847
392.8405, 92.21692
393.3226, 91.72935
393.8047, 91.17769
394.2869, 91.02796
394.7690, 92.08223
395.2511, 93.17228
395.7332, 93.50237
396.2154, 92.47071
396.6975, 91.68177
397.1796, 91.62082
397.6617, 91.98593
398.1438, 92.25557
398.6259, 92.16039
399.1081, 92.15810
399.5902, 92.44338
400.0723, 93.08866
400.5544, 93.51098
401.0365, 93.50998
401.5186, 93.43323
402.0008, 93.58645
402.4829, 94.20005
402.9650, 94.59577
403.4471, 94.61584
403.9292, 94.36181
404.4113, 94.26656
404.8935, 94.37521
405.3756, 94.53605
405.8577, 94.64704
406.3398, 94.67966
406.8219, 94.91370
407.3040, 95.43668
407.7862, 96.00408
408.2683, 96.25623
408.7504, 96.18774
409.2325, 96.00655
409.7146, 95.57417
410.1967, 95.13255
410.6789, 95.69003
411.1610, 97.28576
411.6431, 98.89133
412.1252, 99.34908
412.6073, 99.08435
413.0894, 99.38539
413.5716, 100.6813
414.0537, 102.2068
414.5358, 102.9466
415.0179, 103.0990
415.5000, 103.3390
415.9821, 103.8781
416.4643, 104.7671
416.9464, 106.2601
417.4285, 108.4161
417.9106, 110.3671
418.3927, 111.0856
418.8748, 111.4373
419.3570, 112.4358
419.8391, 115.0097
420.3212, 117.7362
420.8033, 120.0430
421.2854, 122.0044
421.7675, 124.0251
422.2497, 125.8710
422.7318, 128.0789
423.2139, 130.9278
423.6960, 134.5418
424.1781, 138.5806
424.6602, 143.5772
425.1424, 148.8200
425.6245, 153.2043
426.1066, 156.0888
426.5887, 158.8677
427.0709, 161.9507
427.5530, 165.3368
428.0351, 168.0208
428.5172, 170.5129
428.9993, 171.6333
429.4814, 170.3556
429.9636, 166.1949
430.4457, 161.4081
430.9278, 155.9665
431.4099, 150.2052
431.8920, 144.8523
432.3741, 139.8825
432.8563, 135.1518
433.3384, 130.5858
433.8205, 126.1755
434.3026, 121.8610
434.7847, 117.5528
435.2668, 113.8636
435.7490, 111.7370
436.2311, 110.8062
436.7132, 109.8306
437.1953, 108.4065
437.6774, 106.8943
438.1595, 105.6924
438.6417, 104.7907
439.1238, 104.1470
439.6059, 103.9513
440.0880, 103.8911
440.5701, 103.6109
441.0522, 103.0427
441.5344, 102.4566
442.0165, 101.9499
442.4986, 101.5458
442.9807, 101.2759
443.4628, 101.2871
443.9449, 101.3007
444.4271, 101.2346
444.9092, 101.0864
445.3913, 100.8536
445.8734, 100.3667
446.3555, 99.92797
446.8376, 99.68262
447.3198, 99.64992
447.8019, 99.80457
448.2840, 100.3652
448.7661, 101.0159
449.2482, 101.2779
449.7303, 100.7715
450.2125, 100.5323
450.6946, 100.9004
451.1767, 101.8153
451.6588, 102.3128
452.1409, 102.2614
452.6230, 102.1090
453.1052, 102.1753
453.5873, 102.4781
454.0694, 102.7747
454.5515, 103.0421
455.0337, 103.3030
455.5158, 103.6627
455.9979, 104.1044
456.4800, 104.3368
456.9621, 104.1423
457.4442, 103.6816
457.9264, 103.3733
458.4085, 103.2101
458.8906, 102.9342
459.3727, 102.0270
459.8548, 100.9475
460.3369, 100.5725
460.8191, 101.4239
461.3012, 102.2105
461.7833, 101.5972
462.2654, 100.1614
462.7475, 99.10585
463.2296, 99.20435
463.7118, 99.60803
464.1939, 99.88876
464.6760, 100.0197
465.1581, 100.1136
465.6402, 100.0298
466.1223, 100.0241
466.6045, 100.2786
467.0866, 101.0376
467.5687, 101.7810
468.0508, 102.5849
468.5329, 103.3463
469.0150, 103.8294
469.4972, 103.8622
469.9793, 103.8702
470.4614, 103.9981
470.9435, 104.2575
471.4256, 104.4054
471.9077, 104.4145
472.3899, 104.3699
472.8720, 104.2935
473.3541, 104.1658
473.8362, 104.3012
474.3183, 104.8455
474.8004, 105.5131
475.2826, 105.5976
475.7647, 105.1524
476.2468, 104.9402
476.7289, 105.5842
477.2110, 106.6916
477.6931, 107.4014
478.1753, 107.7094
478.6574, 107.8004
479.1395, 107.7200
479.6216, 107.5493
480.1037, 107.3874
480.5858, 107.1902
481.0680, 107.1399
481.5501, 107.4830
482.0322, 108.0609
482.5143, 108.5394
482.9964, 108.9424
483.4786, 109.0855
483.9607, 108.7199
484.4428, 107.7852
484.9249, 107.1649
485.4070, 107.0993
485.8892, 107.3679
486.3713, 107.8360
486.8534, 108.7535
487.3355, 109.4826
487.8176, 110.0109
488.2997, 110.3395
488.7819, 110.4817
489.2640, 110.4409
489.7461, 110.1918
490.2282, 109.6735
490.7103, 108.9001
491.1924, 108.1867
491.6746, 107.5116
492.1567, 106.9615
492.6388, 106.7444
493.1209, 106.7938
493.6030, 106.5214
494.0851, 105.7798
494.5673, 104.8736
495.0494, 104.2409
495.5315, 103.8216
496.0136, 103.4229
496.4957, 102.9918
496.9778, 102.5092
497.4600, 101.8910
497.9421, 101.1581
498.4242, 100.4858
498.9063, 99.88048
499.3884, 99.43300
499.8705, 99.25520
500.3527, 99.50076
500.8348, 99.69250
501.3169, 99.60855
501.7990, 99.38320
502.2811, 99.20415
502.7632, 99.12605
503.2454, 99.07674
503.7275, 98.95475
504.2096, 98.79299
504.6917, 99.01204
505.1738, 100.0007
505.6559, 100.8422
506.1381, 101.0161
506.6202, 100.3685
507.1023, 99.62962
507.5844, 98.70504
508.0665, 97.86196
508.5486, 97.50913
509.0308, 97.65481
509.5129, 97.92797
509.9950, 98.24970
510.4771, 98.61834
510.9592, 99.09898
511.4413, 99.66700
511.9235, 100.1240
512.4056, 100.3447
512.8877, 100.3718
513.3698, 100.2223
513.8519, 99.88471
514.3340, 99.55872
514.8162, 99.35437
515.2983, 99.25861
515.7804, 99.25915
516.2625, 99.40132
516.7446, 99.57959
517.2267, 99.78325
517.7089, 99.99438
518.1910, 100.1646
518.6731, 99.93890
519.1552, 99.99879
519.6373, 100.8275
520.1194, 102.5753
520.6016, 103.4904
521.0837, 103.0031
521.5658, 102.3073
522.0479, 102.3141
522.5300, 103.2807
523.0121, 103.9667
523.4943, 104.1664
523.9764, 104.2140
524.4585, 104.8132
524.9406, 105.9699
525.4227, 106.9529
525.9048, 107.4793
526.3870, 107.6587
526.8691, 107.6672
527.3513, 107.5240
527.8334, 107.5062
528.3155, 107.8831
528.7976, 108.4858
529.2797, 109.0384
529.7618, 109.4804
530.2440, 110.0575
530.7261, 110.9883
531.2082, 112.1402
531.6903, 113.3253
532.1724, 114.6738
532.6545, 115.8567
533.1367, 116.4621
533.6188, 116.7626
534.1009, 117.7539
534.5830, 120.4326
535.0651, 122.9940
535.5472, 124.6506
536.0294, 125.1772
536.5115, 126.5919
536.9936, 129.2678
537.4757, 132.3107
537.9578, 134.8936
538.4399, 136.8958
538.9221, 139.3949
539.4042, 142.6465
539.8863, 146.2367
540.3684, 149.3032
540.8505, 151.9197
541.3326, 154.9870
541.8148, 159.0754
542.2969, 163.6997
542.7790, 168.0447
543.2611, 172.1402
543.7432, 176.3653
544.2253, 181.0167
544.7075, 185.9071
545.1896, 190.6690
545.6717, 195.0907
546.1538, 200.3190
546.6359, 207.0863
547.1180, 214.8946
547.6002, 223.1318
548.0823, 231.4884
548.5644, 240.4712
549.0465, 250.2849
549.5286, 260.8481
550.0107, 271.9015
550.4929, 283.5717
550.9750, 295.5673
551.4571, 308.0539
551.9392, 321.0854
552.4213, 333.1219
552.9034, 344.4291
553.3856, 354.1403
553.8677, 361.7933
554.3498, 367.3436
554.8319, 370.1319
555.3140, 369.9720
555.7961, 367.4857
556.2783, 363.1827
556.7604, 357.2072
557.2425, 349.9381
557.7246, 341.0004
558.2067, 331.3403
558.6888, 321.7086
559.1710, 312.1374
559.6531, 302.8334
560.1352, 293.0899
560.6173, 284.3681
561.0994, 277.9896
561.5815, 274.2766
562.0637, 270.5341
562.5458, 265.9214
563.0279, 261.3116
563.5100, 257.2828
563.9921, 254.0328
564.4742, 251.0299
564.9564, 248.4404
565.4385, 245.9553
565.9206, 242.8355
566.4027, 238.8071
566.8848, 235.6641
567.3669, 234.1089
567.8491, 233.7248
568.3312, 233.2459
568.8133, 232.6866
569.2954, 232.4180
569.7775, 232.3513
570.2596, 232.8366
570.7418, 234.7686
571.2239, 238.2515
571.7060, 241.9807
572.1881, 244.8937
572.6702, 247.5396
573.1523, 250.5712
573.6345, 254.2293
574.1166, 258.0939
574.5987, 262.1040
575.0808, 266.1590
575.5629, 270.1674
576.0450, 274.9737
576.5272, 278.6461
577.0093, 280.9142
577.4914, 281.7715
577.9735, 281.1456
578.4556, 278.9883
578.9377, 275.4597
579.4199, 270.3600
579.9020, 263.7309
580.3841, 256.8130
580.8662, 249.6626
581.3483, 242.0741
581.8304, 233.7112
582.3126, 224.7864
582.7947, 215.9404
583.2768, 207.1618
583.7589, 198.8838
584.2410, 191.6249
584.7231, 185.1981
585.2053, 179.2362
585.6874, 173.6950
586.1696, 168.4675
586.6517, 163.4707
587.1338, 158.7265
587.6159, 154.3428
588.0980, 150.1372
588.5801, 146.4848
589.0623, 143.7240
589.5444, 142.0229
590.0265, 139.9705
590.5086, 137.2546
590.9907, 134.5897
591.4728, 132.5750
591.9550, 131.3347
592.4371, 130.0597
592.9192, 128.6844
593.4013, 127.3187
593.8834, 126.1687
594.3655, 125.2019
594.8477, 124.1914
595.3298, 123.0344
595.8119, 121.8564
596.2940, 120.7688
596.7761, 119.8006
597.2582, 119.0147
597.7404, 118.6732
598.2225, 118.3488
598.7046, 117.7650
599.1867, 116.9040
599.6688, 115.8541
600.1509, 114.0702
600.6331, 112.5039
601.1152, 111.8608
601.5973, 112.7611
602.0794, 113.0874
602.5615, 112.4645
603.0436, 111.6241
603.5258, 111.5548
604.0079, 112.5231
604.4900, 112.7485
604.9721, 111.7185
605.4542, 110.1444
605.9363, 109.4884
606.4185, 109.6704
606.9006, 109.9261
607.3827, 109.9510
607.8648, 109.8237
608.3469, 109.6393
608.8290, 109.3970
609.3112, 109.1030
609.7933, 108.5384
610.2754, 108.0749
610.7575, 108.0283
611.2396, 108.4760
611.7217, 108.9979
612.2039, 109.5829
612.6860, 110.1251
613.1681, 110.5452
613.6502, 110.7675
614.1323, 110.9949
614.6144, 111.2696
615.0966, 111.5099
615.5787, 111.5589
616.0608, 111.3683
616.5429, 111.3081
617.0250, 111.5024
617.5071, 111.8360
617.9893, 111.9975
618.4714, 112.0224
618.9535, 112.1682
619.4356, 112.8655
619.9177, 113.6040
620.3998, 113.6195
620.8820, 112.9791
621.3641, 112.3506
621.8462, 111.7973
622.3283, 111.6049
622.8104, 112.1352
623.2925, 113.7034
623.7747, 114.8785
624.2568, 115.2268
624.7389, 115.1803
625.2210, 115.0795
625.7031, 114.9476
626.1852, 114.7064
626.6674, 114.3544
627.1495, 113.8914
627.6316, 113.1955
628.1137, 112.2424
628.5958, 111.7250
629.0779, 112.1007
629.5601, 112.7323
630.0422, 112.1157
630.5243, 110.5251
631.0064, 109.2278
631.4885, 109.3737
