##NAMES=Cordierite
##RRUFFID=R040081
##IDEAL CHEMISTRY=Mg_2_Al_3_(AlSi_5_)O_18_
##LOCALITY=Laramie Range, Wyoming, USA
##OWNER=RRUFF
##SOURCE=University of Arizona Mineral Museum
##DESCRIPTION=Blue to purple coarsely crystalline
##STATUS=The identification of this mineral has been confirmed by X-ray diffraction and chemical analysis
##URL=rruff.info/R040081
##MEASURED CHEMISTRY=(Mg_1.80_Fe^2+^_0.20_)_Σ=2_Al_4.00_(Si_4.96_Al_0.04_)_Σ=5_O_18_·0.86H_2_O·Na_0.04_ ; H_2_O estimated by difference and verified by Raman spectroscopy
91.72394, 0.0000000E+00
92.20605, 143.8595
92.68817, 143.8097
93.17029, 144.7657
93.65240, 145.5509
94.13452, 146.2715
94.61664, 146.2621
95.09875, 145.4151
95.58087, 144.0396
96.06299, 142.5391
96.54510, 140.5916
97.02721, 138.9888
97.50933, 138.1207
97.99145, 137.6830
98.47356, 137.2365
98.95568, 136.3709
99.43780, 134.8612
99.91991, 133.8526
100.4020, 133.8553
100.8841, 133.7801
101.3663, 133.0770
101.8484, 131.8076
102.3305, 130.4495
102.8126, 129.4219
103.2947, 128.7530
103.7768, 128.5632
104.2590, 129.2768
104.7411, 130.2536
105.2232, 130.7890
105.7053, 130.6874
106.1874, 130.3290
106.6695, 130.1212
107.1517, 130.0364
107.6338, 130.0500
108.1159, 130.1762
108.5980, 130.3969
109.0801, 130.6237
109.5622, 130.7586
110.0444, 130.9657
110.5265, 131.3961
111.0086, 132.0665
111.4907, 132.8109
111.9728, 133.4494
112.4549, 133.9528
112.9371, 134.4337
113.4192, 134.8269
113.9013, 135.2541
114.3834, 135.7706
114.8655, 136.3957
115.3476, 137.1808
115.8298, 138.2417
116.3119, 139.5061
116.7940, 141.2335
117.2761, 143.7448
117.7582, 146.6531
118.2403, 149.5368
118.7225, 152.1810
119.2046, 154.5665
119.6867, 156.3436
120.1688, 158.2147
120.6509, 158.9745
121.1330, 158.0316
121.6152, 155.5349
122.0973, 151.9863
122.5794, 147.4961
123.0615, 142.1083
123.5436, 137.4302
124.0257, 133.6669
124.5079, 130.4816
124.9900, 127.6273
125.4721, 125.0725
125.9542, 122.8633
126.4363, 121.1862
126.9184, 119.9061
127.4006, 118.8166
127.8827, 118.1149
128.3648, 117.5823
128.8469, 116.5035
129.3290, 114.4785
129.8111, 112.3458
130.2932, 110.6151
130.7754, 109.2187
131.2575, 107.9106
131.7396, 106.3580
132.2217, 104.4707
132.7038, 103.1709
133.1859, 102.9292
133.6681, 102.9657
134.1502, 102.9796
134.6323, 102.9360
135.1144, 102.9802
135.5965, 103.3749
136.0786, 104.5715
136.5608, 105.1706
137.0429, 104.7459
137.5250, 104.0956
138.0071, 103.8170
138.4892, 104.0889
138.9713, 104.6866
139.4535, 105.1490
139.9356, 105.4898
140.4177, 105.6601
140.8998, 105.5610
141.3819, 105.3115
141.8640, 105.0421
142.3462, 104.7906
142.8283, 104.6029
143.3104, 104.6304
143.7925, 104.9486
144.2746, 105.2915
144.7567, 105.4906
145.2388, 105.6001
145.7210, 105.8691
146.2031, 106.5105
146.6852, 107.3350
147.1673, 107.9444
147.6494, 108.1961
148.1315, 108.4181
148.6137, 109.0377
149.0958, 110.1483
149.5779, 110.9967
150.0600, 110.6015
150.5421, 109.9664
151.0242, 110.1706
151.5064, 111.8149
151.9885, 114.1525
152.4706, 115.5748
152.9527, 115.5177
153.4348, 115.5991
153.9169, 116.5519
154.3991, 117.8576
154.8812, 118.8820
155.3633, 119.2362
155.8454, 119.0321
156.3275, 118.9546
156.8096, 119.5683
157.2918, 119.6838
157.7739, 119.0159
158.2560, 117.6817
158.7381, 115.8674
159.2202, 113.6603
159.7023, 111.0432
160.1845, 108.6878
160.6666, 106.6268
161.1487, 104.7451
161.6308, 103.0311
162.1129, 101.4738
162.5950, 100.0689
163.0772, 98.84822
163.5593, 97.83867
164.0414, 96.69996
164.5235, 95.25500
165.0056, 93.82768
165.4877, 92.58681
165.9698, 91.55811
166.4520, 90.78737
166.9341, 90.36593
167.4162, 90.30508
167.8983, 90.38135
168.3804, 90.85874
168.8625, 91.34937
169.3447, 91.28416
169.8268, 90.48833
170.3089, 89.53558
170.7910, 89.03301
171.2731, 88.87011
171.7552, 88.68482
172.2374, 88.19212
172.7195, 87.56066
173.2016, 87.30717
173.6837, 87.66526
174.1658, 88.15588
174.6479, 88.46689
175.1301, 88.61452
175.6122, 88.66003
176.0943, 88.69021
176.5764, 88.69644
177.0585, 88.43873
177.5406, 87.56833
178.0228, 86.72939
178.5049, 86.13598
178.9870, 85.82646
179.4691, 85.83150
179.9512, 86.34946
180.4333, 87.61110
180.9155, 88.30935
181.3976, 87.97573
181.8797, 87.47182
182.3618, 87.04961
182.8439, 86.80206
183.3260, 86.80912
183.8082, 87.27221
184.2903, 88.67516
184.7724, 89.20914
185.2545, 88.20189
185.7366, 87.00452
186.2187, 86.52433
186.7009, 86.90421
187.1830, 87.62185
187.6651, 87.92355
188.1472, 87.50797
188.6293, 87.27926
189.1114, 87.40891
189.5936, 87.62345
190.0757, 87.60197
190.5578, 87.26887
191.0399, 86.94478
191.5220, 87.21752
192.0041, 88.45447
192.4863, 89.25570
192.9684, 89.38548
193.4505, 89.02673
193.9326, 88.28064
194.4147, 87.09962
194.8968, 85.85151
195.3790, 85.24913
195.8611, 85.33337
196.3432, 85.34102
196.8253, 84.84156
197.3074, 84.10723
197.7895, 83.79757
198.2717, 84.24737
198.7538, 84.89491
199.2359, 85.00750
199.7180, 84.59100
200.2001, 84.07948
200.6822, 83.58536
201.1644, 83.14812
201.6465, 82.99490
202.1286, 83.35107
202.6107, 83.82410
203.0928, 84.06673
203.5749, 84.07708
204.0571, 83.97790
204.5392, 83.76938
205.0213, 83.45548
205.5034, 83.38087
205.9855, 83.91163
206.4676, 84.44670
206.9497, 84.66103
207.4319, 84.52761
207.9140, 84.14035
208.3961, 83.42940
208.8782, 82.26762
209.3603, 81.59219
209.8424, 82.06567
210.3246, 82.63714
210.8067, 82.80441
211.2888, 82.51933
211.7709, 82.05027
212.2530, 81.68359
212.7351, 81.41280
213.2173, 81.28194
213.6994, 81.35436
214.1815, 81.50229
214.6636, 81.67936
215.1457, 81.86797
215.6278, 82.05676
216.1100, 82.21221
216.5921, 82.24477
217.0742, 82.48766
217.5563, 83.19841
218.0384, 83.88803
218.5205, 84.22523
219.0027, 84.17064
219.4848, 83.93275
219.9669, 83.77751
220.4490, 83.70995
220.9311, 83.73923
221.4132, 83.88510
221.8954, 84.10168
222.3775, 84.33432
222.8596, 84.58131
223.3417, 84.91672
223.8238, 85.45613
224.3059, 86.33590
224.7881, 87.03873
225.2702, 87.37020
225.7523, 87.64411
226.2344, 88.24584
226.7165, 89.22628
227.1986, 90.11001
227.6807, 90.18577
228.1629, 89.17055
228.6450, 88.85330
229.1271, 89.82541
229.6092, 91.30305
230.0913, 92.50716
230.5734, 93.29507
231.0556, 93.92964
231.5377, 94.63575
232.0198, 95.41075
232.5019, 96.36407
232.9840, 97.58216
233.4661, 98.95738
233.9483, 100.2871
234.4304, 101.5020
234.9125, 102.9347
235.3946, 105.0557
235.8767, 107.7254
236.3588, 110.4644
236.8410, 113.5230
237.3231, 116.4541
237.8052, 118.5553
238.2873, 119.6791
238.7694, 120.3384
239.2515, 121.0038
239.7337, 121.5477
240.2158, 121.5679
240.6979, 120.6005
241.1800, 119.0969
241.6621, 117.8731
242.1442, 116.9601
242.6264, 116.2671
243.1085, 115.9245
243.5906, 115.7321
244.0727, 115.3390
244.5548, 114.4345
245.0369, 113.3148
245.5191, 112.5793
246.0012, 112.2241
246.4833, 112.2974
246.9654, 113.0278
247.4475, 114.1053
247.9296, 115.1097
248.4117, 115.7853
248.8939, 116.3556
249.3760, 117.3982
249.8581, 119.1694
250.3402, 120.8719
250.8223, 121.9548
251.3044, 122.9110
251.7866, 124.2973
252.2687, 126.3767
252.7508, 128.9486
253.2329, 131.6152
253.7150, 134.3996
254.1971, 137.2098
254.6793, 140.1730
255.1614, 143.0799
255.6435, 145.8050
256.1256, 148.3006
256.6077, 150.4649
257.0898, 152.1254
257.5720, 153.3640
258.0541, 153.8253
258.5362, 153.8258
259.0183, 153.0175
259.5004, 151.1091
259.9825, 148.0005
260.4647, 143.7736
260.9468, 138.3949
261.4289, 130.8976
261.9110, 124.1489
262.3931, 118.3292
262.8752, 113.1489
263.3574, 108.3687
263.8395, 103.9133
264.3216, 99.97499
264.8037, 96.86182
265.2858, 94.87789
265.7679, 93.19262
266.2501, 91.94138
266.7322, 90.82610
267.2143, 89.53893
267.6964, 88.08443
268.1785, 86.81644
268.6606, 86.26981
269.1428, 86.86044
269.6249, 87.10577
270.1070, 86.66467
270.5891, 86.21272
271.0712, 86.22787
271.5533, 86.70731
272.0355, 87.24861
272.5176, 87.34470
272.9997, 86.72188
273.4818, 86.88063
273.9639, 88.29651
274.4460, 89.90919
274.9282, 91.17130
275.4103, 92.08973
275.8924, 92.97362
276.3745, 94.12142
276.8566, 95.58810
277.3387, 96.79684
277.8208, 97.52125
278.3029, 98.27255
278.7851, 99.45525
279.2672, 100.8975
279.7493, 102.0232
280.2314, 102.3426
280.7135, 101.8980
281.1956, 102.0282
281.6778, 103.0595
282.1599, 104.1939
282.6420, 105.2536
283.1241, 106.2096
283.6062, 107.0107
284.0883, 107.5962
284.5705, 108.0390
285.0526, 108.7511
285.5347, 109.5820
286.0168, 110.8003
286.4989, 112.7548
286.9810, 115.1015
287.4632, 117.2105
287.9453, 118.7581
288.4274, 120.0151
288.9095, 121.7970
289.3916, 124.3960
289.8737, 127.0259
290.3559, 129.7861
290.8380, 132.4350
291.3201, 134.6744
291.8022, 136.4104
292.2843, 137.6054
292.7664, 138.1370
293.2486, 137.8089
293.7307, 137.2740
294.2128, 136.7799
294.6949, 136.0220
295.1770, 134.6539
295.6591, 132.5897
296.1413, 130.0119
296.6234, 127.0530
297.1055, 123.5476
297.5876, 120.3434
298.0697, 117.7051
298.5518, 115.2317
299.0340, 112.5222
299.5161, 109.5580
299.9982, 106.6403
300.4803, 104.0192
300.9624, 101.7359
301.4445, 99.77149
301.9267, 98.40307
302.4088, 97.13518
302.8909, 95.54379
303.3730, 93.68529
303.8551, 91.98397
304.3372, 90.74117
304.8194, 89.93564
305.3015, 89.17598
305.7836, 88.80193
306.2657, 88.13602
306.7478, 86.54934
307.2299, 84.35255
307.7121, 82.48563
308.1942, 81.46270
308.6763, 81.08364
309.1584, 80.68044
309.6405, 80.26145
310.1227, 79.81259
310.6048, 79.41087
311.0869, 78.96850
311.5690, 78.24480
312.0511, 77.09387
312.5332, 75.82671
313.0154, 75.09793
313.4975, 75.00241
313.9796, 75.01276
314.4617, 75.13190
314.9438, 75.26295
315.4259, 75.26167
315.9081, 75.08904
316.3902, 74.85566
316.8723, 74.67667
317.3544, 74.54680
317.8365, 74.53327
318.3186, 74.64512
318.8007, 74.87426
319.2828, 75.32961
319.7650, 75.99342
320.2471, 76.49490
320.7292, 76.43346
321.2113, 75.80273
321.6934, 75.52455
322.1755, 75.83601
322.6577, 76.27975
323.1398, 76.61430
323.6219, 76.83799
324.1040, 77.00307
324.5861, 77.11386
325.0682, 77.20365
325.5504, 77.42953
326.0325, 77.86723
326.5146, 78.33256
326.9967, 78.88452
327.4788, 79.41302
327.9609, 79.69911
328.4431, 79.64896
328.9252, 79.30470
329.4073, 78.72562
329.8894, 77.86122
330.3715, 76.91994
330.8536, 75.90025
331.3358, 74.84090
331.8179, 73.72165
332.3000, 72.53395
332.7821, 71.48643
333.2642, 70.90669
333.7463, 70.99583
334.2285, 70.82886
334.7106, 70.19394
335.1927, 69.41939
335.6748, 68.68590
336.1569, 68.04498
336.6390, 67.58807
337.1212, 67.43708
337.6033, 67.60895
338.0854, 67.63654
338.5675, 67.41091
339.0496, 67.16467
339.5317, 66.96787
340.0139, 66.83983
340.4960, 66.83122
340.9781, 66.99091
341.4602, 67.27143
341.9423, 67.43008
342.4244, 67.27477
342.9066, 67.24558
343.3887, 67.52511
343.8708, 67.96044
344.3529, 68.36122
344.8350, 68.65578
345.3171, 68.82411
345.7993, 68.81548
346.2814, 68.43476
346.7635, 68.21123
347.2456, 68.21282
347.7277, 68.33477
348.2098, 68.49432
348.6920, 68.67477
349.1741, 68.91030
349.6562, 69.24844
350.1383, 69.72787
350.6204, 70.11792
351.1025, 70.41557
351.5847, 70.64387
352.0668, 70.76216
352.5489, 70.81113
353.0310, 70.91621
353.5131, 71.19112
353.9952, 71.59483
354.4774, 71.69228
354.9595, 71.16889
355.4416, 70.70600
355.9237, 70.35500
356.4058, 70.16350
356.8879, 70.19438
357.3701, 70.47766
357.8522, 70.95972
358.3343, 71.54540
358.8164, 72.55767
359.2985, 73.14438
359.7806, 72.97921
360.2627, 72.62611
360.7448, 72.63535
361.2270, 73.03933
361.7091, 73.33376
362.1912, 72.82790
362.6733, 71.20316
363.1554, 70.20287
363.6375, 69.95443
364.1197, 70.15754
364.6018, 71.05002
365.0839, 72.32368
365.5660, 73.31804
366.0481, 73.53305
366.5302, 73.06365
367.0124, 72.65054
367.4945, 72.48915
367.9766, 72.11694
368.4587, 71.32813
368.9408, 70.33774
369.4229, 69.40797
369.9051, 68.65156
370.3872, 67.94572
370.8693, 67.01054
371.3514, 65.66309
371.8335, 64.56996
372.3156, 63.75326
372.7978, 63.23200
373.2799, 63.21714
373.7620, 63.63044
374.2441, 63.95814
374.7262, 63.47149
375.2083, 62.10482
375.6905, 61.50166
376.1726, 62.44698
376.6547, 63.29490
377.1368, 63.32906
377.6189, 62.73855
378.1010, 61.93185
378.5832, 61.02149
379.0653, 60.13039
379.5474, 59.59571
380.0295, 59.48747
380.5116, 59.55973
380.9937, 59.92073
381.4759, 60.31733
381.9580, 60.48989
382.4401, 60.36040
382.9222, 60.09573
383.4043, 59.86924
383.8864, 59.67973
384.3686, 59.43208
384.8507, 59.05080
385.3328, 58.66328
385.8149, 58.39172
386.2970, 58.22489
386.7791, 58.04119
387.2613, 57.64734
387.7434, 57.20472
388.2255, 57.17235
388.7076, 57.69953
389.1897, 58.22587
389.6718, 58.28407
390.1540, 58.06066
390.6361, 57.92482
391.1182, 58.08954
391.6003, 58.22060
392.0824, 57.89777
392.5645, 57.18506
393.0467, 56.67063
393.5288, 56.64394
394.0109, 56.91111
394.4930, 57.12928
394.9751, 57.32067
395.4572, 57.40016
395.9394, 57.23500
396.4215, 56.96216
396.9036, 56.80958
397.3857, 56.82529
397.8678, 56.94312
398.3499, 57.15025
398.8321, 57.45304
399.3142, 57.53953
399.7963, 57.16920
400.2784, 56.76366
400.7605, 56.64964
401.2426, 56.78068
401.7247, 56.87542
402.2068, 56.73171
402.6890, 56.45491
403.1711, 56.53492
403.6532, 57.29199
404.1353, 57.94722
404.6174, 58.35384
405.0995, 58.59011
405.5817, 58.69433
406.0638, 58.68900
406.5459, 58.69703
407.0280, 58.89425
407.5101, 59.33118
407.9922, 59.81441
408.4744, 60.39811
408.9565, 60.97237
409.4386, 61.48468
409.9207, 61.93614
410.4028, 62.35722
410.8849, 62.77918
411.3671, 63.18866
411.8492, 63.49681
412.3313, 63.68945
412.8134, 63.78312
413.2955, 63.56823
413.7776, 63.35527
414.2598, 63.50997
414.7419, 64.14084
415.2240, 65.00159
415.7061, 65.73270
416.1882, 66.30943
416.6703, 66.85283
417.1525, 67.29115
417.6346, 67.76194
418.1167, 68.29762
418.5988, 68.91981
419.0809, 69.66723
419.5630, 70.63393
420.0452, 71.73656
420.5273, 72.59837
421.0094, 73.04826
421.4915, 73.61292
421.9736, 74.56054
422.4557, 75.68789
422.9379, 76.76256
423.4200, 77.70552
423.9021, 78.67794
424.3842, 79.94369
424.8663, 81.48026
425.3484, 82.78146
425.8306, 83.70391
426.3127, 84.39178
426.7948, 85.19321
427.2769, 86.01355
427.7590, 86.17421
428.2411, 85.07901
428.7233, 83.27855
429.2054, 81.67229
429.6875, 80.31725
430.1696, 78.63818
430.6517, 76.02327
431.1339, 72.90459
431.6160, 70.58484
432.0981, 69.38876
432.5802, 68.48060
433.0623, 67.52257
433.5444, 66.55106
434.0266, 65.62063
434.5087, 64.74583
434.9908, 63.95912
435.4729, 63.32246
435.9550, 62.87674
436.4371, 62.41975
436.9193, 61.82737
437.4014, 61.31666
437.8835, 61.16412
438.3656, 61.26750
438.8477, 61.18758
439.3298, 60.59259
439.8120, 59.63256
440.2941, 59.13332
440.7762, 59.60716
441.2583, 59.91127
441.7404, 59.81800
442.2225, 59.55978
442.7046, 59.33537
443.1867, 59.21168
443.6689, 59.19732
444.1510, 59.34103
444.6331, 59.71788
445.1152, 59.87604
445.5973, 59.48561
446.0794, 59.20280
446.5616, 59.31514
447.0437, 59.69786
447.5258, 60.12430
448.0079, 60.49273
448.4900, 60.75389
448.9721, 60.70791
449.4543, 60.15023
449.9364, 59.87779
450.4185, 60.41230
450.9006, 61.07354
451.3827, 61.38737
451.8648, 61.30796
452.3470, 61.10903
452.8291, 60.85329
453.3112, 60.62334
453.7933, 60.91537
454.2754, 62.03859
454.7575, 62.99486
455.2397, 62.92988
455.7218, 62.27199
456.2039, 61.69697
456.6860, 61.38197
457.1681, 61.14848
457.6502, 60.83057
458.1324, 60.45857
458.6145, 60.19952
459.0966, 60.16875
459.5787, 60.15039
460.0608, 59.71854
460.5429, 58.81628
461.0251, 58.21079
461.5072, 58.19776
461.9893, 58.43092
462.4714, 58.76232
462.9535, 59.10222
463.4356, 59.05506
463.9178, 58.20977
464.3999, 56.85433
464.8820, 56.58430
465.3641, 58.53589
465.8462, 60.04216
466.3283, 60.60107
466.8105, 60.61347
467.2926, 60.37449
467.7747, 60.01591
468.2568, 59.75401
468.7389, 59.89049
469.2210, 60.53037
469.7032, 60.87503
470.1853, 60.73349
470.6674, 60.48738
471.1495, 60.16874
471.6316, 59.83634
472.1137, 59.57166
472.5959, 59.41601
473.0780, 59.32383
473.5601, 59.18262
474.0422, 58.94434
474.5243, 58.86590
475.0064, 59.14779
475.4886, 59.48230
475.9707, 59.71951
476.4528, 59.84499
476.9349, 59.86798
477.4170, 59.69875
477.8991, 59.44904
478.3813, 59.39041
478.8634, 59.54928
479.3455, 59.74571
479.8276, 59.90155
480.3097, 60.03328
480.7918, 60.16916
481.2740, 60.30919
481.7561, 60.45649
482.2382, 60.65465
482.7203, 60.85168
483.2024, 60.91840
483.6845, 60.82293
484.1666, 60.73456
484.6487, 60.83428
485.1309, 61.12963
485.6130, 61.30846
486.0951, 61.25213
486.5772, 61.21241
487.0593, 61.41515
487.5414, 61.68695
488.0236, 61.69317
488.5057, 61.30124
488.9878, 60.67551
489.4699, 60.09370
489.9520, 59.51311
490.4341, 59.08062
490.9163, 58.94314
491.3984, 58.79213
491.8805, 58.49421
492.3626, 58.05239
492.8447, 57.50236
493.3268, 56.85176
493.8090, 56.14491
494.2911, 55.49769
494.7732, 54.89025
495.2553, 54.40236
495.7374, 53.99060
496.2195, 53.75590
496.7017, 53.94626
497.1838, 54.51070
497.6659, 54.86625
498.1480, 54.41074
498.6301, 53.44683
499.1122, 52.80265
499.5944, 52.53097
500.0765, 52.46999
500.5586, 52.68645
501.0407, 53.00032
501.5228, 53.01493
502.0049, 52.53947
502.4871, 52.13749
502.9692, 52.13789
503.4513, 52.38772
503.9334, 52.68909
504.4155, 53.00308
504.8976, 53.10836
505.3798, 52.68602
505.8619, 51.68211
506.3440, 51.28551
506.8261, 51.97802
507.3082, 52.67093
507.7903, 53.07392
508.2725, 53.18868
508.7546, 52.93630
509.2367, 52.30883
509.7188, 51.63837
510.2009, 51.49643
510.6830, 52.09302
511.1652, 52.50695
511.6473, 52.57490
512.1294, 52.62041
512.6115, 52.74314
513.0936, 52.94104
513.5757, 53.21860
514.0579, 53.61516
514.5400, 53.98472
515.0221, 53.97707
515.5042, 53.51503
515.9863, 53.27755
516.4684, 53.60629
516.9506, 54.02626
517.4327, 54.04663
517.9148, 53.73518
518.3969, 53.61861
518.8790, 54.26295
519.3611, 55.02660
519.8433, 54.84047
520.3254, 53.78436
520.8075, 53.17368
521.2896, 53.74070
521.7717, 55.01543
522.2538, 55.94014
522.7360, 56.50779
523.2181, 56.85791
523.7002, 56.84315
524.1823, 56.73600
524.6644, 56.73576
525.1465, 56.87368
525.6287, 57.15508
526.1108, 57.60830
526.5929, 58.17347
527.0750, 58.52737
527.5571, 58.27822
528.0392, 58.38678
528.5214, 59.17603
529.0035, 60.17192
529.4856, 60.96409
529.9677, 61.52460
530.4498, 62.12922
530.9319, 63.07655
531.4141, 64.28671
531.8962, 65.19568
532.3783, 65.50544
532.8604, 66.20274
533.3425, 68.05170
533.8246, 70.34516
534.3068, 72.39595
534.7889, 74.07468
535.2710, 75.70492
535.7531, 77.49838
536.2352, 79.39894
536.7173, 81.27113
537.1995, 83.08614
537.6816, 85.03585
538.1637, 87.28768
538.6458, 89.80179
539.1279, 92.25075
539.6100, 94.60959
540.0922, 96.95042
540.5743, 99.34051
541.0564, 101.7139
541.5385, 103.9565
542.0206, 106.0595
542.5027, 108.1661
542.9849, 110.3931
543.4670, 112.7380
543.9491, 115.3249
544.4312, 118.1000
544.9133, 121.1941
545.3954, 124.7318
545.8775, 128.5428
546.3596, 132.4916
546.8417, 136.5265
547.3239, 140.5119
547.8060, 143.9954
548.2881, 147.0988
548.7702, 151.2529
549.2523, 157.0232
549.7344, 162.7520
550.2166, 167.3011
550.6987, 171.1729
551.1808, 175.2134
551.6629, 179.8264
552.1450, 183.9638
552.6271, 187.1781
553.1093, 189.4229
553.5914, 190.6233
554.0735, 190.7648
554.5556, 189.8243
555.0377, 187.6524
555.5198, 184.2525
556.0020, 180.7498
556.4841, 177.7021
556.9662, 173.9054
557.4483, 168.2164
557.9304, 161.9634
558.4125, 156.8444
558.8947, 153.2151
559.3768, 150.2386
559.8589, 146.9482
560.3410, 143.3463
560.8231, 140.1116
561.3052, 137.3698
561.7874, 134.8760
562.2695, 132.5572
562.7516, 130.4010
563.2337, 128.2940
563.7158, 126.1958
564.1979, 124.4916
564.6801, 123.8116
565.1622, 123.8080
565.6443, 123.2730
566.1264, 121.9999
566.6085, 120.5916
567.0906, 119.2605
567.5728, 118.1626
568.0549, 117.7546
568.5370, 118.4580
569.0191, 119.1809
569.5012, 119.4489
569.9833, 119.5840
570.4655, 119.9491
570.9476, 120.6128
571.4297, 121.5518
571.9118, 122.8024
572.3939, 124.3113
572.8760, 125.3152
573.3582, 125.1882
573.8403, 125.4098
574.3224, 126.5408
574.8045, 127.8553
575.2866, 128.8954
575.7687, 129.5069
576.2509, 129.4789
576.7330, 128.5876
577.2151, 126.9149
577.6972, 124.6826
578.1793, 121.7926
578.6614, 118.7953
579.1436, 116.1155
579.6257, 113.3546
580.1078, 109.8715
580.5899, 105.5116
581.0720, 101.3000
581.5541, 97.62786
582.0363, 94.30008
582.5184, 91.09291
583.0005, 88.00185
583.4826, 85.05671
583.9647, 82.26859
584.4468, 79.65350
584.9290, 77.24526
