##NAMES=Cordierite
##RRUFFID=R040081
##IDEAL CHEMISTRY=Mg_2_Al_3_(AlSi_5_)O_18_
##LOCALITY=Laramie Range, Wyoming, USA
##OWNER=RRUFF
##SOURCE=University of Arizona Mineral Museum
##DESCRIPTION=Blue to purple coarsely crystalline
##STATUS=The identification of this mineral has been confirmed by X-ray diffraction and chemical analysis
##URL=rruff.info/R040081
##MEASURED CHEMISTRY=(Mg_1.80_Fe^2+^_0.20_)_Σ=2_Al_4.00_(Si_4.96_Al_0.04_)_Σ=5_O_18_·0.86H_2_O·Na_0.04_ ; H_2_O estimated by difference and verified by Raman spectroscopy
91.62726, 0.0000000E+00
92.10938, 19.71732
92.59149, 19.38190
93.07361, 19.47572
93.55573, 19.96963
94.03784, 20.50599
94.51996, 20.83414
95.00208, 20.96663
95.48419, 20.94001
95.96631, 20.62011
96.44843, 20.17666
96.93054, 20.09629
97.41266, 20.39703
97.89478, 20.96670
98.37689, 21.80044
98.85901, 22.88880
99.34113, 23.85156
99.82324, 24.52853
100.3054, 24.91419
100.7875, 25.11097
101.2696, 24.94248
101.7517, 24.81487
102.2338, 25.55414
102.7159, 27.35506
103.1981, 29.46157
103.6802, 31.55383
104.1623, 33.66586
104.6444, 35.66265
105.1265, 37.31814
105.6086, 38.86845
106.0908, 41.32416
106.5729, 45.02078
107.0550, 49.21210
107.5371, 53.45637
108.0192, 57.64528
108.5013, 62.08681
108.9835, 66.49621
109.4656, 70.90160
109.9477, 76.77771
110.4298, 85.20747
110.9119, 94.52699
111.3940, 103.8011
111.8762, 111.8306
112.3583, 120.8889
112.8404, 131.3843
113.3225, 143.3067
113.8046, 156.4599
114.2867, 172.3356
114.7689, 189.0923
115.2510, 204.5879
115.7331, 216.8983
116.2152, 229.2403
116.6973, 242.9834
117.1794, 258.6950
117.6616, 273.8922
118.1437, 287.5645
118.6258, 300.2580
119.1079, 312.4113
119.5900, 323.8044
120.0721, 335.1215
120.5543, 346.7946
121.0364, 358.8997
121.5185, 371.2979
122.0006, 384.1421
122.4827, 397.3123
122.9648, 410.6763
123.4470, 423.4735
123.9291, 436.5402
124.4112, 450.7619
124.8933, 466.4166
125.3754, 483.1677
125.8575, 500.9613
126.3397, 519.7011
126.8218, 538.8767
127.3039, 558.9205
127.7860, 578.9777
128.2681, 597.1105
128.7502, 612.5748
129.2324, 626.0245
129.7145, 638.3248
130.1966, 649.5374
130.6787, 659.4071
131.1608, 667.0465
131.6429, 672.8115
132.1251, 678.8006
132.6072, 685.7216
133.0893, 693.3605
133.5714, 701.3316
134.0535, 709.6934
134.5356, 718.1190
135.0178, 726.0211
135.4999, 733.3434
135.9820, 741.1454
136.4641, 749.9616
136.9462, 759.8124
137.4283, 769.7145
137.9105, 779.5155
138.3926, 789.7964
138.8747, 801.7206
139.3568, 815.8871
139.8389, 829.7017
140.3210, 841.6010
140.8032, 850.9838
141.2853, 862.0417
141.7674, 874.9617
142.2495, 889.4255
142.7316, 903.8175
143.2137, 915.2737
143.6959, 921.6820
144.1780, 927.4740
144.6601, 932.8686
145.1422, 937.5143
145.6243, 941.3518
146.1064, 944.5095
146.5886, 947.4718
147.0707, 949.7946
147.5528, 952.4276
148.0349, 955.9641
148.5170, 962.2830
148.9991, 966.5573
149.4813, 967.0411
149.9634, 964.3864
150.4455, 964.7077
150.9276, 970.7996
151.4097, 977.8729
151.8918, 982.8505
152.3740, 983.6862
152.8561, 984.9020
153.3382, 986.5915
153.8203, 988.7440
154.3024, 992.1981
154.7845, 998.6880
155.2667, 1005.552
155.7488, 1010.891
156.2309, 1013.433
156.7130, 1015.355
157.1951, 1017.226
157.6772, 1019.096
158.1594, 1020.158
158.6415, 1019.810
159.1236, 1018.747
159.6057, 1017.641
160.0878, 1017.352
160.5699, 1016.458
161.0521, 1014.172
161.5342, 1010.286
162.0163, 1006.582
162.4984, 1003.682
162.9805, 1001.317
163.4626, 999.1444
163.9448, 997.5941
164.4269, 995.8027
164.9090, 993.0678
165.3911, 989.1096
165.8732, 985.4858
166.3553, 982.5670
166.8375, 980.5292
167.3196, 979.6667
167.8017, 981.2766
168.2838, 983.3750
168.7659, 984.3202
169.2480, 983.5803
169.7302, 983.0042
170.2123, 984.3047
170.6944, 986.7248
171.1765, 988.5530
171.6586, 988.5867
172.1407, 987.7538
172.6229, 986.7086
173.1050, 985.2048
173.5871, 984.4587
174.0692, 986.4570
174.5513, 990.2966
175.0334, 993.2859
175.5156, 992.8932
175.9977, 990.9568
176.4798, 990.0721
176.9619, 990.7428
177.4440, 992.3423
177.9261, 994.9875
178.4083, 998.2988
178.8904, 1000.536
179.3725, 999.3775
179.8546, 996.4701
180.3367, 995.1426
180.8188, 996.5292
181.3010, 998.8029
181.7831, 999.1609
182.2652, 997.8525
182.7473, 996.8769
183.2294, 998.3283
183.7115, 1001.311
184.1937, 1003.183
184.6758, 1003.041
185.1579, 1002.028
185.6400, 1002.111
186.1221, 1003.255
186.6042, 1004.735
187.0864, 1006.542
187.5685, 1008.389
188.0506, 1008.665
188.5327, 1006.171
189.0148, 1002.687
189.4969, 1002.648
189.9791, 1006.209
190.4612, 1010.024
190.9433, 1011.222
191.4254, 1010.060
191.9075, 1008.611
192.3896, 1006.983
192.8718, 1005.593
193.3539, 1005.932
193.8360, 1008.191
194.3181, 1010.704
194.8002, 1011.682
195.2823, 1011.176
195.7645, 1011.374
196.2466, 1013.015
196.7287, 1015.667
197.2108, 1017.510
197.6929, 1018.376
198.1750, 1019.102
198.6572, 1020.739
199.1393, 1023.346
199.6214, 1025.087
200.1035, 1025.153
200.5856, 1023.925
201.0677, 1023.815
201.5499, 1025.036
202.0320, 1026.655
202.5141, 1027.809
202.9962, 1028.476
203.4783, 1028.977
203.9604, 1029.420
204.4426, 1029.799
204.9247, 1029.856
205.4068, 1029.464
205.8889, 1029.136
206.3710, 1029.460
206.8531, 1030.584
207.3353, 1031.724
207.8174, 1032.842
208.2995, 1033.901
208.7816, 1034.167
209.2637, 1033.331
209.7458, 1032.301
210.2280, 1032.092
210.7101, 1032.941
211.1922, 1033.690
211.6743, 1034.101
212.1564, 1034.166
212.6385, 1033.862
213.1207, 1032.860
213.6028, 1032.003
214.0849, 1032.300
214.5670, 1034.144
215.0491, 1035.914
215.5313, 1037.247
216.0134, 1038.149
216.4955, 1038.990
216.9776, 1039.595
217.4597, 1040.388
217.9418, 1041.925
218.4240, 1044.534
218.9061, 1046.973
219.3882, 1048.898
219.8703, 1050.287
220.3524, 1051.954
220.8345, 1053.937
221.3167, 1056.122
221.7988, 1058.520
222.2809, 1061.386
222.7630, 1063.800
223.2451, 1065.395
223.7272, 1066.174
224.2094, 1067.315
224.6915, 1068.814
225.1736, 1070.710
225.6557, 1073.161
226.1378, 1076.877
226.6199, 1079.656
227.1021, 1080.554
227.5842, 1079.563
228.0663, 1080.473
228.5484, 1084.132
229.0305, 1088.781
229.5126, 1092.878
229.9948, 1096.425
230.4769, 1099.325
230.9590, 1101.159
231.4411, 1101.920
231.9232, 1104.149
232.4053, 1108.433
232.8875, 1113.585
233.3696, 1118.444
233.8517, 1122.146
234.3338, 1127.326
234.8159, 1134.891
235.2980, 1144.849
235.7802, 1153.734
236.2623, 1161.162
236.7444, 1167.963
237.2265, 1174.874
237.7086, 1182.335
238.1907, 1189.125
238.6729, 1195.377
239.1550, 1201.014
239.6371, 1204.553
240.1192, 1205.354
240.6013, 1204.776
241.0834, 1203.907
241.5656, 1203.242
242.0477, 1201.169
242.5298, 1196.511
243.0119, 1189.731
243.4940, 1185.944
243.9761, 1186.777
244.4583, 1188.657
244.9404, 1188.921
245.4225, 1186.266
245.9046, 1184.617
246.3867, 1184.541
246.8688, 1185.863
247.3510, 1187.394
247.8331, 1189.199
248.3152, 1191.138
248.7973, 1193.025
249.2794, 1194.394
249.7615, 1196.781
250.2437, 1200.545
250.7258, 1205.454
251.2079, 1210.196
251.6900, 1213.934
252.1721, 1218.706
252.6542, 1225.949
253.1364, 1236.795
253.6185, 1247.255
254.1006, 1256.615
254.5827, 1265.419
255.0648, 1275.475
255.5469, 1286.703
256.0291, 1299.139
256.5112, 1313.005
256.9933, 1329.150
257.4754, 1344.962
257.9575, 1361.166
258.4396, 1376.797
258.9218, 1389.038
259.4039, 1399.070
259.8860, 1403.789
260.3681, 1401.948
260.8502, 1393.492
261.3323, 1377.724
261.8145, 1351.898
262.2966, 1320.474
262.7787, 1292.579
263.2608, 1268.661
263.7429, 1247.139
264.2250, 1226.758
264.7072, 1206.938
265.1893, 1191.341
265.6714, 1180.697
266.1535, 1173.762
266.6356, 1168.721
267.1177, 1166.089
267.5999, 1163.809
268.0820, 1161.060
268.5641, 1157.677
269.0462, 1155.010
269.5283, 1153.336
270.0104, 1152.036
270.4926, 1150.013
270.9747, 1146.938
271.4568, 1144.369
271.9389, 1142.961
272.4210, 1142.760
272.9031, 1142.387
273.3853, 1141.781
273.8674, 1141.151
274.3495, 1140.696
274.8316, 1140.363
275.3137, 1140.457
275.7958, 1141.265
276.2780, 1142.679
276.7601, 1143.170
277.2422, 1142.321
277.7243, 1141.555
278.2064, 1142.786
278.6885, 1146.334
279.1707, 1148.914
279.6528, 1149.498
280.1349, 1148.497
280.6170, 1147.861
281.0991, 1147.525
281.5812, 1147.888
282.0634, 1149.870
282.5455, 1153.580
283.0276, 1155.950
283.5097, 1156.009
283.9918, 1154.601
284.4739, 1154.298
284.9561, 1155.165
285.4382, 1156.658
285.9203, 1158.453
286.4024, 1160.524
286.8845, 1162.838
287.3666, 1165.385
287.8488, 1168.105
288.3309, 1170.929
288.8130, 1173.851
289.2951, 1176.660
289.7772, 1179.341
290.2593, 1181.814
290.7415, 1183.639
291.2236, 1184.561
291.7057, 1185.283
292.1878, 1187.016
292.6699, 1189.700
293.1520, 1192.519
293.6342, 1195.511
294.1163, 1198.352
294.5984, 1199.657
295.0805, 1199.209
295.5626, 1197.985
296.0447, 1197.044
296.5269, 1196.347
297.0090, 1195.675
297.4911, 1194.789
297.9732, 1193.866
298.4553, 1193.243
298.9374, 1192.901
299.4196, 1193.006
299.9017, 1194.634
300.3838, 1196.961
300.8659, 1197.680
301.3480, 1194.246
301.8301, 1189.476
302.3123, 1187.679
302.7944, 1188.763
303.2765, 1190.773
303.7586, 1192.679
304.2407, 1194.333
304.7228, 1195.517
305.2050, 1196.202
305.6871, 1196.353
306.1692, 1195.734
306.6513, 1194.446
307.1334, 1193.059
307.6155, 1191.692
308.0977, 1190.531
308.5798, 1189.916
309.0619, 1190.322
309.5440, 1190.568
310.0261, 1189.661
310.5082, 1187.796
310.9904, 1185.575
311.4725, 1182.440
311.9546, 1179.542
312.4367, 1177.983
312.9188, 1178.166
313.4009, 1178.951
313.8831, 1179.653
314.3652, 1180.465
314.8473, 1181.766
315.3294, 1185.199
315.8115, 1188.118
316.2936, 1188.385
316.7758, 1185.359
317.2579, 1182.808
317.7400, 1182.484
318.2221, 1183.548
318.7042, 1184.909
319.1863, 1186.676
319.6685, 1188.279
320.1506, 1189.276
320.6327, 1189.642
321.1148, 1190.447
321.5969, 1191.971
322.0790, 1194.069
322.5612, 1196.656
323.0433, 1200.873
323.5254, 1204.323
324.0075, 1206.109
324.4896, 1206.438
324.9717, 1206.909
325.4539, 1207.737
325.9360, 1208.815
326.4181, 1210.087
326.9002, 1212.310
327.3823, 1213.777
327.8644, 1214.142
328.3466, 1213.646
328.8287, 1213.017
329.3108, 1211.257
329.7929, 1210.273
330.2750, 1211.109
330.7571, 1215.834
331.2393, 1217.631
331.7214, 1214.605
332.2035, 1209.331
332.6856, 1205.964
333.1677, 1204.989
333.6498, 1205.183
334.1320, 1206.662
334.6141, 1209.724
335.0962, 1211.368
335.5783, 1210.869
336.0604, 1209.706
336.5425, 1209.576
337.0247, 1211.209
337.5068, 1211.977
337.9889, 1210.945
338.4710, 1208.461
338.9531, 1207.506
339.4352, 1208.338
339.9174, 1210.112
340.3995, 1212.589
340.8816, 1216.123
341.3637, 1218.091
341.8458, 1217.584
342.3279, 1215.835
342.8101, 1216.292
343.2922, 1219.234
343.7743, 1222.510
344.2564, 1224.934
344.7385, 1226.549
345.2206, 1227.838
345.7028, 1228.827
346.1849, 1229.513
346.6670, 1229.411
347.1491, 1228.626
347.6312, 1228.894
348.1133, 1231.208
348.5955, 1235.176
349.0776, 1239.864
349.5597, 1245.398
350.0418, 1250.648
350.5239, 1254.269
351.0060, 1256.626
351.4882, 1258.680
351.9703, 1260.686
352.4524, 1262.608
352.9345, 1264.366
353.4166, 1265.967
353.8987, 1267.434
354.3809, 1268.868
354.8630, 1270.158
355.3451, 1270.908
355.8272, 1270.566
356.3093, 1270.681
356.7914, 1273.245
357.2736, 1277.491
357.7557, 1281.275
358.2378, 1282.886
358.7199, 1283.824
359.2020, 1285.238
359.6841, 1287.244
360.1663, 1289.779
360.6484, 1292.917
361.1305, 1296.529
361.6126, 1300.440
362.0947, 1305.361
362.5768, 1309.894
363.0590, 1312.854
363.5411, 1314.266
364.0232, 1316.906
364.5053, 1323.289
364.9874, 1330.420
365.4695, 1335.979
365.9517, 1339.150
366.4338, 1341.097
366.9159, 1342.183
367.3980, 1342.282
367.8801, 1340.874
368.3622, 1337.781
368.8444, 1333.250
369.3265, 1327.156
369.8086, 1317.704
370.2907, 1309.862
370.7728, 1304.523
371.2549, 1300.500
371.7371, 1295.908
372.2192, 1290.236
372.7013, 1284.646
373.1834, 1279.387
373.6655, 1274.396
374.1476, 1270.084
374.6298, 1266.504
375.1119, 1263.673
375.5940, 1261.748
376.0761, 1260.996
376.5582, 1260.426
377.0403, 1259.984
377.5225, 1259.610
378.0046, 1258.871
378.4867, 1257.640
378.9688, 1256.596
379.4509, 1256.468
379.9330, 1257.287
380.4152, 1257.092
380.8973, 1255.443
381.3794, 1253.301
381.8615, 1252.350
382.3436, 1252.549
382.8257, 1253.025
383.3079, 1253.556
383.7900, 1254.042
384.2721, 1254.049
384.7542, 1253.525
385.2363, 1253.029
385.7184, 1253.253
386.2006, 1253.958
386.6827, 1254.529
387.1648, 1254.913
387.6469, 1254.940
388.1290, 1254.002
388.6111, 1252.327
389.0933, 1251.137
389.5754, 1251.570
390.0575, 1252.804
390.5396, 1254.009
391.0217, 1255.245
391.5038, 1255.868
391.9860, 1254.480
392.4681, 1252.244
392.9502, 1251.267
393.4323, 1254.504
393.9144, 1257.671
394.3965, 1257.537
394.8787, 1253.722
395.3608, 1251.098
395.8429, 1252.494
396.3250, 1255.319
396.8071, 1257.262
397.2892, 1256.613
397.7714, 1256.334
398.2535, 1257.656
398.7356, 1260.112
399.2177, 1261.353
399.6998, 1259.339
400.1819, 1257.556
400.6641, 1257.648
401.1462, 1261.096
401.6283, 1263.367
402.1104, 1263.822
402.5925, 1263.388
403.0746, 1263.467
403.5568, 1264.209
404.0389, 1265.191
404.5210, 1266.458
405.0031, 1268.005
405.4852, 1268.811
405.9673, 1268.509
406.4495, 1268.154
406.9316, 1268.875
407.4137, 1270.911
407.8958, 1272.174
408.3779, 1272.178
408.8600, 1271.452
409.3422, 1271.496
409.8243, 1272.392
410.3064, 1272.861
410.7885, 1271.117
411.2706, 1268.042
411.7527, 1268.549
412.2349, 1273.291
412.7170, 1278.836
413.1991, 1280.689
413.6812, 1279.883
414.1633, 1279.806
414.6454, 1282.091
415.1276, 1285.427
415.6097, 1288.677
416.0918, 1291.663
416.5739, 1293.359
417.0560, 1291.730
417.5381, 1288.945
418.0203, 1287.696
418.5024, 1289.018
418.9845, 1290.645
419.4666, 1291.130
419.9487, 1290.922
420.4308, 1290.847
420.9130, 1290.934
421.3951, 1291.494
421.8772, 1292.648
422.3593, 1294.385
422.8414, 1296.827
423.3235, 1301.069
423.8057, 1305.458
424.2878, 1308.625
424.7699, 1309.656
425.2520, 1310.314
425.7341, 1310.072
426.2162, 1309.457
426.6984, 1310.516
427.1805, 1315.434
427.6626, 1319.473
428.1447, 1320.273
428.6268, 1316.070
429.1089, 1315.546
429.5911, 1321.353
430.0732, 1328.028
430.5553, 1328.010
431.0374, 1319.276
431.5195, 1311.828
432.0016, 1308.003
432.4838, 1307.201
432.9659, 1306.744
433.4480, 1306.676
433.9301, 1306.633
434.4122, 1306.686
434.8943, 1306.689
435.3765, 1305.306
435.8586, 1302.099
436.3407, 1298.482
436.8228, 1296.127
437.3049, 1294.992
437.7870, 1294.901
438.2692, 1296.648
438.7513, 1299.009
439.2334, 1300.232
439.7155, 1300.364
440.1976, 1300.109
440.6797, 1299.126
441.1619, 1298.378
441.6440, 1299.248
442.1261, 1303.051
442.6082, 1306.679
443.0903, 1308.443
443.5724, 1308.701
444.0546, 1308.230
444.5367, 1305.475
445.0188, 1303.580
445.5009, 1304.612
445.9830, 1309.177
446.4651, 1312.630
446.9473, 1312.969
447.4294, 1312.401
447.9115, 1312.772
448.3936, 1315.683
448.8757, 1317.660
449.3578, 1318.011
449.8400, 1317.238
450.3221, 1317.133
450.8042, 1318.285
451.2863, 1319.184
451.7684, 1318.849
452.2505, 1316.766
452.7327, 1317.324
453.2148, 1321.687
453.6969, 1326.629
454.1790, 1327.692
454.6611, 1324.647
455.1432, 1322.250
455.6254, 1321.369
456.1075, 1322.036
456.5896, 1324.972
457.0717, 1330.136
457.5538, 1335.250
458.0359, 1339.691
458.5181, 1342.851
459.0002, 1342.763
459.4823, 1338.891
459.9644, 1334.261
460.4465, 1331.722
460.9286, 1330.602
461.4108, 1329.676
461.8929, 1328.112
462.3750, 1326.888
462.8571, 1326.846
463.3392, 1327.845
463.8214, 1329.186
464.3035, 1331.088
464.7856, 1332.891
465.2677, 1334.034
465.7498, 1334.049
466.2319, 1334.522
466.7141, 1336.566
467.1962, 1339.043
467.6783, 1340.512
468.1604, 1339.268
468.6425, 1338.660
469.1246, 1339.436
469.6068, 1341.466
470.0889, 1343.358
470.5710, 1345.273
471.0531, 1346.801
471.5352, 1347.587
472.0173, 1347.296
472.4995, 1347.504
472.9816, 1348.324
473.4637, 1349.536
473.9458, 1350.878
474.4279, 1352.382
474.9100, 1353.762
475.3922, 1354.943
475.8743, 1355.948
476.3564, 1356.888
476.8385, 1357.766
477.3206, 1358.339
477.8027, 1358.170
478.2849, 1357.587
478.7670, 1357.160
479.2491, 1356.870
479.7312, 1357.103
480.2133, 1357.532
480.6954, 1358.790
481.1776, 1362.089
481.6597, 1371.588
482.1418, 1380.168
482.6239, 1383.043
483.1060, 1380.691
483.5881, 1376.848
484.0703, 1370.346
484.5524, 1364.669
485.0345, 1362.025
485.5166, 1363.547
485.9987, 1366.354
486.4808, 1371.841
486.9630, 1377.832
487.4451, 1381.437
487.9272, 1382.792
488.4093, 1381.491
488.8914, 1376.295
489.3735, 1367.842
489.8557, 1362.247
490.3378, 1360.115
490.8199, 1359.307
491.3020, 1358.931
491.7841, 1359.086
492.2662, 1358.393
492.7484, 1356.645
493.2305, 1354.491
493.7126, 1352.650
494.1947, 1351.134
494.6768, 1350.294
495.1589, 1350.674
495.6411, 1351.387
496.1232, 1350.444
496.6053, 1348.116
497.0874, 1346.353
497.5695, 1346.827
498.0516, 1348.289
498.5338, 1349.339
499.0159, 1349.757
499.4980, 1349.979
499.9801, 1350.151
500.4622, 1350.318
500.9443, 1350.537
501.4265, 1351.279
501.9086, 1351.612
502.3907, 1350.666
502.8728, 1348.941
503.3549, 1348.448
503.8370, 1350.920
504.3192, 1353.355
504.8013, 1354.712
505.2834, 1354.854
505.7655, 1354.533
506.2476, 1353.463
506.7297, 1352.260
507.2119, 1351.490
507.6940, 1351.188
508.1761, 1351.216
508.6582, 1351.696
509.1403, 1352.328
509.6224, 1352.079
510.1046, 1350.900
510.5867, 1350.428
511.0688, 1352.141
511.5509, 1355.174
512.0330, 1356.732
512.5151, 1356.782
512.9973, 1356.769
513.4794, 1358.473
513.9615, 1360.800
514.4436, 1361.831
514.9257, 1360.547
515.4078, 1359.273
515.8900, 1360.283
516.3721, 1362.474
516.8542, 1363.731
517.3363, 1362.057
517.8184, 1360.423
518.3005, 1360.236
518.7827, 1361.510
519.2648, 1362.679
519.7469, 1363.129
520.2290, 1363.677
520.7111, 1364.767
521.1932, 1366.523
521.6754, 1368.610
522.1575, 1371.481
522.6396, 1374.308
523.1217, 1375.751
523.6038, 1375.393
524.0859, 1375.087
524.5681, 1375.057
525.0502, 1375.474
525.5323, 1377.411
526.0144, 1380.981
526.4965, 1384.113
526.9786, 1384.958
527.4608, 1384.369
527.9429, 1385.137
528.4250, 1387.563
528.9071, 1389.830
529.3892, 1390.184
529.8713, 1389.274
530.3535, 1388.040
530.8356, 1386.131
531.3177, 1384.913
531.7998, 1385.390
532.2819, 1387.260
532.7640, 1389.752
533.2462, 1393.501
533.7283, 1397.014
534.2104, 1399.193
534.6925, 1399.706
535.1746, 1401.955
535.6567, 1408.158
536.1389, 1414.643
536.6210, 1419.047
537.1031, 1420.390
537.5852, 1421.934
538.0673, 1423.539
538.5494, 1425.615
539.0316, 1429.078
539.5137, 1434.205
539.9958, 1439.024
540.4779, 1442.540
540.9600, 1445.582
541.4421, 1451.411
541.9243, 1459.851
542.4064, 1467.397
542.8885, 1469.833
543.3706, 1470.146
543.8527, 1474.279
544.3348, 1482.966
544.8170, 1492.359
545.2991, 1499.239
545.7812, 1505.073
546.2633, 1511.724
546.7454, 1519.293
547.2275, 1528.311
547.7097, 1540.516
548.1918, 1554.369
548.6739, 1566.090
549.1560, 1572.243
549.6381, 1578.942
550.1202, 1588.604
550.6024, 1601.376
551.0845, 1612.233
551.5666, 1619.965
552.0487, 1627.452
552.5308, 1637.063
553.0129, 1649.841
553.4951, 1659.056
553.9772, 1663.921
554.4593, 1666.285
554.9414, 1668.829
555.4235, 1671.409
555.9056, 1672.343
556.3878, 1671.132
556.8699, 1667.996
557.3520, 1662.524
557.8341, 1655.188
558.3162, 1648.110
558.7983, 1642.344
559.2805, 1637.552
559.7626, 1633.272
560.2447, 1629.497
560.7268, 1626.949
561.2089, 1626.838
561.6910, 1627.568
562.1732, 1627.852
562.6553, 1626.986
563.1374, 1626.410
563.6195, 1626.365
564.1016, 1626.690
564.5837, 1627.152
565.0659, 1627.758
565.5480, 1628.501
566.0301, 1629.378
566.5122, 1630.391
566.9943, 1631.179
567.4764, 1631.385
567.9586, 1633.043
568.4407, 1637.705
568.9228, 1644.934
569.4049, 1652.825
569.8870, 1661.358
570.3691, 1669.577
570.8513, 1675.424
571.3334, 1680.415
571.8155, 1687.515
572.2976, 1698.300
572.7797, 1709.397
573.2618, 1718.776
573.7440, 1726.676
574.2261, 1733.747
574.7082, 1740.740
575.1903, 1746.371
575.6724, 1749.834
576.1545, 1751.278
576.6367, 1751.923
577.1188, 1753.596
577.6009, 1752.780
578.0830, 1747.750
578.5651, 1737.830
579.0472, 1727.564
579.5294, 1717.305
580.0115, 1705.859
580.4936, 1691.479
580.9757, 1673.986
581.4578, 1656.603
581.9399, 1639.564
582.4221, 1623.374
582.9042, 1608.711
583.3863, 1595.544
583.8684, 1582.956
584.3505, 1570.798
584.8326, 1558.852
