##NAMES=Cordierite
##RRUFFID=R040084
##IDEAL CHEMISTRY=Mg_2_Al_3_(AlSi_5_)O_18_
##LOCALITY=Norway
##OWNER=RRUFF
##SOURCE=University of Arizona Mineral Museum
##DESCRIPTION=Purple coarsely crystalline massive
##STATUS=The identification of this mineral has been confirmed by X-ray diffraction and chemical analysis
##URL=rruff.info/R040084
##MEASURED CHEMISTRY=(Mg_1.88_Fe^2+^_0.11_Ca_0.01_)_Σ=2_(Al_3.95_Fe^3+^_0.05_)_Σ=4_(Si_4.96_Al_0.04_)_Σ=5_O_18_·0.90H_2_O·Na_0.04_ ; H_2_O estimated by difference and verified by Raman spectroscopy
128.3141, 1596.631
128.7962, 1571.792
129.2784, 1534.699
129.7605, 1491.644
130.2426, 1442.115
130.7247, 1388.399
131.2068, 1342.231
131.6889, 1306.125
132.1711, 1278.365
132.6532, 1255.426
133.1353, 1236.685
133.6174, 1222.602
134.0995, 1216.388
134.5816, 1218.202
135.0638, 1215.462
135.5459, 1198.885
136.0280, 1168.618
136.5101, 1156.537
136.9922, 1167.381
137.4743, 1187.980
137.9565, 1195.090
138.4386, 1186.546
138.9207, 1174.419
139.4028, 1163.582
139.8849, 1153.356
140.3670, 1147.345
140.8492, 1146.623
141.3313, 1150.076
141.8134, 1153.525
142.2955, 1157.656
142.7776, 1161.106
143.2597, 1162.003
143.7419, 1155.772
144.2240, 1157.052
144.7061, 1171.126
145.1882, 1198.627
145.6703, 1215.888
146.1524, 1217.693
146.6346, 1213.676
147.1167, 1213.591
147.5988, 1220.593
148.0809, 1227.474
148.5630, 1232.600
149.0451, 1235.393
149.5273, 1237.964
150.0094, 1238.024
150.4915, 1238.091
150.9736, 1242.415
151.4557, 1254.757
151.9378, 1267.998
152.4200, 1279.796
152.9021, 1287.647
153.3842, 1297.538
153.8663, 1310.447
154.3484, 1325.792
154.8305, 1341.814
155.3127, 1368.135
155.7948, 1388.777
156.2769, 1394.841
156.7590, 1369.743
157.2411, 1345.621
157.7232, 1331.789
158.2053, 1326.948
158.6875, 1318.147
159.1696, 1296.987
159.6517, 1272.505
160.1338, 1252.673
160.6159, 1242.237
161.0980, 1234.696
161.5802, 1227.745
162.0623, 1221.319
162.5444, 1215.689
163.0265, 1212.325
163.5086, 1209.576
163.9907, 1205.163
164.4729, 1193.211
164.9550, 1182.612
165.4371, 1179.686
165.9192, 1186.837
166.4013, 1195.865
166.8834, 1203.195
167.3656, 1208.954
167.8477, 1213.458
168.3298, 1216.068
168.8119, 1217.822
169.2940, 1220.123
169.7761, 1224.698
170.2583, 1227.261
170.7404, 1223.779
171.2225, 1215.077
171.7046, 1204.560
172.1867, 1190.585
172.6688, 1176.922
173.1510, 1169.248
173.6331, 1171.993
174.1152, 1178.777
174.5973, 1184.629
175.0794, 1189.377
175.5615, 1190.805
176.0437, 1184.039
176.5258, 1172.583
177.0079, 1163.958
177.4900, 1160.874
177.9721, 1162.314
178.4542, 1168.303
178.9364, 1179.277
179.4185, 1189.992
179.9006, 1193.984
180.3827, 1192.920
180.8648, 1192.318
181.3469, 1195.798
181.8291, 1201.565
182.3112, 1205.540
182.7933, 1207.486
183.2754, 1207.692
183.7575, 1205.884
184.2396, 1202.270
184.7218, 1198.432
185.2039, 1193.099
185.6860, 1187.744
186.1681, 1188.986
186.6502, 1199.147
187.1323, 1213.288
187.6144, 1223.626
188.0966, 1230.218
188.5787, 1233.518
189.0608, 1232.441
189.5429, 1227.624
190.0250, 1223.782
190.5071, 1221.732
190.9893, 1221.202
191.4714, 1221.734
191.9535, 1223.445
192.4356, 1225.633
192.9177, 1227.887
193.3998, 1230.260
193.8820, 1232.494
194.3641, 1234.895
194.8462, 1237.130
195.3283, 1236.314
195.8104, 1231.133
196.2925, 1228.007
196.7747, 1236.659
197.2568, 1257.994
197.7389, 1274.999
198.2210, 1280.536
198.7031, 1275.583
199.1852, 1274.071
199.6674, 1276.698
200.1495, 1281.082
200.6316, 1283.295
201.1137, 1282.589
201.5958, 1284.217
202.0779, 1290.555
202.5601, 1301.913
203.0422, 1314.888
203.5243, 1331.160
204.0064, 1346.950
204.4885, 1354.105
204.9706, 1350.229
205.4528, 1346.595
205.9349, 1349.727
206.4170, 1361.794
206.8991, 1368.237
207.3812, 1368.024
207.8633, 1362.585
208.3455, 1355.019
208.8276, 1345.151
209.3097, 1333.680
209.7918, 1320.373
210.2739, 1304.245
210.7560, 1290.095
211.2382, 1278.568
211.7203, 1269.141
212.2024, 1259.867
212.6845, 1249.887
213.1666, 1241.719
213.6487, 1237.947
214.1309, 1240.676
214.6130, 1240.665
215.0951, 1235.429
215.5772, 1226.286
216.0593, 1221.880
216.5414, 1224.237
217.0236, 1228.184
217.5057, 1229.561
217.9878, 1227.224
218.4699, 1225.262
218.9520, 1224.280
219.4341, 1224.268
219.9162, 1224.847
220.3984, 1226.328
220.8805, 1228.072
221.3626, 1229.340
221.8447, 1229.462
222.3268, 1230.710
222.8089, 1234.448
223.2911, 1240.871
223.7732, 1243.260
224.2553, 1238.882
224.7374, 1233.070
225.2195, 1232.083
225.7016, 1237.741
226.1838, 1244.543
226.6659, 1250.743
227.1480, 1255.640
227.6301, 1264.596
228.1122, 1279.214
228.5943, 1296.615
229.0765, 1314.074
229.5586, 1334.742
230.0407, 1349.530
230.5228, 1354.101
231.0049, 1344.642
231.4870, 1341.839
231.9692, 1347.670
232.4513, 1358.909
232.9334, 1370.292
233.4155, 1380.731
233.8976, 1393.102
234.3797, 1407.566
234.8619, 1422.543
235.3440, 1445.933
235.8261, 1485.352
236.3082, 1530.104
236.7903, 1558.289
237.2724, 1561.299
237.7546, 1560.972
238.2367, 1567.158
238.7188, 1589.135
239.2009, 1593.776
239.6830, 1572.407
240.1651, 1536.313
240.6473, 1513.993
241.1294, 1514.041
241.6115, 1515.293
242.0936, 1508.269
242.5757, 1487.672
243.0578, 1469.993
243.5400, 1454.234
244.0221, 1441.764
244.5042, 1436.955
244.9863, 1441.427
245.4684, 1451.268
245.9505, 1464.629
246.4327, 1481.094
246.9148, 1502.536
247.3969, 1531.241
247.8790, 1564.772
248.3611, 1593.378
248.8432, 1612.656
249.3253, 1633.300
249.8075, 1660.951
250.2896, 1697.922
250.7717, 1737.135
251.2538, 1779.252
251.7359, 1823.150
252.2180, 1864.994
252.7002, 1899.846
253.1823, 1939.041
253.6644, 1989.649
254.1465, 2055.469
254.6286, 2124.506
255.1107, 2198.148
255.5929, 2274.784
256.0750, 2348.130
256.5571, 2419.867
257.0392, 2486.725
257.5213, 2549.427
258.0034, 2618.863
258.4856, 2657.638
258.9677, 2663.228
259.4498, 2635.431
259.9319, 2566.550
260.4140, 2442.414
260.8961, 2301.635
261.3783, 2170.971
261.8604, 2049.685
262.3425, 1937.065
262.8246, 1829.733
263.3067, 1730.035
263.7888, 1649.920
264.2710, 1592.140
264.7531, 1548.881
265.2352, 1516.920
265.7173, 1498.802
266.1994, 1482.561
266.6815, 1467.018
267.1637, 1451.965
267.6458, 1435.847
268.1279, 1417.182
268.6100, 1399.971
269.0921, 1387.303
269.5742, 1379.956
270.0564, 1374.040
270.5385, 1368.494
271.0206, 1363.821
271.5027, 1363.888
271.9848, 1370.734
272.4669, 1377.249
272.9491, 1376.850
273.4312, 1368.256
273.9133, 1360.521
274.3954, 1355.058
274.8775, 1351.697
275.3596, 1349.311
275.8418, 1347.641
276.3239, 1347.952
276.8060, 1353.786
277.2881, 1366.473
277.7702, 1370.887
278.2523, 1360.723
278.7345, 1341.160
279.2166, 1335.110
279.6987, 1345.141
280.1808, 1357.776
280.6629, 1360.844
281.1451, 1353.949
281.6272, 1349.256
282.1093, 1349.203
282.5914, 1352.758
283.0735, 1356.314
283.5556, 1359.647
284.0378, 1364.258
284.5199, 1373.506
285.0020, 1386.953
285.4841, 1394.906
285.9662, 1393.896
286.4483, 1387.353
286.9305, 1383.593
287.4126, 1382.581
287.8947, 1385.521
288.3768, 1395.647
288.8589, 1411.805
289.3410, 1425.748
289.8232, 1436.017
290.3053, 1443.124
290.7874, 1446.526
291.2695, 1446.247
291.7516, 1447.146
292.2337, 1455.298
292.7159, 1468.531
293.1980, 1477.318
293.6801, 1478.844
294.1622, 1476.285
294.6443, 1473.808
295.1264, 1471.554
295.6085, 1472.086
296.0906, 1481.442
296.5728, 1495.205
297.0549, 1501.043
297.5370, 1493.647
298.0191, 1481.785
298.5012, 1478.021
298.9833, 1481.529
299.4655, 1486.452
299.9476, 1486.592
300.4297, 1485.622
300.9118, 1491.552
301.3939, 1509.024
301.8760, 1527.684
302.3582, 1534.011
302.8403, 1530.289
303.3224, 1526.088
303.8045, 1528.542
304.2866, 1533.854
304.7687, 1537.175
305.2509, 1537.797
305.7330, 1535.837
306.2151, 1531.150
306.6972, 1523.916
307.1793, 1514.488
307.6614, 1503.493
308.1436, 1490.411
308.6257, 1473.670
309.1078, 1451.354
309.5899, 1430.236
310.0720, 1414.210
310.5541, 1402.852
311.0363, 1394.959
311.5184, 1393.180
312.0005, 1392.606
312.4826, 1388.830
312.9647, 1380.099
313.4468, 1372.202
313.9290, 1367.403
314.4111, 1365.712
314.8932, 1367.138
315.3753, 1376.784
315.8574, 1385.836
316.3395, 1388.123
316.8217, 1381.018
317.3038, 1375.309
317.7859, 1376.129
318.2680, 1380.621
318.7501, 1384.590
319.2322, 1384.635
319.7144, 1385.722
320.1965, 1391.086
320.6786, 1402.338
321.1607, 1410.602
321.6428, 1411.060
322.1249, 1408.230
322.6071, 1407.535
323.0892, 1406.745
323.5713, 1411.280
324.0534, 1426.652
324.5355, 1455.985
325.0176, 1474.511
325.4998, 1472.841
325.9819, 1462.162
326.4640, 1453.341
326.9461, 1452.044
327.4282, 1447.221
327.9103, 1434.883
328.3925, 1414.262
328.8746, 1399.383
329.3567, 1393.114
329.8388, 1390.774
330.3209, 1388.855
330.8030, 1388.035
331.2852, 1386.761
331.7673, 1385.095
332.2494, 1383.019
332.7315, 1379.190
333.2136, 1370.440
333.6957, 1363.682
334.1779, 1365.092
334.6600, 1381.297
335.1421, 1389.645
335.6242, 1384.664
336.1063, 1369.914
336.5884, 1362.506
337.0706, 1363.947
337.5527, 1369.295
338.0348, 1376.516
338.5169, 1386.692
338.9990, 1393.131
339.4811, 1394.293
339.9633, 1392.143
340.4454, 1391.033
340.9275, 1390.494
341.4096, 1393.157
341.8917, 1403.939
342.3738, 1422.745
342.8560, 1430.442
343.3381, 1422.994
343.8202, 1409.347
344.3023, 1404.646
344.7844, 1408.828
345.2665, 1416.079
345.7487, 1424.630
346.2308, 1434.117
346.7129, 1443.352
347.1950, 1452.901
347.6771, 1459.582
348.1592, 1456.657
348.6414, 1446.176
349.1235, 1437.292
349.6056, 1434.350
350.0877, 1435.839
350.5698, 1439.908
351.0519, 1446.771
351.5341, 1453.178
352.0162, 1453.341
352.4983, 1450.699
352.9804, 1452.656
353.4625, 1465.087
353.9446, 1481.558
354.4268, 1496.886
354.9089, 1510.785
355.3910, 1520.454
355.8731, 1518.597
356.3552, 1512.635
356.8373, 1512.014
357.3195, 1523.328
357.8015, 1536.766
358.2837, 1545.766
358.7658, 1551.196
359.2479, 1557.153
359.7300, 1564.836
360.2121, 1574.326
360.6942, 1586.341
361.1764, 1604.103
361.6585, 1619.587
362.1406, 1627.072
362.6227, 1629.765
363.1048, 1635.696
363.5869, 1652.829
364.0691, 1669.615
364.5512, 1680.267
365.0333, 1681.820
365.5154, 1682.367
365.9975, 1684.650
366.4796, 1686.418
366.9618, 1683.847
367.4439, 1671.744
367.9260, 1659.548
368.4081, 1650.958
368.8902, 1648.205
369.3723, 1639.618
369.8545, 1619.621
370.3366, 1596.904
370.8187, 1581.823
371.3008, 1582.475
371.7829, 1577.873
372.2650, 1561.253
372.7472, 1532.594
373.2293, 1513.616
373.7114, 1508.593
374.1935, 1507.600
374.6756, 1501.556
375.1577, 1488.074
375.6399, 1478.725
376.1220, 1476.157
376.6041, 1478.950
377.0862, 1481.827
377.5683, 1485.029
378.0504, 1487.383
378.5326, 1488.009
379.0147, 1486.909
379.4968, 1484.461
379.9789, 1480.038
380.4610, 1475.299
380.9431, 1474.287
381.4253, 1476.847
381.9074, 1478.397
382.3895, 1474.645
382.8716, 1467.615
383.3537, 1464.929
383.8358, 1467.735
384.3180, 1471.306
384.8001, 1470.842
385.2822, 1466.730
385.7643, 1460.341
386.2464, 1448.608
386.7285, 1436.547
387.2107, 1431.644
387.6928, 1434.024
388.1749, 1438.144
388.6570, 1439.298
389.1391, 1439.643
389.6212, 1442.320
390.1034, 1452.091
390.5855, 1461.068
391.0676, 1463.391
391.5497, 1459.920
392.0318, 1455.959
392.5139, 1451.516
392.9961, 1449.065
393.4782, 1451.199
393.9603, 1464.357
394.4424, 1472.797
394.9245, 1467.463
395.4066, 1453.478
395.8888, 1443.682
396.3709, 1445.016
396.8530, 1447.609
397.3351, 1446.722
397.8172, 1438.755
398.2993, 1435.923
398.7815, 1446.503
399.2636, 1460.318
399.7457, 1463.375
400.2278, 1442.455
400.7099, 1427.709
401.1920, 1427.512
401.6742, 1442.872
402.1563, 1455.092
402.6384, 1465.213
403.1205, 1470.967
403.6026, 1469.140
404.0847, 1456.841
404.5669, 1446.205
405.0490, 1438.450
405.5311, 1433.851
406.0132, 1434.295
406.4953, 1440.607
406.9774, 1448.517
407.4596, 1454.987
407.9417, 1460.107
408.4238, 1468.415
408.9059, 1482.339
409.3880, 1495.083
409.8701, 1492.080
410.3523, 1474.661
410.8344, 1459.041
411.3165, 1454.639
411.7986, 1457.713
412.2807, 1458.709
412.7628, 1457.085
413.2450, 1456.604
413.7271, 1463.530
414.2092, 1474.248
414.6913, 1481.195
415.1734, 1479.286
415.6555, 1474.012
416.1377, 1468.571
416.6198, 1463.392
417.1019, 1461.972
417.5840, 1470.427
418.0661, 1481.623
418.5482, 1488.550
419.0303, 1487.410
419.5125, 1485.590
419.9946, 1486.566
420.4767, 1489.275
420.9588, 1491.100
421.4409, 1492.075
421.9230, 1491.359
422.4052, 1487.119
422.8873, 1475.959
423.3694, 1471.651
423.8515, 1482.743
424.3336, 1499.055
424.8157, 1508.464
425.2979, 1506.175
425.7800, 1502.780
426.2621, 1499.100
426.7442, 1495.208
427.2263, 1495.204
427.7084, 1502.576
428.1906, 1509.319
428.6727, 1508.448
429.1548, 1496.762
429.6369, 1489.910
430.1190, 1491.044
430.6011, 1496.992
431.0833, 1498.532
431.5654, 1494.703
432.0475, 1492.358
432.5296, 1496.119
433.0117, 1505.220
433.4938, 1514.061
433.9760, 1523.423
434.4581, 1528.344
434.9402, 1517.464
435.4223, 1494.856
435.9044, 1478.752
436.3865, 1479.105
436.8687, 1488.653
437.3508, 1499.080
437.8329, 1510.046
438.3150, 1517.127
438.7971, 1514.292
439.2792, 1506.561
439.7614, 1499.981
440.2435, 1494.207
440.7256, 1493.031
441.2077, 1503.152
441.6898, 1520.114
442.1719, 1532.685
442.6541, 1534.843
443.1362, 1532.359
443.6183, 1527.259
444.1004, 1518.546
444.5825, 1512.390
445.0646, 1510.646
445.5468, 1511.954
446.0289, 1514.793
446.5110, 1518.906
446.9931, 1524.755
447.4752, 1534.995
447.9573, 1548.807
448.4395, 1554.510
448.9216, 1546.952
449.4037, 1537.300
449.8858, 1532.103
450.3679, 1532.175
450.8500, 1534.504
451.3322, 1539.624
451.8143, 1546.301
452.2964, 1553.175
452.7785, 1560.925
453.2606, 1564.967
453.7427, 1560.945
454.2249, 1550.459
454.7070, 1547.466
455.1891, 1553.219
455.6712, 1559.435
456.1533, 1553.448
456.6354, 1539.606
457.1176, 1534.286
457.5997, 1544.656
458.0818, 1563.095
458.5639, 1582.737
459.0460, 1602.619
459.5281, 1616.158
460.0103, 1612.249
460.4924, 1603.489
460.9745, 1603.966
461.4566, 1617.814
461.9387, 1632.918
462.4208, 1642.031
462.9030, 1647.925
463.3851, 1654.553
463.8672, 1660.858
464.3493, 1670.467
464.8314, 1688.688
465.3135, 1715.501
465.7957, 1732.772
466.2778, 1729.246
466.7599, 1720.474
467.2420, 1716.629
467.7241, 1720.032
468.2062, 1725.546
468.6884, 1735.721
469.1705, 1747.373
469.6526, 1751.744
470.1347, 1744.752
470.6168, 1739.058
471.0989, 1741.255
471.5811, 1751.969
472.0632, 1753.572
472.5453, 1743.787
473.0274, 1731.136
473.5095, 1724.764
473.9916, 1724.413
474.4738, 1725.820
474.9559, 1728.142
475.4380, 1731.411
475.9201, 1735.522
476.4022, 1740.520
476.8843, 1746.774
477.3665, 1754.404
477.8486, 1763.477
478.3307, 1775.694
478.8128, 1792.659
479.2949, 1805.722
479.7770, 1802.000
480.2592, 1791.329
480.7413, 1789.131
481.2234, 1810.403
481.7055, 1833.658
482.1876, 1847.880
482.6697, 1853.649
483.1518, 1859.067
483.6339, 1862.823
484.1161, 1869.624
484.5982, 1882.691
485.0803, 1908.875
485.5624, 1931.006
486.0445, 1948.666
486.5266, 1962.066
487.0088, 1971.305
487.4909, 1974.273
487.9730, 1976.788
488.4551, 1982.741
488.9372, 1991.927
489.4193, 1987.251
489.9015, 1966.010
490.3836, 1937.631
490.8657, 1907.429
491.3478, 1875.936
491.8299, 1848.607
492.3120, 1826.707
492.7942, 1808.452
493.2763, 1792.509
493.7584, 1778.196
494.2405, 1759.787
494.7226, 1726.914
495.2047, 1690.860
495.6869, 1671.722
496.1690, 1670.197
496.6511, 1671.746
497.1332, 1667.277
497.6153, 1658.825
498.0974, 1648.538
498.5796, 1633.808
499.0617, 1621.757
499.5438, 1618.088
500.0259, 1620.013
500.5080, 1619.781
500.9901, 1613.061
501.4723, 1605.517
501.9544, 1598.983
502.4365, 1593.170
502.9186, 1590.120
503.4007, 1591.699
503.8828, 1594.668
504.3650, 1596.412
504.8471, 1598.149
505.3292, 1595.381
505.8113, 1585.162
506.2934, 1570.562
506.7755, 1562.994
507.2577, 1563.521
507.7398, 1566.315
508.2219, 1568.356
508.7040, 1569.869
509.1861, 1574.132
509.6682, 1582.171
510.1504, 1587.996
510.6325, 1580.394
511.1146, 1564.592
511.5967, 1556.969
512.0788, 1568.719
512.5609, 1584.054
513.0430, 1583.512
513.5251, 1570.603
514.0073, 1559.346
514.4894, 1556.209
514.9715, 1558.643
515.4536, 1566.702
515.9357, 1582.483
516.4178, 1593.441
516.9000, 1590.908
517.3821, 1582.994
517.8642, 1578.580
518.3463, 1580.080
518.8284, 1584.009
519.3105, 1592.752
519.7927, 1604.261
520.2748, 1607.627
520.7569, 1596.881
521.2390, 1587.309
521.7211, 1586.852
522.2032, 1597.479
522.6854, 1604.873
523.1675, 1608.865
523.6496, 1609.948
524.1317, 1608.637
524.6138, 1604.926
525.0959, 1598.123
525.5781, 1585.103
526.0602, 1572.022
526.5423, 1572.613
527.0244, 1585.094
527.5065, 1598.329
527.9886, 1605.585
528.4708, 1609.572
528.9529, 1614.661
529.4350, 1621.804
529.9171, 1624.726
530.3992, 1612.399
530.8813, 1596.420
531.3635, 1589.789
531.8456, 1608.994
532.3277, 1624.559
532.8098, 1623.787
533.2919, 1611.570
533.7740, 1607.796
534.2562, 1621.351
534.7383, 1636.497
535.2204, 1648.465
535.7025, 1656.704
536.1846, 1663.816
536.6667, 1668.854
537.1489, 1674.173
537.6310, 1683.526
538.1131, 1697.897
538.5952, 1706.921
539.0773, 1706.317
539.5594, 1702.881
540.0416, 1713.203
540.5237, 1736.249
541.0058, 1759.111
541.4879, 1772.428
541.9700, 1781.776
542.4521, 1797.507
542.9343, 1819.997
543.4164, 1842.924
543.8985, 1860.621
544.3806, 1876.611
544.8627, 1894.547
545.3448, 1914.785
545.8270, 1938.268
546.3091, 1965.841
546.7912, 1996.665
547.2733, 2029.311
547.7554, 2066.196
548.2375, 2101.866
548.7197, 2133.163
549.2018, 2159.619
549.6839, 2192.091
550.1660, 2233.389
550.6481, 2276.419
551.1302, 2315.957
551.6124, 2350.967
552.0945, 2389.339
552.5766, 2435.506
553.0587, 2478.129
553.5408, 2495.618
554.0229, 2489.078
554.5051, 2478.947
554.9872, 2474.790
555.4693, 2470.527
555.9514, 2454.816
556.4335, 2428.039
556.9156, 2394.499
557.3978, 2349.655
557.8799, 2303.278
558.3620, 2265.748
558.8441, 2240.030
559.3262, 2216.881
559.8083, 2191.229
560.2905, 2166.135
560.7726, 2145.298
561.2547, 2129.239
561.7368, 2117.873
562.2189, 2114.848
562.7010, 2117.275
563.1832, 2112.684
563.6653, 2090.407
564.1474, 2077.622
564.6295, 2089.962
565.1116, 2130.845
565.5938, 2152.708
566.0759, 2150.777
566.5580, 2142.801
567.0401, 2144.749
567.5222, 2156.228
568.0043, 2175.271
568.4865, 2203.466
568.9686, 2234.477
569.4507, 2258.684
569.9328, 2277.582
570.4149, 2297.542
570.8970, 2320.405
571.3792, 2346.373
571.8613, 2376.755
572.3434, 2411.389
572.8255, 2444.619
573.3076, 2472.407
573.7897, 2498.826
574.2719, 2526.823
574.7540, 2559.648
575.2361, 2588.944
575.7182, 2616.912
576.2003, 2639.713
576.6824, 2652.238
577.1646, 2654.306
577.6467, 2646.615
578.1288, 2629.601
578.6109, 2603.068
579.0930, 2562.405
579.5751, 2505.935
580.0573, 2448.933
580.5394, 2401.942
581.0215, 2361.629
581.5036, 2315.210
581.9857, 2262.280
582.4678, 2209.766
582.9500, 2163.290
583.4321, 2121.573
583.9142, 2083.384
584.3963, 2048.148
584.8784, 2016.561
585.3605, 1991.679
585.8427, 1970.732
586.3248, 1948.578
586.8069, 1920.792
587.2890, 1894.465
587.7711, 1872.553
588.2532, 1855.176
588.7354, 1837.070
589.2175, 1814.790
589.6996, 1796.064
590.1817, 1785.062
590.6638, 1782.860
591.1459, 1784.741
591.6281, 1792.666
592.1102, 1800.149
592.5923, 1797.444
593.0744, 1785.479
593.5565, 1774.986
594.0386, 1768.516
594.5208, 1764.698
595.0029, 1763.889
595.4850, 1764.563
595.9671, 1761.266
596.4492, 1746.416
596.9313, 1729.730
597.4135, 1717.700
597.8956, 1710.860
598.3777, 1709.294
598.8598, 1720.025
599.3419, 1731.551
599.8240, 1735.791
600.3062, 1727.088
600.7883, 1719.105
601.2704, 1708.820
601.7525, 1701.629
602.2346, 1707.581
602.7167, 1733.687
603.1989, 1748.720
603.6810, 1742.087
604.1631, 1722.489
604.6452, 1718.029
605.1273, 1728.621
605.6094, 1736.724
606.0916, 1728.161
606.5737, 1711.336
607.0558, 1703.865
607.5379, 1706.184
608.0200, 1709.957
608.5021, 1707.391
608.9843, 1703.808
609.4664, 1705.726
609.9485, 1718.439
610.4306, 1727.952
610.9127, 1727.091
611.3948, 1720.833
611.8770, 1716.291
612.3591, 1717.480
612.8412, 1716.320
613.3233, 1708.416
613.8054, 1697.107
614.2875, 1699.489
614.7697, 1720.880
615.2518, 1739.354
615.7339, 1741.933
616.2160, 1730.706
616.6981, 1726.182
617.1802, 1728.568
617.6624, 1733.438
618.1445, 1737.285
618.6266, 1740.590
619.1087, 1744.513
619.5908, 1749.433
620.0729, 1754.319
620.5551, 1760.810
621.0372, 1766.137
621.5193, 1766.222
