##NAMES=Corkite
##RRUFFID=R050522
##IDEAL CHEMISTRY=Pb^2+^Fe^3+^_3_(S^6+^O_4_)(PO_4_)(OH)_6_
##LOCALITY=near Dernbach, Nassau, Germany
##OWNER=RRUFF
##SOURCE=University of Arizona Mineral Museum
##DESCRIPTION=Black pseudo-cubo-octahedral single crystals, associated with reniform goethite balls
##STATUS=The identification of this mineral is confirmed by single-crystal X-ray diffraction and chemical analysis.
##URL=rruff.info/R050522
##MEASURED CHEMISTRY=Pb_1.00_(Fe^3+^_2.80_Fe^2+^_0.15_Al_0.05_)_Σ=3_[(S_0.58_P_0.42_)_Σ=1_O_4_]_2_(OH)_6_
153.0743, 3085.284
153.5564, 3092.841
154.0385, 3103.948
154.5206, 3111.362
155.0028, 3112.022
155.4849, 3108.587
155.9670, 3105.544
156.4491, 3099.161
156.9312, 3096.811
157.4133, 3102.364
157.8955, 3120.847
158.3776, 3139.708
158.8597, 3160.917
159.3418, 3181.312
159.8239, 3190.455
160.3060, 3179.336
160.7882, 3158.852
161.2703, 3136.458
161.7524, 3110.372
162.2345, 3086.299
162.7166, 3070.001
163.1987, 3060.137
163.6808, 3044.566
164.1630, 3010.303
164.6451, 2969.590
165.1272, 2935.588
165.6093, 2920.009
166.0914, 2907.627
166.5735, 2888.392
167.0557, 2861.533
167.5378, 2834.245
168.0199, 2807.005
168.5020, 2782.914
168.9841, 2767.420
169.4662, 2768.308
169.9484, 2776.260
170.4305, 2783.110
170.9126, 2787.894
171.3947, 2792.054
171.8768, 2796.029
172.3589, 2800.192
172.8411, 2805.452
173.3232, 2809.689
173.8053, 2816.138
174.2874, 2830.063
174.7695, 2854.543
175.2516, 2882.430
175.7338, 2904.528
176.2159, 2922.036
176.6980, 2942.495
177.1801, 2972.662
177.6622, 3009.755
178.1443, 3046.958
178.6264, 3079.627
179.1086, 3114.659
179.5907, 3166.037
180.0728, 3233.382
180.5549, 3300.733
181.0370, 3350.787
181.5191, 3388.800
182.0013, 3433.199
182.4834, 3491.552
182.9655, 3560.077
183.4476, 3632.387
183.9297, 3708.221
184.4118, 3787.347
184.8940, 3868.833
185.3761, 3953.547
185.8582, 4041.817
186.3403, 4133.733
186.8224, 4229.728
187.3046, 4335.168
187.7867, 4453.758
188.2688, 4573.986
188.7509, 4675.003
189.2330, 4757.603
189.7151, 4845.410
190.1973, 4957.292
190.6794, 5089.215
191.1615, 5210.436
191.6436, 5317.199
192.1257, 5417.340
192.6078, 5525.163
193.0900, 5642.482
193.5721, 5762.607
194.0542, 5881.576
194.5363, 5998.944
195.0184, 6119.430
195.5005, 6246.179
195.9826, 6373.684
196.4648, 6484.421
196.9469, 6575.362
197.4290, 6659.233
197.9111, 6750.184
198.3932, 6849.428
198.8753, 6932.611
199.3575, 6992.878
199.8396, 7033.388
200.3217, 7071.243
200.8038, 7107.249
201.2859, 7137.181
201.7680, 7157.552
202.2502, 7168.788
202.7323, 7168.619
203.2144, 7155.167
203.6965, 7128.855
204.1786, 7097.929
204.6607, 7063.218
205.1429, 7023.013
205.6250, 6973.863
206.1071, 6914.333
206.5892, 6853.463
207.0713, 6793.169
207.5534, 6733.249
208.0356, 6678.647
208.5177, 6633.942
208.9998, 6589.019
209.4819, 6526.381
209.9640, 6442.011
210.4461, 6350.750
210.9282, 6257.381
211.4104, 6160.093
211.8925, 6067.788
212.3746, 5982.574
212.8567, 5900.603
213.3388, 5811.210
213.8209, 5707.457
214.3031, 5610.545
214.7852, 5531.481
215.2673, 5477.246
215.7494, 5421.210
216.2315, 5363.587
216.7136, 5303.473
217.1958, 5235.792
217.6779, 5152.992
218.1600, 5075.096
218.6421, 5014.753
219.1242, 4982.631
219.6063, 4938.856
220.0885, 4875.480
220.5706, 4798.196
221.0527, 4732.520
221.5348, 4685.121
222.0169, 4638.634
222.4990, 4579.059
222.9812, 4496.308
223.4633, 4425.914
223.9454, 4377.580
224.4275, 4347.000
224.9096, 4302.752
225.3917, 4234.628
225.8739, 4164.594
226.3560, 4110.073
226.8381, 4077.965
227.3202, 4046.301
227.8023, 4012.874
228.2844, 3977.880
228.7665, 3937.723
229.2487, 3891.923
229.7308, 3842.576
230.2129, 3790.380
230.6950, 3732.722
231.1771, 3677.788
231.6592, 3624.688
232.1414, 3573.281
232.6235, 3534.478
233.1056, 3516.280
233.5877, 3503.666
234.0698, 3480.095
234.5519, 3436.523
235.0341, 3398.325
235.5162, 3370.916
235.9983, 3355.354
236.4804, 3343.672
236.9625, 3339.776
237.4446, 3336.692
237.9268, 3325.347
238.4089, 3299.897
238.8910, 3275.697
239.3731, 3256.217
239.8552, 3241.636
240.3373, 3231.278
240.8195, 3227.933
241.3016, 3226.952
241.7837, 3221.422
242.2658, 3208.706
242.7479, 3195.825
243.2300, 3184.883
243.7121, 3176.474
244.1943, 3167.641
244.6764, 3158.633
245.1585, 3149.070
245.6406, 3137.964
246.1227, 3124.209
246.6048, 3110.675
247.0870, 3097.516
247.5691, 3082.981
248.0512, 3075.136
248.5333, 3077.432
249.0154, 3084.709
249.4975, 3087.122
249.9797, 3082.370
250.4618, 3076.672
250.9439, 3072.427
251.4260, 3070.540
251.9081, 3067.152
252.3902, 3060.612
252.8724, 3053.260
253.3545, 3051.453
253.8366, 3060.375
254.3187, 3065.745
254.8008, 3060.380
255.2829, 3038.146
255.7651, 3021.637
256.2472, 3010.930
256.7293, 3005.777
257.2114, 3006.303
257.6935, 3014.718
258.1756, 3024.725
258.6577, 3033.954
259.1399, 3043.420
259.6220, 3049.004
260.1041, 3048.928
260.5862, 3045.661
261.0683, 3045.661
261.5504, 3049.245
262.0326, 3055.431
262.5147, 3066.081
262.9968, 3085.983
263.4789, 3092.878
263.9610, 3081.290
264.4431, 3058.168
264.9253, 3042.284
265.4074, 3033.437
265.8895, 3032.274
266.3716, 3042.539
266.8537, 3069.916
267.3358, 3084.618
267.8180, 3080.781
268.3001, 3065.743
268.7822, 3060.765
269.2643, 3069.739
269.7464, 3078.970
270.2285, 3080.847
270.7107, 3074.080
271.1928, 3065.681
271.6749, 3054.162
272.1570, 3042.453
272.6391, 3040.747
273.1212, 3051.970
273.6034, 3063.661
274.0855, 3067.844
274.5676, 3063.394
275.0497, 3060.507
275.5318, 3060.275
276.0139, 3061.812
276.4961, 3061.974
276.9782, 3059.811
277.4603, 3060.368
277.9424, 3068.636
278.4245, 3085.234
278.9066, 3097.093
279.3888, 3101.490
279.8709, 3102.158
280.3530, 3109.008
280.8351, 3123.015
281.3172, 3136.990
281.7993, 3145.929
282.2815, 3149.979
282.7636, 3154.608
283.2457, 3161.283
283.7278, 3167.587
284.2099, 3165.838
284.6920, 3155.194
285.1741, 3147.362
285.6563, 3151.096
286.1384, 3165.406
286.6205, 3180.608
287.1026, 3196.727
287.5847, 3211.817
288.0668, 3218.974
288.5490, 3218.222
289.0311, 3222.589
289.5132, 3244.969
289.9953, 3280.843
290.4774, 3309.805
290.9595, 3328.623
291.4417, 3342.053
291.9238, 3357.919
292.4059, 3375.808
292.8880, 3392.383
293.3701, 3401.613
293.8522, 3407.438
294.3344, 3423.382
294.8165, 3452.702
295.2986, 3487.958
295.7807, 3519.321
296.2628, 3547.273
296.7449, 3573.881
297.2271, 3601.281
297.7092, 3627.827
298.1913, 3649.142
298.6734, 3662.976
299.1555, 3676.724
299.6376, 3700.185
300.1198, 3731.325
300.6019, 3762.438
301.0840, 3784.167
301.5661, 3804.309
302.0482, 3838.094
302.5303, 3891.005
303.0125, 3942.415
303.4946, 3967.396
303.9767, 3974.177
304.4588, 3985.859
304.9409, 4021.691
305.4230, 4065.376
305.9052, 4098.979
306.3873, 4119.086
306.8694, 4136.430
307.3515, 4157.885
307.8336, 4182.575
308.3157, 4209.161
308.7979, 4233.006
309.2800, 4260.592
309.7621, 4301.299
310.2442, 4358.449
310.7263, 4410.320
311.2084, 4434.958
311.6906, 4446.833
312.1727, 4469.377
312.6548, 4525.074
313.1369, 4585.663
313.6190, 4629.279
314.1011, 4652.600
314.5833, 4680.217
315.0654, 4726.515
315.5475, 4783.227
316.0296, 4839.306
316.5117, 4895.467
316.9938, 4946.370
317.4759, 4986.537
317.9580, 5014.473
318.4402, 5046.938
318.9223, 5089.360
319.4044, 5139.053
319.8865, 5192.817
320.3686, 5251.073
320.8507, 5312.166
321.3329, 5375.721
321.8150, 5441.173
322.2971, 5509.809
322.7792, 5593.479
323.2613, 5674.578
323.7434, 5738.704
324.2256, 5751.003
324.7077, 5780.894
325.1898, 5852.347
325.6719, 5963.849
326.1540, 6055.983
326.6361, 6112.491
327.1183, 6156.682
327.6004, 6203.566
328.0825, 6250.672
328.5646, 6303.767
329.0467, 6362.588
329.5288, 6427.695
330.0110, 6499.792
330.4931, 6591.906
330.9752, 6679.400
331.4573, 6745.596
331.9394, 6772.345
332.4215, 6812.061
332.9037, 6872.221
333.3858, 6947.704
333.8679, 7020.708
334.3500, 7095.633
334.8321, 7162.046
335.3142, 7211.679
335.7964, 7234.697
336.2785, 7273.485
336.7606, 7337.363
337.2427, 7413.912
337.7248, 7468.772
338.2069, 7495.833
338.6891, 7519.775
339.1712, 7553.704
339.6533, 7598.903
340.1354, 7640.449
340.6175, 7679.354
341.0996, 7711.931
341.5818, 7728.580
342.0639, 7727.991
342.5460, 7725.059
343.0281, 7723.773
343.5102, 7724.629
343.9923, 7735.632
344.4745, 7759.057
344.9566, 7784.560
345.4387, 7802.668
345.9208, 7812.472
346.4029, 7806.245
346.8850, 7770.279
347.3672, 7716.585
347.8493, 7681.860
348.3314, 7667.061
348.8135, 7660.495
349.2956, 7656.675
349.7777, 7652.647
350.2598, 7639.201
350.7419, 7610.581
351.2241, 7572.250
351.7062, 7531.629
352.1883, 7488.834
352.6704, 7442.357
353.1525, 7386.815
353.6346, 7328.228
354.1168, 7276.052
354.5989, 7239.212
355.0810, 7202.523
355.5631, 7149.391
356.0452, 7083.230
356.5273, 7020.573
357.0095, 6980.099
357.4916, 6943.617
357.9737, 6893.336
358.4558, 6820.782
358.9379, 6741.433
359.4200, 6661.023
359.9022, 6579.941
360.3843, 6499.213
360.8664, 6417.768
361.3485, 6337.505
361.8306, 6260.394
362.3127, 6186.391
362.7949, 6114.914
363.2770, 6049.128
363.7591, 5985.300
364.2412, 5917.155
364.7233, 5841.430
365.2054, 5762.476
365.6876, 5680.945
366.1697, 5594.147
366.6518, 5513.437
367.1339, 5446.427
367.6160, 5384.275
368.0981, 5317.230
368.5803, 5242.084
369.0624, 5165.111
369.5445, 5089.687
370.0266, 5016.873
370.5087, 4932.582
370.9908, 4820.697
371.4730, 4711.773
371.9551, 4631.311
372.4372, 4591.151
372.9193, 4555.589
373.4014, 4523.714
373.8835, 4493.554
374.3657, 4451.241
374.8478, 4395.427
375.3299, 4331.034
375.8120, 4255.998
376.2941, 4164.483
376.7762, 4100.031
377.2584, 4077.703
377.7405, 4075.225
378.2226, 4034.172
378.7047, 3949.683
379.1868, 3865.128
379.6689, 3803.179
380.1511, 3762.699
380.6332, 3730.209
381.1153, 3706.885
381.5974, 3686.524
382.0795, 3662.223
382.5616, 3633.779
383.0438, 3601.962
383.5258, 3562.338
384.0080, 3520.112
384.4901, 3486.850
384.9722, 3462.628
385.4543, 3443.348
385.9364, 3425.504
386.4185, 3409.230
386.9007, 3394.596
387.3828, 3378.911
387.8649, 3366.710
388.3470, 3365.174
388.8291, 3373.094
389.3112, 3380.120
389.7934, 3377.613
390.2755, 3371.430
390.7576, 3367.757
391.2397, 3369.798
391.7218, 3372.395
392.2039, 3370.080
392.6861, 3365.603
393.1682, 3367.492
393.6503, 3386.611
394.1324, 3407.687
394.6145, 3420.991
395.0966, 3419.784
395.5788, 3423.027
396.0609, 3436.652
396.5430, 3457.041
397.0251, 3478.101
397.5072, 3497.120
397.9893, 3518.488
398.4715, 3544.897
398.9536, 3578.293
399.4357, 3606.923
399.9178, 3618.429
400.3999, 3633.033
400.8820, 3672.581
401.3642, 3757.345
401.8463, 3832.317
402.3284, 3887.170
402.8105, 3923.428
403.2926, 3956.693
403.7747, 3981.137
404.2569, 4013.304
404.7390, 4070.059
405.2211, 4158.720
405.7032, 4232.598
406.1853, 4281.849
406.6674, 4320.182
407.1496, 4382.318
407.6317, 4470.432
408.1138, 4564.198
408.5959, 4654.274
409.0780, 4741.188
409.5602, 4829.090
410.0423, 4916.740
410.5244, 5004.455
411.0065, 5090.171
411.4886, 5175.283
411.9707, 5263.686
412.4529, 5358.067
412.9350, 5458.063
413.4171, 5564.553
413.8992, 5678.622
414.3813, 5784.329
414.8634, 5857.754
415.3456, 5919.001
415.8277, 5997.755
416.3098, 6117.473
416.7919, 6241.519
417.2740, 6346.672
417.7561, 6434.165
418.2382, 6517.538
418.7203, 6604.496
419.2025, 6687.777
419.6846, 6761.115
420.1667, 6823.136
420.6488, 6877.653
421.1309, 6915.713
421.6130, 6948.438
422.0952, 6997.232
422.5773, 7079.007
423.0594, 7164.779
423.5415, 7250.726
424.0236, 7339.701
424.5057, 7408.847
424.9879, 7434.310
425.4700, 7453.906
425.9521, 7504.826
426.4342, 7612.508
426.9163, 7706.971
427.3984, 7776.138
427.8806, 7823.375
428.3627, 7865.035
428.8448, 7895.087
429.3269, 7932.284
429.8090, 7996.858
430.2911, 8095.740
430.7733, 8162.670
431.2554, 8185.816
431.7375, 8185.956
432.2196, 8204.456
432.7017, 8241.854
433.1838, 8270.702
433.6660, 8281.656
434.1481, 8273.889
434.6302, 8238.893
435.1123, 8174.650
435.5944, 8101.287
436.0765, 8038.633
436.5587, 7982.884
437.0408, 7925.006
437.5229, 7870.225
438.0050, 7804.815
438.4871, 7706.658
438.9692, 7580.923
439.4514, 7456.195
439.9335, 7350.633
440.4156, 7254.073
440.8977, 7157.138
441.3798, 7059.629
441.8619, 6960.180
442.3441, 6861.699
442.8262, 6760.672
443.3083, 6650.096
443.7904, 6510.749
444.2725, 6377.968
444.7546, 6268.522
445.2368, 6188.925
445.7189, 6105.365
446.2010, 6014.797
446.6831, 5919.147
447.1652, 5820.253
447.6473, 5711.983
448.1295, 5609.018
448.6116, 5516.346
449.0937, 5430.988
449.5758, 5340.619
450.0579, 5242.467
450.5400, 5145.215
451.0221, 5055.357
451.5042, 4976.243
451.9864, 4888.042
452.4685, 4786.508
452.9506, 4680.882
453.4327, 4584.192
453.9148, 4496.792
454.3969, 4417.761
454.8791, 4355.569
455.3612, 4301.326
455.8433, 4222.052
456.3254, 4117.445
456.8075, 4010.191
457.2896, 3923.562
457.7718, 3850.976
458.2539, 3781.687
458.7360, 3713.135
459.2181, 3645.156
459.7002, 3577.225
460.1823, 3509.122
460.6645, 3442.243
461.1466, 3374.170
461.6287, 3309.523
462.1108, 3252.962
462.5929, 3205.747
463.0750, 3160.249
463.5572, 3112.590
464.0393, 3064.986
464.5214, 3020.532
465.0035, 2982.579
465.4856, 2945.683
465.9677, 2908.853
466.4499, 2872.128
466.9320, 2836.726
467.4141, 2803.895
467.8962, 2770.911
468.3783, 2735.549
468.8604, 2692.816
469.3426, 2658.885
469.8247, 2637.068
470.3068, 2621.500
470.7889, 2599.236
471.2710, 2567.573
471.7531, 2539.678
472.2353, 2523.436
472.7174, 2516.814
473.1995, 2497.016
473.6816, 2461.943
474.1637, 2426.327
474.6458, 2405.930
475.1280, 2398.411
475.6101, 2393.100
476.0922, 2388.703
476.5743, 2383.669
477.0564, 2375.230
477.5385, 2363.949
478.0207, 2352.600
478.5028, 2343.642
478.9849, 2334.883
479.4670, 2323.377
479.9491, 2308.382
480.4312, 2294.226
480.9134, 2282.928
481.3955, 2274.238
481.8776, 2267.911
482.3597, 2271.193
482.8418, 2269.528
483.3239, 2254.246
483.8060, 2227.643
484.2881, 2206.888
484.7703, 2194.295
485.2524, 2189.077
485.7345, 2192.097
486.2166, 2212.472
486.6987, 2221.474
487.1808, 2211.819
487.6630, 2195.552
488.1451, 2193.447
488.6272, 2212.771
489.1093, 2225.295
489.5914, 2219.600
490.0735, 2199.448
490.5557, 2195.010
491.0378, 2208.733
491.5199, 2225.052
492.0020, 2232.707
492.4841, 2232.180
492.9662, 2225.083
493.4484, 2209.319
493.9305, 2193.331
494.4126, 2189.452
494.8947, 2195.464
495.3768, 2203.919
495.8589, 2214.072
496.3411, 2223.124
496.8232, 2226.301
497.3053, 2223.675
497.7874, 2223.691
498.2695, 2235.577
498.7516, 2250.404
499.2338, 2259.720
499.7159, 2256.360
500.1980, 2253.903
500.6801, 2257.398
501.1622, 2264.704
501.6443, 2270.507
502.1265, 2274.149
502.6086, 2275.980
503.0907, 2275.181
503.5728, 2270.660
504.0549, 2269.634
504.5370, 2270.724
505.0192, 2276.856
505.5013, 2294.289
505.9834, 2329.189
506.4655, 2348.427
506.9476, 2341.977
507.4297, 2321.301
507.9119, 2316.898
508.3940, 2329.383
508.8761, 2347.424
509.3582, 2366.699
509.8403, 2386.739
510.3224, 2407.389
510.8046, 2429.046
511.2867, 2446.648
511.7688, 2450.604
512.2509, 2447.796
512.7330, 2451.592
513.2151, 2470.271
513.6973, 2491.879
514.1794, 2508.164
514.6615, 2520.147
515.1436, 2531.131
515.6257, 2540.933
516.1078, 2551.470
516.5900, 2563.383
517.0721, 2576.646
517.5542, 2592.156
518.0363, 2610.908
518.5184, 2631.587
519.0005, 2653.016
519.4827, 2677.350
519.9648, 2698.906
520.4469, 2713.953
520.9290, 2725.691
521.4111, 2747.583
521.8932, 2783.871
522.3754, 2818.757
522.8575, 2844.701
523.3396, 2861.842
523.8217, 2869.476
524.3038, 2864.576
524.7859, 2862.358
525.2681, 2884.833
525.7502, 2926.339
526.2323, 2961.646
526.7144, 2980.680
527.1965, 2994.722
527.6786, 3018.397
528.1608, 3049.679
528.6429, 3081.508
529.1250, 3114.338
529.6071, 3142.812
530.0892, 3158.952
530.5714, 3159.771
531.0535, 3165.817
531.5355, 3190.912
532.0176, 3222.870
532.4998, 3249.570
532.9819, 3267.634
533.4640, 3282.001
533.9461, 3291.947
534.4282, 3298.625
534.9103, 3305.203
535.3925, 3307.240
535.8746, 3316.434
536.3567, 3340.452
536.8388, 3381.253
537.3209, 3411.877
537.8030, 3431.710
538.2852, 3442.307
538.7673, 3442.644
539.2494, 3433.369
539.7315, 3424.465
540.2136, 3417.398
540.6957, 3412.548
541.1779, 3411.061
541.6600, 3412.518
542.1421, 3415.177
542.6242, 3422.956
543.1063, 3428.650
543.5884, 3420.661
544.0706, 3398.357
544.5527, 3381.293
545.0348, 3389.118
545.5169, 3402.767
545.9990, 3404.720
546.4811, 3380.052
546.9633, 3358.542
547.4454, 3349.240
547.9275, 3347.377
548.4096, 3341.565
548.8917, 3331.837
549.3738, 3317.555
549.8560, 3296.167
550.3381, 3267.619
550.8202, 3248.052
551.3023, 3240.555
551.7844, 3234.985
552.2665, 3221.429
552.7487, 3199.943
553.2308, 3186.469
553.7129, 3183.855
554.1950, 3186.342
554.6771, 3187.041
555.1592, 3185.863
555.6414, 3182.518
556.1235, 3178.955
556.6056, 3171.816
557.0877, 3151.497
557.5698, 3121.053
558.0519, 3099.856
558.5341, 3106.697
559.0162, 3122.520
559.4983, 3131.185
559.9804, 3126.124
560.4625, 3127.282
560.9446, 3151.240
561.4268, 3179.877
561.9089, 3190.739
562.3910, 3161.321
562.8731, 3143.259
563.3552, 3147.989
563.8373, 3169.450
564.3195, 3182.645
564.8016, 3188.188
565.2837, 3183.418
565.7658, 3161.790
566.2479, 3124.029
566.7300, 3101.385
567.2122, 3096.335
567.6943, 3093.803
568.1764, 3076.386
568.6585, 3048.550
569.1406, 3024.609
569.6227, 3009.454
570.1049, 2996.011
570.5870, 2977.674
571.0691, 2955.520
571.5512, 2931.365
572.0333, 2905.314
572.5154, 2878.396
572.9976, 2851.631
573.4797, 2824.830
573.9618, 2797.274
574.4439, 2770.242
574.9260, 2740.902
575.4081, 2707.034
575.8903, 2659.287
576.3724, 2624.207
576.8545, 2606.773
577.3366, 2597.989
577.8187, 2584.155
578.3008, 2563.740
578.7830, 2545.760
579.2651, 2533.811
579.7472, 2525.177
580.2293, 2511.523
580.7114, 2493.008
581.1935, 2472.066
581.6757, 2447.137
582.1578, 2421.906
582.6399, 2404.302
583.1220, 2395.499
583.6041, 2387.619
584.0862, 2375.973
584.5684, 2361.594
585.0505, 2345.628
585.5326, 2327.440
586.0147, 2309.016
586.4968, 2289.849
586.9789, 2271.024
587.4611, 2254.597
587.9432, 2237.668
588.4253, 2226.920
588.9074, 2227.123
589.3895, 2238.027
589.8716, 2239.375
590.3538, 2229.140
590.8359, 2213.602
591.3180, 2193.606
591.8001, 2169.136
592.2822, 2156.789
592.7643, 2160.010
593.2465, 2166.616
593.7286, 2160.334
594.2107, 2144.128
594.6928, 2128.333
595.1749, 2114.076
595.6570, 2103.998
596.1392, 2102.962
596.6213, 2108.792
597.1034, 2114.254
597.5854, 2117.129
598.0676, 2117.746
598.5497, 2116.599
599.0318, 2113.892
599.5139, 2107.654
599.9960, 2095.265
600.4781, 2080.762
600.9603, 2066.232
601.4424, 2048.224
601.9245, 2037.422
602.4066, 2034.154
602.8887, 2038.336
603.3708, 2054.964
603.8530, 2085.660
604.3351, 2103.378
604.8172, 2094.882
605.2993, 2071.906
605.7814, 2059.208
606.2635, 2056.515
606.7457, 2061.697
607.2278, 2080.556
607.7099, 2102.895
608.1920, 2114.607
608.6741, 2113.978
609.1563, 2115.925
609.6384, 2132.522
610.1205, 2153.280
610.6026, 2168.895
611.0847, 2174.982
611.5668, 2179.667
612.0490, 2179.693
612.5311, 2180.178
613.0132, 2190.678
613.4953, 2218.894
613.9774, 2241.083
614.4595, 2249.253
614.9417, 2247.108
615.4238, 2253.783
615.9059, 2270.462
616.3880, 2284.399
616.8701, 2283.101
617.3522, 2272.991
617.8344, 2276.525
618.3165, 2295.248
618.7986, 2311.559
619.2807, 2308.307
619.7628, 2294.187
620.2449, 2280.900
620.7271, 2274.196
621.2092, 2263.140
621.6913, 2240.016
622.1734, 2209.944
622.6555, 2181.519
623.1376, 2163.079
623.6198, 2138.422
624.1019, 2101.381
624.5840, 2054.646
625.0661, 2015.098
625.5482, 1984.659
626.0303, 1956.674
626.5125, 1927.531
626.9946, 1897.367
627.4767, 1870.084
627.9588, 1846.146
628.4409, 1821.552
628.9230, 1788.734
629.4052, 1752.814
629.8873, 1726.306
630.3694, 1714.824
630.8515, 1703.492
631.3336, 1675.127
631.8157, 1639.812
632.2979, 1613.716
632.7800, 1614.513
633.2621, 1612.810
633.7442, 1594.681
634.2263, 1564.240
634.7084, 1543.267
635.1906, 1538.938
635.6727, 1535.419
636.1548, 1527.321
636.6369, 1514.530
637.1190, 1499.703
637.6011, 1481.689
638.0833, 1466.758
638.5654, 1463.812
639.0475, 1469.769
639.5296, 1467.062
640.0117, 1452.162
640.4938, 1435.968
640.9760, 1430.725
641.4581, 1432.185
641.9402, 1432.583
642.4223, 1429.573
642.9044, 1424.480
643.3865, 1415.427
643.8687, 1404.750
644.3508, 1398.120
644.8329, 1399.262
645.3150, 1402.467
645.7971, 1409.318
646.2792, 1419.326
