##NAMES=Corkite
##RRUFFID=R070403
##IDEAL CHEMISTRY=Pb^2+^Fe^3+^_3_(S^6+^O_4_)(PO_4_)(OH)_6_
##LOCALITY=Waldschacht mine (shaft 26), Neust√§dtel, Schneeberg District, Erzgebirge, Saxony, Germany
##OWNER=RRUFF
##SOURCE=Michael Scott
##DESCRIPTION=Pale yellow globules
##STATUS=The identification of this mineral has been confirmed only by single crystal X-ray diffraction.
##URL=rruff.info/R070403
171.8392, 10437.93
172.3213, 10455.78
172.8034, 10476.91
173.2856, 10505.67
173.7677, 10555.72
174.2498, 10619.94
174.7319, 10673.10
175.2140, 10697.86
175.6961, 10702.59
176.1783, 10695.77
176.6604, 10670.66
177.1425, 10649.44
177.6246, 10666.73
178.1067, 10717.31
178.5888, 10768.69
179.0710, 10794.48
179.5531, 10803.18
180.0352, 10812.14
180.5173, 10823.34
180.9994, 10838.87
181.4815, 10867.86
181.9637, 10909.93
182.4458, 10944.82
182.9279, 10944.68
183.4100, 10920.18
183.8921, 10912.29
184.3742, 10939.59
184.8564, 10987.99
185.3385, 11023.56
185.8206, 11045.76
186.3027, 11065.43
186.7848, 11096.24
187.2669, 11136.23
187.7491, 11171.35
188.2312, 11193.22
188.7133, 11206.16
189.1954, 11229.29
189.6775, 11264.89
190.1596, 11299.85
190.6418, 11314.99
191.1239, 11310.76
191.6060, 11309.22
192.0881, 11319.92
192.5702, 11341.72
193.0524, 11365.70
193.5345, 11392.82
194.0166, 11419.50
194.4987, 11435.86
194.9808, 11440.68
195.4629, 11453.59
195.9451, 11489.75
196.4272, 11548.94
196.9093, 11591.70
197.3914, 11612.41
197.8735, 11623.60
198.3556, 11648.03
198.8378, 11686.40
199.3199, 11732.56
199.8020, 11788.97
200.2841, 11856.97
200.7662, 11906.71
201.2483, 11932.52
201.7305, 11942.77
202.2126, 11954.42
202.6947, 11964.91
203.1768, 11986.41
203.6589, 12032.94
204.1410, 12109.77
204.6232, 12169.59
205.1053, 12202.35
205.5874, 12217.98
206.0695, 12252.01
206.5516, 12311.30
207.0337, 12371.03
207.5159, 12413.92
207.9980, 12436.20
208.4801, 12453.86
208.9622, 12461.38
209.4443, 12465.88
209.9264, 12508.50
210.4086, 12605.61
210.8907, 12708.32
211.3728, 12776.06
211.8549, 12799.49
212.3370, 12820.69
212.8191, 12841.43
213.3013, 12863.58
213.7834, 12907.04
214.2655, 12979.90
214.7476, 13061.37
215.2297, 13135.04
215.7118, 13204.09
216.1940, 13257.37
216.6761, 13286.83
217.1582, 13294.27
217.6403, 13318.98
218.1224, 13369.55
218.6045, 13425.47
219.0867, 13465.37
219.5688, 13479.72
220.0509, 13500.30
220.5330, 13536.47
221.0151, 13589.30
221.4972, 13628.20
221.9794, 13646.17
222.4615, 13658.40
222.9436, 13683.10
223.4257, 13730.24
223.9078, 13769.01
224.3899, 13786.88
224.8721, 13780.91
225.3542, 13798.44
225.8363, 13855.79
226.3184, 13921.31
226.8005, 13955.26
227.2827, 13937.26
227.7648, 13926.75
228.2469, 13945.11
228.7290, 13999.97
229.2111, 14021.14
229.6932, 13987.44
230.1754, 13937.00
230.6575, 13923.06
231.1396, 13973.08
231.6217, 14010.83
232.1038, 14010.00
232.5859, 13959.45
233.0681, 13931.51
233.5502, 13937.56
234.0323, 13958.04
234.5144, 13963.29
234.9965, 13940.59
235.4786, 13924.30
235.9608, 13927.45
236.4429, 13956.39
236.9250, 13975.19
237.4071, 13982.40
237.8892, 13980.18
238.3713, 13970.31
238.8535, 13945.27
239.3356, 13925.43
239.8177, 13920.68
240.2998, 13939.60
240.7819, 13938.63
241.2640, 13904.13
241.7462, 13857.64
242.2283, 13836.91
242.7104, 13853.43
243.1925, 13876.85
243.6746, 13897.85
244.1567, 13915.67
244.6389, 13934.99
245.1210, 13961.69
245.6031, 13986.41
246.0852, 13990.59
246.5673, 13962.91
247.0494, 13933.95
247.5316, 13915.53
248.0137, 13912.98
248.4958, 13901.07
248.9779, 13869.45
249.4600, 13834.42
249.9421, 13830.09
250.4243, 13874.96
250.9064, 13917.24
251.3885, 13935.39
251.8706, 13918.35
252.3527, 13915.83
252.8348, 13937.05
253.3170, 13967.07
253.7991, 13975.17
254.2812, 13948.92
254.7633, 13924.41
255.2454, 13916.29
255.7275, 13930.15
256.2097, 13940.17
256.6918, 13946.01
257.1739, 13948.13
257.6560, 13945.52
258.1381, 13932.42
258.6202, 13926.56
259.1024, 13936.00
259.5845, 13964.33
260.0666, 13993.67
260.5487, 14027.79
261.0308, 14059.94
261.5129, 14078.99
261.9951, 14083.23
262.4772, 14077.83
262.9593, 14059.57
263.4414, 14020.80
263.9235, 14008.55
264.4056, 14035.76
264.8878, 14077.33
265.3699, 14084.13
265.8520, 14040.45
266.3341, 14007.18
266.8162, 14014.35
267.2983, 14071.72
267.7805, 14103.67
268.2626, 14099.61
268.7447, 14081.56
269.2268, 14091.74
269.7089, 14140.16
270.1910, 14180.68
270.6732, 14190.29
271.1553, 14164.03
271.6374, 14158.09
272.1195, 14180.15
272.6016, 14211.28
273.0837, 14215.67
273.5659, 14186.49
274.0480, 14165.76
274.5301, 14176.05
275.0122, 14219.06
275.4943, 14240.52
275.9764, 14235.62
276.4586, 14218.21
276.9407, 14210.09
277.4228, 14213.05
277.9049, 14210.22
278.3870, 14185.71
278.8691, 14141.82
279.3513, 14137.05
279.8334, 14179.34
280.3155, 14240.30
280.7976, 14287.93
281.2798, 14322.05
281.7619, 14336.94
282.2440, 14319.80
282.7261, 14276.95
283.2082, 14259.97
283.6903, 14273.24
284.1725, 14296.16
284.6546, 14302.43
285.1367, 14292.67
285.6188, 14284.78
286.1009, 14287.85
286.5830, 14298.18
287.0652, 14294.99
287.5473, 14275.16
288.0294, 14260.43
288.5115, 14287.12
288.9936, 14348.65
289.4757, 14389.37
289.9579, 14382.19
290.4400, 14343.20
290.9221, 14310.92
291.4042, 14284.66
291.8863, 14273.87
292.3684, 14294.30
292.8506, 14340.56
293.3327, 14390.79
293.8148, 14448.61
294.2969, 14500.46
294.7790, 14514.56
295.2611, 14490.83
295.7433, 14459.29
296.2254, 14441.66
296.7075, 14436.30
297.1896, 14439.25
297.6717, 14451.30
298.1538, 14469.28
298.6360, 14491.78
299.1181, 14518.22
299.6002, 14539.40
300.0823, 14538.72
300.5644, 14529.04
301.0465, 14537.27
301.5287, 14583.74
302.0108, 14634.19
302.4929, 14644.22
302.9750, 14619.83
303.4571, 14594.76
303.9392, 14590.41
304.4214, 14599.43
304.9035, 14613.69
305.3856, 14636.76
305.8677, 14655.17
306.3498, 14648.52
306.8319, 14624.49
307.3141, 14610.21
307.7962, 14627.50
308.2783, 14659.71
308.7604, 14692.64
309.2425, 14726.15
309.7246, 14752.53
310.2068, 14761.51
310.6889, 14758.87
311.1710, 14759.83
311.6531, 14772.98
312.1352, 14791.77
312.6173, 14812.04
313.0995, 14833.84
313.5816, 14854.32
314.0637, 14867.48
314.5458, 14878.75
315.0279, 14898.41
315.5100, 14953.64
315.9922, 15000.79
316.4743, 15007.96
316.9564, 14957.55
317.4385, 14925.12
317.9206, 14948.29
318.4027, 15001.45
318.8849, 15048.81
319.3670, 15078.16
319.8491, 15102.38
320.3312, 15127.36
320.8133, 15155.08
321.2954, 15174.47
321.7776, 15178.97
322.2597, 15175.99
322.7418, 15173.43
323.2239, 15163.88
323.7060, 15163.37
324.1881, 15182.90
324.6703, 15225.66
325.1524, 15250.22
325.6345, 15223.29
326.1166, 15192.98
326.5987, 15198.10
327.0808, 15283.72
327.5630, 15351.85
328.0451, 15384.08
328.5272, 15382.45
329.0093, 15391.60
329.4914, 15420.36
329.9735, 15451.65
330.4557, 15474.19
330.9378, 15483.29
331.4199, 15491.50
331.9020, 15497.35
332.3841, 15502.68
332.8662, 15518.86
333.3484, 15557.67
333.8305, 15589.20
334.3126, 15591.85
334.7947, 15548.23
335.2768, 15531.03
335.7589, 15552.58
336.2411, 15597.71
336.7232, 15628.63
337.2053, 15641.46
337.6874, 15650.80
338.1695, 15662.65
338.6516, 15676.82
339.1338, 15694.78
339.6159, 15717.49
340.0980, 15742.24
340.5801, 15767.04
341.0622, 15793.36
341.5443, 15808.29
342.0265, 15802.59
342.5086, 15778.77
342.9907, 15758.33
343.4728, 15740.91
343.9549, 15729.01
344.4370, 15727.55
344.9192, 15735.76
345.4013, 15745.94
345.8834, 15750.33
346.3655, 15756.08
346.8476, 15793.25
347.3297, 15863.22
347.8119, 15922.00
348.2940, 15916.30
348.7761, 15864.11
349.2582, 15818.82
349.7403, 15793.25
350.2225, 15782.88
350.7046, 15782.46
351.1867, 15791.82
351.6688, 15809.63
352.1509, 15852.37
352.6331, 15898.52
353.1152, 15910.59
353.5973, 15862.95
354.0794, 15811.97
354.5615, 15813.55
355.0436, 15854.38
355.5258, 15893.95
356.0079, 15909.44
356.4900, 15914.24
356.9721, 15920.36
357.4542, 15931.12
357.9363, 15938.22
358.4185, 15930.49
358.9006, 15916.65
359.3827, 15911.77
359.8648, 15933.19
360.3469, 15956.02
360.8290, 15963.42
361.3112, 15950.52
361.7933, 15948.07
362.2754, 15980.54
362.7575, 16022.99
363.2396, 16048.41
363.7217, 16031.82
364.2039, 16016.16
364.6860, 16009.89
365.1681, 16013.38
365.6502, 16028.19
366.1323, 16075.16
366.6144, 16121.09
367.0966, 16142.94
367.5787, 16110.20
368.0608, 16089.60
368.5429, 16085.25
369.0250, 16096.36
369.5071, 16120.60
369.9893, 16178.55
370.4714, 16225.73
370.9535, 16236.21
371.4356, 16181.59
371.9177, 16156.64
372.3998, 16176.04
372.8820, 16218.92
373.3641, 16235.66
373.8462, 16213.59
374.3283, 16198.38
374.8104, 16213.84
375.2925, 16264.53
375.7747, 16290.58
376.2568, 16284.84
376.7389, 16269.13
377.2210, 16273.79
377.7031, 16300.17
378.1852, 16327.43
378.6674, 16348.69
379.1495, 16365.78
379.6316, 16391.20
380.1137, 16426.38
380.5958, 16455.24
381.0779, 16453.54
381.5601, 16428.93
382.0422, 16420.97
382.5243, 16444.55
383.0064, 16480.97
383.4885, 16498.50
383.9706, 16499.37
384.4528, 16498.87
384.9349, 16508.11
385.4170, 16522.63
385.8991, 16535.49
386.3812, 16545.85
386.8633, 16554.15
387.3455, 16553.46
387.8276, 16550.62
388.3097, 16561.51
388.7918, 16609.01
389.2739, 16663.88
389.7560, 16700.86
390.2382, 16716.57
390.7203, 16731.76
391.2024, 16764.84
391.6845, 16801.02
392.1666, 16823.58
392.6487, 16806.96
393.1309, 16794.19
393.6130, 16802.83
394.0951, 16831.88
394.5772, 16866.39
395.0593, 16910.96
395.5414, 16954.55
396.0236, 16989.80
396.5057, 17018.05
396.9878, 17035.27
397.4699, 17028.50
397.9520, 17008.61
398.4341, 17009.45
398.9163, 17038.17
399.3984, 17080.43
399.8805, 17135.47
400.3626, 17215.57
400.8447, 17270.58
401.3268, 17288.78
401.8090, 17290.48
402.2911, 17305.24
402.7732, 17338.19
403.2553, 17370.42
403.7374, 17397.20
404.2195, 17418.71
404.7017, 17436.53
405.1838, 17448.14
405.6659, 17463.12
406.1480, 17493.86
406.6301, 17540.82
407.1122, 17579.19
407.5944, 17601.01
408.0765, 17615.46
408.5586, 17645.02
409.0407, 17689.57
409.5228, 17737.01
410.0049, 17782.25
410.4871, 17823.84
410.9692, 17858.08
411.4513, 17884.35
411.9334, 17904.45
412.4155, 17915.37
412.8976, 17921.37
413.3798, 17934.21
413.8619, 17965.70
414.3440, 18003.15
414.8261, 18031.63
415.3082, 18051.02
415.7903, 18074.37
416.2725, 18120.45
416.7546, 18171.57
417.2367, 18207.85
417.7188, 18199.50
418.2009, 18200.05
418.6830, 18242.70
419.1652, 18316.93
419.6473, 18382.55
420.1294, 18420.51
420.6115, 18451.02
421.0937, 18485.80
421.5758, 18528.84
422.0579, 18569.35
422.5400, 18603.99
423.0221, 18635.75
423.5042, 18670.31
423.9864, 18712.30
424.4685, 18751.68
424.9506, 18785.74
425.4327, 18813.47
425.9148, 18842.74
426.3969, 18870.43
426.8791, 18903.15
427.3612, 18948.95
427.8433, 19015.00
428.3254, 19069.72
428.8075, 19102.31
429.2896, 19122.94
429.7718, 19167.91
430.2539, 19241.05
430.7360, 19318.19
431.2181, 19387.33
431.7002, 19448.38
432.1823, 19498.65
432.6645, 19536.69
433.1466, 19568.41
433.6287, 19601.89
434.1108, 19636.04
434.5929, 19665.31
435.0750, 19681.83
435.5572, 19694.15
436.0393, 19719.64
436.5214, 19757.69
437.0035, 19794.96
437.4856, 19820.24
437.9677, 19838.21
438.4499, 19856.15
438.9320, 19880.69
439.4141, 19897.49
439.8962, 19893.09
440.3783, 19872.64
440.8604, 19849.23
441.3426, 19827.55
441.8247, 19805.65
442.3068, 19786.17
442.7889, 19773.45
443.2710, 19743.38
443.7531, 19671.54
444.2353, 19586.21
444.7174, 19517.46
445.1995, 19483.00
445.6816, 19451.64
446.1637, 19417.86
446.6458, 19382.45
447.1280, 19351.50
447.6101, 19329.75
448.0922, 19307.11
448.5743, 19278.18
449.0564, 19240.65
449.5385, 19201.28
450.0207, 19157.66
450.5028, 19114.75
450.9849, 19084.82
451.4670, 19071.45
451.9491, 19054.10
452.4312, 19023.28
452.9134, 18980.96
453.3955, 18935.84
453.8776, 18885.35
454.3597, 18850.87
454.8418, 18865.66
455.3239, 18918.09
455.8061, 18960.47
456.2882, 18984.34
456.7703, 18990.49
457.2524, 18967.13
457.7345, 18922.79
458.2166, 18891.91
458.6988, 18909.88
459.1809, 18944.88
459.6630, 18962.77
460.1451, 18959.04
460.6272, 18946.99
461.1093, 18925.53
461.5915, 18903.63
462.0736, 18892.97
462.5557, 18905.19
463.0378, 18921.59
463.5199, 18937.13
464.0020, 18951.46
464.4842, 18963.63
464.9663, 18968.87
465.4484, 18975.15
465.9305, 18986.86
466.4126, 19007.62
466.8947, 19028.54
467.3769, 19057.01
467.8590, 19082.40
468.3411, 19085.05
468.8232, 19050.81
469.3053, 19021.47
469.7874, 19005.99
470.2696, 19004.39
470.7517, 19022.07
471.2338, 19066.17
471.7159, 19107.40
472.1980, 19113.21
472.6801, 19084.72
473.1623, 19072.38
473.6444, 19086.26
474.1265, 19113.21
474.6086, 19138.05
475.0907, 19158.95
475.5728, 19164.13
476.0550, 19125.91
476.5371, 19075.38
477.0192, 19068.81
477.5013, 19108.42
477.9834, 19155.02
478.4655, 19188.35
478.9477, 19207.47
479.4298, 19209.24
479.9119, 19172.28
480.3940, 19143.80
480.8761, 19155.11
481.3582, 19195.28
481.8404, 19232.97
482.3225, 19263.09
482.8046, 19284.14
483.2867, 19293.84
483.7688, 19288.11
484.2509, 19284.49
484.7331, 19279.45
485.2152, 19279.84
485.6973, 19293.91
486.1794, 19338.55
486.6615, 19367.49
487.1436, 19370.01
487.6258, 19351.84
488.1079, 19337.51
488.5900, 19324.08
489.0721, 19323.13
489.5542, 19350.36
490.0363, 19406.35
490.5185, 19429.86
491.0006, 19411.96
491.4827, 19385.52
491.9648, 19401.02
492.4470, 19449.66
492.9291, 19482.07
493.4112, 19471.34
493.8933, 19443.44
494.3754, 19434.44
494.8575, 19443.38
495.3397, 19464.64
495.8218, 19505.64
496.3039, 19551.98
496.7860, 19586.75
497.2681, 19605.78
497.7502, 19622.13
498.2324, 19648.77
498.7145, 19675.45
499.1966, 19688.72
499.6787, 19657.93
500.1608, 19639.85
500.6429, 19659.56
501.1251, 19714.45
501.6072, 19758.15
502.0893, 19787.31
502.5714, 19805.30
503.0535, 19811.83
503.5356, 19797.94
504.0178, 19794.28
504.4999, 19803.60
504.9820, 19820.77
505.4641, 19838.68
505.9462, 19857.28
506.4283, 19876.89
506.9105, 19898.48
507.3926, 19920.83
507.8747, 19939.38
508.3568, 19954.17
508.8389, 19965.31
509.3210, 19962.45
509.8032, 19956.24
510.2853, 19984.24
510.7674, 20059.81
511.2495, 20132.27
511.7316, 20140.97
512.2137, 20108.56
512.6959, 20081.11
513.1780, 20068.07
513.6601, 20074.37
514.1422, 20117.44
514.6243, 20190.17
515.1064, 20245.01
515.5886, 20247.81
516.0707, 20237.92
516.5528, 20238.38
517.0349, 20253.27
517.5170, 20276.13
517.9991, 20311.44
518.4813, 20352.30
518.9634, 20390.78
519.4455, 20431.09
519.9276, 20460.93
520.4097, 20472.06
520.8918, 20469.12
521.3740, 20490.24
521.8561, 20545.74
522.3382, 20591.14
522.8203, 20586.13
523.3024, 20535.04
523.7845, 20515.26
524.2667, 20535.76
524.7488, 20569.46
525.2309, 20579.67
525.7130, 20574.58
526.1951, 20582.47
526.6772, 20617.06
527.1594, 20665.87
527.6415, 20726.50
528.1236, 20792.52
528.6057, 20836.68
529.0878, 20826.86
529.5699, 20799.52
530.0521, 20778.06
530.5342, 20762.88
531.0163, 20764.80
531.4984, 20797.03
531.9805, 20843.90
532.4626, 20888.80
532.9448, 20935.01
533.4269, 20972.28
533.9090, 20994.54
534.3911, 21006.50
534.8732, 21025.87
535.3553, 21056.20
535.8375, 21087.63
536.3196, 21112.61
536.8017, 21130.34
537.2838, 21171.78
537.7659, 21246.89
538.2480, 21314.07
538.7302, 21308.79
539.2123, 21245.27
539.6944, 21227.49
540.1765, 21293.31
540.6586, 21386.37
541.1407, 21427.88
541.6229, 21429.25
542.1050, 21432.31
542.5871, 21470.78
543.0692, 21513.66
543.5513, 21524.24
544.0334, 21501.04
544.5156, 21494.26
544.9977, 21541.83
545.4798, 21607.23
545.9619, 21661.88
546.4440, 21702.38
546.9261, 21729.06
547.4083, 21736.07
547.8904, 21730.27
548.3725, 21723.21
548.8546, 21710.02
549.3367, 21703.40
549.8188, 21706.12
550.3010, 21718.05
550.7831, 21741.90
551.2652, 21783.18
551.7473, 21818.03
552.2294, 21818.53
552.7115, 21790.33
553.1937, 21795.91
553.6758, 21846.31
554.1579, 21905.23
554.6400, 21923.99
555.1221, 21914.42
555.6042, 21909.80
556.0864, 21920.29
556.5685, 21942.62
557.0506, 21982.31
557.5327, 22033.52
558.0148, 22073.90
558.4969, 22095.60
558.9791, 22100.83
559.4612, 22080.86
559.9433, 22024.17
560.4254, 21999.10
560.9075, 22038.65
561.3896, 22104.03
561.8718, 22161.40
562.3539, 22209.06
562.8360, 22251.99
563.3181, 22292.33
563.8002, 22326.89
564.2823, 22346.59
564.7645, 22348.59
565.2466, 22347.83
565.7287, 22352.00
566.2108, 22358.35
566.6929, 22346.85
567.1750, 22316.42
567.6572, 22294.52
568.1393, 22304.43
568.6214, 22339.65
569.1035, 22396.45
569.5856, 22485.00
570.0677, 22552.51
570.5499, 22527.73
571.0320, 22459.31
571.5141, 22424.13
571.9962, 22494.77
572.4783, 22559.70
572.9604, 22559.64
573.4426, 22509.34
573.9247, 22487.71
574.4068, 22540.37
574.8889, 22594.12
575.3710, 22621.37
575.8531, 22617.88
576.3353, 22608.47
576.8174, 22591.59
577.2995, 22571.22
577.7816, 22549.31
578.2637, 22525.35
578.7458, 22507.47
579.2280, 22498.46
579.7101, 22493.06
580.1922, 22480.60
580.6743, 22462.58
581.1564, 22447.47
581.6385, 22440.14
582.1207, 22437.39
582.6028, 22435.82
583.0849, 22435.40
583.5670, 22435.80
584.0491, 22422.52
584.5313, 22419.14
585.0134, 22453.78
585.4955, 22552.94
585.9776, 22616.29
586.4597, 22575.54
586.9418, 22503.52
587.4240, 22485.53
587.9061, 22586.72
588.3882, 22641.18
588.8703, 22604.83
589.3524, 22517.58
589.8345, 22507.67
590.3167, 22599.02
590.7988, 22675.39
591.2809, 22674.90
591.7630, 22615.70
592.2451, 22594.33
592.7272, 22612.21
593.2094, 22633.55
593.6915, 22622.41
594.1736, 22594.78
594.6557, 22582.87
595.1378, 22595.15
595.6199, 22610.18
596.1021, 22601.64
596.5842, 22588.46
597.0663, 22597.68
597.5485, 22670.91
598.0306, 22733.42
598.5127, 22761.97
598.9948, 22760.14
599.4769, 22744.47
599.9590, 22696.25
600.4412, 22658.66
600.9233, 22649.06
601.4054, 22669.60
601.8875, 22682.24
602.3696, 22684.26
602.8517, 22684.84
603.3339, 22692.53
603.8160, 22706.70
604.2981, 22719.46
604.7802, 22730.86
605.2623, 22737.00
605.7444, 22721.74
606.2266, 22696.29
606.7087, 22692.26
607.1908, 22743.36
607.6729, 22797.09
608.1550, 22808.63
608.6371, 22787.79
609.1193, 22766.88
609.6014, 22747.34
610.0835, 22740.75
610.5656, 22759.91
611.0477, 22810.98
611.5298, 22842.80
612.0120, 22839.18
612.4941, 22830.24
612.9762, 22838.70
613.4583, 22874.96
613.9404, 22888.88
614.4225, 22872.56
614.9047, 22843.66
615.3868, 22824.81
615.8689, 22815.63
616.3510, 22812.52
616.8331, 22811.17
617.3152, 22819.44
617.7974, 22863.16
618.2795, 22930.92
618.7616, 22980.80
619.2437, 22972.25
619.7258, 22949.85
620.2079, 22945.24
620.6901, 22960.25
621.1722, 22981.87
621.6543, 23020.04
622.1364, 23053.25
622.6185, 23065.06
623.1006, 23039.39
623.5828, 23026.83
624.0649, 23031.14
624.5470, 23045.11
625.0291, 23060.54
625.5112, 23077.09
625.9933, 23097.60
626.4755, 23124.04
626.9576, 23152.39
627.4397, 23179.30
627.9218, 23203.02
628.4039, 23210.32
628.8860, 23170.25
629.3682, 23122.80
629.8503, 23133.25
630.3324, 23193.97
630.8145, 23246.52
631.2966, 23245.80
631.7787, 23231.91
632.2609, 23233.60
632.7430, 23258.60
633.2251, 23283.18
633.7072, 23301.77
634.1893, 23318.54
634.6714, 23338.51
635.1536, 23371.10
635.6357, 23383.54
636.1178, 23363.53
636.5999, 23332.63
637.0820, 23332.98
637.5641, 23365.81
638.0463, 23401.38
638.5284, 23434.82
639.0105, 23461.17
639.4926, 23462.15
639.9747, 23443.18
640.4568, 23435.44
640.9390, 23473.50
641.4211, 23521.25
641.9032, 23544.46
642.3853, 23540.68
642.8674, 23531.62
643.3495, 23512.41
643.8317, 23500.03
644.3138, 23508.89
644.7959, 23568.28
645.2780, 23592.37
645.7601, 23552.59
646.2422, 23502.52
646.7244, 23513.29
647.2065, 23600.73
647.6886, 23663.81
648.1707, 23676.74
648.6528, 23667.39
649.1349, 23703.15
649.6171, 23775.02
650.0992, 23820.64
650.5813, 23784.34
651.0634, 23722.40
651.5455, 23706.02
652.0276, 23727.94
652.5098, 23750.20
652.9919, 23745.47
653.4740, 23740.22
653.9561, 23750.93
654.4382, 23780.84
654.9203, 23817.22
655.4025, 23874.98
655.8846, 23925.39
656.3667, 23945.83
656.8488, 23922.43
657.3309, 23911.19
657.8130, 23916.02
658.2952, 23929.67
658.7773, 23942.20
659.2594, 23954.07
659.7415, 23971.39
660.2236, 24001.37
660.7057, 24028.17
661.1879, 24028.63
661.6700, 24007.15
662.1521, 23975.80
662.6342, 23909.23
663.1163, 23861.61
663.5984, 23882.53
664.0806, 23962.82
664.5627, 24023.52
665.0448, 24036.12
665.5269, 24031.89
666.0090, 24016.52
666.4911, 23983.76
666.9733, 23993.40
667.4554, 24066.13
667.9375, 24140.27
668.4196, 24159.10
