##NAMES=Corkite
##RRUFFID=R070491
##IDEAL CHEMISTRY=Pb^2+^Fe^3+^_3_(S^6+^O_4_)(PO_4_)(OH)_6_
##LOCALITY=Iron Crag, Roughton Gill, Caldbeck Fells, Cumbria (Cumberland), England, United Kingdom
##OWNER=RRUFF
##SOURCE=Bob Jenkins
##DESCRIPTION=Sharp bright yellow prismatic crystals associated with quartz
##STATUS=The identification of this mineral has been confirmed only by single crystal X-ray diffraction.
##URL=rruff.info/R070491
142.9236, 7870.769
143.4057, 8077.438
143.8878, 8255.914
144.3699, 8438.920
144.8521, 8637.061
145.3342, 8835.354
145.8163, 8990.879
146.2984, 9078.452
146.7805, 9157.295
147.2626, 9255.069
147.7448, 9385.271
148.2269, 9511.024
148.7090, 9632.921
149.1911, 9750.674
149.6732, 9855.801
150.1554, 9918.191
150.6375, 9990.414
151.1196, 10100.07
151.6017, 10303.46
152.0838, 10484.96
152.5659, 10618.74
153.0481, 10706.78
153.5302, 10827.07
154.0123, 11015.40
154.4944, 11222.47
154.9765, 11408.46
155.4586, 11570.69
155.9408, 11710.05
156.4229, 11818.00
156.9050, 11841.00
157.3871, 11818.36
157.8692, 11820.79
158.3513, 11832.88
158.8335, 11828.91
159.3156, 11806.32
159.7977, 11766.32
160.2798, 11706.01
160.7619, 11618.78
161.2440, 11534.75
161.7262, 11471.00
162.2083, 11416.49
162.6904, 11350.63
163.1725, 11254.46
163.6546, 11153.21
164.1367, 11062.64
164.6189, 10989.05
165.1010, 10916.65
165.5831, 10827.77
166.0652, 10731.00
166.5473, 10653.04
167.0294, 10627.83
167.5116, 10617.81
167.9937, 10591.03
168.4758, 10530.67
168.9579, 10460.83
169.4400, 10391.48
169.9221, 10323.42
170.4043, 10262.97
170.8864, 10226.16
171.3685, 10195.86
171.8506, 10149.79
172.3327, 10073.34
172.8148, 9983.606
173.2970, 9888.361
173.7791, 9788.110
174.2612, 9699.694
174.7433, 9648.146
175.2254, 9617.820
175.7076, 9579.878
176.1897, 9513.025
176.6718, 9436.803
177.1539, 9374.228
177.6360, 9326.447
178.1181, 9286.133
178.6003, 9249.530
179.0824, 9214.803
179.5645, 9177.815
180.0466, 9115.445
180.5287, 9052.922
181.0108, 9048.786
181.4930, 9118.829
181.9751, 9198.575
182.4572, 9208.597
182.9393, 9156.903
183.4214, 9084.320
183.9035, 8993.106
184.3857, 8898.385
184.8678, 8842.724
185.3499, 8838.625
185.8320, 8859.849
186.3141, 8867.089
186.7962, 8861.246
187.2784, 8856.151
187.7605, 8859.284
188.2426, 8870.396
188.7247, 8891.377
189.2068, 8927.594
189.6889, 8967.655
190.1711, 8980.102
190.6532, 8963.360
191.1353, 8954.501
191.6174, 8993.640
192.0995, 9074.122
192.5816, 9140.653
193.0638, 9174.416
193.5459, 9189.271
194.0280, 9229.789
194.5101, 9299.082
194.9922, 9376.754
195.4743, 9445.917
195.9565, 9505.959
196.4386, 9561.667
196.9207, 9609.604
197.4028, 9653.700
197.8849, 9716.667
198.3671, 9803.229
198.8492, 9895.470
199.3313, 9967.594
199.8134, 10016.57
200.2955, 10083.11
200.7776, 10188.16
201.2598, 10327.83
201.7419, 10444.74
202.2240, 10535.89
202.7061, 10612.75
203.1882, 10690.94
203.6703, 10771.60
204.1525, 10847.36
204.6346, 10914.47
205.1167, 10972.26
205.5988, 11032.17
206.0809, 11093.49
206.5630, 11157.59
207.0452, 11228.42
207.5273, 11308.81
208.0094, 11386.67
208.4915, 11458.66
208.9736, 11524.14
209.4557, 11584.13
209.9379, 11636.73
210.4200, 11686.05
210.9021, 11739.06
211.3842, 11794.87
211.8663, 11857.64
212.3484, 11933.62
212.8306, 12029.98
213.3127, 12105.81
213.7948, 12152.86
214.2769, 12183.72
214.7590, 12234.28
215.2411, 12317.64
215.7233, 12391.03
216.2054, 12425.28
216.6875, 12402.31
217.1696, 12404.27
217.6517, 12446.05
218.1338, 12512.22
218.6160, 12547.55
219.0981, 12537.27
219.5802, 12523.13
220.0623, 12533.38
220.5444, 12585.57
221.0265, 12610.09
221.5087, 12591.58
221.9908, 12541.76
222.4729, 12517.32
222.9550, 12535.28
223.4371, 12552.34
223.9192, 12538.34
224.4014, 12477.61
224.8835, 12427.06
225.3656, 12396.43
225.8477, 12381.57
226.3298, 12358.37
226.8119, 12327.19
227.2941, 12286.61
227.7762, 12232.94
228.2583, 12159.68
228.7404, 12089.58
229.2225, 12028.41
229.7046, 11974.31
230.1868, 11907.41
230.6689, 11819.43
231.1510, 11729.20
231.6331, 11650.37
232.1152, 11588.63
232.5974, 11528.48
233.0795, 11470.30
233.5616, 11413.84
234.0437, 11345.45
234.5258, 11262.85
235.0079, 11171.20
235.4901, 11072.75
235.9722, 10959.96
236.4543, 10856.31
236.9364, 10764.62
237.4185, 10685.01
237.9006, 10619.69
238.3828, 10574.61
238.8649, 10537.50
239.3470, 10497.02
239.8291, 10451.32
240.3112, 10405.05
240.7933, 10359.21
241.2755, 10313.35
241.7576, 10265.50
242.2397, 10211.88
242.7218, 10159.40
243.2039, 10115.82
243.6860, 10087.96
244.1682, 10055.51
244.6503, 10014.34
245.1324, 9964.065
245.6145, 9911.677
246.0966, 9848.854
246.5787, 9792.431
247.0609, 9762.110
247.5430, 9773.634
248.0251, 9781.347
248.5072, 9776.591
248.9893, 9759.177
249.4714, 9734.063
249.9536, 9694.426
250.4357, 9653.714
250.9178, 9627.215
251.3999, 9622.592
251.8820, 9617.167
252.3641, 9605.207
252.8463, 9586.224
253.3284, 9572.104
253.8105, 9565.594
254.2926, 9561.379
254.7747, 9553.501
255.2568, 9539.995
255.7390, 9527.551
256.2211, 9520.771
256.7032, 9520.875
257.1853, 9501.187
257.6674, 9446.116
258.1495, 9389.236
258.6317, 9373.233
259.1138, 9421.956
259.5959, 9455.249
260.0780, 9447.115
260.5601, 9394.367
261.0422, 9366.396
261.5244, 9372.663
262.0065, 9391.583
262.4886, 9399.222
262.9707, 9392.903
263.4528, 9382.021
263.9349, 9364.866
264.4171, 9340.847
264.8992, 9335.398
265.3813, 9354.691
265.8634, 9383.354
266.3455, 9406.423
266.8276, 9425.556
267.3098, 9434.021
267.7919, 9427.129
268.2740, 9405.168
268.7561, 9390.090
269.2382, 9385.147
269.7203, 9382.026
270.2025, 9367.343
270.6846, 9333.795
271.1667, 9318.785
271.6488, 9339.500
272.1309, 9392.850
272.6130, 9416.860
273.0952, 9402.608
273.5773, 9377.886
274.0594, 9376.072
274.5415, 9403.495
275.0236, 9417.463
275.5057, 9402.406
275.9879, 9362.588
276.4700, 9336.555
276.9521, 9324.910
277.4342, 9325.700
277.9163, 9345.755
278.3984, 9389.558
278.8806, 9409.759
279.3627, 9384.994
279.8448, 9326.457
280.3269, 9299.547
280.8090, 9310.301
281.2911, 9332.283
281.7733, 9342.330
282.2554, 9340.100
282.7375, 9330.284
283.2196, 9311.189
283.7017, 9285.566
284.1838, 9265.113
284.6660, 9250.201
285.1481, 9237.429
285.6302, 9223.269
286.1123, 9207.907
286.5944, 9193.759
287.0765, 9178.091
287.5587, 9165.913
288.0408, 9181.178
288.5229, 9227.513
289.0050, 9265.166
289.4871, 9252.297
289.9692, 9196.505
290.4514, 9146.090
290.9335, 9108.644
291.4156, 9084.885
291.8977, 9082.913
292.3798, 9102.600
292.8619, 9122.293
293.3441, 9120.140
293.8262, 9102.198
294.3083, 9093.422
294.7904, 9101.701
295.2726, 9117.083
295.7547, 9123.085
296.2368, 9120.042
296.7189, 9112.705
297.2010, 9100.872
297.6831, 9087.450
298.1653, 9078.758
298.6474, 9074.792
299.1295, 9078.110
299.6116, 9098.773
300.0937, 9133.179
300.5758, 9161.887
301.0580, 9161.527
301.5401, 9148.598
302.0222, 9154.922
302.5043, 9191.591
302.9864, 9233.326
303.4685, 9246.085
303.9507, 9238.154
304.4328, 9238.356
304.9149, 9275.725
305.3970, 9326.359
305.8791, 9359.965
306.3612, 9369.670
306.8434, 9370.568
307.3255, 9370.570
307.8076, 9371.390
308.2897, 9377.212
308.7718, 9386.357
309.2539, 9403.438
309.7361, 9435.830
310.2182, 9486.778
310.7003, 9538.703
311.1824, 9575.207
311.6645, 9603.984
312.1466, 9638.688
312.6288, 9701.547
313.1109, 9761.620
313.5930, 9794.921
314.0751, 9797.243
314.5572, 9795.515
315.0393, 9794.662
315.5215, 9800.753
316.0036, 9821.773
316.4857, 9881.165
316.9678, 9939.725
317.4499, 9973.610
317.9320, 9980.293
318.4142, 9994.854
318.8963, 10034.79
319.3784, 10087.13
319.8605, 10139.52
320.3426, 10191.29
320.8247, 10239.47
321.3069, 10277.98
321.7890, 10307.32
322.2711, 10345.98
322.7532, 10412.87
323.2353, 10482.58
323.7174, 10535.64
324.1996, 10540.04
324.6817, 10557.97
325.1638, 10610.64
325.6459, 10693.44
326.1280, 10760.57
326.6101, 10803.53
327.0923, 10832.40
327.5744, 10852.71
328.0565, 10849.03
328.5386, 10856.35
329.0207, 10879.49
329.5028, 10915.89
329.9850, 10955.51
330.4671, 11006.67
330.9492, 11054.05
331.4313, 11089.64
331.9134, 11091.19
332.3955, 11120.42
332.8777, 11197.76
333.3598, 11298.45
333.8419, 11363.14
334.3240, 11371.13
334.8061, 11374.05
335.2882, 11392.35
335.7704, 11430.69
336.2525, 11469.33
336.7346, 11512.56
337.2167, 11552.40
337.6988, 11574.56
338.1809, 11575.77
338.6631, 11568.49
339.1452, 11557.43
339.6273, 11542.77
340.1094, 11517.61
340.5915, 11480.73
341.0736, 11435.37
341.5558, 11383.78
342.0379, 11323.93
342.5200, 11271.70
343.0021, 11236.28
343.4842, 11213.51
343.9663, 11171.18
344.4485, 11106.20
344.9306, 11038.81
345.4127, 10994.58
345.8948, 10971.22
346.3769, 10942.65
346.8590, 10903.64
347.3412, 10854.87
347.8233, 10791.98
348.3054, 10715.25
348.7875, 10646.65
349.2696, 10611.32
349.7517, 10600.04
350.2339, 10585.33
350.7160, 10566.03
351.1981, 10533.48
351.6802, 10462.82
352.1623, 10360.88
352.6444, 10266.58
353.1266, 10207.52
353.6087, 10171.45
354.0908, 10147.19
354.5729, 10139.20
355.0550, 10121.13
355.5371, 10051.96
356.0193, 9951.950
356.5014, 9871.619
356.9835, 9862.479
357.4656, 9870.619
357.9477, 9845.430
358.4298, 9778.896
358.9120, 9711.310
359.3941, 9668.729
359.8762, 9640.563
360.3583, 9611.547
360.8404, 9570.201
361.3225, 9531.742
361.8047, 9506.921
362.2868, 9495.843
362.7689, 9480.442
363.2510, 9455.126
363.7331, 9421.440
364.2152, 9380.534
364.6974, 9314.473
365.1795, 9260.250
365.6616, 9230.861
366.1437, 9223.130
366.6258, 9215.101
367.1079, 9211.739
367.5901, 9201.363
368.0722, 9177.478
368.5543, 9110.301
369.0364, 9067.086
369.5185, 9063.473
370.0006, 9086.138
370.4828, 9099.469
370.9649, 9099.561
371.4470, 9094.994
371.9291, 9088.106
372.4112, 9077.026
372.8933, 9068.545
373.3755, 9062.908
373.8576, 9059.427
374.3397, 9057.763
374.8218, 9059.386
375.3039, 9058.516
375.7861, 9054.277
376.2682, 9046.626
376.7503, 9026.535
377.2324, 8986.746
377.7145, 8948.990
378.1967, 8940.998
378.6788, 8967.085
379.1609, 8984.412
379.6430, 8979.713
380.1251, 8960.647
380.6072, 8957.244
381.0894, 8971.520
381.5715, 8987.843
382.0536, 8991.295
382.5357, 8984.957
383.0178, 8986.968
383.4999, 9001.697
383.9821, 9023.386
384.4642, 9045.835
384.9463, 9068.326
385.4284, 9084.265
385.9105, 9083.841
386.3926, 9075.438
386.8748, 9073.068
387.3569, 9076.989
387.8390, 9090.792
388.3211, 9129.978
388.8032, 9182.111
389.2853, 9218.336
389.7675, 9211.642
390.2496, 9193.086
390.7317, 9189.100
391.2138, 9200.505
391.6959, 9216.728
392.1780, 9232.906
392.6602, 9250.595
393.1423, 9271.320
393.6244, 9299.913
394.1065, 9327.813
394.5886, 9349.183
395.0707, 9366.104
395.5529, 9388.681
396.0350, 9429.942
396.5171, 9470.985
396.9992, 9498.049
397.4813, 9483.592
397.9634, 9497.215
398.4456, 9577.194
398.9277, 9689.885
399.4098, 9765.179
399.8919, 9755.759
400.3740, 9748.377
400.8561, 9767.772
401.3383, 9819.173
401.8204, 9876.084
402.3025, 9945.809
402.7846, 10015.93
403.2667, 10071.00
403.7488, 10100.74
404.2310, 10137.12
404.7131, 10187.55
405.1952, 10250.49
405.6773, 10316.87
406.1594, 10389.62
406.6415, 10458.82
407.1237, 10513.98
407.6058, 10552.80
408.0879, 10598.60
408.5700, 10654.21
409.0521, 10717.91
409.5342, 10784.85
410.0164, 10854.54
410.4985, 10930.27
410.9806, 11020.98
411.4627, 11120.62
411.9448, 11201.50
412.4269, 11260.68
412.9091, 11313.30
413.3912, 11373.77
413.8733, 11440.89
414.3554, 11510.21
414.8375, 11575.25
415.3196, 11643.41
415.8018, 11728.98
416.2839, 11829.76
416.7660, 11926.75
417.2481, 12003.55
417.7302, 12068.43
418.2123, 12130.61
418.6945, 12196.00
419.1766, 12253.37
419.6587, 12289.67
420.1408, 12311.91
420.6229, 12338.14
421.1050, 12376.89
421.5872, 12420.71
422.0693, 12468.51
422.5514, 12524.17
423.0335, 12569.28
423.5156, 12594.11
423.9977, 12608.10
424.4799, 12623.97
424.9620, 12642.13
425.4441, 12662.45
425.9262, 12683.46
426.4083, 12704.79
426.8904, 12734.53
427.3726, 12786.38
427.8547, 12833.24
428.3368, 12856.95
428.8189, 12855.12
429.3010, 12832.81
429.7831, 12775.77
430.2653, 12705.99
430.7474, 12686.70
431.2295, 12728.24
431.7116, 12786.39
432.1937, 12846.29
432.6758, 12908.29
433.1580, 12956.80
433.6401, 12991.22
434.1222, 13014.10
434.6043, 13018.81
435.0864, 13008.86
435.5685, 13016.86
436.0507, 13062.14
436.5328, 13127.02
437.0149, 13179.59
437.4970, 13219.41
437.9791, 13243.95
438.4612, 13242.23
438.9434, 13225.39
439.4255, 13210.75
439.9076, 13200.66
440.3897, 13196.93
440.8718, 13210.16
441.3539, 13231.72
441.8361, 13241.83
442.3182, 13218.36
442.8003, 13190.95
443.2824, 13180.87
443.7645, 13192.33
444.2466, 13200.81
444.7288, 13199.44
445.2109, 13189.85
445.6930, 13173.57
446.1751, 13155.36
446.6572, 13125.15
447.1393, 13066.29
447.6215, 12985.39
448.1036, 12937.37
448.5857, 12961.12
449.0678, 12980.45
449.5499, 12957.06
450.0320, 12858.38
450.5142, 12798.68
450.9963, 12798.81
451.4784, 12822.35
451.9605, 12806.20
452.4426, 12737.79
452.9247, 12671.05
453.4069, 12620.82
453.8890, 12585.62
454.3711, 12556.78
454.8532, 12535.78
455.3353, 12511.69
455.8174, 12473.29
456.2996, 12421.55
456.7817, 12367.38
457.2638, 12311.93
457.7459, 12255.45
458.2281, 12194.97
458.7102, 12132.35
459.1923, 12074.41
459.6744, 12029.92
460.1565, 11990.89
460.6386, 11951.25
461.1208, 11911.01
461.6029, 11861.62
462.0850, 11791.27
462.5671, 11710.32
463.0492, 11633.25
463.5313, 11561.19
464.0135, 11497.23
464.4956, 11444.25
464.9777, 11401.05
465.4598, 11365.19
465.9419, 11357.62
466.4240, 11340.64
466.9062, 11290.26
467.3883, 11174.99
467.8704, 11085.61
468.3525, 11041.67
468.8346, 11019.64
469.3167, 10986.36
469.7989, 10931.44
470.2810, 10881.82
470.7631, 10848.98
471.2452, 10830.90
471.7273, 10780.96
472.2094, 10683.41
472.6916, 10589.38
473.1737, 10542.64
473.6558, 10546.88
474.1379, 10538.15
474.6200, 10508.89
475.1021, 10467.08
475.5843, 10427.50
476.0664, 10389.66
476.5485, 10344.04
477.0306, 10270.65
477.5127, 10190.06
477.9948, 10156.19
478.4770, 10169.59
478.9591, 10181.43
479.4412, 10138.33
479.9233, 10069.70
480.4054, 10021.99
480.8875, 10015.45
481.3697, 10020.18
481.8518, 10019.54
482.3339, 10014.84
482.8160, 10009.80
483.2981, 10009.39
483.7802, 10006.11
484.2624, 9996.673
484.7445, 9980.949
485.2266, 9958.009
485.7087, 9920.770
486.1908, 9879.540
486.6729, 9844.562
487.1551, 9820.186
487.6372, 9795.941
488.1193, 9766.563
488.6014, 9736.584
489.0835, 9724.593
489.5656, 9740.219
490.0478, 9754.891
490.5299, 9754.384
491.0120, 9736.975
491.4941, 9719.869
491.9762, 9701.759
492.4583, 9687.405
492.9405, 9688.977
493.4226, 9704.305
493.9047, 9703.800
494.3868, 9668.955
494.8689, 9622.830
495.3510, 9612.234
495.8332, 9633.388
496.3153, 9656.771
496.7974, 9661.689
497.2795, 9657.434
497.7616, 9656.975
498.2437, 9663.199
498.7259, 9665.683
499.2080, 9651.920
499.6901, 9631.301
500.1722, 9617.188
500.6543, 9619.370
501.1364, 9623.979
501.6186, 9626.780
502.1007, 9627.995
502.5828, 9629.149
503.0649, 9630.428
503.5470, 9632.298
504.0291, 9634.736
504.5113, 9636.276
504.9934, 9642.564
505.4755, 9655.366
505.9576, 9671.841
506.4397, 9690.272
506.9218, 9714.966
507.4040, 9727.658
507.8861, 9720.101
508.3682, 9697.132
508.8503, 9683.622
509.3324, 9680.387
509.8145, 9678.805
510.2967, 9657.226
510.7788, 9628.122
511.2609, 9659.494
511.7430, 9768.945
512.2252, 9887.260
512.7073, 9938.738
513.1894, 9936.884
513.6715, 9914.130
514.1536, 9858.169
514.6357, 9806.307
515.1179, 9801.065
515.6000, 9834.042
516.0821, 9856.288
516.5642, 9823.313
517.0463, 9785.543
517.5284, 9780.809
518.0106, 9831.164
518.4927, 9871.173
518.9748, 9871.479
519.4569, 9858.947
519.9390, 9869.753
520.4211, 9935.601
520.9033, 9982.512
521.3854, 9991.355
521.8675, 9968.741
522.3496, 9963.356
522.8317, 9982.557
523.3138, 10002.81
523.7960, 10006.99
524.2781, 9993.391
524.7602, 9997.081
525.2423, 10021.84
525.7244, 10055.22
526.2065, 10081.87
526.6887, 10102.75
527.1708, 10124.41
527.6529, 10148.23
528.1350, 10174.35
528.6171, 10205.59
529.0992, 10240.66
529.5814, 10272.28
530.0635, 10285.43
530.5456, 10299.16
531.0277, 10337.65
531.5098, 10409.47
531.9919, 10468.20
532.4741, 10474.68
532.9562, 10464.39
533.4383, 10475.73
533.9204, 10553.61
534.4025, 10612.67
534.8846, 10622.73
535.3668, 10597.96
535.8489, 10596.15
536.3310, 10631.36
536.8131, 10670.58
537.2952, 10702.37
537.7773, 10725.85
538.2595, 10748.67
538.7416, 10768.81
539.2237, 10794.52
539.7058, 10839.60
540.1879, 10903.89
540.6700, 10954.39
541.1522, 10980.65
541.6343, 10997.95
542.1164, 11033.33
542.5985, 11083.54
543.0806, 11133.23
543.5627, 11178.65
544.0449, 11216.19
544.5270, 11238.88
545.0091, 11246.93
545.4912, 11251.89
545.9733, 11251.47
546.4554, 11256.03
546.9376, 11277.00
547.4197, 11333.25
547.9018, 11377.64
548.3839, 11391.98
548.8660, 11387.39
549.3481, 11384.47
549.8303, 11394.16
550.3124, 11394.64
550.7945, 11374.09
551.2766, 11335.21
551.7587, 11323.39
552.2408, 11345.83
552.7230, 11380.19
553.2051, 11417.74
553.6872, 11459.37
554.1693, 11480.00
554.6514, 11475.36
555.1335, 11458.74
555.6157, 11442.08
556.0978, 11427.22
556.5799, 11424.39
557.0620, 11447.36
557.5441, 11473.15
558.0262, 11470.28
558.5084, 11443.16
558.9905, 11411.61
559.4726, 11377.14
559.9547, 11348.94
560.4368, 11336.00
560.9189, 11341.48
561.4011, 11348.30
561.8832, 11348.91
562.3653, 11349.77
562.8474, 11356.65
563.3295, 11381.44
563.8116, 11398.19
564.2938, 11404.89
564.7759, 11403.09
565.2580, 11393.68
565.7401, 11368.62
566.2222, 11356.84
566.7043, 11377.79
567.1865, 11424.80
567.6686, 11424.67
568.1507, 11370.02
568.6328, 11321.25
569.1149, 11345.08
569.5970, 11417.08
570.0792, 11452.09
570.5613, 11433.58
571.0434, 11397.14
571.5255, 11372.25
572.0076, 11356.02
572.4897, 11342.54
572.9719, 11333.83
573.4540, 11323.33
573.9361, 11305.52
574.4182, 11282.12
574.9003, 11261.20
575.3824, 11248.45
575.8646, 11235.81
576.3467, 11219.51
576.8288, 11198.49
577.3109, 11178.32
577.7930, 11162.48
578.2751, 11144.44
578.7573, 11116.63
579.2394, 11075.39
579.7215, 11040.58
580.2036, 11014.24
580.6857, 10995.63
581.1678, 10988.96
581.6500, 10993.20
582.1321, 10985.45
582.6142, 10943.47
583.0963, 10888.73
583.5784, 10863.58
584.0605, 10865.52
584.5427, 10871.17
585.0248, 10870.80
585.5069, 10862.73
585.9890, 10841.27
586.4711, 10799.90
586.9532, 10768.36
587.4354, 10766.76
587.9175, 10778.11
588.3996, 10783.46
588.8817, 10779.65
589.3638, 10768.96
589.8459, 10742.93
590.3281, 10710.29
590.8102, 10700.43
591.2923, 10724.63
591.7744, 10744.90
592.2565, 10742.74
592.7386, 10720.55
593.2208, 10719.48
593.7029, 10743.13
594.1850, 10762.93
594.6671, 10749.96
595.1492, 10713.25
595.6313, 10677.30
596.1135, 10643.60
596.5956, 10619.65
597.0777, 10621.64
597.5598, 10636.93
598.0419, 10643.45
598.5240, 10622.65
599.0062, 10601.56
599.4883, 10594.92
599.9704, 10598.89
600.4525, 10598.69
600.9346, 10592.61
601.4167, 10579.77
601.8989, 10555.15
602.3810, 10515.70
602.8631, 10494.86
603.3452, 10501.03
603.8273, 10512.28
604.3094, 10512.66
604.7916, 10501.60
605.2737, 10479.52
605.7558, 10440.58
606.2379, 10405.00
606.7200, 10407.29
607.2021, 10439.93
607.6843, 10468.73
608.1664, 10481.45
608.6485, 10485.23
609.1306, 10492.47
609.6127, 10499.17
610.0948, 10490.78
610.5770, 10435.34
611.0591, 10381.93
611.5412, 10362.97
612.0233, 10383.47
612.5054, 10410.31
612.9875, 10446.67
613.4697, 10480.47
613.9518, 10504.06
614.4339, 10520.78
614.9160, 10517.89
615.3981, 10484.25
615.8802, 10443.08
616.3624, 10432.29
616.8445, 10454.55
617.3266, 10475.30
617.8087, 10486.48
618.2908, 10489.64
618.7729, 10484.93
619.2551, 10473.74
619.7372, 10464.34
620.2193, 10463.45
620.7014, 10465.54
621.1835, 10469.26
621.6656, 10473.90
622.1478, 10463.91
622.6299, 10408.48
623.1120, 10350.32
623.5941, 10324.15
624.0762, 10357.38
624.5583, 10377.19
625.0405, 10373.05
625.5226, 10354.65
626.0047, 10331.25
626.4868, 10300.77
626.9689, 10269.81
627.4510, 10236.64
627.9332, 10205.47
628.4153, 10190.31
628.8974, 10191.26
629.3795, 10191.67
629.8616, 10186.94
630.3438, 10174.91
630.8259, 10145.06
631.3080, 10099.39
631.7901, 10060.07
632.2722, 10050.89
632.7543, 10050.58
633.2365, 10038.22
633.7186, 10008.96
634.2007, 9978.659
634.6828, 9951.733
635.1649, 9927.351
635.6470, 9904.944
636.1292, 9878.789
636.6113, 9863.405
637.0934, 9863.100
637.5755, 9872.188
638.0576, 9882.168
638.5397, 9895.339
