##NAMES=Corkite
##RRUFFID=R050522
##IDEAL CHEMISTRY=Pb^2+^Fe^3+^_3_(S^6+^O_4_)(PO_4_)(OH)_6_
##LOCALITY=near Dernbach, Nassau, Germany
##OWNER=RRUFF
##SOURCE=University of Arizona Mineral Museum
##DESCRIPTION=Black pseudo-cubo-octahedral single crystals, associated with reniform goethite balls
##STATUS=The identification of this mineral is confirmed by single-crystal X-ray diffraction and chemical analysis.
##URL=rruff.info/R050522
##MEASURED CHEMISTRY=Pb_1.00_(Fe^3+^_2.80_Fe^2+^_0.15_Al_0.05_)_Σ=3_[(S_0.58_P_0.42_)_Σ=1_O_4_]_2_(OH)_6_
152.6473, 2328.634
153.1294, 2332.472
153.6115, 2331.042
154.0937, 2319.825
154.5758, 2301.423
155.0579, 2283.468
155.5400, 2260.240
156.0221, 2244.164
156.5042, 2241.379
156.9864, 2246.391
157.4685, 2249.390
157.9506, 2245.096
158.4327, 2238.406
158.9148, 2246.025
159.3969, 2278.518
159.8791, 2307.858
160.3612, 2325.426
160.8433, 2335.164
161.3254, 2344.752
161.8075, 2358.068
162.2896, 2372.385
162.7718, 2379.950
163.2539, 2382.422
163.7360, 2377.833
164.2181, 2361.229
164.7002, 2336.761
165.1823, 2314.603
165.6645, 2299.532
166.1466, 2288.537
166.6287, 2273.446
167.1108, 2248.787
167.5929, 2230.961
168.0750, 2233.962
168.5572, 2250.354
169.0393, 2256.833
169.5214, 2240.856
170.0035, 2213.933
170.4856, 2199.273
170.9677, 2198.709
171.4499, 2203.548
171.9320, 2209.159
172.4141, 2216.514
172.8962, 2230.684
173.3783, 2258.016
173.8604, 2287.910
174.3426, 2301.464
174.8247, 2293.133
175.3068, 2288.695
175.7889, 2304.390
176.2710, 2336.924
176.7531, 2372.346
177.2353, 2407.501
177.7174, 2442.104
178.1995, 2474.848
178.6816, 2504.645
179.1637, 2537.516
179.6458, 2578.392
180.1279, 2626.130
180.6101, 2674.561
181.0922, 2721.231
181.5743, 2769.423
182.0564, 2822.615
182.5385, 2881.058
183.0206, 2941.689
183.5028, 3001.759
183.9849, 3062.060
184.4670, 3126.069
184.9491, 3194.097
185.4312, 3266.829
185.9133, 3342.843
186.3955, 3422.114
186.8776, 3507.026
187.3597, 3605.740
187.8418, 3714.512
188.3239, 3808.967
188.8060, 3874.035
189.2882, 3935.577
189.7703, 4014.870
190.2524, 4111.003
190.7345, 4212.205
191.2166, 4310.091
191.6987, 4405.889
192.1809, 4505.049
192.6630, 4609.430
193.1451, 4717.087
193.6272, 4831.181
194.1093, 4949.636
194.5914, 5058.363
195.0736, 5140.981
195.5557, 5202.714
196.0378, 5276.802
196.5199, 5373.362
197.0020, 5473.384
197.4841, 5565.492
197.9663, 5650.581
198.4484, 5731.245
198.9305, 5812.713
199.4126, 5892.292
199.8947, 5957.826
200.3768, 6004.571
200.8590, 6041.758
201.3411, 6079.822
201.8232, 6114.666
202.3053, 6136.036
202.7874, 6137.920
203.2695, 6121.408
203.7517, 6088.623
204.2338, 6028.114
204.7159, 5970.077
205.1980, 5936.485
205.6801, 5914.814
206.1622, 5880.841
206.6444, 5817.799
207.1265, 5734.376
207.6086, 5656.888
208.0907, 5586.770
208.5728, 5520.367
209.0549, 5462.400
209.5371, 5405.358
210.0192, 5336.635
210.5013, 5245.526
210.9834, 5143.868
211.4655, 5062.047
211.9476, 5011.761
212.4298, 4955.329
212.9119, 4869.565
213.3940, 4773.455
213.8761, 4689.870
214.3582, 4629.180
214.8403, 4581.481
215.3225, 4530.167
215.8046, 4474.578
216.2867, 4417.574
216.7688, 4356.061
217.2509, 4295.425
217.7330, 4240.627
218.2152, 4193.293
218.6973, 4151.649
219.1794, 4114.066
219.6615, 4081.851
220.1436, 4048.701
220.6257, 4009.586
221.1079, 3970.991
221.5900, 3940.086
222.0721, 3918.915
222.5542, 3896.251
223.0363, 3857.402
223.5184, 3799.948
224.0006, 3743.360
224.4827, 3691.917
224.9648, 3641.902
225.4469, 3590.939
225.9290, 3539.038
226.4111, 3486.344
226.8933, 3431.154
227.3754, 3373.168
227.8575, 3324.230
228.3396, 3293.981
228.8217, 3265.844
229.3038, 3230.437
229.7859, 3187.723
230.2681, 3141.237
230.7502, 3094.946
231.2323, 3048.218
231.7144, 2992.475
232.1965, 2915.927
232.6786, 2844.253
233.1608, 2793.910
233.6429, 2760.419
234.1250, 2728.939
234.6071, 2687.250
235.0892, 2639.368
235.5714, 2605.027
236.0535, 2593.212
236.5356, 2579.231
237.0177, 2545.732
237.4998, 2501.419
237.9819, 2462.289
238.4641, 2437.558
238.9462, 2422.063
239.4283, 2404.916
239.9104, 2386.266
240.3925, 2365.656
240.8746, 2341.621
241.3568, 2316.039
241.8389, 2290.578
242.3210, 2264.832
242.8031, 2241.094
243.2852, 2223.451
243.7673, 2213.013
244.2495, 2202.795
244.7316, 2192.178
245.2137, 2179.177
245.6958, 2160.083
246.1779, 2132.260
246.6600, 2104.854
247.1422, 2088.570
247.6243, 2083.419
248.1064, 2075.608
248.5885, 2057.191
249.0706, 2037.544
249.5527, 2026.773
250.0349, 2026.179
250.5170, 2026.649
250.9991, 2022.767
251.4812, 2014.761
251.9633, 2003.209
252.4454, 1985.252
252.9276, 1967.860
253.4097, 1959.743
253.8918, 1959.934
254.3739, 1956.867
254.8560, 1939.517
255.3381, 1915.272
255.8203, 1903.328
256.3024, 1909.474
256.7845, 1918.389
257.2666, 1916.170
257.7487, 1905.637
258.2308, 1894.547
258.7130, 1882.882
259.1951, 1872.932
259.6772, 1870.734
260.1593, 1877.869
260.6414, 1879.756
261.1235, 1859.174
261.6057, 1825.996
262.0878, 1808.307
262.5699, 1821.913
263.0520, 1841.875
263.5341, 1847.904
264.0162, 1841.225
264.4984, 1832.949
264.9805, 1827.107
265.4626, 1824.523
265.9447, 1827.324
266.4268, 1842.639
266.9089, 1851.237
267.3911, 1836.837
267.8732, 1807.708
268.3553, 1786.465
268.8374, 1782.000
269.3195, 1787.643
269.8016, 1792.544
270.2838, 1797.948
270.7659, 1799.117
271.2480, 1792.464
271.7301, 1781.667
272.2122, 1771.294
272.6943, 1762.289
273.1765, 1754.499
273.6586, 1747.262
274.1407, 1740.016
274.6228, 1737.379
275.1049, 1744.420
275.5870, 1752.891
276.0692, 1755.645
276.5513, 1752.405
277.0334, 1747.781
277.5155, 1746.007
277.9976, 1747.188
278.4797, 1743.406
278.9619, 1729.215
279.4440, 1716.039
279.9261, 1710.405
280.4082, 1710.182
280.8903, 1709.225
281.3724, 1703.744
281.8546, 1694.895
282.3367, 1688.516
282.8188, 1688.005
283.3009, 1685.782
283.7830, 1677.415
284.2651, 1667.740
284.7473, 1664.284
285.2294, 1669.887
285.7115, 1679.008
286.1936, 1680.398
286.6757, 1666.649
287.1578, 1656.719
287.6400, 1654.324
288.1221, 1652.987
288.6042, 1646.045
289.0863, 1633.447
289.5684, 1622.191
290.0505, 1621.269
290.5327, 1633.997
291.0148, 1641.746
291.4969, 1640.468
291.9790, 1638.471
292.4611, 1638.405
292.9432, 1640.494
293.4254, 1644.326
293.9075, 1649.863
294.3896, 1656.890
294.8717, 1663.053
295.3538, 1668.931
295.8359, 1673.032
296.3181, 1674.160
296.8002, 1673.695
297.2823, 1673.106
297.7644, 1672.955
298.2465, 1673.561
298.7286, 1676.268
299.2108, 1683.070
299.6929, 1686.619
300.1750, 1678.797
300.6571, 1671.537
301.1392, 1675.578
301.6213, 1692.550
302.1035, 1711.853
302.5855, 1721.718
303.0677, 1721.824
303.5498, 1723.430
304.0319, 1730.637
304.5140, 1736.347
304.9961, 1733.412
305.4782, 1724.238
305.9604, 1719.052
306.4425, 1727.956
306.9246, 1745.354
307.4067, 1755.115
307.8888, 1755.384
308.3709, 1752.033
308.8531, 1747.159
309.3352, 1741.374
309.8173, 1735.291
310.2994, 1726.969
310.7815, 1720.716
311.2636, 1722.669
311.7458, 1732.483
312.2279, 1741.713
312.7100, 1746.687
313.1921, 1749.050
313.6742, 1753.089
314.1563, 1761.086
314.6385, 1764.021
315.1206, 1750.956
315.6027, 1730.238
316.0848, 1722.049
316.5669, 1733.340
317.0490, 1750.413
317.5312, 1754.971
318.0133, 1745.630
318.4954, 1740.322
318.9775, 1745.087
319.4596, 1752.360
319.9417, 1755.258
320.4239, 1753.531
320.9060, 1751.028
321.3881, 1750.590
321.8702, 1752.175
322.3523, 1754.228
322.8344, 1756.869
323.3166, 1759.744
323.7987, 1761.651
324.2808, 1763.840
324.7629, 1769.321
325.2450, 1779.714
325.7271, 1792.376
326.2093, 1800.783
326.6914, 1801.310
327.1735, 1802.082
327.6556, 1800.699
328.1377, 1801.106
328.6198, 1807.524
329.1020, 1820.203
329.5841, 1835.133
330.0662, 1848.036
330.5483, 1858.838
331.0304, 1867.994
331.5125, 1875.100
331.9947, 1881.042
332.4768, 1884.264
332.9589, 1886.601
333.4410, 1892.027
333.9231, 1903.700
334.4052, 1919.583
334.8874, 1931.992
335.3695, 1940.301
335.8516, 1945.950
336.3337, 1944.254
336.8158, 1942.954
337.2979, 1951.376
337.7801, 1972.643
338.2622, 1996.717
338.7443, 2010.584
339.2264, 2013.770
339.7085, 2020.188
340.1906, 2035.208
340.6728, 2051.029
341.1549, 2061.035
341.6370, 2065.962
342.1191, 2071.222
342.6012, 2080.821
343.0833, 2092.552
343.5655, 2101.245
344.0476, 2106.075
344.5297, 2110.799
345.0118, 2118.228
345.4939, 2127.440
345.9760, 2136.030
346.4582, 2143.943
346.9403, 2150.991
347.4224, 2156.786
347.9045, 2161.518
348.3866, 2166.251
348.8687, 2171.839
349.3509, 2176.752
349.8330, 2177.617
350.3151, 2173.848
350.7972, 2168.776
351.2793, 2161.032
351.7614, 2153.338
352.2436, 2147.385
352.7257, 2143.824
353.2078, 2145.237
353.6899, 2156.256
354.1720, 2179.094
354.6541, 2184.646
355.1363, 2158.787
355.6184, 2134.018
356.1005, 2125.432
356.5826, 2126.404
357.0647, 2123.120
357.5468, 2108.183
358.0290, 2086.311
358.5111, 2071.580
358.9932, 2072.635
359.4753, 2065.646
359.9574, 2042.920
360.4395, 2016.683
360.9217, 1995.661
361.4038, 1981.305
361.8859, 1970.116
362.3680, 1958.342
362.8501, 1945.873
363.3322, 1936.823
363.8144, 1936.381
364.2965, 1932.734
364.7786, 1919.219
365.2607, 1899.432
365.7428, 1880.051
366.2249, 1864.638
366.7071, 1850.633
367.1892, 1833.693
367.6713, 1813.380
368.1534, 1793.603
368.6355, 1775.420
369.1176, 1758.596
369.5998, 1742.027
370.0819, 1725.340
370.5640, 1711.417
371.0461, 1703.131
371.5282, 1698.433
372.0103, 1692.921
372.4925, 1685.698
372.9746, 1678.843
373.4567, 1675.115
373.9388, 1674.275
374.4209, 1669.921
374.9030, 1660.042
375.3852, 1648.165
375.8673, 1634.537
376.3494, 1620.480
376.8315, 1609.571
377.3136, 1603.828
377.7957, 1601.588
378.2779, 1598.439
378.7600, 1596.315
379.2421, 1590.325
379.7242, 1575.513
380.2063, 1559.968
380.6884, 1551.525
381.1706, 1550.454
381.6527, 1550.624
382.1348, 1545.242
382.6169, 1533.776
383.0990, 1527.261
383.5811, 1528.908
384.0633, 1532.503
384.5454, 1539.313
385.0275, 1546.309
385.5096, 1548.732
385.9917, 1544.036
386.4738, 1536.250
386.9560, 1532.198
387.4381, 1532.427
387.9202, 1533.562
388.4023, 1533.417
388.8844, 1535.394
389.3665, 1542.943
389.8487, 1555.747
390.3308, 1568.698
390.8129, 1579.044
391.2950, 1587.452
391.7771, 1594.701
392.2592, 1600.366
392.7414, 1607.982
393.2235, 1621.840
393.7056, 1639.143
394.1877, 1651.162
394.6698, 1654.201
395.1519, 1656.502
395.6341, 1659.038
396.1162, 1664.285
396.5983, 1679.903
397.0804, 1709.094
397.5625, 1741.404
398.0446, 1761.205
398.5268, 1762.691
399.0089, 1769.285
399.4910, 1782.063
399.9731, 1798.754
400.4552, 1820.258
400.9373, 1844.633
401.4194, 1866.858
401.9016, 1883.031
402.3837, 1895.857
402.8658, 1917.547
403.3479, 1951.607
403.8300, 1989.578
404.3121, 2036.400
404.7943, 2082.478
405.2764, 2117.303
405.7585, 2140.270
406.2406, 2163.377
406.7227, 2201.141
407.2048, 2252.788
407.6870, 2297.881
408.1691, 2332.331
408.6512, 2366.263
409.1333, 2403.149
409.6154, 2443.595
410.0975, 2489.781
410.5797, 2544.452
411.0618, 2601.835
411.5439, 2655.651
412.0260, 2706.489
412.5081, 2757.598
412.9902, 2809.742
413.4724, 2863.157
413.9545, 2918.710
414.4366, 2977.078
414.9187, 3033.043
415.4008, 3086.424
415.8829, 3137.001
416.3651, 3182.118
416.8472, 3223.456
417.3293, 3269.138
417.8114, 3325.932
418.2935, 3390.615
418.7756, 3443.659
419.2578, 3478.070
419.7399, 3509.079
420.2220, 3541.672
420.7041, 3569.258
421.1862, 3582.613
421.6683, 3581.349
422.1505, 3576.254
422.6326, 3578.888
423.1147, 3589.588
423.5968, 3603.343
424.0789, 3624.264
424.5610, 3643.059
425.0432, 3656.124
425.5253, 3664.974
426.0074, 3670.525
426.4895, 3670.946
426.9716, 3674.432
427.4537, 3696.539
427.9359, 3736.109
428.4180, 3762.075
428.9001, 3758.142
429.3822, 3750.432
429.8643, 3772.323
430.3464, 3821.135
430.8286, 3862.146
431.3107, 3884.422
431.7928, 3896.187
432.2749, 3902.035
432.7570, 3903.622
433.2391, 3907.577
433.7213, 3918.556
434.2034, 3932.916
434.6855, 3938.802
435.1676, 3927.899
435.6497, 3920.231
436.1318, 3922.075
436.6140, 3924.063
437.0961, 3918.225
437.5782, 3903.895
438.0603, 3885.656
438.5424, 3868.795
439.0245, 3852.514
439.5067, 3822.865
439.9888, 3769.958
440.4709, 3718.022
440.9530, 3672.205
441.4351, 3630.995
441.9172, 3592.806
442.3994, 3557.395
442.8815, 3523.618
443.3636, 3490.340
443.8457, 3457.659
444.3278, 3427.055
444.8099, 3400.262
445.2921, 3371.816
445.7742, 3335.247
446.2563, 3293.100
446.7384, 3252.337
447.2205, 3214.464
447.7026, 3178.373
448.1848, 3142.771
448.6669, 3108.438
449.1490, 3080.285
449.6311, 3060.842
450.1132, 3040.457
450.5953, 3002.380
451.0775, 2936.052
451.5596, 2883.404
452.0417, 2852.729
452.5238, 2826.613
453.0059, 2798.401
453.4880, 2767.089
453.9702, 2733.264
454.4523, 2697.509
454.9344, 2658.537
455.4165, 2611.174
455.8986, 2548.536
456.3807, 2496.626
456.8629, 2473.594
457.3450, 2452.283
457.8271, 2416.548
458.3092, 2366.573
458.7913, 2312.654
459.2734, 2257.358
459.7556, 2203.338
460.2377, 2155.703
460.7198, 2115.120
461.2019, 2075.218
461.6840, 2032.279
462.1661, 1989.101
462.6483, 1950.904
463.1304, 1918.825
463.6125, 1888.496
464.0946, 1855.550
464.5767, 1825.579
465.0588, 1809.977
465.5410, 1806.932
466.0231, 1796.992
466.5052, 1763.130
466.9873, 1708.637
467.4694, 1664.859
467.9515, 1636.343
468.4337, 1613.340
468.9158, 1594.661
469.3979, 1580.956
469.8800, 1576.196
470.3621, 1579.465
470.8442, 1580.885
471.3264, 1569.722
471.8085, 1547.129
472.2906, 1522.913
472.7727, 1493.234
473.2548, 1470.634
473.7369, 1469.699
474.2191, 1477.728
474.7012, 1477.249
475.1833, 1463.074
475.6654, 1446.843
476.1475, 1436.734
476.6296, 1429.666
477.1118, 1418.344
477.5939, 1401.241
478.0760, 1384.388
478.5581, 1372.904
479.0402, 1366.884
479.5223, 1364.193
480.0045, 1367.797
480.4866, 1370.725
480.9687, 1370.797
481.4508, 1369.171
481.9329, 1367.599
482.4150, 1366.517
482.8972, 1364.813
483.3793, 1360.767
483.8614, 1354.119
484.3435, 1348.339
484.8256, 1345.293
485.3077, 1340.520
485.7899, 1328.600
486.2720, 1315.039
486.7541, 1309.050
487.2362, 1314.899
487.7183, 1323.442
488.2004, 1325.112
488.6826, 1322.322
489.1647, 1325.443
489.6468, 1337.872
490.1289, 1350.120
490.6110, 1352.724
491.0931, 1345.594
491.5753, 1341.126
492.0574, 1342.791
492.5395, 1343.234
493.0216, 1336.366
493.5037, 1327.401
493.9858, 1326.213
494.4680, 1335.254
494.9501, 1345.185
495.4322, 1342.100
495.9143, 1322.971
496.3964, 1313.412
496.8785, 1322.746
497.3607, 1331.259
497.8428, 1332.725
498.3249, 1329.384
498.8070, 1323.482
499.2891, 1314.907
499.7712, 1308.713
500.2533, 1312.871
500.7354, 1324.805
501.2176, 1330.595
501.6997, 1326.333
502.1818, 1321.499
502.6639, 1324.591
503.1460, 1334.631
503.6281, 1342.309
504.1103, 1347.048
504.5924, 1349.802
505.0745, 1349.061
505.5566, 1347.234
506.0387, 1348.455
506.5208, 1353.550
507.0030, 1359.066
507.4851, 1360.680
507.9672, 1357.942
508.4493, 1357.526
508.9314, 1360.959
509.4135, 1364.950
509.8957, 1367.770
510.3778, 1371.014
510.8599, 1377.415
511.3420, 1387.806
511.8241, 1397.798
512.3063, 1400.328
512.7884, 1398.577
513.2705, 1407.339
513.7526, 1430.626
514.2347, 1451.611
514.7169, 1457.162
515.1990, 1451.060
515.6811, 1450.439
516.1632, 1457.926
516.6453, 1466.893
517.1274, 1476.353
517.6096, 1485.670
518.0917, 1494.129
518.5738, 1501.620
519.0559, 1508.453
519.5380, 1514.606
520.0201, 1520.336
520.5023, 1528.781
520.9844, 1542.445
521.4665, 1554.670
521.9486, 1562.372
522.4307, 1569.373
522.9128, 1579.019
523.3950, 1591.754
523.8771, 1605.717
524.3592, 1618.782
524.8413, 1632.496
525.3234, 1653.145
525.8055, 1681.427
526.2877, 1701.802
526.7698, 1703.507
527.2519, 1695.227
527.7340, 1698.050
528.2161, 1715.289
528.6982, 1732.653
529.1804, 1744.518
529.6625, 1758.760
530.1446, 1785.441
530.6267, 1820.633
531.1088, 1850.480
531.5909, 1866.224
532.0731, 1872.476
532.5552, 1881.245
533.0373, 1893.542
533.5194, 1905.277
534.0015, 1915.387
534.4836, 1925.220
534.9658, 1934.065
535.4479, 1943.033
535.9300, 1956.304
536.4121, 1980.301
536.8942, 2004.626
537.3763, 2015.541
537.8585, 2016.548
538.3406, 2023.117
538.8227, 2041.209
539.3048, 2059.755
539.7869, 2063.406
540.2690, 2048.117
540.7512, 2043.292
541.2333, 2050.565
541.7154, 2065.261
542.1975, 2097.546
542.6796, 2131.631
543.1617, 2142.920
543.6439, 2124.512
544.1260, 2097.714
544.6081, 2088.712
545.0902, 2096.728
545.5723, 2101.624
546.0544, 2102.296
546.5366, 2101.204
547.0187, 2098.553
547.5008, 2095.321
547.9829, 2093.408
548.4650, 2094.125
548.9471, 2092.890
549.4292, 2088.411
549.9113, 2080.391
550.3934, 2065.962
550.8755, 2046.217
551.3577, 2029.046
551.8398, 2019.820
552.3219, 2017.486
552.8040, 2018.099
553.2861, 2026.922
553.7682, 2029.417
554.2504, 2018.029
554.7325, 2006.301
555.2146, 2004.109
555.6967, 2009.851
556.1788, 2014.750
556.6609, 2012.673
557.1431, 2008.601
557.6252, 2011.278
558.1073, 2020.053
558.5894, 2025.980
559.0715, 2025.109
559.5536, 2024.262
560.0358, 2034.778
560.5179, 2058.960
561.0000, 2063.999
561.4821, 2024.510
561.9642, 1993.189
562.4464, 2001.242
562.9285, 2028.135
563.4106, 2043.193
563.8927, 2037.588
564.3748, 2024.685
564.8569, 2020.190
565.3391, 2023.792
565.8212, 2022.738
566.3033, 2016.185
566.7854, 2006.701
567.2675, 1995.263
567.7496, 1981.450
568.2318, 1962.950
568.7139, 1938.278
569.1960, 1917.731
569.6781, 1913.194
570.1602, 1910.885
570.6423, 1892.603
571.1245, 1859.710
571.6066, 1825.242
572.0887, 1796.073
572.5708, 1771.618
573.0529, 1751.245
573.5350, 1737.374
574.0172, 1722.175
574.4993, 1702.773
574.9814, 1684.848
575.4635, 1671.859
575.9456, 1662.194
576.4277, 1653.540
576.9099, 1646.546
577.3920, 1634.998
577.8741, 1605.552
578.3562, 1564.723
578.8383, 1540.999
579.3204, 1541.407
579.8026, 1543.944
580.2847, 1530.547
580.7668, 1503.635
581.2489, 1482.695
581.7310, 1468.350
582.2131, 1458.151
582.6953, 1454.503
583.1774, 1452.950
583.6595, 1450.359
584.1416, 1446.048
584.6237, 1439.570
585.1058, 1429.350
585.5880, 1418.567
586.0701, 1417.991
586.5522, 1429.848
587.0343, 1433.220
587.5164, 1419.266
587.9985, 1399.886
588.4807, 1385.439
588.9628, 1375.645
589.4449, 1370.075
589.9270, 1374.286
590.4091, 1376.756
590.8912, 1368.903
591.3734, 1356.000
591.8555, 1347.390
592.3376, 1345.050
592.8197, 1343.053
593.3018, 1333.958
593.7839, 1318.719
594.2661, 1313.929
594.7482, 1326.151
595.2303, 1335.663
595.7124, 1334.902
596.1945, 1329.859
596.6766, 1324.599
597.1588, 1319.516
597.6409, 1315.298
598.1230, 1313.129
598.6051, 1311.303
599.0872, 1305.670
599.5693, 1298.542
600.0515, 1298.707
600.5336, 1309.766
601.0157, 1325.612
601.4978, 1337.703
601.9799, 1345.499
602.4620, 1352.569
602.9442, 1359.197
603.4263, 1364.628
603.9084, 1368.411
604.3905, 1371.053
604.8726, 1371.929
605.3547, 1371.005
605.8369, 1373.244
606.3190, 1386.289
606.8011, 1403.273
607.2832, 1410.288
607.7653, 1407.531
608.2474, 1405.327
608.7296, 1407.898
609.2117, 1415.366
609.6938, 1428.339
610.1759, 1449.070
610.6580, 1468.971
611.1401, 1489.360
611.6223, 1507.525
612.1044, 1521.044
612.5865, 1531.976
613.0686, 1541.855
613.5507, 1551.135
614.0328, 1565.129
614.5150, 1592.236
614.9971, 1628.418
615.4792, 1661.740
615.9613, 1692.012
616.4434, 1712.133
616.9255, 1715.200
617.4077, 1708.816
617.8898, 1711.153
618.3719, 1728.924
618.8540, 1739.513
619.3361, 1735.495
619.8182, 1730.496
620.3004, 1736.611
620.7825, 1746.630
621.2646, 1745.583
621.7467, 1727.298
622.2288, 1700.909
622.7109, 1676.984
623.1931, 1654.981
623.6752, 1631.634
624.1573, 1606.955
624.6394, 1579.026
625.1215, 1544.928
625.6036, 1507.674
626.0858, 1475.762
626.5679, 1451.358
627.0500, 1425.281
627.5321, 1393.412
628.0142, 1362.120
628.4963, 1336.707
628.9785, 1315.293
629.4606, 1293.149
629.9427, 1268.079
630.4248, 1243.304
630.9069, 1225.510
631.3890, 1213.937
631.8712, 1194.523
632.3533, 1162.633
632.8354, 1134.842
633.3175, 1122.956
633.7996, 1120.665
634.2817, 1112.408
634.7639, 1096.115
635.2460, 1079.864
635.7281, 1061.308
636.2102, 1046.841
636.6923, 1044.842
637.1744, 1050.434
637.6566, 1052.009
638.1387, 1044.333
638.6208, 1031.448
639.1029, 1017.920
639.5850, 1003.775
640.0671, 993.5043
640.5493, 988.3030
641.0314, 984.0905
641.5135, 978.0872
641.9956, 971.9637
642.4777, 970.0574
642.9598, 975.2328
643.4420, 975.6231
643.9241, 962.9933
644.4062, 949.9177
644.8883, 948.0269
645.3704, 952.7238
645.8525, 951.8153
