##NAMES=Cornetite
##RRUFFID=R050151
##IDEAL CHEMISTRY=Cu^2+^_3_P^5+^O_4_(OH)_3_
##LOCALITY=Manto Russo, El Salado, Chile
##OWNER=RRUFF
##SOURCE=Jim McGlasson
##DESCRIPTION=Druse of blue short prismatic crystals
##STATUS=The identification of this mineral has been confirmed by X-ray diffraction and chemical analysis
##URL=rruff.info/R050151
##MEASURED CHEMISTRY=Cu_3.00_P_1.00_O_4_(OH)_3_
93.74609, 26.18287
94.22821, 24.80738
94.71033, 25.77559
95.19244, 28.55099
95.67456, 31.19075
96.15668, 32.63553
96.63879, 33.34377
97.12091, 34.87152
97.60303, 37.29093
98.08514, 40.28252
98.56726, 43.40910
99.04938, 46.68196
99.53149, 50.16254
100.0136, 53.80688
100.4957, 57.59370
100.9778, 61.75734
101.4600, 66.20797
101.9421, 71.10023
102.4242, 76.53559
102.9063, 82.35243
103.3884, 89.25438
103.8705, 98.12524
104.3527, 110.4136
104.8348, 120.5837
105.3169, 128.2669
105.7990, 133.4998
106.2811, 136.7770
106.7632, 136.7038
107.2454, 136.0894
107.7275, 137.0257
108.2096, 140.0206
108.6917, 143.9123
109.1738, 148.9429
109.6559, 155.3739
110.1381, 160.9135
110.6202, 165.5314
111.1023, 169.3002
111.5844, 172.3069
112.0665, 173.7835
112.5486, 175.2612
113.0308, 176.6422
113.5129, 177.3312
113.9950, 180.2511
114.4771, 187.3236
114.9592, 196.5461
115.4413, 205.1340
115.9235, 211.9128
116.4056, 218.2726
116.8877, 224.4277
117.3698, 229.7000
117.8519, 236.6658
118.3340, 247.3279
118.8162, 260.4671
119.2983, 273.1191
119.7804, 283.2227
120.2625, 292.9612
120.7446, 303.9076
121.2267, 316.5342
121.7089, 330.4247
122.1910, 344.6002
122.6731, 359.4934
123.1552, 377.1230
123.6373, 397.6024
124.1194, 421.7163
124.6016, 451.4743
125.0837, 495.1325
125.5658, 538.2957
126.0479, 569.8319
126.5300, 589.5017
127.0121, 591.9711
127.4943, 560.9667
127.9764, 508.4932
128.4585, 461.6865
128.9406, 431.4784
129.4227, 414.0880
129.9048, 403.4986
130.3869, 399.7359
130.8691, 402.5817
131.3512, 413.2965
131.8333, 429.7793
132.3154, 446.9472
132.7975, 468.4862
133.2796, 492.3986
133.7618, 505.9538
134.2439, 508.4035
134.7260, 503.2009
135.2081, 492.1807
135.6902, 474.9532
136.1723, 462.4144
136.6545, 460.2186
137.1366, 468.2474
137.6187, 483.2706
138.1008, 508.7093
138.5829, 537.1608
139.0650, 553.0085
139.5472, 556.4951
140.0293, 547.4857
140.5114, 522.4969
140.9935, 476.8568
141.4756, 436.1139
141.9577, 401.4103
142.4399, 372.7029
142.9220, 351.4211
143.4041, 339.0516
143.8862, 331.0496
144.3683, 324.1061
144.8504, 317.8048
145.3326, 313.6508
145.8147, 312.5322
146.2968, 314.2501
146.7789, 315.0612
147.2610, 314.3398
147.7431, 313.3112
148.2253, 312.9532
148.7074, 313.0217
149.1895, 314.0978
149.6716, 316.2655
150.1537, 319.5206
150.6358, 323.6919
151.1180, 328.7007
151.6001, 334.6284
152.0822, 341.4862
152.5643, 348.5312
153.0464, 357.1758
153.5285, 367.7815
154.0107, 380.4429
154.4928, 394.1600
154.9749, 411.3237
155.4570, 428.9144
155.9391, 443.1432
156.4212, 456.0106
156.9034, 463.5956
157.3855, 464.6087
157.8676, 458.5439
158.3497, 447.3020
158.8318, 428.6198
159.3139, 405.2767
159.7961, 381.8925
160.2782, 358.4801
160.7603, 336.1669
161.2424, 315.3604
161.7245, 295.8459
162.2066, 278.4037
162.6888, 263.4042
163.1709, 250.6380
163.6530, 239.6644
164.1351, 230.3062
164.6172, 222.6569
165.0993, 216.8385
165.5815, 213.1324
166.0636, 210.7585
166.5457, 209.4201
167.0278, 209.0877
167.5099, 209.6863
167.9921, 211.9149
168.4742, 214.7062
168.9563, 217.0276
169.4384, 218.0074
169.9205, 219.2862
170.4026, 221.9640
170.8848, 225.9074
171.3669, 230.5397
171.8490, 235.8276
172.3311, 241.5128
172.8132, 247.3179
173.2953, 253.4043
173.7775, 259.3703
174.2596, 265.0917
174.7417, 270.5338
175.2238, 275.2052
175.7059, 278.9331
176.1880, 281.6058
176.6702, 282.9873
177.1523, 282.8172
177.6344, 281.4478
178.1165, 278.9838
178.5986, 275.4473
179.0807, 271.7505
179.5629, 267.8435
180.0450, 264.2560
180.5271, 262.2937
181.0092, 262.7455
181.4913, 264.9048
181.9734, 267.7662
182.4556, 271.3329
182.9377, 275.3253
183.4198, 279.8375
183.9019, 284.6862
184.3840, 289.1233
184.8661, 292.7124
185.3483, 295.7390
185.8304, 298.6249
186.3125, 301.2443
186.7946, 304.6749
187.2767, 310.6517
187.7588, 318.8167
188.2409, 326.7531
188.7231, 334.9517
189.2052, 342.3671
189.6873, 344.7724
190.1694, 341.7232
190.6515, 336.0047
191.1336, 330.2853
191.6158, 324.6266
192.0979, 319.9162
192.5800, 316.4550
193.0621, 314.2312
193.5442, 313.0095
194.0263, 312.7372
194.5085, 313.5856
194.9906, 316.0510
195.4727, 320.1252
195.9548, 324.6411
196.4369, 328.6681
196.9190, 332.3287
197.4012, 337.9156
197.8833, 345.6786
198.3654, 354.7828
198.8475, 363.7641
199.3296, 372.6444
199.8117, 381.5812
200.2939, 390.7690
200.7760, 400.1774
201.2581, 409.2320
201.7402, 417.9340
202.2223, 426.1704
202.7044, 433.7115
203.1866, 440.4359
203.6687, 446.7855
204.1508, 452.4294
204.6329, 457.1306
205.1150, 464.0323
205.5971, 473.7417
206.0793, 484.9604
206.5614, 495.6958
207.0435, 506.1978
207.5256, 514.8926
208.0077, 521.2151
208.4898, 525.2327
208.9720, 526.4521
209.4541, 524.7805
209.9362, 520.3882
210.4183, 513.2867
210.9004, 502.9986
211.3825, 491.5074
211.8647, 478.9971
212.3468, 464.6998
212.8289, 452.9293
213.3110, 444.0504
213.7931, 437.4593
214.2752, 431.9537
214.7574, 427.4458
215.2395, 424.1156
215.7216, 421.8808
216.2037, 420.5331
216.6858, 421.1247
217.1679, 423.7396
217.6501, 428.2744
218.1322, 434.4857
218.6143, 442.6304
219.0964, 452.0619
219.5785, 462.5248
220.0606, 474.6219
220.5428, 486.4028
221.0249, 498.3192
221.5070, 509.6357
221.9891, 518.7282
222.4712, 526.8761
222.9533, 530.5853
223.4355, 527.9456
223.9176, 517.4194
224.3997, 504.7391
224.8818, 489.0422
225.3639, 471.5460
225.8460, 454.4420
226.3282, 437.5488
226.8103, 421.5486
227.2924, 407.0507
227.7745, 393.8673
228.2566, 382.0595
228.7387, 371.7088
229.2209, 362.6690
229.7030, 354.8232
230.1851, 347.8683
230.6672, 342.4678
231.1493, 338.9304
231.6314, 337.5099
232.1136, 337.2818
232.5957, 338.3041
233.0778, 340.4925
233.5599, 343.7316
234.0420, 348.4337
234.5241, 353.5073
235.0063, 358.5690
235.4884, 363.6278
235.9705, 368.5730
236.4526, 374.0207
236.9347, 379.1145
237.4168, 382.1504
237.8990, 382.8902
238.3811, 381.9566
238.8632, 379.7187
239.3453, 376.6329
239.8274, 370.6873
240.3095, 361.1251
240.7917, 349.0746
241.2738, 336.4488
241.7559, 322.6308
242.2380, 309.2856
242.7201, 297.0574
243.2022, 285.9571
243.6844, 275.8439
244.1665, 266.6429
244.6486, 258.3994
245.1307, 251.1822
245.6128, 244.9646
246.0949, 239.8168
246.5771, 235.7822
247.0592, 232.9076
247.5413, 230.9913
248.0234, 230.3007
248.5055, 230.3960
248.9876, 230.6491
249.4697, 231.1196
249.9519, 231.6466
250.4340, 232.2997
250.9161, 233.2353
251.3982, 233.4941
251.8803, 233.1046
252.3624, 232.0134
252.8446, 230.1884
253.3267, 227.7059
253.8088, 224.3214
254.2909, 219.8409
254.7730, 214.1219
255.2551, 208.1992
255.7373, 201.8943
256.2194, 195.5652
256.7015, 189.7585
257.1836, 184.5378
257.6657, 179.5705
258.1479, 174.4828
258.6300, 169.2046
259.1121, 165.8064
259.5942, 164.9682
260.0763, 165.2243
260.5584, 164.9179
261.0406, 163.6258
261.5227, 162.8651
262.0048, 163.0644
262.4869, 164.2038
262.9690, 165.3946
263.4511, 166.6845
263.9333, 167.9483
264.4154, 168.9808
264.8975, 169.5874
265.3796, 170.6130
265.8617, 172.3667
266.3438, 174.7470
266.8260, 176.8316
267.3081, 178.5713
267.7902, 180.0868
268.2723, 181.3758
268.7544, 182.3651
269.2365, 183.4980
269.7187, 184.8833
270.2008, 186.4765
270.6829, 187.9255
271.1650, 189.1477
271.6471, 190.4203
272.1292, 191.9458
272.6114, 193.7681
273.0935, 195.5885
273.5756, 197.3500
274.0577, 199.0655
274.5398, 200.7082
275.0219, 202.1078
275.5041, 203.9340
275.9862, 206.9297
276.4683, 211.3221
276.9504, 214.8484
277.4325, 217.1522
277.9146, 218.6047
278.3968, 220.2476
278.8788, 222.2205
279.3610, 223.6692
279.8431, 224.1662
280.3252, 223.7162
280.8073, 222.2820
281.2894, 219.8475
281.7715, 216.4707
282.2537, 212.1068
282.7358, 206.7030
283.2179, 200.8791
283.7000, 194.8551
284.1821, 188.6096
284.6642, 182.2268
285.1464, 175.5438
285.6285, 169.0253
286.1106, 163.1557
286.5927, 157.9289
287.0748, 153.8666
287.5569, 151.7752
288.0391, 151.2832
288.5212, 149.7147
289.0033, 146.8134
289.4854, 143.9072
289.9675, 142.9769
290.4496, 143.8427
290.9318, 144.4075
291.4139, 143.5578
291.8960, 141.8475
292.3781, 141.1917
292.8602, 141.6479
293.3423, 142.5433
293.8245, 143.1696
294.3066, 143.6297
294.7887, 144.4498
295.2708, 146.0508
295.7529, 147.9527
296.2350, 148.9891
296.7172, 149.1620
297.1993, 149.3306
297.6814, 150.1474
298.1635, 151.5287
298.6456, 153.2433
299.1277, 155.3486
299.6099, 157.6581
300.0920, 159.9065
300.5741, 162.1095
301.0562, 164.1417
301.5383, 165.8636
302.0204, 167.3925
302.5026, 168.9345
302.9847, 170.5849
303.4668, 172.1788
303.9489, 173.5912
304.4310, 174.8016
304.9131, 175.8400
305.3953, 176.7597
305.8774, 177.4868
306.3595, 177.8720
306.8416, 177.8467
307.3237, 177.6594
307.8058, 177.3288
308.2880, 176.9875
308.7701, 176.9363
309.2522, 177.7592
309.7343, 178.6898
310.2164, 178.8267
310.6985, 177.9952
311.1807, 177.4102
311.6628, 177.8448
312.1449, 179.0781
312.6270, 180.7542
313.1091, 183.2422
313.5912, 185.7410
314.0734, 187.8747
314.5555, 189.6143
315.0376, 190.8550
315.5197, 190.9482
316.0018, 190.7447
316.4839, 191.1247
316.9661, 193.0163
317.4482, 194.9419
317.9303, 196.5470
318.4124, 197.7531
318.8945, 198.1409
319.3766, 197.0628
319.8588, 195.3594
320.3409, 193.6498
320.8230, 192.1385
321.3051, 190.5171
321.7872, 188.5336
322.2693, 186.3470
322.7515, 184.4429
323.2336, 182.9157
323.7157, 181.7157
324.1978, 180.8196
324.6799, 180.2486
325.1620, 179.9566
325.6442, 179.9431
326.1263, 180.2051
326.6084, 180.7375
327.0905, 181.6797
327.5726, 182.7644
328.0547, 183.8597
328.5369, 184.8133
329.0190, 186.2476
329.5011, 188.2476
329.9832, 190.6818
330.4653, 193.4144
330.9474, 196.8208
331.4296, 200.0645
331.9117, 202.9866
332.3938, 205.5636
332.8759, 208.0309
333.3580, 210.0901
333.8401, 212.3557
334.3223, 215.3519
334.8044, 219.5689
335.2865, 223.5458
335.7686, 226.8266
336.2507, 229.6754
336.7328, 233.4813
337.2150, 238.7768
337.6971, 244.1189
338.1792, 248.5977
338.6613, 251.8443
339.1434, 255.5346
339.6255, 259.8917
340.1077, 264.6282
340.5898, 269.3365
341.0719, 274.0147
341.5540, 278.3246
342.0361, 282.2791
342.5182, 285.9435
343.0004, 288.1333
343.4825, 288.7315
343.9646, 288.1029
344.4467, 286.7503
344.9288, 284.7052
345.4109, 281.6342
345.8931, 277.3115
346.3752, 271.8714
346.8573, 266.0994
347.3394, 259.9788
347.8215, 253.2187
348.3036, 245.1387
348.7858, 236.0101
349.2679, 227.1273
349.7500, 218.7826
350.2321, 210.8958
350.7142, 203.5794
351.1964, 196.8328
351.6785, 190.3222
352.1606, 183.6401
352.6427, 177.1403
353.1248, 171.4660
353.6069, 166.7949
354.0891, 162.6050
354.5712, 158.3038
355.0533, 154.0172
355.5354, 150.0191
356.0175, 146.4392
356.4996, 143.2913
356.9818, 140.6139
357.4639, 138.4407
357.9460, 136.4522
358.4281, 134.5083
358.9102, 132.5800
359.3923, 130.6569
359.8745, 128.1515
360.3566, 126.1051
360.8387, 125.5238
361.3208, 126.2871
361.8029, 126.7995
362.2850, 126.0958
362.7672, 124.9471
363.2493, 123.9885
363.7314, 123.4787
364.2135, 123.0545
364.6956, 122.4701
365.1777, 121.8606
365.6599, 121.6569
366.1420, 122.3799
366.6241, 123.2164
367.1062, 123.7621
367.5883, 123.8461
368.0704, 123.9442
368.5526, 123.8900
369.0347, 123.9245
369.5168, 124.4193
369.9989, 125.7624
370.4810, 127.1813
370.9631, 128.5986
371.4453, 130.0567
371.9274, 131.1457
372.4095, 131.5316
372.8916, 131.8162
373.3737, 132.5357
373.8558, 133.9180
374.3380, 135.2705
374.8201, 136.4251
375.3022, 137.4765
375.7843, 139.0484
376.2664, 141.5619
376.7485, 143.7434
377.2307, 144.5646
377.7128, 143.6687
378.1949, 143.7339
378.6770, 145.1180
379.1591, 147.2273
379.6412, 148.9452
380.1234, 150.2568
380.6055, 151.4942
381.0876, 152.9254
381.5697, 154.4546
382.0518, 155.3959
382.5339, 155.6884
383.0161, 155.6970
383.4982, 155.5972
383.9803, 155.4730
384.4624, 155.8124
384.9445, 156.8903
385.4266, 158.3729
385.9088, 159.7088
386.3909, 160.9075
386.8730, 162.1362
387.3551, 163.2390
387.8372, 164.5207
388.3193, 166.6329
388.8015, 169.8805
389.2836, 173.3755
389.7657, 176.3700
390.2478, 178.9922
390.7299, 181.4675
391.2120, 183.4799
391.6942, 185.6848
392.1763, 188.7593
392.6584, 192.7632
393.1405, 196.7676
393.6226, 200.2592
394.1047, 203.5041
394.5869, 206.7390
395.0690, 210.2532
395.5511, 213.5647
396.0332, 216.7693
396.5153, 219.7365
396.9974, 221.7741
397.4796, 222.0806
397.9617, 221.8624
398.4438, 221.8128
398.9259, 222.5381
399.4080, 222.4929
399.8901, 220.9207
400.3723, 218.5777
400.8544, 216.8889
401.3365, 216.3040
401.8186, 215.8317
402.3007, 215.1140
402.7828, 214.0435
403.2649, 213.7183
403.7470, 214.4787
404.2292, 215.6204
404.7113, 216.4135
405.1934, 216.5219
405.6755, 217.2829
406.1576, 218.9283
406.6397, 221.3325
407.1219, 224.1451
407.6040, 227.4680
408.0861, 230.7935
408.5682, 233.7560
409.0503, 236.3139
409.5324, 239.1200
410.0146, 242.1436
410.4967, 245.5693
410.9788, 249.8622
411.4609, 254.9063
411.9430, 259.9657
412.4251, 264.9079
412.9073, 269.5839
413.3894, 273.6873
413.8715, 277.2524
414.3536, 280.9656
414.8357, 285.4378
415.3178, 290.5044
415.8000, 295.7895
416.2821, 301.2797
416.7642, 306.9533
417.2463, 312.6286
417.7284, 318.4910
418.2105, 324.8573
418.6927, 332.0031
419.1748, 339.6987
419.6569, 347.7800
420.1390, 356.2677
420.6211, 365.4082
421.1032, 375.6735
421.5854, 386.6918
422.0675, 398.0543
422.5496, 409.5968
423.0317, 421.6419
423.5138, 434.6900
423.9959, 448.4756
424.4781, 462.1648
424.9602, 474.1999
425.4423, 486.8784
425.9244, 501.5301
426.4065, 519.3625
426.8886, 536.6491
427.3708, 552.5897
427.8529, 568.4459
428.3350, 586.5135
428.8171, 608.3969
429.2992, 629.5289
429.7813, 648.5868
430.2635, 665.5560
430.7456, 682.6676
431.2277, 699.8251
431.7098, 717.1035
432.1919, 735.4724
432.6740, 755.3224
433.1562, 771.4261
433.6383, 783.1266
434.1204, 790.8069
434.6025, 795.1439
435.0846, 796.1407
435.5667, 793.8311
436.0489, 788.6588
436.5310, 780.1367
437.0131, 766.4597
437.4952, 747.4211
437.9773, 725.3171
438.4594, 701.0349
438.9416, 675.4162
439.4237, 650.2562
439.9058, 626.2667
440.3879, 602.7423
440.8700, 578.1840
441.3521, 553.1046
441.8343, 529.3087
442.3164, 507.8939
442.7985, 488.0708
443.2806, 469.1008
443.7627, 450.9452
444.2448, 434.1264
444.7270, 419.3703
445.2091, 406.0580
445.6912, 393.5412
446.1733, 381.8792
446.6554, 370.7128
447.1375, 360.0751
447.6197, 349.9117
448.1018, 340.1714
448.5839, 330.6764
449.0660, 321.8150
449.5481, 313.9614
450.0302, 307.7569
450.5124, 301.0194
450.9945, 293.1326
451.4766, 285.2025
451.9587, 279.3340
452.4408, 276.3745
452.9229, 273.0115
453.4051, 267.9078
453.8872, 261.4481
454.3693, 256.4531
454.8514, 253.0263
455.3335, 250.5708
455.8156, 248.7967
456.2978, 247.6458
456.7799, 246.3978
457.2620, 244.7937
457.7441, 243.4420
458.2262, 243.4985
458.7083, 244.6938
459.1905, 245.8182
459.6726, 245.9641
460.1547, 245.8097
460.6368, 246.3533
461.1189, 247.5908
461.6010, 248.9723
462.0832, 250.1678
462.5653, 251.2695
463.0474, 252.4026
463.5295, 253.8229
464.0116, 254.9201
464.4937, 255.2278
464.9759, 254.9946
465.4580, 254.7122
465.9401, 254.8755
466.4222, 254.7314
466.9043, 253.7982
467.3864, 251.9010
467.8686, 250.3638
468.3507, 249.6180
468.8328, 249.1033
469.3149, 248.3725
469.7970, 246.7419
470.2791, 246.0000
470.7613, 246.2514
471.2434, 247.4665
471.7255, 249.6979
472.2076, 253.2812
472.6897, 257.0281
473.1718, 260.4576
473.6540, 263.5545
474.1361, 267.2377
474.6182, 271.5812
475.1003, 276.2458
475.5824, 280.8522
476.0645, 285.4600
476.5467, 290.3830
477.0288, 295.7663
477.5109, 301.4284
477.9930, 306.9702
478.4751, 312.4840
478.9572, 318.4040
479.4394, 325.2939
479.9215, 332.6066
480.4036, 339.5647
480.8857, 346.1531
481.3678, 352.6262
481.8499, 358.8553
482.3321, 365.2021
482.8142, 371.9946
483.2963, 379.5402
483.7784, 387.3654
484.2605, 395.4824
484.7426, 403.7103
485.2248, 411.5504
485.7069, 418.7743
486.1890, 425.5969
486.6711, 432.2842
487.1532, 439.0937
487.6353, 444.4914
488.1175, 448.2598
488.5996, 450.7093
489.0817, 452.1212
489.5638, 452.8046
490.0459, 451.6866
490.5280, 448.6432
491.0102, 443.7553
491.4923, 437.1568
491.9744, 428.7906
492.4565, 418.6356
492.9386, 406.1006
493.4207, 391.4391
493.9029, 376.6039
494.3850, 361.4142
494.8671, 346.6265
495.3492, 332.7922
495.8313, 319.7804
496.3134, 306.8997
496.7956, 293.7424
497.2777, 281.3559
497.7598, 271.0490
498.2419, 262.5148
498.7240, 255.2769
499.2061, 249.4502
499.6883, 244.4552
500.1704, 239.8067
500.6525, 235.4930
501.1346, 231.9668
501.6167, 229.3831
502.0988, 227.6306
502.5810, 226.6130
503.0631, 226.1950
503.5452, 226.6718
504.0273, 228.4091
504.5094, 231.0050
504.9915, 233.7399
505.4737, 236.6108
505.9558, 239.6064
506.4379, 242.6487
506.9200, 245.7541
507.4021, 249.1539
507.8842, 252.7345
508.3664, 256.9814
508.8485, 262.4010
509.3306, 269.0106
509.8127, 275.9036
510.2948, 283.0034
510.7769, 290.3522
511.2591, 297.7143
511.7412, 305.2270
512.2233, 313.4594
512.7054, 323.0801
513.1875, 333.2349
513.6696, 342.7525
514.1517, 351.6907
514.6339, 360.3649
515.1160, 368.7403
515.5981, 377.0684
516.0802, 385.8075
516.5623, 395.1460
517.0444, 404.1801
517.5266, 413.2072
518.0087, 421.4261
518.4908, 427.9624
518.9729, 431.8833
519.4550, 434.9448
519.9371, 438.0575
520.4193, 440.7026
520.9014, 440.7234
521.3835, 437.2185
521.8656, 432.2682
522.3477, 426.5519
522.8298, 420.0923
523.3120, 412.5748
523.7941, 403.9955
524.2762, 394.6912
524.7583, 384.7392
525.2404, 374.0525
525.7225, 364.1693
526.2047, 355.4824
526.6868, 347.2344
527.1689, 337.8139
527.6510, 327.4719
528.1331, 317.5993
528.6152, 308.8172
529.0974, 300.8625
529.5795, 293.4156
530.0616, 286.4010
530.5437, 279.4034
531.0258, 271.8618
531.5079, 264.3029
531.9901, 256.9763
532.4722, 249.7797
532.9543, 243.2253
533.4364, 237.5728
533.9185, 232.6206
534.4006, 227.9855
534.8828, 223.5212
535.3649, 219.5013
535.8470, 216.2858
536.3291, 213.6666
536.8112, 210.6254
537.2933, 206.4109
537.7755, 202.9530
538.2576, 201.3447
538.7397, 201.8243
539.2218, 202.1908
539.7039, 202.4953
540.1860, 202.5364
540.6682, 201.9376
541.1503, 200.7674
541.6324, 199.7714
542.1145, 199.1614
542.5966, 198.6897
543.0787, 198.0533
543.5609, 197.2433
544.0430, 196.2226
544.5251, 194.9746
545.0072, 193.5060
545.4893, 191.7769
545.9714, 189.8039
546.4536, 187.7925
546.9357, 185.9762
547.4178, 184.0855
547.8999, 181.7968
548.3820, 178.5680
548.8641, 176.0797
549.3463, 175.2206
549.8284, 175.0900
550.3105, 174.4909
550.7926, 172.9267
551.2747, 171.6201
551.7568, 170.8693
552.2390, 170.4958
552.7211, 169.7255
553.2032, 168.5075
553.6853, 167.0587
554.1674, 165.4943
554.6495, 163.8082
555.1317, 161.8451
555.6138, 159.6339
556.0959, 157.2116
556.5780, 154.8306
557.0601, 152.2831
557.5422, 148.8487
558.0244, 144.1018
558.5065, 139.2037
558.9886, 135.3660
559.4707, 132.2548
559.9528, 129.2977
560.4349, 125.8961
560.9171, 122.8621
561.3992, 120.7573
561.8813, 119.4756
562.3634, 118.3012
562.8455, 117.2057
563.3276, 116.0262
563.8098, 114.5835
564.2919, 112.6700
564.7740, 111.2205
565.2561, 110.2052
565.7382, 109.6841
566.2203, 109.8458
566.7025, 110.9464
567.1846, 111.6388
567.6667, 111.6273
568.1488, 111.3062
568.6309, 111.6076
569.1130, 112.4978
569.5952, 113.1422
570.0773, 112.9766
570.5594, 112.4357
571.0415, 112.5347
571.5236, 113.1740
572.0057, 113.4303
572.4879, 112.3071
572.9700, 110.6818
573.4521, 109.5004
573.9342, 108.9709
574.4163, 108.3865
574.8984, 107.4588
575.3806, 106.2992
575.8627, 105.0069
576.3448, 103.9399
576.8269, 102.3427
577.3090, 100.0398
577.7911, 97.16984
578.2733, 93.83295
578.7554, 89.56290
579.2375, 85.87231
579.7196, 83.31223
580.2017, 81.75906
580.6838, 80.33848
581.1660, 79.07330
581.6481, 77.82960
582.1302, 76.54935
582.6123, 75.22058
583.0944, 73.81700
583.5765, 72.33275
584.0587, 70.80346
584.5408, 69.18522
585.0229, 67.58096
585.5050, 66.16676
585.9871, 65.00713
586.4692, 64.02929
586.9514, 63.17969
587.4335, 62.46618
587.9156, 61.92431
588.3977, 61.74980
588.8798, 61.56403
589.3619, 61.24043
589.8441, 60.77370
590.3262, 60.26569
590.8083, 59.64610
