##NAMES=Cornwallite
##RRUFFID=R110146
##IDEAL CHEMISTRY=Cu^2+^_5_(As^5+^O_4_)_2_(OH)_4_
##LOCALITY=Arkaroola Station, flinders Ranges, South Australia, Australia
##OWNER=RRUFF
##SOURCE=The University of Arizona Mineral Museum
##DESCRIPTION=Dark green tabular crystals on quartz, associated with lighter green elongated olivenite
##STATUS=The identification of this mineral has been confirmed by single-crystal X-ray diffraction.
##URL=rruff.info/R110146
144.1542, 75.80676
144.6364, 76.39719
145.1185, 76.49842
145.6006, 75.99407
146.0827, 75.71078
146.5648, 76.48586
147.0469, 77.58609
147.5291, 78.22970
148.0112, 78.02454
148.4933, 77.32914
148.9754, 76.93619
149.4575, 76.93610
149.9396, 77.12054
150.4218, 77.18929
150.9039, 77.40404
151.3860, 78.14159
151.8681, 79.67765
152.3502, 81.93107
152.8323, 84.09813
153.3145, 86.37223
153.7966, 88.34298
154.2787, 89.57640
154.7608, 90.43582
155.2429, 91.62550
155.7250, 93.74386
156.2072, 96.86344
156.6893, 99.78471
157.1714, 102.6063
157.6535, 105.2017
158.1356, 107.3740
158.6177, 109.2137
159.0999, 111.1695
159.5820, 113.8322
160.0641, 117.4390
160.5462, 119.3271
161.0283, 118.4657
161.5104, 116.6905
161.9926, 115.4887
162.4747, 115.0526
162.9568, 114.3573
163.4389, 112.1014
163.9210, 108.3661
164.4031, 104.8259
164.8853, 101.7871
165.3674, 99.09475
165.8495, 96.61213
166.3316, 94.34535
166.8137, 92.18779
167.2958, 89.95422
167.7780, 87.69158
168.2601, 85.67408
168.7422, 84.25258
169.2243, 83.23946
169.7064, 81.88932
170.1885, 79.97630
170.6707, 77.87685
171.1528, 75.74037
171.6349, 73.61369
172.1170, 71.64303
172.5991, 69.91673
173.0812, 68.43325
173.5634, 67.22623
174.0455, 66.52807
174.5276, 65.94296
175.0097, 65.40782
175.4918, 64.86940
175.9739, 64.21880
176.4561, 63.22539
176.9382, 61.59120
177.4203, 60.63630
177.9024, 60.70074
178.3845, 61.08993
178.8666, 61.61695
179.3488, 62.16724
179.8309, 62.57870
180.3130, 62.60264
180.7951, 62.01719
181.2772, 61.51568
181.7593, 60.86683
182.2415, 60.43050
182.7236, 60.59401
183.2057, 61.40913
183.6878, 62.48385
184.1699, 63.23162
184.6520, 63.48893
185.1342, 63.68771
185.6163, 63.75052
186.0984, 63.79191
186.5805, 63.94010
187.0626, 64.23549
187.5447, 64.61568
188.0269, 64.99776
188.5090, 65.40247
188.9911, 65.73928
189.4732, 65.95126
189.9553, 66.08688
190.4374, 66.17487
190.9196, 66.15494
191.4017, 66.25249
191.8838, 66.96099
192.3659, 68.34822
192.8480, 69.40965
193.3301, 69.45975
193.8123, 68.75334
194.2944, 68.25163
194.7765, 68.30851
195.2586, 68.51150
195.7407, 68.50537
196.2228, 68.29167
196.7050, 67.78216
197.1871, 66.67724
197.6692, 65.02020
198.1513, 63.82146
198.6334, 63.79039
199.1155, 63.85252
199.5977, 63.24459
200.0798, 61.93634
200.5619, 60.44044
201.0440, 59.15046
201.5261, 58.03477
202.0082, 57.30301
202.4904, 57.46508
202.9725, 57.68141
203.4546, 57.56153
203.9367, 57.04924
204.4188, 56.29744
204.9009, 55.43847
205.3831, 54.37660
205.8652, 53.51484
206.3473, 52.97691
206.8294, 52.53924
207.3115, 52.09806
207.7936, 51.62854
208.2758, 51.14774
208.7579, 50.64076
209.2400, 49.89233
209.7221, 49.64383
210.2042, 50.45007
210.6863, 51.28308
211.1685, 51.30003
211.6506, 50.40290
212.1327, 49.25930
212.6148, 48.85420
213.0969, 49.71803
213.5790, 50.25701
214.0612, 50.23589
214.5433, 50.06109
215.0254, 50.01188
215.5075, 50.16438
215.9896, 50.49248
216.4717, 50.99282
216.9539, 51.85865
217.4360, 52.39960
217.9181, 52.52155
218.4002, 52.35706
218.8823, 51.86250
219.3644, 51.02328
219.8466, 50.31492
220.3287, 50.57373
220.8108, 52.08248
221.2929, 52.91863
221.7750, 52.20718
222.2571, 50.92344
222.7393, 50.34816
223.2214, 50.81038
223.7035, 51.60091
224.1856, 51.88968
224.6677, 51.72625
225.1498, 51.38482
225.6320, 50.59221
226.1141, 49.74602
226.5962, 49.69481
227.0783, 50.84909
227.5604, 51.98930
228.0425, 51.55318
228.5247, 49.92985
229.0068, 48.67822
229.4889, 48.71830
229.9710, 49.52548
230.4531, 49.87419
230.9352, 49.44525
231.4174, 48.97894
231.8995, 49.11099
232.3816, 49.66453
232.8637, 50.17521
233.3458, 50.41821
233.8279, 50.44590
234.3101, 50.42603
234.7922, 50.35553
235.2743, 50.24297
235.7564, 49.99840
236.2385, 49.71885
236.7206, 49.62244
237.2028, 50.00801
237.6849, 50.68744
238.1670, 50.79639
238.6491, 49.87347
239.1312, 49.05485
239.6133, 48.81128
240.0955, 48.96912
240.5776, 49.24971
241.0597, 49.54735
241.5418, 49.82323
242.0239, 49.87709
242.5060, 49.61033
242.9882, 49.22939
243.4703, 48.73952
243.9524, 48.19889
244.4345, 47.68185
244.9166, 47.23070
245.3987, 46.83624
245.8809, 46.44539
246.3630, 45.80543
246.8451, 45.53493
247.3272, 46.08769
247.8093, 46.96869
248.2914, 47.47904
248.7736, 47.20738
249.2557, 46.42389
249.7378, 46.25437
250.2199, 47.63168
250.7020, 48.46898
251.1841, 48.04972
251.6663, 47.10313
252.1484, 46.51709
252.6305, 46.72245
253.1126, 47.46917
253.5947, 47.98516
254.0768, 48.45597
254.5590, 48.39294
255.0411, 47.18679
255.5232, 45.66405
256.0053, 44.72351
256.4874, 44.74834
256.9695, 45.46619
257.4517, 46.21962
257.9338, 47.22121
258.4159, 47.99113
258.8980, 48.53355
259.3801, 48.84187
259.8622, 48.83059
260.3444, 48.47929
260.8265, 47.99708
261.3086, 47.77905
261.7907, 48.01579
262.2728, 48.24216
262.7549, 48.38078
263.2371, 48.54185
263.7192, 48.92058
264.2013, 49.55664
264.6834, 50.16921
265.1655, 50.31659
265.6476, 49.72914
266.1298, 49.29668
266.6119, 49.03621
267.0940, 48.93586
267.5761, 49.03578
268.0582, 49.33514
268.5403, 49.69963
269.0225, 49.99329
269.5046, 50.21602
269.9867, 50.30151
270.4688, 50.06797
270.9509, 49.80821
271.4330, 49.85164
271.9152, 50.21781
272.3973, 50.54917
272.8794, 50.48925
273.3615, 49.99641
273.8436, 49.53957
274.3257, 48.96714
274.8079, 48.54202
275.2900, 48.70695
275.7721, 49.41491
276.2542, 49.81058
276.7363, 49.06884
277.2184, 47.35468
277.7006, 46.31715
278.1827, 46.41539
278.6648, 46.83665
279.1469, 47.15548
279.6290, 47.34661
280.1111, 47.28941
280.5933, 46.77598
281.0754, 45.99736
281.5575, 45.61700
282.0396, 45.99216
282.5217, 46.32899
283.0038, 46.01408
283.4860, 45.17643
283.9681, 44.50861
284.4502, 44.39411
284.9323, 44.58403
285.4144, 44.50592
285.8965, 44.02028
286.3787, 43.61486
286.8608, 43.71316
287.3429, 44.14966
287.8250, 44.29049
288.3071, 43.82737
288.7892, 43.11362
289.2714, 42.68244
289.7535, 42.56377
290.2356, 42.43638
290.7177, 42.00770
291.1998, 41.45082
291.6819, 41.29145
292.1641, 41.80115
292.6462, 42.42655
293.1283, 42.48658
293.6104, 42.05468
294.0925, 41.69268
294.5746, 41.58662
295.0568, 41.70667
295.5389, 42.08187
296.0210, 42.83120
296.5031, 43.48877
296.9852, 43.59299
297.4673, 43.28426
297.9495, 42.87025
298.4316, 42.16665
298.9137, 41.52361
299.3958, 41.60260
299.8779, 42.56350
300.3600, 43.53535
300.8422, 43.95200
301.3243, 43.97945
301.8064, 43.83776
302.2885, 43.45580
302.7706, 43.03708
303.2527, 42.77622
303.7349, 42.66980
304.2170, 42.76915
304.6991, 43.26880
305.1812, 43.91338
305.6633, 44.35329
306.1454, 44.50819
306.6276, 44.54689
307.1097, 44.58690
307.5918, 44.62906
308.0739, 44.68282
308.5560, 44.70819
309.0381, 44.79274
309.5203, 45.07466
310.0024, 45.58449
310.4845, 46.01666
310.9666, 45.97004
311.4487, 45.59914
311.9308, 45.74353
312.4130, 46.85499
312.8951, 48.10244
313.3772, 48.75429
313.8593, 48.86927
314.3414, 48.74272
314.8235, 48.29572
315.3057, 47.72403
315.7878, 47.60350
316.2699, 48.15644
316.7520, 48.74055
317.2341, 48.65006
317.7162, 48.22018
318.1984, 48.22670
318.6805, 49.37321
319.1626, 50.91962
319.6447, 51.54391
320.1268, 51.03197
320.6089, 50.67762
321.0911, 51.50130
321.5732, 52.86477
322.0553, 53.89948
322.5374, 54.36876
323.0195, 54.57677
323.5016, 54.82844
323.9838, 55.12673
324.4659, 55.29975
324.9480, 55.18632
325.4301, 54.97734
325.9122, 54.88367
326.3943, 54.91121
326.8765, 55.07802
327.3586, 55.48969
327.8407, 56.09076
328.3228, 56.53899
328.8049, 56.65807
329.2870, 56.73914
329.7692, 57.09622
330.2513, 57.70480
330.7334, 58.32843
331.2155, 59.03356
331.6976, 59.65474
332.1797, 59.64875
332.6619, 58.70114
333.1440, 57.85362
333.6261, 58.40548
334.1082, 59.76070
334.5903, 60.46272
335.0724, 59.43848
335.5546, 57.84320
336.0367, 57.24595
336.5188, 57.73853
337.0009, 58.34214
337.4830, 58.57342
337.9651, 58.51933
338.4473, 58.34662
338.9294, 58.03264
339.4115, 57.66599
339.8936, 57.16589
340.3757, 56.59230
340.8578, 56.50527
341.3400, 57.47773
341.8221, 58.65241
342.3042, 58.67365
342.7863, 57.36660
343.2684, 55.99575
343.7505, 55.17915
344.2327, 54.75464
344.7148, 54.33450
345.1969, 53.82850
345.6790, 53.33600
346.1611, 53.11931
346.6432, 53.11838
347.1254, 52.74363
347.6075, 51.34291
348.0896, 49.72901
348.5717, 48.98885
349.0538, 49.23086
349.5359, 49.76043
350.0181, 50.19466
350.5002, 50.49985
350.9823, 50.59758
351.4644, 50.51315
351.9465, 50.19294
352.4286, 49.38129
352.9108, 48.21640
353.3929, 47.38792
353.8750, 47.34661
354.3571, 47.73839
354.8392, 47.62999
355.3214, 46.73717
355.8035, 46.05395
356.2856, 46.18917
356.7677, 46.72819
357.2498, 46.88706
357.7319, 46.40969
358.2141, 45.69785
358.6962, 45.32626
359.1783, 45.37905
359.6604, 45.23063
360.1425, 44.33559
360.6246, 43.50084
361.1068, 43.68555
361.5889, 44.90694
362.0710, 46.19700
362.5531, 46.81498
363.0352, 46.72750
363.5173, 46.21752
363.9995, 44.62569
364.4816, 43.29836
364.9637, 43.06959
365.4458, 43.63390
365.9279, 44.18964
366.4100, 44.32992
366.8922, 44.15889
367.3743, 44.00244
367.8564, 43.85841
368.3385, 43.72992
368.8206, 43.64032
369.3027, 43.55641
369.7849, 43.38482
370.2670, 43.11185
370.7491, 42.92260
371.2312, 43.12880
371.7133, 44.03468
372.1954, 44.35815
372.6776, 43.67899
373.1597, 42.81919
373.6418, 42.21888
374.1239, 41.90770
374.6060, 41.72367
375.0881, 41.52650
375.5703, 41.56533
376.0524, 41.76017
376.5345, 41.91417
377.0166, 42.43116
377.4987, 42.93956
377.9808, 43.32491
378.4630, 43.35476
378.9451, 42.91851
379.4272, 42.28845
379.9093, 42.16906
380.3914, 43.32027
380.8735, 43.67702
381.3557, 42.36310
381.8378, 40.88122
382.3199, 40.45598
382.8020, 41.17863
383.2841, 42.17720
383.7662, 42.39627
384.2484, 41.63744
384.7305, 41.50074
385.2126, 42.87694
385.6947, 44.03465
386.1768, 44.27700
386.6589, 43.88668
387.1411, 43.48971
387.6232, 43.45684
388.1053, 43.69784
388.5874, 43.90779
389.0695, 44.13440
389.5516, 44.22882
390.0338, 44.02552
390.5159, 43.76670
390.9980, 43.69413
391.4801, 43.87314
391.9622, 44.13839
392.4443, 44.27996
392.9265, 44.28077
393.4086, 44.32677
393.8907, 44.52289
394.3728, 44.68911
394.8549, 44.64722
395.3370, 44.46328
395.8192, 44.39534
396.3013, 44.71776
396.7834, 45.28020
397.2655, 45.54455
397.7476, 45.38738
398.2297, 45.25182
398.7119, 45.40825
399.1940, 45.71390
399.6761, 45.98975
400.1582, 46.16891
400.6403, 46.35607
401.1224, 46.73153
401.6046, 47.27683
402.0867, 47.62645
402.5688, 47.64621
403.0509, 47.43752
403.5330, 47.05580
404.0151, 46.49102
404.4973, 46.11081
404.9794, 46.23721
405.4615, 46.60708
405.9436, 46.70010
406.4257, 46.41526
406.9078, 46.17896
407.3900, 46.27282
407.8721, 46.71929
408.3542, 47.52003
408.8363, 49.35057
409.3184, 50.92954
409.8005, 51.21709
410.2827, 50.50554
410.7648, 49.78941
411.2469, 49.48951
411.7290, 49.46582
412.2111, 49.43395
412.6932, 49.43063
413.1754, 49.33532
413.6575, 49.11255
414.1396, 48.79606
414.6217, 48.28232
415.1038, 47.60303
415.5859, 47.15822
416.0681, 47.38475
416.5502, 48.35761
417.0323, 49.22712
417.5144, 50.18683
417.9965, 50.86594
418.4786, 51.02053
418.9608, 50.79395
419.4429, 50.41183
419.9250, 49.97673
420.4071, 49.57875
420.8892, 49.47672
421.3713, 49.89961
421.8535, 50.29157
422.3356, 50.79090
422.8177, 51.15212
423.2998, 50.92475
423.7819, 50.21262
424.2640, 49.80021
424.7462, 50.66042
425.2283, 52.93541
425.7104, 54.40108
426.1925, 54.11413
426.6746, 54.00444
427.1567, 54.52791
427.6389, 55.60822
428.1210, 57.18160
428.6031, 59.29655
429.0852, 61.57264
429.5673, 63.21053
430.0494, 64.08868
430.5316, 64.78459
431.0137, 65.12019
431.4958, 65.52046
431.9779, 66.37608
432.4600, 67.66660
432.9421, 68.87259
433.4243, 69.40246
433.9064, 69.47764
434.3885, 70.11890
434.8706, 71.55769
435.3527, 73.14103
435.8348, 74.58755
436.3170, 75.87781
436.7991, 76.92093
437.2812, 77.46207
437.7633, 78.06969
438.2454, 79.61363
438.7275, 81.88713
439.2097, 83.30390
439.6918, 83.02799
440.1739, 82.08329
440.6560, 82.09824
441.1381, 83.14769
441.6202, 83.90787
442.1024, 83.92369
442.5845, 83.50925
443.0666, 82.90395
443.5487, 82.16124
444.0308, 81.51057
444.5129, 81.15787
444.9951, 81.06139
445.4772, 80.79423
445.9593, 80.39521
446.4414, 79.81442
446.9235, 79.11246
447.4056, 78.19651
447.8878, 76.83786
448.3699, 74.96902
448.8520, 72.90819
449.3341, 71.11698
449.8162, 69.63872
450.2983, 68.35844
450.7805, 67.40900
451.2626, 66.50602
451.7447, 65.37973
452.2268, 64.16309
452.7089, 63.26673
453.1910, 63.02710
453.6732, 63.20547
454.1553, 62.75092
454.6374, 61.12086
455.1195, 59.77451
455.6016, 58.96877
456.0837, 58.48574
456.5659, 58.26986
457.0480, 58.25919
457.5301, 58.18449
458.0122, 57.74339
458.4943, 56.94036
458.9764, 56.09673
459.4586, 55.18646
459.9407, 54.29047
460.4228, 53.45300
460.9049, 52.65876
461.3870, 51.88317
461.8691, 51.12549
462.3513, 50.37097
462.8334, 49.57149
463.3155, 48.73294
463.7976, 48.00652
464.2797, 47.43341
464.7618, 47.00682
465.2440, 46.69290
465.7261, 46.48298
466.2082, 46.44032
466.6903, 46.91105
467.1724, 47.38689
467.6545, 47.08053
468.1367, 45.98569
468.6188, 44.97143
469.1009, 44.65521
469.5830, 44.88729
470.0651, 44.89220
470.5472, 44.51544
471.0294, 44.14210
471.5115, 43.82618
471.9936, 43.58520
472.4757, 43.50402
472.9578, 43.58517
473.4399, 43.61610
473.9221, 43.29943
474.4042, 42.51178
474.8863, 42.10348
475.3684, 42.59013
475.8505, 42.86199
476.3326, 42.26923
476.8148, 41.22894
477.2969, 40.49131
477.7790, 40.43013
478.2611, 40.74345
478.7432, 40.76216
479.2253, 40.29615
479.7075, 40.07833
480.1896, 40.58389
480.6717, 41.03155
481.1538, 40.91669
481.6359, 40.31481
482.1180, 39.67242
482.6002, 39.16404
483.0823, 38.87246
483.5644, 39.20460
484.0465, 40.42715
484.5286, 41.27930
485.0107, 40.97650
485.4929, 40.10373
485.9750, 39.25582
486.4571, 38.44686
486.9392, 37.91469
487.4213, 37.98841
487.9034, 38.41774
488.3856, 38.60412
488.8677, 38.42319
489.3498, 38.25769
489.8319, 38.49282
490.3140, 39.08547
490.7961, 39.40947
491.2783, 39.38944
491.7604, 39.18726
492.2425, 38.76050
492.7246, 38.22449
493.2067, 37.76502
493.6888, 37.44821
494.1710, 37.26396
494.6531, 37.18464
495.1352, 37.13593
495.6173, 37.46659
496.0994, 38.51632
496.5815, 39.55822
497.0637, 40.42499
497.5458, 40.99024
498.0279, 41.01350
498.5100, 40.31930
498.9921, 39.20878
499.4742, 38.42167
499.9564, 38.03212
500.4385, 37.79053
500.9206, 37.79028
501.4027, 37.82222
501.8848, 37.70257
502.3669, 37.46879
502.8491, 37.36134
503.3312, 37.63051
503.8133, 38.12568
504.2954, 38.39386
504.7775, 38.36403
505.2596, 38.45033
505.7418, 39.00454
506.2239, 39.69341
506.7060, 40.05613
507.1881, 40.04060
507.6702, 39.81524
508.1523, 39.29054
508.6345, 38.66647
509.1166, 38.33965
509.5987, 38.36840
510.0808, 38.36751
510.5629, 37.95714
511.0450, 37.20485
511.5272, 36.87392
512.0093, 37.39682
512.4914, 37.76641
512.9735, 37.45958
513.4556, 36.92482
513.9377, 36.85560
514.4199, 37.39870
514.9020, 37.99653
515.3841, 37.87315
515.8662, 36.84266
516.3483, 36.37384
516.8304, 37.21421
517.3126, 37.83336
517.7947, 37.59889
518.2768, 36.93603
518.7589, 36.44963
519.2410, 36.37453
519.7231, 36.61150
520.2053, 37.21295
520.6874, 38.24237
521.1695, 38.63389
521.6516, 37.88434
522.1337, 36.91563
522.6158, 36.26402
523.0980, 35.90124
523.5801, 35.76629
524.0622, 36.02720
524.5443, 36.32135
525.0264, 36.15607
525.5085, 35.62870
525.9907, 35.34985
526.4728, 35.58325
526.9549, 36.03959
527.4370, 36.30285
527.9191, 36.35277
528.4012, 36.37346
528.8834, 36.37758
529.3655, 36.36266
529.8476, 36.37043
530.3297, 36.36076
530.8118, 36.21872
531.2939, 35.87777
531.7761, 35.39740
532.2582, 34.90761
532.7403, 34.24186
533.2224, 33.89164
533.7045, 34.00507
534.1866, 34.26815
534.6688, 34.55168
535.1509, 34.82153
535.6330, 35.08583
536.1151, 35.40844
536.5972, 35.65171
537.0793, 35.34325
537.5615, 34.30027
538.0436, 33.46106
538.5257, 33.09032
539.0078, 33.06174
539.4899, 33.39061
539.9720, 34.04375
540.4542, 34.55785
540.9363, 34.71205
541.4184, 34.59174
541.9005, 34.19147
542.3826, 33.53970
542.8647, 33.09215
543.3469, 33.15722
543.8290, 33.50342
544.3111, 33.52369
544.7932, 33.11826
545.2753, 32.68159
545.7574, 32.15290
546.2396, 31.69409
546.7217, 31.49598
547.2038, 31.52062
547.6859, 31.54095
548.1680, 31.37860
548.6501, 31.11964
549.1323, 31.16577
549.6144, 31.75359
550.0965, 32.24105
550.5786, 32.71044
551.0607, 32.95712
551.5428, 32.62017
552.0250, 31.82713
552.5071, 31.26108
552.9892, 31.55961
553.4713, 32.40460
553.9534, 32.84626
554.4355, 32.80620
554.9177, 32.75105
555.3998, 32.85540
555.8819, 33.04839
556.3640, 33.27913
556.8461, 33.57420
557.3282, 33.67664
557.8104, 33.36657
558.2925, 32.88209
558.7746, 32.58390
559.2567, 32.44124
559.7388, 31.99868
560.2209, 30.87602
560.7031, 29.41926
561.1852, 28.73141
561.6673, 29.60247
562.1494, 30.14634
562.6315, 29.99374
563.1136, 29.77697
563.5958, 30.05747
564.0779, 30.73665
564.5600, 31.30240
565.0421, 31.40237
565.5242, 31.11008
566.0063, 30.52259
566.4885, 29.28786
566.9706, 28.79743
567.4527, 30.37412
567.9348, 32.07059
568.4169, 32.46303
568.8990, 31.61326
569.3812, 30.59982
569.8633, 29.72882
570.3454, 29.15925
570.8275, 29.38621
571.3096, 30.33241
571.7917, 30.80811
572.2739, 30.12553
572.7560, 29.01499
573.2381, 28.86690
573.7202, 29.99034
574.2023, 30.78382
574.6844, 30.80953
575.1666, 30.71574
575.6487, 31.02828
576.1308, 31.59827
576.6129, 31.95172
577.0950, 31.83753
577.5771, 31.42788
578.0593, 31.12332
578.5414, 31.05043
579.0235, 30.73448
579.5056, 29.80126
579.9877, 28.94667
580.4698, 28.50854
580.9520, 28.39643
581.4341, 28.33611
581.9162, 28.15753
582.3983, 28.08035
582.8804, 28.57423
583.3625, 29.55849
583.8447, 30.09592
584.3268, 29.84515
584.8089, 29.37823
585.2910, 29.31838
585.7731, 29.61278
586.2552, 29.70342
586.7374, 29.20168
587.2195, 28.84171
587.7016, 29.13193
588.1837, 29.79059
588.6658, 30.33659
589.1479, 30.62205
589.6301, 30.79896
590.1122, 31.11973
590.5943, 31.66861
591.0764, 31.51666
591.5585, 29.62489
592.0406, 28.24374
592.5228, 28.01406
593.0049, 28.52292
593.4870, 29.48294
593.9691, 30.78949
594.4512, 31.83527
594.9333, 31.92413
595.4155, 31.24686
595.8976, 30.54042
596.3797, 29.76044
596.8618, 29.35254
597.3439, 29.78982
597.8260, 30.71015
598.3082, 31.20529
598.7903, 31.15547
599.2724, 30.98687
599.7545, 30.75692
600.2366, 30.52494
600.7188, 30.37264
601.2009, 30.29201
601.6830, 30.18455
602.1651, 29.96758
602.6472, 29.71000
603.1293, 29.69010
603.6115, 30.15796
604.0936, 30.39903
604.5757, 30.28631
605.0578, 30.02957
605.5399, 29.66219
606.0220, 29.25598
606.5042, 28.97077
606.9863, 28.92851
607.4684, 29.00725
607.9505, 29.00765
608.4326, 28.93234
608.9147, 28.88147
609.3969, 28.86846
609.8790, 28.91073
610.3611, 29.01452
610.8432, 29.18194
611.3253, 29.47491
611.8074, 30.20224
612.2896, 30.74149
612.7717, 30.66668
613.2538, 30.20975
613.7359, 29.65255
614.2180, 29.11409
614.7001, 28.86468
615.1823, 29.33776
615.6644, 30.60252
616.1465, 31.11749
616.6286, 30.17922
617.1107, 29.44569
617.5928, 29.52220
618.0750, 29.89240
618.5571, 30.05611
619.0392, 29.91324
619.5213, 29.60505
620.0034, 29.13897
620.4855, 28.60855
620.9677, 28.19581
621.4498, 27.90799
621.9319, 27.80454
622.4140, 27.96375
622.8961, 28.27293
623.3782, 28.48603
623.8604, 28.54802
624.3425, 28.69925
624.8246, 29.12499
625.3067, 29.50683
625.7888, 29.57725
626.2709, 29.42798
626.7531, 29.34597
627.2352, 29.47625
627.7173, 29.62818
628.1994, 29.39701
628.6815, 28.67552
629.1636, 28.15181
629.6458, 27.81995
630.1279, 27.76381
630.6100, 28.17545
631.0921, 28.82115
631.5742, 29.30493
632.0563, 29.54623
632.5385, 29.55961
633.0206, 29.20665
633.5027, 28.67155
633.9848, 28.31113
634.4669, 28.17815
634.9490, 28.18306
635.4312, 28.29394
635.9133, 28.46826
636.3954, 28.50318
636.8775, 28.07712
637.3596, 27.95073
637.8417, 28.49744
638.3239, 29.06617
638.8060, 29.12790
639.2881, 28.77683
