##NAMES=Cornwallite
##RRUFFID=R050469
##IDEAL CHEMISTRY=Cu^2+^_5_(As^5+^O_4_)_2_(OH)_4_
##LOCALITY=Carissa mine, Tintic District, Utah, USA
##OWNER=RRUFF
##SOURCE=University of Arizona Mineral Museum
##DESCRIPTION=Dark green botryoidal crust
##STATUS=The identification of this mineral has been confirmed by X-ray diffraction and chemical analysis
##URL=rruff.info/R050469
##MEASURED CHEMISTRY=(Cu_4.98_Ca_0.02_)_Î£=5_(As_1.00_O_4_)_2_(OH)_4_ ; OH estimated by difference and charge balance
91.00781, 8.303473
91.48993, 8.346170
91.97205, 8.363499
92.45416, 8.318182
92.93628, 8.248999
93.41840, 8.245978
93.90051, 8.335229
94.38263, 8.474585
94.86475, 8.569651
95.34686, 8.621614
95.82898, 8.744543
96.31110, 9.046621
96.79321, 9.516400
97.27533, 10.03036
97.75745, 10.55978
98.23956, 11.10672
98.72168, 11.66019
99.20380, 12.21125
99.68591, 12.77935
100.1680, 13.34580
100.6501, 13.86866
101.1323, 14.57463
101.6144, 15.56079
102.0965, 16.85053
102.5786, 18.11358
103.0607, 19.29355
103.5428, 20.50547
104.0250, 21.92551
104.5071, 23.39722
104.9892, 25.32479
105.4713, 27.95974
105.9534, 31.90957
106.4355, 35.21020
106.9177, 37.56702
107.3998, 39.26256
107.8819, 41.26904
108.3640, 43.76534
108.8461, 46.40546
109.3282, 49.06734
109.8104, 51.72205
110.2925, 54.37100
110.7746, 56.98323
111.2567, 59.55522
111.7388, 62.17052
112.2209, 64.12550
112.7031, 66.47834
113.1852, 69.98930
113.6673, 76.91246
114.1494, 82.97233
114.6315, 86.66881
115.1136, 87.91911
115.5958, 89.26187
116.0779, 91.06959
116.5600, 93.52077
117.0421, 96.80062
117.5242, 102.0629
118.0063, 107.4002
118.4885, 111.7141
118.9706, 114.7238
119.4527, 117.7207
119.9348, 121.2908
120.4169, 125.3258
120.8990, 129.6930
121.3812, 134.7035
121.8633, 139.8191
122.3454, 144.5999
122.8275, 149.1939
123.3096, 152.9934
123.7917, 155.0758
124.2739, 155.7730
124.7560, 156.3029
125.2381, 157.6758
125.7202, 159.3688
126.2023, 160.3553
126.6844, 159.9891
127.1666, 159.3833
127.6487, 160.3798
128.1308, 162.8885
128.6129, 165.3524
129.0950, 166.3190
129.5771, 166.1515
130.0593, 166.1813
130.5414, 166.9887
131.0235, 168.1672
131.5056, 168.4014
131.9877, 167.0193
132.4698, 164.7229
132.9520, 162.8861
133.4341, 161.5088
133.9162, 160.9182
134.3983, 161.5791
134.8804, 163.2650
135.3625, 164.1793
135.8447, 164.1601
136.3268, 163.8327
136.8089, 163.9846
137.2910, 164.6191
137.7731, 165.6717
138.2552, 167.5402
138.7374, 170.5128
139.2195, 171.7237
139.7016, 170.6930
140.1837, 168.4100
140.6658, 166.8562
141.1479, 166.0555
141.6301, 165.8361
142.1122, 166.1417
142.5943, 167.0600
143.0764, 168.2646
143.5585, 169.8725
144.0406, 171.7437
144.5228, 173.4584
145.0049, 174.9683
145.4870, 176.3669
145.9691, 177.6776
146.4512, 178.8441
146.9333, 180.0368
147.4155, 181.1162
147.8976, 182.1566
148.3797, 183.7647
148.8618, 186.2249
149.3439, 189.0617
149.8260, 191.9632
150.3082, 195.3698
150.7903, 198.3822
151.2724, 200.7514
151.7545, 202.4406
152.2366, 204.5221
152.7188, 207.0842
153.2009, 210.0199
153.6830, 213.2159
154.1651, 218.0302
154.6472, 221.7799
155.1293, 223.2781
155.6115, 222.1644
156.0936, 221.8179
156.5757, 223.5553
157.0578, 226.0890
157.5399, 227.9893
158.0220, 228.7034
158.5042, 228.9509
158.9863, 228.9084
159.4684, 228.5417
159.9505, 228.1879
160.4326, 227.9613
160.9147, 227.8166
161.3969, 227.6850
161.8790, 227.9907
162.3611, 227.9866
162.8432, 227.1079
163.3253, 224.9646
163.8074, 222.9663
164.2896, 221.5731
164.7717, 220.7710
165.2538, 220.5382
165.7359, 221.4619
166.2180, 222.5997
166.7001, 223.2363
167.1823, 223.1410
167.6644, 222.7378
168.1465, 222.4602
168.6286, 222.1203
169.1107, 221.1893
169.5928, 219.6031
170.0750, 217.1940
170.5571, 213.6300
171.0392, 208.4202
171.5213, 202.8173
172.0034, 197.7258
172.4855, 193.0872
172.9677, 188.7714
173.4498, 184.6366
173.9319, 180.7384
174.4140, 177.1731
174.8961, 174.0336
175.3782, 171.1534
175.8604, 168.2132
176.3425, 165.2297
176.8246, 162.4713
177.3067, 160.2500
177.7888, 158.3568
178.2709, 156.4015
178.7531, 154.2080
179.2352, 151.9128
179.7173, 149.5642
180.1994, 147.1649
180.6815, 145.0964
181.1636, 143.8118
181.6458, 143.1539
182.1279, 142.7102
182.6100, 142.4387
183.0921, 142.2510
183.5742, 141.9262
184.0563, 141.4624
184.5385, 141.0106
185.0206, 140.8581
185.5027, 140.9069
185.9848, 140.6834
186.4669, 139.7859
186.9490, 138.5175
187.4312, 137.8432
187.9133, 137.8392
188.3954, 137.9913
188.8775, 137.5963
189.3596, 136.7309
189.8417, 136.1227
190.3239, 136.2478
190.8060, 136.9164
191.2881, 137.1178
191.7702, 136.7855
192.2523, 136.2493
192.7344, 135.8477
193.2166, 135.5842
193.6987, 135.5200
194.1808, 135.8750
194.6629, 136.5755
195.1450, 136.7097
195.6271, 136.1923
196.1093, 135.3299
196.5914, 134.4785
197.0735, 133.6254
197.5556, 132.9304
198.0377, 132.5160
198.5198, 132.3798
199.0020, 132.1940
199.4841, 131.9509
199.9662, 131.6676
200.4483, 131.3549
200.9304, 131.0048
201.4125, 130.6689
201.8947, 130.3745
202.3768, 130.1250
202.8589, 129.8756
203.3410, 129.6316
203.8231, 129.3807
204.3052, 129.0563
204.7874, 128.6020
205.2695, 128.3032
205.7516, 128.4081
206.2337, 129.0361
206.7158, 129.1871
207.1979, 128.6456
207.6801, 127.8243
208.1622, 127.6492
208.6443, 128.3146
209.1264, 129.0188
209.6085, 129.3666
210.0906, 129.2567
210.5728, 129.2558
211.0549, 129.3877
211.5370, 129.6215
212.0191, 129.9057
212.5012, 130.2830
212.9833, 130.6144
213.4655, 130.8418
213.9476, 130.9732
214.4297, 130.9662
214.9118, 130.7533
215.3939, 130.4372
215.8760, 130.3084
216.3581, 130.5082
216.8403, 130.6051
217.3224, 130.3378
217.8045, 129.5171
218.2866, 128.9318
218.7687, 128.7381
219.2508, 128.7341
219.7330, 128.3114
220.2151, 127.1562
220.6972, 126.1549
221.1793, 125.8152
221.6614, 126.4835
222.1435, 126.8517
222.6257, 126.8114
223.1078, 126.4833
223.5899, 126.2117
224.0720, 126.0795
224.5541, 125.8711
225.0362, 125.4369
225.5184, 124.5808
226.0005, 124.0130
226.4826, 123.8425
226.9647, 123.9437
227.4468, 123.9675
227.9289, 123.9053
228.4111, 123.7839
228.8932, 123.5952
229.3753, 123.2567
229.8574, 123.0679
230.3395, 123.1403
230.8216, 123.3426
231.3038, 123.2579
231.7859, 122.5577
232.2680, 122.0536
232.7501, 122.1612
233.2322, 123.2402
233.7143, 124.1122
234.1965, 124.7149
234.6786, 125.1222
235.1607, 125.5564
235.6428, 126.0854
236.1249, 126.5386
236.6070, 126.8140
237.0892, 126.7552
237.5713, 126.8761
238.0534, 127.3082
238.5355, 127.8841
239.0176, 128.1448
239.4997, 127.8515
239.9819, 127.5894
240.4640, 127.6355
240.9461, 128.1881
241.4282, 128.5821
241.9103, 128.8035
242.3924, 128.8721
242.8746, 128.8198
243.3567, 128.5777
243.8388, 128.3231
244.3209, 128.1630
244.8030, 128.2513
245.2851, 128.0018
245.7673, 127.1832
246.2494, 126.1233
246.7315, 125.5393
247.2136, 125.5981
247.6957, 125.8703
248.1778, 126.2346
248.6600, 126.7689
249.1421, 127.1460
249.6242, 127.3142
250.1063, 127.3555
250.5884, 127.4191
251.0705, 127.4824
251.5527, 127.6053
252.0348, 127.8169
252.5169, 128.1444
252.9990, 128.4582
253.4811, 128.7215
253.9632, 128.9969
254.4454, 129.4216
254.9275, 130.1379
255.4096, 130.7312
255.8917, 130.9978
256.3738, 130.8027
256.8560, 130.9203
257.3381, 131.4892
257.8202, 132.2549
258.3023, 132.8762
258.7844, 133.4004
259.2665, 133.6637
259.7487, 133.5700
260.2308, 133.0679
260.7129, 132.5215
261.1950, 131.7970
261.6771, 131.1723
262.1592, 131.1089
262.6414, 131.8672
263.1235, 132.5284
263.6056, 132.8159
264.0877, 132.7092
264.5698, 132.5667
265.0519, 132.3867
265.5341, 132.1743
266.0162, 131.8598
266.4983, 131.3023
266.9804, 131.1077
267.4625, 131.5694
267.9446, 132.6683
268.4268, 133.3803
268.9089, 133.6797
269.3910, 133.6159
269.8731, 133.0793
270.3552, 131.8597
270.8373, 131.0537
271.3195, 131.0334
271.8016, 131.7013
272.2837, 132.0349
272.7658, 131.9985
273.2479, 131.7110
273.7300, 131.2086
274.2122, 130.4408
274.6943, 129.7871
275.1764, 129.3318
275.6585, 129.0548
276.1406, 128.8863
276.6227, 128.8665
277.1049, 128.8259
277.5870, 128.6233
278.0691, 128.2500
278.5512, 127.7856
279.0333, 127.1384
279.5154, 126.4621
279.9976, 126.4158
280.4797, 127.1348
280.9618, 127.7838
281.4439, 127.7050
281.9260, 126.8893
282.4081, 126.1047
282.8903, 125.4429
283.3724, 124.8701
283.8545, 124.2646
284.3366, 123.6084
284.8187, 123.1062
285.3008, 122.9275
285.7830, 123.0516
286.2651, 123.2965
286.7472, 123.7153
287.2293, 124.1190
287.7114, 124.1687
288.1935, 123.8652
288.6757, 123.3420
289.1578, 122.4604
289.6399, 121.3495
290.1220, 120.7382
290.6041, 120.7046
291.0862, 121.0306
291.5684, 121.5981
292.0505, 122.3598
292.5326, 122.8573
293.0147, 122.6362
293.4968, 121.9731
293.9789, 121.8043
294.4611, 122.2347
294.9432, 122.6810
295.4253, 122.2952
295.9074, 121.2733
296.3895, 120.4708
296.8716, 120.4575
297.3538, 120.8541
297.8359, 120.7756
298.3180, 120.1956
298.8001, 119.7208
299.2822, 120.0178
299.7643, 120.8764
300.2465, 121.7564
300.7286, 122.6202
301.2107, 123.2995
301.6928, 123.3745
302.1749, 122.8906
302.6570, 122.5499
303.1392, 123.1113
303.6213, 124.1673
304.1034, 124.9901
304.5855, 125.2423
305.0676, 125.3438
305.5497, 125.6957
306.0319, 126.2736
306.5140, 126.9704
306.9961, 127.7708
307.4782, 128.6201
307.9603, 129.4702
308.4424, 130.3173
308.9246, 131.1311
309.4067, 131.7633
309.8888, 132.3148
310.3709, 133.0919
310.8530, 134.4334
311.3351, 135.9682
311.8173, 137.3234
312.2994, 138.3389
312.7815, 139.5373
313.2636, 141.5950
313.7457, 144.0124
314.2278, 145.9030
314.7100, 146.1151
315.1921, 146.2283
315.6742, 147.2094
316.1563, 149.2306
316.6384, 151.6263
317.1205, 154.5836
317.6027, 157.5929
318.0848, 159.9894
318.5669, 160.8711
319.0490, 161.7208
319.5311, 163.1188
320.0132, 165.1081
320.4954, 167.2907
320.9775, 169.6587
321.4596, 172.1052
321.9417, 174.5044
322.4238, 176.8933
322.9059, 179.1681
323.3881, 181.3291
323.8702, 183.3543
324.3523, 185.2203
324.8344, 186.7039
325.3165, 188.1694
325.7986, 189.8463
326.2808, 192.3445
326.7629, 194.3603
327.2450, 195.6542
327.7271, 196.3631
328.2092, 197.0314
328.6913, 197.7937
329.1735, 198.3999
329.6556, 198.7344
330.1377, 198.5473
330.6198, 198.5888
331.1019, 199.3159
331.5840, 200.1314
332.0662, 199.8835
332.5483, 198.0847
333.0304, 195.8862
333.5125, 193.5698
333.9946, 191.0025
334.4767, 188.8696
334.9589, 187.2288
335.4410, 185.9885
335.9231, 185.2275
336.4052, 185.4290
336.8873, 184.8143
337.3694, 182.6645
337.8516, 179.1138
338.3336, 176.3763
338.8158, 174.6333
339.2979, 173.3165
339.7800, 171.9480
340.2621, 170.5461
340.7442, 169.0256
341.2263, 167.3039
341.7085, 165.5119
342.1906, 164.2008
342.6727, 163.3998
343.1548, 162.8264
343.6369, 162.1998
344.1190, 161.5519
344.6012, 161.4910
345.0833, 162.3267
345.5654, 163.2967
346.0475, 162.8932
346.5296, 161.1931
347.0117, 159.3606
347.4939, 157.8638
347.9760, 156.7282
348.4581, 156.0885
348.9402, 156.0007
349.4223, 156.1540
349.9044, 156.1916
350.3866, 156.1737
350.8687, 156.3043
351.3508, 156.7512
351.8329, 157.3618
352.3150, 157.9434
352.7971, 158.4966
353.2793, 158.9542
353.7614, 159.3091
354.2435, 159.5343
354.7256, 159.5580
355.2077, 159.1525
355.6898, 158.7986
356.1720, 158.9368
356.6541, 159.5040
357.1362, 160.2155
357.6183, 161.1622
358.1004, 162.0496
358.5826, 162.6219
359.0647, 162.8276
359.5468, 162.7249
360.0289, 162.0258
360.5110, 161.0585
360.9931, 160.4460
361.4753, 160.8151
361.9574, 161.3013
362.4395, 161.3863
362.9216, 160.9243
363.4037, 160.7079
363.8858, 161.3629
364.3680, 162.2318
364.8501, 162.6240
365.3322, 161.9570
365.8143, 161.2478
366.2964, 160.8675
366.7785, 160.8031
367.2607, 160.3096
367.7428, 158.6167
368.2249, 156.9392
368.7070, 156.0234
369.1891, 156.8216
369.6712, 157.1308
370.1534, 156.7792
370.6355, 155.8913
371.1176, 154.8249
371.5997, 153.3269
372.0818, 151.9674
372.5639, 150.9887
373.0461, 150.5122
373.5282, 150.0085
374.0103, 149.5081
374.4924, 148.9372
374.9745, 148.1498
375.4566, 147.0403
375.9388, 146.0205
376.4209, 145.1668
376.9030, 144.4840
377.3851, 144.2549
377.8672, 144.5883
378.3493, 145.0299
378.8315, 145.0948
379.3136, 144.7773
379.7957, 144.6152
380.2778, 144.7702
380.7599, 145.0807
381.2420, 145.0541
381.7242, 144.6909
382.2063, 144.5011
382.6884, 145.0620
383.1705, 146.1010
383.6526, 146.5932
384.1347, 146.3557
384.6169, 145.8989
385.0990, 145.6734
385.5811, 145.7195
386.0632, 146.1923
386.5453, 147.5587
387.0274, 149.2140
387.5096, 150.3136
387.9917, 150.8468
388.4738, 151.2095
388.9559, 151.5733
389.4380, 151.9799
389.9201, 152.5000
390.4023, 153.2891
390.8844, 154.0421
391.3665, 154.4761
391.8486, 154.6834
392.3307, 154.9863
392.8128, 155.4554
393.2950, 156.1270
393.7771, 157.1553
394.2592, 158.8833
394.7413, 160.0922
395.2234, 159.7811
395.7055, 158.8141
396.1877, 158.5285
396.6698, 159.7981
397.1519, 161.2374
397.6340, 162.4914
398.1161, 163.5409
398.5982, 164.4297
399.0804, 165.0462
399.5625, 165.5762
400.0446, 166.1514
400.5267, 166.7933
401.0088, 167.4439
401.4909, 167.9100
401.9731, 168.3638
402.4552, 169.5686
402.9373, 171.9540
403.4194, 174.3927
403.9015, 176.2973
404.3836, 177.4654
404.8658, 178.9588
405.3479, 180.9331
405.8300, 182.9968
406.3121, 184.4643
406.7942, 185.2122
407.2763, 186.2167
407.7585, 187.8703
408.2406, 190.0539
408.7227, 192.0802
409.2048, 193.9320
409.6869, 195.6855
410.1690, 197.2604
410.6512, 198.7323
411.1333, 200.5923
411.6154, 203.0495
412.0975, 205.7234
412.5796, 208.1263
413.0617, 210.2777
413.5439, 212.3177
414.0260, 214.2485
414.5081, 216.1739
414.9902, 218.2925
415.4723, 220.6620
415.9544, 222.8958
416.4366, 224.3613
416.9187, 225.5393
417.4008, 227.1417
417.8829, 229.6128
418.3650, 232.4460
418.8471, 235.4551
419.3293, 238.6020
419.8114, 241.8470
420.2935, 245.0776
420.7756, 248.4479
421.2577, 252.0423
421.7398, 256.2805
422.2220, 260.0728
422.7041, 262.4949
423.1862, 264.4459
423.6683, 267.5441
424.1504, 273.2118
424.6325, 278.8841
425.1147, 283.6275
425.5968, 287.3001
426.0789, 291.9078
426.5610, 298.0517
427.0431, 304.5871
427.5252, 310.4817
428.0074, 315.3182
428.4895, 320.4604
428.9716, 325.9379
429.4537, 331.7791
429.9358, 338.0564
430.4179, 344.8036
430.9001, 351.7836
431.3822, 358.8186
431.8643, 365.9058
432.3464, 373.2127
432.8285, 380.7802
433.3106, 388.4358
433.7928, 396.1635
434.2749, 403.8940
434.7570, 411.0043
435.2391, 417.0823
435.7212, 422.5993
436.2033, 428.8299
436.6855, 435.5876
437.1676, 441.5186
437.6497, 445.1964
438.1318, 447.5508
438.6139, 450.2974
439.0960, 454.1318
439.5782, 456.8182
440.0603, 455.9471
440.5424, 452.6560
441.0245, 449.1032
441.5066, 447.1508
441.9887, 444.4082
442.4709, 439.5862
442.9530, 432.6482
443.4351, 424.0390
443.9172, 412.8027
444.3993, 400.6623
444.8814, 389.0176
445.3636, 378.2341
445.8457, 367.6445
446.3278, 357.2870
446.8099, 347.1122
447.2920, 336.7072
447.7741, 325.6296
448.2563, 314.7318
448.7384, 304.3897
449.2205, 294.4843
449.7026, 285.2393
450.1847, 276.7262
450.6668, 268.9173
451.1490, 261.9355
451.6311, 255.9539
452.1132, 250.0372
452.5953, 243.8867
453.0774, 237.7957
453.5595, 232.2002
454.0417, 227.0805
454.5238, 222.4554
455.0059, 218.3262
455.4880, 214.6895
455.9701, 211.4142
456.4522, 208.5536
456.9344, 205.7801
457.4165, 202.7152
457.8986, 199.4367
458.3807, 196.2252
458.8628, 192.9299
459.3449, 189.9698
459.8271, 187.9592
460.3092, 186.7385
460.7913, 185.5779
461.2734, 184.1589
461.7555, 182.5562
462.2376, 180.6983
462.7198, 178.4729
463.2019, 176.5688
463.6840, 175.4102
464.1661, 174.7350
464.6482, 174.2260
465.1303, 174.2585
465.6125, 173.9669
466.0946, 172.9113
466.5767, 171.1866
467.0588, 169.7804
467.5409, 168.9759
468.0230, 168.3174
468.5052, 167.6183
468.9873, 166.8670
469.4694, 166.0669
469.9515, 164.9981
470.4336, 164.0741
470.9157, 164.0668
471.3979, 165.4079
471.8800, 166.1586
472.3621, 165.6431
472.8442, 164.1674
473.3263, 163.2518
473.8084, 162.9798
474.2906, 162.6173
474.7727, 161.2990
475.2548, 159.3311
475.7369, 158.3262
476.2190, 158.5905
476.7011, 159.2428
477.1833, 159.2334
477.6654, 158.7503
478.1475, 158.3114
478.6296, 158.2522
479.1117, 158.2579
479.5938, 157.9653
480.0760, 157.4157
480.5581, 156.8966
481.0402, 156.5097
481.5223, 156.2550
482.0044, 156.1600
482.4865, 156.3012
482.9687, 156.4122
483.4508, 156.5843
483.9329, 156.6252
484.4150, 156.2610
484.8971, 154.8810
485.3792, 153.6830
485.8614, 153.0507
486.3435, 152.9326
486.8256, 152.5840
487.3077, 151.8617
487.7898, 151.0829
488.2719, 150.4278
488.7541, 149.9856
489.2362, 149.4077
489.7183, 148.6419
490.2004, 147.8056
490.6825, 147.1151
491.1646, 146.5997
491.6468, 145.8672
492.1289, 144.6402
492.6110, 143.1953
493.0931, 142.3682
493.5752, 142.1485
494.0573, 141.9702
494.5395, 141.1514
495.0216, 140.1221
495.5037, 139.9992
495.9858, 141.1068
496.4679, 142.0202
496.9500, 141.0756
497.4322, 139.1095
497.9143, 137.5247
498.3964, 137.0105
498.8785, 136.9070
499.3606, 137.1180
499.8427, 137.5227
500.3249, 137.5566
500.8070, 136.6918
501.2891, 135.6703
501.7712, 134.9022
502.2533, 134.5625
502.7354, 134.0948
503.2176, 133.2391
503.6997, 132.3518
504.1818, 131.8278
504.6639, 132.0027
505.1460, 131.9042
505.6281, 131.3233
506.1103, 130.3725
506.5924, 129.4374
507.0745, 128.4325
507.5566, 127.7386
508.0387, 127.7828
508.5208, 128.5011
509.0030, 128.5269
509.4851, 127.7826
509.9672, 126.7821
510.4493, 126.0123
510.9314, 125.4333
511.4135, 124.8967
511.8957, 124.3432
512.3778, 123.8726
512.8599, 123.6826
513.3420, 123.6890
513.8242, 123.6426
514.3063, 123.2063
514.7884, 122.8148
515.2705, 122.9166
515.7526, 123.5436
516.2347, 124.0129
516.7169, 124.0866
517.1990, 123.8737
517.6811, 123.4418
518.1632, 122.3982
518.6453, 121.6828
519.1274, 121.6340
519.6096, 121.9243
520.0917, 121.9352
520.5738, 121.3442
521.0559, 121.0182
521.5380, 121.3035
522.0201, 122.1449
522.5023, 122.5090
522.9844, 122.2493
523.4665, 121.9332
523.9486, 122.0332
524.4307, 122.5225
524.9128, 122.7640
525.3950, 122.6357
525.8771, 122.5016
526.3592, 123.0004
526.8413, 123.9380
527.3234, 124.6143
527.8055, 124.5935
528.2877, 124.3485
528.7698, 124.5318
529.2519, 125.0107
529.7340, 125.2296
530.2161, 124.5587
530.6982, 123.7229
531.1804, 123.2790
531.6625, 123.3602
532.1446, 123.4847
532.6267, 123.5947
533.1088, 123.6304
533.5909, 123.5354
534.0731, 123.3701
534.5552, 122.9826
535.0373, 122.1896
535.5194, 121.1988
536.0015, 120.5261
536.4836, 120.3711
536.9658, 120.1391
537.4479, 119.6257
537.9300, 118.8421
538.4121, 117.9471
538.8942, 116.9153
539.3763, 115.8914
539.8585, 115.0575
540.3406, 114.3612
540.8227, 113.4501
541.3048, 112.2025
541.7869, 110.9796
542.2690, 110.2176
542.7512, 109.8292
543.2333, 109.5996
543.7154, 109.6420
544.1975, 109.6384
544.6796, 109.3390
545.1617, 108.7692
545.6439, 108.0489
546.1260, 107.0971
546.6081, 106.1160
547.0902, 105.1312
547.5723, 104.0392
548.0544, 103.4478
548.5366, 104.0869
549.0187, 104.8911
549.5008, 104.8866
549.9829, 103.3866
550.4650, 102.3513
550.9471, 102.1238
551.4293, 102.3579
551.9114, 102.2136
552.3935, 101.6148
552.8756, 101.0101
553.3577, 100.6034
553.8398, 100.3295
554.3220, 99.82191
554.8041, 99.06826
555.2862, 98.39913
555.7683, 98.12229
556.2504, 98.10040
556.7325, 98.05617
557.2147, 97.94978
557.6968, 97.83819
558.1789, 97.80395
558.6610, 97.78603
559.1431, 97.69510
559.6252, 97.50230
560.1074, 97.22739
560.5895, 96.75730
561.0716, 96.18723
561.5537, 95.84423
562.0358, 96.25613
562.5179, 96.44890
563.0001, 95.95591
563.4822, 94.67931
563.9643, 93.81139
564.4464, 93.44540
564.9285, 93.35772
565.4106, 93.47314
565.8928, 93.86814
566.3749, 93.90165
566.8570, 93.41484
567.3391, 92.79639
567.8212, 92.64577
568.3033, 92.91685
568.7855, 93.30516
569.2676, 93.86612
569.7497, 94.32917
570.2318, 94.11422
570.7139, 93.38284
571.1960, 92.82519
571.6782, 93.14038
572.1603, 93.60409
572.6424, 93.61921
573.1245, 93.11579
573.6066, 92.47863
574.0887, 91.43760
574.5709, 90.56809
575.0530, 90.32133
575.5351, 91.51147
576.0172, 92.22646
576.4993, 92.18491
576.9814, 91.75654
577.4636, 91.55466
577.9457, 91.71769
578.4278, 91.71693
578.9099, 91.31821
579.3920, 90.69810
579.8741, 90.65330
580.3563, 91.23550
580.8384, 91.69109
581.3205, 91.39106
581.8026, 90.62369
582.2847, 90.30225
582.7668, 90.46001
583.2490, 90.59759
583.7311, 90.07479
584.2132, 89.36574
584.6953, 89.12051
585.1774, 89.65857
