##NAMES=Cornetite
##RRUFFID=R040163
##IDEAL CHEMISTRY=Cu^2+^_3_P^5+^O_4_(OH)_3_
##LOCALITY=Kalabi, Katanga, Democratic Republic of the Congo
##OWNER=RRUFF
##SOURCE=University of Arizona Mineral Museum
##DESCRIPTION=Blue drusy coating
##STATUS=The identification of this mineral is confirmed by single-crystal X-ray diffraction and chemical analysis.
##URL=rruff.info/R040163
##MEASURED CHEMISTRY=Cu_2.91_(P_1.02_O_4_)((OH)_0.99_F_0.01_)_3_
134.7162, 3498.453
135.1983, 3648.830
135.6804, 3825.184
136.1626, 4030.096
136.6447, 4254.546
137.1268, 4492.016
137.6089, 4752.507
138.0910, 4984.235
138.5731, 5163.067
139.0553, 5296.584
139.5374, 5348.639
140.0195, 5296.268
140.5016, 5163.567
140.9837, 5043.437
141.4658, 4934.678
141.9480, 4838.519
142.4301, 4757.625
142.9122, 4696.827
143.3943, 4641.334
143.8764, 4589.110
144.3585, 4540.607
144.8407, 4496.043
145.3228, 4453.031
145.8049, 4416.107
146.2870, 4390.368
146.7691, 4383.567
147.2512, 4378.063
147.7334, 4368.272
148.2155, 4349.927
148.6976, 4346.234
149.1797, 4357.770
149.6618, 4383.936
150.1439, 4423.602
150.6261, 4482.290
151.1082, 4549.072
151.5903, 4620.152
152.0724, 4691.594
152.5545, 4775.554
153.0366, 4877.319
153.5188, 4991.697
154.0009, 5107.980
154.4830, 5239.927
154.9651, 5363.316
155.4472, 5469.337
155.9293, 5558.337
156.4115, 5627.243
156.8936, 5680.880
157.3757, 5715.488
157.8578, 5719.561
158.3399, 5694.833
158.8221, 5635.526
159.3042, 5537.615
159.7863, 5368.639
160.2684, 5191.733
160.7505, 5021.912
161.2326, 4858.374
161.7148, 4707.206
162.1969, 4569.917
162.6790, 4445.839
163.1611, 4335.919
163.6432, 4240.176
164.1253, 4157.498
164.6075, 4085.778
165.0896, 4024.892
165.5717, 3980.896
166.0538, 3961.834
166.5359, 3961.092
167.0180, 3968.917
167.5002, 3982.657
167.9823, 4002.546
168.4644, 4029.231
168.9465, 4063.028
169.4286, 4101.754
169.9107, 4148.563
170.3929, 4199.149
170.8750, 4245.684
171.3571, 4283.704
171.8392, 4315.292
172.3213, 4341.530
172.8034, 4361.181
173.2856, 4379.107
173.7677, 4397.101
174.2498, 4416.375
174.7319, 4440.674
175.2140, 4484.201
175.6961, 4531.525
176.1783, 4555.775
176.6604, 4543.893
177.1425, 4521.835
177.6246, 4521.121
178.1067, 4539.451
178.5888, 4561.938
179.0710, 4575.991
179.5531, 4586.024
180.0352, 4602.258
180.5173, 4629.651
180.9994, 4661.623
181.4815, 4686.763
181.9637, 4705.439
182.4458, 4722.205
182.9279, 4742.325
183.4100, 4764.281
183.8921, 4782.646
184.3742, 4795.075
184.8564, 4803.305
185.3385, 4808.719
185.8206, 4810.840
186.3027, 4816.510
186.7848, 4836.750
187.2669, 4869.285
187.7491, 4897.646
188.2312, 4917.909
188.7133, 4929.587
189.1954, 4928.298
189.6775, 4912.057
190.1596, 4891.712
190.6418, 4874.885
191.1239, 4862.020
191.6060, 4865.180
192.0881, 4899.496
192.5702, 4959.851
193.0524, 4998.644
193.5345, 5011.411
194.0166, 5014.052
194.4987, 5027.640
194.9808, 5052.196
195.4629, 5087.540
195.9451, 5135.610
196.4272, 5196.775
196.9093, 5258.783
197.3914, 5321.108
197.8735, 5384.507
198.3556, 5447.039
198.8378, 5506.324
199.3199, 5578.015
199.8020, 5677.407
200.2841, 5806.447
200.7662, 5920.794
201.2483, 6016.472
201.7305, 6097.372
202.2126, 6169.912
202.6947, 6231.257
203.1768, 6294.826
203.6589, 6370.543
204.1410, 6459.701
204.6232, 6546.822
205.1053, 6629.961
205.5874, 6710.420
206.0695, 6795.908
206.5516, 6892.347
207.0337, 6978.253
207.5159, 7035.284
207.9980, 7055.584
208.4801, 7081.298
208.9622, 7124.687
209.4443, 7177.236
209.9264, 7194.078
210.4086, 7165.283
210.8907, 7120.539
211.3728, 7079.313
211.8549, 7037.883
212.3370, 7011.807
212.8191, 7004.795
213.3013, 7015.543
213.7834, 7031.869
214.2655, 7050.678
214.7476, 7080.233
215.2297, 7127.770
215.7118, 7196.502
216.1940, 7276.092
216.6761, 7365.860
217.1582, 7465.854
217.6403, 7570.080
218.1224, 7678.609
218.6045, 7789.635
219.0867, 7902.705
219.5688, 8020.208
220.0509, 8133.082
220.5330, 8242.570
221.0151, 8350.755
221.4972, 8427.271
221.9794, 8477.468
222.4615, 8490.937
222.9436, 8454.157
223.4257, 8353.313
223.9078, 8228.433
224.3899, 8087.494
224.8721, 7927.979
225.3542, 7759.322
225.8363, 7570.551
226.3184, 7381.648
226.8005, 7211.880
227.2827, 7061.722
227.7648, 6932.391
228.2469, 6825.987
228.7290, 6744.446
229.2111, 6672.244
229.6932, 6604.935
230.1754, 6551.383
230.6575, 6524.678
231.1396, 6536.883
231.6217, 6555.294
232.1038, 6572.754
232.5859, 6590.037
233.0681, 6601.898
233.5502, 6606.294
234.0323, 6606.723
234.5144, 6608.523
234.9965, 6613.877
235.4786, 6617.321
235.9608, 6622.411
236.4429, 6637.285
236.9250, 6614.869
237.4071, 6541.936
237.8892, 6439.920
238.3713, 6342.901
238.8535, 6258.229
239.3356, 6166.196
239.8177, 6059.389
240.2998, 5933.458
240.7819, 5807.415
241.2640, 5674.057
241.7462, 5542.747
242.2283, 5430.000
242.7104, 5345.791
243.1925, 5263.520
243.6746, 5170.544
244.1567, 5054.891
244.6389, 4969.632
245.1210, 4923.530
245.6031, 4902.572
246.0852, 4884.742
246.5673, 4875.831
247.0494, 4859.965
247.5316, 4827.560
248.0137, 4767.362
248.4958, 4729.992
248.9779, 4725.319
249.4600, 4738.172
249.9421, 4740.401
250.4243, 4727.020
250.9064, 4712.061
251.3885, 4701.756
251.8706, 4700.061
252.3527, 4689.125
252.8348, 4666.206
253.3170, 4635.847
253.7991, 4607.918
254.2812, 4588.438
254.7633, 4560.256
255.2454, 4511.298
255.7275, 4428.969
256.2097, 4375.818
256.6918, 4361.945
257.1739, 4370.875
257.6560, 4372.405
258.1381, 4363.458
258.6202, 4353.385
259.1024, 4344.639
259.5845, 4336.176
260.0666, 4334.230
260.5487, 4341.284
261.0308, 4352.984
261.5129, 4359.990
261.9951, 4357.230
262.4772, 4361.877
262.9593, 4383.918
263.4414, 4429.793
263.9235, 4462.560
264.4056, 4479.004
264.8878, 4485.662
265.3699, 4493.143
265.8520, 4500.328
266.3341, 4511.755
266.8162, 4530.583
267.2983, 4558.144
267.7805, 4583.284
268.2626, 4604.850
268.7447, 4625.046
269.2268, 4650.010
269.7089, 4683.438
270.1910, 4708.128
270.6732, 4712.181
271.1553, 4691.662
271.6374, 4693.080
272.1195, 4725.878
272.6016, 4766.779
273.0837, 4770.870
273.5659, 4729.076
274.0480, 4697.184
274.5301, 4702.550
275.0122, 4746.993
275.4943, 4774.229
275.9764, 4779.687
276.4586, 4776.536
276.9407, 4783.716
277.4228, 4801.761
277.9049, 4824.659
278.3870, 4856.041
278.8691, 4894.667
279.3513, 4909.763
279.8334, 4897.634
280.3155, 4871.468
280.7976, 4849.743
281.2798, 4833.193
281.7619, 4808.413
282.2440, 4768.037
282.7261, 4714.012
283.2082, 4660.517
283.6903, 4607.423
284.1725, 4555.327
284.6546, 4501.119
285.1367, 4445.751
285.6188, 4402.468
286.1009, 4380.167
286.5830, 4374.213
287.0652, 4363.880
287.5473, 4348.283
288.0294, 4334.140
288.5115, 4334.384
288.9936, 4346.260
289.4757, 4346.554
289.9579, 4318.276
290.4400, 4275.126
290.9221, 4256.097
291.4042, 4262.401
291.8863, 4277.720
292.3684, 4288.708
292.8506, 4295.583
293.3327, 4298.949
293.8148, 4294.314
294.2969, 4288.988
294.7790, 4300.230
295.2611, 4328.142
295.7433, 4357.692
296.2254, 4374.915
296.7075, 4383.615
297.1896, 4393.642
297.6717, 4407.172
298.1538, 4424.354
298.6360, 4447.417
299.1181, 4475.967
299.6002, 4502.862
300.0823, 4521.805
300.5644, 4535.558
301.0465, 4548.623
301.5287, 4558.206
302.0108, 4572.535
302.4929, 4606.154
302.9750, 4655.867
303.4571, 4701.436
303.9392, 4732.855
304.4214, 4751.184
304.9035, 4755.294
305.3856, 4733.403
305.8677, 4715.671
306.3498, 4737.846
306.8319, 4789.313
307.3141, 4833.126
307.7962, 4835.096
308.2783, 4824.097
308.7604, 4830.441
309.2425, 4867.427
309.7246, 4906.291
310.2068, 4928.187
310.6889, 4937.623
311.1710, 4946.638
311.6531, 4958.319
312.1352, 4973.482
312.6173, 4993.249
313.0995, 5018.742
313.5816, 5045.378
314.0637, 5072.190
314.5458, 5098.709
315.0279, 5124.276
315.5100, 5154.604
315.9922, 5179.417
316.4743, 5190.968
316.9564, 5184.789
317.4385, 5180.243
317.9206, 5191.974
318.4027, 5207.287
318.8849, 5208.443
319.3670, 5185.885
319.8491, 5152.585
320.3312, 5108.792
320.8133, 5051.131
321.2954, 5003.420
321.7776, 4979.378
322.2597, 4963.677
322.7418, 4939.978
323.2239, 4891.734
323.7060, 4849.458
324.1881, 4822.556
324.6703, 4812.655
325.1524, 4800.558
325.6345, 4782.382
326.1166, 4763.040
326.5987, 4746.284
327.0808, 4731.296
327.5630, 4719.901
328.0451, 4712.727
328.5272, 4709.677
329.0093, 4708.479
329.4914, 4706.111
329.9735, 4708.304
330.4557, 4719.611
330.9378, 4747.999
331.4199, 4771.116
331.9020, 4782.231
332.3841, 4785.981
332.8662, 4806.769
333.3484, 4854.230
333.8305, 4903.807
334.3126, 4941.941
334.7947, 4964.070
335.2768, 4987.003
335.7589, 5009.392
336.2411, 5034.191
336.7232, 5071.083
337.2053, 5123.177
337.6874, 5177.536
338.1695, 5231.037
338.6516, 5284.350
339.1338, 5325.452
339.6159, 5350.423
340.0980, 5368.457
340.5801, 5396.805
341.0622, 5437.631
341.5443, 5471.800
342.0265, 5493.279
342.5086, 5502.026
342.9907, 5495.736
343.4728, 5471.513
343.9549, 5443.800
344.4370, 5436.389
344.9192, 5446.227
345.4013, 5442.916
345.8834, 5410.711
346.3655, 5359.188
346.8476, 5313.948
347.3297, 5275.332
347.8119, 5238.113
348.2940, 5200.766
348.7761, 5161.519
349.2582, 5115.136
349.7403, 5053.637
350.2225, 4989.795
350.7046, 4944.173
351.1867, 4914.422
351.6688, 4885.569
352.1509, 4844.937
352.6331, 4798.693
353.1152, 4755.436
353.5973, 4715.677
354.0794, 4681.996
354.5615, 4663.203
355.0436, 4653.783
355.5258, 4636.950
356.0079, 4590.063
356.4900, 4539.169
356.9721, 4509.779
357.4542, 4512.044
357.9363, 4514.666
358.4185, 4495.918
358.9006, 4466.092
359.3827, 4442.988
359.8648, 4441.682
360.3469, 4442.437
360.8290, 4432.959
361.3112, 4410.082
361.7933, 4392.470
362.2754, 4391.192
362.7575, 4396.167
363.2396, 4396.439
363.7217, 4378.165
364.2039, 4366.323
364.6860, 4370.801
365.1681, 4391.938
365.6502, 4408.867
366.1323, 4417.714
366.6144, 4422.662
367.0966, 4426.510
367.5787, 4421.441
368.0608, 4425.164
368.5429, 4445.658
369.0250, 4478.074
369.5071, 4496.687
369.9893, 4492.533
370.4714, 4485.000
370.9535, 4483.171
371.4356, 4488.815
371.9177, 4495.916
372.3998, 4503.008
372.8820, 4512.293
373.3641, 4530.867
373.8462, 4564.744
374.3283, 4592.034
374.8104, 4599.743
375.2925, 4585.086
375.7747, 4586.488
376.2568, 4608.559
376.7389, 4637.569
377.2210, 4652.120
377.7031, 4650.704
378.1852, 4657.174
378.6674, 4683.533
379.1495, 4723.377
379.6316, 4750.521
380.1137, 4764.218
380.5958, 4769.910
381.0779, 4765.895
381.5601, 4755.747
382.0422, 4758.370
382.5243, 4782.271
383.0064, 4815.457
383.4885, 4836.173
383.9706, 4846.491
384.4528, 4860.233
384.9349, 4894.487
385.4170, 4936.517
385.8991, 4963.256
386.3812, 4967.031
386.8633, 4970.009
387.3455, 4994.786
387.8276, 5034.621
388.3097, 5074.619
388.7918, 5108.316
389.2739, 5138.086
389.7560, 5164.494
390.2382, 5187.181
390.7203, 5211.394
391.2024, 5237.938
391.6845, 5268.109
392.1666, 5303.803
392.6487, 5354.107
393.1309, 5401.951
393.6130, 5439.117
394.0951, 5466.445
394.5772, 5492.865
395.0593, 5522.675
395.5414, 5551.059
396.0236, 5574.699
396.5057, 5585.771
396.9878, 5600.929
397.4699, 5626.263
397.9520, 5657.333
398.4341, 5680.083
398.9163, 5692.863
399.3984, 5698.935
399.8805, 5697.978
400.3626, 5685.651
400.8447, 5679.101
401.3268, 5678.786
401.8090, 5683.929
402.2911, 5694.248
402.7732, 5711.515
403.2553, 5728.959
403.7374, 5744.158
404.2195, 5757.413
404.7017, 5775.415
405.1838, 5800.258
405.6659, 5824.379
406.1480, 5837.785
406.6301, 5840.242
407.1122, 5851.565
407.5944, 5877.070
408.0765, 5911.782
408.5586, 5944.700
409.0407, 5975.968
409.5228, 6005.473
410.0049, 6035.315
410.4871, 6063.105
410.9692, 6080.199
411.4513, 6083.479
411.9334, 6085.285
412.4155, 6097.682
412.8976, 6120.024
413.3798, 6149.554
413.8619, 6188.745
414.3440, 6232.711
414.8261, 6278.083
415.3082, 6324.903
415.7903, 6370.307
416.2725, 6402.737
416.7546, 6436.688
417.2367, 6489.632
417.7188, 6574.654
418.2009, 6670.065
418.6830, 6759.413
419.1652, 6849.239
419.6473, 6960.094
420.1294, 7111.741
420.6115, 7277.549
421.0937, 7444.620
421.5758, 7601.318
422.0579, 7773.925
422.5400, 7979.800
423.0221, 8200.976
423.5042, 8412.142
423.9864, 8588.622
424.4685, 8779.253
424.9506, 8998.706
425.4327, 9245.575
425.9148, 9504.835
426.3969, 9786.461
426.8791, 10068.96
427.3612, 10326.56
427.8433, 10545.02
428.3254, 10781.96
428.8075, 11048.61
429.2896, 11337.28
429.7718, 11625.42
430.2539, 11920.10
430.7360, 12181.29
431.2181, 12372.38
431.7002, 12497.80
432.1823, 12623.67
432.6645, 12755.71
433.1466, 12880.41
433.6287, 12994.63
434.1108, 13090.87
434.5929, 13128.80
435.0750, 13075.53
435.5572, 12959.72
436.0393, 12831.89
436.5214, 12691.16
437.0035, 12517.84
437.4856, 12283.86
437.9677, 12013.22
438.4499, 11739.06
438.9320, 11466.68
439.4141, 11198.04
439.8962, 10927.43
440.3783, 10662.19
440.8604, 10413.24
441.3426, 10202.95
441.8247, 10000.60
442.3068, 9782.105
442.7889, 9534.802
443.2710, 9320.120
443.7531, 9179.660
444.2353, 9070.829
444.7174, 8944.078
445.1995, 8768.823
445.6816, 8603.139
446.1637, 8459.040
446.6458, 8335.739
447.1280, 8211.145
447.6101, 8080.083
448.0922, 7952.941
448.5743, 7836.851
449.0564, 7732.987
449.5385, 7634.238
450.0207, 7541.122
450.5028, 7452.681
450.9849, 7365.817
451.4670, 7279.443
451.9491, 7204.467
452.4312, 7149.517
452.9134, 7111.511
453.3955, 7058.338
453.8776, 6986.481
454.3597, 6925.507
454.8418, 6919.510
455.3239, 6953.666
455.8061, 6964.188
456.2882, 6927.495
456.7703, 6875.308
457.2524, 6853.013
457.7345, 6855.156
458.2166, 6859.117
458.6988, 6840.399
459.1809, 6822.100
459.6630, 6835.053
460.1451, 6886.875
460.6272, 6937.223
461.1093, 6961.512
461.5915, 6969.055
462.0736, 6970.793
462.5557, 6959.928
463.0378, 6954.132
463.5199, 6961.853
464.0020, 6981.615
464.4842, 7002.186
464.9663, 7038.486
465.4484, 7062.022
465.9305, 7055.986
466.4126, 6993.840
466.8947, 6947.844
467.3769, 6923.765
467.8590, 6913.375
468.3411, 6902.609
468.8232, 6887.344
469.3053, 6880.322
469.7874, 6886.277
470.2696, 6904.559
470.7517, 6923.330
471.2338, 6942.366
471.7159, 6962.404
472.1980, 6980.457
472.6801, 6997.005
473.1623, 7028.044
473.6444, 7077.898
474.1265, 7139.436
474.6086, 7201.022
475.0907, 7263.286
475.5728, 7330.285
476.0550, 7408.056
476.5371, 7490.897
477.0192, 7565.634
477.5013, 7631.971
477.9834, 7703.990
478.4655, 7792.684
478.9477, 7893.953
479.4298, 8001.508
479.9119, 8118.458
480.3940, 8236.734
480.8761, 8351.464
481.3582, 8463.613
481.8404, 8574.560
482.3225, 8685.934
482.8046, 8795.146
483.2867, 8902.102
483.7688, 9007.017
484.2509, 9108.748
484.7331, 9202.961
485.2152, 9295.765
485.6973, 9397.489
486.1794, 9532.120
486.6615, 9633.829
487.1436, 9686.143
487.6258, 9698.699
488.1079, 9721.208
488.5900, 9764.307
489.0721, 9787.271
489.5542, 9764.262
490.0363, 9695.009
490.5185, 9616.610
491.0006, 9531.932
491.4827, 9433.803
491.9648, 9313.365
492.4470, 9171.854
492.9291, 9016.095
493.4112, 8845.518
493.8933, 8667.867
494.3754, 8500.710
494.8575, 8341.121
495.3397, 8180.827
495.8218, 7998.127
496.3039, 7816.868
496.7860, 7667.739
497.2681, 7558.684
497.7502, 7458.428
498.2324, 7345.990
498.7145, 7232.746
499.1966, 7131.990
499.6787, 7044.021
500.1608, 6974.035
500.6429, 6930.500
501.1251, 6911.548
501.6072, 6888.312
502.0893, 6835.599
502.5714, 6798.310
503.0535, 6800.219
503.5356, 6862.144
504.0178, 6913.354
504.4999, 6950.580
504.9820, 6979.577
505.4641, 7005.129
505.9462, 7022.889
506.4283, 7059.621
506.9105, 7126.302
507.3926, 7216.865
507.8747, 7305.847
508.3568, 7393.049
508.8389, 7489.266
509.3210, 7618.525
509.8032, 7764.461
510.2853, 7877.856
510.7674, 7946.140
511.2495, 8009.465
511.7316, 8111.547
512.2137, 8239.427
512.6959, 8364.917
513.1780, 8474.797
513.6601, 8580.901
514.1422, 8697.156
514.6243, 8819.956
515.1064, 8924.623
515.5886, 8981.325
516.0707, 9031.347
516.5528, 9102.365
517.0349, 9221.129
517.5170, 9313.597
517.9991, 9370.104
518.4813, 9396.960
518.9634, 9399.625
519.4455, 9370.977
519.9276, 9330.673
520.4097, 9284.644
520.8918, 9231.216
521.3740, 9151.509
521.8561, 9041.940
522.3382, 8917.940
522.8203, 8785.526
523.3024, 8646.256
523.7845, 8505.192
524.2667, 8359.343
524.7488, 8221.275
525.2309, 8113.353
525.7130, 8024.433
526.1951, 7916.566
526.6772, 7755.131
527.1594, 7587.045
527.6415, 7475.749
528.1236, 7410.779
528.6057, 7343.478
529.0878, 7242.501
529.5699, 7131.790
530.0521, 7027.706
530.5342, 6929.420
531.0163, 6846.888
531.4984, 6791.978
531.9805, 6749.852
532.4626, 6704.436
532.9448, 6652.804
533.4269, 6598.668
533.9090, 6540.609
534.3911, 6480.155
534.8732, 6424.476
535.3553, 6369.513
535.8375, 6325.919
536.3196, 6301.216
536.8017, 6296.041
537.2838, 6288.980
537.7659, 6279.325
538.2480, 6269.900
538.7302, 6264.495
539.2123, 6262.410
539.6944, 6258.313
540.1765, 6248.937
540.6586, 6240.917
541.1407, 6248.563
541.6229, 6266.792
542.1050, 6277.500
542.5871, 6265.813
543.0692, 6245.640
543.5513, 6229.479
544.0334, 6218.097
544.5156, 6204.611
544.9977, 6179.804
545.4798, 6155.019
545.9619, 6140.524
546.4440, 6156.672
546.9261, 6155.692
547.4083, 6116.307
547.8904, 6058.447
548.3725, 6019.200
548.8546, 6010.498
549.3367, 6000.299
549.8188, 5980.061
550.3010, 5950.841
550.7831, 5925.101
551.2652, 5903.458
551.7473, 5883.156
552.2294, 5863.320
552.7115, 5843.646
553.1937, 5821.368
553.6758, 5795.771
554.1579, 5769.622
554.6400, 5750.232
555.1221, 5733.371
555.6042, 5707.241
556.0864, 5663.809
556.5685, 5612.747
557.0506, 5559.865
557.5327, 5506.488
558.0148, 5458.441
558.4969, 5417.891
558.9791, 5383.917
559.4612, 5357.488
559.9433, 5340.102
560.4254, 5323.197
560.9075, 5305.736
561.3896, 5287.875
561.8718, 5269.397
562.3539, 5248.475
562.8360, 5229.984
563.3181, 5214.397
563.8002, 5201.581
564.2823, 5191.166
564.7645, 5183.407
565.2466, 5177.205
565.7287, 5171.348
566.2108, 5166.665
566.6929, 5167.610
567.1750, 5174.240
567.6572, 5185.048
568.1393, 5202.565
568.6214, 5222.609
569.1035, 5235.388
569.5856, 5238.208
570.0677, 5239.016
570.5499, 5247.141
571.0320, 5257.098
571.5141, 5260.290
571.9962, 5246.505
572.4783, 5232.397
572.9604, 5228.125
573.4426, 5230.713
573.9247, 5224.248
574.4068, 5202.389
574.8889, 5174.174
575.3710, 5140.056
575.8531, 5096.534
576.3353, 5068.667
576.8174, 5062.657
577.2995, 5063.504
577.7816, 5057.912
578.2637, 5045.658
578.7458, 5029.129
579.2280, 5008.396
579.7101, 4984.031
580.1922, 4956.521
580.6743, 4926.070
581.1564, 4893.840
581.6385, 4855.066
582.1207, 4817.583
582.6028, 4796.337
583.0849, 4789.183
583.5670, 4777.850
584.0491, 4739.640
584.5313, 4700.617
585.0134, 4683.143
585.4955, 4697.424
585.9776, 4710.785
586.4597, 4720.080
586.9418, 4721.977
587.4240, 4712.051
587.9061, 4680.209
588.3882, 4651.919
588.8703, 4626.428
589.3524, 4607.162
589.8345, 4607.140
590.3167, 4631.358
590.7988, 4655.968
591.2809, 4672.372
591.7630, 4680.725
592.2451, 4679.006
592.7272, 4666.957
593.2094, 4651.190
593.6915, 4631.211
594.1736, 4612.643
594.6557, 4609.236
595.1378, 4627.005
595.6199, 4643.916
596.1021, 4639.810
596.5842, 4625.379
597.0663, 4615.839
597.5485, 4613.687
598.0306, 4620.098
598.5127, 4642.750
598.9948, 4676.298
599.4769, 4697.771
599.9590, 4696.964
600.4412, 4695.051
600.9233, 4698.518
601.4054, 4707.642
601.8875, 4718.842
602.3696, 4733.884
602.8517, 4746.447
603.3339, 4747.917
603.8160, 4739.575
604.2981, 4739.059
604.7802, 4749.459
605.2623, 4764.020
605.7444, 4776.336
606.2266, 4785.955
606.7087, 4790.921
607.1908, 4785.895
607.6729, 4780.961
608.1550, 4784.375
608.6371, 4794.546
609.1193, 4806.424
609.6014, 4816.858
610.0835, 4829.481
610.5656, 4846.816
611.0477, 4869.878
611.5298, 4891.108
612.0120, 4914.411
612.4941, 4931.574
612.9762, 4936.188
613.4583, 4925.381
613.9404, 4911.998
614.4225, 4895.710
614.9047, 4878.463
615.3868, 4865.796
615.8689, 4862.940
616.3510, 4857.214
616.8331, 4848.805
617.3152, 4827.836
617.7974, 4824.496
618.2795, 4814.956
618.7616, 4805.751
619.2437, 4806.656
619.7258, 4790.683
620.2079, 4792.670
620.6901, 4788.349
621.1722, 4787.813
621.6543, 4781.032
622.1364, 4763.862
622.6185, 4753.746
623.1006, 4737.103
623.5828, 4723.769
624.0649, 4712.704
624.5470, 4705.901
625.0291, 4706.352
625.5112, 4714.981
625.9933, 4726.983
626.4755, 4743.868
626.9576, 4760.278
627.4397, 4762.046
627.9218, 4751.088
628.4039, 4742.021
628.8860, 4746.892
629.3682, 4755.248
629.8503, 4749.758
630.3324, 4732.541
