##NAMES=Cornwallite
##RRUFFID=R110146
##IDEAL CHEMISTRY=Cu^2+^_5_(As^5+^O_4_)_2_(OH)_4_
##LOCALITY=Arkaroola Station, flinders Ranges, South Australia, Australia
##OWNER=RRUFF
##SOURCE=The University of Arizona Mineral Museum
##DESCRIPTION=Dark green tabular crystals on quartz, associated with lighter green elongated olivenite
##STATUS=The identification of this mineral has been confirmed by single-crystal X-ray diffraction.
##URL=rruff.info/R110146
149.7925, 26.47458
150.2747, 29.58689
150.7568, 32.85510
151.2389, 36.88195
151.7210, 41.82438
152.2031, 47.66441
152.6852, 54.35294
153.1674, 61.72742
153.6495, 70.02577
154.1316, 79.62477
154.6137, 90.65532
155.0958, 102.9025
155.5779, 116.2928
156.0601, 130.7176
156.5422, 146.4380
157.0243, 163.8008
157.5064, 182.3996
157.9885, 201.4470
158.4706, 221.6419
158.9528, 241.6124
159.4349, 260.6961
159.9170, 278.4979
160.3991, 295.9301
160.8812, 314.0416
161.3633, 332.0799
161.8455, 348.0688
162.3276, 361.5965
162.8097, 372.6092
163.2918, 381.4610
163.7739, 389.0790
164.2560, 393.1828
164.7382, 392.3987
165.2203, 387.1476
165.7024, 379.0431
166.1845, 367.4907
166.6666, 353.9809
167.1487, 339.9352
167.6309, 325.0365
168.1130, 310.2352
168.5951, 296.0321
169.0772, 282.4159
169.5593, 269.7231
170.0414, 258.3362
170.5236, 247.8877
171.0057, 238.0762
171.4878, 228.4489
171.9699, 219.5395
172.4520, 211.9381
172.9341, 205.5775
173.4163, 200.1056
173.8984, 195.4758
174.3805, 191.5086
174.8626, 188.0318
175.3447, 184.8307
175.8268, 182.0838
176.3090, 179.9919
176.7911, 178.5744
177.2732, 177.7133
177.7553, 176.6822
178.2374, 175.3497
178.7195, 174.2436
179.2017, 173.6810
179.6838, 173.4560
180.1659, 173.1004
180.6480, 172.5595
181.1301, 172.5230
181.6122, 173.9058
182.0944, 176.4110
182.5765, 179.0281
183.0586, 181.2720
183.5407, 183.3320
184.0228, 185.6896
184.5049, 188.3264
184.9871, 191.2791
185.4692, 194.5453
185.9513, 198.1419
186.4334, 202.0030
186.9155, 206.1412
187.3976, 210.5384
187.8798, 215.2888
188.3619, 220.4410
188.8440, 225.6935
189.3261, 230.5697
189.8082, 235.1226
190.2903, 239.4408
190.7725, 243.3191
191.2546, 246.9492
191.7367, 250.9085
192.2188, 255.0116
192.7009, 259.9710
193.1830, 266.9343
193.6652, 275.8500
194.1473, 286.0581
194.6294, 297.4925
195.1115, 310.0555
195.5936, 322.6539
196.0757, 335.4011
196.5579, 347.8708
197.0400, 359.9652
197.5221, 371.9394
198.0042, 381.0952
198.4863, 386.2555
198.9684, 387.4131
199.4506, 384.4884
199.9327, 377.1797
200.4148, 366.3192
200.8969, 353.3095
201.3790, 337.8018
201.8611, 321.4096
202.3433, 304.6096
202.8254, 287.2666
203.3075, 270.9201
203.7896, 255.7226
204.2717, 241.7060
204.7538, 229.2309
205.2360, 218.3940
205.7181, 208.6700
206.2002, 199.8446
206.6823, 191.9648
207.1644, 184.6008
207.6465, 177.6398
208.1287, 171.2183
208.6108, 165.6187
209.0929, 160.9702
209.5750, 156.7542
210.0571, 152.6392
210.5392, 148.4821
211.0214, 145.0188
211.5035, 142.4630
211.9856, 140.6018
212.4677, 138.5369
212.9498, 136.0286
213.4319, 133.8472
213.9140, 132.5408
214.3962, 132.3837
214.8783, 132.1043
215.3604, 131.5163
215.8425, 130.7396
216.3246, 130.2770
216.8067, 130.1701
217.2889, 130.2826
217.7710, 130.5421
218.2531, 130.9651
218.7352, 131.4910
219.2173, 132.1510
219.6994, 132.9150
220.1816, 133.5713
220.6637, 133.9789
221.1458, 134.5299
221.6279, 135.5084
222.1100, 137.1269
222.5921, 138.6398
223.0743, 140.0470
223.5564, 141.3094
224.0385, 142.2802
224.5206, 142.8414
225.0027, 143.2732
225.4848, 143.8232
225.9670, 144.8160
226.4491, 145.1363
226.9312, 144.6242
227.4133, 143.3782
227.8954, 141.7690
228.3775, 139.6673
228.8597, 137.4405
229.3418, 135.3277
229.8239, 133.3744
230.3060, 131.4193
230.7881, 129.3678
231.2702, 127.2907
231.7524, 125.6405
232.2345, 124.5934
232.7166, 123.7410
233.1987, 122.8466
233.6808, 121.7874
234.1629, 120.9418
234.6451, 120.2702
235.1272, 119.8194
235.6093, 119.8107
236.0914, 120.4177
236.5735, 121.2262
237.0556, 121.9924
237.5378, 122.5831
238.0199, 123.4372
238.5020, 124.6688
238.9841, 126.1909
239.4662, 127.6130
239.9483, 128.9689
240.4305, 130.1902
240.9126, 131.2797
241.3947, 132.3530
241.8768, 133.0377
242.3589, 133.2142
242.8410, 133.0005
243.3232, 132.8391
243.8053, 132.9366
244.2874, 132.7978
244.7695, 132.1339
245.2516, 130.6649
245.7337, 129.2960
246.2159, 128.1601
246.6980, 127.1183
247.1801, 125.6934
247.6622, 123.4932
248.1443, 121.4754
248.6264, 120.1745
249.1086, 119.9891
249.5907, 119.5217
250.0728, 118.5903
250.5549, 117.4104
251.0370, 116.5328
251.5191, 115.9316
252.0013, 115.6768
252.4834, 115.8444
252.9655, 116.6113
253.4476, 117.3381
253.9297, 118.0124
254.4118, 118.6529
254.8940, 119.2819
255.3761, 119.7733
255.8582, 120.4786
256.3403, 121.5381
256.8224, 122.9767
257.3046, 124.6858
257.7867, 126.7480
258.2688, 129.0064
258.7509, 131.1371
259.2330, 133.0299
259.7151, 134.9671
260.1973, 137.0640
260.6794, 139.2911
261.1615, 141.6081
261.6436, 143.9047
262.1257, 146.3578
262.6078, 149.2570
263.0900, 152.5969
263.5721, 156.3501
264.0542, 160.5609
264.5363, 165.3841
265.0184, 169.9583
265.5005, 174.1934
265.9827, 178.3808
266.4648, 183.0424
266.9469, 188.2480
267.4290, 193.6493
267.9111, 199.2937
268.3932, 205.1903
268.8754, 210.6852
269.3575, 215.5857
269.8396, 220.3636
270.3217, 225.5896
270.8038, 231.3697
271.2859, 237.1212
271.7681, 242.7612
272.2502, 248.2484
272.7323, 253.1797
273.2144, 257.5871
273.6965, 261.1931
274.1786, 263.7155
274.6608, 265.1884
275.1429, 265.5010
275.6250, 264.5670
276.1071, 262.4491
276.5892, 259.4640
277.0714, 255.6273
277.5535, 251.0121
278.0356, 245.6281
278.5177, 239.4479
278.9998, 232.7541
279.4819, 225.5107
279.9641, 217.7932
280.4462, 210.1549
280.9283, 202.5302
281.4104, 195.1672
281.8925, 188.1723
282.3746, 181.5474
282.8568, 175.2377
283.3389, 169.2110
283.8210, 163.5175
284.3031, 158.3162
284.7852, 153.6043
285.2673, 149.2831
285.7495, 145.2589
286.2316, 141.5301
286.7137, 138.0630
287.1958, 134.8469
287.6779, 131.8982
288.1600, 129.2816
288.6422, 126.9976
289.1243, 124.8985
289.6064, 122.8694
290.0885, 120.9427
290.5706, 119.4524
291.0527, 118.4962
291.5349, 117.8083
292.0170, 116.9953
292.4991, 116.0712
292.9812, 115.1269
293.4633, 114.1233
293.9454, 113.1350
294.4276, 112.4437
294.9097, 112.0987
295.3918, 111.9281
295.8739, 111.7067
296.3560, 111.4680
296.8381, 111.3578
297.3203, 111.3832
297.8024, 111.5966
298.2845, 112.2207
298.7666, 113.3026
299.2487, 114.3880
299.7308, 114.9920
300.2130, 115.2352
300.6951, 115.4479
301.1772, 115.4768
301.6593, 115.6880
302.1414, 116.7595
302.6235, 118.6661
303.1057, 120.7610
303.5878, 122.4354
304.0699, 123.9149
304.5520, 125.5872
305.0341, 127.6665
305.5162, 129.9066
305.9984, 132.1302
306.4805, 134.3134
306.9626, 136.4381
307.4447, 138.1331
307.9268, 139.8560
308.4089, 142.2258
308.8911, 145.6850
309.3732, 149.3965
309.8553, 152.6150
310.3374, 155.4895
310.8195, 158.5979
311.3016, 162.1664
311.7838, 166.1179
312.2659, 170.4571
312.7480, 175.2399
313.2301, 180.2312
313.7122, 185.3293
314.1943, 190.5901
314.6765, 196.0208
315.1586, 201.6953
315.6407, 207.4767
316.1228, 213.2778
316.6049, 218.9762
317.0870, 225.0577
317.5692, 231.9467
318.0513, 239.2561
318.5334, 246.4050
319.0155, 253.0901
319.4976, 259.6807
319.9797, 266.3305
320.4619, 273.0752
320.9440, 279.6022
321.4261, 285.8044
321.9082, 291.6912
322.3903, 297.2433
322.8724, 302.3879
323.3546, 307.2603
323.8367, 311.7018
324.3188, 315.7408
324.8009, 320.1257
325.2830, 325.0767
325.7651, 330.3070
326.2473, 335.6211
326.7294, 340.6107
327.2115, 346.1461
327.6936, 352.5074
328.1757, 359.5275
328.6578, 366.6358
329.1400, 374.6049
329.6221, 382.0340
330.1042, 388.4025
330.5863, 393.5379
331.0684, 397.9351
331.5505, 401.7019
332.0327, 404.6847
332.5148, 406.5145
332.9969, 407.2294
333.4790, 406.6944
333.9611, 404.8117
334.4432, 401.4570
334.9254, 397.0821
335.4075, 391.3163
335.8896, 384.8758
336.3717, 378.8241
336.8538, 373.5724
337.3359, 367.8073
337.8180, 361.0172
338.3001, 353.2593
338.7823, 346.1232
339.2644, 339.8563
339.7465, 333.8920
340.2286, 327.6573
340.7107, 321.1405
341.1928, 314.7519
341.6750, 308.6742
342.1571, 302.8331
342.6392, 297.3810
343.1213, 292.3494
343.6034, 287.3084
344.0855, 281.7867
344.5677, 275.8554
345.0498, 270.0913
345.5319, 264.6379
346.0140, 259.3321
346.4961, 253.8251
346.9782, 248.1496
347.4604, 242.5253
347.9425, 236.9555
348.4246, 231.5291
348.9067, 226.8150
349.3888, 222.8861
349.8709, 219.4431
350.3531, 216.2532
350.8352, 213.2762
351.3173, 210.3775
351.7994, 207.2554
352.2815, 204.2287
352.7636, 201.8875
353.2458, 200.2295
353.7279, 198.8042
354.2100, 197.3180
354.6921, 195.7897
355.1742, 194.2900
355.6563, 193.0835
356.1385, 191.6274
356.6206, 189.1771
357.1027, 185.9014
357.5848, 182.7191
358.0669, 180.2449
358.5490, 178.0605
359.0312, 175.8089
359.5133, 173.4444
359.9954, 170.8937
360.4775, 167.9387
360.9596, 164.7537
361.4417, 161.7570
361.9239, 159.2628
362.4060, 156.8616
362.8881, 154.2677
363.3702, 151.3732
363.8523, 148.7142
364.3344, 146.6367
364.8166, 144.8261
365.2987, 142.9073
365.7808, 140.7133
366.2629, 138.5345
366.7450, 136.4287
367.2271, 134.3984
367.7093, 132.4684
368.1914, 130.6720
368.6735, 128.9550
369.1556, 127.2674
369.6377, 125.3990
370.1198, 123.8700
370.6020, 122.8608
371.0841, 122.2266
371.5662, 121.4347
372.0483, 120.3407
372.5304, 119.2741
373.0125, 118.3754
373.4947, 117.7111
373.9768, 117.0335
374.4589, 116.2909
374.9410, 115.5686
375.4231, 115.0341
375.9052, 114.7546
376.3874, 114.4658
376.8695, 114.0629
377.3516, 113.5495
377.8337, 113.2237
378.3158, 113.1186
378.7979, 113.1026
379.2801, 113.0166
379.7622, 112.8506
380.2443, 112.8503
380.7264, 113.1020
381.2085, 113.5178
381.6906, 113.8618
382.1728, 114.1300
382.6549, 114.4125
383.1370, 114.7480
383.6191, 115.1412
384.1012, 115.6017
384.5833, 116.1335
385.0655, 116.7302
385.5476, 117.2942
386.0297, 117.8898
386.5118, 118.7266
386.9939, 120.0082
387.4760, 121.5597
387.9582, 123.2366
388.4403, 125.0518
388.9224, 126.6937
389.4045, 127.6723
389.8866, 128.3678
390.3687, 129.3396
390.8509, 131.0075
391.3330, 132.7398
391.8151, 134.0023
392.2972, 134.9226
392.7793, 136.0380
393.2614, 137.6808
393.7436, 139.5680
394.2257, 141.5802
394.7078, 143.7943
395.1899, 145.8489
395.6720, 147.3073
396.1541, 148.5765
396.6363, 150.3110
397.1184, 153.1161
397.6005, 155.9938
398.0826, 158.5545
398.5647, 160.7169
399.0468, 163.0954
399.5290, 165.6931
400.0111, 168.5609
400.4932, 171.7432
400.9753, 175.3938
401.4574, 179.1623
401.9395, 182.9530
402.4217, 186.8152
402.9038, 190.8946
403.3859, 195.1372
403.8680, 199.6782
404.3501, 204.6479
404.8322, 210.1211
405.3144, 215.6082
405.7965, 221.0174
406.2786, 226.4720
406.7607, 232.1639
407.2428, 238.1344
407.7249, 244.1512
408.2071, 250.1505
408.6892, 256.1138
409.1713, 261.6936
409.6534, 266.8618
410.1355, 271.9327
410.6176, 277.4430
411.0998, 283.2377
411.5819, 288.2644
412.0640, 292.2945
412.5461, 295.5132
413.0282, 298.3878
413.5103, 300.8333
413.9925, 302.4428
414.4746, 302.7939
414.9567, 302.2343
415.4388, 301.2184
415.9209, 299.7491
416.4030, 298.0621
416.8852, 296.4368
417.3673, 294.6981
417.8494, 292.5612
418.3315, 289.6180
418.8136, 286.4782
419.2957, 283.1196
419.7779, 279.7199
420.2600, 277.1924
420.7421, 276.4657
421.2242, 276.4871
421.7063, 276.4381
422.1884, 275.6263
422.6706, 275.7583
423.1527, 277.5320
423.6348, 280.4976
424.1169, 283.7970
424.5990, 286.9440
425.0811, 290.7892
425.5633, 295.3670
426.0454, 300.5151
426.5275, 307.4710
427.0096, 316.7525
427.4917, 327.5076
427.9738, 339.0644
428.4560, 351.2083
428.9381, 364.5126
429.4202, 379.0070
429.9023, 394.5167
430.3844, 411.2480
430.8665, 429.0350
431.3487, 448.2582
431.8308, 469.0038
432.3129, 491.1499
432.7950, 515.4595
433.2771, 542.1349
433.7592, 570.2936
434.2414, 599.0936
434.7235, 628.6045
435.2056, 659.6681
435.6877, 692.6746
436.1698, 727.1768
436.6519, 762.8537
437.1341, 799.7315
437.6162, 837.6215
438.0983, 877.9362
438.5804, 919.2194
439.0625, 959.2474
439.5446, 997.9586
440.0268, 1034.371
440.5089, 1068.044
440.9910, 1098.888
441.4731, 1126.208
441.9552, 1151.942
442.4373, 1172.613
442.9195, 1186.350
443.4016, 1193.083
443.8837, 1193.676
444.3658, 1188.250
444.8479, 1176.877
445.3300, 1159.687
445.8122, 1135.405
446.2943, 1106.845
446.7764, 1072.993
447.2585, 1035.037
447.7406, 996.0251
448.2227, 954.9216
448.7049, 913.9670
449.1870, 873.1662
449.6691, 832.7172
450.1512, 793.2637
450.6333, 754.7762
451.1154, 717.8505
451.5976, 682.9820
452.0797, 650.3752
452.5618, 620.2916
453.0439, 592.7234
453.5260, 567.8810
454.0081, 544.9623
454.4903, 523.9611
454.9724, 504.4404
455.4545, 485.9607
455.9366, 468.6677
456.4187, 452.3624
456.9008, 437.1463
457.3830, 423.0033
457.8651, 410.9072
458.3472, 400.2042
458.8293, 389.3559
459.3114, 377.3997
459.7935, 365.3758
460.2757, 354.4251
460.7578, 344.4578
461.2399, 334.7821
461.7220, 324.9910
462.2041, 315.2612
462.6862, 305.8593
463.1684, 296.8511
463.6505, 288.1718
464.1326, 279.8105
464.6147, 271.8752
465.0968, 264.3645
465.5789, 257.6333
466.0611, 251.1976
466.5432, 244.8194
467.0253, 238.5503
467.5074, 232.6645
467.9895, 227.3715
468.4716, 222.3255
468.9538, 217.3862
469.4359, 212.5346
469.9180, 207.9474
470.4001, 203.5701
470.8822, 199.4442
471.3643, 195.6162
471.8465, 192.1177
472.3286, 188.8195
472.8107, 185.6949
473.2928, 182.7676
473.7749, 179.9156
474.2570, 177.1392
474.7392, 174.5076
475.2213, 172.0020
475.7034, 169.6558
476.1855, 167.7755
476.6676, 166.4779
477.1497, 165.3583
477.6319, 163.9969
478.1140, 162.3938
478.5961, 160.5541
479.0782, 158.0834
479.5603, 155.6230
480.0424, 154.0094
480.5246, 153.1602
481.0067, 152.4581
481.4888, 151.6179
481.9709, 150.6915
482.4530, 149.6879
482.9352, 148.5033
483.4173, 147.5047
483.8994, 146.9144
484.3815, 146.5800
484.8636, 146.2758
485.3457, 145.9827
485.8279, 145.6805
486.3100, 145.3430
486.7921, 144.9710
487.2742, 144.6795
487.7563, 144.6086
488.2384, 144.4772
488.7206, 144.0922
489.2027, 143.2651
489.6848, 142.7401
490.1669, 142.6797
490.6490, 142.7607
491.1311, 142.4011
491.6133, 141.5254
492.0954, 140.7597
492.5775, 140.3384
493.0596, 140.1612
493.5417, 139.8658
494.0238, 139.4515
494.5060, 138.9554
494.9881, 138.3446
495.4702, 137.6758
495.9523, 137.0977
496.4344, 136.6526
496.9165, 136.1981
497.3987, 135.6084
497.8808, 134.9039
498.3629, 134.1349
498.8450, 133.2790
499.3271, 132.4023
499.8092, 131.5121
500.2914, 130.6209
500.7735, 129.8612
501.2556, 129.5879
501.7377, 129.2222
502.2198, 128.3194
502.7019, 126.4110
503.1841, 125.0471
503.6662, 124.9186
504.1483, 125.2260
504.6304, 125.0272
505.1125, 123.8832
505.5946, 122.9722
506.0768, 122.6460
506.5589, 122.7067
507.0410, 122.0837
507.5231, 120.5667
508.0052, 118.9588
508.4873, 117.6556
508.9695, 116.6752
509.4516, 115.7443
509.9337, 114.8920
510.4158, 113.9557
510.8979, 112.6828
511.3800, 111.1352
511.8622, 109.6341
512.3443, 108.2254
512.8264, 106.9552
513.3085, 105.9386
513.7906, 105.1151
514.2728, 104.2675
514.7549, 103.2723
515.2370, 102.2024
515.7191, 101.0862
516.2012, 99.91747
516.6833, 98.82900
517.1655, 98.00169
517.6476, 97.20863
518.1297, 96.25145
518.6118, 94.75028
519.0939, 93.50613
519.5760, 92.66374
520.0582, 92.16999
520.5403, 91.87096
521.0224, 92.01815
521.5045, 92.00699
521.9866, 91.60179
522.4688, 90.80103
522.9509, 90.22771
523.4330, 89.89015
523.9151, 89.74668
524.3972, 89.81388
524.8793, 90.09575
525.3615, 90.35612
525.8436, 90.56899
526.3257, 90.77100
526.8078, 90.98795
527.2899, 91.23048
527.7720, 91.54822
528.2542, 91.94094
528.7363, 92.42964
529.2184, 93.15253
529.7005, 94.04595
530.1826, 94.79939
530.6647, 95.16959
531.1469, 95.34661
531.6290, 95.44521
532.1111, 95.43506
532.5932, 95.58162
533.0753, 96.19340
533.5574, 96.92882
534.0396, 97.42338
534.5217, 97.38245
535.0038, 97.37846
535.4859, 97.61133
535.9680, 97.94873
536.4501, 97.98341
536.9323, 97.74203
537.4144, 97.14719
537.8965, 96.07166
538.3786, 94.50404
538.8607, 93.14851
539.3428, 92.04050
539.8250, 91.06544
540.3071, 90.23253
540.7892, 89.51466
541.2713, 88.51720
541.7534, 87.14931
542.2355, 85.58868
542.7177, 83.94804
543.1998, 82.28934
543.6819, 80.85522
544.1640, 80.01908
544.6461, 79.29282
545.1282, 78.14541
545.6104, 76.65070
546.0925, 75.24355
546.5746, 74.26359
547.0567, 73.37340
547.5388, 72.29869
548.0209, 70.90085
548.5031, 69.67802
548.9852, 68.84922
549.4673, 68.18153
549.9494, 67.42170
550.4315, 66.41351
550.9136, 65.55680
551.3958, 64.96799
551.8779, 64.53487
552.3600, 63.91337
552.8421, 63.03678
553.3242, 62.19319
553.8063, 61.51105
554.2885, 60.97185
554.7706, 60.43447
555.2527, 59.89886
555.7348, 59.36830
556.2169, 58.77313
556.6990, 58.19010
557.1812, 57.86499
557.6633, 57.91282
558.1454, 57.92640
558.6275, 57.23170
559.1096, 56.27039
559.5917, 55.80642
560.0739, 56.92835
560.5560, 57.89087
561.0381, 57.73077
561.5202, 56.63672
562.0023, 55.46932
562.4844, 54.16297
562.9666, 53.06856
563.4487, 52.41512
563.9308, 52.30337
564.4129, 52.10698
564.8950, 51.76303
565.3771, 51.40222
565.8593, 51.12770
566.3414, 50.95013
566.8235, 50.81162
567.3056, 50.70943
567.7877, 50.63665
568.2698, 50.62537
568.7520, 50.66567
569.2341, 50.57917
569.7162, 50.20102
570.1983, 49.72034
570.6804, 49.48204
571.1625, 49.46632
571.6447, 49.52105
572.1268, 49.69996
572.6089, 49.81398
573.0910, 49.60490
573.5731, 48.99086
574.0552, 48.47588
574.5374, 48.27414
575.0195, 48.28286
575.5016, 48.40385
575.9837, 48.85173
576.4658, 49.11888
576.9479, 49.05164
577.4301, 48.80039
577.9122, 48.65619
578.3943, 48.64726
578.8764, 48.68359
579.3585, 48.73928
579.8406, 48.81797
580.3228, 48.96912
580.8049, 49.20701
581.2870, 49.42315
581.7691, 49.48484
582.2512, 49.45591
582.7333, 49.59677
583.2155, 49.92879
583.6975, 50.38295
584.1796, 50.97629
584.6617, 51.63751
585.1439, 52.26213
585.6260, 52.86180
586.1081, 53.34746
586.5902, 53.45044
587.0723, 53.42459
587.5544, 53.75304
588.0366, 55.00922
588.5187, 56.20596
589.0008, 56.96453
589.4829, 57.30395
589.9650, 57.78443
590.4471, 58.43548
590.9293, 59.19223
591.4114, 60.08189
591.8935, 61.17263
592.3756, 61.88667
592.8577, 62.13292
593.3398, 62.24988
593.8220, 62.54592
594.3041, 63.01835
594.7862, 63.70753
595.2683, 64.72157
595.7504, 65.69212
596.2325, 66.17277
596.7147, 66.24000
597.1968, 66.08786
597.6789, 65.44786
598.1610, 64.91875
598.6431, 65.08816
599.1252, 65.80284
599.6074, 66.34197
600.0895, 66.44339
600.5716, 66.31765
601.0537, 66.02168
601.5358, 65.51670
602.0179, 65.05929
602.5001, 64.68907
602.9822, 64.32927
603.4643, 63.92083
603.9464, 63.44532
604.4285, 62.98875
604.9106, 62.57037
605.3928, 62.13966
605.8749, 61.60939
606.3570, 60.98091
606.8391, 60.29563
607.3212, 59.51332
607.8033, 58.74907
608.2855, 58.26247
608.7676, 57.96734
609.2497, 57.52821
609.7318, 56.67088
610.2139, 55.66493
610.6960, 54.66098
611.1782, 53.67497
611.6603, 52.85350
612.1424, 52.42537
612.6245, 52.03967
613.1066, 51.47303
613.5887, 50.60850
614.0709, 49.77359
614.5530, 48.89026
615.0351, 48.09969
615.5172, 47.54600
615.9993, 47.25432
616.4814, 47.11074
616.9636, 47.19949
617.4457, 47.27876
617.9278, 46.72174
618.4099, 45.60414
618.8920, 44.72053
619.3741, 44.56383
619.8563, 44.69922
620.3384, 44.51548
620.8205, 44.05413
621.3026, 43.52431
621.7847, 42.95074
622.2668, 42.42124
622.7490, 42.01604
623.2311, 41.74427
623.7132, 41.53997
624.1953, 41.49315
624.6774, 41.43573
625.1595, 41.24286
625.6417, 40.79620
626.1238, 40.44320
626.6059, 40.19168
627.0880, 40.03039
627.5701, 39.98077
628.0522, 40.06205
628.5344, 40.06797
629.0165, 39.94326
629.4986, 39.73809
629.9807, 39.52164
630.4628, 39.30083
630.9449, 39.11957
631.4271, 38.99572
631.9092, 38.92159
632.3913, 38.92349
632.8734, 38.98351
633.3555, 38.99521
633.8376, 38.85022
634.3198, 38.68296
634.8019, 38.58517
635.2840, 38.58775
635.7661, 38.53835
636.2482, 38.33501
636.7303, 38.14596
637.2125, 38.09578
637.6946, 38.24502
638.1767, 38.36295
638.6588, 38.44470
639.1409, 38.48796
639.6230, 38.46963
640.1052, 38.39519
640.5873, 38.34918
641.0694, 38.36609
641.5515, 38.40013
642.0336, 38.40068
642.5157, 38.36364
642.9979, 38.27576
643.4800, 38.07635
643.9621, 37.86902
644.4442, 37.70918
644.9263, 37.60019
