##NAMES=Coronadite
##RRUFFID=R090056
##IDEAL CHEMISTRY=Pb^2+^(Mn^4+^_6_Mn^3+^_2_)O_16_
##LOCALITY=Taouz, Er Rachidia Province, Mekn√®s-Tafilalet Region, Morocco
##OWNER=RRUFF
##SOURCE=Bob Downs
##DESCRIPTION=Spherical aggregates of black fine-grained material associated with vanadinite
##STATUS=The identification of this mineral has been confirmed by X-ray diffraction.
##URL=rruff.info/R090056
90.26367, 20.93199
90.74579, 21.39100
91.22791, 21.19624
91.71002, 20.42004
92.19214, 19.69671
92.67426, 19.67648
93.15637, 20.13008
93.63850, 20.45319
94.12061, 20.41497
94.60273, 20.12429
95.08485, 19.72597
95.56696, 19.18362
96.04908, 18.80364
96.53120, 19.23623
97.01331, 20.41681
97.49543, 21.18744
97.97755, 20.73104
98.45966, 19.14545
98.94178, 18.25523
99.42390, 18.21689
99.90602, 18.66830
100.3881, 18.99300
100.8703, 19.21747
101.3524, 19.21811
101.8345, 18.85132
102.3166, 17.99513
102.7987, 17.31724
103.2808, 16.91726
103.7630, 16.72713
104.2451, 16.42485
104.7272, 15.79765
105.2093, 15.33613
105.6914, 15.44821
106.1735, 16.82361
106.6557, 17.56512
107.1378, 17.11676
107.6199, 15.41720
108.1020, 14.51206
108.5841, 14.97468
109.0662, 15.92713
109.5484, 16.58750
110.0305, 16.96092
110.5126, 17.04608
110.9947, 16.71198
111.4768, 15.80120
111.9590, 15.19324
112.4411, 15.25012
112.9232, 15.58163
113.4053, 15.68419
113.8874, 15.13941
114.3695, 14.61834
114.8517, 14.42668
115.3338, 14.77441
115.8159, 15.00553
116.2980, 14.87547
116.7801, 14.49109
117.2622, 14.09043
117.7444, 13.57854
118.2265, 13.18606
118.7086, 13.10555
119.1907, 13.60789
119.6728, 14.07576
120.1549, 13.95992
120.6371, 13.43907
121.1192, 13.23728
121.6013, 14.12271
122.0834, 15.43551
122.5655, 16.44486
123.0477, 16.91097
123.5298, 17.00238
124.0119, 16.61638
124.4940, 15.80175
124.9761, 15.24577
125.4582, 15.65922
125.9404, 16.72245
126.4225, 17.80929
126.9046, 18.76104
127.3867, 19.56196
127.8688, 20.17106
128.3509, 20.58261
128.8331, 20.85815
129.3152, 20.99278
129.7973, 21.01858
130.2794, 21.09252
130.7615, 21.29756
131.2436, 21.60944
131.7258, 21.94222
132.2079, 22.28875
132.6900, 22.66774
133.1721, 22.99888
133.6542, 23.27748
134.1364, 23.88541
134.6185, 25.18494
135.1006, 27.15215
135.5827, 28.96506
136.0648, 30.56896
136.5469, 32.00157
137.0291, 33.35287
137.5112, 34.61699
137.9933, 35.78689
138.4754, 37.04781
138.9575, 38.54144
139.4396, 39.09570
139.9218, 38.27724
140.4039, 36.42676
140.8860, 35.20257
141.3681, 34.72168
141.8502, 34.67995
142.3323, 34.93364
142.8145, 35.69022
143.2966, 36.20074
143.7787, 36.22951
144.2608, 35.79018
144.7429, 35.70394
145.2251, 36.05791
145.7072, 36.68760
146.1893, 37.46693
146.6714, 38.58953
147.1535, 39.56996
147.6356, 40.28092
148.1178, 40.67982
148.5999, 41.07860
149.0820, 41.32570
149.5641, 41.63578
150.0462, 42.26490
150.5283, 43.74809
151.0105, 45.00901
151.4926, 45.30888
151.9747, 44.73604
152.4568, 44.46699
152.9389, 44.77638
153.4210, 45.34004
153.9032, 45.70984
154.3853, 45.94814
154.8674, 45.90337
155.3495, 45.47645
155.8316, 44.45856
156.3138, 43.54155
156.7959, 42.71426
157.2780, 42.05776
157.7601, 41.73182
158.2422, 42.13312
158.7243, 42.59332
159.2065, 42.79175
159.6886, 42.60089
160.1707, 42.29087
160.6528, 41.77827
161.1349, 41.18272
161.6170, 40.82494
162.0992, 41.28681
162.5813, 41.33413
163.0634, 41.72915
163.5455, 41.89708
164.0276, 41.85015
164.5097, 40.94476
164.9919, 41.14786
165.4740, 40.90674
165.9561, 40.64740
166.4382, 41.00655
166.9203, 40.22602
167.4025, 40.57533
167.8846, 40.47364
168.3667, 40.57838
168.8488, 40.23613
169.3309, 40.03193
169.8130, 40.27487
170.2952, 40.27021
170.7773, 39.87650
171.2594, 39.61598
171.7415, 39.79115
172.2236, 39.70316
172.7057, 39.37055
173.1879, 39.07212
173.6700, 39.03705
174.1521, 39.17232
174.6342, 39.31954
175.1163, 39.56584
175.5984, 39.72326
176.0806, 39.45186
176.5627, 38.74664
177.0448, 38.08797
177.5269, 38.05074
178.0090, 38.39856
178.4911, 38.15119
178.9733, 38.56766
179.4554, 38.75707
179.9375, 38.73161
180.4196, 37.84769
180.9017, 38.07228
181.3839, 37.85262
181.8660, 37.61476
182.3481, 37.99537
182.8302, 37.23632
183.3123, 37.60712
183.7944, 37.52691
184.2766, 37.65310
184.7587, 37.33232
185.2408, 37.14960
185.7229, 37.41401
186.2050, 37.43084
186.6871, 37.05861
187.1693, 37.19792
187.6514, 36.42324
188.1335, 36.45062
188.6156, 36.82404
189.0977, 36.47429
189.5798, 36.62178
190.0620, 36.57988
190.5441, 35.67733
191.0262, 36.27157
191.5083, 36.38063
191.9904, 36.62221
192.4725, 36.64891
192.9547, 35.81714
193.4368, 36.09390
193.9189, 35.92641
194.4010, 35.74072
194.8831, 36.17350
195.3652, 35.46660
195.8474, 35.88956
196.3295, 35.86151
196.8116, 36.03988
197.2937, 35.77126
197.7758, 35.64071
198.2579, 35.07202
198.7401, 35.52195
199.2222, 35.74482
199.7043, 35.75281
200.1864, 34.90235
200.6685, 35.16040
201.1507, 34.97420
201.6328, 34.76979
202.1149, 35.18386
202.5970, 34.45826
203.0791, 34.86252
203.5612, 34.81577
204.0434, 34.97541
204.5255, 34.68809
205.0076, 34.53883
205.4897, 34.83669
205.9718, 34.88698
206.4539, 34.54820
206.9361, 34.72097
207.4182, 33.97976
207.9003, 34.04059
208.3824, 34.44747
208.8645, 34.13116
209.3466, 34.31212
209.8288, 34.30368
210.3109, 33.43458
210.7930, 34.06227
211.2751, 34.04266
211.7572, 33.35838
212.2393, 33.93479
212.7215, 33.53079
213.2036, 33.66185
213.6857, 33.78087
214.1678, 33.90878
214.6499, 33.93427
215.1321, 33.76895
215.6142, 33.49923
216.0963, 33.54092
216.5784, 33.60848
217.0605, 34.03801
217.5426, 34.24045
218.0248, 34.22800
218.5069, 33.35712
218.9890, 33.59475
219.4711, 33.38813
219.9532, 33.16330
220.4353, 33.55695
220.9175, 32.81090
221.3996, 33.19474
221.8817, 33.12755
222.3638, 33.26679
222.8459, 32.95904
223.3280, 32.78935
223.8102, 33.14738
224.2923, 32.96247
224.7744, 33.48920
225.2565, 33.78885
225.7386, 33.87362
226.2208, 33.09994
226.7029, 33.43477
227.1850, 33.32537
227.6671, 33.19774
228.1492, 33.68859
228.6313, 33.03977
229.1135, 33.52082
229.5956, 33.55084
230.0777, 33.78728
230.5598, 33.57674
231.0419, 33.50426
231.5240, 33.87891
232.0062, 34.00597
232.4883, 33.57228
232.9704, 33.43154
233.4525, 32.91574
233.9346, 32.60424
234.4167, 32.62792
234.8989, 32.90065
235.3810, 33.00329
235.8631, 32.80734
236.3452, 32.61120
236.8273, 32.59245
237.3095, 32.84113
237.7916, 33.07512
238.2737, 33.30783
238.7558, 33.51631
239.2379, 33.61283
239.7200, 33.59941
240.2022, 33.47066
240.6843, 33.19788
241.1664, 32.65937
241.6485, 32.24217
242.1306, 31.97210
242.6127, 31.83476
243.0949, 31.80149
243.5770, 31.96032
244.0591, 32.10270
244.5412, 32.09290
245.0233, 31.76336
245.5054, 31.67940
245.9876, 32.02690
246.4697, 32.60955
246.9518, 32.77311
247.4339, 32.23594
247.9160, 31.69960
248.3981, 31.53827
248.8803, 31.99521
249.3624, 32.22960
249.8445, 32.12562
250.3266, 31.81520
250.8087, 31.65594
251.2909, 31.68202
251.7730, 31.80502
252.2551, 32.03526
252.7372, 32.55263
253.2193, 32.68148
253.7014, 32.20626
254.1836, 31.43659
254.6657, 31.10151
255.1478, 31.37050
255.6299, 31.77869
256.1120, 32.20106
256.5941, 32.75594
257.0763, 32.89683
257.5584, 32.42288
258.0405, 31.66331
258.5226, 31.31408
259.0047, 31.57214
259.4868, 31.82793
259.9690, 31.83661
260.4511, 31.53539
260.9332, 31.24765
261.4153, 30.88160
261.8974, 30.60546
262.3795, 30.81363
262.8617, 31.83758
263.3438, 32.54263
263.8259, 32.40519
264.3080, 31.23851
264.7901, 30.60561
265.2722, 30.67852
265.7544, 31.07911
266.2365, 31.25455
266.7186, 31.11998
267.2007, 31.01977
267.6829, 31.06815
268.1650, 31.27504
268.6471, 31.49946
269.1292, 31.80177
269.6113, 32.03454
270.0934, 31.94325
270.5756, 31.39908
271.0577, 31.03528
271.5398, 31.10638
272.0219, 31.59404
272.5040, 31.35900
272.9861, 31.87559
273.4683, 32.16510
273.9504, 32.23973
274.4325, 31.45591
274.9146, 31.78060
275.3967, 31.66105
275.8788, 31.52329
276.3610, 32.00400
276.8431, 31.34504
277.3252, 31.57912
277.8073, 31.54121
278.2894, 31.67528
278.7715, 31.81672
279.2537, 31.94561
279.7358, 32.05531
280.2179, 32.10035
280.7000, 32.06336
281.1821, 32.04235
281.6642, 32.18786
282.1464, 32.50230
282.6285, 32.57526
283.1106, 32.25776
283.5927, 31.72561
284.0748, 31.48645
284.5569, 31.56826
285.0391, 31.68183
285.5212, 31.57612
286.0033, 31.27835
286.4854, 31.13687
286.9675, 31.23919
287.4496, 31.44923
287.9318, 31.46405
288.4139, 31.28014
288.8960, 31.12847
289.3781, 31.20575
289.8602, 31.45368
290.3424, 31.56263
290.8245, 31.48369
291.3066, 31.31818
291.7887, 31.25401
292.2708, 31.27397
292.7530, 31.21306
293.2351, 30.85148
293.7172, 30.32965
294.1993, 30.10954
294.6814, 30.23583
295.1635, 30.54579
295.6457, 30.97506
296.1278, 31.46133
296.6099, 31.72770
297.0920, 31.48207
297.5741, 30.96065
298.0562, 30.61683
298.5384, 30.46524
299.0205, 30.41734
299.5026, 30.50177
299.9847, 30.63503
300.4668, 30.59057
300.9489, 30.07734
301.4311, 29.44094
301.9132, 29.23878
302.3953, 29.45337
302.8774, 29.69217
303.3595, 29.56812
303.8416, 29.26119
304.3238, 29.08861
304.8059, 29.21589
305.2880, 29.46067
305.7701, 29.68150
306.2522, 29.87364
306.7343, 29.99507
307.2165, 29.92363
307.6986, 29.79856
308.1807, 29.82640
308.6628, 30.20601
309.1449, 30.50736
309.6270, 30.30912
310.1092, 29.73653
310.5913, 29.19842
311.0734, 28.84782
311.5555, 28.66645
312.0376, 28.69020
312.5197, 29.02122
313.0019, 29.29453
313.4840, 29.21152
313.9661, 28.92673
314.4482, 28.75569
314.9304, 29.04595
315.4125, 29.34015
315.8946, 29.28917
316.3767, 28.76248
316.8588, 28.35260
317.3409, 28.35095
317.8231, 28.59374
318.3052, 28.86396
318.7873, 29.21428
319.2694, 29.47793
319.7515, 29.57453
320.2336, 29.49312
320.7158, 29.34425
321.1979, 29.12451
321.6800, 28.86778
322.1621, 28.60523
322.6442, 28.18931
323.1263, 27.92591
323.6085, 28.01870
324.0906, 28.43146
324.5727, 28.60202
325.0548, 28.02009
325.5369, 27.44603
326.0190, 27.34095
326.5012, 28.40036
326.9833, 29.16140
327.4654, 29.38685
327.9475, 29.19463
328.4296, 29.05468
328.9117, 28.98210
329.3939, 28.94901
329.8760, 28.95663
330.3581, 29.10996
330.8402, 29.10359
331.3223, 28.84103
331.8044, 28.44473
332.2866, 28.16942
332.7687, 28.11413
333.2508, 28.03510
333.7329, 27.82231
334.2150, 27.40975
334.6971, 27.19349
335.1793, 27.26075
335.6614, 27.43769
336.1435, 27.46549
336.6256, 27.22387
337.1077, 27.16881
337.5899, 27.51018
338.0720, 28.21733
338.5541, 28.54642
339.0362, 28.41485
339.5183, 28.10031
340.0005, 27.83625
340.4826, 27.62416
340.9647, 27.41565
341.4468, 27.13396
341.9289, 26.88550
342.4110, 27.10401
342.8932, 27.85183
343.3753, 28.64364
343.8574, 29.24971
344.3395, 29.65926
344.8216, 29.54566
345.3037, 28.35238
345.7859, 28.78092
346.2680, 28.98240
346.7501, 28.96900
347.2322, 28.09715
347.7143, 28.33381
348.1964, 28.12623
348.6786, 27.90042
349.1607, 28.29310
349.6428, 27.54611
350.1249, 27.92898
350.6070, 27.86083
351.0891, 28.77685
351.5713, 28.92641
352.0534, 28.60697
352.5355, 28.40059
353.0176, 28.30549
353.4997, 28.20106
353.9818, 27.94324
354.4640, 27.62690
354.9461, 27.40692
355.4282, 27.41339
355.9103, 27.42382
356.3924, 27.10588
356.8745, 26.57572
357.3567, 26.29795
357.8388, 26.93357
358.3209, 27.71106
358.8030, 27.86661
359.2851, 26.99441
359.7672, 26.22884
360.2494, 26.37341
360.7315, 27.03321
361.2136, 27.47635
361.6957, 27.24938
362.1779, 26.88717
362.6600, 26.58636
363.1421, 26.34287
363.6242, 26.34609
364.1063, 26.87805
364.5884, 27.59504
365.0706, 28.14097
365.5527, 28.38467
366.0348, 28.51209
366.5169, 28.54595
366.9990, 28.48931
367.4811, 28.37681
367.9633, 28.19657
368.4454, 27.97054
368.9275, 27.70692
369.4096, 27.19525
369.8917, 26.94227
370.3738, 27.13088
370.8560, 27.57846
371.3381, 27.76269
371.8202, 27.50229
372.3023, 27.22711
372.7844, 27.11564
373.2665, 27.22899
373.7487, 27.24467
374.2308, 27.09151
374.7129, 26.91260
375.1950, 26.93910
375.6771, 27.27392
376.1592, 27.47434
376.6414, 27.34661
377.1235, 26.94755
377.6056, 26.90031
378.0877, 27.29713
378.5698, 27.74220
379.0519, 27.84371
379.5341, 27.59827
380.0162, 27.48483
380.4983, 27.64773
380.9804, 27.91071
381.4625, 27.80501
381.9446, 27.33799
382.4268, 26.90984
382.9089, 26.75025
383.3910, 26.82193
383.8731, 27.05893
384.3553, 27.49570
384.8374, 27.89959
385.3195, 27.96974
385.8016, 27.77890
386.2837, 27.54082
386.7658, 27.37632
387.2480, 27.20601
387.7301, 26.85860
388.2122, 26.34711
388.6943, 25.93527
389.1764, 25.80074
389.6585, 25.88751
390.1407, 26.17560
390.6228, 26.93641
391.1049, 27.49600
391.5870, 27.15092
392.0691, 26.19213
392.5512, 25.49619
393.0334, 25.70030
393.5155, 26.13220
393.9976, 26.36179
394.4797, 26.27618
394.9618, 26.17333
395.4439, 26.17564
395.9261, 26.20761
396.4082, 26.16906
396.8903, 25.93478
397.3724, 25.73051
397.8545, 25.59643
398.3366, 25.53312
398.8188, 25.58444
399.3009, 25.92920
399.7830, 26.27293
400.2651, 26.42901
400.7472, 26.30709
401.2293, 26.12530
401.7115, 25.83044
402.1936, 25.48745
402.6757, 25.30882
403.1578, 25.39059
403.6399, 25.47428
404.1220, 25.12042
404.6042, 25.63277
405.0863, 25.91804
405.5684, 25.98844
406.0505, 25.20038
406.5326, 25.52083
407.0147, 25.39705
407.4969, 25.25504
407.9790, 25.96074
408.4611, 25.53277
408.9432, 25.95670
409.4254, 26.15353
409.9075, 26.13551
410.3896, 25.25904
410.8717, 25.49108
411.3538, 25.27888
411.8359, 25.04846
412.3181, 25.43650
412.8002, 24.68489
413.2823, 25.16772
413.7644, 25.31727
414.2465, 25.52325
414.7286, 25.64846
415.2108, 24.99977
415.6929, 25.60581
416.1750, 25.98475
416.6571, 26.14883
417.1392, 25.45444
417.6213, 25.86858
418.1035, 25.83848
418.5856, 25.35411
419.0677, 25.13300
419.5498, 25.15599
420.0319, 25.20185
420.5140, 25.14971
420.9962, 25.11432
421.4783, 25.19822
421.9604, 25.51641
422.4425, 25.67935
422.9246, 25.36517
423.4067, 24.91306
423.8889, 24.78514
424.3710, 25.47192
424.8531, 26.03428
425.3352, 26.20345
425.8173, 25.97820
426.2994, 25.90285
426.7816, 26.14462
427.2637, 26.36736
427.7458, 26.31315
428.2279, 25.75738
428.7100, 25.49717
429.1921, 25.71714
429.6743, 26.17487
430.1564, 26.24294
430.6385, 25.80155
431.1206, 25.43460
431.6028, 25.41565
432.0849, 25.72826
432.5670, 25.99920
433.0491, 26.23319
433.5312, 26.40874
434.0133, 26.49689
434.4955, 26.50421
434.9776, 26.46311
435.4597, 26.34863
435.9418, 26.23199
436.4239, 26.27600
436.9060, 26.45538
437.3882, 26.61017
437.8703, 26.54925
438.3524, 26.43287
438.8345, 26.52872
439.3166, 26.89461
439.7987, 27.26750
440.2809, 27.40154
440.7630, 27.41280
441.2451, 27.48099
441.7272, 27.80632
442.2093, 28.09068
442.6914, 28.13796
443.1736, 27.97996
443.6557, 27.83843
444.1378, 27.76215
444.6199, 27.74992
445.1020, 27.82476
445.5841, 28.12314
446.0663, 28.24930
446.5484, 27.94353
447.0305, 27.47687
447.5126, 27.30717
447.9947, 27.78158
448.4768, 28.13784
448.9590, 28.13362
449.4411, 27.75662
449.9232, 27.67152
450.4053, 28.08968
450.8874, 28.49321
451.3695, 28.39221
451.8517, 27.56745
452.3338, 27.26871
452.8159, 27.79955
453.2980, 28.69011
453.7801, 28.90366
454.2622, 28.38825
454.7444, 27.93691
455.2265, 27.96285
455.7086, 28.35392
456.1907, 28.68097
456.6729, 28.95414
457.1550, 29.07554
457.6371, 28.86067
458.1192, 28.43103
458.6013, 28.06711
459.0834, 27.82680
459.5656, 27.70159
460.0477, 27.74950
460.5298, 27.91961
461.0119, 28.05858
461.4940, 28.03670
461.9761, 27.98880
462.4583, 28.03571
462.9404, 28.19534
463.4225, 28.33527
463.9046, 28.33697
464.3867, 28.31758
464.8688, 28.38767
465.3510, 28.75414
465.8331, 29.00923
466.3152, 28.90153
466.7973, 28.58197
467.2794, 28.01017
467.7615, 28.63451
468.2437, 29.03179
468.7258, 29.21416
469.2079, 28.53808
469.6900, 28.97052
470.1721, 28.95871
470.6542, 28.59250
471.1364, 28.46229
471.6185, 29.01176
472.1006, 29.40950
472.5827, 29.48786
473.0648, 29.33479
473.5469, 29.16839
474.0291, 28.97811
474.5112, 28.89875
474.9933, 29.09684
475.4754, 29.48968
475.9575, 29.69547
476.4396, 29.68384
476.9218, 29.61822
477.4039, 29.67451
477.8860, 29.81000
478.3681, 29.92875
478.8503, 30.01808
479.3324, 30.05587
479.8145, 29.99062
480.2966, 29.84582
480.7787, 29.71262
481.2608, 29.59793
481.7430, 29.53673
482.2251, 29.55824
482.7072, 29.67179
483.1893, 29.83123
483.6714, 30.23528
484.1535, 30.58264
484.6357, 29.72767
485.1178, 30.23527
485.5999, 30.51579
486.0820, 30.58142
486.5641, 29.78861
487.0462, 31.13104
487.5284, 30.52817
488.0105, 29.92165
488.4926, 29.80562
488.9747, 30.27820
489.4568, 30.62117
489.9389, 30.81759
490.4211, 30.90985
490.9032, 30.90189
491.3853, 30.78290
491.8674, 30.73915
492.3495, 30.80568
492.8316, 30.97190
493.3138, 31.32607
493.7959, 31.83748
494.2780, 32.13827
494.7601, 31.79557
495.2422, 31.14842
495.7243, 30.90264
496.2065, 31.10153
496.6886, 31.31569
497.1707, 31.10284
497.6528, 30.72235
498.1349, 30.54348
498.6170, 30.82154
499.0992, 31.09949
499.5813, 31.03608
500.0634, 30.77988
500.5455, 30.69509
501.0276, 31.09633
501.5097, 31.51677
501.9919, 31.75634
502.4740, 31.77132
502.9561, 31.81212
503.4382, 31.98823
503.9203, 32.13251
504.4025, 32.13178
504.8846, 31.96006
505.3667, 31.66829
505.8488, 31.10715
506.3309, 30.52415
506.8130, 30.56044
507.2952, 31.38193
507.7773, 32.07831
508.2594, 32.28630
508.7415, 32.07764
509.2236, 31.82318
509.7057, 31.51527
510.1879, 31.25906
510.6700, 31.17692
511.1521, 31.21656
511.6342, 31.20442
512.1163, 31.09112
512.5984, 31.00484
513.0806, 31.14237
513.5627, 31.40544
514.0448, 31.58862
514.5269, 31.68823
515.0090, 31.18914
515.4911, 31.72799
515.9733, 32.03976
516.4554, 32.13665
516.9375, 31.37509
517.4196, 31.72205
517.9017, 31.62476
518.3839, 31.50926
518.8660, 32.01223
519.3481, 31.37552
519.8302, 31.86869
520.3123, 31.86571
520.7944, 32.03127
521.2766, 32.06127
521.7587, 31.85276
522.2408, 31.49134
522.7229, 31.33299
523.2050, 31.43867
523.6871, 31.52369
524.1693, 31.34482
524.6514, 30.94808
525.1335, 30.97163
525.6156, 31.47292
526.0977, 32.02341
526.5798, 32.15736
527.0620, 31.98964
527.5441, 31.86987
528.0262, 31.91587
528.5083, 31.96428
528.9904, 31.74217
529.4725, 31.37856
529.9547, 31.19123
530.4368, 31.57316
530.9189, 31.99539
531.4010, 32.11427
531.8831, 31.23312
532.3652, 31.72082
532.8474, 31.98143
533.3295, 32.02717
533.8116, 31.21446
534.2937, 31.51027
534.7758, 32.38638
535.2579, 31.12461
535.7401, 31.70849
536.2222, 32.06528
536.7043, 32.20718
537.1865, 31.49065
537.6686, 31.88261
538.1507, 31.83034
538.6328, 32.34454
539.1149, 32.30604
539.5970, 32.24406
540.0792, 32.05914
540.5613, 31.81964
541.0434, 31.97256
541.5255, 32.58101
542.0076, 33.11134
542.4897, 32.77588
542.9719, 32.01138
543.4540, 31.73748
543.9361, 32.44802
544.4182, 33.29501
544.9003, 33.61135
545.3824, 33.55776
545.8646, 33.49185
546.3467, 33.46822
546.8288, 33.54457
547.3109, 33.82065
547.7930, 34.30038
548.2751, 34.63113
548.7573, 34.63579
549.2394, 34.57298
549.7215, 34.57818
550.2036, 34.67232
550.6857, 34.78906
551.1678, 34.93028
551.6500, 35.09364
552.1321, 35.31839
552.6142, 35.64511
553.0963, 35.74428
553.5784, 35.41299
554.0605, 34.91454
554.5427, 34.99234
555.0248, 35.62123
555.5069, 36.34951
555.9890, 37.01310
556.4711, 37.55885
556.9532, 37.82384
557.4354, 37.80365
557.9175, 37.76900
558.3996, 37.92454
558.8817, 38.17333
559.3638, 38.42165
559.8459, 38.68114
560.3281, 38.86319
560.8102, 38.92511
561.2923, 38.88725
561.7744, 38.78021
562.2565, 38.32558
562.7386, 38.12123
563.2208, 38.36526
563.7029, 38.99163
564.1850, 39.56709
564.6671, 40.08096
565.1492, 40.55573
565.6313, 41.07505
566.1135, 41.67041
566.5956, 41.76207
567.0777, 41.25554
567.5598, 40.57481
568.0419, 40.01145
568.5240, 39.61510
569.0062, 39.68734
569.4883, 40.41494
569.9704, 41.32054
570.4525, 41.87121
570.9346, 42.11938
571.4167, 42.17938
571.8989, 41.84614
572.3810, 41.56238
572.8631, 41.76197
573.3452, 42.35615
573.8273, 42.74318
574.3094, 42.54899
574.7916, 42.20010
575.2737, 41.91228
575.7558, 41.71509
576.2379, 41.54856
576.7200, 41.39757
577.2021, 41.28863
577.6843, 41.24413
578.1664, 41.26807
578.6485, 41.36609
579.1306, 41.60260
579.6127, 41.84201
580.0948, 41.80547
580.5770, 41.49374
581.0591, 41.06315
581.5412, 40.47273
582.0233, 39.86424
582.5054, 39.56986
582.9875, 39.56836
583.4697, 39.67417
583.9518, 39.82211
584.4340, 39.98163
584.9161, 40.18276
585.3982, 40.45687
585.8803, 40.49223
586.3624, 39.83875
586.8445, 39.02252
