##NAMES=Correianevesite
##RRUFFID=R090069
##IDEAL CHEMISTRY=Fe^2+^Mn^2+^_2_(PO_4_)_2_&#183;3H_2_O
##LOCALITY=Cigana mine, Galiléia, Minas Gerais  Brazil
##OWNER=RRUFF
##SOURCE=Royal Ontario Museum
##DESCRIPTION=Druse of reddish-brown pseudo-octahedral crystals associated with pink hureaulite R090070 and colorless ludlamite R090071
##STATUS=The identification of this mineral is confirmed by single-crystal X-ray diffraction and chemical analysis.
##URL=rruff.info/R090069
##MEASURED CHEMISTRY=(Mn^+2^_1.85_Fe^+2^_1.13_Ca_0.01_)_Σ=2.99_(PO_4_)_2_·3H_2_O
91.82715, 324.0376
92.30927, 320.9089
92.79138, 321.6964
93.27350, 323.6346
93.75562, 324.5837
94.23773, 324.3629
94.71985, 323.6247
95.20197, 322.7907
95.68408, 322.5088
96.16620, 322.0666
96.64832, 320.7816
97.13043, 318.3773
97.61255, 316.1890
98.09467, 316.5709
98.57678, 321.2944
99.05890, 322.9024
99.54102, 319.0713
100.0231, 313.3528
100.5052, 308.8618
100.9874, 307.1158
101.4695, 307.5294
101.9516, 307.4343
102.4337, 306.3192
102.9158, 305.1141
103.3979, 303.4879
103.8801, 301.8333
104.3622, 300.8412
104.8443, 301.0772
105.3264, 302.6458
105.8085, 304.4322
106.2906, 306.7354
106.7728, 308.8858
107.2549, 310.4444
107.7370, 311.3892
108.2191, 312.0892
108.7012, 312.9434
109.1833, 313.9652
109.6655, 314.7574
110.1476, 314.6874
110.6297, 314.4878
111.1118, 315.3475
111.5939, 317.6958
112.0760, 320.7669
112.5582, 323.9365
113.0403, 327.1708
113.5224, 330.0588
114.0045, 332.3195
114.4866, 333.9706
114.9688, 335.1906
115.4509, 335.7796
115.9330, 336.0752
116.4151, 336.4734
116.8972, 336.9927
117.3793, 337.0632
117.8615, 335.7593
118.3436, 332.3954
118.8257, 329.2873
119.3078, 327.1594
119.7899, 325.0985
120.2720, 322.1269
120.7542, 317.8792
121.2363, 313.0797
121.7184, 309.7770
122.2005, 309.8475
122.6826, 309.5499
123.1647, 308.2309
123.6468, 306.4584
124.1290, 305.1786
124.6111, 305.0044
125.0932, 305.7109
125.5753, 305.3813
126.0574, 302.7507
126.5395, 300.5815
127.0217, 300.4224
127.5038, 301.9486
127.9859, 303.3746
128.4680, 303.2503
128.9501, 301.8813
129.4323, 301.3097
129.9144, 302.3437
130.3965, 303.8195
130.8786, 304.5278
131.3607, 304.3358
131.8428, 303.8195
132.3250, 303.4260
132.8071, 303.0322
133.2892, 302.3726
133.7713, 301.4594
134.2534, 300.2152
134.7355, 298.3037
135.2177, 295.3866
135.6998, 292.1937
136.1819, 288.9719
136.6640, 285.7842
137.1461, 282.7819
137.6282, 280.0998
138.1104, 277.7636
138.5925, 275.4641
139.0746, 272.8228
139.5567, 270.5388
140.0388, 268.8675
140.5209, 267.8309
141.0031, 267.3082
141.4852, 267.2145
141.9673, 267.7719
142.4494, 268.2054
142.9315, 268.3907
143.4136, 268.5612
143.8958, 268.7229
144.3779, 268.9265
144.8600, 269.4685
145.3421, 270.9499
145.8242, 274.7370
146.3063, 276.7906
146.7885, 275.2101
147.2706, 272.3731
147.7527, 271.4086
148.2348, 273.5918
148.7169, 277.3413
149.1990, 279.3141
149.6812, 279.0355
150.1633, 279.1678
150.6454, 281.0869
151.1275, 284.2806
151.6096, 287.1190
152.0917, 289.0204
152.5739, 290.2006
153.0560, 291.0448
153.5381, 291.3668
154.0202, 291.9205
154.5023, 293.4100
154.9844, 295.8614
155.4665, 298.4439
155.9487, 300.8015
156.4308, 303.1772
156.9129, 305.6683
157.3950, 308.2427
157.8771, 311.1793
158.3592, 315.1212
158.8414, 320.6629
159.3235, 325.6671
159.8056, 329.0300
160.2877, 331.9632
160.7698, 335.7025
161.2519, 340.8234
161.7341, 346.6713
162.2162, 351.3017
162.6983, 354.3083
163.1804, 356.4492
163.6625, 358.2685
164.1446, 359.2590
164.6268, 358.5781
165.1089, 355.6652
165.5910, 350.9429
166.0731, 347.0547
166.5552, 345.2007
167.0373, 342.8682
167.5195, 339.6304
168.0016, 335.5338
168.4837, 330.5868
168.9658, 324.6661
169.4479, 317.8678
169.9300, 312.2551
170.4122, 308.8205
170.8943, 305.3620
171.3764, 300.3279
171.8585, 294.1470
172.3406, 288.8655
172.8227, 286.2756
173.3049, 286.1398
173.7870, 285.0143
174.2691, 281.9383
174.7512, 278.5383
175.2333, 276.1744
175.7154, 274.9100
176.1976, 273.9199
176.6797, 272.6289
177.1618, 271.1609
177.6439, 269.8538
178.1260, 268.7741
178.6081, 267.8916
179.0903, 267.2973
179.5724, 267.2062
180.0545, 266.7558
180.5366, 265.0272
181.0187, 262.6384
181.5008, 260.6032
181.9830, 259.7937
182.4651, 259.6246
182.9472, 258.0981
183.4293, 254.1679
183.9114, 250.4775
184.3935, 248.5007
184.8757, 247.4963
185.3578, 246.1255
185.8399, 243.3155
186.3220, 239.2710
186.8041, 236.2581
187.2862, 235.0119
187.7684, 234.1333
188.2505, 233.8556
188.7326, 233.6451
189.2147, 232.4371
189.6968, 229.1076
190.1789, 223.4936
190.6611, 219.9752
191.1432, 220.6566
191.6253, 221.3612
192.1074, 220.7945
192.5895, 219.1006
193.0716, 217.0007
193.5538, 215.0687
194.0359, 213.2521
194.5180, 212.0481
195.0001, 211.5874
195.4822, 211.4511
195.9643, 211.6750
196.4465, 212.1217
196.9286, 212.3827
197.4107, 212.0248
197.8928, 210.9286
198.3749, 210.2080
198.8570, 210.4208
199.3392, 210.5523
199.8213, 209.7285
200.3034, 207.9564
200.7855, 206.1709
201.2676, 205.2232
201.7497, 205.1903
202.2319, 205.2287
202.7140, 205.3580
203.1961, 205.5212
203.6782, 205.6833
204.1603, 205.8441
204.6424, 205.9637
205.1246, 205.9866
205.6067, 205.9313
206.0888, 205.8777
206.5709, 205.6142
207.0530, 205.4485
207.5351, 205.8891
208.0173, 207.0923
208.4994, 208.4509
208.9815, 209.5884
209.4636, 210.5354
209.9457, 211.2949
210.4278, 211.4465
210.9100, 211.4624
211.3921, 212.5503
211.8742, 215.2053
212.3563, 217.9105
212.8384, 220.0232
213.3205, 221.5559
213.8027, 222.4363
214.2848, 222.3993
214.7669, 221.6859
215.2490, 221.0276
215.7311, 219.8276
216.2132, 219.7349
216.6954, 222.0920
217.1775, 225.7847
217.6596, 228.8742
218.1417, 230.0019
218.6238, 229.5604
219.1059, 229.8814
219.5881, 231.5782
220.0702, 233.3462
220.5523, 234.3777
221.0344, 235.2465
221.5165, 237.0000
221.9986, 240.5005
222.4808, 245.4823
222.9629, 249.4441
223.4450, 251.8201
223.9271, 253.6011
224.4092, 254.8794
224.8913, 255.7216
225.3735, 256.0810
225.8556, 255.8373
226.3377, 255.1134
226.8198, 255.3539
227.3019, 257.4131
227.7840, 259.5768
228.2662, 261.9539
228.7483, 264.1508
229.2304, 265.5052
229.7125, 265.5516
230.1946, 264.4070
230.6767, 263.3437
231.1589, 262.2175
231.6410, 261.3154
232.1231, 260.9088
232.6052, 260.7720
233.0873, 260.5646
233.5694, 260.1403
234.0516, 259.4188
234.5337, 257.7145
235.0158, 253.7908
235.4979, 250.4248
235.9800, 248.5927
236.4621, 247.9401
236.9443, 247.7533
237.4264, 247.7725
237.9085, 247.8262
238.3906, 247.0986
238.8727, 244.9830
239.3548, 242.9429
239.8370, 241.3857
240.3191, 240.2711
240.8012, 239.5741
241.2833, 239.3807
241.7654, 239.4939
242.2475, 239.3306
242.7297, 238.8534
243.2118, 238.2240
243.6939, 237.4798
244.1760, 236.6331
244.6581, 235.6617
245.1402, 234.4231
245.6224, 233.2309
246.1045, 232.7254
246.5866, 233.1185
247.0687, 233.5222
247.5508, 233.6511
248.0329, 233.4644
248.5151, 232.6623
248.9972, 230.6640
249.4793, 228.6023
249.9614, 228.1532
250.4435, 229.4864
250.9256, 231.0802
251.4078, 232.3427
251.8899, 233.2319
252.3720, 233.5430
252.8541, 232.9812
253.3362, 232.0914
253.8183, 231.2150
254.3005, 230.3409
254.7826, 230.2345
255.2647, 232.0837
255.7468, 235.3697
256.2289, 237.2807
256.7110, 236.4202
257.1931, 235.2652
257.6753, 236.1110
258.1574, 238.6581
258.6395, 240.9956
259.1216, 241.6130
259.6037, 240.8625
260.0858, 240.8162
260.5680, 242.3316
261.0501, 243.6354
261.5322, 243.3574
262.0143, 241.9421
262.4964, 240.7453
262.9785, 240.8070
263.4607, 241.8974
263.9428, 242.6931
264.4249, 243.2213
264.9070, 243.3537
265.3891, 242.8567
265.8712, 241.9841
266.3534, 241.2793
266.8355, 241.2698
267.3176, 241.6619
267.7997, 241.0880
268.2818, 238.7718
268.7639, 236.6436
269.2461, 235.5810
269.7282, 235.0917
270.2103, 234.4472
270.6924, 233.2421
271.1745, 231.6486
271.6566, 230.2144
272.1388, 228.8724
272.6209, 227.8562
273.1030, 227.5522
273.5851, 227.4299
274.0672, 226.9167
274.5493, 225.7589
275.0315, 224.0560
275.5136, 221.9259
275.9957, 218.6840
276.4778, 216.3533
276.9599, 215.6631
277.4420, 215.6750
277.9242, 215.6009
278.4063, 215.1563
278.8884, 214.4637
279.3705, 213.6923
279.8526, 212.6608
280.3347, 211.9718
280.8169, 212.0794
281.2990, 212.2425
281.7811, 211.8827
282.2632, 210.8750
282.7453, 209.5468
283.2274, 208.2822
283.7096, 206.8495
284.1917, 206.1137
284.6738, 206.5768
285.1559, 207.2634
285.6380, 207.8303
286.1201, 208.1110
286.6023, 207.8951
287.0844, 206.8600
287.5665, 204.7933
288.0486, 202.7471
288.5307, 200.4993
289.0128, 198.4673
289.4950, 196.6408
289.9771, 195.1601
290.4592, 194.4338
290.9413, 195.0399
291.4234, 197.1803
291.9055, 197.9399
292.3877, 196.1016
292.8698, 194.1239
293.3519, 192.2923
293.8340, 190.9373
294.3161, 190.7618
294.7982, 192.5111
295.2804, 195.8783
295.7625, 196.7723
296.2446, 191.6663
296.7267, 187.7825
297.2088, 187.3010
297.6909, 188.7419
298.1731, 189.9040
298.6552, 189.5846
299.1373, 188.0954
299.6194, 186.5916
300.1015, 184.4326
300.5836, 183.1127
301.0658, 183.5325
301.5479, 184.5303
302.0300, 184.7989
302.5121, 183.8344
302.9942, 182.1927
303.4763, 180.9854
303.9585, 180.2325
304.4406, 179.9921
304.9227, 180.8327
305.4048, 181.7910
305.8869, 182.1621
306.3690, 181.7581
306.8512, 180.7477
307.3333, 179.2447
307.8154, 176.6722
308.2975, 175.2188
308.7796, 175.8880
309.2617, 176.6656
309.7439, 176.1573
310.2260, 174.4271
310.7081, 172.5626
311.1902, 171.6779
311.6723, 171.9419
312.1544, 171.9116
312.6366, 172.0869
313.1187, 171.5452
313.6008, 169.2431
314.0829, 165.8608
314.5650, 163.0488
315.0471, 162.0979
315.5293, 162.8222
316.0114, 162.7714
316.4935, 160.4730
316.9756, 159.0412
317.4577, 160.2480
317.9398, 162.4961
318.4220, 163.1881
318.9041, 160.9442
319.3862, 156.8285
319.8683, 154.1963
320.3504, 154.4366
320.8326, 154.5760
321.3147, 154.5980
321.7968, 154.3905
322.2789, 153.7541
322.7610, 152.6556
323.2431, 151.3777
323.7253, 150.4404
324.2074, 150.2094
324.6895, 149.5838
325.1716, 148.0834
325.6537, 146.5928
326.1358, 145.7608
326.6180, 145.6254
327.1001, 145.7502
327.5822, 145.6938
328.0643, 145.4641
328.5464, 144.9852
329.0285, 144.0490
329.5107, 143.0985
329.9928, 142.1781
330.4749, 141.3863
330.9570, 140.9593
331.4391, 141.1408
331.9212, 141.8573
332.4034, 142.0079
332.8855, 140.5085
333.3676, 139.6117
333.8497, 140.6275
334.3318, 142.2901
334.8139, 142.5769
335.2961, 140.4369
335.7782, 136.9233
336.2603, 135.2214
336.7424, 136.9791
337.2245, 138.1694
337.7066, 138.3773
338.1888, 138.0152
338.6709, 137.1463
339.1530, 135.9003
339.6351, 134.8993
340.1172, 135.2728
340.5993, 138.0083
341.0815, 139.5766
341.5636, 139.4019
342.0457, 138.7061
342.5278, 138.2082
343.0099, 137.8702
343.4920, 137.0801
343.9742, 134.9506
344.4563, 131.2997
344.9384, 129.7078
345.4205, 132.7805
345.9026, 135.4812
346.3847, 136.4257
346.8669, 136.0562
347.3490, 135.2352
347.8311, 134.3951
348.3132, 133.6613
348.7953, 133.6409
349.2774, 135.2271
349.7596, 136.1119
350.2417, 135.2335
350.7238, 133.8465
351.2059, 133.2812
351.6880, 133.9815
352.1701, 135.2260
352.6523, 135.8194
353.1344, 135.5572
353.6165, 135.2596
354.0986, 134.5758
354.5807, 134.2125
355.0628, 134.9869
355.5450, 136.7294
356.0271, 138.2201
356.5092, 138.0556
356.9913, 136.1630
357.4734, 134.8206
357.9555, 134.3081
358.4377, 134.0971
358.9198, 134.1103
359.4019, 134.2406
359.8840, 134.2764
360.3661, 134.0081
360.8482, 133.6237
361.3304, 133.8444
361.8125, 135.2234
362.2946, 135.9573
362.7767, 134.8846
363.2588, 133.1481
363.7409, 131.8171
364.2231, 131.1801
364.7052, 131.1548
365.1873, 131.9524
365.6694, 133.7419
366.1515, 134.7776
366.6336, 133.8882
367.1158, 132.7232
367.5979, 132.5724
368.0800, 133.4368
368.5621, 134.3566
369.0442, 134.6537
369.5263, 134.4205
370.0085, 134.0229
370.4906, 133.2864
370.9727, 132.7660
371.4548, 133.1132
371.9369, 133.9453
372.4190, 134.3847
372.9012, 133.8509
373.3833, 132.9055
373.8654, 132.4656
374.3475, 132.6163
374.8296, 132.5442
375.3117, 131.6000
375.7939, 130.3141
376.2760, 129.4871
376.7581, 129.2995
377.2402, 129.2849
377.7223, 129.0594
378.2044, 128.7057
378.6866, 128.5948
379.1687, 128.8658
379.6508, 129.3575
380.1329, 130.1107
380.6150, 131.1383
381.0971, 131.4544
381.5793, 130.1927
382.0614, 128.2589
382.5435, 126.7843
383.0256, 125.8804
383.5077, 125.6401
383.9898, 126.4289
384.4720, 128.0642
384.9541, 129.1140
385.4362, 129.2693
385.9183, 129.0678
386.4004, 128.7437
386.8825, 128.3165
387.3647, 127.7138
387.8468, 126.7533
388.3289, 125.8467
388.8110, 126.2790
389.2931, 128.9953
389.7752, 130.7725
390.2574, 130.1350
390.7395, 128.5704
391.2216, 127.9063
391.7037, 128.5334
392.1858, 129.5967
392.6679, 130.1404
393.1501, 130.0638
393.6322, 129.8664
394.1143, 129.1247
394.5964, 128.6502
395.0785, 129.2276
395.5606, 130.5133
396.0428, 131.3991
396.5249, 131.1067
397.0070, 129.9388
397.4891, 129.5293
397.9712, 130.8315
398.4533, 131.7581
398.9355, 131.7584
399.4176, 131.4243
399.8997, 131.3775
400.3818, 131.8173
400.8639, 132.5661
401.3460, 133.3791
401.8282, 134.2983
402.3103, 135.1617
402.7924, 136.0230
403.2745, 136.7947
403.7566, 137.5928
404.2387, 138.2837
404.7209, 138.4995
405.2030, 137.8760
405.6851, 136.5517
406.1672, 135.5706
406.6493, 134.6757
407.1314, 134.5890
407.6136, 136.0574
408.0957, 138.0722
408.5778, 139.4831
409.0599, 139.8734
409.5420, 139.8535
410.0241, 140.4564
410.5063, 141.9182
410.9884, 142.7153
411.4705, 142.1092
411.9526, 141.1790
412.4347, 140.2720
412.9168, 139.5179
413.3990, 139.2295
413.8811, 140.0990
414.3632, 141.6537
414.8453, 142.0083
415.3274, 140.7622
415.8095, 139.2991
416.2917, 138.0359
416.7738, 137.1036
417.2559, 136.8581
417.7380, 137.7065
418.2201, 138.5753
418.7022, 138.2949
419.1844, 136.9819
419.6665, 135.7187
420.1486, 134.7338
420.6307, 134.0589
421.1128, 133.8773
421.5949, 134.1885
422.0771, 134.2296
422.5592, 133.3106
423.0413, 132.1478
423.5234, 131.8664
424.0055, 132.5897
424.4876, 133.3231
424.9698, 133.2264
425.4519, 132.4806
425.9340, 132.3198
426.4161, 133.6934
426.8982, 134.6337
427.3803, 133.6886
427.8625, 131.7155
428.3446, 130.5424
428.8267, 130.8740
429.3088, 132.0983
429.7909, 133.2571
430.2730, 134.6483
430.7552, 135.1625
431.2373, 133.9830
431.7194, 132.5315
432.2015, 131.7175
432.6836, 131.6286
433.1657, 131.9920
433.6479, 132.6070
434.1300, 133.4722
434.6121, 134.6062
435.0942, 136.9060
435.5763, 138.4230
436.0584, 137.9595
436.5406, 136.9254
437.0227, 137.0838
437.5048, 139.0005
437.9869, 141.6377
438.4690, 143.4116
438.9511, 144.1249
439.4333, 144.6005
439.9154, 144.5818
440.3975, 144.5757
440.8796, 144.4752
441.3617, 144.5520
441.8438, 145.4662
442.3260, 147.8486
442.8081, 151.2462
443.2902, 154.1942
443.7723, 156.8525
444.2544, 158.6682
444.7365, 159.1144
445.2187, 158.8251
445.7008, 157.9727
446.1829, 156.5169
446.6650, 155.6765
447.1471, 156.9694
447.6292, 159.9778
448.1114, 162.3681
448.5935, 163.6285
449.0756, 164.5438
449.5577, 165.7070
450.0398, 167.0524
450.5219, 168.4209
451.0041, 170.0571
451.4862, 171.4870
451.9683, 172.1929
452.4504, 172.2375
452.9325, 172.0061
453.4146, 171.6005
453.8968, 171.1049
454.3789, 170.7169
454.8610, 170.4908
455.3431, 170.1888
455.8252, 169.6470
456.3073, 169.0643
456.7895, 168.7391
457.2716, 168.6754
457.7537, 168.5227
458.2358, 167.9834
458.7179, 167.0560
459.2000, 165.9212
459.6822, 163.9934
460.1643, 162.5614
460.6464, 162.5388
461.1285, 163.0471
461.6106, 162.7888
462.0927, 161.2946
462.5748, 159.2109
463.0569, 157.6137
463.5391, 156.7229
464.0212, 155.7521
464.5033, 154.9145
464.9854, 153.8089
465.4675, 151.6438
465.9496, 149.0210
466.4318, 147.4825
466.9139, 148.2826
467.3960, 150.5356
467.8781, 151.4299
468.3602, 150.5783
468.8423, 149.3741
469.3245, 147.4564
469.8066, 145.8154
470.2887, 145.7850
470.7708, 147.4828
471.2529, 148.5510
471.7350, 146.3146
472.2172, 141.8248
472.6993, 139.3469
473.1814, 139.8176
473.6635, 140.6092
474.1456, 139.4714
474.6277, 137.3049
475.1099, 136.1786
475.5920, 137.1121
476.0741, 138.2645
476.5562, 138.2344
477.0383, 137.3832
477.5204, 136.7744
478.0026, 136.7641
478.4847, 137.1007
478.9668, 137.6487
479.4489, 138.6895
479.9310, 138.3711
480.4131, 134.7286
480.8953, 131.2643
481.3774, 130.9960
481.8595, 133.1195
482.3416, 134.5961
482.8237, 133.5595
483.3058, 130.8293
483.7880, 129.2304
484.2701, 130.0122
484.7522, 130.1684
485.2343, 129.1354
485.7164, 127.8000
486.1985, 126.6109
486.6807, 125.7580
487.1628, 125.5367
487.6449, 126.4565
488.1270, 128.3671
488.6091, 129.0683
489.0912, 127.7761
489.5734, 126.4876
490.0555, 125.7774
490.5376, 125.4096
491.0197, 125.2610
491.5018, 125.3283
491.9839, 125.1365
492.4661, 123.8890
492.9482, 121.7571
493.4303, 120.3191
493.9124, 119.8666
494.3945, 119.9945
494.8766, 120.9829
495.3588, 122.3523
495.8409, 122.6721
496.3230, 120.7011
496.8051, 118.3959
497.2872, 117.2623
497.7693, 117.1504
498.2515, 117.6914
498.7336, 118.9344
499.2157, 120.2330
499.6978, 120.4614
500.1799, 119.2327
500.6620, 118.4166
501.1442, 118.1207
501.6263, 118.2760
502.1084, 119.1766
502.5905, 120.5293
503.0726, 121.5441
503.5547, 121.7341
504.0369, 121.2484
504.5190, 120.5693
505.0011, 119.2378
505.4832, 118.4628
505.9653, 118.6002
506.4474, 119.0351
506.9296, 119.4483
507.4117, 119.7385
507.8938, 119.8048
508.3759, 119.4283
508.8580, 118.7589
509.3401, 118.7177
509.8223, 119.4866
510.3044, 120.4892
510.7865, 121.9772
511.2686, 123.3488
511.7507, 123.9356
512.2328, 123.5880
512.7150, 122.9146
513.1971, 122.0486
513.6792, 121.2147
514.1613, 121.1940
514.6434, 122.2226
515.1255, 123.3801
515.6077, 123.9798
516.0898, 124.1347
516.5719, 124.4014
517.0540, 125.0380
517.5361, 125.4967
518.0182, 125.1213
518.5004, 124.5114
518.9825, 124.9096
519.4646, 126.6350
519.9467, 128.4927
520.4288, 128.9156
520.9109, 127.4924
521.3931, 127.4416
521.8752, 130.0831
522.3573, 132.4256
522.8394, 133.3110
523.3215, 133.2558
523.8036, 132.9825
524.2858, 132.7959
524.7679, 132.8275
525.2500, 133.4698
525.7321, 134.9854
526.2142, 135.7572
526.6964, 134.9488
527.1785, 134.1601
527.6606, 134.0552
528.1427, 134.5403
528.6248, 135.3765
529.1069, 136.5660
529.5891, 137.8830
530.0712, 139.0300
530.5533, 140.0148
531.0354, 141.0514
531.5175, 142.4416
531.9996, 143.5220
532.4818, 142.9954
532.9639, 141.0195
533.4460, 140.0541
533.9281, 141.4267
534.4102, 143.2927
534.8923, 144.2180
535.3745, 144.3871
535.8566, 144.6316
536.3387, 145.3358
536.8208, 146.3339
537.3029, 147.3062
537.7850, 148.4615
538.2672, 149.1320
538.7493, 148.8272
539.2314, 148.5195
539.7135, 148.8778
540.1956, 149.7108
540.6777, 150.3386
541.1599, 150.2964
541.6420, 150.0154
542.1241, 150.7329
542.6062, 152.9030
543.0883, 154.6161
543.5704, 155.0045
544.0526, 155.2476
544.5347, 156.1248
545.0168, 157.5535
545.4989, 158.9185
545.9810, 159.9063
546.4631, 160.6423
546.9453, 161.2782
547.4274, 161.8172
547.9095, 162.2928
548.3916, 162.5881
548.8737, 162.9813
549.3558, 164.0860
549.8380, 165.9972
550.3201, 167.7437
550.8022, 169.2722
551.2843, 170.4567
551.7664, 171.0169
552.2485, 171.1059
552.7307, 171.2553
553.2128, 171.7819
553.6949, 172.5113
554.1770, 172.9234
554.6591, 172.5612
555.1412, 172.7141
555.6234, 173.5098
556.1055, 174.6678
556.5876, 176.0703
557.0697, 177.6921
557.5518, 179.6130
558.0339, 182.0879
558.5161, 184.5753
558.9982, 185.5551
559.4803, 184.6903
559.9624, 184.3693
560.4445, 185.6313
560.9266, 187.2906
561.4088, 188.3618
561.8909, 188.8400
562.3730, 188.7962
562.8551, 187.4792
563.3372, 186.1966
563.8193, 186.7804
564.3015, 188.8483
564.7836, 190.2846
565.2657, 190.1265
565.7478, 188.9545
566.2299, 187.7747
566.7120, 186.4904
567.1942, 185.4738
567.6763, 185.2176
568.1584, 184.7766
568.6405, 183.3541
569.1226, 181.3239
569.6047, 179.6338
570.0869, 178.8071
570.5690, 178.3407
571.0511, 177.0265
571.5332, 174.3788
572.0153, 172.7320
572.4974, 172.9652
572.9796, 173.6362
573.4617, 174.3056
573.9438, 174.8011
574.4259, 174.6922
574.9080, 173.3913
575.3901, 172.0318
575.8723, 172.2683
576.3544, 173.7527
576.8365, 174.3037
577.3186, 173.0070
577.8007, 171.5950
578.2828, 172.2975
578.7650, 175.2670
579.2471, 177.0567
579.7292, 176.8180
580.2113, 176.1756
580.6934, 175.7594
581.1755, 175.4988
581.6577, 175.1452
582.1398, 174.6364
582.6219, 174.2326
583.1040, 174.2121
583.5861, 174.5135
584.0682, 175.7288
584.5504, 179.3941
