##NAMES=Correianevesite
##RRUFFID=R060701
##IDEAL CHEMISTRY=Fe^2+^Mn^2+^_2_(PO_4_)_2_&#183;3H_2_O
##LOCALITY=Linopolis, Minas Gerais, Brazil
##OWNER=RRUFF
##SOURCE=Bob Jenkins
##DESCRIPTION=Colorless pseudo-octahedral crystals
##STATUS=The identification of this mineral is confirmed by single-crystal X-ray diffraction and chemical analysis.
##URL=rruff.info/R060701
##MEASURED CHEMISTRY=(Mn^2+^_1.98_Fe^2+^_0.98_Ca_0.04_)_Σ=3_(P_1.00_O_4_)_2_·3H_2_O ; H_2_O estimated by difference.
112.362, 1220.326
112.844, 1340.131
113.326, 1471.811
113.808, 1625.971
114.290, 1795.121
114.772, 1960.395
115.254, 2127.459
115.736, 2282.870
116.218, 2418.517
116.701, 2523.317
117.183, 2620.598
117.665, 2720.209
118.147, 2819.929
118.629, 2911.532
119.111, 2981.407
119.593, 3044.094
120.075, 3113.113
120.558, 3200.629
121.040, 3291.081
121.522, 3374.043
122.004, 3449.280
122.486, 3522.323
122.968, 3602.571
123.450, 3682.678
123.932, 3751.213
124.414, 3799.457
124.897, 3833.140
125.379, 3855.979
125.861, 3866.130
126.343, 3874.266
126.825, 3889.704
127.307, 3912.103
127.789, 3940.044
128.271, 3969.844
128.753, 4004.458
129.236, 4049.956
129.718, 4106.465
130.200, 4175.489
130.682, 4263.215
131.164, 4368.688
131.646, 4480.932
132.128, 4596.279
132.610, 4712.438
133.093, 4821.307
133.575, 4924.986
134.057, 5018.378
134.539, 5089.054
135.021, 5137.322
135.503, 5160.851
135.985, 5154.085
136.467, 5115.606
136.949, 5059.665
137.432, 4982.606
137.914, 4884.986
138.396, 4807.556
138.878, 4751.100
139.360, 4715.025
139.842, 4703.695
140.324, 4725.524
140.806, 4748.064
141.288, 4754.048
141.771, 4732.263
142.253, 4741.185
142.735, 4794.572
143.217, 4873.688
143.699, 4926.569
144.181, 4937.657
144.663, 4945.959
145.145, 4975.022
145.628, 5056.527
146.110, 5096.784
146.592, 5075.372
147.074, 5001.941
147.556, 4945.212
148.038, 4912.844
148.520, 4890.088
149.002, 4867.455
149.484, 4829.889
149.967, 4809.834
150.449, 4811.484
150.931, 4835.464
151.413, 4872.563
151.895, 4930.463
152.377, 4998.049
152.859, 5065.886
153.342, 5120.531
153.824, 5187.620
154.306, 5272.638
154.788, 5377.218
155.270, 5493.254
155.752, 5617.963
156.234, 5755.351
156.716, 5911.617
157.198, 6084.590
157.680, 6278.132
158.163, 6489.708
158.645, 6713.410
159.127, 6971.577
159.609, 7290.796
160.091, 7648.050
160.573, 8000.285
161.055, 8336.047
161.538, 8656.946
162.020, 8961.773
162.502, 9259.955
162.984, 9523.873
163.466, 9751.231
163.948, 9936.586
164.430, 10064.080
164.912, 10110.700
165.394, 10103.250
165.876, 10065.150
166.359, 10011.850
166.841, 9919.333
167.323, 9771.166
167.805, 9570.273
168.287, 9331.841
168.769, 9029.896
169.251, 8709.824
169.733, 8420.269
170.216, 8184.455
170.698, 7981.602
171.180, 7797.436
171.662, 7631.369
172.144, 7485.858
172.626, 7355.729
173.108, 7245.854
173.590, 7166.209
174.072, 7127.823
174.555, 7117.299
175.037, 7125.476
175.519, 7153.473
176.001, 7183.723
176.483, 7200.732
176.965, 7207.232
177.447, 7209.827
177.929, 7202.269
178.412, 7195.293
178.894, 7212.109
179.376, 7259.456
179.858, 7306.375
180.340, 7311.025
180.822, 7281.560
181.304, 7253.469
181.786, 7263.681
182.268, 7289.625
182.751, 7280.786
183.233, 7230.585
183.715, 7146.483
184.197, 7038.792
184.679, 6906.492
185.161, 6750.458
185.643, 6556.972
186.125, 6338.005
186.607, 6124.135
187.090, 5924.554
187.572, 5729.615
188.054, 5511.323
188.536, 5271.447
189.018, 5037.724
189.500, 4832.778
189.982, 4657.022
190.464, 4495.096
190.947, 4347.916
191.429, 4211.787
191.911, 4079.844
192.393, 3951.591
192.875, 3832.858
193.357, 3728.650
193.839, 3638.863
194.321, 3556.606
194.803, 3479.189
195.286, 3407.134
195.768, 3340.652
196.250, 3279.482
196.732, 3225.327
197.214, 3182.731
197.696, 3152.680
198.178, 3118.616
198.661, 3074.538
199.143, 3021.865
199.625, 2970.938
200.107, 2920.628
200.589, 2873.709
201.071, 2832.928
201.553, 2798.287
202.035, 2769.600
202.517, 2747.467
202.999, 2731.685
203.482, 2719.270
203.964, 2708.955
204.446, 2704.082
204.928, 2711.790
205.410, 2735.134
205.892, 2757.491
206.374, 2772.458
206.857, 2779.563
207.339, 2784.357
207.821, 2784.759
208.303, 2785.281
208.785, 2793.402
209.267, 2809.750
209.749, 2832.042
210.231, 2861.004
210.713, 2897.919
211.195, 2932.720
211.678, 2962.811
212.160, 2993.357
212.642, 3034.409
213.124, 3087.886
213.606, 3147.877
214.088, 3211.205
214.570, 3275.479
215.052, 3351.994
215.535, 3445.979
216.017, 3550.473
216.499, 3644.210
216.981, 3719.880
217.463, 3800.729
217.945, 3899.640
218.427, 4021.828
218.909, 4144.335
219.391, 4264.163
219.874, 4383.958
220.356, 4512.375
220.838, 4653.030
221.320, 4793.878
221.802, 4924.763
222.284, 5038.885
222.766, 5165.567
223.248, 5312.777
223.731, 5474.062
224.213, 5616.896
224.695, 5735.182
225.177, 5846.602
225.659, 5965.283
226.141, 6102.164
226.623, 6218.790
227.105, 6307.684
227.587, 6373.364
228.070, 6439.434
228.552, 6505.864
229.034, 6571.739
229.516, 6637.144
229.998, 6707.202
230.480, 6765.128
230.962, 6808.776
231.444, 6838.326
231.926, 6854.208
232.409, 6854.621
232.891, 6843.333
233.373, 6820.066
233.855, 6772.968
234.337, 6739.470
234.819, 6731.548
235.301, 6744.167
235.783, 6734.673
236.266, 6693.863
236.748, 6642.211
237.230, 6595.087
237.712, 6558.751
238.194, 6513.381
238.676, 6453.028
239.158, 6379.993
239.640, 6313.198
240.122, 6254.319
240.605, 6199.824
241.087, 6149.000
241.569, 6109.332
242.051, 6057.479
242.533, 5987.682
243.015, 5901.612
243.497, 5813.223
243.980, 5719.007
244.462, 5626.257
244.944, 5541.490
245.426, 5470.239
245.908, 5395.286
246.390, 5311.788
246.872, 5219.976
247.354, 5134.381
247.836, 5053.342
248.318, 4980.492
248.801, 4920.216
249.283, 4878.235
249.765, 4836.367
250.247, 4788.847
250.729, 4736.597
251.211, 4700.845
251.693, 4687.784
252.176, 4683.770
252.658, 4677.345
253.140, 4664.222
253.622, 4658.918
254.104, 4664.827
254.586, 4681.616
255.068, 4699.483
255.550, 4713.798
256.032, 4735.560
256.514, 4777.044
256.997, 4851.283
257.479, 4914.282
257.961, 4955.959
258.443, 4978.283
258.925, 5009.399
259.407, 5052.947
259.889, 5099.525
260.371, 5143.280
260.854, 5187.213
261.336, 5218.946
261.818, 5231.504
262.300, 5227.591
262.782, 5238.509
263.264, 5270.278
263.746, 5306.250
264.228, 5334.305
264.711, 5356.761
265.193, 5364.070
265.675, 5353.365
266.157, 5325.892
266.639, 5291.045
267.121, 5251.382
267.603, 5199.910
268.085, 5129.478
268.567, 5039.361
269.050, 4934.597
269.532, 4810.197
270.014, 4672.321
270.496, 4553.378
270.978, 4458.319
271.460, 4372.573
271.942, 4283.364
272.424, 4190.383
272.906, 4098.524
273.389, 4007.083
273.871, 3917.026
274.353, 3828.948
274.835, 3740.425
275.317, 3661.297
275.799, 3601.569
276.281, 3563.228
276.763, 3526.487
277.246, 3488.466
277.728, 3450.087
278.210, 3413.745
278.692, 3379.677
279.174, 3347.134
279.656, 3314.155
280.138, 3280.242
280.620, 3255.096
281.103, 3241.904
281.585, 3236.689
282.067, 3228.400
282.549, 3216.460
283.031, 3205.333
283.513, 3201.329
283.995, 3203.694
284.477, 3194.730
284.959, 3166.829
285.441, 3133.342
285.924, 3128.833
286.406, 3154.840
286.888, 3180.234
287.370, 3181.909
287.852, 3163.089
288.334, 3147.253
288.816, 3136.838
289.298, 3130.869
289.781, 3128.880
290.263, 3130.730
290.745, 3132.128
291.227, 3127.782
291.709, 3120.085
292.191, 3120.746
292.673, 3133.352
293.155, 3147.984
293.638, 3147.886
294.120, 3134.721
294.602, 3121.397
295.084, 3114.328
295.566, 3112.706
296.048, 3115.455
296.530, 3123.424
297.012, 3132.361
297.494, 3135.290
297.977, 3133.959
298.459, 3135.375
298.941, 3145.759
299.423, 3160.917
299.905, 3172.588
300.387, 3179.807
300.869, 3187.146
301.351, 3201.606
301.833, 3220.428
302.316, 3235.688
302.798, 3241.487
303.280, 3242.356
303.762, 3243.401
304.244, 3244.583
304.726, 3247.463
305.208, 3252.870
305.690, 3260.788
306.173, 3271.414
306.655, 3294.209
307.137, 3314.126
307.619, 3312.853
308.101, 3290.198
308.583, 3264.901
309.065, 3254.493
309.547, 3248.832
310.030, 3233.916
310.512, 3193.071
310.994, 3149.586
311.476, 3125.662
311.958, 3119.486
312.440, 3104.926
312.922, 3058.834
313.404, 3000.199
313.886, 2948.652
314.369, 2921.472
314.851, 2892.852
315.333, 2844.706
315.815, 2781.327
316.297, 2727.696
316.779, 2707.405
317.261, 2694.060
317.743, 2666.609
318.225, 2602.135
318.708, 2544.631
319.190, 2511.705
319.672, 2498.641
320.154, 2486.202
320.636, 2467.041
321.118, 2448.248
321.600, 2434.334
322.082, 2432.168
322.565, 2425.466
323.047, 2407.643
323.529, 2382.683
324.011, 2361.274
324.493, 2340.888
324.975, 2327.431
325.457, 2324.082
325.939, 2336.419
326.422, 2348.353
326.904, 2364.519
327.386, 2379.071
327.868, 2380.657
328.350, 2356.760
328.832, 2332.473
329.314, 2315.432
329.796, 2309.199
330.278, 2298.712
330.760, 2283.356
331.243, 2264.198
331.725, 2242.456
332.207, 2217.414
332.689, 2191.177
333.171, 2164.117
333.653, 2135.950
334.135, 2109.559
334.617, 2088.808
335.100, 2066.109
335.582, 2031.067
336.064, 1976.637
336.546, 1930.813
337.028, 1901.238
337.510, 1886.437
337.992, 1868.089
338.474, 1844.730
338.957, 1820.708
339.439, 1799.453
339.921, 1781.818
340.403, 1763.273
340.885, 1742.701
341.367, 1721.041
341.849, 1702.093
342.331, 1685.809
342.813, 1671.616
343.296, 1659.726
343.778, 1650.087
344.260, 1638.970
344.742, 1624.965
345.224, 1611.218
345.706, 1605.302
346.188, 1607.017
346.670, 1608.819
347.152, 1604.190
347.635, 1595.721
348.117, 1594.959
348.599, 1604.184
349.081, 1614.549
349.563, 1611.577
350.045, 1598.695
350.527, 1589.935
351.009, 1593.379
351.491, 1605.030
351.974, 1620.373
352.456, 1639.824
352.938, 1655.830
353.420, 1655.739
353.902, 1647.655
354.384, 1647.099
354.866, 1665.595
355.349, 1691.177
355.831, 1713.681
356.313, 1733.257
356.795, 1749.969
357.277, 1760.504
357.759, 1769.562
358.241, 1782.383
358.723, 1802.709
359.205, 1824.624
359.688, 1841.573
360.170, 1856.153
360.652, 1879.140
361.134, 1925.527
361.616, 1975.490
362.098, 2015.318
362.580, 2039.128
363.062, 2059.039
363.544, 2070.908
364.027, 2081.582
364.509, 2105.844
364.991, 2159.259
365.473, 2217.006
365.955, 2268.218
366.437, 2309.624
366.919, 2353.168
367.401, 2404.056
367.884, 2456.432
368.366, 2503.536
368.848, 2543.618
369.330, 2580.187
369.812, 2614.595
370.294, 2647.182
370.776, 2673.853
371.258, 2687.137
371.741, 2700.623
372.223, 2725.561
372.705, 2765.020
373.187, 2811.908
373.669, 2875.448
374.151, 2948.400
374.633, 2979.922
375.115, 2957.289
375.597, 2919.169
376.079, 2887.944
376.562, 2862.879
377.044, 2848.022
377.526, 2847.718
378.008, 2853.642
378.490, 2845.998
378.972, 2823.081
379.454, 2799.619
379.936, 2782.089
380.419, 2770.525
380.901, 2761.749
381.383, 2755.628
381.865, 2753.152
382.347, 2757.975
382.829, 2768.995
383.311, 2778.199
383.793, 2782.793
384.276, 2783.475
384.758, 2779.950
385.240, 2772.199
385.722, 2766.365
386.204, 2771.786
386.686, 2782.510
387.168, 2785.240
387.650, 2768.039
388.132, 2751.478
388.615, 2759.065
389.097, 2786.636
389.579, 2816.089
390.061, 2841.616
390.543, 2861.033
391.025, 2871.216
391.507, 2868.246
391.989, 2864.231
392.471, 2862.764
392.954, 2865.182
393.436, 2874.005
393.918, 2896.953
394.400, 2921.185
394.882, 2942.366
395.364, 2961.121
395.846, 2971.051
396.328, 2955.609
396.810, 2937.145
397.293, 2938.515
397.775, 2984.473
398.257, 3027.847
398.739, 3056.320
399.221, 3070.335
399.703, 3093.566
400.185, 3133.507
400.668, 3175.975
401.150, 3212.462
401.632, 3237.181
402.114, 3265.742
402.596, 3295.529
403.078, 3330.367
403.560, 3383.674
404.042, 3464.541
404.524, 3543.366
405.007, 3605.024
405.489, 3645.682
405.971, 3700.000
406.453, 3769.076
406.935, 3849.858
407.417, 3940.966
407.899, 4042.620
408.381, 4145.229
408.863, 4248.524
409.346, 4351.015
409.828, 4442.124
410.310, 4521.521
410.792, 4601.041
411.274, 4699.447
411.756, 4808.030
412.238, 4895.934
412.720, 4952.845
413.203, 4995.224
413.685, 5046.393
414.167, 5103.862
414.649, 5155.372
415.131, 5192.264
415.613, 5220.465
416.095, 5245.949
416.577, 5269.682
417.060, 5291.036
417.542, 5314.025
418.024, 5333.599
418.506, 5342.405
418.988, 5336.832
419.470, 5319.883
419.952, 5294.077
420.434, 5259.059
420.916, 5211.474
421.398, 5158.116
421.881, 5087.137
422.363, 4988.998
422.845, 4833.254
423.327, 4684.675
423.809, 4557.792
424.291, 4447.594
424.773, 4330.443
425.255, 4199.191
425.738, 4068.520
426.220, 3940.148
426.702, 3809.679
427.184, 3698.723
427.666, 3614.098
428.148, 3542.525
428.630, 3459.752
429.112, 3350.737
429.595, 3275.332
430.077, 3263.326
430.559, 3303.279
431.041, 3293.434
431.523, 3222.753
432.005, 3139.245
432.487, 3077.845
432.969, 3038.031
433.451, 3007.680
433.934, 2985.077
434.416, 2971.299
434.898, 2970.790
435.380, 2982.544
435.862, 2997.641
436.344, 3007.145
436.826, 3017.403
437.308, 3043.268
437.790, 3086.506
438.273, 3132.557
438.755, 3166.707
439.237, 3195.017
439.719, 3227.383
440.201, 3263.543
440.683, 3308.735
441.165, 3370.799
441.647, 3446.979
442.129, 3523.605
442.612, 3585.564
443.094, 3649.924
443.576, 3730.376
444.058, 3837.555
444.540, 3942.024
445.022, 4029.174
445.504, 4110.093
445.987, 4202.604
446.469, 4316.409
446.951, 4435.898
447.433, 4560.147
447.915, 4687.802
448.397, 4811.390
448.879, 4929.753
449.361, 5045.728
449.843, 5161.023
450.326, 5279.481
450.808, 5389.696
451.290, 5487.591
451.772, 5577.005
452.254, 5669.271
452.736, 5767.011
453.218, 5854.892
453.700, 5924.623
454.182, 5975.886
454.665, 6014.881
455.147, 6039.995
455.629, 6057.881
456.111, 6079.157
456.593, 6101.289
457.075, 6111.948
457.557, 6106.564
458.039, 6087.450
458.522, 6056.518
459.004, 6013.959
459.486, 5964.983
459.968, 5914.766
460.450, 5858.978
460.932, 5791.421
461.414, 5706.346
461.896, 5620.895
462.379, 5548.611
462.861, 5482.761
463.343, 5412.911
463.825, 5333.930
464.307, 5251.019
464.789, 5164.883
465.271, 5074.622
465.753, 4987.955
466.235, 4907.812
466.717, 4831.230
467.200, 4754.836
467.682, 4671.331
468.164, 4599.383
468.646, 4543.242
469.128, 4498.504
469.610, 4454.796
470.092, 4412.026
470.574, 4370.275
471.057, 4329.360
471.539, 4288.966
472.021, 4249.719
472.503, 4209.274
472.985, 4173.781
473.467, 4149.890
473.949, 4137.567
474.431, 4134.692
474.914, 4145.966
475.396, 4161.056
475.878, 4155.058
476.360, 4129.661
476.842, 4101.262
477.324, 4079.824
477.806, 4062.845
478.288, 4046.011
478.770, 4028.927
479.253, 4012.692
479.735, 4000.928
480.217, 3990.369
480.699, 3975.919
481.181, 3953.803
481.663, 3928.834
482.145, 3903.027
482.627, 3876.263
483.109, 3847.862
483.592, 3823.052
484.074, 3792.532
484.556, 3749.648
485.038, 3682.507
485.520, 3623.850
486.002, 3579.673
486.484, 3544.339
486.966, 3510.610
487.448, 3485.543
487.931, 3450.972
488.413, 3401.262
488.895, 3337.401
489.377, 3274.022
489.859, 3210.257
490.341, 3151.003
490.823, 3099.532
491.306, 3056.217
491.788, 3021.403
492.270, 2997.287
492.752, 2977.113
493.234, 2950.200
493.716, 2917.505
494.198, 2883.892
494.680, 2851.523
495.162, 2819.849
495.645, 2785.862
496.127, 2749.727
496.609, 2719.376
497.091, 2703.841
497.573, 2695.669
498.055, 2685.988
498.537, 2672.973
499.019, 2657.890
499.501, 2640.417
499.984, 2621.585
500.466, 2602.978
500.948, 2582.585
501.430, 2565.189
501.912, 2545.264
502.394, 2520.260
502.876, 2511.818
503.358, 2519.351
503.841, 2523.006
504.323, 2522.992
504.805, 2508.317
505.287, 2512.574
505.769, 2509.243
506.251, 2509.669
506.733, 2511.014
507.215, 2517.876
507.698, 2521.731
508.180, 2517.794
508.662, 2507.694
509.144, 2501.138
509.626, 2497.928
510.108, 2500.370
510.590, 2516.484
511.072, 2540.660
511.554, 2554.566
512.036, 2553.518
512.519, 2545.029
513.001, 2532.616
513.483, 2519.023
513.965, 2511.053
514.447, 2519.914
514.929, 2529.661
515.411, 2526.856
515.893, 2511.356
516.375, 2498.710
516.858, 2490.391
517.340, 2490.045
517.822, 2500.975
518.304, 2537.432
518.786, 2565.565
519.268, 2576.308
519.750, 2577.514
520.232, 2583.050
520.715, 2598.998
521.197, 2609.204
521.679, 2607.046
522.161, 2593.034
522.643, 2585.947
523.125, 2586.450
523.607, 2591.958
524.089, 2601.277
524.571, 2614.260
525.054, 2629.752
525.536, 2648.757
526.018, 2667.260
526.500, 2676.661
526.982, 2679.427
527.464, 2685.551
527.946, 2699.888
528.429, 2719.572
528.911, 2743.044
529.393, 2769.564
529.875, 2795.136
530.357, 2814.097
530.839, 2832.618
531.321, 2856.853
531.803, 2891.314
532.286, 2922.585
532.768, 2941.932
533.250, 2956.726
533.732, 2976.708
534.214, 3004.496
534.696, 3036.715
535.178, 3073.781
535.660, 3115.242
536.142, 3157.239
536.625, 3200.890
537.107, 3243.899
537.589, 3283.736
538.071, 3318.510
538.553, 3364.061
539.035, 3422.431
539.517, 3486.569
539.999, 3545.712
540.481, 3601.637
540.964, 3664.646
541.446, 3737.973
541.928, 3819.814
542.410, 3905.785
542.892, 3996.001
543.374, 4089.289
543.856, 4185.773
544.338, 4285.491
544.820, 4391.017
545.303, 4503.258
545.785, 4610.864
546.267, 4703.726
546.749, 4792.355
547.231, 4888.129
547.713, 5008.272
548.195, 5118.208
548.677, 5203.825
549.159, 5276.096
549.642, 5363.101
550.124, 5480.118
550.606, 5588.439
551.088, 5674.681
551.570, 5738.234
552.052, 5814.275
552.534, 5905.570
553.016, 6001.522
553.499, 6092.148
553.981, 6177.590
554.463, 6269.281
554.945, 6366.149
555.427, 6474.041
555.909, 6606.711
556.391, 6757.824
556.873, 6907.282
557.356, 7042.552
557.838, 7175.237
558.320, 7312.058
558.802, 7453.519
559.284, 7606.002
559.766, 7782.290
560.248, 7963.956
560.730, 8141.609
561.213, 8315.469
561.695, 8474.712
562.177, 8617.677
562.659, 8744.324
563.141, 8856.642
563.623, 8961.873
564.105, 9041.360
564.587, 9086.322
565.069, 9104.737
565.552, 9125.558
566.034, 9154.225
566.516, 9162.767
566.998, 9137.442
567.480, 9080.409
567.962, 9002.259
568.444, 8902.849
568.926, 8791.320
569.408, 8671.056
569.891, 8546.653
570.373, 8430.034
570.855, 8325.845
571.337, 8220.823
571.819, 8097.445
572.301, 7965.324
572.783, 7839.205
573.265, 7729.512
573.747, 7623.852
574.230, 7520.917
574.712, 7418.944
575.194, 7315.480
575.676, 7197.376
576.158, 7088.876
576.640, 7003.362
577.122, 6948.949
577.604, 6888.922
578.086, 6816.355
578.569, 6749.414
579.051, 6703.896
579.533, 6679.051
580.015, 6689.711
580.497, 6745.087
580.979, 6828.259
581.461, 6902.338
581.943, 6970.327
582.426, 7050.839
582.908, 7149.645
583.390, 7270.159
583.872, 7426.177
584.354, 7615.640
584.836, 7805.407
585.318, 7987.376
585.800, 8152.021
586.282, 8293.822
586.765, 8404.823
587.247, 8505.971
587.729, 8626.979
588.211, 8732.808
588.693, 8774.679
589.175, 8736.839
589.657, 8658.193
590.140, 8543.409
590.622, 8392.507
591.104, 8205.176
591.586, 7979.352
592.068, 7724.557
592.550, 7436.782
593.032, 7119.044
593.514, 6807.541
593.996, 6503.750
594.479, 6203.725
594.961, 5897.348
595.443, 5594.186
595.925, 5314.409
596.407, 5063.619
596.889, 4829.040
597.371, 4594.541
597.853, 4369.905
598.335, 4172.536
598.818, 4024.509
599.300, 3888.603
599.782, 3753.178
600.264, 3617.674
600.746, 3485.313
601.228, 3353.286
601.710, 3225.426
602.192, 3101.474
602.674, 2979.297
603.157, 2875.199
603.639, 2794.980
604.121, 2721.874
604.603, 2638.382
605.085, 2545.747
605.567, 2461.992
606.049, 2389.716
606.531, 2327.170
607.013, 2280.187
607.496, 2242.665
607.978, 2197.770
608.460, 2127.079
608.942, 2055.652
609.424, 2005.673
609.906, 1973.459
610.388, 1942.678
610.870, 1909.322
611.353, 1873.843
611.835, 1835.047
612.317, 1790.247
612.799, 1753.980
613.281, 1733.423
613.763, 1715.592
614.245, 1690.573
614.727, 1655.432
615.209, 1624.378
615.692, 1600.141
616.174, 1578.084
616.656, 1547.422
617.138, 1508.949
617.620, 1478.906
618.102, 1465.100
618.584, 1459.693
619.067, 1450.013
619.549, 1437.310
620.031, 1427.258
620.513, 1428.891
620.995, 1430.523
621.477, 1419.919
621.959, 1395.540
622.441, 1376.567
622.923, 1374.665
623.406, 1377.267
623.888, 1375.495
624.370, 1366.059
624.852, 1356.805
625.334, 1347.648
625.816, 1338.833
626.298, 1331.195
626.780, 1325.316
627.263, 1317.085
627.745, 1303.909
628.227, 1289.702
628.709, 1285.656
629.191, 1290.662
629.673, 1294.259
630.155, 1291.817
630.637, 1284.268
631.119, 1270.309
631.602, 1250.719
632.084, 1233.793
632.566, 1221.907
633.048, 1216.567
633.530, 1221.769
634.012, 1245.033
