##NAMES=Correianevesite
##RRUFFID=R060701
##IDEAL CHEMISTRY=Fe^2+^Mn^2+^_2_(PO_4_)_2_&#183;3H_2_O
##LOCALITY=Linopolis, Minas Gerais, Brazil
##OWNER=RRUFF
##SOURCE=Bob Jenkins
##DESCRIPTION=Colorless pseudo-octahedral crystals
##STATUS=The identification of this mineral is confirmed by single-crystal X-ray diffraction and chemical analysis.
##URL=rruff.info/R060701
##MEASURED CHEMISTRY=(Mn^2+^_1.98_Fe^2+^_0.98_Ca_0.04_)_Σ=3_(P_1.00_O_4_)_2_·3H_2_O ; H_2_O estimated by difference.
124.903, 355.955
125.385, 382.740
125.867, 414.783
126.349, 448.762
126.831, 485.952
127.313, 524.078
127.796, 559.605
128.278, 596.323
128.760, 641.153
129.242, 698.527
129.724, 766.759
130.206, 829.799
130.688, 883.658
131.170, 937.734
131.652, 999.703
132.135, 1064.465
132.617, 1120.623
133.099, 1160.926
133.581, 1185.340
134.063, 1196.772
134.545, 1200.004
135.027, 1189.161
135.509, 1156.673
135.992, 1106.166
136.474, 1049.207
136.956, 992.282
137.438, 936.413
137.920, 891.636
138.402, 859.808
138.884, 836.398
139.366, 819.456
139.848, 808.719
140.331, 803.359
140.813, 803.235
141.295, 808.937
141.777, 817.621
142.259, 826.665
142.741, 840.250
143.223, 862.172
143.705, 892.776
144.188, 929.525
144.670, 971.859
145.152, 1019.426
145.634, 1068.888
146.116, 1120.423
146.598, 1173.356
147.080, 1227.576
147.562, 1283.682
148.044, 1338.817
148.527, 1389.248
149.009, 1436.246
149.491, 1483.913
149.973, 1536.717
150.455, 1590.389
150.937, 1637.520
151.419, 1676.785
151.901, 1711.922
152.383, 1746.228
152.866, 1779.591
153.348, 1810.675
153.830, 1837.651
154.312, 1861.976
154.794, 1887.055
155.276, 1913.217
155.758, 1939.994
156.240, 1962.966
156.723, 1984.353
157.205, 2015.124
157.687, 2063.861
158.169, 2126.551
158.651, 2189.799
159.133, 2249.656
159.615, 2314.433
160.097, 2390.124
160.579, 2475.543
161.062, 2565.193
161.544, 2659.355
162.026, 2756.077
162.508, 2847.257
162.990, 2933.594
163.472, 3011.139
163.954, 3082.817
164.436, 3146.437
164.919, 3194.345
165.401, 3221.240
165.883, 3227.479
166.365, 3215.696
166.847, 3182.803
167.329, 3132.653
167.811, 3066.718
168.293, 2986.747
168.775, 2898.155
169.258, 2800.367
169.740, 2693.813
170.222, 2598.052
170.704, 2520.667
171.186, 2448.987
171.668, 2375.763
172.150, 2301.779
172.632, 2231.303
173.115, 2167.365
173.597, 2109.882
174.079, 2059.006
174.561, 2018.901
175.043, 1981.749
175.525, 1942.536
176.007, 1902.325
176.489, 1866.915
176.971, 1842.036
177.454, 1828.366
177.936, 1816.927
178.418, 1810.609
178.900, 1804.129
179.382, 1795.625
179.864, 1784.962
180.346, 1772.740
180.828, 1760.393
181.311, 1748.513
181.793, 1730.961
182.275, 1702.223
182.757, 1671.860
183.239, 1644.502
183.721, 1619.210
184.203, 1591.707
184.685, 1557.402
185.167, 1515.656
185.650, 1473.633
186.132, 1430.995
186.614, 1388.462
187.096, 1344.721
187.578, 1300.708
188.060, 1259.642
188.542, 1225.005
189.024, 1198.007
189.507, 1167.594
189.989, 1125.937
190.471, 1087.807
190.953, 1061.449
191.435, 1044.159
191.917, 1026.300
192.399, 997.688
192.881, 956.847
193.363, 925.180
193.846, 910.199
194.328, 898.152
194.810, 884.946
195.292, 870.896
195.774, 858.374
196.256, 850.038
196.738, 846.193
197.220, 839.234
197.702, 825.195
198.185, 811.500
198.667, 799.736
199.149, 790.012
199.631, 782.327
200.113, 777.094
200.595, 774.320
201.077, 769.697
201.559, 758.480
202.042, 749.824
202.524, 748.277
203.006, 751.313
203.488, 753.149
203.970, 748.718
204.452, 738.607
204.934, 734.985
205.416, 746.068
205.898, 755.822
206.381, 759.934
206.863, 759.944
207.345, 758.702
207.827, 757.631
208.309, 757.071
208.791, 760.170
209.273, 771.057
209.755, 781.256
210.238, 786.826
210.720, 790.723
211.202, 797.581
211.684, 810.270
212.166, 827.942
212.648, 846.507
213.130, 866.703
213.612, 886.741
214.094, 906.462
214.577, 925.620
215.059, 943.095
215.541, 957.482
216.023, 971.507
216.505, 995.634
216.987, 1038.207
217.469, 1079.241
217.951, 1113.552
218.434, 1145.272
218.916, 1178.951
219.398, 1216.627
219.880, 1257.626
220.362, 1300.344
220.844, 1346.035
221.326, 1391.827
221.808, 1437.626
222.290, 1483.234
222.773, 1528.917
223.255, 1575.172
223.737, 1619.915
224.219, 1657.619
224.701, 1682.304
225.183, 1713.180
225.665, 1760.758
226.147, 1810.007
226.629, 1849.136
227.112, 1874.642
227.594, 1891.880
228.076, 1909.065
228.558, 1927.574
229.040, 1941.577
229.522, 1949.764
230.004, 1954.025
230.486, 1954.606
230.969, 1951.814
231.451, 1947.046
231.933, 1943.051
232.415, 1941.577
232.897, 1933.079
233.379, 1909.722
233.861, 1884.456
234.343, 1863.927
234.825, 1848.348
235.307, 1833.112
235.790, 1815.305
236.272, 1795.394
236.754, 1767.138
237.236, 1717.487
237.718, 1670.568
238.200, 1640.004
238.682, 1622.966
239.165, 1606.072
239.647, 1576.868
240.129, 1536.112
240.611, 1502.559
241.093, 1481.243
241.575, 1461.337
242.057, 1439.631
242.539, 1415.447
243.021, 1387.599
243.503, 1352.733
243.986, 1313.510
244.468, 1281.551
244.950, 1259.482
245.432, 1240.693
245.914, 1225.883
246.396, 1211.465
246.878, 1190.415
247.361, 1155.340
247.843, 1114.837
248.325, 1088.973
248.807, 1082.689
249.289, 1077.623
249.771, 1063.306
250.253, 1046.267
250.735, 1034.037
251.217, 1029.739
251.699, 1030.049
252.182, 1030.597
252.664, 1031.135
253.146, 1033.439
253.628, 1038.066
254.110, 1045.029
254.592, 1055.306
255.074, 1070.127
255.556, 1084.598
256.039, 1091.263
256.521, 1090.666
257.003, 1097.465
257.485, 1119.980
257.967, 1148.821
258.449, 1173.766
258.931, 1194.677
259.413, 1210.999
259.896, 1217.882
260.378, 1218.883
260.860, 1229.001
261.342, 1255.590
261.824, 1286.031
262.306, 1306.187
262.788, 1316.514
263.270, 1325.091
263.752, 1337.808
264.235, 1350.359
264.717, 1353.805
265.199, 1345.602
265.681, 1333.300
266.163, 1324.052
266.645, 1317.331
267.127, 1309.323
267.609, 1302.768
268.091, 1292.634
268.574, 1272.148
269.056, 1240.959
269.538, 1205.936
270.020, 1170.603
270.502, 1135.808
270.984, 1107.000
271.466, 1086.725
271.948, 1070.301
272.431, 1056.759
272.913, 1045.116
273.395, 1031.703
273.877, 1014.031
274.359, 992.999
274.841, 972.594
275.323, 951.477
275.805, 932.274
276.288, 915.811
276.770, 901.801
277.252, 889.896
277.734, 879.883
278.216, 871.847
278.698, 866.144
279.180, 865.154
279.662, 862.801
280.144, 858.359
280.626, 852.383
281.109, 844.734
281.591, 835.532
282.073, 826.581
282.555, 820.964
283.037, 822.071
283.519, 817.875
284.001, 803.568
284.483, 788.152
284.966, 776.752
285.448, 770.138
285.930, 767.183
286.412, 767.880
286.894, 773.637
287.376, 771.477
287.858, 750.579
288.340, 733.075
288.823, 729.134
289.305, 735.068
289.787, 741.868
290.269, 743.628
290.751, 740.956
291.233, 737.678
291.715, 732.792
292.197, 728.648
292.679, 724.479
293.162, 721.687
293.644, 722.440
294.126, 727.901
294.608, 735.767
295.090, 740.894
295.572, 741.663
296.054, 743.791
296.536, 748.723
297.018, 755.038
297.501, 761.872
297.983, 769.028
298.465, 776.510
298.947, 783.694
299.429, 790.409
299.911, 800.141
300.393, 818.188
300.875, 834.440
301.358, 841.499
301.840, 840.369
302.322, 838.294
302.804, 839.630
303.286, 843.713
303.768, 848.667
304.250, 855.501
304.732, 860.841
305.215, 862.971
305.697, 862.080
306.179, 857.822
306.661, 846.036
307.143, 833.385
307.625, 829.294
308.107, 834.081
308.589, 839.719
309.071, 844.682
309.553, 846.276
310.036, 839.300
310.518, 818.831
311.000, 797.376
311.482, 784.335
311.964, 776.328
312.446, 761.954
312.928, 735.104
313.410, 704.621
313.893, 688.492
314.375, 691.072
314.857, 689.377
315.339, 676.115
315.821, 657.441
316.303, 640.313
316.785, 626.107
317.267, 612.014
317.750, 594.435
318.232, 572.049
318.714, 554.460
319.196, 544.649
319.678, 536.656
320.160, 527.924
320.642, 518.222
321.124, 507.673
321.606, 496.307
322.089, 484.234
322.571, 472.927
323.053, 459.901
323.535, 450.506
324.017, 447.957
324.499, 448.785
324.981, 448.940
325.463, 446.763
325.945, 442.877
326.428, 438.505
326.910, 433.500
327.392, 428.285
327.874, 422.121
328.356, 416.319
328.838, 412.163
329.320, 409.588
329.802, 407.189
330.284, 403.388
330.767, 398.111
331.249, 393.528
331.731, 391.189
332.213, 387.650
332.695, 379.050
333.177, 368.108
333.659, 361.103
334.142, 363.914
334.624, 371.330
335.106, 371.174
335.588, 361.458
336.070, 352.435
336.552, 350.395
337.034, 351.344
337.516, 350.001
337.998, 344.449
338.480, 339.143
338.963, 338.804
339.445, 342.191
339.927, 342.731
340.409, 337.309
340.891, 330.198
341.373, 328.276
341.855, 331.995
342.337, 334.302
342.819, 332.623
343.302, 328.831
343.784, 324.750
344.266, 320.649
344.748, 316.934
345.230, 313.526
345.712, 310.480
346.194, 310.945
346.677, 318.662
347.159, 325.841
347.641, 329.230
348.123, 329.291
348.605, 327.083
349.087, 322.951
349.569, 317.858
350.051, 314.969
350.533, 316.329
351.016, 317.362
351.498, 317.614
351.980, 317.624
352.462, 318.094
352.944, 319.076
353.426, 319.750
353.908, 318.553
354.390, 314.518
354.872, 313.377
355.355, 317.806
355.837, 322.920
356.319, 327.237
356.801, 330.813
357.283, 334.245
357.765, 338.257
358.247, 342.170
358.729, 343.495
359.211, 340.944
359.694, 339.222
360.176, 341.361
360.658, 344.826
361.140, 346.978
361.622, 347.013
362.104, 346.589
362.586, 346.309
363.069, 346.497
363.551, 350.066
364.033, 359.983
364.515, 369.712
364.997, 368.380
365.479, 356.410
365.961, 351.560
366.443, 365.370
366.925, 385.091
367.408, 396.600
367.890, 399.054
368.372, 398.580
368.854, 399.291
369.336, 400.979
369.818, 401.560
370.300, 398.385
370.782, 397.219
371.264, 401.291
371.747, 408.259
372.229, 413.932
372.711, 416.667
373.193, 418.892
373.675, 425.601
374.157, 441.786
374.639, 452.504
375.121, 455.817
375.603, 456.079
376.086, 454.287
376.568, 451.601
377.050, 450.611
377.532, 454.396
378.014, 462.222
378.496, 465.091
378.978, 457.549
379.460, 453.301
379.943, 459.239
380.425, 469.789
380.907, 478.121
381.389, 482.144
381.871, 482.619
382.353, 478.550
382.835, 469.816
383.317, 465.645
383.799, 470.747
384.282, 478.692
384.764, 482.867
385.246, 483.345
385.728, 482.774
386.210, 480.825
386.692, 479.050
387.174, 479.979
387.656, 483.845
388.138, 488.831
388.621, 494.254
389.103, 499.736
389.585, 502.930
390.067, 502.521
390.549, 501.475
391.031, 501.177
391.513, 500.912
391.996, 498.812
392.478, 494.173
392.960, 489.299
393.442, 488.270
393.924, 492.660
394.406, 497.558
394.888, 502.570
395.370, 508.308
395.852, 516.585
396.335, 526.156
396.817, 533.339
397.299, 534.881
397.781, 531.818
398.263, 530.023
398.745, 528.355
399.227, 530.218
399.709, 539.277
400.191, 550.649
400.674, 559.401
401.156, 564.138
401.638, 566.806
402.120, 568.232
402.602, 568.749
403.084, 571.445
403.566, 577.219
404.048, 584.690
404.530, 593.899
405.013, 604.256
405.495, 611.871
405.977, 612.741
406.459, 612.532
406.941, 616.449
407.423, 624.298
407.905, 633.937
408.387, 644.554
408.870, 655.739
409.352, 666.156
409.834, 675.828
410.316, 684.839
410.798, 692.728
411.280, 700.156
411.762, 709.544
412.244, 720.386
412.727, 727.137
413.209, 722.503
413.691, 704.841
414.173, 694.679
414.655, 699.008
415.137, 703.955
415.619, 706.916
416.101, 708.013
416.583, 707.683
417.065, 705.982
417.548, 703.518
418.030, 701.474
418.512, 700.023
418.994, 697.352
419.476, 692.527
419.958, 686.814
420.440, 681.214
420.922, 675.727
421.405, 670.365
421.887, 665.993
422.369, 661.371
422.851, 653.878
423.333, 643.488
423.815, 634.099
424.297, 628.676
424.779, 625.968
425.262, 620.733
425.744, 609.828
426.226, 601.007
426.708, 598.397
427.190, 598.069
427.672, 594.290
428.154, 586.010
428.636, 577.645
429.118, 574.331
429.601, 576.694
430.083, 580.307
430.565, 587.904
431.047, 593.837
431.529, 594.377
432.011, 592.461
432.493, 593.298
432.975, 599.575
433.457, 608.278
433.940, 613.818
434.422, 615.466
434.904, 618.191
435.386, 621.342
435.868, 627.647
436.350, 641.691
436.832, 662.318
437.314, 678.871
437.797, 682.045
438.279, 680.220
438.761, 685.013
439.243, 696.904
439.725, 712.672
440.207, 731.643
440.689, 752.598
441.171, 770.909
441.654, 784.128
442.136, 799.093
442.618, 817.734
443.100, 838.636
443.582, 860.405
444.064, 882.683
444.546, 905.723
445.028, 929.394
445.510, 953.555
445.992, 981.099
446.475, 1018.499
446.957, 1052.041
447.439, 1075.794
447.921, 1094.874
448.403, 1115.689
448.885, 1140.651
449.367, 1167.957
449.849, 1198.039
450.332, 1230.800
450.814, 1255.065
451.296, 1264.971
451.778, 1271.685
452.260, 1284.978
452.742, 1303.117
453.224, 1319.136
453.706, 1331.981
454.189, 1341.139
454.671, 1345.628
455.153, 1345.875
455.635, 1343.486
456.117, 1338.851
456.599, 1332.781
457.081, 1327.044
457.563, 1323.341
458.045, 1316.225
458.528, 1303.829
459.010, 1289.399
459.492, 1274.453
459.974, 1259.470
460.456, 1245.658
460.938, 1235.006
461.420, 1224.804
461.902, 1202.090
462.384, 1158.258
462.867, 1119.389
463.349, 1092.771
463.831, 1072.236
464.313, 1054.293
464.795, 1038.253
465.277, 1022.544
465.759, 1006.777
466.241, 990.504
466.724, 972.160
467.206, 951.368
467.688, 930.381
468.170, 909.989
468.652, 890.618
469.134, 873.170
469.616, 858.805
470.098, 844.821
470.581, 830.002
471.063, 815.122
471.545, 800.834
472.027, 787.418
472.509, 775.254
472.991, 765.272
473.473, 757.752
473.955, 747.471
474.437, 726.650
474.919, 711.603
475.402, 710.591
475.884, 715.769
476.366, 717.175
476.848, 711.378
477.330, 701.967
477.812, 692.221
478.294, 682.214
478.776, 674.259
479.259, 668.922
479.741, 665.254
480.223, 665.029
480.705, 666.249
481.187, 662.434
481.669, 649.378
482.151, 633.706
482.633, 617.163
483.116, 601.526
483.598, 591.978
484.080, 590.710
484.562, 591.890
485.044, 586.982
485.526, 573.975
486.008, 562.116
486.490, 550.623
486.972, 540.965
487.455, 534.785
487.937, 530.717
488.419, 526.367
488.901, 520.575
489.383, 514.070
489.865, 508.405
490.347, 503.836
490.829, 497.659
491.311, 487.239
491.794, 477.688
492.276, 474.411
492.758, 475.828
493.240, 474.513
493.722, 462.832
494.204, 451.401
494.686, 453.531
495.168, 465.444
495.651, 471.405
496.133, 464.576
496.615, 451.665
497.097, 444.346
497.579, 445.868
498.061, 444.790
498.543, 437.297
499.025, 430.946
499.508, 431.648
499.990, 436.668
500.472, 439.216
500.954, 435.369
501.436, 428.238
501.918, 424.171
502.400, 423.664
502.882, 423.669
503.364, 423.988
503.846, 424.330
504.329, 424.648
504.811, 424.865
505.293, 424.562
505.775, 423.073
506.257, 421.385
506.739, 419.650
507.221, 418.366
507.703, 420.050
508.186, 426.160
508.668, 434.046
509.150, 439.138
509.632, 440.734
510.114, 441.043
510.596, 440.638
511.078, 438.504
511.560, 431.571
512.042, 422.694
512.525, 417.856
513.007, 420.392
513.489, 427.611
513.971, 436.031
514.453, 446.547
514.935, 450.794
515.417, 442.368
515.899, 432.957
516.382, 432.857
516.864, 440.159
517.346, 446.095
517.828, 446.314
518.310, 445.548
518.792, 448.534
519.274, 453.864
519.756, 456.805
520.239, 455.475
520.721, 452.656
521.203, 452.704
521.685, 456.858
522.167, 459.458
522.649, 458.150
523.131, 457.952
523.613, 461.743
524.096, 467.838
524.578, 473.317
525.060, 476.909
525.542, 479.669
526.024, 483.508
526.506, 488.364
526.988, 490.765
527.470, 488.766
527.952, 486.933
528.435, 489.271
528.917, 494.806
529.399, 500.735
529.881, 505.450
530.363, 511.780
530.845, 523.481
531.327, 537.178
531.809, 547.211
532.291, 552.111
532.774, 553.256
533.256, 550.955
533.738, 544.357
534.220, 546.956
534.702, 568.919
535.184, 587.915
535.666, 596.483
536.148, 600.292
536.630, 604.548
537.113, 610.568
537.595, 621.531
538.077, 643.240
538.559, 672.242
539.041, 696.972
539.523, 716.188
540.005, 734.036
540.487, 753.103
540.969, 772.923
541.452, 792.177
541.934, 809.452
542.416, 828.234
542.898, 850.867
543.380, 874.389
543.862, 894.704
544.344, 912.591
544.826, 933.551
545.309, 962.450
545.791, 996.965
546.273, 1027.228
546.755, 1053.029
547.237, 1075.145
547.719, 1091.155
548.201, 1105.398
548.683, 1120.012
549.166, 1135.335
549.648, 1153.680
550.130, 1177.263
550.612, 1203.506
551.094, 1231.233
551.576, 1259.435
552.058, 1284.565
552.540, 1304.863
553.023, 1321.694
553.505, 1336.210
553.987, 1342.597
554.469, 1363.600
554.951, 1413.989
555.433, 1461.652
555.915, 1489.401
556.397, 1505.441
556.879, 1525.682
557.362, 1556.823
557.844, 1592.647
558.326, 1624.342
558.808, 1653.006
559.290, 1688.300
559.772, 1734.230
560.254, 1779.355
560.736, 1816.474
561.218, 1845.116
561.701, 1866.243
562.183, 1873.463
562.665, 1880.758
563.147, 1896.956
563.629, 1913.187
564.111, 1917.994
564.593, 1910.327
565.075, 1897.902
565.557, 1887.810
566.040, 1878.817
566.522, 1862.946
567.004, 1838.206
567.486, 1810.914
567.968, 1773.777
568.450, 1740.984
568.932, 1735.121
569.414, 1755.184
569.896, 1750.750
570.379, 1677.423
570.861, 1584.177
571.343, 1521.938
571.825, 1488.661
572.307, 1469.457
572.789, 1459.812
573.271, 1449.670
573.753, 1418.523
574.236, 1351.348
574.718, 1311.487
575.200, 1324.329
575.682, 1336.150
576.164, 1322.576
576.646, 1295.972
577.128, 1278.000
577.610, 1276.618
578.093, 1282.214
578.575, 1285.094
579.057, 1286.678
579.539, 1293.074
580.021, 1305.461
580.503, 1318.872
580.985, 1328.805
581.467, 1337.023
581.950, 1352.480
582.432, 1378.655
582.914, 1406.102
583.396, 1433.021
583.878, 1461.276
584.360, 1494.425
584.842, 1530.779
585.324, 1563.680
585.806, 1589.035
586.289, 1607.617
586.771, 1621.598
587.253, 1631.083
587.735, 1635.754
588.217, 1638.803
588.699, 1632.677
589.181, 1604.048
589.663, 1556.706
590.145, 1515.718
590.628, 1497.128
591.110, 1473.171
591.592, 1424.569
592.074, 1362.119
592.556, 1303.655
593.038, 1253.670
593.520, 1204.479
594.002, 1145.812
594.484, 1078.181
594.967, 1024.502
595.449, 992.186
595.931, 958.909
596.413, 914.070
596.895, 866.763
597.377, 824.653
597.859, 788.567
598.341, 757.475
598.823, 734.533
599.306, 713.635
599.788, 686.879
600.270, 656.021
600.752, 628.882
601.234, 609.025
601.716, 593.274
602.198, 576.370
602.680, 558.394
603.162, 539.016
603.645, 512.125
604.127, 490.827
604.609, 483.806
605.091, 483.475
605.573, 478.827
606.055, 466.727
606.537, 452.237
607.019, 436.859
607.502, 422.404
607.984, 414.087
608.466, 411.833
608.948, 407.727
609.430, 396.437
609.912, 380.872
610.394, 369.603
610.876, 365.115
611.359, 360.799
611.841, 356.906
612.323, 352.904
612.805, 349.741
613.287, 346.089
613.769, 338.416
614.251, 323.829
614.733, 309.533
615.216, 305.891
615.698, 309.630
616.180, 307.639
616.662, 297.341
617.144, 287.725
617.626, 286.339
618.108, 291.384
618.590, 292.519
619.072, 285.715
619.555, 280.527
620.037, 278.150
620.519, 277.115
621.001, 277.492
621.483, 278.294
621.965, 276.814
622.447, 270.486
622.929, 263.153
623.411, 261.075
623.894, 263.747
624.376, 267.153
624.858, 270.852
625.340, 273.782
625.822, 275.514
626.304, 275.884
626.786, 272.337
627.268, 258.453
627.750, 249.502
628.233, 252.007
628.715, 258.137
629.197, 261.795
629.679, 261.987
630.161, 259.651
630.643, 254.546
631.125, 248.453
631.607, 245.461
632.089, 245.457
632.572, 243.462
633.054, 236.945
633.536, 231.598
634.018, 234.437
634.500, 245.456
634.982, 251.157
635.464, 247.879
635.946, 244.061
636.429, 241.092
636.911, 239.179
637.393, 238.939
637.875, 240.089
638.357, 241.015
638.839, 239.969
639.321, 238.340
639.803, 240.255
640.286, 245.757
640.768, 248.913
641.250, 247.947
641.732, 244.261
642.214, 238.232
642.696, 229.637
643.178, 225.340
643.660, 228.418
644.143, 231.894
644.625, 233.862
645.107, 235.150
645.589, 237.217
646.071, 239.928
646.553, 241.137
647.035, 238.230
647.517, 233.459
647.999, 232.801
648.482, 236.243
648.964, 237.395
649.446, 233.688
649.928, 228.972
650.410, 227.537
650.892, 229.598
651.374, 231.671
651.856, 234.271
652.338, 236.260
652.821, 237.647
653.303, 238.064
653.785, 236.413
654.267, 233.068
654.749, 230.483
655.231, 231.037
655.713, 233.057
656.195, 233.079
656.677, 231.238
657.160, 229.437
657.642, 228.086
658.124, 227.283
658.606, 227.013
659.088, 227.256
659.570, 228.923
660.052, 233.689
660.534, 237.617
661.016, 239.882
661.499, 240.986
661.981, 241.016
662.463, 240.251
662.945, 239.737
663.427, 241.376
663.909, 242.310
664.391, 235.747
664.873, 223.766
665.356, 217.943
665.838, 221.770
666.320, 228.704
666.802, 232.820
667.284, 234.188
