##NAMES=Corundum
##RRUFFID=X050045
##IDEAL CHEMISTRY=Al_2_O_3_
##LOCALITY=Queenland, Australia
##OWNER=Caltech
##SOURCE=G.R. Rossman
##DESCRIPTION=
##STATUS=The identification of this mineral has been determined only by Raman spectroscopy
##URL=rruff.info/X050045
101.1, 162.0000
103.6, 176.8201
106.1, 207.0062
108.7, 219.8004
111.2, 239.6868
113.7, 276.2127
116.2, 350.4308
118.8, 414.1606
121.3, 470.9203
123.8, 576.9920
126.3, 704.9272
128.9, 800.2654
131.4, 932.6486
133.9, 1046.1005
136.4, 1234.9421
139.0, 1359.8667
141.5, 1548.6070
144.0, 1804.4094
146.5, 2025.7401
149.1, 2246.2812
151.6, 2479.5400
154.1, 2678.8330
156.6, 2897.3247
159.2, 3160.6418
161.7, 3408.9016
164.2, 3648.7217
166.7, 3878.0618
169.3, 4204.1553
171.8, 4352.9678
174.3, 4603.1763
176.8, 4880.5171
179.4, 5064.9868
181.9, 5210.9390
184.4, 5398.4653
186.9, 5445.3091
189.5, 5404.8457
192.0, 5431.1772
194.5, 5486.5102
197.0, 5458.2622
199.6, 5413.2480
202.1, 5414.4536
204.6, 5330.6030
207.1, 5401.3735
209.7, 5324.0586
212.2, 5339.0415
214.7, 5351.2309
217.2, 5358.1499
219.8, 5474.1680
222.3, 5458.4971
224.8, 5494.9160
227.4, 5599.7734
229.9, 5638.2993
232.4, 5641.7109
234.9, 5733.8555
237.5, 5872.9477
240.0, 5992.3100
242.5, 6135.2851
245.0, 6232.3257
247.6, 6350.7539
250.1, 6367.1230
252.6, 6481.5298
255.1, 6325.1958
257.7, 6197.2729
260.2, 6099.3144
262.7, 6011.3423
265.2, 5857.7583
267.8, 5708.8540
270.3, 5614.2368
272.8, 5517.9287
275.3, 5406.1728
277.9, 5303.1035
280.4, 5234.4888
282.9, 5185.1904
285.4, 5088.3017
288.0, 4942.3423
290.5, 4801.1558
293.0, 4691.8911
295.5, 4551.6787
298.1, 4520.0630
300.6, 4420.7432
303.1, 4381.4741
305.6, 4373.7124
308.2, 4369.7837
310.7, 4396.0459
313.2, 4444.1196
315.7, 4429.3530
318.3, 4433.3691
320.8, 4411.7148
323.3, 4395.2075
325.8, 4419.6494
328.4, 4428.1269
330.9, 4413.9311
333.4, 4385.7197
335.9, 4354.2944
338.5, 4357.1860
341.0, 4403.4058
343.5, 4560.5181
346.0, 4642.0498
348.6, 4669.6225
351.1, 4749.7681
353.6, 4806.5776
356.2, 4829.8257
358.7, 5056.5898
361.2, 5203.6426
363.7, 5350.4966
366.3, 5594.8374
368.8, 5925.2519
371.3, 6562.3569
373.8, 7756.4492
376.4, 9305.7861
378.9, 11008.0960
381.4, 12215.1520
383.9, 11737.7420
386.5, 10028.7650
389.0, 8567.6445
391.5, 7270.3247
394.0, 6710.3183
396.6, 6572.5874
399.1, 6738.2754
401.6, 6763.0674
404.1, 7033.7290
406.7, 7423.9961
409.2, 8499.1601
411.7, 11523.4750
414.2, 15674.8620
416.8, 20031.7540
419.3, 23256.1520
421.8, 21854.5570
424.3, 17866.2230
426.9, 13825.2810
429.4, 10646.9790
431.9, 9050.2100
434.4, 8488.4180
437.0, 7937.1885
439.5, 7400.3047
442.0, 7017.7314
444.5, 6809.2373
447.1, 6809.8384
449.6, 6797.7475
452.1, 6762.3359
454.6, 6693.4326
457.2, 6635.8017
459.7, 6509.4619
462.2, 6468.6518
464.7, 6484.1069
467.3, 6512.9912
469.8, 6518.6494
472.3, 6561.8833
474.8, 6593.5649
477.4, 6690.7808
479.9, 6725.9209
482.4, 6796.7607
485.0, 6775.4121
487.5, 6754.6011
490.0, 6715.5889
492.5, 6644.9438
495.1, 6552.4614
497.6, 6428.7861
500.1, 6287.2319
502.6, 6220.2295
505.2, 6187.5010
507.7, 6137.3613
510.2, 6128.9717
512.7, 6093.8755
515.3, 6041.6284
517.8, 6065.1142
520.3, 6157.7143
522.8, 6179.9101
525.4, 6190.0039
527.9, 6261.6094
530.4, 6325.6475
532.9, 6366.4634
535.5, 6315.5718
538.0, 6339.3862
540.5, 6376.8232
543.0, 6349.6421
545.6, 6242.8428
548.1, 6180.9238
550.6, 6122.5537
553.1, 6113.4111
555.7, 6082.1001
558.2, 6050.1645
560.7, 5924.7246
563.2, 5885.7334
565.8, 5833.1894
568.3, 5848.2778
570.8, 5943.1147
573.3, 6197.4238
575.9, 6447.9092
578.4, 6632.0200
580.9, 6536.6016
583.4, 6248.3520
586.0, 5968.3013
588.5, 5724.8569
591.0, 5552.0478
593.5, 5463.4819
596.1, 5422.9775
598.6, 5422.4712
601.1, 5446.9746
603.6, 5503.0718
606.2, 5626.6421
608.7, 5620.6338
611.2, 5573.4746
613.8, 5653.7793
616.3, 5725.6792
618.8, 5738.7930
621.3, 5773.6201
623.9, 5894.5522
626.4, 5937.5234
628.9, 5992.3555
631.4, 6208.8945
634.0, 6447.4590
636.5, 6962.8828
639.0, 7711.4214
641.5, 8624.9404
644.1, 9715.3769
646.6, 10357.7190
649.1, 10202.5920
651.6, 9414.8613
654.2, 8490.2012
656.7, 7711.5742
659.2, 7248.8701
661.7, 6999.7925
664.3, 6890.0342
666.8, 6782.3408
669.3, 6841.5098
671.8, 6811.1875
674.4, 6788.1631
676.9, 6757.4912
679.4, 6727.9770
681.9, 6546.6592
684.5, 6325.5425
687.0, 6289.5259
689.5, 6258.1352
692.0, 6180.5498
694.6, 6154.5776
697.1, 6146.3188
699.6, 6157.3926
702.1, 6155.9248
704.7, 6181.0727
707.2, 6251.8193
709.7, 6319.6206
712.2, 6221.3940
714.8, 6047.8682
717.3, 5916.2866
719.8, 5725.8975
722.3, 5677.9482
724.9, 5685.1636
727.4, 5747.0156
729.9, 5823.6421
732.4, 5964.3984
735.0, 6201.1455
737.5, 6458.8633
740.0, 6911.1289
742.6, 7528.8520
745.1, 8214.0410
747.6, 8966.7558
750.1, 9656.2822
752.7, 9941.1689
755.2, 9825.2275
757.7, 9479.9121
760.2, 8928.5898
762.8, 8349.3144
765.3, 7877.2114
767.8, 7569.3408
770.3, 7335.9961
772.9, 7232.9194
775.4, 7245.3374
777.9, 7231.8833
780.4, 7167.0806
783.0, 7149.6465
785.5, 7164.3169
788.0, 7245.6299
790.5, 7290.4390
793.1, 7418.3994
795.6, 7519.7563
798.1, 7548.6450
800.6, 7769.4189
803.2, 8086.8081
805.7, 8433.2549
808.2, 8734.2060
810.7, 9027.6992
813.3, 9221.7402
815.8, 9255.1357
818.3, 9119.6123
820.8, 8707.0391
823.4, 8182.8740
825.9, 7823.6328
828.4, 7549.4956
830.9, 7367.2715
833.5, 7238.0659
836.0, 7252.1333
838.5, 7346.6528
841.0, 7501.1294
843.6, 7764.8135
846.1, 8116.4385
848.6, 8418.1748
851.1, 8600.8457
853.7, 8721.8613
856.2, 8601.6641
858.7, 8242.2783
861.3, 7751.1650
863.8, 7240.9175
866.3, 6839.3320
868.8, 6523.7036
871.4, 6211.8061
873.9, 6081.8271
876.4, 5944.8628
878.9, 5786.7925
881.5, 5698.6172
884.0, 5648.4492
886.5, 5584.1108
889.0, 5469.9966
891.6, 5438.6553
894.1, 5430.8618
896.6, 5339.5439
899.1, 5254.6440
901.7, 5276.0063
904.2, 5240.5933
906.7, 5223.0317
909.2, 5170.3579
911.8, 5110.2270
914.3, 5117.7808
916.8, 5154.5015
919.3, 5168.8447
921.9, 5149.6567
924.4, 5129.5303
926.9, 5062.6899
929.4, 5080.1894
932.0, 5145.8603
934.5, 5150.8457
937.0, 5158.6601
939.5, 5166.4746
942.1, 5174.2895
944.6, 5182.1045
947.1, 5189.9189
949.6, 5197.7334
952.2, 5205.5483
954.7, 5213.3633
957.2, 5221.1777
959.7, 5175.8813
962.3, 5222.3745
964.8, 5293.5986
967.3, 5191.5185
969.8, 5253.1553
972.4, 5256.2685
974.9, 5321.5635
977.4, 5278.5576
979.9, 5247.4297
982.5, 5313.2646
985.0, 5379.5845
987.5, 5275.2485
990.1, 5256.6636
992.6, 5233.0215
995.1, 5203.7124
997.6, 5240.3545
1000.2, 5196.3271
1002.7, 5192.5771
1005.2, 5233.6182
1007.7, 5150.4316
1010.3, 5234.2270
1012.8, 5166.7388
1015.3, 5157.1890
1017.8, 5143.3086
1020.4, 5168.9048
1022.9, 5148.1694
1025.4, 5174.5625
1027.9, 5165.7324
1030.5, 5188.2842
1033.0, 5141.7212
1035.5, 5152.3091
1038.0, 5234.9038
1040.6, 5225.3017
1043.1, 5163.9648
1045.6, 5194.7666
1048.1, 5210.0166
1050.7, 5161.5557
1053.2, 5195.0957
1055.7, 5207.1821
1058.2, 5194.8848
1060.8, 5193.0000
1063.3, 5134.4814
1065.8, 5083.2642
1068.3, 5181.4961
1070.9, 5119.9228
1073.4, 5199.1489
1075.9, 5167.4814
1078.4, 5162.8232
1081.0, 5082.0688
1083.5, 5161.4390
1086.0, 5070.0561
1088.5, 5133.9399
1091.1, 5102.2925
1093.6, 5117.9214
1096.1, 5088.2788
1098.6, 5145.7993
1101.2, 5076.8437
1103.7, 5132.8384
1106.2, 5109.9614
1108.7, 5104.7441
1111.3, 5147.5615
1113.8, 5148.1611
1116.3, 5191.1592
1118.9, 5199.9453
1121.4, 5144.4438
1123.9, 5153.7744
1126.4, 5196.6225
1129.0, 5164.8813
1131.5, 5147.5000
1134.0, 5138.4570
1136.5, 5151.4795
1139.1, 5076.3428
1141.6, 5070.3301
1144.1, 5156.0845
1146.6, 5175.5742
1149.2, 5138.6401
1151.7, 5125.8174
1154.2, 5159.9971
1156.7, 5160.1216
1159.3, 5242.8433
1161.8, 5229.1382
1164.3, 5255.9853
1166.8, 5225.1992
1169.4, 5276.7046
1171.9, 5290.9668
1174.4, 5253.0810
1176.9, 5240.1670
1179.5, 5263.3335
1182.0, 5170.9053
1184.5, 5217.1855
1187.0, 5248.4097
1189.6, 5268.0190
1192.1, 5293.3520
1194.6, 5256.9272
1197.1, 5280.8750
1199.7, 5286.3017
1202.2, 5308.6440
1204.7, 5363.7710
1207.2, 5280.3437
1209.8, 5320.2832
1212.3, 5309.5557
1214.8, 5256.4560
1217.3, 5268.3662
1219.9, 5224.0542
1222.4, 5350.6392
1224.9, 5298.3232
1227.4, 5335.2026
1230.0, 5229.6826
1232.5, 5266.8716
1235.0, 5281.7392
1237.5, 5340.9902
1240.1, 5302.9307
1242.6, 5253.1719
1245.1, 5254.7231
1247.7, 5277.0063
1250.2, 5277.7412
1252.7, 5279.4258
1255.2, 5240.9433
1257.8, 5219.1787
1260.3, 5192.8242
1262.8, 5266.8594
1265.3, 5175.1299
1267.9, 5173.9385
1270.4, 5232.8501
1272.9, 5163.7314
1275.4, 5186.5034
1278.0, 5195.9482
1280.5, 5208.3286
1283.0, 5184.7466
1285.5, 5253.8530
1288.1, 5233.9350
1290.6, 5277.7832
1293.1, 5232.1475
1295.6, 5262.2876
1298.2, 5224.6475
1300.7, 5251.1475
1303.2, 5270.7290
1305.7, 5268.3125
1308.3, 5320.6094
1310.8, 5323.0298
1313.3, 5303.8945
1315.8, 5328.7876
1318.4, 5378.5776
1320.9, 5282.4160
1323.4, 5346.8164
1325.9, 5388.1445
1328.5, 5366.0195
1331.0, 5389.7622
1333.5, 5418.6816
1336.0, 5386.0620
1338.6, 5441.1514
1341.1, 5511.0215
1343.6, 5528.3530
1346.1, 5467.0171
1348.7, 5550.6494
1351.2, 5582.6011
1353.7, 5574.9321
1356.2, 5617.5019
1358.8, 5598.7700
1361.3, 5568.1748
1363.8, 5490.7236
1366.3, 5609.0913
1368.9, 5545.0464
1371.4, 5453.2959
1373.9, 5486.4800
1376.5, 5430.9267
1379.0, 5464.8081
1381.5, 5531.8589
1384.0, 5491.2500
1386.6, 5457.3306
1389.1, 5359.9785
1391.6, 5425.8437
1394.1, 5361.7100
1396.7, 5338.6699
1399.2, 5325.0024
1401.7, 5341.7344
1404.2, 5351.4619
1406.8, 5330.6050
1409.3, 5271.7207
1411.8, 5302.3950
1414.3, 5329.3017
1416.9, 5326.0288
1419.4, 5273.3706
1421.9, 5295.1162
1424.4, 5284.1006
1427.0, 5280.0713
1429.5, 5263.3784
1432.0, 5196.3310
1434.5, 5280.8154
1437.1, 5222.4355
1439.6, 5254.1968
1442.1, 5214.8188
1444.6, 5221.3525
1447.2, 5239.0884
1449.7, 5226.6103
1452.2, 5231.3310
1454.7, 5241.2715
1457.3, 5234.6626
1459.8, 5223.6767
1462.3, 5243.0459
1464.8, 5262.6455
1467.4, 5228.2837
1469.9, 5239.8916
1472.4, 5298.9302
1474.9, 5227.8340
1477.5, 5253.4595
1480.0, 5354.4692
1482.5, 5293.5879
1485.0, 5323.0351
1487.6, 5387.8721
1490.1, 5390.3052
1492.6, 5403.0464
1495.1, 5491.0923
1497.7, 5486.5776
1500.2, 5502.2558
##END=



