##NAMES=Corundum
##RRUFFID=R040096
##IDEAL CHEMISTRY=Al_2_O_3_
##LOCALITY=Sri Lanka
##OWNER=RRUFF
##SOURCE=University of Arizona Mineral Museum
##DESCRIPTION=Pale purple hexagonal prism
##STATUS=The identification of this mineral has been confirmed by X-ray diffraction and chemical analysis
##URL=rruff.info/R040096
##MEASURED CHEMISTRY=Al_2.00_O_3_
149.4147, 2374.595
149.8968, 2380.468
150.3789, 2369.339
150.8610, 2353.579
151.3431, 2336.800
151.8252, 2320.207
152.3074, 2307.801
152.7895, 2306.976
153.2716, 2323.853
153.7537, 2339.696
154.2358, 2356.595
154.7179, 2369.703
155.2001, 2374.185
155.6822, 2367.955
156.1643, 2353.607
156.6464, 2339.060
157.1285, 2321.256
157.6106, 2306.851
158.0928, 2295.217
158.5749, 2287.548
159.0570, 2286.766
159.5391, 2295.363
160.0212, 2311.835
160.5033, 2318.617
160.9855, 2307.540
161.4676, 2296.654
161.9497, 2292.205
162.4318, 2292.813
162.9139, 2293.645
163.3960, 2291.165
163.8782, 2285.126
164.3603, 2278.417
164.8424, 2272.500
165.3245, 2264.903
165.8066, 2251.409
166.2887, 2232.258
166.7709, 2215.782
167.2530, 2209.864
167.7351, 2214.750
168.2172, 2224.139
168.6993, 2246.042
169.1814, 2268.799
169.6636, 2273.949
170.1457, 2254.703
170.6278, 2234.462
171.1099, 2245.560
171.5920, 2281.505
172.0741, 2306.629
172.5563, 2305.571
173.0384, 2283.034
173.5205, 2248.961
174.0026, 2192.284
174.4847, 2142.634
174.9668, 2127.678
175.4490, 2145.005
175.9311, 2166.308
176.4132, 2172.809
176.8953, 2164.844
177.3774, 2153.946
177.8595, 2137.158
178.3417, 2121.813
178.8238, 2113.247
179.3059, 2111.801
179.7880, 2113.055
180.2701, 2111.604
180.7522, 2105.991
181.2344, 2103.858
181.7165, 2110.274
182.1986, 2117.915
182.6807, 2123.058
183.1628, 2124.552
183.6449, 2122.485
184.1271, 2115.953
184.6092, 2100.128
185.0913, 2089.704
185.5734, 2084.980
186.0555, 2085.763
186.5376, 2096.129
187.0198, 2117.562
187.5019, 2140.987
187.9840, 2141.950
188.4661, 2090.205
188.9482, 2053.061
189.4303, 2042.360
189.9125, 2046.536
190.3946, 2052.311
190.8767, 2052.938
191.3588, 2050.002
191.8409, 2051.090
192.3230, 2067.606
192.8052, 2075.505
193.2873, 2061.740
193.7694, 2036.910
194.2515, 2020.113
194.7336, 2023.612
195.2157, 2044.827
195.6979, 2058.630
196.1800, 2068.744
196.6621, 2069.969
197.1442, 2052.975
197.6263, 2023.742
198.1084, 1999.800
198.5906, 1993.470
199.0727, 2004.186
199.5548, 2014.110
200.0369, 2027.476
200.5190, 2036.646
201.0011, 2033.646
201.4833, 2019.755
201.9654, 2007.807
202.4475, 2009.102
202.9296, 2022.009
203.4117, 2027.721
203.8938, 2018.690
204.3760, 2006.629
204.8581, 2001.924
205.3402, 2005.337
205.8223, 2011.926
206.3044, 2019.481
206.7865, 2027.381
207.2687, 2033.156
207.7508, 2038.935
208.2329, 2041.281
208.7150, 2034.046
209.1971, 2015.094
209.6792, 1993.509
210.1614, 1975.045
210.6435, 1959.277
211.1256, 1946.195
211.6077, 1934.205
212.0898, 1925.050
212.5719, 1923.715
213.0541, 1933.541
213.5362, 1945.034
214.0183, 1952.489
214.5004, 1956.582
214.9825, 1958.562
215.4646, 1957.743
215.9468, 1954.989
216.4289, 1955.050
216.9110, 1963.956
217.3931, 1966.690
217.8752, 1949.375
218.3573, 1918.751
218.8395, 1894.260
219.3216, 1893.448
219.8037, 1914.053
220.2858, 1927.513
220.7679, 1932.288
221.2500, 1930.152
221.7322, 1916.207
222.2143, 1895.017
222.6964, 1879.607
223.1785, 1887.139
223.6606, 1919.541
224.1427, 1930.926
224.6249, 1891.402
225.1070, 1856.119
225.5891, 1849.517
226.0712, 1867.796
226.5533, 1891.624
227.0354, 1903.344
227.5176, 1901.111
227.9997, 1899.151
228.4818, 1897.488
228.9639, 1896.062
229.4460, 1894.571
229.9281, 1893.204
230.4103, 1892.624
230.8924, 1893.901
231.3745, 1897.876
231.8566, 1899.836
232.3387, 1901.806
232.8208, 1900.311
233.3030, 1890.484
233.7851, 1874.087
234.2672, 1858.686
234.7493, 1852.786
235.2314, 1858.783
235.7135, 1866.182
236.1957, 1881.802
236.6778, 1893.277
237.1599, 1891.947
237.6420, 1878.413
238.1241, 1860.169
238.6062, 1845.109
239.0884, 1831.999
239.5705, 1827.184
240.0526, 1836.187
240.5347, 1847.534
241.0168, 1854.562
241.4989, 1856.586
241.9811, 1856.927
242.4632, 1859.638
242.9453, 1866.482
243.4274, 1869.957
243.9095, 1873.944
244.3916, 1872.387
244.8738, 1855.182
245.3559, 1824.043
245.8380, 1795.468
246.3201, 1789.074
246.8022, 1812.549
247.2843, 1837.004
247.7665, 1866.385
248.2486, 1894.092
248.7307, 1921.043
249.2128, 1945.114
249.6949, 1953.630
250.1770, 1928.440
250.6592, 1852.386
251.1413, 1803.274
251.6234, 1795.382
252.1055, 1802.997
252.5876, 1812.171
253.0697, 1819.276
253.5519, 1819.837
254.0340, 1806.425
254.5161, 1771.981
254.9982, 1754.986
255.4803, 1769.346
255.9624, 1791.568
256.4445, 1804.042
256.9267, 1804.332
257.4088, 1799.689
257.8909, 1796.771
258.3730, 1795.713
258.8551, 1797.749
259.3372, 1810.520
259.8194, 1821.470
260.3015, 1817.432
260.7836, 1797.683
261.2657, 1775.797
261.7478, 1764.778
262.2299, 1766.657
262.7121, 1769.223
263.1942, 1776.881
263.6763, 1782.244
264.1584, 1775.831
264.6405, 1757.514
265.1227, 1740.537
265.6048, 1737.189
266.0869, 1748.953
266.5690, 1761.653
267.0511, 1782.068
267.5332, 1798.711
268.0154, 1799.097
268.4975, 1783.060
268.9796, 1764.702
269.4617, 1756.114
269.9438, 1757.204
270.4259, 1753.923
270.9081, 1741.081
271.3902, 1727.141
271.8723, 1718.557
272.3544, 1715.554
272.8365, 1715.368
273.3186, 1716.427
273.8008, 1718.773
274.2829, 1721.463
274.7650, 1726.242
275.2471, 1730.072
275.7292, 1730.575
276.2113, 1727.807
276.6935, 1722.807
277.1756, 1713.928
277.6577, 1703.366
278.1398, 1702.051
278.6219, 1724.138
279.1040, 1744.128
279.5862, 1740.634
280.0683, 1716.171
280.5504, 1691.833
281.0325, 1679.400
281.5146, 1678.173
281.9967, 1680.194
282.4789, 1686.592
282.9610, 1695.096
283.4431, 1708.331
283.9252, 1724.405
284.4073, 1731.405
284.8894, 1719.586
285.3716, 1695.685
285.8537, 1681.429
286.3358, 1679.614
286.8179, 1683.354
287.3000, 1693.038
287.7821, 1706.461
288.2643, 1713.881
288.7464, 1709.034
289.2285, 1696.827
289.7106, 1690.219
290.1927, 1692.379
290.6748, 1693.932
291.1570, 1692.098
291.6391, 1686.429
292.1212, 1673.113
292.6033, 1645.948
293.0854, 1616.969
293.5675, 1612.639
294.0497, 1641.338
294.5318, 1667.327
295.0139, 1675.762
295.4960, 1671.063
295.9781, 1661.390
296.4602, 1647.086
296.9424, 1633.612
297.4245, 1631.974
297.9066, 1643.322
298.3887, 1655.902
298.8708, 1669.307
299.3529, 1680.955
299.8351, 1685.236
300.3172, 1679.661
300.7993, 1670.036
301.2814, 1663.759
301.7635, 1660.598
302.2456, 1659.938
302.7278, 1666.357
303.2099, 1673.552
303.6920, 1670.548
304.1741, 1654.228
304.6562, 1636.789
305.1383, 1633.678
305.6205, 1645.859
306.1026, 1653.876
306.5847, 1651.305
307.0668, 1645.481
307.5489, 1644.371
308.0310, 1648.977
308.5132, 1654.666
308.9953, 1658.368
309.4774, 1659.725
309.9595, 1655.130
310.4416, 1634.150
310.9237, 1614.419
311.4059, 1613.472
311.8880, 1630.520
312.3701, 1647.585
312.8522, 1651.309
313.3343, 1641.741
313.8164, 1632.429
314.2986, 1616.617
314.7807, 1606.963
315.2628, 1615.565
315.7449, 1638.503
316.2270, 1659.808
316.7091, 1670.447
317.1913, 1670.808
317.6734, 1664.842
318.1555, 1644.603
318.6376, 1627.486
319.1197, 1620.348
319.6018, 1621.262
320.0840, 1626.380
320.5661, 1634.572
321.0482, 1644.320
321.5303, 1650.270
322.0124, 1652.384
322.4945, 1651.637
322.9767, 1646.882
323.4588, 1639.702
323.9409, 1632.123
324.4230, 1624.813
324.9051, 1618.084
325.3872, 1612.642
325.8694, 1610.278
326.3515, 1606.028
326.8336, 1598.862
327.3157, 1590.004
327.7978, 1577.500
328.2799, 1561.506
328.7621, 1550.566
329.2442, 1558.227
329.7263, 1598.763
330.2084, 1621.566
330.6905, 1613.264
331.1726, 1597.710
331.6548, 1591.391
332.1369, 1596.261
332.6190, 1605.165
333.1011, 1611.101
333.5832, 1613.734
334.0653, 1614.873
334.5475, 1612.546
335.0296, 1610.814
335.5117, 1612.895
335.9938, 1617.584
336.4759, 1620.539
336.9580, 1617.771
337.4402, 1609.459
337.9223, 1607.658
338.4044, 1625.395
338.8865, 1635.366
339.3686, 1622.438
339.8507, 1597.822
340.3329, 1581.685
340.8150, 1586.075
341.2971, 1605.727
341.7792, 1618.156
342.2613, 1622.747
342.7434, 1619.664
343.2256, 1596.692
343.7077, 1571.355
344.1898, 1565.535
344.6719, 1587.528
345.1540, 1622.583
345.6361, 1641.005
346.1183, 1635.227
346.6004, 1626.177
347.0825, 1609.686
347.5646, 1594.945
348.0467, 1588.191
348.5288, 1590.854
349.0110, 1600.531
349.4931, 1618.335
349.9752, 1650.962
350.4573, 1665.003
350.9394, 1639.024
351.4215, 1611.416
351.9037, 1600.283
352.3858, 1604.451
352.8679, 1612.074
353.3500, 1613.315
353.8321, 1608.387
354.3142, 1604.195
354.7964, 1599.460
355.2785, 1597.328
355.7606, 1597.591
356.2427, 1601.181
356.7248, 1610.732
357.2069, 1631.307
357.6891, 1656.577
358.1712, 1667.623
358.6533, 1660.208
359.1354, 1647.742
359.6175, 1629.047
360.0996, 1610.975
360.5818, 1602.633
361.0639, 1608.732
361.5460, 1620.926
362.0281, 1627.873
362.5102, 1628.868
362.9923, 1631.172
363.4745, 1637.126
363.9566, 1645.595
364.4387, 1654.478
364.9208, 1663.082
365.4029, 1675.888
365.8850, 1697.831
366.3672, 1727.504
366.8493, 1758.536
367.3314, 1791.721
367.8135, 1822.400
368.2956, 1847.282
368.7777, 1866.623
369.2599, 1878.579
369.7420, 1871.042
370.2241, 1858.657
370.7062, 1870.003
371.1883, 1911.473
371.6704, 1957.639
372.1526, 1984.735
372.6347, 1997.077
373.1168, 2019.633
373.5989, 2051.250
374.0810, 2097.385
374.5631, 2163.649
375.0453, 2249.651
375.5274, 2347.908
376.0095, 2450.227
376.4916, 2564.489
376.9737, 2719.879
377.4558, 2934.170
377.9380, 3164.249
378.4201, 3451.857
378.9022, 3739.469
379.3843, 3916.008
379.8664, 3938.129
380.3485, 3827.045
380.8307, 3616.169
381.3128, 3230.484
381.7949, 2881.776
382.2770, 2570.758
382.7591, 2308.645
383.2412, 2119.480
383.7234, 2002.854
384.2055, 1926.843
384.6876, 1856.081
385.1697, 1788.263
385.6518, 1736.902
386.1339, 1706.029
386.6161, 1684.571
387.0982, 1669.726
387.5803, 1659.764
388.0624, 1652.456
388.5445, 1646.048
389.0266, 1640.768
389.5088, 1639.300
389.9909, 1650.585
390.4730, 1655.253
390.9551, 1643.674
391.4372, 1625.794
391.9193, 1614.229
392.4015, 1614.516
392.8836, 1622.131
393.3657, 1628.903
393.8478, 1636.569
394.3299, 1638.670
394.8120, 1625.622
395.2942, 1613.127
395.7763, 1615.065
396.2584, 1632.209
396.7405, 1649.533
397.2226, 1649.457
397.7047, 1631.816
398.1869, 1621.124
398.6690, 1621.566
399.1511, 1626.553
399.6332, 1633.198
400.1153, 1641.010
400.5974, 1648.860
401.0796, 1655.398
401.5617, 1661.804
402.0438, 1669.683
402.5259, 1677.981
403.0080, 1691.753
403.4901, 1708.862
403.9723, 1735.105
404.4544, 1782.114
404.9365, 1860.980
405.4186, 1946.090
405.9007, 2019.741
406.3828, 2082.126
406.8650, 2131.908
407.3471, 2162.963
407.8292, 2188.144
408.3113, 2229.976
408.7934, 2290.292
409.2755, 2351.898
409.7577, 2400.900
410.2398, 2451.129
410.7219, 2522.734
411.2040, 2619.143
411.6861, 2726.230
412.1682, 2825.063
412.6504, 2911.760
413.1325, 3045.185
413.6146, 3210.428
414.0967, 3433.039
414.5788, 3726.530
415.0609, 4090.051
415.5431, 4530.212
416.0252, 5061.174
416.5073, 5656.053
416.9894, 6196.975
417.4715, 6874.825
417.9536, 7260.931
418.4358, 7242.134
418.9179, 6943.606
419.4000, 6446.524
419.8821, 5791.772
420.3642, 5070.645
420.8463, 4405.208
421.3285, 3774.883
421.8106, 3269.644
422.2927, 2935.126
422.7748, 2679.202
423.2569, 2471.502
423.7390, 2306.090
424.2212, 2182.980
424.7033, 2107.432
425.1854, 2074.701
425.6675, 2054.905
426.1496, 2047.486
426.6317, 2055.678
427.1139, 2083.247
427.5960, 2123.937
428.0781, 2172.468
428.5602, 2229.464
429.0423, 2285.897
429.5244, 2333.905
430.0066, 2373.712
430.4887, 2396.305
430.9708, 2402.116
431.4529, 2384.330
431.9350, 2337.041
432.4171, 2259.160
432.8993, 2172.430
433.3814, 2077.209
433.8635, 1982.620
434.3456, 1905.192
434.8277, 1848.001
435.3098, 1802.091
435.7920, 1760.283
436.2741, 1723.429
436.7562, 1695.782
437.2383, 1682.625
437.7204, 1674.005
438.2025, 1666.878
438.6847, 1659.761
439.1668, 1647.493
439.6489, 1626.212
440.1310, 1601.917
440.6131, 1591.224
441.0952, 1611.434
441.5774, 1620.881
442.0595, 1606.811
442.5416, 1587.541
443.0237, 1580.826
443.5058, 1589.034
443.9879, 1601.414
444.4701, 1605.134
444.9522, 1597.648
445.4343, 1599.608
445.9164, 1619.154
446.3985, 1640.080
446.8806, 1654.440
447.3628, 1666.804
447.8449, 1688.886
448.3270, 1730.463
448.8091, 1777.279
449.2912, 1791.747
449.7733, 1763.226
450.2555, 1731.639
450.7376, 1705.659
451.2197, 1681.551
451.7018, 1655.664
452.1839, 1627.641
452.6660, 1601.750
453.1482, 1581.176
453.6303, 1565.590
454.1124, 1554.204
454.5945, 1548.023
455.0766, 1543.418
455.5587, 1538.693
456.0409, 1533.378
456.5230, 1525.513
457.0051, 1508.715
457.4872, 1493.616
457.9693, 1494.044
458.4514, 1506.717
458.9336, 1510.740
459.4156, 1492.156
459.8978, 1463.653
460.3799, 1462.530
460.8620, 1511.387
461.3441, 1540.323
461.8262, 1520.542
462.3083, 1483.807
462.7905, 1462.445
463.2726, 1462.567
463.7547, 1472.989
464.2368, 1483.034
464.7189, 1493.053
465.2010, 1499.330
465.6832, 1500.558
466.1653, 1499.644
466.6474, 1494.380
467.1295, 1488.203
467.6116, 1487.902
468.0938, 1497.591
468.5759, 1510.311
469.0580, 1508.972
469.5401, 1487.432
470.0222, 1469.276
470.5043, 1457.964
470.9865, 1451.841
471.4686, 1451.519
471.9507, 1456.450
472.4328, 1462.767
472.9149, 1470.543
473.3970, 1477.700
473.8792, 1473.906
474.3613, 1453.743
474.8434, 1437.615
475.3255, 1443.432
475.8076, 1462.343
476.2897, 1476.875
476.7719, 1487.364
477.2540, 1489.169
477.7361, 1470.564
478.2182, 1439.708
478.7003, 1423.220
479.1824, 1432.174
479.6646, 1451.955
480.1467, 1459.145
480.6288, 1447.267
481.1109, 1443.728
481.5930, 1459.197
482.0751, 1476.139
482.5573, 1481.146
483.0394, 1475.280
483.5215, 1467.855
484.0036, 1465.682
484.4857, 1467.635
484.9678, 1466.239
485.4500, 1459.252
485.9321, 1451.622
486.4142, 1442.144
486.8963, 1433.359
487.3784, 1428.050
487.8605, 1426.794
488.3427, 1427.249
488.8248, 1425.833
489.3069, 1422.283
489.7890, 1424.324
490.2711, 1438.673
490.7532, 1450.044
491.2354, 1447.778
491.7175, 1436.604
492.1996, 1427.560
492.6817, 1425.461
493.1638, 1426.758
493.6459, 1427.899
494.1281, 1428.863
494.6102, 1429.500
495.0923, 1430.246
495.5744, 1430.027
496.0565, 1426.359
496.5386, 1418.433
497.0208, 1411.436
497.5029, 1404.858
497.9850, 1400.789
498.4671, 1401.182
498.9492, 1406.225
499.4313, 1416.442
499.9135, 1434.000
500.3956, 1457.428
500.8777, 1467.526
501.3598, 1452.077
501.8419, 1437.875
502.3240, 1430.080
502.8062, 1425.322
503.2883, 1417.917
503.7704, 1406.727
504.2525, 1398.232
504.7346, 1404.017
505.2167, 1427.529
505.6989, 1439.893
506.1810, 1432.735
506.6631, 1422.706
507.1452, 1417.406
507.6273, 1415.438
508.1094, 1412.932
508.5916, 1406.653
509.0737, 1401.043
509.5558, 1404.704
510.0379, 1417.155
510.5200, 1424.237
511.0021, 1419.030
511.4843, 1408.548
511.9664, 1404.646
512.4485, 1408.860
512.9306, 1407.833
513.4127, 1393.001
513.8948, 1374.720
514.3770, 1360.581
514.8591, 1352.204
515.3412, 1353.668
515.8233, 1369.972
516.3054, 1397.246
516.7875, 1410.139
517.2697, 1394.763
517.7518, 1381.761
518.2339, 1374.666
518.7160, 1370.842
519.1981, 1367.103
519.6802, 1363.034
520.1624, 1361.378
520.6445, 1367.391
521.1266, 1381.471
521.6087, 1386.208
522.0908, 1374.014
522.5729, 1363.620
523.0551, 1363.134
523.5372, 1369.558
524.0193, 1380.090
524.5014, 1397.911
524.9835, 1410.149
525.4656, 1397.184
525.9478, 1364.908
526.4299, 1344.976
526.9120, 1347.652
527.3941, 1359.353
527.8762, 1365.108
528.3583, 1364.697
528.8405, 1364.590
529.3226, 1367.738
529.8047, 1369.294
530.2868, 1365.160
530.7689, 1356.726
531.2510, 1346.800
531.7332, 1336.334
532.2153, 1328.267
532.6974, 1331.080
533.1795, 1358.338
533.6616, 1371.405
534.1437, 1359.394
534.6259, 1343.447
535.1080, 1335.208
535.5901, 1335.122
536.0722, 1339.252
536.5543, 1346.652
537.0364, 1355.143
537.5186, 1357.238
538.0007, 1351.556
538.4828, 1344.774
538.9649, 1339.381
539.4470, 1334.089
539.9291, 1325.786
540.4113, 1313.016
540.8934, 1306.236
541.3755, 1315.672
541.8576, 1332.413
542.3397, 1342.725
542.8218, 1345.070
543.3040, 1344.608
543.7861, 1345.114
544.2682, 1346.196
544.7503, 1344.387
545.2324, 1334.948
545.7145, 1328.910
546.1967, 1330.109
546.6788, 1334.920
547.1609, 1340.535
547.6430, 1345.791
548.1251, 1349.362
548.6072, 1349.824
549.0894, 1347.153
549.5715, 1341.948
550.0536, 1332.667
550.5357, 1322.958
551.0178, 1310.270
551.4999, 1299.347
551.9821, 1298.654
552.4642, 1313.292
552.9463, 1327.650
553.4284, 1323.587
553.9105, 1306.335
554.3926, 1297.677
554.8748, 1303.040
555.3569, 1312.597
555.8390, 1318.760
556.3211, 1321.206
556.8032, 1319.000
557.2853, 1304.776
557.7675, 1293.574
558.2496, 1293.739
558.7317, 1301.403
559.2138, 1311.196
559.6959, 1320.951
560.1780, 1328.436
560.6602, 1329.811
561.1423, 1323.623
561.6244, 1317.221
562.1065, 1306.300
562.5886, 1299.671
563.0707, 1302.838
563.5529, 1312.113
564.0350, 1321.008
564.5171, 1326.988
564.9992, 1330.776
565.4813, 1333.096
565.9634, 1333.979
566.4456, 1333.416
566.9277, 1330.159
567.4098, 1327.612
567.8919, 1329.145
568.3740, 1334.460
568.8561, 1343.305
569.3383, 1359.331
569.8204, 1375.523
570.3025, 1387.538
570.7846, 1396.152
571.2667, 1401.819
571.7488, 1404.487
572.2310, 1409.375
572.7131, 1426.202
573.1952, 1459.410
573.6773, 1493.017
574.1594, 1525.386
574.6415, 1559.706
575.1237, 1601.227
575.6058, 1645.381
576.0879, 1684.785
576.5700, 1718.105
577.0521, 1739.004
577.5342, 1735.738
578.0164, 1708.200
578.4985, 1669.931
578.9806, 1619.925
579.4627, 1566.647
579.9448, 1518.152
580.4269, 1473.979
580.9091, 1431.782
581.3912, 1384.272
581.8733, 1344.625
582.3554, 1326.690
582.8375, 1323.660
583.3196, 1316.754
583.8018, 1298.009
584.2839, 1276.084
584.7660, 1267.438
585.2481, 1281.040
585.7302, 1282.254
586.2123, 1254.401
586.6945, 1231.566
587.1766, 1231.988
587.6587, 1247.479
588.1408, 1260.903
588.6229, 1264.810
589.1050, 1262.167
589.5872, 1255.524
590.0693, 1245.038
590.5514, 1235.936
591.0335, 1228.959
591.5156, 1224.163
591.9977, 1221.183
592.4799, 1220.123
592.9620, 1223.349
593.4441, 1240.286
593.9262, 1252.606
594.4083, 1241.661
594.8904, 1219.550
595.3726, 1213.512
595.8547, 1232.833
596.3368, 1259.149
596.8189, 1264.408
597.3010, 1242.345
597.7831, 1229.326
598.2653, 1234.384
598.7474, 1239.450
599.2295, 1237.252
599.7116, 1231.922
600.1937, 1231.038
600.6758, 1238.207
601.1580, 1245.469
601.6401, 1241.865
602.1222, 1230.235
602.6043, 1225.673
603.0864, 1232.187
603.5685, 1239.735
604.0507, 1239.732
604.5328, 1232.823
605.0149, 1227.667
605.4970, 1222.524
605.9791, 1221.126
606.4612, 1228.328
606.9434, 1238.416
607.4255, 1244.334
607.9076, 1244.440
608.3897, 1241.419
608.8718, 1238.161
609.3539, 1234.611
609.8361, 1227.304
610.3182, 1209.596
610.8003, 1199.356
611.2824, 1209.142
611.7645, 1225.203
612.2466, 1231.643
612.7288, 1225.018
613.2109, 1219.245
613.6930, 1226.733
614.1751, 1240.142
614.6572, 1245.798
615.1393, 1242.613
615.6215, 1236.431
616.1036, 1229.910
616.5857, 1223.864
617.0678, 1221.165
617.5499, 1223.098
618.0320, 1226.644
618.5142, 1238.142
618.9963, 1246.263
619.4784, 1237.676
619.9605, 1216.513
620.4426, 1200.025
620.9247, 1201.112
621.4069, 1213.628
621.8890, 1221.930
622.3711, 1225.688
622.8532, 1227.073
623.3353, 1225.794
623.8174, 1223.124
624.2996, 1217.825
624.7817, 1210.433
625.2638, 1211.268
625.7459, 1232.472
626.2280, 1254.767
626.7101, 1263.656
627.1923, 1261.325
627.6744, 1252.428
628.1565, 1238.633
628.6386, 1226.755
629.1207, 1229.349
629.6028, 1252.084
630.0850, 1266.263
630.5671, 1268.490
631.0492, 1265.024
631.5313, 1249.989
632.0134, 1232.775
632.4955, 1228.134
632.9777, 1241.845
633.4598, 1262.435
633.9419, 1282.855
634.4240, 1301.325
634.9061, 1309.517
635.3882, 1304.950
635.8704, 1300.974
636.3525, 1307.176
636.8346, 1322.473
637.3167, 1340.105
637.7988, 1364.355
638.2809, 1384.847
638.7631, 1394.864
639.2452, 1403.720
639.7273, 1420.115
640.2094, 1444.567
640.6915, 1472.537
641.1736, 1501.724
641.6558, 1530.707
642.1379, 1553.036
642.6200, 1567.425
643.1021, 1580.906
643.5842, 1596.724
644.0663, 1611.113
644.5485, 1620.878
645.0306, 1626.038
645.5127, 1626.506
645.9948, 1624.468
646.4769, 1615.797
646.9590, 1595.907
647.4412, 1566.814
