##NAMES=Corundum
##RRUFFID=R060020
##IDEAL CHEMISTRY=Al_2_O_3_
##LOCALITY=Yogo Gulch, Montana, USA
##OWNER=RRUFF
##SOURCE=American Museum of Natural History
##DESCRIPTION=Water rounded light blue fragment
##STATUS=The identification of this mineral has been confirmed by X-ray diffraction and chemical analysis
##URL=rruff.info/R060020
##MEASURED CHEMISTRY=(Al_1.99_Fe^3+^_0.01_)_Î£=2_O_3_ ; Fe^3+^ by charge balance
94.99219, 22.21662
95.47430, 22.50465
95.95642, 22.48554
96.43854, 22.23628
96.92065, 22.01405
97.40277, 22.06597
97.88489, 22.63460
98.36700, 22.90847
98.84912, 22.76570
99.33124, 22.46714
99.81335, 22.22096
100.2955, 22.09196
100.7776, 22.00092
101.2597, 21.77572
101.7418, 21.28733
102.2239, 20.92333
102.7061, 20.84199
103.1882, 20.95598
103.6703, 21.05581
104.1524, 21.06744
104.6345, 21.00946
105.1166, 20.93417
105.5988, 20.84264
106.0809, 20.73015
106.5630, 20.60651
107.0451, 20.47952
107.5272, 20.28146
108.0093, 19.83868
108.4915, 19.36507
108.9736, 19.06790
109.4557, 19.05177
109.9378, 19.21659
110.4199, 19.28562
110.9020, 19.18187
111.3842, 19.08179
111.8663, 19.01588
112.3484, 18.98363
112.8305, 18.99650
113.3126, 19.07913
113.7947, 19.23779
114.2769, 19.21113
114.7590, 18.78014
115.2411, 18.38524
115.7232, 18.18184
116.2053, 18.16443
116.6874, 18.24769
117.1695, 18.36717
117.6517, 18.55746
118.1338, 18.57789
118.6159, 18.25620
119.0980, 17.87426
119.5801, 17.68606
120.0622, 17.75336
120.5444, 17.91900
121.0265, 17.95961
121.5086, 17.87186
121.9907, 17.82700
122.4728, 17.96758
122.9549, 18.19372
123.4371, 18.22835
123.9192, 17.90342
124.4013, 17.47884
124.8834, 17.24044
125.3655, 17.19197
125.8476, 17.23208
126.3298, 17.31924
126.8119, 17.46233
127.2940, 17.53904
127.7761, 17.38488
128.2582, 17.22763
128.7404, 17.25244
129.2225, 17.50939
129.7046, 17.81709
130.1867, 17.85530
130.6688, 17.47323
131.1509, 17.08451
131.6331, 16.65027
132.1152, 16.27813
132.5973, 16.09104
133.0794, 16.15278
133.5615, 16.39678
134.0436, 16.54426
134.5258, 16.45754
135.0079, 16.41697
135.4900, 16.50075
135.9721, 16.65401
136.4542, 16.77604
136.9363, 16.79633
137.4184, 16.72355
137.9006, 16.70520
138.3827, 16.84326
138.8648, 16.93188
139.3469, 16.83532
139.8290, 16.57528
140.3111, 16.30624
140.7933, 16.14756
141.2754, 16.09518
141.7575, 16.04625
142.2396, 15.98481
142.7217, 15.93007
143.2038, 15.90473
143.6860, 15.91298
144.1681, 15.93771
144.6502, 15.97075
145.1323, 16.00959
145.6144, 16.05008
146.0965, 16.07722
146.5787, 16.10286
147.0608, 16.18149
147.5429, 16.39794
148.0250, 16.54364
148.5071, 16.45925
148.9892, 16.20856
149.4714, 15.97099
149.9535, 15.89180
150.4356, 15.98163
150.9177, 16.08718
151.3998, 16.36855
151.8819, 16.53119
152.3641, 16.35226
152.8462, 15.88897
153.3283, 15.42558
153.8104, 15.31454
154.2925, 15.74002
154.7746, 16.01183
155.2568, 16.07307
155.7389, 16.05920
156.2210, 16.05592
156.7031, 16.07948
157.1852, 16.08348
157.6673, 15.98810
158.1495, 15.65721
158.6316, 15.46562
159.1137, 15.49119
159.5958, 15.61619
160.0779, 15.72710
160.5600, 15.78570
161.0422, 15.81946
161.5243, 15.88985
162.0064, 16.02492
162.4885, 16.12787
162.9706, 16.19826
163.4527, 16.22116
163.9349, 16.14883
164.4170, 15.93002
164.8991, 15.65547
165.3812, 15.47978
165.8633, 15.38815
166.3454, 15.40160
166.8276, 15.59271
167.3097, 15.93466
167.7918, 16.23305
168.2739, 16.43154
168.7560, 16.52572
169.2381, 16.49799
169.7203, 16.31223
170.2024, 16.11278
170.6845, 16.04192
171.1666, 16.11111
171.6487, 16.24453
172.1308, 16.55459
172.6130, 16.85043
173.0951, 16.95977
173.5772, 16.81671
174.0593, 16.54392
174.5414, 16.34251
175.0235, 16.21056
175.5057, 16.16858
175.9878, 16.26758
176.4699, 16.41840
176.9520, 16.55315
177.4341, 16.64320
177.9162, 16.67883
178.3984, 16.62133
178.8805, 16.29700
179.3626, 16.10599
179.8447, 16.14314
180.3268, 16.32135
180.8089, 16.55271
181.2911, 16.79333
181.7732, 17.02661
182.2553, 17.15476
182.7374, 17.10615
183.2195, 17.03258
183.7016, 16.88865
184.1838, 16.74256
184.6659, 16.72484
185.1480, 16.93201
185.6301, 17.33398
186.1122, 17.61522
186.5943, 17.77238
187.0765, 17.84571
187.5586, 17.79719
188.0407, 17.66311
188.5228, 17.54911
189.0049, 17.51443
189.4870, 17.56807
189.9692, 17.69803
190.4513, 18.02106
190.9334, 18.32025
191.4155, 18.44431
191.8976, 18.39842
192.3797, 18.29290
192.8619, 18.15784
193.3440, 18.02331
193.8261, 17.96745
194.3082, 18.04093
194.7903, 18.16887
195.2724, 18.24008
195.7546, 18.23032
196.2367, 18.32089
196.7188, 18.84622
197.2009, 19.50831
197.6830, 19.87017
198.1651, 19.61034
198.6473, 19.10912
199.1294, 19.10722
199.6115, 19.87333
200.0936, 20.46096
200.5757, 20.24320
201.0578, 19.64974
201.5400, 19.20899
202.0221, 19.19327
202.5042, 19.47296
202.9863, 19.66699
203.4684, 19.70465
203.9505, 19.76834
204.4327, 19.95971
204.9148, 20.20024
205.3969, 20.39257
205.8790, 20.49243
206.3611, 20.49413
206.8432, 20.35680
207.3254, 19.83834
207.8075, 19.47263
208.2896, 19.42473
208.7717, 19.58964
209.2538, 19.82805
209.7359, 20.06345
210.2181, 20.28680
210.7002, 20.40328
211.1823, 20.27973
211.6644, 20.18133
212.1465, 20.21500
212.6286, 20.30556
213.1108, 20.30622
213.5929, 20.10776
214.0750, 19.73122
214.5571, 19.49389
215.0392, 19.50318
215.5213, 19.52056
216.0035, 19.46074
216.4856, 19.35736
216.9677, 19.30862
217.4498, 19.39671
217.9319, 19.59968
218.4140, 19.60957
218.8961, 19.24054
219.3783, 18.91330
219.8604, 18.80884
220.3425, 18.88524
220.8246, 19.00012
221.3067, 19.07189
221.7888, 19.10255
222.2710, 19.12201
222.7531, 19.13746
223.2352, 19.13693
223.7173, 19.09367
224.1994, 19.02013
224.6815, 18.97725
225.1637, 19.01164
225.6458, 19.10464
226.1279, 19.17085
226.6100, 19.20825
227.0921, 19.22199
227.5742, 19.20753
228.0564, 19.16713
228.5385, 19.12513
229.0206, 19.10442
229.5027, 19.08508
229.9848, 19.02251
230.4669, 18.87225
230.9491, 18.73394
231.4312, 18.71058
231.9133, 18.80283
232.3954, 18.89038
232.8775, 18.92068
233.3596, 18.91066
233.8418, 18.87794
234.3239, 18.81332
234.8060, 18.74990
235.2881, 18.74261
235.7702, 18.80287
236.2523, 18.80845
236.7345, 18.55888
237.2166, 18.31495
237.6987, 18.34643
238.1808, 18.74377
238.6629, 19.26320
239.1451, 19.65618
239.6272, 19.93777
240.1093, 20.01779
240.5914, 19.64355
241.0735, 19.17713
241.5556, 18.85044
242.0378, 18.71699
242.5199, 18.72437
243.0020, 18.85930
243.4841, 19.19808
243.9662, 19.37191
244.4483, 19.14358
244.9305, 18.84237
245.4126, 18.68454
245.8947, 18.71570
246.3768, 18.81640
246.8589, 18.81800
247.3410, 18.67582
247.8232, 18.57405
248.3053, 18.52507
248.7874, 18.52059
249.2695, 18.57215
249.7516, 18.67525
250.2337, 18.79729
250.7159, 18.90049
251.1980, 18.99170
251.6801, 19.04228
252.1622, 19.04885
252.6443, 19.02358
253.1264, 18.95980
253.6086, 18.86387
254.0907, 18.76114
254.5728, 18.68673
255.0549, 18.65890
255.5370, 18.60169
256.0191, 18.47254
256.5013, 18.35311
256.9834, 18.29636
257.4655, 18.30078
257.9476, 18.32334
258.4297, 18.31240
258.9118, 18.24436
259.3940, 18.24286
259.8761, 18.38624
260.3582, 18.51440
260.8403, 18.52329
261.3224, 18.42728
261.8045, 18.32022
262.2867, 18.29016
262.7688, 18.34698
263.2509, 18.42163
263.7330, 18.53687
264.2151, 18.64458
264.6972, 18.73725
265.1794, 18.80548
265.6615, 18.83142
266.1436, 18.79833
266.6257, 18.70409
267.1078, 18.58622
267.5899, 18.34014
268.0721, 18.17402
268.5542, 18.26501
269.0363, 18.52730
269.5184, 18.70774
270.0005, 18.61652
270.4826, 18.27608
270.9648, 18.03192
271.4469, 17.88787
271.9290, 17.81066
272.4111, 17.79873
272.8932, 17.84459
273.3753, 17.95981
273.8575, 18.18041
274.3396, 18.45004
274.8217, 18.46091
275.3038, 17.93063
275.7859, 17.51958
276.2680, 17.54688
276.7502, 17.83687
277.2323, 18.00957
277.7144, 17.86997
278.1965, 17.53769
278.6786, 17.37206
279.1607, 17.42882
279.6429, 17.50409
280.1250, 17.59505
280.6071, 17.66087
281.0892, 17.59390
281.5713, 17.32637
282.0534, 16.99669
282.5356, 16.92843
283.0177, 17.23559
283.4998, 17.37077
283.9819, 16.99685
284.4640, 16.42009
284.9461, 16.13279
285.4283, 16.28791
285.9104, 16.64781
286.3925, 16.92005
286.8746, 17.11494
287.3567, 17.20455
287.8388, 17.06742
288.3210, 16.86707
288.8031, 16.86197
289.2852, 17.11780
289.7673, 17.37501
290.2494, 17.27947
290.7315, 16.85703
291.2137, 16.63745
291.6958, 16.97071
292.1779, 17.39986
292.6600, 17.34099
293.1421, 16.72688
293.6242, 16.10893
294.1064, 15.98548
294.5885, 16.26616
295.0706, 16.42752
295.5527, 16.31895
296.0348, 16.14208
296.5169, 16.07588
296.9991, 16.12005
297.4812, 16.16171
297.9633, 16.09022
298.4454, 15.97815
298.9275, 16.03984
299.4096, 16.47073
299.8918, 16.86505
300.3739, 16.86393
300.8560, 16.52441
301.3381, 16.25242
301.8202, 16.24931
302.3023, 16.41511
302.7845, 16.53598
303.2666, 16.61996
303.7487, 16.64170
304.2308, 16.56396
304.7129, 16.40710
305.1950, 16.22322
305.6772, 15.98419
306.1593, 15.79401
306.6414, 15.83121
307.1235, 16.11763
307.6056, 16.37266
308.0877, 16.47683
308.5699, 16.46238
309.0520, 16.39111
309.5341, 16.25853
310.0162, 16.11357
310.4983, 16.01605
310.9804, 15.95793
311.4626, 15.89853
311.9447, 15.83309
312.4268, 15.75584
312.9089, 15.64247
313.3910, 15.47850
313.8731, 15.33800
314.3553, 15.30794
314.8374, 15.35579
315.3195, 15.37966
315.8016, 15.33667
316.2837, 15.27400
316.7658, 15.25204
317.2480, 15.27341
317.7301, 15.27448
318.2122, 15.18889
318.6943, 15.06312
319.1764, 15.00685
319.6585, 15.03798
320.1407, 15.12822
320.6228, 15.30940
321.1049, 15.55996
321.5870, 15.71002
322.0691, 15.63575
322.5512, 15.46152
323.0334, 15.42454
323.5155, 15.56660
323.9976, 15.70813
324.4797, 15.76237
324.9618, 15.74181
325.4439, 15.68213
325.9261, 15.58927
326.4082, 15.46611
326.8903, 15.27139
327.3724, 14.99939
327.8545, 14.84601
328.3366, 15.01510
328.8188, 15.31058
329.3009, 15.37265
329.7830, 15.10914
330.2651, 14.79383
330.7472, 14.72220
331.2293, 14.84501
331.7115, 14.89473
332.1936, 14.75978
332.6757, 14.56683
333.1578, 14.44153
333.6399, 14.39007
334.1220, 14.37616
334.6042, 14.39356
335.0863, 14.42877
335.5684, 14.43055
336.0505, 14.32757
336.5326, 14.26218
337.0147, 14.39215
337.4969, 14.66419
337.9790, 14.82279
338.4611, 14.71913
338.9432, 14.46694
339.4253, 14.32849
339.9074, 14.35070
340.3896, 14.35131
340.8717, 14.14212
341.3538, 13.87484
341.8359, 13.91170
342.3180, 14.41045
342.8001, 15.03477
343.2822, 15.26470
343.7643, 15.06379
344.2465, 14.96026
344.7286, 15.14920
345.2107, 15.43451
345.6928, 15.59575
346.1749, 15.60317
346.6570, 15.55618
347.1392, 15.52129
347.6213, 15.50513
348.1034, 15.57246
348.5855, 15.77794
349.0676, 16.02139
349.5497, 16.26172
350.0319, 16.48996
350.5140, 16.67324
350.9961, 16.77869
351.4782, 16.83225
351.9603, 16.95684
352.4424, 17.26151
352.9246, 17.49492
353.4067, 17.53574
353.8888, 17.46075
354.3709, 17.38650
354.8530, 17.34986
355.3351, 17.37841
355.8173, 17.54096
356.2994, 17.92491
356.7815, 18.24106
357.2636, 18.31997
357.7457, 18.40073
358.2278, 18.77182
358.7100, 19.46203
359.1921, 20.21024
359.6742, 20.72366
360.1563, 20.95453
360.6384, 21.21392
361.1205, 21.55396
361.6027, 21.87256
362.0848, 22.11560
362.5669, 22.28774
363.0490, 22.40300
363.5311, 22.45163
364.0132, 22.46076
364.4954, 22.66224
364.9775, 23.32382
365.4596, 23.84846
365.9417, 23.94619
366.4238, 23.88795
366.9059, 24.08612
367.3881, 24.70794
367.8702, 25.52588
368.3523, 26.07051
368.8344, 26.12766
369.3165, 26.24033
369.7986, 26.29139
370.2808, 26.47232
370.7629, 26.98590
371.2450, 27.82146
371.7271, 28.76040
372.2092, 29.55339
372.6913, 30.16501
373.1735, 30.89582
373.6556, 31.41748
374.1377, 32.37278
374.6198, 34.10056
375.1019, 36.44780
375.5840, 39.07007
376.0662, 41.76097
376.5483, 44.53074
377.0304, 47.45385
377.5125, 51.48761
377.9946, 54.18190
378.4767, 55.38941
378.9589, 55.07531
379.4410, 52.88929
379.9231, 48.77966
380.4052, 43.70880
380.8873, 38.92393
381.3694, 34.21807
381.8516, 30.55994
382.3337, 28.52572
382.8158, 27.13956
383.2979, 26.09848
383.7800, 25.30041
384.2621, 24.62836
384.7443, 23.97948
385.2264, 23.36460
385.7085, 22.89722
386.1906, 22.65480
386.6727, 22.45810
387.1548, 22.17952
387.6370, 21.90578
388.1191, 21.79279
388.6012, 21.94716
389.0833, 22.20956
389.5654, 22.27419
390.0475, 22.08906
390.5297, 21.94336
391.0118, 21.90414
391.4939, 21.96203
391.9760, 22.18075
392.4581, 22.57313
392.9402, 22.88300
393.4224, 22.73552
393.9045, 22.25053
394.3866, 22.20791
394.8687, 22.87766
395.3508, 23.74674
395.8329, 24.34293
396.3151, 24.77128
396.7972, 25.39439
397.2793, 26.38410
397.7614, 27.62902
398.2435, 29.08764
398.7256, 30.77786
399.2078, 32.31651
399.6899, 33.55537
400.1720, 34.42391
400.6541, 34.82589
401.1362, 34.52486
401.6183, 34.18844
402.1005, 34.21141
402.5826, 34.50708
403.0647, 34.78534
403.5468, 34.89566
404.0289, 35.13110
404.5110, 36.02035
404.9932, 37.60055
405.4753, 39.14516
405.9574, 40.44529
406.4395, 41.69566
406.9216, 43.09296
407.4037, 44.65097
407.8859, 46.20448
408.3680, 47.54014
408.8501, 48.73174
409.3322, 50.55661
409.8143, 53.00330
410.2964, 55.99426
410.7786, 59.48492
411.2607, 63.50632
411.7428, 68.02542
412.2249, 72.98497
412.7070, 78.73112
413.1891, 85.92840
413.6713, 94.67553
414.1534, 104.9711
414.6355, 117.8842
415.1176, 131.4865
415.5997, 146.5104
416.0818, 161.5758
416.5640, 172.2910
417.0461, 174.7822
417.5282, 169.0445
418.0103, 157.2628
418.4924, 132.6905
418.9745, 109.2512
419.4567, 88.64384
419.9388, 71.36749
420.4209, 57.84991
420.9030, 48.43407
421.3851, 42.18529
421.8672, 37.51828
422.3494, 34.84026
422.8315, 32.71318
423.3136, 31.08098
423.7957, 29.82702
424.2778, 28.94047
424.7599, 28.38679
425.2421, 28.08044
425.7242, 28.00304
426.2063, 28.13259
426.6884, 28.24817
427.1705, 28.28084
427.6526, 28.42184
428.1348, 28.92150
428.6169, 29.52298
429.0990, 29.87051
429.5811, 29.85009
430.0632, 29.51823
430.5453, 28.84711
431.0275, 27.82846
431.5096, 26.88265
431.9917, 26.16241
432.4738, 25.52966
432.9559, 24.79722
433.4380, 23.96737
433.9202, 23.22990
434.4023, 22.64516
434.8844, 22.22165
435.3665, 22.02309
435.8486, 22.07292
436.3307, 22.17504
436.8129, 22.21085
437.2950, 22.18132
437.7771, 22.11370
438.2592, 21.98334
438.7413, 21.84201
439.2234, 21.70047
439.7056, 21.56943
440.1877, 21.47016
440.6698, 21.40755
441.1519, 21.39193
441.6340, 21.43779
442.1161, 21.53873
442.5983, 21.73380
443.0804, 22.16335
443.5625, 22.58377
444.0446, 22.72640
444.5267, 22.64833
445.0089, 22.69011
445.4910, 23.12805
445.9731, 23.91344
446.4552, 24.57568
446.9373, 25.17920
447.4194, 25.58458
447.9016, 25.77584
448.3837, 25.75595
448.8658, 25.52271
449.3479, 25.07869
449.8300, 24.43363
450.3121, 23.54496
450.7943, 22.28434
451.2764, 21.26389
451.7585, 20.58617
452.2406, 20.06112
452.7227, 19.64448
453.2048, 19.32898
453.6870, 19.12717
454.1691, 19.07016
454.6512, 19.09794
455.1333, 19.04436
455.6154, 18.87206
456.0975, 18.73063
456.5797, 18.69820
457.0618, 18.69715
457.5439, 18.66845
458.0260, 18.60412
458.5081, 18.53641
458.9902, 18.51887
459.4724, 18.52193
459.9545, 18.40685
460.4366, 18.10171
460.9187, 17.83792
461.4008, 17.85368
461.8829, 18.04710
462.3651, 18.17238
462.8472, 18.11887
463.3293, 18.05847
463.8114, 18.19208
464.2935, 18.44339
464.7756, 18.50998
465.2578, 18.24802
465.7399, 17.83756
466.2220, 17.57442
466.7041, 17.47237
467.1862, 17.44069
467.6683, 17.54990
468.1505, 17.66825
468.6326, 17.66354
469.1147, 17.55099
469.5968, 17.45176
470.0789, 17.45198
470.5610, 17.53804
471.0432, 17.61827
471.5253, 17.68143
472.0074, 17.75320
472.4895, 17.88619
472.9716, 18.00245
473.4537, 17.98628
473.9359, 17.83019
474.4180, 17.67277
474.9001, 17.69322
475.3822, 17.91660
475.8643, 18.10784
476.3464, 18.25362
476.8286, 18.37760
477.3107, 18.47298
477.7928, 18.55506
478.2749, 18.64570
478.7570, 18.75401
479.2391, 18.87747
479.7213, 19.03933
480.2034, 19.25725
480.6855, 19.35645
481.1676, 19.18004
481.6497, 18.98525
482.1318, 19.00852
482.6140, 19.22484
483.0961, 19.41421
483.5782, 19.42157
484.0603, 19.35940
484.5424, 19.44922
485.0245, 19.70511
485.5067, 19.85336
485.9888, 19.67049
486.4709, 19.32029
486.9530, 19.24771
487.4351, 19.60421
487.9172, 19.88617
488.3994, 19.86976
488.8815, 19.70211
489.3636, 19.59522
489.8457, 19.58478
490.3278, 19.53890
490.8099, 19.31877
491.2921, 18.91635
491.7742, 18.57284
492.2563, 18.24023
492.7384, 18.01078
493.2205, 18.00145
493.7026, 18.08406
494.1848, 18.06335
494.6669, 17.87074
495.1490, 17.62586
495.6311, 17.52178
496.1132, 17.60265
496.5953, 17.68332
497.0775, 17.88696
497.5596, 17.97087
498.0417, 17.71889
498.5238, 17.27559
499.0059, 16.96144
499.4880, 16.97004
499.9702, 17.15144
500.4523, 17.21072
500.9344, 17.13209
501.4165, 17.02977
501.8986, 16.89655
502.3807, 16.78690
502.8629, 16.78021
503.3450, 16.87042
503.8271, 16.90500
504.3092, 16.65215
504.7913, 16.36699
505.2734, 16.56314
505.7556, 17.26269
506.2377, 17.80585
506.7198, 17.74073
507.2019, 17.28757
507.6840, 17.16083
508.1661, 17.59726
508.6482, 17.86649
509.1303, 17.58526
509.6125, 17.13669
510.0946, 16.97242
510.5767, 17.15498
511.0588, 17.46445
511.5409, 17.71697
512.0231, 17.91227
512.5052, 18.00167
512.9873, 17.84708
513.4694, 17.74996
513.9515, 17.80176
514.4337, 17.92493
514.9158, 18.04815
515.3979, 18.14458
515.8800, 18.19594
516.3621, 18.16813
516.8442, 18.05313
517.3264, 17.93516
517.8085, 17.73004
518.2906, 17.63949
518.7727, 17.80205
519.2548, 18.11431
519.7369, 18.43064
520.2191, 18.75018
520.7012, 18.93627
521.1833, 18.72590
521.6654, 18.18444
522.1475, 17.83225
522.6296, 17.82076
523.1118, 17.97005
523.5939, 18.14120
524.0760, 18.32599
524.5581, 18.43865
525.0402, 18.39052
525.5223, 18.33110
526.0045, 18.40378
526.4866, 18.55693
526.9687, 18.63218
527.4508, 18.55835
527.9329, 18.38944
528.4150, 18.21614
528.8972, 17.99310
529.3793, 17.88342
529.8614, 17.98454
530.3435, 18.10170
530.8256, 18.12135
531.3077, 18.06535
531.7899, 18.00659
532.2720, 17.98457
532.7541, 18.00120
533.2362, 18.07472
533.7183, 18.24365
534.2004, 18.36071
534.6826, 18.36984
535.1647, 18.34336
535.6468, 18.32908
536.1289, 18.32003
536.6110, 18.27004
537.0931, 18.13700
537.5753, 17.95331
538.0574, 17.75735
538.5395, 17.54494
539.0216, 17.39216
539.5037, 17.29104
539.9858, 17.30912
540.4680, 17.63947
540.9501, 18.38427
541.4322, 18.83389
541.9143, 18.48455
542.3964, 17.94971
542.8785, 17.88579
543.3607, 18.26828
543.8428, 18.66432
544.3249, 18.80074
544.8070, 18.73780
545.2891, 18.69674
545.7712, 18.66464
546.2534, 18.67648
546.7355, 18.80068
547.2176, 18.91739
547.6997, 18.92049
548.1818, 18.82157
548.6639, 18.71214
549.1461, 18.65989
549.6282, 18.65650
550.1103, 18.69113
550.5924, 18.82550
551.0745, 18.83751
551.5566, 18.48189
552.0388, 18.08653
552.5209, 17.90197
553.0030, 17.95021
553.4851, 18.11728
553.9672, 18.46625
554.4493, 18.84652
554.9315, 18.93197
555.4136, 18.70504
555.8957, 18.51899
556.3778, 18.57569
556.8599, 18.79474
557.3420, 18.96800
557.8242, 19.10596
558.3063, 19.18719
558.7884, 19.14518
559.2705, 19.08694
559.7526, 19.10024
560.2347, 19.19372
560.7169, 19.35714
561.1990, 19.59673
561.6811, 19.87407
562.1632, 20.00400
562.6453, 19.88202
563.1274, 19.78630
563.6096, 19.73655
564.0917, 19.72789
564.5738, 19.76015
565.0559, 19.83104
565.5380, 19.93481
566.0201, 20.08496
566.5023, 20.25678
566.9844, 20.35348
567.4665, 20.34676
567.9486, 20.45913
568.4307, 20.83140
568.9128, 21.32069
569.3950, 21.71351
569.8771, 21.99990
570.3592, 22.33743
570.8413, 22.77514
571.3234, 23.29382
571.8055, 23.76392
572.2877, 24.25654
572.7698, 25.16920
573.2519, 26.77476
573.7340, 28.75965
574.2161, 30.31286
574.6982, 31.33346
575.1804, 32.06013
575.6625, 32.65526
576.1446, 32.82994
576.6267, 32.34124
577.1088, 31.28111
577.5909, 29.85637
578.0731, 28.14488
578.5552, 26.29591
579.0373, 24.57885
579.5194, 22.95402
580.0015, 21.70452
580.4836, 21.05155
580.9658, 20.64584
581.4479, 20.20682
581.9300, 19.76080
582.4121, 19.43336
582.8942, 19.38217
583.3763, 19.37715
583.8585, 19.14158
584.3406, 18.74975
584.8227, 18.48638
585.3048, 18.45685
585.7869, 18.55081
586.2690, 18.62580
586.7512, 18.67758
587.2333, 18.72963
587.7154, 18.88443
588.1975, 18.93142
588.6796, 18.64926
589.1617, 18.23943
589.6438, 18.04316
590.1259, 18.18032
590.6080, 18.44373
591.0901, 18.52148
