##NAMES=Corundum
##RRUFFID=R040096
##IDEAL CHEMISTRY=Al_2_O_3_
##LOCALITY=Sri Lanka
##OWNER=RRUFF
##SOURCE=University of Arizona Mineral Museum
##DESCRIPTION=Pale purple hexagonal prism
##STATUS=The identification of this mineral has been confirmed by X-ray diffraction and chemical analysis
##URL=rruff.info/R040096
##MEASURED CHEMISTRY=Al_2.00_O_3_
147.6079, 8381.347
148.0901, 8382.964
148.5722, 8382.882
149.0543, 8378.541
149.5364, 8374.499
150.0185, 8372.662
150.5006, 8368.709
150.9828, 8371.763
151.4649, 8382.380
151.9470, 8400.290
152.4291, 8423.585
152.9112, 8462.315
153.3933, 8500.547
153.8755, 8527.407
154.3576, 8531.969
154.8397, 8534.177
155.3218, 8537.277
155.8039, 8541.272
156.2860, 8546.588
156.7682, 8560.944
157.2503, 8574.537
157.7324, 8575.146
158.2145, 8540.032
158.6966, 8506.880
159.1787, 8486.843
159.6609, 8470.987
160.1430, 8491.961
160.6251, 8600.541
161.1072, 8756.187
161.5893, 8865.303
162.0714, 8880.507
162.5536, 8844.721
163.0357, 8784.479
163.5178, 8672.447
163.9999, 8575.039
164.4820, 8532.896
164.9641, 8538.311
165.4463, 8544.479
165.9284, 8527.820
166.4105, 8499.762
166.8926, 8472.587
167.3747, 8438.826
167.8568, 8415.375
168.3390, 8418.333
168.8211, 8449.392
169.3032, 8483.402
169.7853, 8508.669
170.2674, 8525.309
170.7495, 8533.594
171.2317, 8529.653
171.7138, 8519.333
172.1959, 8506.132
172.6780, 8488.124
173.1601, 8475.881
173.6422, 8483.237
174.1244, 8505.521
174.6065, 8527.017
175.0886, 8539.450
175.5707, 8545.396
176.0528, 8546.377
176.5349, 8536.059
177.0171, 8530.384
177.4992, 8555.398
177.9813, 8607.324
178.4634, 8656.482
178.9455, 8685.636
179.4276, 8694.738
179.9098, 8683.211
180.3919, 8634.609
180.8740, 8573.354
181.3561, 8540.871
181.8382, 8538.234
182.3203, 8546.163
182.8025, 8545.414
183.2846, 8538.912
183.7667, 8538.299
184.2488, 8545.310
184.7309, 8562.269
185.2130, 8603.414
185.6951, 8676.850
186.1773, 8746.771
186.6594, 8757.711
187.1415, 8714.519
187.6236, 8669.572
188.1057, 8649.629
188.5878, 8651.327
189.0700, 8661.062
189.5521, 8682.354
190.0342, 8702.502
190.5163, 8684.980
190.9984, 8627.807
191.4805, 8586.794
191.9627, 8623.532
192.4448, 8729.038
192.9269, 8791.424
193.4090, 8778.813
193.8911, 8718.337
194.3732, 8691.537
194.8554, 8701.959
195.3375, 8724.940
195.8196, 8741.108
196.3017, 8750.663
196.7838, 8753.917
197.2659, 8749.040
197.7481, 8737.808
198.2302, 8727.151
198.7123, 8713.588
199.1944, 8711.279
199.6765, 8753.497
200.1586, 8851.253
200.6408, 8911.951
201.1229, 8883.691
201.6050, 8764.746
202.0871, 8698.735
202.5692, 8696.551
203.0513, 8730.010
203.5335, 8755.129
204.0156, 8770.686
204.4977, 8782.077
204.9798, 8790.688
205.4619, 8795.804
205.9440, 8800.601
206.4262, 8802.993
206.9083, 8806.318
207.3904, 8822.392
207.8725, 8857.128
208.3546, 8887.795
208.8367, 8898.927
209.3189, 8885.237
209.8010, 8873.901
210.2831, 8867.462
210.7652, 8865.091
211.2473, 8865.122
211.7294, 8872.239
212.2116, 8873.105
212.6937, 8850.386
213.1758, 8787.666
213.6579, 8757.038
214.1400, 8779.171
214.6221, 8849.845
215.1043, 8903.282
215.5864, 8942.882
216.0685, 8962.122
216.5506, 8945.789
217.0327, 8869.699
217.5148, 8820.616
217.9970, 8825.940
218.4791, 8889.804
218.9612, 8932.893
219.4433, 8945.449
219.9254, 8946.099
220.4075, 8959.611
220.8897, 8991.745
221.3718, 9023.995
221.8539, 9052.132
222.3360, 9078.371
222.8181, 9088.445
223.3002, 9072.011
223.7824, 9045.619
224.2645, 9042.513
224.7466, 9080.626
225.2287, 9111.156
225.7108, 9111.003
226.1929, 9060.248
226.6750, 9035.233
227.1572, 9042.578
227.6393, 9074.032
228.1214, 9111.583
228.6035, 9165.431
229.0856, 9209.837
229.5677, 9229.063
230.0499, 9206.663
230.5320, 9196.594
231.0141, 9205.295
231.4962, 9228.008
231.9783, 9246.748
232.4604, 9264.271
232.9426, 9273.828
233.4247, 9269.597
233.9068, 9241.943
234.3889, 9220.376
234.8710, 9207.817
235.3531, 9203.795
235.8353, 9205.468
236.3174, 9217.845
236.7995, 9230.528
237.2816, 9235.158
237.7637, 9226.755
238.2458, 9219.881
238.7280, 9214.488
239.2101, 9210.736
239.6922, 9221.273
240.1743, 9265.170
240.6564, 9304.425
241.1385, 9297.818
241.6207, 9202.438
242.1028, 9137.441
242.5849, 9129.698
243.0670, 9183.425
243.5491, 9242.190
244.0313, 9315.674
244.5134, 9386.129
244.9955, 9430.964
245.4776, 9434.959
245.9597, 9440.444
246.4418, 9464.313
246.9240, 9516.196
247.4061, 9527.731
247.8882, 9477.433
248.3703, 9402.407
248.8524, 9356.352
249.3345, 9349.750
249.8167, 9354.203
250.2988, 9363.147
250.7809, 9378.604
251.2630, 9390.000
251.7451, 9394.919
252.2272, 9396.909
252.7094, 9402.277
253.1915, 9411.829
253.6736, 9423.147
254.1557, 9434.534
254.6378, 9443.711
255.1199, 9463.118
255.6021, 9506.909
256.0842, 9554.021
256.5663, 9550.293
257.0484, 9459.454
257.5305, 9380.949
258.0126, 9364.374
258.4948, 9440.635
258.9769, 9490.751
259.4590, 9504.849
259.9411, 9495.650
260.4232, 9499.315
260.9053, 9523.995
261.3875, 9546.932
261.8696, 9555.279
262.3517, 9543.107
262.8338, 9534.121
263.3159, 9526.844
263.7980, 9524.111
264.2802, 9538.284
264.7623, 9577.174
265.2444, 9617.246
265.7265, 9645.641
266.2086, 9660.649
266.6907, 9665.600
267.1729, 9652.851
267.6550, 9631.272
268.1371, 9640.788
268.6192, 9695.095
269.1013, 9749.203
269.5834, 9766.691
270.0656, 9736.355
270.5477, 9722.028
271.0298, 9738.360
271.5119, 9775.458
271.9940, 9787.941
272.4761, 9767.618
272.9583, 9743.752
273.4404, 9740.162
273.9225, 9761.401
274.4046, 9779.060
274.8867, 9789.301
275.3688, 9792.958
275.8510, 9794.180
276.3331, 9794.060
276.8152, 9788.419
277.2973, 9767.662
277.7794, 9728.403
278.2615, 9707.271
278.7437, 9715.700
279.2258, 9746.996
279.7079, 9769.007
280.1900, 9778.616
280.6721, 9791.145
281.1542, 9831.045
281.6364, 9900.872
282.1185, 9938.098
282.6006, 9914.939
283.0827, 9852.022
283.5648, 9843.836
284.0469, 9901.334
284.5291, 9957.044
285.0112, 9929.871
285.4933, 9823.068
285.9754, 9744.894
286.4575, 9729.317
286.9396, 9760.882
287.4217, 9792.262
287.9038, 9823.948
288.3860, 9850.327
288.8681, 9862.604
289.3502, 9862.109
289.8323, 9863.308
290.3144, 9870.075
290.7965, 9881.229
291.2787, 9892.888
291.7608, 9904.781
292.2429, 9920.522
292.7250, 9953.229
293.2071, 9996.981
293.6892, 10021.01
294.1714, 10005.76
294.6535, 9968.890
295.1356, 9948.678
295.6177, 9945.830
296.0998, 9948.402
296.5819, 9944.622
297.0641, 9937.002
297.5462, 9933.461
298.0283, 9936.205
298.5104, 9944.942
298.9925, 9963.500
299.4746, 9992.052
299.9568, 10016.09
300.4389, 10016.42
300.9210, 10002.22
301.4031, 9994.934
301.8852, 10002.64
302.3673, 10020.71
302.8495, 10048.87
303.3316, 10086.35
303.8137, 10117.56
304.2958, 10129.86
304.7779, 10126.60
305.2600, 10113.39
305.7422, 10078.74
306.2243, 10043.71
306.7064, 10023.46
307.1885, 10018.27
307.6706, 10037.78
308.1527, 10112.02
308.6349, 10210.21
309.1170, 10288.30
309.5991, 10337.37
310.0812, 10356.50
310.5633, 10329.17
311.0454, 10258.69
311.5276, 10202.07
312.0097, 10211.42
312.4918, 10247.13
312.9739, 10265.08
313.4560, 10220.50
313.9381, 10178.13
314.4203, 10182.52
314.9024, 10229.75
315.3845, 10268.92
315.8666, 10261.65
316.3487, 10241.03
316.8308, 10238.30
317.3130, 10278.87
317.7951, 10323.99
318.2772, 10363.30
318.7593, 10396.11
319.2414, 10415.08
319.7235, 10416.46
320.2057, 10403.75
320.6878, 10379.77
321.1699, 10307.54
321.6520, 10262.49
322.1341, 10281.28
322.6162, 10356.59
323.0984, 10412.63
323.5805, 10406.73
324.0626, 10393.62
324.5447, 10410.24
325.0268, 10520.53
325.5089, 10596.05
325.9911, 10601.65
326.4732, 10544.59
326.9553, 10505.57
327.4374, 10494.26
327.9195, 10498.42
328.4016, 10510.71
328.8838, 10537.72
329.3659, 10564.02
329.8480, 10590.42
330.3301, 10615.76
330.8122, 10633.76
331.2943, 10636.17
331.7765, 10639.28
332.2586, 10653.04
332.7407, 10687.22
333.2228, 10713.10
333.7049, 10717.04
334.1870, 10711.17
334.6692, 10750.02
335.1513, 10860.36
335.6334, 10973.50
336.1155, 11056.63
336.5976, 11116.91
337.0797, 11122.21
337.5619, 11051.30
338.0440, 10932.75
338.5261, 10850.93
339.0082, 10812.63
339.4903, 10790.31
339.9724, 10769.89
340.4546, 10750.32
340.9367, 10739.34
341.4188, 10737.23
341.9009, 10743.90
342.3830, 10764.97
342.8651, 10803.08
343.3473, 10832.22
343.8294, 10832.88
344.3115, 10807.96
344.7936, 10791.95
345.2757, 10787.42
345.7578, 10790.81
346.2400, 10795.18
346.7221, 10801.02
347.2042, 10815.04
347.6863, 10840.23
348.1684, 10876.18
348.6505, 10926.55
349.1327, 10995.20
349.6148, 11061.60
350.0969, 11100.95
350.5790, 11116.45
351.0611, 11121.48
351.5432, 11118.45
352.0254, 11109.68
352.5075, 11093.25
352.9896, 11067.25
353.4717, 11052.78
353.9538, 11077.63
354.4359, 11128.01
354.9181, 11176.24
355.4002, 11217.89
355.8823, 11248.04
356.3644, 11258.99
356.8465, 11250.82
357.3286, 11237.87
357.8108, 11227.45
358.2929, 11218.62
358.7750, 11209.81
359.2571, 11187.51
359.7392, 11176.04
360.2213, 11192.18
360.7035, 11234.63
361.1856, 11283.18
361.6677, 11357.65
362.1498, 11420.19
362.6319, 11438.91
363.1140, 11328.34
363.5962, 11250.41
364.0783, 11268.48
364.5604, 11370.01
365.0425, 11465.37
365.5246, 11545.44
366.0067, 11605.75
366.4889, 11643.74
366.9710, 11622.93
367.4531, 11622.73
367.9352, 11665.44
368.4173, 11739.17
368.8994, 11790.81
369.3815, 11790.96
369.8636, 11793.59
370.3458, 11821.92
370.8279, 11889.83
371.3100, 11959.78
371.7921, 12027.11
372.2742, 12097.71
372.7563, 12185.35
373.2385, 12285.30
373.7206, 12408.56
374.2027, 12556.05
374.6848, 12722.64
375.1669, 12924.50
375.6490, 13145.60
376.1312, 13418.80
376.6133, 13809.62
377.0954, 14334.13
377.5775, 14923.36
378.0596, 15644.47
378.5417, 16473.69
379.0239, 17005.50
379.5060, 17237.35
379.9881, 17166.17
380.4702, 16682.13
380.9523, 15795.53
381.4344, 14918.88
381.9166, 14139.12
382.3987, 13479.04
382.8808, 12973.78
383.3629, 12630.67
383.8450, 12390.92
384.3271, 12230.63
384.8093, 12135.42
385.2914, 12067.16
385.7735, 12020.38
386.2556, 11989.84
386.7377, 11964.04
387.2198, 11945.42
387.7020, 11952.99
388.1841, 12044.97
388.6662, 12157.84
389.1483, 12202.42
389.6304, 12129.08
390.1125, 12027.82
390.5947, 11954.08
391.0768, 11905.00
391.5589, 11873.64
392.0410, 11867.46
392.5231, 11871.00
393.0052, 11872.44
393.4874, 11867.00
393.9695, 11866.36
394.4516, 11874.40
394.9337, 11890.09
395.4158, 11911.64
395.8979, 11944.78
396.3801, 11977.87
396.8622, 12002.33
397.3443, 12010.29
397.8264, 12034.92
398.3085, 12103.92
398.7906, 12183.39
399.2728, 12231.68
399.7549, 12206.98
400.2370, 12196.62
400.7191, 12214.21
401.2012, 12260.03
401.6833, 12332.84
402.1655, 12439.11
402.6476, 12565.40
403.1297, 12704.63
403.6118, 12870.82
404.0939, 13016.38
404.5760, 13129.30
405.0582, 13215.23
405.5403, 13297.75
406.0224, 13371.48
406.5045, 13454.83
406.9866, 13557.71
407.4688, 13680.36
407.9509, 13826.79
408.4330, 13999.13
408.9151, 14194.05
409.3972, 14397.22
409.8793, 14607.84
410.3615, 14859.16
410.8436, 15167.88
411.3257, 15535.00
411.8078, 15940.12
412.2899, 16371.61
412.7720, 16899.05
413.2542, 17519.28
413.7363, 18280.70
414.2184, 19346.51
414.7005, 20762.56
415.1826, 22525.34
415.6647, 24754.09
416.1469, 27438.46
416.6290, 30158.03
417.1111, 33474.29
417.5932, 36395.76
418.0753, 37539.23
418.5574, 35609.64
419.0396, 32579.31
419.5217, 28877.10
420.0038, 24704.70
420.4859, 21143.54
420.9680, 18758.20
421.4501, 17067.87
421.9323, 15812.38
422.4144, 15102.34
422.8965, 14559.27
423.3786, 14144.21
423.8607, 13848.82
424.3428, 13642.45
424.8250, 13567.51
425.3071, 13540.05
425.7892, 13533.76
426.2713, 13550.40
426.7534, 13582.06
427.2355, 13613.90
427.7177, 13669.74
428.1998, 13792.58
428.6819, 14018.72
429.1640, 14230.52
429.6461, 14409.50
430.1282, 14552.01
430.6104, 14618.44
431.0925, 14605.31
431.5746, 14523.47
432.0567, 14360.21
432.5388, 14112.54
433.0209, 13886.89
433.5031, 13707.08
433.9852, 13562.22
434.4673, 13428.06
434.9494, 13305.08
435.4315, 13178.02
435.9136, 13011.94
436.3958, 12835.13
436.8779, 12724.03
437.3600, 12700.05
437.8421, 12717.56
438.3242, 12739.97
438.8063, 12765.46
439.2885, 12788.64
439.7706, 12795.03
440.2527, 12804.72
440.7348, 12849.07
441.2169, 12936.25
441.6990, 12995.14
442.1812, 12960.66
442.6633, 12884.00
443.1454, 12825.79
443.6275, 12805.30
444.1096, 12805.58
444.5917, 12831.60
445.0739, 12880.47
445.5560, 12915.78
446.0381, 12920.20
446.5202, 12915.68
447.0023, 12915.03
447.4844, 12912.39
447.9666, 12922.28
448.4487, 12941.07
448.9308, 12972.93
449.4129, 13038.60
449.8950, 13187.06
450.3771, 13286.77
450.8593, 13267.96
451.3413, 13101.10
451.8235, 12994.35
452.3056, 12963.97
452.7877, 12967.90
453.2698, 12943.09
453.7519, 12884.87
454.2340, 12855.84
454.7162, 12893.08
455.1983, 12969.23
455.6804, 12978.21
456.1625, 12916.48
456.6446, 12846.77
457.1267, 12816.79
457.6089, 12820.29
458.0910, 12842.04
458.5731, 12887.66
459.0552, 12934.08
459.5373, 12951.96
460.0194, 12946.79
460.5016, 12936.82
460.9837, 12924.56
461.4658, 12916.81
461.9479, 12924.08
462.4300, 12951.69
462.9121, 12971.07
463.3943, 12958.69
463.8764, 12931.96
464.3585, 12913.52
464.8406, 12914.55
465.3227, 12920.55
465.8048, 12926.29
466.2870, 12931.64
466.7691, 12942.91
467.2512, 12965.05
467.7333, 12990.37
468.2154, 13014.57
468.6975, 13042.03
469.1797, 13060.48
469.6618, 13064.33
470.1439, 13059.83
470.6260, 13065.37
471.1081, 13087.81
471.5902, 13103.11
472.0724, 13096.61
472.5545, 13066.07
473.0366, 13050.55
473.5187, 13052.17
474.0008, 13063.17
474.4829, 13079.40
474.9651, 13099.77
475.4472, 13109.08
475.9293, 13096.10
476.4114, 13074.16
476.8935, 13071.02
477.3756, 13085.95
477.8578, 13107.15
478.3399, 13128.35
478.8220, 13149.95
479.3041, 13174.12
479.7862, 13205.05
480.2683, 13229.40
480.7505, 13226.11
481.2326, 13208.88
481.7147, 13206.51
482.1968, 13255.91
482.6789, 13302.16
483.1610, 13308.12
483.6432, 13264.42
484.1253, 13239.24
484.6074, 13266.13
485.0895, 13309.82
485.5716, 13339.87
486.0537, 13347.17
486.5359, 13347.32
487.0180, 13336.36
487.5001, 13318.02
487.9822, 13309.62
488.4643, 13312.71
488.9464, 13323.58
489.4286, 13343.18
489.9107, 13374.57
490.3928, 13400.55
490.8749, 13424.57
491.3570, 13437.70
491.8391, 13418.36
492.3213, 13367.14
492.8034, 13326.69
493.2855, 13312.85
493.7676, 13320.60
494.2497, 13346.46
494.7318, 13389.78
495.2140, 13423.15
495.6961, 13406.83
496.1782, 13368.62
496.6603, 13360.58
497.1424, 13405.72
497.6245, 13455.48
498.1067, 13469.03
498.5888, 13457.69
499.0709, 13448.35
499.5530, 13449.16
500.0351, 13457.06
500.5172, 13472.06
500.9994, 13494.59
501.4815, 13515.59
501.9636, 13536.45
502.4457, 13552.80
502.9278, 13560.68
503.4099, 13545.54
503.8921, 13540.67
504.3742, 13557.22
504.8563, 13587.63
505.3384, 13597.00
505.8205, 13573.28
506.3026, 13553.11
506.7848, 13560.22
507.2669, 13602.20
507.7490, 13617.60
508.2311, 13601.50
508.7132, 13571.09
509.1953, 13540.65
509.6775, 13511.72
510.1596, 13504.00
510.6417, 13537.16
511.1238, 13586.15
511.6059, 13592.91
512.0880, 13561.37
512.5701, 13539.35
513.0522, 13555.54
513.5344, 13602.32
514.0165, 13682.76
514.4986, 13819.97
514.9807, 13922.35
515.4628, 13910.50
515.9449, 13828.81
516.4271, 13753.21
516.9092, 13699.06
517.3913, 13664.92
517.8734, 13655.65
518.3555, 13672.31
518.8376, 13690.66
519.3198, 13726.80
519.8019, 13750.89
520.2840, 13740.88
520.7661, 13660.53
521.2482, 13619.60
521.7303, 13636.08
522.2125, 13686.96
522.6946, 13722.84
523.1767, 13743.18
523.6588, 13750.82
524.1409, 13737.58
524.6230, 13709.08
525.1052, 13715.79
525.5873, 13762.68
526.0694, 13805.44
526.5515, 13774.31
527.0336, 13702.09
527.5157, 13692.61
527.9979, 13801.58
528.4800, 13927.39
528.9621, 13956.06
529.4442, 13910.94
529.9263, 13861.83
530.4084, 13831.23
530.8906, 13819.41
531.3727, 13832.23
531.8548, 13873.03
532.3369, 13911.70
532.8190, 13936.12
533.3011, 13954.57
533.7833, 13974.19
534.2654, 14007.54
534.7475, 14027.47
535.2296, 14024.75
535.7117, 14006.46
536.1938, 13998.05
536.6760, 14003.83
537.1581, 14011.11
537.6402, 14012.24
538.1223, 14005.80
538.6044, 14019.15
539.0865, 14060.79
539.5687, 14098.31
540.0508, 14080.37
540.5329, 14016.59
541.0150, 13981.30
541.4971, 14007.02
541.9792, 14053.27
542.4614, 14044.11
542.9435, 13993.15
543.4256, 13963.51
543.9077, 14026.44
544.3898, 14109.67
544.8719, 14136.13
545.3541, 14090.27
545.8362, 14046.27
546.3183, 14037.46
546.8004, 14049.77
547.2825, 14067.74
547.7646, 14103.33
548.2468, 14126.40
548.7289, 14123.70
549.2110, 14101.70
549.6931, 14088.14
550.1752, 14083.65
550.6573, 14086.64
551.1395, 14096.32
551.6216, 14112.41
552.1037, 14141.97
552.5858, 14193.56
553.0679, 14240.83
553.5500, 14246.61
554.0322, 14212.82
554.5143, 14184.93
554.9964, 14173.69
555.4785, 14174.20
555.9606, 14182.44
556.4427, 14196.60
556.9249, 14206.25
557.4070, 14198.03
557.8891, 14185.41
558.3712, 14180.67
558.8533, 14184.23
559.3354, 14202.55
559.8176, 14253.97
560.2997, 14315.26
560.7818, 14362.77
561.2639, 14390.32
561.7460, 14402.49
562.2281, 14390.15
562.7103, 14360.68
563.1924, 14341.78
563.6745, 14328.15
564.1566, 14332.56
564.6387, 14362.91
565.1208, 14422.30
565.6030, 14485.52
566.0851, 14563.08
566.5672, 14619.90
567.0493, 14605.33
567.5314, 14523.75
568.0135, 14462.49
568.4957, 14441.98
568.9778, 14442.83
569.4599, 14427.82
569.9420, 14404.30
570.4241, 14403.95
570.9063, 14470.00
571.3884, 14551.23
571.8705, 14587.94
572.3526, 14577.63
572.8347, 14582.70
573.3168, 14640.39
573.7990, 14725.02
574.2811, 14815.39
574.7632, 14926.65
575.2453, 15017.28
575.7274, 15056.71
576.2095, 15075.93
576.6917, 15141.56
577.1738, 15317.43
577.6559, 15433.96
578.1380, 15434.82
578.6201, 15326.34
579.1022, 15205.40
579.5844, 15065.94
580.0665, 14935.99
580.5486, 14838.23
581.0307, 14769.39
581.5128, 14713.39
581.9949, 14669.14
582.4771, 14634.63
582.9592, 14612.71
583.4413, 14598.91
583.9234, 14582.14
584.4055, 14533.53
584.8876, 14499.62
585.3698, 14533.06
585.8519, 14620.29
586.3340, 14687.88
586.8161, 14693.72
587.2982, 14679.09
587.7803, 14663.98
588.2625, 14644.89
588.7446, 14641.17
589.2267, 14669.77
589.7088, 14703.00
590.1909, 14705.30
590.6730, 14653.09
591.1552, 14638.29
591.6373, 14692.46
592.1194, 14783.67
592.6015, 14807.43
593.0836, 14759.15
593.5657, 14717.51
594.0479, 14735.82
594.5300, 14791.70
595.0121, 14823.07
595.4942, 14827.91
595.9763, 14828.54
596.4584, 14838.41
596.9406, 14856.94
597.4227, 14884.36
597.9048, 14924.97
598.3869, 14966.73
598.8690, 15008.76
599.3511, 15047.62
599.8333, 15077.51
600.3154, 15117.94
600.7975, 15126.88
601.2796, 15076.84
601.7617, 14970.33
602.2438, 14911.62
602.7260, 14922.60
603.2081, 14944.45
603.6902, 14934.51
604.1723, 14888.37
604.6544, 14875.01
605.1365, 14904.25
605.6187, 14947.37
606.1008, 14963.43
606.5829, 14959.16
607.0650, 14964.18
607.5471, 15001.90
608.0292, 15037.57
608.5114, 15006.47
608.9935, 14932.21
609.4756, 14898.60
609.9577, 14999.67
610.4398, 15116.64
610.9219, 15170.84
611.4041, 15146.55
611.8862, 15127.90
612.3683, 15130.82
612.8504, 15145.79
613.3325, 15162.75
613.8146, 15162.40
614.2968, 15211.04
614.7789, 15348.69
615.2610, 15505.52
615.7431, 15522.38
616.2252, 15383.78
616.7073, 15262.09
617.1895, 15224.38
617.6716, 15245.71
618.1537, 15269.07
618.6358, 15293.55
619.1179, 15302.85
619.6000, 15265.05
620.0822, 15215.14
620.5643, 15197.91
621.0464, 15222.45
621.5285, 15258.66
622.0106, 15301.50
622.4927, 15342.41
622.9749, 15372.00
623.4570, 15381.06
623.9391, 15387.02
624.4212, 15376.76
624.9033, 15366.37
625.3854, 15404.79
625.8676, 15522.77
626.3497, 15620.28
626.8318, 15656.66
627.3139, 15638.63
627.7960, 15623.85
628.2781, 15609.33
628.7603, 15621.49
629.2424, 15709.80
629.7245, 15840.01
630.2066, 15917.89
630.6887, 15922.46
631.1708, 15916.36
631.6530, 15952.84
632.1351, 16015.64
632.6172, 16080.48
633.0993, 16133.69
633.5814, 16191.99
634.0635, 16264.64
634.5457, 16348.38
635.0278, 16430.16
635.5099, 16484.17
635.9920, 16563.44
636.4741, 16691.84
636.9562, 16874.28
637.4384, 17033.49
637.9205, 17160.52
638.4026, 17294.18
638.8847, 17468.31
639.3668, 17679.65
639.8489, 17888.00
640.3311, 18081.84
640.8132, 18293.72
641.2953, 18581.13
641.7774, 18915.60
642.2595, 19243.06
642.7416, 19554.95
643.2238, 19835.66
643.7059, 20096.46
644.1880, 20320.26
644.6701, 20458.77
645.1522, 20496.28
645.6343, 20442.18
