##NAMES=Corundum
##RRUFFID=R060020
##IDEAL CHEMISTRY=Al_2_O_3_
##LOCALITY=Yogo Gulch, Montana, USA
##OWNER=RRUFF
##SOURCE=American Museum of Natural History
##DESCRIPTION=Water rounded light blue fragment
##STATUS=The identification of this mineral has been confirmed by X-ray diffraction and chemical analysis
##URL=rruff.info/R060020
##MEASURED CHEMISTRY=(Al_1.99_Fe^3+^_0.01_)_Î£=2_O_3_ ; Fe^3+^ by charge balance
93.40625, 33.34898
93.88837, 32.11943
94.37048, 33.03704
94.85260, 35.64453
95.33472, 38.65304
95.81683, 41.85996
96.29895, 45.25074
96.78107, 48.81286
97.26318, 52.56272
97.74530, 56.49305
98.22742, 60.60551
98.70953, 64.91370
99.19165, 69.21985
99.67377, 73.42559
100.1559, 77.52735
100.6380, 81.76061
101.1201, 86.18299
101.6022, 90.55021
102.0844, 94.33938
102.5665, 97.37988
103.0486, 100.5180
103.5307, 103.9798
104.0128, 107.8026
104.4949, 111.9919
104.9771, 116.6529
105.4592, 121.6693
105.9413, 126.9245
106.4234, 132.4000
106.9055, 138.0790
107.3876, 143.8886
107.8698, 149.9396
108.3519, 156.0764
108.8340, 162.4493
109.3161, 169.0180
109.7982, 175.2055
110.2803, 180.1370
110.7624, 185.3303
111.2446, 191.5724
111.7267, 200.6539
112.2088, 208.9529
112.6909, 216.0172
113.1730, 221.9360
113.6551, 227.3429
114.1373, 232.2786
114.6194, 236.7475
115.1015, 240.8087
115.5836, 244.3113
116.0657, 247.5193
116.5478, 250.4489
117.0300, 253.1410
117.5121, 255.6283
117.9942, 257.5830
118.4763, 259.4198
118.9584, 261.6630
119.4405, 264.5115
119.9227, 267.8660
120.4048, 271.7216
120.8869, 276.1759
121.3690, 280.7827
121.8511, 285.2077
122.3332, 289.5830
122.8154, 294.1859
123.2975, 299.6776
123.7796, 305.2245
124.2617, 309.8549
124.7438, 312.8709
125.2259, 315.9350
125.7081, 320.9266
126.1902, 327.3095
126.6723, 331.9782
127.1544, 333.9771
127.6365, 335.2835
128.1186, 337.4071
128.6008, 341.1513
129.0829, 345.2023
129.5650, 347.5281
130.0471, 348.2155
130.5292, 348.3361
131.0113, 348.8135
131.4935, 349.4928
131.9756, 349.6416
132.4577, 348.6523
132.9398, 347.1431
133.4219, 347.1951
133.9040, 348.9754
134.3862, 350.9016
134.8683, 351.0157
135.3504, 349.3620
135.8325, 348.0397
136.3146, 347.8226
136.7967, 348.5893
137.2789, 349.1031
137.7610, 349.2632
138.2431, 349.4126
138.7252, 350.1740
139.2073, 351.7418
139.6894, 352.9887
140.1716, 353.4958
140.6537, 353.1980
141.1358, 352.5948
141.6179, 351.4265
142.1000, 350.1921
142.5821, 349.8605
143.0643, 350.6089
143.5464, 351.8528
144.0285, 353.5336
144.5106, 356.1508
144.9927, 357.8359
145.4748, 358.1755
145.9570, 357.6548
146.4391, 357.6708
146.9212, 358.6158
147.4033, 359.6170
147.8854, 360.2552
148.3675, 360.0656
148.8497, 360.2389
149.3318, 361.0561
149.8139, 362.3336
150.2960, 363.1652
150.7781, 363.3106
151.2602, 363.1766
151.7424, 362.9793
152.2245, 362.3112
152.7066, 362.0308
153.1887, 362.4164
153.6708, 363.3919
154.1529, 364.0770
154.6351, 364.0245
155.1172, 363.8929
155.5993, 364.1221
156.0814, 365.3996
156.5635, 366.3917
157.0456, 366.6468
157.5278, 366.1616
158.0099, 365.9600
158.4920, 366.5119
158.9741, 367.3181
159.4562, 367.9369
159.9383, 368.0926
160.4205, 368.2116
160.9026, 368.4908
161.3847, 368.9592
161.8668, 369.2901
162.3489, 369.3212
162.8310, 369.1742
163.3132, 368.9888
163.7953, 368.5092
164.2774, 368.2332
164.7595, 368.4444
165.2416, 369.1991
165.7237, 370.1615
166.2059, 371.5977
166.6880, 373.0734
167.1701, 373.9302
167.6522, 372.8624
168.1343, 371.7183
168.6164, 372.0211
169.0986, 374.2215
169.5807, 376.5297
170.0628, 377.9227
170.5449, 378.5771
171.0270, 378.8157
171.5091, 378.5985
171.9913, 378.1495
172.4734, 377.5624
172.9555, 376.7111
173.4376, 376.2008
173.9197, 376.6958
174.4018, 377.9688
174.8840, 379.4054
175.3661, 381.0424
175.8482, 382.4973
176.3303, 383.1214
176.8124, 382.5559
177.2945, 381.7729
177.7767, 381.8140
178.2588, 382.5486
178.7409, 383.4426
179.2230, 384.3656
179.7051, 385.1941
180.1872, 385.5365
180.6694, 385.0063
181.1515, 384.5626
181.6336, 386.2661
182.1157, 389.7392
182.5978, 392.2807
183.0799, 390.8444
183.5621, 386.9481
184.0442, 384.9018
184.5263, 386.0591
185.0084, 388.6928
185.4905, 389.8794
185.9726, 389.6608
186.4547, 389.2685
186.9369, 389.8160
187.4190, 391.0517
187.9011, 391.8611
188.3832, 391.8999
188.8653, 391.5077
189.3474, 391.2574
189.8296, 391.1368
190.3117, 391.4933
190.7938, 393.0883
191.2759, 395.6956
191.7580, 397.4462
192.2401, 397.6785
192.7223, 396.9339
193.2044, 396.8847
193.6865, 397.6148
194.1686, 398.3642
194.6507, 398.1578
195.1328, 397.0597
195.6150, 396.6311
196.0971, 397.3763
196.5792, 399.0257
197.0613, 400.7031
197.5434, 402.4764
198.0255, 403.9161
198.5077, 404.3203
198.9898, 403.6357
199.4719, 403.3189
199.9540, 403.8140
200.4361, 404.9606
200.9182, 405.9058
201.4004, 406.6085
201.8825, 407.2274
202.3646, 407.9580
202.8467, 408.8265
203.3288, 409.5619
203.8109, 410.0746
204.2931, 410.3915
204.7752, 410.7321
205.2573, 411.1182
205.7394, 411.4806
206.2215, 411.6700
206.7036, 411.6016
207.1858, 411.8252
207.6679, 412.6392
208.1500, 413.9716
208.6321, 414.5706
209.1142, 414.1016
209.5963, 413.5251
210.0785, 414.0062
210.5606, 415.8734
211.0427, 417.5778
211.5248, 418.8543
212.0069, 419.7012
212.4890, 419.8046
212.9712, 418.8376
213.4533, 417.6351
213.9354, 417.1374
214.4175, 417.4981
214.8996, 418.1045
215.3817, 418.9147
215.8639, 419.9227
216.3460, 420.6625
216.8281, 421.0880
217.3102, 421.3019
217.7923, 421.2945
218.2744, 420.7621
218.7566, 420.8060
219.2387, 421.8448
219.7208, 423.9135
220.2029, 425.6450
220.6850, 427.0455
221.1671, 428.0796
221.6493, 428.6871
222.1314, 428.8570
222.6135, 428.6031
223.0956, 427.6974
223.5777, 426.0680
224.0598, 425.3711
224.5420, 425.9149
225.0241, 427.0425
225.5062, 428.1394
225.9883, 429.3331
226.4704, 430.1991
226.9525, 430.5615
227.4347, 430.4026
227.9168, 430.2357
228.3989, 429.8513
228.8810, 429.6798
229.3631, 430.2523
229.8452, 432.0493
230.3274, 433.6620
230.8095, 434.8353
231.2916, 435.5660
231.7737, 435.9417
232.2558, 435.7190
232.7379, 435.3952
233.2201, 435.5312
233.7022, 436.5164
234.1843, 437.1877
234.6664, 437.1967
235.1485, 436.5316
235.6306, 436.1025
236.1128, 435.7248
236.5949, 435.7648
237.0770, 436.6947
237.5591, 439.2212
238.0412, 441.2525
238.5233, 442.3193
239.0055, 442.4247
239.4876, 442.4512
239.9697, 442.2834
240.4518, 442.1652
240.9339, 442.3230
241.4160, 442.8692
241.8982, 443.4764
242.3803, 444.1198
242.8624, 444.7990
243.3445, 445.3832
243.8266, 445.7750
244.3087, 446.1844
244.7909, 446.8022
245.2730, 447.7599
245.7551, 448.6534
246.2372, 449.4295
246.7193, 450.0862
247.2014, 450.6781
247.6836, 451.3377
248.1657, 451.7531
248.6478, 451.5441
249.1299, 450.0502
249.6120, 449.4135
250.0941, 450.3116
250.5762, 452.4612
251.0584, 453.4440
251.5405, 452.4751
252.0226, 451.3888
252.5047, 451.6235
252.9868, 454.1125
253.4689, 455.6961
253.9511, 455.6459
254.4332, 454.3623
254.9153, 454.2186
255.3974, 455.9033
255.8795, 457.6802
256.3617, 458.3745
256.8438, 457.4847
257.3259, 456.8498
257.8080, 456.6219
258.2901, 456.7511
258.7722, 457.0158
259.2544, 457.3225
259.7365, 457.9179
260.2186, 459.0219
260.7007, 460.8405
261.1828, 462.5193
261.6649, 464.1149
262.1471, 465.4903
262.6292, 466.2591
263.1113, 466.2768
263.5934, 465.9425
264.0755, 465.2650
264.5576, 463.8790
265.0398, 463.5280
265.5219, 464.6592
266.0040, 466.5812
266.4861, 467.7029
266.9682, 467.8026
267.4503, 467.6487
267.9325, 467.4757
268.4146, 467.1709
268.8967, 467.4820
269.3788, 468.6802
269.8609, 470.2335
270.3430, 471.0065
270.8252, 470.7217
271.3073, 470.5878
271.7894, 471.2454
272.2715, 472.8167
272.7536, 473.7589
273.2357, 473.8584
273.7179, 473.6132
274.2000, 473.7095
274.6821, 474.1325
275.1642, 474.9635
275.6463, 476.4911
276.1284, 478.7152
276.6106, 479.9385
277.0927, 479.9323
277.5748, 479.4190
278.0569, 479.3084
278.5390, 479.6545
279.0211, 479.9870
279.5032, 480.1765
279.9854, 480.2343
280.4675, 480.2540
280.9496, 480.2564
281.4317, 480.1698
281.9138, 479.7108
282.3959, 478.8461
282.8781, 478.6228
283.3602, 479.5380
283.8423, 481.2773
284.3244, 482.4090
284.8065, 482.8633
285.2886, 483.1888
285.7708, 483.8768
286.2529, 484.9081
286.7350, 485.9957
287.2171, 487.1624
287.6992, 488.2855
288.1813, 488.9875
288.6635, 489.2588
289.1456, 489.3087
289.6277, 489.0963
290.1098, 488.7081
290.5919, 488.7284
291.0740, 489.2391
291.5562, 490.2089
292.0383, 492.1090
292.5204, 494.8705
293.0025, 496.6937
293.4846, 495.6234
293.9667, 492.5517
294.4489, 490.5750
294.9310, 490.1487
295.4131, 490.7411
295.8952, 492.0885
296.3773, 494.0259
296.8594, 495.5000
297.3416, 495.5729
297.8237, 494.8059
298.3058, 494.4675
298.7879, 494.6761
299.2700, 495.1678
299.7521, 495.8006
300.2343, 496.4968
300.7164, 496.9760
301.1985, 496.8858
301.6806, 496.5666
302.1627, 496.4017
302.6448, 496.3711
303.1270, 496.8747
303.6091, 498.8030
304.0912, 501.5155
304.5733, 503.7751
305.0554, 505.0132
305.5375, 505.5527
306.0197, 505.4566
306.5018, 504.7674
306.9839, 504.2341
307.4660, 504.5040
307.9481, 505.2618
308.4302, 506.0723
308.9124, 506.9365
309.3945, 507.6806
309.8766, 507.9948
310.3587, 507.9876
310.8408, 508.2082
311.3229, 509.3482
311.8051, 510.7313
312.2872, 511.6224
312.7693, 511.6686
313.2514, 511.5195
313.7335, 511.5573
314.2156, 511.7052
314.6978, 511.7389
315.1799, 511.4911
315.6620, 511.1264
316.1441, 510.6490
316.6262, 509.8025
317.1083, 509.5251
317.5905, 510.7418
318.0726, 512.7292
318.5547, 514.2478
319.0368, 514.7540
319.5189, 514.7546
320.0010, 514.2183
320.4832, 512.8990
320.9653, 512.3460
321.4474, 513.7704
321.9295, 515.9387
322.4116, 517.4084
322.8937, 517.4254
323.3759, 517.1395
323.8580, 516.7513
324.3401, 516.2668
324.8222, 516.0320
325.3043, 516.4861
325.7864, 517.0055
326.2686, 517.1089
326.7507, 515.8495
327.2328, 515.1686
327.7149, 515.5519
328.1970, 516.8944
328.6791, 518.0725
329.1613, 519.0177
329.6434, 519.8199
330.1255, 520.5197
330.6076, 521.1038
331.0897, 521.5994
331.5718, 522.0248
332.0540, 522.3585
332.5361, 522.5442
333.0182, 522.5470
333.5003, 522.4481
333.9824, 522.1954
334.4645, 521.5372
334.9467, 521.5471
335.4288, 522.5422
335.9109, 523.9854
336.3930, 525.0066
336.8751, 525.5681
337.3572, 525.7977
337.8394, 525.5308
338.3215, 524.7125
338.8036, 524.8229
339.2857, 526.1937
339.7678, 527.9186
340.2499, 528.8318
340.7321, 528.6520
341.2142, 529.3531
341.6963, 531.8489
342.1784, 535.5140
342.6605, 537.1778
343.1426, 536.5467
343.6248, 535.2127
344.1069, 534.1507
344.5890, 533.3835
345.0711, 533.3737
345.5532, 534.3507
346.0353, 535.8903
346.5175, 537.0317
346.9996, 537.7925
347.4817, 538.7438
347.9638, 540.6163
348.4459, 543.0244
348.9280, 544.4694
349.4102, 544.7308
349.8923, 544.4921
350.3744, 544.3161
350.8565, 544.2911
351.3386, 544.7675
351.8207, 546.4193
352.3029, 548.5079
352.7850, 549.7662
353.2671, 550.1829
353.7492, 550.3901
354.2313, 550.8693
354.7134, 551.5290
355.1956, 552.2233
355.6777, 552.9718
356.1598, 553.6683
356.6419, 554.0043
357.1240, 554.1071
357.6061, 554.6445
358.0883, 556.4149
358.5704, 558.6412
359.0525, 560.4719
359.5346, 561.4258
360.0167, 562.5704
360.4988, 564.7035
360.9810, 567.4737
361.4631, 570.0971
361.9452, 572.0901
362.4273, 573.9484
362.9094, 575.5900
363.3915, 576.6349
363.8737, 579.2250
364.3558, 586.6088
364.8379, 595.0386
365.3200, 600.0927
365.8021, 597.7676
366.2842, 594.9100
366.7664, 592.7726
367.2485, 591.3996
367.7306, 592.2401
368.2127, 598.1494
368.6948, 604.6705
369.1769, 608.8923
369.6591, 607.2698
370.1412, 607.6380
370.6233, 611.2832
371.1054, 617.3370
371.5875, 622.4337
372.0696, 625.1296
372.5518, 628.5516
373.0339, 634.0251
373.5160, 641.9735
373.9981, 650.8793
374.4802, 660.9725
374.9623, 671.9429
375.4445, 683.3174
375.9266, 695.5575
376.4087, 707.3088
376.8908, 718.7228
377.3729, 729.7564
377.8550, 738.0569
378.3372, 744.6376
378.8193, 745.5934
379.3014, 735.3701
379.7835, 713.4051
380.2656, 690.1437
380.7477, 666.0106
381.2299, 643.2606
381.7120, 627.9506
382.1941, 620.2953
382.6762, 615.5554
383.1583, 611.1707
383.6404, 607.2245
384.1226, 604.3203
384.6047, 602.6277
385.0868, 601.5622
385.5689, 600.3422
386.0510, 599.0961
386.5331, 598.2811
387.0153, 598.6227
387.4974, 599.3123
387.9795, 598.9154
388.4616, 597.4277
388.9437, 596.2349
389.4258, 596.6279
389.9080, 597.9477
390.3901, 599.2715
390.8722, 600.4479
391.3543, 601.3900
391.8364, 602.0442
392.3185, 602.4036
392.8007, 602.4611
393.2828, 601.4620
393.7649, 600.6354
394.2470, 600.9687
394.7291, 603.0114
395.2112, 605.0818
395.6934, 606.2162
396.1755, 607.0744
396.6576, 608.6481
397.1397, 610.8469
397.6218, 614.0941
398.1039, 618.9008
398.5861, 625.4371
399.0682, 631.5714
399.5503, 637.4979
400.0324, 642.7238
400.5145, 646.8259
400.9966, 648.8032
401.4788, 651.1263
401.9609, 654.1794
402.4430, 657.7285
402.9251, 660.7472
403.4072, 662.5342
403.8893, 664.8798
404.3714, 668.6871
404.8535, 674.3757
405.3357, 679.7513
405.8178, 684.3961
406.2999, 689.1884
406.7820, 695.5804
407.2641, 703.8592
407.7462, 711.9854
408.2284, 718.9783
408.7105, 725.2586
409.1926, 733.3297
409.6747, 743.1219
410.1568, 755.2097
410.6389, 769.8358
411.1211, 787.0104
411.6032, 807.5115
412.0853, 831.6092
412.5674, 859.0359
413.0495, 891.0496
413.5316, 927.2997
414.0138, 964.9427
414.4959, 1004.531
414.9780, 1044.305
415.4601, 1085.528
415.9422, 1129.582
416.4243, 1159.070
416.9065, 1162.800
417.3886, 1142.396
417.8707, 1099.718
418.3528, 1015.910
418.8349, 928.5663
419.3170, 856.8018
419.7992, 799.5569
420.2813, 755.0950
420.7634, 725.6653
421.2455, 705.3705
421.7276, 690.9474
422.2097, 683.3925
422.6919, 677.6122
423.1740, 672.2059
423.6561, 667.7870
424.1382, 665.1721
424.6203, 665.8347
425.1024, 667.0432
425.5846, 668.2069
426.0667, 669.2977
426.5488, 670.6399
427.0309, 672.4105
427.5130, 674.2924
427.9951, 676.1574
428.4773, 678.4015
428.9594, 679.8104
429.4415, 680.4420
429.9236, 680.1385
430.4057, 678.2255
430.8878, 674.2410
431.3700, 670.1203
431.8521, 666.7521
432.3342, 664.1414
432.8163, 661.1510
433.2984, 657.6172
433.7805, 654.2924
434.2627, 651.9324
434.7448, 650.5227
435.2269, 650.0929
435.7090, 651.2438
436.1911, 652.7469
436.6732, 651.7220
437.1554, 648.4498
437.6375, 645.2499
438.1196, 643.5646
438.6017, 642.9764
439.0838, 642.8300
439.5659, 643.0401
440.0481, 643.7234
440.5302, 645.4073
441.0123, 647.5689
441.4944, 649.3336
441.9765, 650.0891
442.4586, 650.5540
442.9408, 651.0120
443.4229, 651.5031
443.9050, 652.2867
444.3871, 653.6999
444.8692, 655.2890
445.3513, 656.7692
445.8335, 658.1194
446.3156, 659.3228
446.7977, 660.7188
447.2798, 661.9066
447.7619, 662.1505
448.2440, 660.1722
448.7262, 658.5917
449.2083, 658.3497
449.6904, 659.5762
450.1725, 659.3199
450.6546, 656.5715
451.1367, 653.6057
451.6189, 652.3084
452.1010, 653.3327
452.5831, 653.7805
453.0652, 653.2804
453.5473, 652.1933
454.0294, 651.1366
454.5116, 650.0429
454.9937, 649.5393
455.4758, 650.2831
455.9579, 651.9584
456.4400, 652.6797
456.9221, 652.3730
457.4043, 651.8289
457.8864, 651.7787
458.3685, 652.1064
458.8506, 652.4648
459.3327, 652.7038
459.8148, 653.0322
460.2970, 653.7233
460.7791, 654.7217
461.2612, 655.8265
461.7433, 657.2170
462.2254, 658.4913
462.7076, 659.3837
463.1897, 659.9065
463.6718, 659.7686
464.1539, 657.7709
464.6360, 655.5031
465.1181, 654.5839
465.6003, 656.8289
466.0824, 658.9662
466.5645, 660.0693
467.0466, 660.3809
467.5287, 660.8488
468.0108, 662.0779
468.4930, 663.0123
468.9751, 663.1365
469.4572, 662.0566
469.9393, 661.5959
470.4214, 661.8652
470.9035, 662.6451
471.3857, 663.7491
471.8678, 665.2645
472.3499, 666.8868
472.8320, 668.8353
473.3141, 670.7623
473.7962, 671.2426
474.2784, 670.0859
474.7605, 668.9023
475.2426, 668.6508
475.7247, 669.2171
476.2068, 669.9280
476.6889, 670.7832
477.1711, 671.6900
477.6532, 672.4483
478.1353, 673.1682
478.6174, 674.1519
479.0995, 675.5416
479.5816, 677.1866
480.0638, 679.0603
480.5459, 681.0729
481.0280, 682.8742
481.5101, 683.9882
481.9922, 684.9767
482.4743, 686.4484
482.9565, 688.6547
483.4386, 690.2732
483.9207, 690.4964
484.4028, 689.9603
484.8849, 689.3267
485.3670, 688.2850
485.8492, 687.6764
486.3313, 687.7208
486.8134, 688.3736
487.2955, 689.3885
487.7776, 691.7838
488.2597, 693.3047
488.7419, 692.5504
489.2240, 688.5427
489.7061, 687.3593
490.1882, 690.2165
490.6703, 694.1102
491.1524, 695.5710
491.6346, 694.2704
492.1167, 693.0067
492.5988, 692.2883
493.0809, 691.9249
493.5630, 691.3484
494.0451, 690.5635
494.5273, 690.1463
495.0094, 690.8398
495.4915, 692.0728
495.9736, 692.3210
496.4557, 691.4499
496.9378, 690.7607
497.4200, 691.9697
497.9021, 693.9835
498.3842, 695.0488
498.8663, 694.0837
499.3484, 692.8730
499.8305, 692.4200
500.3127, 692.6031
500.7948, 693.1009
501.2769, 694.1384
501.7590, 695.1861
502.2411, 695.8786
502.7232, 696.0897
503.2054, 696.7574
503.6875, 698.9288
504.1696, 701.0020
504.6517, 701.7416
505.1338, 700.1872
505.6159, 698.9334
506.0981, 697.9901
506.5802, 697.4812
507.0623, 697.8995
507.5444, 699.6572
508.0265, 700.9926
508.5086, 701.0230
508.9908, 699.9783
509.4729, 699.8234
509.9550, 700.6260
510.4371, 701.7806
510.9192, 702.9455
511.4013, 704.0569
511.8835, 704.7258
512.3655, 704.7542
512.8477, 704.8339
513.3298, 705.9659
513.8119, 707.7945
514.2940, 709.4614
514.7761, 710.7895
515.2582, 711.6543
515.7404, 711.6477
516.2225, 710.9266
516.7046, 710.6028
517.1867, 711.6163
517.6688, 712.8800
518.1509, 713.6249
518.6331, 713.3860
519.1152, 713.4886
519.5973, 714.3345
520.0794, 715.5446
520.5615, 716.6323
521.0436, 717.6207
521.5258, 718.3858
522.0079, 718.5903
522.4900, 718.5109
522.9721, 719.8422
523.4542, 723.1977
523.9363, 726.0717
524.4185, 726.9510
524.9006, 725.8519
525.3827, 724.9354
525.8648, 724.2056
526.3469, 723.6600
526.8290, 723.3303
527.3112, 723.2040
527.7933, 723.2057
528.2754, 723.3497
528.7575, 723.5833
529.2396, 723.6580
529.7217, 723.7449
530.2039, 724.3287
530.6860, 726.4127
531.1681, 728.5126
531.6502, 729.2812
532.1323, 728.6934
532.6144, 728.5934
533.0966, 730.0587
533.5787, 732.0264
534.0608, 733.8115
534.5429, 735.6422
535.0250, 736.6948
535.5071, 736.5145
535.9893, 735.6513
536.4714, 734.8196
536.9535, 733.7769
537.4356, 733.2620
537.9177, 733.5699
538.3998, 734.5712
538.8820, 735.3807
539.3641, 735.9092
539.8462, 736.6287
540.3283, 738.2225
540.8104, 740.4348
541.2925, 741.0604
541.7747, 739.7462
542.2568, 738.5686
542.7389, 740.3729
543.2210, 744.0130
543.7031, 746.8234
544.1852, 748.0618
544.6674, 748.2121
545.1495, 746.8560
545.6316, 744.6928
546.1137, 743.4658
546.5958, 744.7205
547.0779, 746.4795
547.5601, 747.8583
548.0422, 748.7992
548.5243, 749.3256
549.0064, 748.8468
549.4885, 748.3736
549.9706, 748.5851
550.4528, 750.2648
550.9349, 751.0536
551.4170, 750.2760
551.8991, 749.1363
552.3812, 749.6332
552.8633, 752.2969
553.3455, 754.3840
553.8276, 755.0883
554.3097, 754.8455
554.7918, 755.1183
555.2739, 755.9056
555.7560, 756.5457
556.2382, 756.5383
556.7203, 756.1220
557.2024, 755.8243
557.6845, 755.6786
558.1666, 755.5016
558.6487, 754.6600
559.1309, 753.8811
559.6130, 754.2294
560.0951, 756.6000
560.5772, 758.8844
561.0593, 759.7966
561.5414, 759.9835
562.0236, 760.5750
562.5057, 762.6535
562.9878, 764.3217
563.4699, 764.7793
563.9520, 764.1669
564.4341, 764.0514
564.9163, 764.4462
565.3984, 765.3146
565.8805, 766.8023
566.3626, 769.1102
566.8447, 770.7151
567.3268, 771.4071
567.8090, 772.0283
568.2911, 773.5605
568.7732, 775.9361
569.2553, 778.4239
569.7374, 780.9182
570.2195, 783.4365
570.7017, 786.0413
571.1838, 788.7641
571.6659, 791.6418
572.1480, 795.2906
572.6301, 798.7081
573.1122, 800.7252
573.5944, 801.5338
574.0765, 802.7086
574.5586, 805.8703
575.0407, 808.9280
575.5228, 810.6688
576.0049, 810.7800
576.4871, 809.9776
576.9692, 808.0978
577.4513, 805.4938
577.9334, 802.3718
578.4155, 798.5676
578.8976, 794.6461
579.3798, 790.2989
579.8619, 786.1693
580.3440, 784.2098
580.8261, 784.5868
581.3082, 785.0930
581.7903, 784.7525
582.2725, 783.8841
582.7546, 783.4335
583.2367, 783.3741
583.7188, 783.3709
584.2009, 782.9061
584.6830, 782.4621
585.1652, 782.7862
585.6473, 784.0750
586.1294, 785.4112
586.6115, 786.4875
587.0936, 787.2302
587.5757, 787.5455
588.0579, 786.7484
588.5400, 786.2850
589.0221, 786.3713
589.5042, 786.9697
