##NAMES=Corundum
##RRUFFID=R100142
##IDEAL CHEMISTRY=Al_2_O_3_
##LOCALITY=Nepal
##OWNER=RRUFF
##SOURCE=William W. Pinch
##DESCRIPTION=Polished lavendar cab
##STATUS=The identification of this mineral has been confirmed by single-crystal X-ray diffraction.
##URL=rruff.info/R100142
91.03516, 4053.984
91.51727, 4059.162
91.99939, 4054.949
92.48151, 4044.359
92.96362, 4035.924
93.44574, 4035.913
93.92786, 4040.929
94.40997, 4043.674
94.89210, 4043.367
95.37421, 4041.624
95.85633, 4040.494
96.33845, 4039.966
96.82056, 4039.981
97.30268, 4040.980
97.78480, 4042.794
98.26691, 4043.725
98.74903, 4043.560
99.23115, 4042.382
99.71326, 4039.811
100.1954, 4035.314
100.6775, 4031.553
101.1596, 4031.363
101.6417, 4035.766
102.1239, 4038.660
102.6060, 4038.521
103.0881, 4035.573
103.5702, 4033.605
104.0523, 4032.402
104.5344, 4032.412
105.0166, 4034.560
105.4987, 4041.085
105.9808, 4045.684
106.4629, 4046.303
106.9450, 4041.659
107.4271, 4038.915
107.9093, 4039.184
108.3914, 4040.945
108.8735, 4041.925
109.3556, 4041.656
109.8377, 4041.027
110.3198, 4040.252
110.8020, 4039.307
111.2841, 4038.280
111.7662, 4036.919
112.2483, 4035.469
112.7304, 4034.464
113.2125, 4034.108
113.6947, 4034.096
114.1768, 4034.315
114.6589, 4035.051
115.1410, 4035.613
115.6231, 4036.160
116.1052, 4036.507
116.5874, 4035.946
117.0695, 4032.152
117.5516, 4028.378
118.0337, 4027.156
118.5158, 4032.592
118.9980, 4037.670
119.4801, 4038.897
119.9622, 4036.519
120.4443, 4033.610
120.9264, 4031.223
121.4085, 4029.450
121.8907, 4028.401
122.3728, 4028.385
122.8549, 4028.963
123.3370, 4030.248
123.8191, 4032.307
124.3012, 4033.597
124.7834, 4031.928
125.2655, 4028.516
125.7476, 4025.961
126.2297, 4027.354
126.7118, 4029.790
127.1939, 4028.548
127.6761, 4022.847
128.1582, 4015.923
128.6403, 4009.936
129.1224, 4005.321
129.6045, 4004.175
130.0867, 4010.323
130.5688, 4021.323
131.0509, 4029.277
131.5330, 4033.708
132.0151, 4034.590
132.4972, 4029.828
132.9794, 4019.410
133.4615, 4010.253
133.9436, 4007.840
134.4257, 4011.690
134.9078, 4015.556
135.3899, 4018.577
135.8721, 4021.130
136.3542, 4024.668
136.8363, 4029.494
137.3184, 4033.980
137.8005, 4036.521
138.2826, 4036.849
138.7648, 4037.355
139.2469, 4038.359
139.7290, 4039.875
140.2111, 4041.995
140.6932, 4044.919
141.1753, 4048.113
141.6575, 4050.995
142.1396, 4053.404
142.6217, 4055.998
143.1038, 4058.817
143.5859, 4061.867
144.0681, 4065.692
144.5502, 4071.119
145.0323, 4076.616
145.5144, 4080.337
145.9965, 4080.735
146.4786, 4081.728
146.9608, 4084.614
147.4429, 4090.297
147.9250, 4094.102
148.4071, 4094.529
148.8892, 4093.639
149.3713, 4094.430
149.8535, 4096.570
150.3356, 4100.747
150.8177, 4107.899
151.2998, 4121.386
151.7819, 4130.542
152.2640, 4131.463
152.7462, 4128.460
153.2283, 4129.213
153.7104, 4137.610
154.1925, 4147.032
154.6746, 4155.165
155.1567, 4161.062
155.6389, 4166.809
156.1210, 4173.307
156.6031, 4179.899
157.0852, 4185.052
157.5673, 4188.847
158.0495, 4190.850
158.5316, 4190.690
159.0137, 4186.480
159.4958, 4182.692
159.9779, 4180.217
160.4600, 4178.998
160.9422, 4178.846
161.4243, 4180.629
161.9064, 4182.923
162.3885, 4184.724
162.8706, 4184.977
163.3527, 4185.680
163.8349, 4188.135
164.3170, 4191.960
164.7991, 4195.334
165.2812, 4197.061
165.7633, 4198.097
166.2454, 4199.282
166.7276, 4200.222
167.2097, 4201.978
167.6918, 4206.007
168.1739, 4211.941
168.6560, 4217.025
169.1381, 4218.496
169.6203, 4199.791
170.1024, 4187.392
170.5845, 4148.175
171.0666, 4110.976
171.5487, 4073.402
172.0309, 4035.718
172.5130, 3998.942
172.9951, 3962.503
173.4772, 3927.628
173.9593, 3896.150
174.4414, 3871.236
174.9236, 3848.762
175.4057, 3825.170
175.8878, 3800.185
176.3699, 3774.027
176.8520, 3744.049
177.3341, 3712.587
177.8163, 3684.757
178.2984, 3663.521
178.7805, 3646.919
179.2626, 3633.743
179.7447, 3624.545
180.2268, 3614.190
180.7090, 3595.503
181.1911, 3571.074
181.6732, 3549.106
182.1553, 3535.421
182.6374, 3526.530
183.1195, 3515.562
183.6017, 3502.069
184.0838, 3487.386
184.5659, 3471.483
185.0480, 3454.953
185.5301, 3440.103
186.0123, 3428.786
186.4944, 3420.054
186.9765, 3411.661
187.4586, 3403.549
187.9407, 3395.176
188.4228, 3386.027
188.9050, 3376.085
189.3871, 3364.777
189.8692, 3351.237
190.3513, 3335.993
190.8334, 3320.793
191.3155, 3305.234
191.7977, 3291.251
192.2798, 3283.480
192.7619, 3281.924
193.2440, 3279.393
193.7261, 3271.570
194.2082, 3258.973
194.6904, 3246.548
195.1725, 3234.299
195.6546, 3222.843
196.1367, 3214.034
196.6188, 3207.961
197.1009, 3202.666
197.5831, 3197.335
198.0652, 3191.911
198.5473, 3186.159
199.0294, 3179.972
199.5115, 3173.497
199.9937, 3166.969
200.4758, 3160.423
200.9579, 3153.867
201.4400, 3147.103
201.9221, 3140.005
202.4042, 3134.065
202.8864, 3129.608
203.3685, 3126.043
203.8506, 3122.071
204.3327, 3117.686
204.8148, 3113.000
205.2969, 3107.964
205.7791, 3102.492
206.2612, 3097.288
206.7433, 3092.471
207.2254, 3087.881
207.7075, 3083.181
208.1896, 3078.425
208.6718, 3073.389
209.1539, 3067.700
209.6360, 3061.179
210.1181, 3055.330
210.6002, 3050.364
211.0823, 3046.110
211.5645, 3042.185
212.0466, 3038.870
212.5287, 3035.364
213.0108, 3031.399
213.4929, 3027.151
213.9750, 3021.591
214.4572, 3013.522
214.9393, 3004.599
215.4214, 2999.984
215.9035, 3001.466
216.3856, 3003.542
216.8678, 3002.996
217.3499, 2998.667
217.8320, 2995.432
218.3141, 2994.111
218.7962, 2993.760
219.2783, 2991.255
219.7605, 2985.337
220.2426, 2979.409
220.7247, 2975.343
221.2068, 2973.676
221.6889, 2972.393
222.1710, 2972.090
222.6532, 2971.979
223.1353, 2969.243
223.6174, 2962.198
224.0995, 2955.395
224.5816, 2951.377
225.0637, 2951.581
225.5459, 2950.955
226.0280, 2949.382
226.5101, 2946.904
226.9922, 2943.511
227.4743, 2938.492
227.9564, 2933.641
228.4386, 2929.594
228.9207, 2926.036
229.4028, 2924.235
229.8849, 2924.826
230.3670, 2926.971
230.8492, 2928.716
231.3313, 2931.354
231.8134, 2931.610
232.2955, 2927.527
232.7776, 2916.794
233.2597, 2907.198
233.7419, 2898.227
234.2240, 2890.623
234.7061, 2886.967
235.1882, 2889.954
235.6703, 2892.897
236.1524, 2892.801
236.6346, 2887.924
237.1167, 2884.104
237.5988, 2881.846
238.0809, 2880.456
238.5630, 2878.101
239.0451, 2873.668
239.5273, 2869.900
240.0094, 2868.080
240.4915, 2869.235
240.9736, 2869.398
241.4557, 2867.966
241.9378, 2865.717
242.4200, 2864.435
242.9021, 2864.988
243.3842, 2865.045
243.8663, 2863.543
244.3484, 2859.690
244.8306, 2856.670
245.3127, 2855.048
245.7948, 2853.990
246.2769, 2851.894
246.7590, 2848.192
247.2411, 2844.498
247.7233, 2841.289
248.2054, 2838.516
248.6875, 2836.628
249.1696, 2836.279
249.6517, 2836.446
250.1338, 2835.361
250.6160, 2832.277
251.0981, 2829.335
251.5802, 2827.419
252.0623, 2826.919
252.5444, 2825.331
253.0265, 2822.050
253.5087, 2818.219
253.9908, 2815.573
254.4729, 2814.607
254.9550, 2813.818
255.4371, 2812.741
255.9192, 2811.303
256.4014, 2810.378
256.8835, 2810.392
257.3656, 2810.491
257.8477, 2809.527
258.3298, 2806.990
258.8120, 2804.452
259.2941, 2801.963
259.7762, 2799.407
260.2583, 2798.818
260.7404, 2801.213
261.2225, 2804.217
261.7047, 2805.282
262.1868, 2803.822
262.6689, 2801.742
263.1510, 2799.105
263.6331, 2795.948
264.1152, 2793.688
264.5974, 2792.602
265.0795, 2791.997
265.5616, 2791.363
266.0437, 2790.838
266.5258, 2789.876
267.0079, 2788.251
267.4901, 2786.097
267.9722, 2784.667
268.4543, 2784.436
268.9364, 2784.100
269.4185, 2782.318
269.9006, 2778.585
270.3828, 2775.827
270.8649, 2774.711
271.3470, 2774.862
271.8291, 2774.397
272.3112, 2772.965
272.7933, 2771.633
273.2755, 2771.351
273.7576, 2772.294
274.2397, 2772.592
274.7218, 2771.895
275.2039, 2770.402
275.6860, 2768.815
276.1682, 2767.179
276.6503, 2765.236
277.1324, 2762.584
277.6145, 2759.182
278.0966, 2756.731
278.5787, 2755.814
279.0609, 2755.582
279.5430, 2753.772
280.0251, 2750.145
280.5072, 2746.995
280.9893, 2745.560
281.4715, 2745.875
281.9536, 2747.276
282.4357, 2750.046
282.9178, 2753.264
283.3999, 2755.190
283.8820, 2755.706
284.3642, 2756.170
284.8463, 2757.344
285.3284, 2759.062
285.8105, 2759.930
286.2926, 2759.747
286.7747, 2759.060
287.2569, 2758.053
287.7390, 2756.756
288.2211, 2756.935
288.7032, 2760.482
289.1853, 2766.268
289.6674, 2769.430
290.1496, 2769.933
290.6317, 2768.409
291.1138, 2764.517
291.5959, 2758.707
292.0780, 2754.050
292.5602, 2751.802
293.0423, 2751.315
293.5244, 2751.383
294.0065, 2752.078
294.4886, 2752.175
294.9707, 2749.819
295.4529, 2745.761
295.9350, 2742.735
296.4171, 2741.516
296.8992, 2741.610
297.3813, 2742.507
297.8634, 2744.136
298.3456, 2745.780
298.8277, 2747.519
299.3098, 2748.826
299.7919, 2748.276
300.2740, 2745.000
300.7561, 2740.786
301.2383, 2737.910
301.7204, 2736.167
302.2025, 2734.806
302.6846, 2733.777
303.1667, 2732.703
303.6488, 2730.782
304.1310, 2727.612
304.6131, 2724.526
305.0952, 2722.946
305.5773, 2722.546
306.0594, 2722.448
306.5415, 2722.699
307.0237, 2722.747
307.5058, 2721.603
307.9879, 2718.929
308.4700, 2716.806
308.9521, 2717.823
309.4343, 2720.367
309.9164, 2721.620
310.3985, 2717.789
310.8806, 2713.950
311.3627, 2715.079
311.8448, 2721.459
312.3270, 2726.754
312.8091, 2726.024
313.2912, 2722.451
313.7733, 2719.795
314.2554, 2719.792
314.7375, 2720.698
315.2197, 2722.114
315.7018, 2723.913
316.1839, 2725.034
316.6660, 2725.280
317.1481, 2724.504
317.6302, 2722.487
318.1124, 2717.278
318.5945, 2713.177
319.0766, 2712.462
319.5587, 2714.202
320.0408, 2715.150
320.5229, 2712.643
321.0051, 2710.210
321.4872, 2710.174
321.9693, 2715.302
322.4514, 2718.275
322.9335, 2715.909
323.4156, 2710.538
323.8978, 2706.656
324.3799, 2706.359
324.8620, 2706.538
325.3441, 2705.990
325.8262, 2704.182
326.3083, 2703.105
326.7905, 2703.276
327.2726, 2704.142
327.7547, 2705.016
328.2368, 2706.209
328.7189, 2707.062
329.2010, 2707.323
329.6832, 2706.916
330.1653, 2706.708
330.6474, 2706.159
331.1295, 2706.203
331.6116, 2707.858
332.0938, 2714.013
332.5759, 2717.079
333.0580, 2714.975
333.5401, 2708.497
334.0222, 2703.813
334.5043, 2701.583
334.9865, 2700.155
335.4686, 2698.610
335.9507, 2697.017
336.4328, 2694.898
336.9149, 2691.469
337.3970, 2687.830
337.8792, 2687.368
338.3613, 2691.153
338.8434, 2695.091
339.3255, 2697.622
339.8076, 2698.776
340.2898, 2697.960
340.7719, 2694.149
341.2540, 2690.195
341.7361, 2691.110
342.2182, 2697.491
342.7003, 2703.127
343.1825, 2706.229
343.6646, 2706.829
344.1467, 2703.843
344.6288, 2696.458
345.1109, 2689.422
345.5930, 2688.438
346.0752, 2692.872
346.5573, 2696.220
347.0394, 2696.554
347.5215, 2695.126
348.0036, 2694.712
348.4857, 2695.277
348.9679, 2695.992
349.4500, 2696.084
349.9321, 2695.828
350.4142, 2696.145
350.8963, 2697.368
351.3784, 2698.724
351.8606, 2699.143
352.3427, 2698.805
352.8248, 2698.360
353.3069, 2698.310
353.7890, 2698.332
354.2711, 2697.683
354.7533, 2696.177
355.2354, 2695.284
355.7175, 2697.387
356.1996, 2700.860
356.6817, 2702.854
357.1638, 2700.822
357.6460, 2697.828
358.1281, 2695.724
358.6102, 2694.575
359.0923, 2694.691
359.5744, 2697.352
360.0565, 2700.885
360.5387, 2703.582
361.0208, 2703.523
361.5029, 2704.376
361.9850, 2708.967
362.4671, 2715.992
362.9492, 2721.370
363.4314, 2721.945
363.9135, 2721.769
364.3956, 2723.337
364.8777, 2728.291
365.3598, 2731.915
365.8419, 2731.868
366.3241, 2730.215
366.8062, 2730.044
367.2883, 2732.854
367.7704, 2736.142
368.2526, 2739.374
368.7347, 2742.568
369.2168, 2745.462
369.6989, 2748.052
370.1810, 2750.342
370.6631, 2752.185
371.1453, 2751.154
371.6274, 2753.378
372.1095, 2760.677
372.5916, 2772.251
373.0737, 2782.283
373.5558, 2789.375
374.0380, 2797.108
374.5201, 2807.469
375.0022, 2820.511
375.4843, 2835.936
375.9664, 2854.836
376.4485, 2875.133
376.9307, 2892.796
377.4128, 2906.933
377.8949, 2921.713
378.3770, 2940.823
378.8591, 2963.566
379.3412, 2978.645
379.8234, 2987.157
380.3055, 2983.694
380.7876, 2957.353
381.2697, 2909.207
381.7518, 2861.569
382.2339, 2818.298
382.7161, 2780.917
383.1982, 2753.498
383.6803, 2736.100
384.1624, 2723.627
384.6445, 2713.179
385.1266, 2704.936
385.6088, 2699.694
386.0909, 2698.042
386.5730, 2697.962
387.0551, 2697.796
387.5372, 2697.428
388.0193, 2696.506
388.5015, 2693.673
388.9836, 2690.807
389.4657, 2690.276
389.9478, 2692.257
390.4299, 2694.437
390.9120, 2695.027
391.3942, 2694.954
391.8763, 2695.370
392.3584, 2697.958
392.8405, 2699.899
393.3226, 2699.040
393.8047, 2696.033
394.2869, 2693.837
394.7690, 2694.456
395.2511, 2695.677
395.7332, 2695.940
396.2154, 2693.859
396.6975, 2693.246
397.1796, 2695.840
397.6617, 2700.274
398.1438, 2704.162
398.6259, 2705.094
399.1081, 2707.493
399.5902, 2712.665
400.0723, 2720.819
400.5544, 2730.238
401.0365, 2742.731
401.5186, 2755.115
402.0008, 2764.465
402.4829, 2768.762
402.9650, 2773.993
403.4471, 2781.699
403.9292, 2790.823
404.4113, 2796.261
404.8935, 2796.250
405.3756, 2796.679
405.8577, 2801.012
406.3398, 2809.841
406.8219, 2817.834
407.3040, 2824.631
407.7862, 2831.299
408.2683, 2839.224
408.7504, 2848.429
409.2325, 2859.305
409.7146, 2872.066
410.1967, 2886.573
410.6789, 2902.267
411.1610, 2919.063
411.6431, 2940.074
412.1252, 2967.001
412.6073, 3000.060
413.0894, 3040.668
413.5716, 3089.681
414.0537, 3143.021
414.5358, 3195.922
415.0179, 3248.455
415.5000, 3302.760
415.9821, 3362.905
416.4643, 3423.029
416.9464, 3483.835
417.4285, 3546.427
417.9106, 3584.113
418.3927, 3586.018
418.8748, 3551.095
419.3570, 3478.251
419.8391, 3325.150
420.3212, 3174.202
420.8033, 3053.237
421.2854, 2961.436
421.7675, 2891.184
422.2497, 2849.715
422.7318, 2821.989
423.2139, 2801.403
423.6960, 2789.399
424.1781, 2779.780
424.6602, 2771.806
425.1424, 2766.021
425.6245, 2763.370
426.1066, 2766.012
426.5887, 2769.051
427.0709, 2771.438
427.5530, 2773.158
428.0351, 2775.332
428.5172, 2777.729
428.9993, 2780.871
429.4814, 2785.763
429.9636, 2793.631
430.4457, 2798.594
430.9278, 2800.509
431.4099, 2798.904
431.8920, 2791.498
432.3741, 2777.423
432.8563, 2763.720
433.3384, 2753.770
433.8205, 2747.023
434.3026, 2739.707
434.7847, 2731.570
435.2668, 2724.559
435.7490, 2721.318
436.2311, 2720.981
436.7132, 2720.614
437.1953, 2719.466
437.6774, 2717.901
438.1595, 2715.895
438.6417, 2713.722
439.1238, 2712.499
439.6059, 2712.966
440.0880, 2714.713
440.5701, 2717.758
441.0522, 2722.381
441.5344, 2726.448
442.0165, 2728.364
442.4986, 2729.053
442.9807, 2729.625
443.4628, 2729.274
443.9449, 2730.013
444.4271, 2732.978
444.9092, 2737.865
445.3913, 2742.980
445.8734, 2748.199
446.3555, 2753.180
446.8376, 2757.874
447.3198, 2763.132
447.8019, 2766.336
448.2840, 2767.239
448.7661, 2766.151
449.2482, 2763.317
449.7303, 2757.741
450.2125, 2752.190
450.6946, 2747.318
451.1767, 2743.038
451.6588, 2738.129
452.1409, 2732.163
452.6230, 2726.507
453.1052, 2722.466
453.5873, 2720.169
454.0694, 2716.976
454.5515, 2712.160
455.0337, 2707.438
455.5158, 2706.337
455.9979, 2708.595
456.4800, 2710.641
456.9621, 2710.888
457.4442, 2709.887
457.9264, 2708.983
458.4085, 2708.171
458.8906, 2706.946
459.3727, 2704.549
459.8548, 2701.586
460.3369, 2698.988
460.8191, 2696.819
461.3012, 2695.392
461.7833, 2695.188
462.2654, 2695.923
462.7475, 2696.984
463.2296, 2698.038
463.7118, 2699.410
464.1939, 2701.762
464.6760, 2705.154
465.1581, 2707.249
465.6402, 2706.397
466.1223, 2704.456
466.6045, 2702.720
467.0866, 2698.538
467.5687, 2697.997
468.0508, 2704.594
468.5329, 2714.685
469.0150, 2720.096
469.4972, 2717.764
469.9793, 2715.339
470.4614, 2715.590
470.9435, 2718.781
471.4256, 2719.292
471.9077, 2716.024
472.3899, 2712.358
472.8720, 2711.445
473.3541, 2713.521
473.8362, 2715.936
474.3183, 2718.623
474.8004, 2721.044
475.2826, 2722.021
475.7647, 2721.608
476.2468, 2720.665
476.7289, 2719.095
477.2110, 2717.372
477.6931, 2716.503
478.1753, 2716.474
478.6574, 2717.235
479.1395, 2719.720
479.6216, 2722.690
480.1037, 2724.214
480.5858, 2723.274
481.0680, 2721.792
481.5501, 2720.838
482.0322, 2720.351
482.5143, 2720.199
482.9964, 2720.688
483.4786, 2721.253
483.9607, 2721.876
484.4428, 2722.616
484.9249, 2722.522
485.4070, 2719.432
485.8892, 2716.710
486.3713, 2716.874
486.8534, 2723.558
487.3355, 2727.713
487.8176, 2727.986
488.2997, 2725.970
488.7819, 2724.845
489.2640, 2724.282
489.7461, 2725.397
490.2282, 2729.188
490.7103, 2735.406
491.1924, 2739.604
491.6746, 2741.659
492.1567, 2742.200
492.6388, 2740.442
493.1209, 2736.906
493.6030, 2736.889
494.0851, 2741.793
494.5673, 2748.379
495.0494, 2752.073
495.5315, 2753.453
496.0136, 2754.488
496.4957, 2755.941
496.9778, 2757.656
497.4600, 2759.752
497.9421, 2762.151
498.4242, 2764.104
498.9063, 2765.803
499.3884, 2766.537
499.8705, 2765.346
500.3527, 2760.935
500.8348, 2757.401
501.3169, 2756.643
501.7990, 2757.569
502.2811, 2758.649
502.7632, 2760.655
503.2454, 2761.710
503.7275, 2761.375
504.2096, 2759.727
504.6917, 2757.136
505.1738, 2752.294
505.6559, 2748.385
506.1381, 2747.624
506.6202, 2751.321
507.1023, 2752.687
507.5844, 2750.911
508.0665, 2748.335
508.5486, 2748.288
509.0308, 2750.829
509.5129, 2753.344
509.9950, 2755.008
510.4771, 2756.304
510.9592, 2758.333
511.4413, 2760.996
511.9235, 2763.822
512.4056, 2767.307
512.8877, 2770.395
513.3698, 2770.881
513.8519, 2768.379
514.3340, 2766.464
514.8162, 2768.831
515.2983, 2772.896
515.7804, 2775.551
516.2625, 2775.072
516.7446, 2774.120
517.2267, 2773.922
517.7089, 2774.112
518.1910, 2773.740
518.6731, 2772.224
519.1552, 2770.552
519.6373, 2768.794
520.1194, 2766.807
520.6016, 2766.182
521.0837, 2767.370
521.5658, 2769.375
522.0479, 2771.528
522.5300, 2773.766
523.0121, 2776.296
523.4943, 2779.380
523.9764, 2782.382
524.4585, 2783.851
524.9406, 2783.718
525.4227, 2784.109
525.9048, 2786.316
526.3870, 2789.319
526.8691, 2790.117
527.3513, 2788.890
527.8334, 2788.128
528.3155, 2790.959
528.7976, 2794.905
529.2797, 2795.892
529.7618, 2792.971
530.2440, 2789.997
530.7261, 2789.976
531.2082, 2791.419
531.6903, 2792.422
532.1724, 2791.479
532.6545, 2790.918
533.1367, 2791.838
533.6188, 2793.801
534.1009, 2795.266
534.5830, 2795.465
535.0651, 2795.661
535.5472, 2796.454
536.0294, 2798.089
536.5115, 2798.598
536.9936, 2797.360
537.4757, 2795.899
537.9578, 2795.415
538.4399, 2795.961
538.9221, 2797.210
539.4042, 2799.260
539.8863, 2801.796
540.3684, 2804.774
540.8505, 2808.057
541.3326, 2809.992
541.8148, 2808.963
542.2969, 2806.737
542.7790, 2806.454
543.2611, 2807.970
543.7432, 2810.075
544.2253, 2812.313
544.7075, 2814.533
545.1896, 2816.716
545.6717, 2818.975
546.1538, 2820.552
546.6359, 2820.490
547.1180, 2819.808
547.6002, 2819.587
548.0823, 2820.153
548.5644, 2821.112
549.0465, 2822.340
549.5286, 2823.901
550.0107, 2826.063
550.4929, 2829.563
550.9750, 2832.511
551.4571, 2834.272
551.9392, 2834.831
552.4213, 2834.740
552.9034, 2833.712
553.3856, 2832.875
553.8677, 2833.414
554.3498, 2835.177
554.8319, 2836.165
555.3140, 2835.968
555.7961, 2835.746
556.2783, 2837.263
556.7604, 2840.018
557.2425, 2842.611
557.7246, 2844.964
558.2067, 2846.531
558.6888, 2845.881
559.1710, 2843.810
559.6531, 2842.983
560.1352, 2844.762
560.6173, 2848.173
561.0994, 2853.508
561.5815, 2861.261
562.0637, 2866.722
562.5458, 2867.747
563.0279, 2866.894
563.5100, 2866.004
563.9921, 2864.562
564.4742, 2864.041
564.9564, 2864.993
565.4385, 2866.401
565.9206, 2866.256
566.4027, 2864.063
566.8848, 2862.604
567.3669, 2862.604
567.8491, 2863.915
568.3312, 2866.717
568.8133, 2870.917
569.2954, 2874.412
569.7775, 2874.190
570.2596, 2872.801
570.7418, 2876.058
571.2239, 2884.515
571.7060, 2891.732
572.1881, 2891.055
572.6702, 2887.286
573.1523, 2885.832
573.6345, 2889.272
574.1166, 2892.977
574.5987, 2895.411
575.0808, 2896.944
575.5629, 2898.222
576.0450, 2898.864
576.5272, 2899.804
577.0093, 2902.056
577.4914, 2905.058
577.9735, 2904.845
578.4556, 2900.345
578.9377, 2894.874
579.4199, 2889.461
579.9020, 2884.167
580.3841, 2881.117
580.8662, 2880.518
581.3483, 2881.272
581.8304, 2882.667
582.3126, 2884.583
582.7947, 2886.779
583.2768, 2889.521
583.7589, 2891.567
584.2410, 2890.611
584.7231, 2888.032
585.2053, 2886.573
585.6874, 2887.241
586.1696, 2889.376
586.6517, 2893.980
587.1338, 2900.107
587.6159, 2903.811
588.0980, 2901.022
588.5801, 2898.188
589.0623, 2898.350
589.5444, 2902.083
590.0265, 2904.905
590.5086, 2906.706
