##NAMES=Corvusite
##RRUFFID=R060265
##IDEAL CHEMISTRY=(Na,Ca,K)_1-x_(V^5+^,V^4+^,Fe^2+^)_8_O_20_&#183;4H_2_O
##LOCALITY=Monument no. 2 mine, Monument Valley, Apache County, Arizona, USA
##OWNER=RRUFF
##SOURCE=Michael Scott
##DESCRIPTION=Dark brown lathlike bladed crystals in parallel
##STATUS=The identification of this mineral is not yet confirmed.
##URL=rruff.info/R060265
91.53320, 513.2093
92.01532, 516.2656
92.49744, 516.2081
92.97955, 519.8243
93.46167, 520.8542
93.94379, 515.4005
94.42590, 505.5733
94.90802, 494.8528
95.39014, 485.9075
95.87225, 479.1391
96.35437, 472.4526
96.83649, 465.1443
97.31860, 457.8258
97.80072, 450.9678
98.28284, 444.0420
98.76495, 436.9403
99.24707, 431.7009
99.72919, 429.6141
100.2113, 428.1394
100.6934, 426.5036
101.1755, 424.8422
101.6577, 423.5529
102.1398, 422.8544
102.6219, 422.4644
103.1040, 424.0865
103.5861, 428.2460
104.0682, 433.2710
104.5504, 438.3716
105.0325, 443.3519
105.5146, 448.4153
105.9967, 453.7444
106.4788, 459.3453
106.9609, 465.1599
107.4431, 470.7508
107.9252, 476.6697
108.4073, 483.6137
108.8894, 491.8009
109.3715, 501.1669
109.8536, 511.4460
110.3358, 522.5589
110.8179, 534.5601
111.3000, 547.3094
111.7821, 560.8598
112.2642, 575.8094
112.7463, 593.1420
113.2285, 611.6781
113.7106, 630.1022
114.1927, 647.9313
114.6748, 666.1758
115.1569, 686.0676
115.6390, 708.1487
116.1212, 731.0753
116.6033, 754.3365
117.0854, 778.2370
117.5675, 803.3552
118.0496, 830.2326
118.5317, 858.3835
119.0139, 885.1848
119.4960, 909.8574
119.9781, 933.7289
120.4602, 957.3674
120.9423, 980.4703
121.4244, 1002.360
121.9066, 1022.523
122.3887, 1040.922
122.8708, 1058.343
123.3529, 1075.304
123.8350, 1091.221
124.3171, 1106.161
124.7993, 1119.959
125.2814, 1131.719
125.7635, 1140.245
126.2456, 1144.625
126.7277, 1149.827
127.2098, 1157.862
127.6920, 1165.866
128.1741, 1170.653
128.6562, 1171.333
129.1383, 1169.921
129.6204, 1169.155
130.1025, 1169.010
130.5847, 1166.778
131.0668, 1160.746
131.5489, 1151.628
132.0310, 1141.982
132.5131, 1132.555
132.9952, 1122.185
133.4774, 1110.263
133.9595, 1096.772
134.4416, 1081.766
134.9237, 1065.455
135.4058, 1047.872
135.8879, 1028.243
136.3701, 1005.417
136.8522, 981.1825
137.3343, 956.2908
137.8164, 930.8089
138.2985, 905.0211
138.7806, 879.0466
139.2628, 852.6025
139.7449, 826.4684
140.2270, 801.4342
140.7091, 776.3027
141.1912, 749.6111
141.6733, 720.8347
142.1555, 690.7476
142.6376, 662.4885
143.1197, 637.2232
143.6018, 612.6561
144.0839, 588.4984
144.5660, 564.8969
145.0482, 541.9191
145.5303, 519.5175
146.0124, 497.9102
146.4945, 478.2828
146.9766, 461.0673
147.4587, 444.9468
147.9409, 429.5045
148.4230, 414.7253
148.9051, 400.6241
149.3872, 386.9925
149.8693, 374.1812
150.3514, 362.6646
150.8336, 352.9600
151.3157, 344.2544
151.7978, 335.8599
152.2799, 327.7108
152.7620, 319.8960
153.2441, 312.4300
153.7263, 305.3330
154.2084, 298.6384
154.6905, 292.3719
155.1726, 286.5729
155.6547, 281.2990
156.1368, 276.6248
156.6190, 272.4553
157.1011, 268.7815
157.5832, 265.4803
158.0653, 262.2716
158.5474, 258.9215
159.0295, 255.4673
159.5117, 252.4361
159.9938, 250.3294
160.4759, 248.1521
160.9580, 245.2977
161.4401, 242.0254
161.9222, 239.0489
162.4044, 237.0899
162.8865, 236.3432
163.3686, 235.4261
163.8507, 234.0206
164.3328, 232.7190
164.8149, 231.8508
165.2971, 231.3859
165.7792, 231.0452
166.2613, 230.4534
166.7434, 229.3261
167.2255, 228.8652
167.7076, 229.6198
168.1898, 230.5661
168.6719, 230.8542
169.1540, 230.3577
169.6361, 229.7415
170.1182, 229.9993
170.6003, 231.6865
171.0825, 232.8551
171.5646, 233.0732
172.0467, 232.8642
172.5288, 232.7299
173.0109, 232.7827
173.4930, 233.1013
173.9752, 234.0518
174.4573, 235.7862
174.9394, 237.0676
175.4215, 237.2294
175.9036, 236.6839
176.3857, 236.4069
176.8679, 236.8313
177.3500, 237.3583
177.8321, 237.1075
178.3142, 236.0138
178.7963, 234.9741
179.2784, 234.5217
179.7606, 234.6057
180.2427, 234.8837
180.7248, 235.5575
181.2069, 236.1277
181.6890, 236.1533
182.1711, 235.5903
182.6533, 234.7571
183.1354, 234.0857
183.6175, 233.6772
184.0996, 232.6302
184.5817, 229.7521
185.0638, 226.7563
185.5460, 224.8156
186.0281, 224.1546
186.5102, 223.8682
186.9923, 222.6337
187.4744, 220.0316
187.9565, 217.5721
188.4387, 215.2868
188.9208, 213.2741
189.4029, 211.7951
189.8850, 210.8804
190.3671, 210.1173
190.8492, 208.6680
191.3314, 206.0528
191.8135, 203.4889
192.2956, 200.8933
192.7777, 198.4601
193.2598, 196.4443
193.7419, 194.9391
194.2241, 193.7092
194.7062, 192.1910
195.1883, 190.0612
195.6704, 187.9767
196.1525, 186.0376
196.6346, 184.1293
197.1168, 182.0408
197.5989, 179.6655
198.0810, 177.2084
198.5631, 175.2905
199.0452, 174.1750
199.5273, 173.1972
200.0095, 172.1040
200.4916, 171.1048
200.9737, 170.6955
201.4558, 171.2471
201.9379, 172.2144
202.4200, 171.9043
202.9022, 169.5987
203.3843, 167.5637
203.8664, 166.9057
204.3485, 167.1761
204.8306, 167.0856
205.3127, 165.9270
205.7949, 164.2532
206.2770, 163.3513
206.7591, 163.5696
207.2412, 163.7264
207.7233, 162.9090
208.2054, 161.3023
208.6876, 160.1094
209.1697, 160.0454
209.6518, 160.4947
210.1339, 160.4507
210.6160, 159.7056
211.0981, 158.9644
211.5803, 158.9775
212.0624, 159.7481
212.5445, 160.1611
213.0266, 159.4540
213.5087, 158.4245
213.9908, 157.8106
214.4730, 157.7505
214.9551, 157.9456
215.4372, 158.1387
215.9193, 158.3505
216.4014, 158.4389
216.8836, 158.3057
217.3657, 158.0605
217.8478, 157.7104
218.3299, 157.2544
218.8120, 156.8345
219.2941, 156.6391
219.7763, 156.6846
220.2584, 156.9111
220.7405, 157.4675
221.2226, 158.0894
221.7047, 158.5924
222.1868, 158.9276
222.6690, 159.1839
223.1511, 159.5547
223.6332, 160.2669
224.1153, 160.5450
224.5974, 160.0974
225.0795, 159.4077
225.5617, 158.7803
226.0438, 158.3132
226.5259, 157.9589
227.0080, 157.5993
227.4901, 156.9924
227.9722, 156.8820
228.4544, 157.8701
228.9365, 158.9422
229.4186, 159.2094
229.9007, 158.4617
230.3828, 157.2367
230.8649, 156.4464
231.3471, 156.1123
231.8292, 156.2776
232.3113, 157.4557
232.7934, 158.7888
233.2755, 159.5354
233.7576, 159.5016
234.2398, 159.0700
234.7219, 158.8636
235.2040, 159.0021
235.6861, 159.1849
236.1682, 159.2942
236.6503, 159.5064
237.1325, 160.1995
237.6146, 161.4284
238.0967, 162.5433
238.5788, 162.4401
239.0609, 160.0643
239.5430, 158.9861
240.0252, 160.1636
240.5073, 162.2803
240.9894, 164.2145
241.4715, 165.7026
241.9536, 166.7090
242.4357, 167.0648
242.9179, 166.5620
243.4000, 166.3307
243.8821, 166.7477
244.3642, 167.3611
244.8463, 167.5458
245.3284, 167.1502
245.8106, 166.8172
246.2927, 167.2865
246.7748, 168.5573
247.2569, 170.3417
247.7390, 173.2400
248.2211, 176.3654
248.7033, 178.6850
249.1854, 180.0301
249.6675, 180.7006
250.1496, 180.4600
250.6317, 179.5250
251.1138, 179.6257
251.5960, 181.5431
252.0781, 184.5085
252.5602, 187.7147
253.0423, 191.1324
253.5244, 194.4516
254.0065, 197.3137
254.4887, 199.8231
254.9708, 202.2245
255.4529, 204.3085
255.9350, 206.4201
256.4171, 209.0719
256.8992, 212.3506
257.3813, 215.8338
257.8635, 219.3374
258.3456, 222.8397
258.8277, 226.3236
259.3098, 229.5116
259.7919, 232.8069
260.2740, 236.9057
260.7562, 241.9802
261.2383, 247.0969
261.7204, 251.8658
262.2025, 256.3341
262.6846, 260.4925
263.1667, 264.1150
263.6489, 267.6936
264.1310, 272.2408
264.6131, 278.1349
265.0952, 283.3474
265.5773, 286.3149
266.0594, 288.3677
266.5416, 290.6746
267.0237, 293.5630
267.5058, 296.7654
267.9879, 300.1288
268.4700, 303.8054
268.9521, 306.9032
269.4343, 308.7165
269.9164, 310.0270
270.3985, 311.3998
270.8806, 312.9897
271.3627, 314.4708
271.8448, 315.4167
272.3270, 315.7647
272.8091, 315.9184
273.2912, 315.7159
273.7733, 315.4996
274.2554, 315.6788
274.7375, 316.2850
275.2197, 316.6215
275.7018, 315.7706
276.1839, 313.5443
276.6660, 311.3694
277.1481, 309.5706
277.6302, 307.7743
278.1124, 305.9333
278.5945, 303.9812
279.0766, 301.7271
279.5587, 298.9665
280.0408, 295.6696
280.5229, 292.0958
281.0051, 287.8578
281.4872, 283.6881
281.9693, 279.9712
282.4514, 276.6350
282.9335, 273.3253
283.4156, 269.8011
283.8978, 266.0623
284.3799, 262.0843
284.8620, 257.3116
285.3441, 252.8700
285.8262, 249.1597
286.3083, 246.0808
286.7905, 243.4051
287.2726, 241.1104
287.7547, 239.1094
288.2368, 236.5811
288.7189, 233.0263
289.2010, 229.4956
289.6832, 226.3791
290.1653, 223.4690
290.6474, 220.3654
291.1295, 216.8080
291.6116, 212.9851
292.0938, 209.6920
292.5759, 207.1851
293.0580, 204.9239
293.5401, 202.9542
294.0222, 201.0855
294.5043, 199.1461
294.9865, 197.0606
295.4686, 194.8336
295.9507, 192.4355
296.4328, 189.6207
296.9149, 187.0955
297.3970, 184.8094
297.8792, 182.8734
298.3613, 181.4606
298.8434, 180.5984
299.3255, 180.0752
299.8076, 179.6304
300.2897, 179.5588
300.7719, 178.8466
301.2540, 177.0337
301.7361, 174.9748
302.2182, 173.0813
302.7003, 171.4826
303.1824, 170.1765
303.6646, 169.2580
304.1467, 168.9715
304.6288, 168.1776
305.1109, 166.2794
305.5930, 164.4191
306.0751, 163.1309
306.5573, 162.3946
307.0394, 161.9058
307.5215, 161.4326
308.0036, 160.9834
308.4857, 160.3744
308.9678, 159.6494
309.4500, 158.7063
309.9321, 157.2293
310.4142, 155.5059
310.8963, 154.1021
311.3784, 153.4240
311.8605, 153.3778
312.3427, 153.2333
312.8248, 152.8654
313.3069, 152.5392
313.7890, 152.4207
314.2711, 152.3372
314.7532, 152.0353
315.2354, 151.3834
315.7175, 150.5128
316.1996, 149.8192
316.6817, 149.4827
317.1638, 149.0358
317.6459, 148.2935
318.1281, 147.5025
318.6102, 146.9029
319.0923, 146.5650
319.5744, 146.3614
320.0565, 146.0648
320.5386, 145.5604
321.0208, 145.2373
321.5029, 145.4413
321.9850, 145.5564
322.4671, 145.1724
322.9492, 144.2593
323.4313, 143.0763
323.9135, 141.8131
324.3956, 140.3737
324.8777, 139.3636
325.3598, 138.8665
325.8419, 138.7180
326.3240, 138.9210
326.8062, 139.4350
327.2883, 140.2383
327.7704, 141.4525
328.2525, 143.0078
328.7346, 143.7000
329.2167, 143.0121
329.6989, 141.9546
330.1810, 140.3155
330.6631, 138.5731
331.1452, 137.4171
331.6273, 137.2407
332.1094, 137.8054
332.5916, 138.4574
333.0737, 139.6461
333.5558, 140.0901
334.0379, 139.1257
334.5200, 137.6731
335.0021, 136.5378
335.4843, 135.9842
335.9664, 135.8353
336.4485, 135.8871
336.9306, 136.2847
337.4127, 136.4423
337.8948, 136.0821
338.3770, 135.6452
338.8591, 135.3170
339.3412, 135.1490
339.8233, 135.1751
340.3055, 135.5156
340.7876, 136.2200
341.2697, 136.7162
341.7518, 136.7498
342.2339, 136.8128
342.7160, 137.2083
343.1982, 137.7942
343.6803, 138.2275
344.1624, 138.2940
344.6445, 138.0193
345.1266, 137.4609
345.6087, 136.2362
346.0909, 135.3753
346.5730, 135.4082
347.0551, 135.8698
347.5372, 136.1560
348.0193, 135.9920
348.5014, 135.6544
348.9836, 135.6845
349.4657, 136.2137
349.9478, 136.6692
350.4299, 136.9410
350.9120, 137.0584
351.3941, 136.9537
351.8763, 136.6243
352.3584, 136.3159
352.8405, 136.3936
353.3226, 136.8768
353.8047, 136.9861
354.2868, 136.0794
354.7690, 135.3501
355.2511, 135.6854
355.7332, 136.9003
356.2153, 138.1331
356.6974, 138.9651
357.1795, 139.3898
357.6617, 139.3050
358.1438, 138.4958
358.6259, 137.6164
359.1080, 136.9546
359.5901, 136.4855
360.0722, 136.1777
360.5544, 135.9963
361.0365, 135.9999
361.5186, 136.3089
362.0007, 136.9486
362.4828, 137.7141
362.9649, 138.9337
363.4471, 139.9816
363.9292, 140.0000
364.4113, 138.6873
364.8934, 137.3115
365.3755, 136.8649
365.8576, 137.2178
366.3398, 137.6737
366.8219, 138.1194
367.3040, 138.5618
367.7861, 139.0815
368.2682, 139.6618
368.7503, 140.0321
369.2325, 139.8660
369.7146, 139.4868
370.1967, 139.5151
370.6788, 140.0662
371.1609, 140.6313
371.6430, 140.6910
372.1252, 140.4415
372.6073, 140.5405
373.0894, 141.4328
373.5715, 142.4150
374.0536, 142.8508
374.5357, 142.8299
375.0179, 142.9339
375.5000, 143.5288
375.9821, 144.3362
376.4642, 144.6255
376.9463, 144.0241
377.4284, 143.8171
377.9106, 144.8691
378.3927, 146.5408
378.8748, 147.6579
379.3569, 147.8678
379.8390, 147.8020
380.3211, 148.2589
380.8033, 149.3240
381.2854, 150.4705
381.7675, 151.6115
382.2496, 152.8512
382.7317, 154.4523
383.2138, 156.3356
383.6960, 157.9325
384.1781, 158.7531
384.6602, 158.8656
385.1423, 159.3717
385.6244, 160.5148
386.1065, 161.6966
386.5887, 162.6833
387.0708, 163.5778
387.5529, 164.5190
388.0350, 165.5591
388.5171, 166.7946
388.9992, 168.4730
389.4814, 171.5043
389.9635, 173.5227
390.4456, 173.8197
390.9277, 173.5935
391.4098, 173.7402
391.8919, 174.4146
392.3741, 175.3263
392.8562, 176.2009
393.3383, 177.0594
393.8204, 177.7404
394.3025, 178.2109
394.7846, 178.5561
395.2668, 178.6541
395.7489, 178.6646
396.2310, 178.9217
396.7131, 179.6571
397.1952, 180.6410
397.6773, 181.0643
398.1595, 180.6393
398.6416, 180.0897
399.1237, 179.5728
399.6058, 178.9536
400.0879, 178.0525
400.5700, 176.8526
401.0522, 175.5862
401.5343, 174.5005
402.0164, 173.6073
402.4985, 172.8688
402.9806, 172.6560
403.4627, 172.2354
403.9449, 171.1740
404.4270, 169.6379
404.9091, 168.0756
405.3912, 166.7348
405.8733, 165.5806
406.3554, 164.5647
406.8376, 163.7898
407.3197, 162.8727
407.8018, 161.5320
408.2839, 160.0353
408.7660, 158.6586
409.2481, 157.4624
409.7303, 156.3448
410.2124, 155.1321
410.6945, 153.8473
411.1766, 152.8253
411.6587, 152.2425
412.1408, 151.8129
412.6230, 151.3474
413.1051, 150.8305
413.5872, 150.1071
414.0693, 149.0673
414.5514, 147.7976
415.0335, 146.3056
415.5157, 144.5454
415.9978, 143.0849
416.4799, 142.4173
416.9620, 142.3312
417.4441, 142.1091
417.9262, 141.8066
418.4084, 141.2555
418.8905, 140.0473
419.3726, 138.5054
419.8547, 137.5375
420.3368, 137.5204
420.8189, 137.9727
421.3011, 138.1854
421.7832, 138.1749
422.2653, 137.8812
422.7474, 137.0750
423.2295, 136.1330
423.7116, 135.2602
424.1938, 134.5286
424.6759, 134.1135
425.1580, 134.1985
425.6401, 134.7491
426.1222, 135.1306
426.6043, 135.3220
427.0865, 135.3968
427.5686, 135.2959
428.0507, 135.1121
428.5328, 135.0082
429.0149, 135.0409
429.4970, 135.0608
429.9792, 134.7649
430.4613, 133.8177
430.9434, 133.2974
431.4255, 133.4044
431.9076, 133.6787
432.3897, 133.9098
432.8719, 134.0746
433.3540, 134.2199
433.8361, 134.3753
434.3182, 134.5440
434.8003, 134.8037
435.2824, 135.6104
435.7646, 135.7582
436.2467, 134.1832
436.7288, 132.2479
437.2109, 131.5604
437.6930, 132.6351
438.1751, 134.2638
438.6573, 134.8547
439.1394, 134.3112
439.6215, 134.1022
440.1036, 134.7906
440.5857, 135.4415
441.0678, 135.3778
441.5500, 134.7449
442.0321, 134.1281
442.5142, 133.8250
442.9963, 133.7219
443.4784, 133.5641
443.9605, 133.3173
444.4427, 133.3002
444.9248, 133.8432
445.4069, 134.6362
445.8890, 135.1933
446.3711, 135.5721
446.8532, 135.5053
447.3354, 134.2282
447.8175, 132.4685
448.2996, 132.0282
448.7817, 133.4485
449.2638, 135.3035
449.7459, 136.0375
450.2281, 135.5640
450.7102, 135.3132
451.1923, 135.5564
451.6744, 135.8399
452.1565, 135.9562
452.6386, 135.8802
453.1208, 135.5144
453.6029, 134.7545
454.0850, 133.8470
454.5671, 133.4809
455.0492, 134.2404
455.5313, 134.7674
456.0135, 135.0865
456.4956, 135.1426
456.9777, 134.7966
457.4598, 134.0931
457.9419, 133.2736
458.4240, 132.5078
458.9062, 131.7924
459.3883, 131.5689
459.8704, 132.5358
460.3525, 133.2192
460.8346, 133.0953
461.3167, 132.5844
461.7989, 132.2337
462.2810, 132.2517
462.7631, 132.4301
463.2452, 132.4410
463.7273, 132.2497
464.2094, 132.0963
464.6916, 132.0711
465.1737, 132.0302
465.6558, 131.9237
466.1379, 131.7365
466.6200, 131.4306
467.1021, 130.9417
467.5843, 130.3390
468.0664, 129.7505
468.5485, 129.1709
469.0306, 128.6211
469.5127, 128.0480
469.9948, 127.5569
470.4770, 127.3342
470.9591, 127.4602
471.4412, 127.5772
471.9233, 127.5444
472.4054, 127.3736
472.8875, 127.0133
473.3697, 126.4382
473.8518, 125.9525
474.3339, 125.9255
474.8160, 126.3398
475.2981, 126.2821
475.7802, 125.3133
476.2624, 124.3488
476.7445, 123.7837
477.2266, 123.5125
477.7087, 123.2901
478.1908, 123.0141
478.6729, 122.8320
479.1551, 123.0703
479.6372, 124.2416
480.1193, 124.5862
480.6014, 123.4879
481.0835, 122.2324
481.5656, 121.5355
482.0478, 121.3098
482.5299, 121.1069
483.0120, 120.6258
483.4941, 119.9587
483.9762, 119.4596
484.4583, 119.1450
484.9405, 118.9774
485.4226, 119.0495
485.9047, 119.1848
486.3868, 119.3278
486.8689, 119.4403
487.3510, 119.3445
487.8332, 118.7395
488.3153, 117.7608
488.7974, 117.1024
489.2795, 116.9302
489.7616, 116.7309
490.2437, 115.8960
490.7259, 114.8998
491.2080, 114.5776
491.6901, 115.4566
492.1722, 116.2816
492.6543, 115.8760
493.1364, 114.6802
493.6186, 114.0655
494.1007, 114.4749
494.5828, 115.1074
495.0649, 115.0064
495.5470, 114.0812
496.0291, 113.3962
496.5113, 113.1156
496.9934, 112.9594
497.4755, 112.6685
497.9576, 112.3705
498.4397, 112.5175
498.9218, 113.3626
499.4040, 114.4128
499.8861, 114.5065
500.3682, 112.7807
500.8503, 111.6766
501.3324, 111.5958
501.8145, 111.7124
502.2967, 111.5336
502.7788, 111.0846
503.2609, 110.6361
503.7430, 110.3651
504.2251, 110.2497
504.7072, 110.2232
505.1894, 110.3383
505.6715, 110.4215
506.1536, 110.5614
506.6357, 110.5668
507.1178, 110.2074
507.5999, 109.4758
508.0821, 108.7117
508.5642, 108.0215
509.0463, 107.4953
509.5284, 107.5172
510.0105, 108.2471
510.4926, 108.9145
510.9748, 109.0114
511.4569, 108.7085
511.9390, 108.4351
512.4211, 108.2479
512.9032, 108.0284
513.3853, 107.7791
513.8674, 107.4425
514.3495, 106.8585
514.8317, 105.9874
515.3138, 105.0957
515.7959, 104.4323
516.2780, 103.9998
516.7601, 103.7870
517.2422, 103.9595
517.7244, 104.1270
518.2065, 104.2441
518.6886, 104.2461
519.1707, 104.0077
519.6528, 103.4973
520.1349, 102.8847
520.6171, 102.4169
521.0992, 102.1027
521.5813, 101.9020
522.0634, 102.0142
522.5455, 102.0428
523.0276, 101.7261
523.5098, 101.2397
523.9919, 100.9193
524.4740, 100.9236
524.9561, 101.1187
525.4382, 101.4094
525.9203, 101.8001
526.4025, 101.8867
526.8846, 101.4293
527.3667, 100.8281
527.8488, 100.3765
528.3309, 100.0837
528.8130, 100.0627
529.2952, 100.8760
529.7773, 101.5713
530.2594, 101.0396
530.7415, 99.52384
531.2236, 98.18547
531.7057, 97.54475
532.1879, 97.32974
532.6700, 97.02242
533.1521, 96.51463
533.6342, 96.16726
534.1163, 95.85924
534.5984, 95.82327
535.0806, 96.63204
535.5627, 97.87683
536.0448, 98.37859
536.5269, 97.33669
537.0090, 95.35316
537.4911, 94.31371
537.9733, 94.72332
538.4554, 94.95512
538.9375, 94.64774
539.4196, 94.25500
539.9017, 94.08094
540.3839, 94.09432
540.8660, 94.04533
541.3481, 93.72966
541.8302, 93.26846
542.3123, 92.92374
542.7944, 92.70224
543.2766, 92.54105
543.7587, 92.39111
544.2408, 92.31937
544.7229, 92.47337
545.2050, 92.89919
545.6871, 93.14494
546.1693, 93.03457
546.6514, 92.67995
547.1335, 92.02332
547.6156, 91.16153
548.0977, 90.62454
548.5798, 90.79221
549.0620, 91.42648
549.5441, 91.72298
550.0262, 91.19798
550.5083, 90.97408
550.9904, 91.43095
551.4725, 91.90456
551.9547, 91.85428
552.4368, 91.31941
552.9189, 90.66430
553.4010, 90.12095
553.8831, 89.71575
554.3652, 89.63643
554.8474, 90.12498
555.3295, 90.32927
555.8116, 89.62554
556.2937, 88.84035
556.7758, 88.67342
557.2579, 89.11784
557.7401, 89.46118
558.2222, 89.13866
558.7043, 88.50632
559.1864, 88.22534
559.6685, 88.31597
560.1506, 88.33798
560.6328, 88.07347
561.1149, 87.61548
561.5970, 87.10312
562.0791, 86.42383
562.5612, 86.04348
563.0433, 86.12276
563.5255, 86.47580
564.0076, 87.23360
564.4897, 88.18064
564.9718, 88.56644
565.4539, 87.84266
565.9360, 86.43396
566.4182, 85.82079
566.9003, 86.61639
567.3824, 87.05059
567.8645, 86.71494
568.3466, 86.26894
568.8287, 86.10432
569.3109, 86.21064
569.7930, 86.42460
570.2751, 86.78225
570.7572, 87.04138
571.2393, 86.41444
571.7214, 84.77031
572.2036, 83.90134
572.6857, 84.79858
573.1678, 86.26347
573.6499, 86.89712
574.1320, 86.72504
574.6141, 86.42057
575.0963, 85.99625
575.5784, 85.64734
576.0605, 85.70360
576.5426, 86.00670
577.0247, 85.91831
577.5068, 85.09581
577.9890, 84.08655
578.4711, 83.97672
578.9532, 85.37732
579.4353, 86.12056
579.9174, 85.76594
580.3995, 85.28338
580.8817, 85.02726
581.3638, 85.01013
581.8459, 85.22366
582.3280, 85.68806
582.8101, 86.18592
583.2922, 86.37288
583.7744, 86.23705
584.2565, 85.91235
584.7386, 85.19627
585.2207, 84.60343
585.7029, 84.59371
586.1850, 84.97719
586.6671, 85.29065
587.1492, 85.50410
587.6313, 85.50832
588.1135, 85.05203
588.5956, 84.34269
