##NAMES=Corvusite
##RRUFFID=R060265
##IDEAL CHEMISTRY=(Na,Ca,K)_1-x_(V^5+^,V^4+^,Fe^2+^)_8_O_20_&#183;4H_2_O
##LOCALITY=Monument no. 2 mine, Monument Valley, Apache County, Arizona, USA
##OWNER=RRUFF
##SOURCE=Michael Scott
##DESCRIPTION=Dark brown lathlike bladed crystals in parallel
##STATUS=The identification of this mineral is not yet confirmed.
##URL=rruff.info/R060265
90.49219, 9.620485
90.97430, 9.523741
91.45642, 9.489657
91.93854, 9.739953
92.42065, 9.986585
92.90277, 9.733251
93.38489, 8.877073
93.86700, 7.844549
94.34912, 7.111271
94.83124, 6.648850
95.31335, 6.318017
95.79547, 6.115222
96.27759, 5.998275
96.75970, 5.787805
97.24182, 5.464484
97.72394, 5.034388
98.20605, 4.371404
98.68817, 3.418560
99.17029, 2.685894
99.65240, 2.780395
100.1345, 3.784632
100.6166, 4.329405
101.0988, 3.881042
101.5809, 2.651245
102.0630, 2.574455
102.5451, 4.081924
103.0272, 5.973717
103.5093, 6.854064
103.9915, 6.292161
104.4736, 5.821830
104.9557, 5.950171
105.4378, 6.872189
105.9199, 7.282122
106.4020, 6.994861
106.8842, 6.289641
107.3663, 5.635267
107.8484, 5.066499
108.3305, 4.513707
108.8126, 3.917419
109.2947, 2.894163
109.7769, 2.467488
110.2590, 3.029194
110.7411, 4.257993
111.2232, 5.139915
111.7053, 5.602190
112.1874, 5.755516
112.6696, 5.643825
113.1517, 4.759131
113.6338, 4.160944
114.1159, 4.112153
114.5980, 4.542831
115.0801, 4.949369
115.5623, 5.564883
116.0444, 5.941336
116.5265, 5.733653
117.0086, 3.592495
117.4907, 1.952156
117.9728, 2.113294
118.4550, 4.164825
118.9371, 5.932700
119.4192, 6.399540
119.9013, 6.039534
120.3834, 5.447189
120.8655, 4.244633
121.3477, 3.288016
121.8298, 3.442915
122.3119, 4.988572
122.7940, 6.434388
123.2761, 6.586795
123.7582, 5.834910
124.2404, 5.045352
124.7225, 4.686442
125.2046, 4.543146
125.6867, 4.335111
126.1688, 3.974627
126.6509, 3.652580
127.1331, 3.661086
127.6152, 3.934994
128.0973, 4.150493
128.5794, 3.945952
129.0615, 3.514319
129.5436, 3.305110
130.0258, 3.404087
130.5079, 3.783368
130.9900, 4.407499
131.4721, 5.271042
131.9542, 6.364763
132.4363, 7.765131
132.9185, 9.433282
133.4006, 11.10985
133.8827, 12.78044
134.3648, 14.38645
134.8469, 15.76011
135.3290, 16.84455
135.8112, 17.95184
136.2933, 19.24278
136.7754, 20.68570
137.2575, 22.86962
137.7396, 26.27206
138.2217, 30.79397
138.7039, 35.02831
139.1860, 39.09883
139.6681, 42.69234
140.1502, 45.10931
140.6323, 45.83780
141.1144, 47.01860
141.5966, 49.68526
142.0787, 54.28759
142.5608, 58.35424
143.0429, 61.94690
143.5250, 64.96761
144.0071, 66.97633
144.4893, 67.19891
144.9714, 67.63932
145.4535, 69.22671
145.9356, 72.55472
146.4177, 75.90632
146.8998, 79.42578
147.3820, 82.98139
147.8641, 86.14201
148.3462, 88.40458
148.8283, 90.70531
149.3104, 93.56409
149.7925, 97.07499
150.2747, 101.0152
150.7568, 105.5693
151.2389, 110.6630
151.7210, 115.3854
152.2031, 119.8167
152.6852, 123.7860
153.1674, 127.2339
153.6495, 129.7337
154.1316, 132.1164
154.6137, 134.6335
155.0958, 137.2980
155.5779, 139.4081
156.0601, 140.7612
156.5422, 141.5853
157.0243, 142.0560
157.5064, 141.9202
157.9885, 141.6987
158.4706, 141.5053
158.9528, 141.3428
159.4349, 141.2516
159.9170, 141.0938
160.3991, 141.0564
160.8812, 141.3551
161.3633, 142.5051
161.8455, 143.6417
162.3276, 144.3121
162.8097, 144.3530
163.2918, 144.4939
163.7739, 145.0976
164.2560, 145.8173
164.7382, 145.4588
165.2203, 144.3272
165.7024, 143.4121
166.1845, 143.2733
166.6666, 144.2582
167.1487, 145.0700
167.6309, 144.8859
168.1130, 144.0218
168.5951, 143.1440
169.0772, 142.3932
169.5593, 141.8461
170.0414, 141.7001
170.5236, 142.2898
171.0057, 142.5744
171.4878, 141.4117
171.9699, 139.2352
172.4520, 137.3856
172.9341, 136.7374
173.4163, 136.7615
173.8984, 136.9214
174.3805, 137.3201
174.8626, 137.4580
175.3447, 136.8815
175.8268, 135.6410
176.3090, 133.9411
176.7911, 131.2701
177.2732, 128.3538
177.7553, 126.4352
178.2374, 126.0863
178.7195, 126.5541
179.2017, 127.0692
179.6838, 127.6189
180.1659, 128.0294
180.6480, 128.1662
181.1301, 128.0684
181.6122, 127.8186
182.0944, 127.3798
182.5765, 126.8477
183.0586, 126.2585
183.5407, 125.6237
184.0228, 125.2424
184.5049, 125.7784
184.9871, 126.9041
185.4692, 127.3833
185.9513, 126.4770
186.4334, 124.8120
186.9155, 123.8830
187.3976, 123.7373
187.8798, 123.8169
188.3619, 123.5326
188.8440, 122.9445
189.3261, 122.4600
189.8082, 122.2883
190.2903, 122.3215
190.7725, 122.1181
191.2546, 121.6320
191.7367, 121.1386
192.2188, 121.0820
192.7009, 121.4270
193.1830, 121.4994
193.6652, 120.8395
194.1473, 119.6160
194.6294, 119.0159
195.1115, 119.1549
195.5936, 119.5249
196.0757, 119.4936
196.5579, 119.0552
197.0400, 118.4218
197.5221, 117.4389
198.0042, 116.1732
198.4863, 115.7624
198.9684, 116.3941
199.4506, 117.4732
199.9327, 118.1418
200.4148, 118.3760
200.8969, 118.4713
201.3790, 118.5810
201.8611, 118.7133
202.3433, 118.4804
202.8254, 117.6883
203.3075, 116.8339
203.7896, 116.9360
204.2717, 118.2097
204.7538, 119.3310
205.2360, 119.7532
205.7181, 119.4362
206.2002, 118.6815
206.6823, 117.2375
207.1644, 115.6559
207.6465, 115.0996
208.1287, 115.8636
208.6108, 116.6324
209.0929, 116.7280
209.5750, 115.9488
210.0571, 115.6316
210.5392, 115.9130
211.0214, 116.5375
211.5035, 116.9475
211.9856, 117.0326
212.4677, 117.2034
212.9498, 117.7204
213.4319, 118.7323
213.9140, 119.4547
214.3962, 119.8800
214.8783, 120.0133
215.3604, 119.8133
215.8425, 119.1468
216.3246, 118.4386
216.8067, 117.8252
217.2889, 117.2428
217.7710, 116.9926
218.2531, 117.1373
218.7352, 117.5820
219.2173, 118.1316
219.6994, 118.8472
220.1816, 119.5516
220.6637, 120.1670
221.1458, 120.6524
221.6279, 121.2101
222.1100, 122.0259
222.5921, 122.8510
223.0743, 122.9663
223.5564, 121.9883
224.0385, 120.9802
224.5206, 120.4851
225.0027, 120.7472
225.4848, 120.8417
225.9670, 120.6834
226.4491, 120.3753
226.9312, 120.1510
227.4133, 119.9205
227.8954, 119.9232
228.3775, 120.3894
228.8597, 121.8407
229.3418, 122.4292
229.8239, 121.7374
230.3060, 120.2715
230.7881, 119.4633
231.2702, 119.5342
231.7524, 119.9076
232.2345, 120.3665
232.7166, 121.0598
233.1987, 121.4808
233.6808, 121.4705
234.1629, 121.2272
234.6451, 121.3029
235.1272, 121.8834
235.6093, 122.5110
236.0914, 123.0155
236.5735, 123.4706
237.0556, 123.6190
237.5378, 123.2751
238.0199, 122.6844
238.5020, 122.4730
238.9841, 122.7846
239.4662, 123.2636
239.9483, 123.8053
240.4305, 124.5541
240.9126, 124.9903
241.3947, 124.9319
241.8768, 124.6155
242.3589, 124.6671
242.8410, 125.3934
243.3232, 126.0109
243.8053, 126.1083
244.2874, 125.2484
244.7695, 124.9374
245.2516, 125.3272
245.7337, 126.2005
246.2159, 127.0606
246.6980, 127.7698
247.1801, 128.6936
247.6622, 130.1844
248.1443, 132.9559
248.6264, 134.1565
249.1086, 132.8866
249.5907, 130.4971
250.0728, 129.8859
250.5549, 132.0375
251.0370, 134.3082
251.5191, 135.6563
252.0013, 135.7109
252.4834, 136.0604
252.9655, 136.8731
253.4476, 137.8724
253.9297, 138.5132
254.4118, 138.5855
254.8940, 138.6739
255.3761, 138.9837
255.8582, 139.5596
256.3403, 140.2342
256.8224, 141.2077
257.3046, 142.1300
257.7867, 142.2874
258.2688, 141.2083
258.7509, 140.3670
259.2330, 140.2916
259.7151, 141.1015
260.1973, 142.0273
260.6794, 143.2265
261.1615, 144.3743
261.6436, 144.8776
262.1257, 144.4198
262.6078, 144.1127
263.0900, 144.4312
263.5721, 145.5059
264.0542, 145.8671
264.5363, 145.2220
265.0184, 144.2145
265.5005, 143.6909
265.9827, 143.8447
266.4648, 143.9280
266.9469, 143.7358
267.4290, 143.2653
267.9111, 142.7104
268.3932, 142.0954
268.8754, 141.3620
269.3575, 140.3861
269.8396, 139.0519
270.3217, 137.8707
270.8038, 136.9892
271.2859, 136.3886
271.7681, 135.8153
272.2502, 135.2387
272.7323, 134.7549
273.2144, 134.5794
273.6965, 134.8278
274.1786, 134.7472
274.6608, 134.0958
275.1429, 132.9587
275.6250, 131.8605
276.1071, 130.7292
276.5892, 129.8445
277.0714, 129.6100
277.5535, 130.1120
278.0356, 130.4710
278.5177, 130.5739
278.9998, 130.4011
279.4819, 129.7276
279.9641, 128.4106
280.4462, 127.1670
280.9283, 126.6468
281.4104, 126.8794
281.8925, 127.0941
282.3746, 127.2682
282.8568, 127.2794
283.3389, 126.5471
283.8210, 124.9433
284.3031, 123.5771
284.7852, 123.3638
285.2673, 124.2409
285.7495, 125.0910
286.2316, 125.7805
286.7137, 126.3701
287.1958, 127.2087
287.6779, 128.3221
288.1600, 128.8225
288.6422, 127.4275
289.1243, 124.5582
289.6064, 123.6100
290.0885, 125.2894
290.5706, 127.8438
291.0527, 128.3772
291.5349, 127.0020
292.0170, 125.3421
292.4991, 124.1854
292.9812, 123.4508
293.4633, 122.8943
293.9454, 122.5014
294.4276, 122.2791
294.9097, 122.3387
295.3918, 122.6253
295.8739, 122.8472
296.3560, 122.8740
296.8381, 122.7325
297.3203, 122.4299
297.8024, 121.9484
298.2845, 121.4786
298.7666, 121.3053
299.2487, 121.3266
299.7308, 121.2229
300.2130, 120.6196
300.6951, 119.9024
301.1772, 119.7898
301.6593, 120.2797
302.1414, 120.8540
302.6235, 121.1778
303.1057, 121.2533
303.5878, 121.0578
304.0699, 120.3459
304.5520, 119.5511
305.0341, 119.1171
305.5162, 119.0374
305.9984, 119.2574
306.4805, 120.1515
306.9626, 121.2144
307.4447, 121.6978
307.9268, 121.1920
308.4089, 120.3280
308.8911, 119.4301
309.3732, 118.5695
309.8553, 118.0431
310.3374, 118.3432
310.8195, 118.9154
311.3016, 119.1800
311.7838, 118.8948
312.2659, 118.5468
312.7480, 118.4366
313.2301, 118.5091
313.7122, 118.6217
314.1943, 118.7984
314.6765, 118.9373
315.1586, 118.9633
315.6407, 118.8532
316.1228, 118.6789
316.6049, 118.4359
317.0870, 118.1555
317.5692, 117.8926
318.0513, 117.7397
318.5334, 117.5443
319.0155, 117.1399
319.4976, 116.4439
319.9797, 116.0186
320.4619, 116.3075
320.9440, 116.8712
321.4261, 117.2143
321.9082, 117.3147
322.3903, 117.0876
322.8724, 116.2730
323.3546, 114.8550
323.8367, 113.8822
324.3188, 113.7626
324.8009, 114.0496
325.2830, 114.4018
325.7651, 114.8621
326.2473, 115.2971
326.7294, 115.7154
327.2115, 116.1093
327.6936, 116.4099
328.1757, 116.7104
328.6578, 116.8441
329.1400, 116.7214
329.6221, 115.9780
330.1042, 115.4752
330.5863, 115.3521
331.0684, 115.4748
331.5505, 115.4516
332.0327, 115.1871
332.5148, 114.8876
332.9969, 114.6909
333.4790, 114.8390
333.9611, 114.3606
334.4432, 112.7190
334.9254, 110.7559
335.4075, 109.9746
335.8896, 110.8131
336.3717, 111.9578
336.8538, 113.1751
337.3359, 114.5538
337.8180, 115.0713
338.3001, 114.4672
338.7823, 113.4053
339.2644, 112.5612
339.7465, 111.8973
340.2286, 111.6169
340.7107, 111.9051
341.1928, 112.6508
341.6750, 113.0504
342.1571, 113.0770
342.6392, 112.8814
343.1213, 112.4503
343.6034, 111.7780
344.0855, 111.4816
344.5677, 111.8038
345.0498, 112.4151
345.5319, 112.4111
346.0140, 111.7690
346.4961, 111.1575
346.9782, 111.0516
347.4604, 111.3619
347.9425, 111.6961
348.4246, 112.0570
348.9067, 112.3311
349.3888, 112.3801
349.8709, 112.2087
350.3531, 111.8369
350.8352, 110.8726
351.3173, 109.8054
351.7994, 109.7960
352.2815, 110.9644
352.7636, 112.2103
353.2458, 112.2924
353.7279, 111.6604
354.2100, 111.2884
354.6921, 111.7213
355.1742, 112.4694
355.6563, 113.1599
356.1385, 113.7680
356.6206, 114.0886
357.1027, 113.8148
357.5848, 113.2341
358.0669, 112.6765
358.5490, 112.2263
359.0312, 111.8233
359.5133, 111.3371
359.9954, 110.8456
360.4775, 110.5824
360.9596, 110.7642
361.4417, 111.1438
361.9239, 111.6810
362.4060, 112.6164
362.8881, 112.9731
363.3702, 111.6366
363.8523, 109.6318
364.3344, 108.5304
364.8166, 109.6598
365.2987, 110.9816
365.7808, 111.6967
366.2629, 111.7015
366.7450, 111.7079
367.2271, 111.9943
367.7093, 112.2509
368.1914, 112.2056
368.6735, 111.3458
369.1556, 110.7262
369.6377, 110.5947
370.1198, 110.8894
370.6020, 111.0936
371.0841, 111.0413
371.5662, 111.0535
372.0483, 111.3201
372.5304, 112.0695
373.0125, 112.6602
373.4947, 113.1351
373.9768, 113.4196
374.4589, 113.2980
374.9410, 112.6012
375.4231, 111.8327
375.9052, 111.0456
376.3874, 110.1432
376.8695, 110.0998
377.3516, 111.2102
377.8337, 112.6840
378.3158, 113.6015
378.7979, 113.9316
379.2801, 113.9223
379.7622, 113.5139
380.2443, 112.8343
380.7264, 112.3938
381.2085, 112.1857
381.6906, 112.2860
382.1728, 113.0828
382.6549, 114.3966
383.1370, 114.9349
383.6191, 114.2558
384.1012, 113.1170
384.5833, 112.7381
385.0655, 113.0608
385.5476, 113.6142
386.0297, 114.3247
386.5118, 115.0367
386.9939, 115.4066
387.4760, 115.3576
387.9582, 115.2964
388.4403, 115.5340
388.9224, 116.0482
389.4045, 116.7827
389.8866, 118.3873
390.3687, 119.7459
390.8509, 119.4969
391.3330, 117.7968
391.8151, 116.4099
392.2972, 116.5843
392.7793, 117.4929
393.2614, 118.3653
393.7436, 119.0582
394.2257, 119.5876
394.7078, 119.8504
395.1899, 119.9388
395.6720, 120.0944
396.1541, 120.5946
396.6363, 121.0212
397.1184, 121.1013
397.6005, 120.6077
398.0826, 120.4020
398.5647, 120.8635
399.0468, 121.5966
399.5290, 122.1218
400.0111, 122.4603
400.4932, 122.5248
400.9753, 122.1812
401.4574, 121.4296
401.9395, 120.8868
402.4217, 120.6142
402.9038, 120.4776
403.3859, 120.3720
403.8680, 120.2106
404.3501, 120.2952
404.8322, 120.6952
405.3144, 121.3297
405.7965, 122.0890
406.2786, 123.1485
406.7607, 123.7641
407.2428, 123.3669
407.7249, 121.9063
408.2071, 121.1736
408.6892, 121.3363
409.1713, 121.7173
409.6534, 121.2344
410.1355, 119.9601
410.6176, 119.3347
411.0998, 119.9942
411.5819, 121.4314
412.0640, 122.5857
412.5461, 123.4442
413.0282, 123.9199
413.5103, 123.8974
413.9925, 123.4437
414.4746, 122.5651
414.9567, 121.0790
415.4388, 119.7132
415.9209, 119.3710
416.4030, 119.7463
416.8852, 120.0693
417.3673, 120.0181
417.8494, 119.7090
418.3315, 119.0865
418.8136, 118.1471
419.2957, 117.4423
419.7779, 117.5133
420.2600, 117.8808
420.7421, 118.0649
421.2242, 118.0111
421.7063, 117.6680
422.1884, 116.7077
422.6706, 115.3690
423.1527, 114.5163
423.6348, 114.8109
424.1169, 115.2758
424.5990, 115.4478
425.0811, 115.0818
425.5633, 114.9121
426.0454, 115.3239
426.5275, 115.7964
427.0096, 115.6232
427.4917, 114.1690
427.9738, 113.0411
428.4560, 112.6634
428.9381, 112.9940
429.4202, 113.1454
429.9023, 113.0649
430.3844, 112.8985
430.8665, 112.7591
431.3487, 112.6646
431.8308, 112.4701
432.3129, 112.1327
432.7950, 111.7272
433.2771, 111.4059
433.7592, 111.1720
434.2414, 110.9896
434.7235, 110.9689
435.2056, 111.0023
435.6877, 110.4366
436.1698, 109.2038
436.6519, 108.2195
437.1341, 108.8029
437.6162, 110.3782
438.0983, 111.4317
438.5804, 111.3966
439.0625, 110.8949
439.5446, 110.5006
440.0268, 110.2145
440.5089, 110.0370
440.9910, 110.2253
441.4731, 110.3738
441.9552, 109.9775
442.4373, 108.8413
442.9195, 107.9773
443.4016, 108.1814
443.8837, 108.8579
444.3658, 109.2824
444.8479, 109.0452
445.3300, 108.7217
445.8122, 108.4764
446.2943, 108.3055
446.7764, 108.1169
447.2585, 107.5725
447.7406, 107.2561
448.2227, 107.5245
448.7049, 108.9551
449.1870, 109.8321
449.6691, 109.7992
450.1512, 109.3855
450.6333, 109.4426
451.1154, 110.1813
451.5976, 110.9476
452.0797, 111.6153
452.5618, 112.1792
453.0439, 112.5101
453.5260, 112.5928
454.0081, 112.4744
454.4903, 112.0778
454.9724, 111.4132
455.4545, 110.9919
455.9366, 110.9163
456.4187, 111.0311
456.9008, 111.1581
457.3830, 111.2791
457.8651, 111.2467
458.3472, 110.6466
458.8293, 109.9546
459.3114, 110.1857
459.7935, 111.3359
460.2757, 112.5663
460.7578, 113.0168
461.2399, 113.1772
461.7220, 113.8069
462.2041, 115.5406
462.6862, 117.0493
463.1684, 117.1354
463.6505, 116.3321
464.1326, 115.8711
464.6147, 116.5450
465.0968, 117.4385
465.5789, 118.1824
466.0611, 118.7763
466.5432, 118.9773
467.0253, 118.3738
467.5074, 117.5455
467.9895, 116.9790
468.4716, 116.8622
468.9538, 116.7906
469.4359, 116.6801
469.9180, 116.5984
470.4001, 116.7932
470.8822, 117.4121
471.3643, 118.0503
471.8465, 118.5766
472.3286, 118.9997
472.8107, 119.1689
473.2928, 118.9649
473.7749, 118.7983
474.2570, 119.2489
474.7392, 120.3113
475.2213, 121.1571
475.7034, 121.5706
476.1855, 121.7105
476.6676, 121.8834
477.1497, 122.0823
477.6319, 122.2383
478.1140, 122.1482
478.5961, 122.0381
479.0782, 122.4434
479.5603, 123.4471
480.0424, 124.2616
480.5246, 123.9461
481.0067, 123.1185
481.4888, 122.6564
481.9709, 122.9994
482.4530, 123.5877
482.9352, 124.3840
483.4173, 125.2384
483.8994, 125.6785
484.3815, 124.6494
484.8636, 123.9035
485.3457, 124.5366
485.8279, 127.2108
486.3100, 129.0219
486.7921, 129.3262
487.2742, 128.8769
487.7563, 128.2608
488.2384, 127.0746
488.7206, 126.4504
489.2027, 126.7548
489.6848, 127.6727
490.1669, 128.0033
490.6490, 127.5194
491.1311, 127.1369
491.6133, 127.4733
492.0954, 128.5103
492.5775, 128.7029
493.0596, 127.8383
493.5417, 127.0320
494.0238, 127.8947
494.5060, 130.0110
494.9881, 131.3412
495.4702, 131.0415
495.9523, 130.2418
496.4344, 130.6095
496.9165, 131.8932
497.3987, 133.1451
497.8808, 133.9644
498.3629, 134.4337
498.8450, 134.4601
499.3271, 134.0089
499.8092, 133.8249
500.2914, 134.6162
500.7735, 135.7099
501.2556, 136.4865
501.7377, 136.5556
502.2198, 136.5645
502.7019, 136.5709
503.1841, 136.6132
503.6662, 136.7976
504.1483, 137.4360
504.6304, 137.8896
505.1125, 137.8144
505.5946, 137.1143
506.0768, 137.2010
506.5589, 138.5309
507.0410, 139.9733
507.5231, 140.5759
508.0052, 140.2278
508.4873, 139.7076
508.9695, 138.9586
509.4516, 138.3090
509.9337, 138.5919
510.4158, 139.7496
510.8979, 140.6887
511.3800, 140.7741
511.8622, 140.3669
512.3443, 140.3602
512.8264, 140.7254
513.3085, 140.9474
513.7906, 140.5096
514.2728, 139.7407
514.7549, 139.0706
515.2370, 138.6077
515.7191, 138.1691
516.2012, 137.5625
516.6833, 136.9253
517.1655, 136.4582
517.6476, 136.4156
518.1297, 136.3681
518.6118, 136.2016
519.0939, 135.9120
519.5760, 135.4925
520.0582, 134.8102
520.5403, 134.1130
521.0224, 133.5213
521.5045, 133.0893
521.9866, 132.5536
522.4688, 131.7273
522.9509, 131.0011
523.4330, 130.9989
523.9151, 131.9233
524.3972, 132.4149
524.8793, 132.0555
525.3615, 131.1864
525.8436, 130.7524
526.3257, 130.7436
526.8078, 130.6294
527.2899, 129.7776
527.7720, 128.6474
528.2542, 128.4543
528.7363, 129.2769
529.2184, 130.1619
529.7005, 130.5622
530.1826, 130.4467
530.6647, 129.6657
531.1469, 127.6420
531.6290, 125.8530
532.1111, 125.3792
532.5932, 125.7232
533.0753, 125.8709
533.5574, 125.1801
534.0396, 124.5764
534.5217, 124.4289
535.0038, 124.7801
535.4859, 125.0739
535.9680, 125.5347
536.4501, 125.6982
536.9323, 125.1998
537.4144, 123.5928
537.8965, 122.6138
538.3786, 122.5089
538.8607, 122.7482
539.3428, 122.5100
539.8250, 121.7542
540.3071, 121.0503
540.7892, 120.5831
541.2713, 120.2617
541.7534, 119.8150
542.2355, 119.2711
542.7177, 118.9234
543.1998, 119.2182
543.6819, 119.7295
544.1640, 119.7301
544.6461, 119.1459
545.1282, 118.5244
545.6104, 118.1964
546.0925, 118.0680
546.5746, 118.0456
547.0567, 118.2396
547.5388, 118.3443
548.0209, 118.2173
548.5031, 117.9290
548.9852, 117.6333
549.4673, 117.1631
549.9494, 116.8909
550.4315, 116.9404
550.9136, 117.3106
551.3958, 117.7611
551.8779, 118.4441
552.3600, 118.9523
552.8421, 118.9812
553.3242, 118.4795
553.8063, 117.9185
554.2885, 117.2321
554.7706, 116.7238
555.2527, 117.0966
555.7348, 118.1545
556.2169, 118.5746
556.6990, 117.5192
557.1812, 116.2011
557.6633, 116.6755
558.1454, 118.4870
558.6275, 119.9269
559.1096, 119.4135
559.5917, 118.5328
560.0739, 118.7813
560.5560, 120.2830
561.0381, 121.3959
561.5202, 121.1187
562.0023, 120.3899
562.4844, 119.8816
562.9666, 119.5476
563.4487, 119.6767
563.9308, 120.6313
564.4129, 121.8904
564.8950, 122.6425
565.3771, 122.6787
565.8593, 122.6416
566.3414, 122.5892
566.8235, 122.5809
567.3056, 123.0186
567.7877, 123.9854
568.2698, 124.7675
568.7520, 124.7864
569.2341, 124.2552
569.7162, 123.9848
570.1983, 124.0090
570.6804, 124.1760
571.1625, 124.5697
571.6447, 124.9564
572.1268, 124.8838
572.6089, 123.9785
573.0910, 123.1750
573.5731, 123.1991
574.0552, 123.7134
574.5374, 124.1285
575.0195, 124.2103
575.5016, 124.2074
575.9837, 124.2027
576.4658, 124.1930
576.9479, 124.0989
577.4301, 123.7803
577.9122, 123.5467
578.3943, 123.5888
578.8764, 124.0087
579.3585, 124.0721
579.8406, 123.6384
580.3228, 123.1606
580.8049, 123.1939
581.2870, 123.7008
581.7691, 124.0301
582.2512, 124.0608
582.7333, 123.8842
583.2155, 123.4971
583.6975, 122.9942
584.1796, 122.6582
584.6617, 123.0410
585.1439, 123.3443
585.6260, 122.5246
586.1081, 120.8450
586.5902, 119.6421
587.0723, 119.9365
587.5544, 120.5782
