##NAMES=Corvusite
##RRUFFID=R060265
##IDEAL CHEMISTRY=(Na,Ca,K)_1-x_(V^5+^,V^4+^,Fe^2+^)_8_O_20_&#183;4H_2_O
##LOCALITY=Monument no. 2 mine, Monument Valley, Apache County, Arizona, USA
##OWNER=RRUFF
##SOURCE=Michael Scott
##DESCRIPTION=Dark brown lathlike bladed crystals in parallel
##STATUS=The identification of this mineral is not yet confirmed.
##URL=rruff.info/R060265
93.15802, 0.0000000E+00
93.64014, 67.38086
94.12225, 43.99609
94.60437, 28.70898
95.08649, 126.0781
95.56860, 226.8906
96.05072, 281.6816
96.53284, 437.0635
97.01495, 362.4570
97.49707, 271.4648
97.97919, 191.2021
98.46130, 116.1689
98.94342, 30.38086
99.42554, 61.97461
99.90765, 81.28711
100.3898, 12.50977
100.8719, 93.03516
101.3540, 161.4824
101.8361, 186.1582
102.3182, 205.1719
102.8004, 224.4375
103.2825, 229.2344
103.7646, 294.2324
104.2467, 433.0977
104.7288, 622.2031
105.2109, 801.7012
105.6931, 942.8770
106.1752, 1118.615
106.6573, 1367.479
107.1394, 1740.576
107.6215, 2097.023
108.1036, 2464.248
108.5858, 2826.006
109.0679, 3079.492
109.5500, 3132.879
110.0321, 3151.123
110.5142, 3221.355
110.9963, 3366.740
111.4785, 3537.027
111.9606, 3737.916
112.4427, 3967.924
112.9248, 4184.854
113.4069, 4370.180
113.8890, 4546.535
114.3712, 4734.732
114.8533, 4923.436
115.3354, 5136.885
115.8175, 5405.439
116.2996, 5742.375
116.7817, 6028.227
117.2639, 6186.580
117.7460, 6282.338
118.2281, 6397.615
118.7102, 6600.320
119.1923, 6805.490
119.6744, 6947.895
120.1566, 7005.076
120.6387, 7072.518
121.1208, 7212.316
121.6029, 7403.898
122.0850, 7605.184
122.5671, 7773.107
123.0493, 7948.488
123.5314, 8188.840
124.0135, 8532.529
124.4956, 8868.521
124.9777, 9069.986
125.4598, 9162.840
125.9420, 9242.490
126.4241, 9362.625
126.9062, 9512.176
127.3883, 9669.119
127.8704, 9821.865
128.3525, 9988.730
128.8347, 10203.59
129.3168, 10465.82
129.7989, 10742.70
130.2810, 11017.79
130.7631, 11288.52
131.2452, 11556.76
131.7274, 11825.85
132.2095, 12091.48
132.6916, 12337.60
133.1737, 12564.34
133.6558, 12786.29
134.1379, 13023.78
134.6201, 13276.93
135.1022, 13538.00
135.5843, 13803.52
136.0664, 14074.88
136.5485, 14351.35
137.0306, 14637.95
137.5128, 14913.38
137.9949, 15165.04
138.4770, 15392.58
138.9591, 15603.82
139.4412, 15820.80
139.9233, 16049.10
140.4055, 16173.05
140.8876, 16185.91
141.3697, 16098.80
141.8518, 15922.42
142.3339, 15636.39
142.8160, 15308.32
143.2982, 14958.69
143.7803, 14590.04
144.2624, 14200.41
144.7445, 13790.94
145.2266, 13359.50
145.7087, 12918.00
146.1909, 12443.99
146.6730, 11980.34
147.1551, 11540.62
147.6372, 11149.56
148.1193, 10747.59
148.6014, 10315.04
149.0836, 9869.664
149.5657, 9454.686
150.0478, 9076.367
150.5299, 8732.207
151.0120, 8416.641
151.4941, 8157.160
151.9763, 7901.506
152.4584, 7644.744
152.9405, 7389.209
153.4226, 7140.236
153.9047, 6890.098
154.3868, 6650.803
154.8690, 6430.062
155.3511, 6259.293
155.8332, 6074.406
156.3153, 5859.994
156.7974, 5618.740
157.2795, 5375.922
157.7617, 5139.504
158.2438, 4914.936
158.7259, 4699.041
159.2080, 4489.494
159.6901, 4287.912
160.1722, 4100.539
160.6544, 3926.471
161.1365, 3745.271
161.6186, 3530.049
162.1007, 3313.596
162.5828, 3121.320
163.0649, 2990.088
163.5471, 2862.770
164.0292, 2709.457
164.5113, 2528.891
164.9934, 2350.676
165.4755, 2194.762
165.9576, 2047.354
166.4398, 1893.469
166.9219, 1704.406
167.4040, 1520.674
167.8861, 1374.021
168.3682, 1266.494
168.8503, 1170.855
169.3325, 1074.375
169.8146, 977.5195
170.2967, 882.2656
170.7788, 781.8496
171.2609, 686.8516
171.7430, 612.7246
172.2252, 562.5488
172.7073, 511.6504
173.1894, 432.8535
173.6715, 337.4355
174.1536, 252.9375
174.6357, 200.4473
175.1179, 163.4395
175.6000, 117.7363
176.0821, 59.88281
176.5642, 9.617188
177.0463, 6.707031
177.5284, 1.625000
178.0106, 6.732422
178.4927, 10.73438
178.9748, 38.62500
179.4569, 57.69141
179.9390, 68.69141
180.4211, 70.14453
180.9033, 51.20117
181.3854, 15.78516
181.8675, 13.71484
182.3496, 15.64062
182.8317, 2.328125
183.3138, 6.337891
183.7960, 34.13086
184.2781, 69.43164
184.7602, 83.16797
185.2423, 78.18359
185.7244, 80.52344
186.2065, 116.2969
186.6887, 176.3301
187.1708, 226.0547
187.6529, 260.7305
188.1350, 285.2051
188.6171, 306.7598
189.0992, 325.4746
189.5814, 338.0078
190.0635, 331.0293
190.5456, 310.7070
191.0277, 325.4102
191.5098, 394.2734
191.9919, 479.5723
192.4741, 492.7148
192.9562, 430.7422
193.4383, 362.5000
193.9204, 333.9336
194.4025, 343.2090
194.8846, 361.9707
195.3668, 391.9746
195.8489, 424.0020
196.3310, 435.5566
196.8131, 425.3594
197.2952, 403.8086
197.7773, 373.9922
198.2595, 335.6211
198.7416, 300.2051
199.2237, 266.3164
199.7058, 238.8379
200.1879, 237.5254
200.6700, 268.5957
201.1522, 298.9316
201.6343, 304.0781
202.1164, 281.6582
202.5985, 258.9199
203.0806, 237.9258
203.5627, 219.5078
204.0449, 207.0449
204.5270, 201.1816
205.0091, 198.7207
205.4912, 199.0391
205.9733, 203.2852
206.4554, 201.8848
206.9376, 191.1895
207.4197, 174.7441
207.9018, 166.5684
208.3839, 168.9121
208.8660, 174.1934
209.3481, 175.5508
209.8303, 170.3730
210.3124, 176.0723
210.7945, 201.0996
211.2766, 237.6523
211.7587, 251.2324
212.2408, 232.5137
212.7230, 210.7988
213.2051, 205.1504
213.6872, 218.4941
214.1693, 238.4590
214.6514, 267.7773
215.1335, 302.1309
215.6157, 318.2812
216.0978, 307.0156
216.5799, 293.6328
217.0620, 296.8730
217.5441, 325.7383
218.0262, 344.3828
218.5084, 349.3496
218.9905, 341.4531
219.4726, 321.2500
219.9547, 276.1309
220.4368, 240.1367
220.9189, 240.6680
221.4011, 299.7344
221.8832, 337.8262
222.3653, 342.6582
222.8474, 322.0586
223.3295, 311.6113
223.8116, 317.4375
224.2938, 324.2031
224.7759, 321.2305
225.2580, 300.9805
225.7401, 290.1328
226.2222, 298.3320
226.7043, 317.1641
227.1865, 308.3398
227.6686, 252.5742
228.1507, 197.5117
228.6328, 174.8516
229.1149, 208.4883
229.5970, 217.7559
230.0792, 192.1074
230.5613, 138.7090
231.0434, 83.22656
231.5255, 17.12305
232.0076, 37.03906
232.4897, 63.16211
232.9719, 42.64453
233.4540, 35.74609
233.9361, 50.94336
234.4182, 80.64258
234.9003, 97.41406
235.3824, 91.34180
235.8646, 86.37305
236.3467, 97.76562
236.8288, 144.7578
237.3109, 165.2539
237.7930, 146.6016
238.2751, 102.3359
238.7573, 74.40625
239.2394, 70.79688
239.7215, 72.86523
240.2036, 73.24219
240.6857, 73.91602
241.1678, 69.62695
241.6500, 62.11523
242.1321, 49.55273
242.6142, 24.84766
243.0963, 21.34570
243.5784, 65.64258
244.0605, 96.13477
244.5427, 103.3945
245.0248, 122.5859
245.5069, 159.9121
245.9890, 207.1426
246.4711, 245.9395
246.9532, 276.7480
247.4354, 299.4512
247.9175, 308.2832
248.3996, 288.5156
248.8817, 305.6953
249.3638, 373.9004
249.8459, 471.5645
250.3281, 559.5449
250.8102, 635.3809
251.2923, 706.7656
251.7744, 777.1523
252.2565, 846.3086
252.7386, 912.8574
253.2208, 974.7422
253.7029, 1035.574
254.1850, 1101.160
254.6671, 1168.445
255.1492, 1246.732
255.6313, 1342.680
256.1135, 1460.693
256.5956, 1560.992
257.0777, 1635.273
257.5598, 1697.717
258.0419, 1767.375
258.5240, 1847.107
259.0062, 1924.689
259.4883, 1995.564
259.9704, 2057.461
260.4525, 2128.250
260.9346, 2214.922
261.4167, 2300.736
261.8989, 2363.041
262.3810, 2390.049
262.8631, 2425.086
263.3452, 2482.246
263.8273, 2562.432
264.3094, 2625.861
264.7916, 2669.359
265.2737, 2704.207
265.7558, 2741.195
266.2379, 2780.092
266.7200, 2822.930
267.2021, 2875.723
267.6843, 2935.248
268.1664, 2969.889
268.6485, 2972.527
269.1306, 2964.477
269.6127, 2960.109
270.0948, 2956.852
270.5770, 2967.580
271.0591, 2997.297
271.5412, 3041.643
272.0233, 3085.102
272.5054, 3130.041
272.9875, 3164.066
273.4697, 3172.090
273.9518, 3148.221
274.4339, 3138.254
274.9160, 3151.598
275.3981, 3179.955
275.8802, 3196.998
276.3624, 3199.465
276.8445, 3203.234
277.3266, 3226.791
277.8087, 3273.762
278.2908, 3287.051
278.7729, 3253.406
279.2551, 3194.434
279.7372, 3163.492
280.2193, 3165.422
280.7014, 3161.129
281.1835, 3126.834
281.6656, 3063.207
282.1478, 2996.936
282.6299, 2927.316
283.1120, 2859.717
283.5941, 2805.969
284.0762, 2766.939
284.5583, 2727.291
285.0405, 2676.461
285.5226, 2615.551
286.0047, 2563.225
286.4868, 2519.344
286.9689, 2480.639
287.4510, 2446.689
287.9332, 2417.281
288.4153, 2377.482
288.8974, 2311.225
289.3795, 2229.016
289.8616, 2175.412
290.3438, 2154.371
290.8259, 2142.887
291.3080, 2112.568
291.7901, 2065.592
292.2722, 2018.977
292.7543, 1981.014
293.2365, 1947.064
293.7186, 1904.680
294.2007, 1854.590
294.6828, 1801.533
295.1649, 1743.594
295.6470, 1689.191
296.1292, 1663.045
296.6113, 1685.777
297.0934, 1720.277
297.5755, 1703.744
298.0576, 1640.307
298.5397, 1572.451
299.0219, 1530.264
299.5040, 1506.553
299.9861, 1486.113
300.4682, 1466.299
300.9503, 1451.084
301.4324, 1449.697
301.9146, 1457.146
302.3967, 1453.352
302.8788, 1413.764
303.3609, 1359.027
303.8430, 1321.510
304.3251, 1309.084
304.8073, 1300.615
305.2894, 1272.189
305.7715, 1231.820
306.2536, 1198.490
306.7357, 1185.932
307.2178, 1182.896
307.7000, 1178.152
308.1821, 1170.227
308.6642, 1162.967
309.1463, 1166.379
309.6284, 1170.846
310.1105, 1161.521
310.5927, 1121.426
311.0748, 1072.896
311.5569, 1028.982
312.0390, 990.3086
312.5211, 957.3594
313.0032, 936.6992
313.4854, 919.5527
313.9675, 896.8262
314.4496, 859.2227
314.9317, 821.7695
315.4138, 793.6973
315.8959, 773.5039
316.3781, 750.0742
316.8602, 706.2227
317.3423, 664.9570
317.8244, 644.7715
318.3065, 668.1562
318.7886, 686.8027
319.2708, 682.9961
319.7529, 661.9727
320.2350, 638.4082
320.7171, 613.1543
321.1992, 588.9238
321.6813, 568.1289
322.1635, 555.2363
322.6456, 535.2617
323.1277, 496.0391
323.6098, 449.0078
324.0919, 413.3750
324.5740, 399.5332
325.0562, 390.8828
325.5383, 383.7891
326.0204, 379.3457
326.5025, 371.4160
326.9846, 360.9473
327.4667, 346.6445
327.9489, 327.0078
328.4310, 292.5762
328.9131, 264.1426
329.3952, 249.9121
329.8773, 250.6992
330.3594, 236.4727
330.8416, 193.1367
331.3237, 147.0234
331.8058, 117.1680
332.2879, 112.8027
332.7700, 108.9434
333.2521, 104.5957
333.7343, 99.02734
334.2164, 88.76758
334.6985, 71.31055
335.1806, 52.67969
335.6627, 35.15625
336.1448, 17.30078
336.6270, 4.847656
337.1091, 1.666016
337.5912, 2.927734
338.0733, 1.255859
338.5554, 13.42188
339.0375, 23.09766
339.5197, 26.26953
340.0018, 22.83594
340.4839, 15.64062
340.9660, 4.466797
341.4481, 9.796875
341.9302, 31.03125
342.4124, 61.18164
342.8945, 73.61133
343.3766, 51.02734
343.8587, 4.892578
344.3408, 9.074219
344.8229, 12.90820
345.3051, 42.40039
345.7872, 53.18555
346.2693, 47.85156
346.7514, 44.18555
347.2335, 47.33008
347.7156, 51.72266
348.1978, 42.64844
348.6799, 21.28320
349.1620, 4.521484
349.6441, 14.74023
350.1262, 37.00000
350.6083, 30.99414
351.0905, 14.55664
351.5726, 65.67383
352.0547, 79.49023
352.5368, 65.47852
353.0189, 52.36523
353.5010, 47.80664
353.9832, 55.06836
354.4653, 86.57227
354.9474, 144.2168
355.4295, 193.2695
355.9116, 193.1816
356.3937, 169.6855
356.8759, 161.4590
357.3580, 196.3730
357.8401, 239.6934
358.3222, 267.0645
358.8043, 281.1973
359.2864, 296.3477
359.7686, 323.2812
360.2507, 353.0645
360.7328, 377.1875
361.2149, 389.6992
361.6970, 403.3711
362.1791, 418.4668
362.6613, 437.9805
363.1434, 469.1348
363.6255, 541.0801
364.1076, 603.2852
364.5897, 625.2207
365.0718, 586.4258
365.5540, 565.2734
366.0361, 593.7109
366.5182, 640.9297
367.0003, 669.9609
367.4824, 660.6094
367.9645, 649.7188
368.4467, 643.8496
368.9288, 643.4727
369.4109, 647.9141
369.8930, 655.5781
370.3751, 670.0312
370.8572, 695.8281
371.3394, 753.2246
371.8215, 786.4297
372.3036, 776.5605
372.7857, 739.9492
373.2678, 738.1523
373.7499, 791.0332
374.2321, 842.9277
374.7142, 860.9102
375.1963, 828.6289
375.6784, 837.9980
376.1605, 908.1562
376.6426, 994.9570
377.1248, 1021.389
377.6069, 976.9375
378.0890, 937.0820
378.5711, 926.7129
379.0532, 942.5430
379.5353, 963.0176
380.0175, 989.4238
380.4996, 1015.311
380.9817, 1035.742
381.4638, 1050.656
381.9459, 1058.551
382.4280, 1055.520
382.9102, 1049.781
383.3923, 1058.445
383.8744, 1080.371
384.3565, 1104.391
384.8386, 1119.203
385.3207, 1131.896
385.8029, 1158.711
386.2850, 1202.824
386.7671, 1245.990
387.2492, 1269.129
387.7313, 1277.551
388.2134, 1282.668
388.6956, 1290.088
389.1777, 1296.953
389.6598, 1299.139
390.1419, 1298.754
390.6240, 1303.217
391.1061, 1315.084
391.5883, 1331.621
392.0704, 1350.986
392.5525, 1367.482
393.0346, 1395.588
393.5167, 1454.131
393.9988, 1530.742
394.4810, 1592.340
394.9631, 1617.127
395.4452, 1633.152
395.9273, 1653.951
396.4094, 1682.727
396.8915, 1712.941
397.3737, 1739.408
397.8558, 1767.102
398.3379, 1802.205
398.8200, 1867.932
399.3021, 1915.350
399.7842, 1925.074
400.2664, 1896.541
400.7485, 1887.559
401.2306, 1913.205
401.7127, 1948.410
402.1948, 1972.461
402.6769, 1968.170
403.1591, 1984.877
403.6412, 2039.801
404.1233, 2113.121
404.6054, 2154.906
405.0875, 2160.215
405.5696, 2145.609
406.0518, 2112.715
406.5339, 2061.617
407.0160, 2026.293
407.4981, 2010.146
407.9802, 1995.518
408.4623, 1961.287
408.9445, 1910.242
409.4266, 1866.098
409.9087, 1835.139
410.3908, 1813.842
410.8729, 1800.012
411.3550, 1793.439
411.8372, 1779.475
412.3193, 1740.494
412.8014, 1686.662
413.2835, 1640.607
413.7656, 1604.180
414.2477, 1578.375
414.7299, 1574.619
415.2120, 1582.732
415.6941, 1578.756
416.1762, 1543.463
416.6583, 1495.273
417.1404, 1448.207
417.6226, 1402.035
418.1047, 1357.600
418.5868, 1309.572
419.0689, 1265.322
419.5510, 1231.887
420.0331, 1220.586
420.5153, 1207.889
420.9974, 1192.857
421.4795, 1170.740
421.9616, 1129.498
422.4437, 1041.674
422.9258, 955.2480
423.4080, 890.5039
423.8901, 852.0020
424.3722, 823.3164
424.8543, 819.4766
425.3364, 817.8359
425.8185, 795.5469
426.3007, 732.6250
426.7828, 678.1699
427.2649, 640.4707
427.7470, 617.5117
428.2291, 597.5000
428.7112, 586.3535
429.1934, 567.4336
429.6755, 526.7227
430.1576, 457.2598
430.6397, 401.7246
431.1218, 362.9082
431.6039, 335.2090
432.0861, 310.5078
432.5682, 288.8457
433.0503, 270.4844
433.5324, 260.2012
434.0145, 252.4707
434.4966, 221.8867
434.9788, 167.8320
435.4609, 116.9258
435.9430, 91.44336
436.4251, 86.61914
436.9072, 92.07422
437.3893, 111.4395
437.8715, 126.6777
438.3536, 110.7031
438.8357, 72.80273
439.3178, 38.90234
439.7999, 20.54102
440.2820, 12.93164
440.7642, 17.37109
441.2463, 33.67578
441.7284, 40.99805
442.2105, 13.93164
442.6926, 21.63086
443.1747, 40.51953
443.6569, 22.30469
444.1390, 3.464844
444.6211, 7.761719
445.1032, 11.37305
445.5853, 7.033203
446.0674, 4.314453
446.5496, 23.87109
447.0317, 57.11914
447.5138, 115.7930
447.9959, 146.7031
448.4780, 132.1113
448.9601, 101.3223
449.4423, 83.00195
449.9244, 84.91211
450.4065, 82.14062
450.8886, 68.83398
451.3707, 48.14453
451.8528, 34.15039
452.3350, 29.88672
452.8171, 23.80859
453.2992, 9.685547
453.7813, 12.30664
454.2634, 38.43555
454.7455, 70.26367
455.2277, 99.82422
455.7098, 112.4258
456.1919, 110.9414
456.6740, 118.4922
457.1561, 148.4121
457.6382, 186.4629
458.1204, 206.4590
458.6025, 210.4375
459.0846, 211.2539
459.5667, 216.4883
460.0488, 224.6504
460.5309, 232.9785
461.0131, 240.3945
461.4952, 252.2715
461.9773, 278.1387
462.4594, 309.4512
462.9415, 333.9746
463.4236, 330.0957
463.9058, 333.9043
464.3879, 373.5840
464.8700, 442.9023
465.3521, 487.6895
465.8342, 470.6934
466.3163, 443.2441
466.7985, 433.6680
467.2806, 453.2969
467.7627, 474.1738
468.2448, 496.3945
468.7269, 519.0039
469.2090, 540.6113
469.6912, 558.3906
470.1733, 581.2520
470.6554, 616.2109
471.1375, 660.1992
471.6196, 678.6387
472.1017, 661.3457
472.5839, 646.9590
473.0660, 666.0527
473.5481, 718.9863
474.0302, 768.6211
474.5123, 816.1055
474.9944, 849.5879
475.4766, 837.4375
475.9587, 788.4473
476.4408, 758.7266
476.9229, 789.8750
477.4050, 842.9375
477.8871, 846.4004
478.3693, 805.6152
478.8514, 767.3691
479.3335, 761.3730
479.8156, 778.0137
480.2977, 809.5000
480.7798, 859.3496
481.2620, 905.9043
481.7441, 932.7910
482.2262, 948.7441
482.7083, 966.7891
483.1904, 1001.834
483.6725, 1028.705
484.1547, 1029.238
484.6368, 1006.061
485.1189, 999.2031
485.6010, 1037.904
486.0831, 1075.311
486.5652, 1086.422
487.0474, 1053.957
487.5295, 1031.555
488.0116, 1018.342
488.4937, 1016.074
488.9758, 1029.902
489.4579, 1066.727
489.9401, 1099.363
490.4222, 1123.053
490.9043, 1137.434
491.3864, 1137.766
491.8685, 1121.631
492.3506, 1108.281
492.8328, 1117.164
493.3149, 1141.758
493.7970, 1151.240
494.2791, 1142.281
494.7612, 1124.141
495.2433, 1100.145
495.7255, 1075.096
496.2076, 1061.625
496.6897, 1077.268
497.1718, 1094.139
497.6539, 1076.438
498.1360, 1034.223
498.6182, 1005.816
499.1003, 1024.154
499.5824, 1055.021
500.0645, 1076.762
500.5466, 1087.039
501.0287, 1084.473
501.5109, 1057.480
501.9930, 1023.775
502.4751, 1001.195
502.9572, 1001.000
503.4393, 1000.842
503.9214, 998.1738
504.4036, 993.3066
504.8857, 989.0742
505.3678, 989.5254
505.8499, 979.9043
506.3320, 948.7148
506.8141, 892.9453
507.2963, 881.3320
507.7784, 926.4629
508.2605, 979.2617
508.7426, 982.6758
509.2247, 940.9414
509.7068, 916.9570
510.1890, 926.1406
510.6711, 949.9453
511.1532, 958.7734
511.6353, 954.5684
512.1174, 947.7539
512.5995, 940.6328
513.0817, 935.3594
513.5638, 936.4863
514.0459, 943.6484
514.5280, 948.8652
515.0101, 952.1465
515.4922, 948.6387
515.9744, 931.4355
516.4565, 886.7832
516.9386, 853.5176
517.4207, 857.4492
517.9028, 878.2598
518.3849, 882.7129
518.8671, 848.7109
519.3492, 816.0488
519.8313, 789.3770
520.3134, 769.3184
520.7955, 767.3750
521.2776, 803.3262
521.7598, 827.6641
522.2419, 801.9805
522.7240, 708.0742
523.2061, 664.8984
523.6882, 685.6973
524.1703, 731.9414
524.6525, 755.0859
525.1346, 756.7500
525.6167, 757.0215
526.0988, 765.3574
526.5809, 770.5059
527.0630, 745.6191
527.5452, 696.0957
528.0273, 650.0332
528.5094, 618.0977
528.9915, 600.8867
529.4736, 606.1582
529.9557, 636.0039
530.4379, 656.2402
530.9200, 636.9883
531.4021, 600.5762
531.8842, 568.9043
532.3663, 546.4980
532.8484, 530.0137
533.3306, 520.0156
533.8127, 515.2617
534.2948, 513.8086
534.7769, 528.5996
535.2590, 530.7559
535.7411, 506.4824
536.2233, 457.3008
536.7054, 433.9473
537.1875, 450.2148
537.6696, 467.2344
538.1517, 455.8789
538.6339, 414.0996
539.1160, 390.4941
539.5981, 390.2754
540.0802, 397.8223
540.5623, 388.6133
541.0444, 367.1543
541.5266, 357.8203
542.0087, 373.2363
542.4908, 399.4023
542.9729, 419.8145
543.4550, 432.4434
543.9371, 433.1523
544.4193, 411.8633
544.9014, 384.1660
545.3835, 360.8066
545.8656, 342.2891
546.3477, 334.1328
546.8298, 343.9707
547.3120, 360.1641
547.7941, 373.0332
548.2762, 384.7422
548.7583, 386.7168
549.2404, 371.2051
549.7225, 349.2969
550.2047, 341.3848
550.6868, 357.2773
551.1689, 368.1172
551.6510, 367.2461
552.1331, 356.0469
552.6152, 327.4004
553.0974, 276.5137
553.5795, 234.0195
554.0616, 224.3652
554.5437, 243.2832
555.0258, 265.9355
555.5079, 293.3301
555.9901, 311.9062
556.4722, 299.1699
556.9543, 268.4492
557.4364, 247.3828
557.9185, 250.9062
558.4006, 257.6875
558.8828, 239.6602
559.3649, 211.2344
559.8470, 205.0801
560.3291, 266.4238
560.8112, 323.9160
561.2933, 343.9961
561.7755, 324.3262
562.2576, 305.1719
562.7397, 278.0176
563.2218, 262.2578
563.7039, 271.4922
564.1860, 327.5215
564.6682, 351.3066
565.1503, 333.9629
565.6324, 296.8242
566.1145, 264.5996
566.5966, 236.8340
567.0787, 218.1914
567.5609, 211.4668
568.0430, 211.8535
568.5251, 211.1914
569.0072, 211.0586
569.4893, 211.1582
569.9714, 212.5996
570.4536, 213.6113
570.9357, 209.6758
571.4178, 201.4570
571.8999, 197.1445
572.3820, 209.5332
572.8641, 222.8652
573.3463, 220.1562
573.8284, 188.4043
574.3105, 165.2227
574.7926, 175.1855
575.2747, 196.6465
575.7568, 202.1758
576.2390, 170.2051
576.7211, 147.7520
577.2032, 142.1992
577.6853, 149.6445
578.1674, 159.0078
578.6495, 173.8379
579.1317, 180.0156
579.6138, 166.9160
580.0959, 138.2734
580.5780, 127.8066
581.0601, 137.2441
581.5422, 146.3027
582.0244, 132.1465
582.5065, 105.0430
582.9886, 93.27344
583.4707, 103.1211
583.9528, 113.6875
584.4349, 96.46680
584.9171, 70.29492
585.3992, 63.47852
585.8813, 117.5391
586.3634, 158.4375
586.8455, 140.7266
587.3276, 84.86133
587.8098, 47.55273
588.2919, 53.97266
588.7740, 65.68359
589.2561, 72.84766
589.7382, 75.41602
590.2203, 73.28125
