##NAMES=Cosalite
##RRUFFID=R060988
##IDEAL CHEMISTRY=Pb^2+^_2_Bi^3+^_2_S^2-^_5_
##LOCALITY=San Nicolas mine, Badajoz Provence, Spain
##OWNER=RRUFF
##SOURCE=Bob Jenkins
##DESCRIPTION=Silver metallic prismatic crystals, exterior tarnish steel-blue, associated with quartz and yellowish-green crystals of a Bi oxide.
##STATUS=The identification of this mineral has been confirmed only by single crystal X-ray diffraction.
##URL=rruff.info/R060988
121.5281, 2146.321
122.0102, 2213.134
122.4923, 2329.336
122.9744, 2523.211
123.4565, 2809.370
123.9386, 3178.891
124.4208, 3622.888
124.9029, 4155.280
125.3850, 4765.255
125.8671, 5405.270
126.3492, 6108.767
126.8313, 6803.494
127.3135, 7466.102
127.7956, 8092.219
128.2777, 8658.276
128.7598, 9095.033
129.2419, 9412.058
129.7240, 9849.147
130.2061, 10492.95
130.6883, 11198.70
131.1704, 12124.45
131.6525, 13143.79
132.1346, 13772.00
132.6167, 13386.42
133.0988, 11799.57
133.5810, 10470.01
134.0631, 9617.563
134.5452, 8910.164
135.0273, 8227.340
135.5094, 7554.675
135.9915, 6941.370
136.4737, 6441.020
136.9558, 6062.234
137.4379, 5787.924
137.9200, 5643.703
138.4021, 5573.371
138.8842, 5568.854
139.3664, 5618.986
139.8485, 5691.791
140.3306, 5739.232
140.8127, 5730.270
141.2948, 5762.762
141.7769, 5822.678
142.2591, 5923.480
142.7412, 6080.638
143.2233, 6294.916
143.7054, 6549.296
144.1875, 6813.944
144.6696, 7078.078
145.1518, 7373.912
145.6339, 7752.647
146.1160, 8130.722
146.5981, 8432.262
147.0802, 8635.904
147.5623, 8783.231
148.0445, 8956.183
148.5266, 9274.257
149.0087, 9441.027
149.4908, 9410.069
149.9729, 9253.729
150.4550, 9019.097
150.9371, 8721.838
151.4193, 8401.873
151.9014, 8140.458
152.3835, 7979.740
152.8656, 7823.865
153.3477, 7672.392
153.8298, 7521.355
154.3120, 7360.010
154.7941, 7182.850
155.2762, 7006.706
155.7583, 6875.724
156.2404, 6790.583
156.7225, 6743.293
157.2047, 6765.886
157.6868, 6819.111
158.1689, 6832.667
158.6510, 6770.840
159.1331, 6681.333
159.6152, 6695.654
160.0974, 6857.562
160.5795, 7023.617
161.0616, 7194.304
161.5437, 7342.898
162.0258, 7414.700
162.5079, 7380.540
162.9901, 7269.550
163.4722, 7147.969
163.9543, 7019.397
164.4364, 6878.873
164.9185, 6710.505
165.4007, 6528.831
165.8828, 6368.717
166.3649, 6243.145
166.8470, 6147.919
167.3291, 6071.718
167.8112, 6017.083
168.2934, 5972.049
168.7755, 5936.773
169.2576, 5908.265
169.7397, 5879.168
170.2218, 5849.144
170.7039, 5813.440
171.1861, 5762.353
171.6682, 5690.996
172.1503, 5618.645
172.6324, 5553.677
173.1145, 5495.338
173.5966, 5439.985
174.0788, 5388.458
174.5609, 5336.980
175.0430, 5276.848
175.5251, 5201.784
176.0072, 5134.823
176.4893, 5095.470
176.9714, 5077.591
177.4536, 5051.702
177.9357, 5002.685
178.4178, 4944.891
178.8999, 4901.744
179.3820, 4876.451
179.8641, 4854.724
180.3463, 4824.558
180.8284, 4788.706
181.3105, 4763.414
181.7926, 4756.899
182.2747, 4761.666
182.7568, 4769.229
183.2390, 4783.310
183.7211, 4785.291
184.2032, 4751.286
184.6853, 4688.158
185.1674, 4643.798
185.6495, 4644.512
186.1317, 4659.213
186.6138, 4645.342
187.0959, 4596.622
187.5780, 4552.570
188.0601, 4548.106
188.5422, 4576.785
189.0244, 4593.335
189.5065, 4587.101
189.9886, 4560.367
190.4707, 4513.733
190.9528, 4444.739
191.4349, 4380.704
191.9171, 4339.598
192.3992, 4320.141
192.8813, 4313.709
193.3634, 4323.664
193.8455, 4341.750
194.3276, 4362.062
194.8098, 4384.781
195.2919, 4401.177
195.7740, 4401.810
196.2561, 4389.077
196.7382, 4379.708
197.2203, 4380.057
197.7025, 4381.122
198.1846, 4371.561
198.6667, 4351.789
199.1488, 4338.384
199.6309, 4350.356
200.1130, 4381.813
200.5951, 4394.281
201.0773, 4367.663
201.5594, 4338.033
202.0415, 4341.047
202.5236, 4372.931
203.0057, 4396.761
203.4878, 4380.435
203.9700, 4333.515
204.4521, 4304.517
204.9342, 4308.513
205.4163, 4318.645
205.8984, 4317.531
206.3805, 4305.431
206.8627, 4282.978
207.3448, 4240.263
207.8269, 4185.421
208.3090, 4150.738
208.7911, 4146.501
209.2732, 4151.575
209.7554, 4150.702
210.2375, 4145.740
210.7196, 4142.930
211.2017, 4148.628
211.6838, 4159.141
212.1659, 4162.839
212.6481, 4157.064
213.1302, 4148.506
213.6123, 4132.256
214.0944, 4115.657
214.5765, 4118.309
215.0586, 4173.736
215.5408, 4252.052
216.0229, 4276.532
216.5050, 4227.121
216.9871, 4171.209
217.4692, 4154.419
217.9513, 4160.366
218.4335, 4159.890
218.9156, 4130.238
219.3977, 4092.566
219.8798, 4091.317
220.3619, 4138.554
220.8440, 4181.924
221.3262, 4186.921
221.8083, 4169.982
222.2904, 4151.625
222.7725, 4134.280
223.2546, 4121.663
223.7367, 4122.817
224.2189, 4141.098
224.7010, 4154.574
225.1831, 4151.153
225.6652, 4136.111
226.1473, 4114.139
226.6294, 4082.956
227.1115, 4049.751
227.5937, 4020.764
228.0758, 3995.811
228.5579, 3978.314
229.0400, 3971.000
229.5221, 3972.196
230.0042, 3980.404
230.4864, 3997.407
230.9685, 4016.795
231.4506, 4036.073
231.9327, 4054.790
232.4148, 4064.768
232.8969, 4059.483
233.3791, 4046.105
233.8612, 4036.974
234.3433, 4035.467
234.8254, 4025.758
235.3075, 3981.473
235.7896, 3912.996
236.2718, 3881.587
236.7539, 3921.566
237.2360, 3984.019
237.7181, 4006.500
238.2002, 3985.729
238.6823, 3964.433
239.1645, 3971.723
239.6466, 3995.645
240.1287, 3999.725
240.6108, 3969.397
241.0929, 3931.582
241.5750, 3918.204
242.0572, 3927.286
242.5393, 3936.722
243.0214, 3942.545
243.5035, 3942.723
243.9856, 3929.155
244.4677, 3896.636
244.9499, 3867.061
245.4320, 3869.335
245.9141, 3897.705
246.3962, 3916.212
246.8783, 3911.323
247.3604, 3895.619
247.8426, 3885.031
248.3247, 3881.194
248.8068, 3872.550
249.2889, 3844.500
249.7710, 3801.370
250.2531, 3773.228
250.7352, 3776.096
251.2174, 3784.462
251.6995, 3774.701
252.1816, 3748.458
252.6637, 3727.263
253.1458, 3726.702
253.6279, 3742.828
254.1101, 3751.716
254.5922, 3752.312
255.0743, 3747.138
255.5564, 3738.240
256.0385, 3724.800
256.5207, 3702.842
257.0028, 3668.501
257.4849, 3626.408
257.9670, 3591.601
258.4491, 3562.248
258.9312, 3540.769
259.4134, 3531.930
259.8955, 3530.838
260.3776, 3532.163
260.8597, 3535.359
261.3418, 3532.938
261.8239, 3506.705
262.3060, 3436.184
262.7881, 3384.222
263.2703, 3369.083
263.7524, 3370.772
264.2345, 3371.330
264.7166, 3365.741
265.1987, 3351.958
265.6808, 3325.425
266.1630, 3275.512
266.6451, 3242.840
267.1272, 3240.457
267.6093, 3244.925
268.0914, 3241.460
268.5735, 3227.888
269.0557, 3207.792
269.5378, 3183.774
270.0199, 3154.665
270.5020, 3129.482
270.9841, 3097.259
271.4662, 3078.251
271.9484, 3094.919
272.4305, 3133.850
272.9126, 3157.890
273.3947, 3137.090
273.8768, 3077.190
274.3589, 3052.327
274.8411, 3117.011
275.3232, 3157.800
275.8053, 3129.975
276.2874, 3069.833
276.7695, 3033.897
277.2516, 3051.597
277.7338, 3103.145
278.2159, 3127.093
278.6980, 3103.317
279.1801, 3080.619
279.6622, 3057.296
280.1443, 3040.805
280.6265, 3042.420
281.1086, 3064.490
281.5907, 3092.014
282.0728, 3101.504
282.5549, 3089.202
283.0370, 3069.193
283.5192, 3029.764
284.0013, 2993.088
284.4834, 2976.786
284.9655, 2979.624
285.4476, 2982.247
285.9297, 2965.490
286.4119, 2928.249
286.8940, 2886.120
287.3761, 2823.696
287.8582, 2773.479
288.3403, 2756.470
288.8224, 2763.626
289.3046, 2769.683
289.7867, 2755.133
290.2688, 2727.260
290.7509, 2715.254
291.2330, 2727.382
291.7151, 2738.994
292.1973, 2742.970
292.6794, 2738.492
293.1615, 2722.173
293.6436, 2688.004
294.1257, 2648.060
294.6078, 2619.531
295.0900, 2603.514
295.5721, 2590.007
296.0542, 2577.073
296.5363, 2563.524
297.0184, 2548.996
297.5005, 2534.305
297.9827, 2515.229
298.4648, 2482.545
298.9469, 2440.494
299.4290, 2411.120
299.9111, 2404.649
300.3932, 2406.868
300.8754, 2398.237
301.3575, 2378.259
301.8396, 2362.546
302.3217, 2365.859
302.8038, 2374.280
303.2859, 2361.093
303.7681, 2319.954
304.2502, 2278.373
304.7323, 2265.020
305.2144, 2279.841
305.6965, 2286.698
306.1786, 2278.013
306.6608, 2264.638
307.1429, 2253.676
307.6250, 2245.337
308.1071, 2237.515
308.5892, 2229.016
309.0714, 2219.893
309.5535, 2210.591
310.0356, 2202.753
310.5177, 2192.968
310.9998, 2176.958
311.4819, 2158.887
311.9640, 2145.413
312.4461, 2139.215
312.9283, 2139.071
313.4104, 2142.471
313.8925, 2159.034
314.3746, 2164.786
314.8567, 2155.689
315.3388, 2138.670
315.8210, 2114.663
316.3031, 2086.237
316.7852, 2063.558
317.2673, 2062.202
317.7494, 2092.977
318.2315, 2096.520
318.7137, 2050.416
319.1958, 2000.335
319.6779, 1958.828
320.1600, 1928.604
320.6421, 1911.480
321.1242, 1911.257
321.6064, 1924.383
322.0885, 1928.410
322.5706, 1918.401
323.0527, 1905.863
323.5348, 1887.937
324.0169, 1871.636
324.4991, 1867.058
324.9812, 1879.226
325.4633, 1897.693
325.9454, 1904.132
326.4275, 1894.748
326.9096, 1892.373
327.3918, 1904.542
327.8739, 1924.620
328.3560, 1955.146
328.8381, 1995.366
329.3202, 2022.539
329.8023, 2010.073
330.2845, 1967.647
330.7666, 1939.512
331.2487, 1934.896
331.7308, 1937.356
332.2129, 1934.107
332.6950, 1926.728
333.1772, 1920.327
333.6593, 1915.855
334.1414, 1913.456
334.6235, 1913.143
335.1056, 1914.933
335.5877, 1919.667
336.0699, 1929.774
336.5520, 1942.632
337.0341, 1949.447
337.5162, 1948.378
337.9983, 1943.954
338.4804, 1934.542
338.9626, 1923.469
339.4447, 1919.113
339.9268, 1925.242
340.4089, 1934.849
340.8910, 1935.658
341.3731, 1923.289
341.8553, 1911.260
342.3374, 1899.782
342.8195, 1888.941
343.3016, 1878.159
343.7837, 1867.745
344.2658, 1859.789
344.7480, 1857.032
345.2301, 1860.184
345.7122, 1857.285
346.1943, 1839.029
346.6764, 1824.939
347.1585, 1827.268
347.6407, 1836.736
348.1228, 1835.653
348.6049, 1813.702
349.0870, 1781.284
349.5691, 1767.714
350.0512, 1784.003
350.5334, 1797.709
351.0155, 1804.593
351.4976, 1807.106
351.9797, 1805.220
352.4618, 1799.529
352.9439, 1794.660
353.4261, 1798.519
353.9082, 1810.991
354.3903, 1812.853
354.8724, 1796.959
355.3545, 1777.233
355.8366, 1758.673
356.3188, 1743.050
356.8009, 1735.396
357.2830, 1745.984
357.7651, 1761.993
358.2472, 1759.684
358.7293, 1737.065
359.2115, 1716.209
359.6936, 1707.690
360.1757, 1708.765
360.6578, 1713.849
361.1399, 1729.091
361.6220, 1736.037
362.1041, 1715.954
362.5862, 1681.050
363.0684, 1660.248
363.5505, 1663.507
364.0326, 1674.712
364.5147, 1669.123
364.9968, 1637.600
365.4789, 1629.363
365.9611, 1663.158
366.4432, 1708.872
366.9253, 1754.481
367.4074, 1793.637
367.8895, 1811.001
368.3716, 1791.596
368.8538, 1740.078
369.3359, 1709.593
369.8180, 1719.430
370.3001, 1728.203
370.7822, 1727.778
371.2643, 1723.438
371.7465, 1722.352
372.2286, 1727.031
372.7107, 1733.712
373.1928, 1736.596
373.6749, 1735.438
374.1570, 1731.211
374.6392, 1723.546
375.1213, 1713.083
375.6034, 1694.527
376.0855, 1671.828
376.5676, 1658.602
377.0497, 1670.625
377.5319, 1699.419
378.0140, 1713.285
378.4961, 1708.525
378.9782, 1698.399
379.4603, 1682.379
379.9424, 1667.188
380.4246, 1663.764
380.9067, 1679.999
381.3888, 1695.977
381.8709, 1690.261
382.3530, 1668.666
382.8351, 1660.051
383.3173, 1678.231
383.7994, 1700.535
384.2815, 1688.559
384.7636, 1638.873
385.2457, 1605.927
385.7278, 1613.752
386.2100, 1632.558
386.6921, 1633.462
387.1742, 1616.849
387.6563, 1602.774
388.1384, 1606.817
388.6205, 1626.256
389.1027, 1636.219
389.5848, 1626.239
390.0669, 1620.002
390.5490, 1624.851
391.0311, 1634.634
391.5132, 1644.222
391.9954, 1651.337
392.4775, 1652.089
392.9596, 1637.293
393.4417, 1597.193
393.9238, 1572.627
394.4059, 1576.897
394.8881, 1585.073
395.3702, 1585.973
395.8523, 1581.633
396.3344, 1580.289
396.8165, 1588.094
397.2986, 1601.754
397.7808, 1612.227
398.2629, 1618.737
398.7450, 1624.881
399.2271, 1637.604
399.7092, 1647.715
400.1913, 1641.505
400.6735, 1612.966
401.1556, 1587.699
401.6377, 1585.290
402.1198, 1599.006
402.6019, 1613.407
403.0840, 1626.775
403.5662, 1634.049
404.0483, 1626.545
404.5304, 1603.865
405.0125, 1591.400
405.4946, 1598.554
405.9767, 1608.957
406.4589, 1614.117
406.9410, 1614.366
407.4231, 1610.784
407.9052, 1603.205
408.3873, 1595.169
408.8694, 1596.511
409.3516, 1616.725
409.8336, 1632.863
410.3158, 1651.886
410.7979, 1661.736
411.2800, 1644.072
411.7621, 1603.340
412.2442, 1568.761
412.7263, 1570.133
413.2085, 1605.280
413.6906, 1628.609
414.1727, 1637.809
414.6548, 1637.754
415.1369, 1622.480
415.6190, 1602.993
416.1012, 1595.705
416.5833, 1608.300
417.0654, 1624.740
417.5475, 1627.796
418.0296, 1618.434
418.5117, 1604.994
418.9939, 1585.753
419.4760, 1568.935
419.9581, 1564.369
420.4402, 1570.886
420.9223, 1582.255
421.4044, 1601.944
421.8866, 1622.376
422.3687, 1636.390
422.8508, 1644.421
423.3329, 1651.911
423.8150, 1663.678
424.2971, 1674.860
424.7793, 1667.879
425.2614, 1617.873
425.7435, 1582.318
426.2256, 1567.387
426.7077, 1566.921
427.1898, 1581.942
427.6720, 1608.700
428.1541, 1632.172
428.6362, 1635.901
429.1183, 1619.422
429.6004, 1604.959
430.0826, 1593.055
430.5647, 1582.587
431.0468, 1570.232
431.5289, 1559.882
432.0110, 1558.819
432.4931, 1571.511
432.9753, 1585.295
433.4574, 1583.073
433.9395, 1565.733
434.4216, 1550.964
434.9037, 1542.681
435.3858, 1537.593
435.8680, 1527.754
436.3501, 1514.840
436.8322, 1518.407
437.3143, 1567.943
437.7964, 1617.864
438.2785, 1619.732
438.7607, 1581.402
439.2428, 1545.911
439.7249, 1535.293
440.2070, 1543.354
440.6891, 1552.946
441.1712, 1570.353
441.6534, 1580.196
442.1355, 1575.968
442.6176, 1568.191
443.0997, 1563.557
443.5818, 1563.616
444.0639, 1568.856
444.5461, 1581.500
445.0282, 1600.103
445.5103, 1608.363
445.9924, 1599.867
446.4745, 1591.097
446.9566, 1581.772
447.4388, 1577.057
447.9209, 1586.503
448.4030, 1613.762
448.8851, 1638.708
449.3672, 1639.289
449.8493, 1620.458
450.3315, 1605.747
450.8136, 1599.547
451.2957, 1594.907
451.7778, 1584.909
452.2599, 1570.976
452.7420, 1561.011
453.2242, 1554.546
453.7063, 1553.532
454.1884, 1564.983
454.6705, 1582.291
455.1526, 1590.079
455.6347, 1582.277
456.1169, 1566.468
456.5990, 1554.137
457.0811, 1541.838
457.5632, 1542.901
458.0453, 1570.106
458.5274, 1596.540
459.0095, 1608.795
459.4916, 1609.232
459.9738, 1605.580
460.4559, 1601.579
460.9380, 1598.159
461.4201, 1599.774
461.9022, 1609.860
462.3843, 1610.050
462.8665, 1583.967
463.3486, 1555.631
463.8307, 1544.536
464.3128, 1551.020
464.7949, 1564.098
465.2770, 1588.190
465.7592, 1611.182
466.2413, 1610.034
466.7234, 1585.006
467.2055, 1564.001
467.6876, 1563.374
468.1697, 1578.064
468.6519, 1590.881
469.1340, 1604.212
469.6161, 1612.410
470.0982, 1615.984
470.5803, 1613.273
471.0624, 1599.464
471.5446, 1576.075
472.0267, 1552.071
472.5088, 1533.849
472.9909, 1521.944
473.4730, 1526.347
473.9551, 1569.999
474.4373, 1593.525
474.9194, 1563.451
475.4015, 1518.557
475.8836, 1501.959
476.3657, 1523.856
476.8478, 1551.093
477.3300, 1551.415
477.8121, 1533.180
478.2942, 1529.084
478.7763, 1545.671
479.2584, 1563.291
479.7405, 1569.755
480.2227, 1565.068
480.7048, 1553.105
481.1869, 1524.458
481.6690, 1499.384
482.1511, 1480.632
482.6332, 1472.162
483.1154, 1486.992
483.5975, 1526.474
484.0796, 1565.923
484.5617, 1573.850
485.0438, 1544.936
485.5259, 1528.316
486.0081, 1539.459
486.4902, 1546.740
486.9723, 1538.825
487.4544, 1523.293
487.9365, 1509.444
488.4186, 1500.282
488.9008, 1497.692
489.3829, 1507.394
489.8650, 1528.146
490.3471, 1544.096
490.8292, 1553.967
491.3113, 1557.025
491.7935, 1549.582
492.2756, 1534.213
492.7577, 1519.297
493.2398, 1501.178
493.7219, 1488.563
494.2040, 1490.117
494.6862, 1500.513
495.1683, 1507.734
495.6504, 1507.912
496.1325, 1508.815
496.6146, 1523.777
497.0967, 1561.711
497.5789, 1573.105
498.0610, 1526.871
498.5431, 1488.932
499.0252, 1494.167
499.5073, 1520.217
499.9894, 1525.716
500.4716, 1491.549
500.9537, 1450.269
501.4358, 1452.403
501.9179, 1497.591
502.4000, 1530.995
502.8821, 1543.645
503.3643, 1544.585
503.8464, 1538.151
504.3285, 1525.799
504.8106, 1511.540
505.2927, 1490.733
505.7748, 1473.526
506.2570, 1467.286
506.7391, 1469.620
507.2212, 1478.493
507.7033, 1493.462
508.1854, 1504.304
508.6675, 1494.788
509.1496, 1456.946
509.6317, 1436.385
510.1139, 1450.173
510.5960, 1461.938
511.0781, 1454.526
511.5602, 1438.496
512.0424, 1431.888
512.5245, 1442.203
513.0066, 1458.589
513.4887, 1468.708
513.9708, 1472.618
514.4529, 1469.521
514.9351, 1455.295
515.4172, 1442.100
515.8993, 1443.477
516.3814, 1454.459
516.8635, 1458.311
517.3456, 1439.494
517.8278, 1427.023
518.3099, 1447.346
518.7920, 1481.682
519.2741, 1492.619
519.7562, 1470.699
520.2383, 1441.832
520.7205, 1437.319
521.2026, 1460.000
521.6847, 1478.320
522.1668, 1499.638
522.6489, 1507.287
523.1310, 1482.908
523.6132, 1448.686
524.0953, 1433.863
524.5774, 1447.479
525.0595, 1468.075
525.5416, 1474.844
526.0237, 1470.233
526.5059, 1464.623
526.9880, 1458.599
527.4701, 1453.239
527.9522, 1449.769
528.4343, 1447.566
528.9164, 1443.889
529.3986, 1437.559
529.8807, 1431.436
530.3628, 1430.959
530.8449, 1428.841
531.3270, 1411.487
531.8091, 1379.924
532.2913, 1353.838
532.7734, 1353.775
533.2554, 1375.840
533.7375, 1375.797
534.2197, 1328.714
534.7018, 1303.833
535.1839, 1333.214
535.6660, 1380.444
536.1481, 1418.653
536.6302, 1443.182
537.1124, 1452.913
537.5945, 1438.573
538.0766, 1411.908
538.5587, 1392.603
539.0408, 1381.480
539.5229, 1375.479
540.0051, 1373.638
540.4872, 1375.207
540.9693, 1378.121
541.4514, 1378.857
541.9335, 1387.883
542.4156, 1415.398
542.8978, 1443.200
543.3799, 1461.909
543.8620, 1469.995
544.3441, 1466.011
544.8262, 1446.958
545.3083, 1422.127
545.7905, 1414.721
546.2726, 1428.459
546.7547, 1435.983
547.2368, 1431.471
547.7189, 1419.716
548.2010, 1400.878
548.6832, 1377.298
549.1653, 1361.253
549.6474, 1357.166
550.1295, 1360.558
550.6116, 1372.516
551.0938, 1388.982
551.5759, 1401.029
552.0580, 1405.675
552.5401, 1405.397
553.0222, 1402.966
553.5043, 1397.949
553.9865, 1393.575
554.4686, 1391.570
554.9507, 1388.290
555.4328, 1382.687
555.9149, 1375.346
556.3970, 1364.929
556.8792, 1350.829
557.3613, 1342.184
557.8434, 1352.625
558.3255, 1375.420
558.8076, 1390.660
559.2897, 1396.978
559.7719, 1390.815
560.2540, 1362.388
560.7361, 1322.029
561.2182, 1309.284
561.7003, 1345.734
562.1824, 1370.268
562.6646, 1363.383
563.1467, 1348.604
563.6288, 1347.854
564.1109, 1359.589
564.5930, 1367.188
565.0751, 1358.563
565.5573, 1339.416
566.0394, 1326.269
566.5215, 1320.552
567.0036, 1314.415
567.4857, 1308.168
567.9678, 1298.747
568.4500, 1274.902
568.9321, 1241.473
569.4142, 1232.461
569.8963, 1285.068
570.3784, 1339.820
570.8605, 1346.014
571.3427, 1320.970
571.8248, 1304.775
572.3069, 1310.480
572.7890, 1327.299
573.2711, 1343.347
573.7532, 1359.804
574.2354, 1363.781
574.7175, 1340.131
575.1996, 1322.806
575.6817, 1326.425
576.1638, 1338.381
576.6459, 1343.645
577.1281, 1338.718
577.6102, 1332.128
578.0923, 1333.431
578.5744, 1336.756
579.0565, 1322.506
579.5386, 1290.200
580.0208, 1278.020
580.5029, 1313.853
580.9850, 1376.070
581.4671, 1407.435
581.9492, 1393.899
582.4313, 1370.287
582.9135, 1310.620
583.3956, 1263.886
583.8777, 1271.778
584.3598, 1317.419
584.8419, 1357.304
585.3240, 1370.242
585.8062, 1365.225
586.2883, 1349.980
586.7704, 1325.467
587.2525, 1317.769
587.7346, 1337.388
588.2167, 1358.751
588.6989, 1357.684
589.1810, 1338.567
589.6631, 1330.370
590.1452, 1340.188
590.6273, 1353.159
591.1094, 1376.118
591.5916, 1393.333
592.0737, 1377.694
592.5558, 1331.837
593.0379, 1291.967
593.5200, 1289.070
594.0021, 1315.554
594.4843, 1341.005
594.9664, 1369.538
595.4485, 1381.709
595.9306, 1360.397
596.4127, 1330.853
596.8948, 1317.970
597.3770, 1320.790
597.8591, 1322.883
598.3412, 1315.075
598.8233, 1309.075
599.3054, 1313.807
599.7875, 1326.939
600.2697, 1346.633
600.7518, 1371.601
601.2339, 1390.478
601.7160, 1386.353
602.1981, 1357.332
602.6802, 1339.370
603.1624, 1340.202
603.6445, 1340.380
604.1266, 1331.379
604.6087, 1320.031
605.0908, 1310.967
605.5729, 1304.620
606.0551, 1309.724
606.5372, 1346.610
607.0193, 1388.382
607.5014, 1396.778
607.9835, 1375.419
608.4656, 1350.773
608.9478, 1334.263
609.4299, 1326.765
609.9120, 1332.807
610.3941, 1364.642
610.8762, 1371.080
611.3583, 1315.970
611.8405, 1273.584
612.3226, 1279.602
612.8047, 1311.804
613.2868, 1336.567
613.7689, 1344.098
614.2510, 1343.379
614.7332, 1335.410
615.2153, 1326.133
615.6974, 1332.035
616.1795, 1353.915
616.6616, 1371.329
617.1437, 1371.971
