##NAMES=Cosalite
##RRUFFID=R060229
##IDEAL CHEMISTRY=Pb^2+^_2_Bi^3+^_2_S^2-^_5_
##LOCALITY=Amax mine, Kitsault, near Alice Arm, British Columbia, Canada
##OWNER=RRUFF
##SOURCE=Michael Scott
##DESCRIPTION=Parallel group of black metallic acicular crystals
##STATUS=The identification of this mineral is confirmed by single-crystal X-ray diffraction and chemical analysis.
##URL=rruff.info/R060229
##MEASURED CHEMISTRY=(Pb_1.84_Cu_0.16_)_Î£=2_Bi_2.00_S_5.00_
127.7548, 18.36226
128.2369, 20.15674
128.7190, 21.76553
129.2011, 23.35245
129.6832, 25.23062
130.1653, 27.31997
130.6474, 29.24537
131.1296, 30.80949
131.6117, 32.02355
132.0938, 32.90416
132.5759, 33.33348
133.0580, 33.63816
133.5401, 34.56211
134.0223, 36.12835
134.5044, 37.59864
134.9865, 38.33342
135.4686, 38.36214
135.9507, 38.51861
136.4328, 38.76533
136.9150, 39.30979
137.3971, 41.07856
137.8792, 44.37337
138.3613, 47.76274
138.8434, 49.89928
139.3255, 50.49725
139.8077, 51.48206
140.2898, 53.39886
140.7719, 56.07526
141.2540, 58.03579
141.7361, 59.08512
142.2182, 59.70720
142.7004, 60.25720
143.1825, 60.52127
143.6646, 61.27531
144.1467, 62.96482
144.6288, 65.74268
145.1109, 67.25362
145.5931, 66.70010
146.0752, 65.52921
146.5573, 65.52390
147.0394, 67.67741
147.5215, 69.57088
148.0036, 70.54983
148.4858, 70.39943
148.9679, 70.22657
149.4500, 69.68600
149.9321, 69.23421
150.4142, 69.55742
150.8963, 71.30745
151.3785, 73.23978
151.8606, 75.02727
152.3427, 76.69837
152.8248, 78.23784
153.3069, 79.63554
153.7890, 80.90855
154.2712, 81.83972
154.7533, 81.89317
155.2354, 81.97009
155.7175, 82.30241
156.1996, 83.28247
156.6817, 83.77706
157.1639, 83.12460
157.6460, 81.88638
158.1281, 81.28599
158.6102, 82.12328
159.0923, 83.24744
159.5744, 84.17384
160.0566, 85.25178
160.5387, 85.45689
161.0208, 83.49337
161.5029, 80.26210
161.9850, 78.40556
162.4671, 80.01756
162.9493, 82.58410
163.4314, 84.44548
163.9135, 85.17559
164.3956, 85.22338
164.8777, 84.30296
165.3598, 82.69724
165.8420, 81.58787
166.3241, 82.06483
166.8062, 83.03608
167.2883, 83.51174
167.7704, 82.71302
168.2525, 81.85209
168.7346, 81.68433
169.2168, 82.12963
169.6989, 82.69774
170.1810, 83.31902
170.6631, 83.83110
171.1452, 84.03764
171.6273, 83.75754
172.1095, 83.24083
172.5916, 82.41580
173.0737, 81.34340
173.5558, 80.76187
174.0379, 81.92506
174.5201, 83.82762
175.0022, 84.86121
175.4843, 83.53244
175.9664, 81.53163
176.4485, 80.95145
176.9306, 81.75184
177.4128, 82.88121
177.8949, 83.58926
178.3770, 83.95472
178.8591, 84.16804
179.3412, 84.40196
179.8233, 84.49657
180.3055, 83.98289
180.7876, 82.80835
181.2697, 81.81984
181.7518, 82.24792
182.2339, 83.64037
182.7160, 84.54771
183.1982, 83.87450
183.6803, 82.34652
184.1624, 81.59019
184.6445, 81.67219
185.1266, 82.14358
185.6087, 82.71475
186.0909, 83.32626
186.5730, 83.62529
187.0551, 83.16104
187.5372, 82.23460
188.0193, 81.93389
188.5014, 82.36538
188.9836, 83.01804
189.4657, 83.25118
189.9478, 83.09383
190.4299, 82.90417
190.9120, 82.93479
191.3941, 83.10621
191.8763, 82.88517
192.3584, 82.15179
192.8405, 81.35686
193.3226, 81.22594
193.8047, 81.76344
194.2868, 82.26205
194.7690, 82.36815
195.2511, 82.11043
195.7332, 81.86498
196.2153, 81.62209
196.6974, 81.43300
197.1795, 81.50530
197.6617, 81.88035
198.1438, 82.01507
198.6259, 81.43233
199.1080, 80.13753
199.5901, 79.48692
200.0722, 79.65395
200.5544, 80.24893
201.0365, 80.60681
201.5186, 80.71829
202.0007, 80.67081
202.4828, 80.45239
202.9649, 80.04469
203.4471, 79.68986
203.9292, 79.34901
204.4113, 79.10887
204.8934, 79.23939
205.3755, 79.86787
205.8576, 80.34484
206.3398, 80.30804
206.8219, 79.67213
207.3040, 79.06857
207.7861, 78.45671
208.2682, 77.93760
208.7503, 77.77818
209.2325, 78.07736
209.7146, 78.42680
210.1967, 78.64189
210.6788, 78.69693
211.1609, 78.77007
211.6430, 78.93754
212.1252, 79.06999
212.6073, 78.80000
213.0894, 77.94180
213.5715, 77.17082
214.0536, 76.82695
214.5357, 77.03876
215.0179, 77.22234
215.5000, 77.44736
215.9821, 77.59731
216.4642, 77.31861
216.9463, 76.33328
217.4284, 75.51885
217.9105, 75.33518
218.3927, 76.07349
218.8748, 76.45499
219.3569, 76.32731
219.8390, 75.92673
220.3211, 75.80013
220.8032, 76.11684
221.2854, 76.38919
221.7675, 76.41943
222.2496, 76.15948
222.7317, 75.77601
223.2138, 75.12315
223.6959, 74.41898
224.1781, 74.16658
224.6602, 74.59413
225.1423, 75.07683
225.6244, 75.35950
226.1065, 75.39357
226.5886, 75.38661
227.0708, 75.34672
227.5529, 75.26156
228.0350, 75.10222
228.5171, 74.84269
228.9992, 74.55040
229.4813, 74.26255
229.9635, 74.02052
230.4456, 73.64421
230.9277, 73.03655
231.4098, 72.34933
231.8919, 71.87086
232.3740, 71.68931
232.8562, 71.57841
233.3383, 71.40836
233.8204, 71.02693
234.3025, 71.13665
234.7846, 72.10217
235.2667, 73.36256
235.7489, 73.82151
236.2310, 72.95704
236.7131, 72.14809
237.1952, 71.94503
237.6773, 72.66668
238.1594, 72.77950
238.6416, 71.83313
239.1237, 70.55276
239.6058, 70.17732
240.0879, 71.32481
240.5700, 72.37035
241.0521, 72.74800
241.5343, 72.24563
242.0164, 72.01817
242.4985, 72.23909
242.9806, 72.61472
243.4627, 72.69126
243.9448, 72.24598
244.4270, 71.87863
244.9091, 71.77427
245.3912, 71.98782
245.8733, 72.16737
246.3554, 72.31557
246.8375, 72.42708
247.3197, 72.47707
247.8018, 72.37402
248.2839, 72.37940
248.7660, 72.62454
249.2481, 73.17439
249.7302, 73.42661
250.2124, 73.17829
250.6945, 72.82406
251.1766, 72.87961
251.6587, 73.72765
252.1408, 74.22305
252.6229, 73.93890
253.1051, 72.78462
253.5872, 72.27320
254.0693, 72.71521
254.5514, 73.44125
255.0335, 73.75846
255.5156, 73.50447
255.9978, 73.16479
256.4799, 72.65672
256.9620, 71.98728
257.4441, 72.25129
257.9262, 74.07129
258.4083, 76.01326
258.8904, 76.71425
259.3726, 75.73782
259.8547, 74.59306
260.3368, 73.42339
260.8189, 72.25040
261.3010, 71.46130
261.7831, 71.17245
262.2653, 71.08351
262.7474, 70.95226
263.2295, 70.70742
263.7116, 70.63129
264.1937, 70.80061
264.6758, 71.17338
265.1580, 71.57781
265.6401, 72.14947
266.1222, 72.49346
266.6043, 72.20179
267.0864, 70.96107
267.5685, 70.22523
268.0507, 70.25718
268.5328, 70.86390
269.0149, 71.34753
269.4970, 71.72871
269.9791, 71.95088
270.4612, 71.93301
270.9434, 71.59966
271.4255, 71.42772
271.9076, 71.57779
272.3897, 71.81644
272.8718, 71.41544
273.3539, 70.14339
273.8361, 68.98390
274.3182, 68.53849
274.8003, 68.92039
275.2824, 69.13222
275.7645, 69.13329
276.2466, 68.95414
276.7288, 68.48972
277.2109, 67.59162
277.6930, 67.13716
278.1751, 68.00509
278.6572, 70.34035
279.1393, 70.82108
279.6215, 68.89104
280.1036, 66.18020
280.5857, 65.41496
281.0678, 66.81670
281.5499, 68.02923
282.0320, 68.01756
282.5142, 66.88164
282.9963, 65.95872
283.4784, 65.31771
283.9605, 64.67995
284.4426, 63.59385
284.9247, 62.04705
285.4069, 60.67633
285.8890, 59.69398
286.3711, 59.06306
286.8532, 58.62823
287.3353, 58.42451
287.8174, 58.21972
288.2996, 57.81972
288.7817, 57.22283
289.2638, 56.37508
289.7459, 55.08606
290.2280, 53.62660
290.7101, 52.85551
291.1923, 52.81162
291.6744, 52.77269
292.1565, 51.88936
292.6386, 50.38012
293.1207, 49.45286
293.6028, 49.66446
294.0850, 50.22897
294.5671, 49.40207
295.0492, 47.26830
295.5313, 45.24046
296.0134, 44.60590
296.4955, 44.91151
296.9777, 44.79408
297.4598, 43.91140
297.9419, 42.82888
298.4240, 42.44877
298.9061, 42.65417
299.3882, 42.82536
299.8704, 42.57505
300.3525, 42.03697
300.8346, 41.43423
301.3167, 40.77787
301.7988, 40.12983
302.2809, 39.40271
302.7631, 38.70769
303.2452, 38.35284
303.7273, 38.91562
304.2094, 39.75002
304.6915, 39.86304
305.1736, 39.15115
305.6558, 38.37581
306.1379, 38.27997
306.6200, 38.59230
307.1021, 38.80177
307.5842, 38.71399
308.0663, 38.41655
308.5485, 37.88552
309.0306, 37.13551
309.5127, 36.48170
309.9948, 36.22442
310.4769, 36.16673
310.9590, 36.05980
311.4412, 35.80378
311.9233, 35.48863
312.4054, 35.12423
312.8875, 34.72979
313.3696, 34.42263
313.8517, 34.36671
314.3339, 34.37987
314.8160, 34.29515
315.2981, 33.99927
315.7802, 33.71699
316.2623, 33.59574
316.7444, 33.58097
317.2266, 33.52311
317.7087, 33.42307
318.1908, 33.21845
318.6729, 32.80143
319.1550, 31.98529
319.6371, 31.42077
320.1193, 31.63094
320.6014, 32.18892
321.0835, 32.39848
321.5656, 31.49404
322.0477, 30.67881
322.5298, 30.58457
323.0120, 31.45748
323.4941, 31.98035
323.9762, 31.51011
324.4583, 30.69494
324.9404, 30.23575
325.4225, 30.47777
325.9047, 30.85202
326.3868, 31.34445
326.8689, 31.96922
327.3510, 32.25617
327.8331, 31.95885
328.3152, 31.44224
328.7974, 30.95779
329.2795, 30.46737
329.7616, 30.05938
330.2437, 29.75805
330.7258, 29.55292
331.2079, 29.37716
331.6901, 29.16031
332.1722, 29.04205
332.6543, 29.09025
333.1364, 29.32840
333.6185, 29.71302
334.1006, 30.42678
334.5828, 31.23081
335.0649, 31.51496
335.5470, 31.03692
336.0291, 30.46648
336.5112, 30.05245
336.9933, 29.82485
337.4755, 29.56797
337.9576, 29.21572
338.4397, 28.91462
338.9218, 28.90051
339.4039, 29.25917
339.8860, 29.60772
340.3681, 29.89546
340.8503, 30.10764
341.3324, 29.94602
341.8145, 29.30625
342.2966, 28.58206
342.7787, 28.06464
343.2608, 27.75448
343.7430, 27.76158
344.2251, 28.22405
344.7072, 28.93778
345.1893, 29.32525
345.6714, 29.38367
346.1535, 29.19167
346.6357, 28.66431
347.1178, 27.87743
347.5999, 27.31619
348.0820, 27.07135
348.5641, 26.96809
349.0462, 26.69036
349.5284, 26.27241
350.0105, 25.96232
350.4926, 25.87579
350.9747, 25.99232
351.4568, 26.38077
351.9389, 27.08309
352.4211, 27.66812
352.9032, 27.48903
353.3853, 26.83133
353.8674, 26.39050
354.3495, 26.69846
354.8316, 27.20141
355.3138, 27.18268
355.7959, 26.68950
356.2780, 26.21806
356.7601, 26.11884
357.2422, 26.23967
357.7243, 26.39616
358.2065, 26.58133
358.6886, 26.72228
359.1707, 26.79806
359.6528, 26.79409
360.1349, 26.66634
360.6170, 26.08138
361.0992, 25.56576
361.5813, 25.60961
362.0634, 26.52139
362.5455, 27.19190
363.0276, 26.91378
363.5097, 26.16880
363.9919, 25.67395
364.4740, 25.94296
364.9561, 26.22743
365.4382, 26.19093
365.9203, 25.78122
366.4024, 25.49713
366.8846, 25.47943
367.3667, 25.60098
367.8488, 25.75878
368.3309, 26.03783
368.8130, 26.24417
369.2951, 26.33259
369.7773, 26.31722
370.2594, 26.30204
370.7415, 26.38241
371.2236, 26.37569
371.7057, 26.17742
372.1878, 25.57624
372.6700, 25.19398
373.1521, 25.11660
373.6342, 25.22289
374.1163, 25.28132
374.5984, 25.25788
375.0805, 25.25354
375.5627, 25.31920
376.0448, 25.46770
376.5269, 25.51177
377.0090, 25.40632
377.4911, 25.27517
377.9732, 25.29939
378.4554, 25.52880
378.9375, 25.56166
379.4196, 25.21539
379.9017, 24.65025
380.3838, 24.50229
380.8659, 24.82047
381.3481, 25.18169
381.8302, 25.29603
382.3123, 25.18210
382.7944, 24.93234
383.2765, 24.50103
383.7586, 24.07602
384.2408, 23.91528
384.7229, 24.00807
385.2050, 24.28087
385.6871, 24.97606
386.1692, 25.75400
386.6513, 25.89241
387.1335, 25.35129
387.6156, 24.65772
388.0977, 24.14890
388.5798, 23.84629
389.0619, 23.78998
389.5440, 24.04777
390.0262, 24.50744
390.5083, 25.26804
390.9904, 26.22784
391.4725, 26.87691
391.9546, 26.81976
392.4367, 26.37836
392.9189, 25.76003
393.4010, 24.87152
393.8831, 24.16184
394.3652, 24.03827
394.8473, 24.21521
395.3294, 24.22117
395.8116, 23.29480
396.2937, 22.69828
396.7758, 23.25571
397.2579, 25.18419
397.7400, 26.45704
398.2221, 26.25611
398.7043, 25.44570
399.1864, 24.72550
399.6685, 23.92081
400.1506, 23.49191
400.6327, 23.75439
401.1148, 24.50916
401.5970, 24.79264
402.0791, 24.23754
402.5612, 23.63314
403.0433, 23.31166
403.5254, 23.32113
404.0075, 23.51888
404.4897, 24.08149
404.9718, 24.68038
405.4539, 24.72817
405.9360, 23.99261
406.4181, 23.43915
406.9002, 23.36588
407.3824, 23.72828
407.8645, 24.21414
408.3466, 24.93077
408.8287, 25.36270
409.3108, 24.67148
409.7929, 22.94755
410.2751, 22.26876
410.7572, 23.24207
411.2393, 24.90680
411.7214, 25.42480
412.2035, 24.89509
412.6856, 24.20292
413.1678, 23.80129
413.6499, 23.60450
414.1320, 23.40748
414.6141, 23.19098
415.0962, 23.06649
415.5783, 23.19853
416.0605, 23.48967
416.5426, 23.75814
417.0247, 23.91663
417.5068, 24.04772
417.9889, 24.36709
418.4710, 24.78049
418.9532, 24.85245
419.4353, 23.86799
419.9174, 22.72216
420.3995, 22.23737
420.8816, 22.89248
421.3637, 23.31605
421.8459, 22.50576
422.3280, 21.22823
422.8101, 20.64084
423.2922, 21.83714
423.7743, 23.00592
424.2564, 23.56890
424.7386, 23.47143
425.2207, 23.24397
425.7028, 22.51296
426.1849, 21.94447
426.6670, 22.00691
427.1491, 23.43302
427.6313, 24.30993
428.1134, 24.27380
428.5955, 23.67830
429.0776, 23.52529
429.5597, 24.09766
430.0418, 24.54929
430.5240, 24.54617
431.0061, 24.06423
431.4882, 23.40456
431.9703, 22.44147
432.4524, 21.58680
432.9345, 21.42294
433.4167, 21.97064
433.8988, 22.40451
434.3809, 22.53481
434.8630, 22.42209
435.3451, 22.13165
435.8272, 21.67098
436.3094, 21.26409
436.7915, 21.12135
437.2736, 21.13885
437.7557, 21.02255
438.2378, 20.71323
438.7199, 20.47229
439.2020, 20.61300
439.6841, 21.01545
440.1663, 21.43387
440.6484, 21.99315
441.1305, 22.36131
441.6126, 22.06194
442.0947, 21.21652
442.5768, 20.57398
443.0590, 20.67645
443.5411, 21.05087
444.0232, 21.35943
444.5053, 21.59511
444.9874, 21.63247
445.4695, 21.06840
445.9517, 20.34823
446.4338, 20.18635
446.9159, 21.46208
447.3980, 22.57269
447.8801, 23.02941
448.3622, 22.78976
448.8444, 22.48933
449.3265, 22.08793
449.8086, 21.65978
450.2907, 21.22394
450.7728, 20.63541
451.2549, 20.39089
451.7371, 20.69208
452.2192, 21.24403
452.7013, 21.35532
453.1834, 20.91189
453.6655, 20.43873
454.1476, 20.05719
454.6298, 19.79104
455.1119, 20.04406
455.5940, 20.91185
456.0761, 21.77771
456.5582, 22.03164
457.0403, 21.74386
457.5225, 21.19891
458.0046, 20.31796
458.4867, 19.48403
458.9688, 19.38082
459.4509, 19.87470
459.9330, 20.41803
460.4152, 20.55438
460.8973, 20.65596
461.3794, 21.39698
461.8615, 22.84204
462.3436, 23.84983
462.8257, 23.28503
463.3079, 22.03419
463.7900, 21.09332
464.2721, 20.84471
464.7542, 20.82902
465.2363, 20.99435
465.7184, 21.26528
466.2006, 21.42752
466.6827, 21.24001
467.1648, 21.09836
467.6469, 21.24554
468.1290, 21.86870
468.6111, 22.07458
469.0933, 21.46411
469.5754, 20.69026
470.0575, 20.33650
470.5396, 20.63316
471.0217, 20.89577
471.5038, 21.08929
471.9860, 21.18590
472.4681, 21.01169
472.9502, 20.42778
473.4323, 20.04087
473.9144, 20.31817
474.3965, 21.22363
474.8787, 21.53227
475.3608, 21.15477
475.8429, 20.60118
476.3250, 20.42764
476.8071, 20.57736
477.2892, 20.77588
477.7714, 20.97712
478.2535, 21.15429
478.7356, 21.36915
479.2177, 21.56120
479.6998, 21.47018
480.1819, 20.54507
480.6641, 19.48223
481.1462, 19.06957
481.6283, 19.39561
482.1104, 19.85965
482.5925, 20.23310
483.0746, 20.51560
483.5568, 20.70786
484.0389, 20.96531
484.5210, 20.96064
485.0031, 20.26754
485.4852, 19.19571
485.9673, 18.68745
486.4495, 19.53266
486.9316, 20.35875
487.4137, 20.65240
487.8958, 20.25724
488.3779, 20.13052
488.8600, 20.46679
489.3422, 20.86692
489.8243, 20.95862
490.3064, 20.65184
490.7885, 20.34911
491.2706, 20.11609
491.7527, 19.90466
492.2349, 19.48490
492.7170, 18.81848
493.1991, 18.42780
493.6812, 18.56315
494.1633, 19.18375
494.6454, 20.47151
495.1276, 22.47571
495.6097, 23.99270
496.0918, 23.43404
496.5739, 21.60423
497.0560, 20.22003
497.5381, 19.73013
498.0203, 19.60256
498.5024, 19.42151
498.9845, 19.23454
499.4666, 19.14253
499.9487, 19.30192
500.4308, 19.48146
500.9130, 19.54232
501.3951, 19.47858
501.8772, 19.40324
502.3593, 19.38151
502.8414, 19.33986
503.3235, 19.22467
503.8057, 18.89199
504.2878, 18.68451
504.7699, 18.52950
505.2520, 18.53164
505.7341, 18.95362
506.2162, 20.25310
506.6984, 21.03346
507.1805, 20.72419
507.6626, 19.48522
508.1447, 18.90608
508.6268, 19.13123
509.1089, 19.47789
509.5911, 19.35671
510.0732, 18.83768
510.5553, 18.81057
511.0374, 19.44856
511.5195, 20.17614
512.0016, 20.20326
512.4838, 19.69348
512.9659, 19.18394
513.4480, 18.76714
513.9301, 18.52735
514.4122, 18.60903
514.8943, 18.96768
515.3765, 19.41516
515.8586, 20.22517
516.3407, 20.83198
516.8228, 20.64013
517.3049, 19.40204
517.7870, 18.39316
518.2692, 18.19876
518.7513, 18.38153
519.2334, 18.52418
519.7155, 18.68023
520.1976, 18.64475
520.6797, 18.13131
521.1619, 17.42148
521.6440, 17.42447
522.1261, 18.76702
522.6082, 19.68756
523.0903, 19.33666
523.5724, 17.67593
524.0546, 16.96843
524.5367, 17.43579
525.0188, 18.18297
525.5009, 18.43359
525.9830, 18.22553
526.4651, 17.96379
526.9473, 17.65830
527.4294, 17.44412
527.9115, 17.63913
528.3936, 18.11741
528.8757, 18.46522
529.3578, 18.46148
529.8400, 18.25147
530.3221, 17.86029
530.8042, 17.33965
531.2863, 16.99363
531.7684, 17.04935
532.2505, 17.31257
532.7327, 17.70572
533.2148, 18.32650
533.6969, 18.69578
534.1790, 18.44022
534.6611, 17.96448
535.1432, 17.72677
535.6254, 17.93833
536.1075, 18.18415
536.5896, 18.57831
537.0717, 18.97375
537.5538, 18.74536
538.0359, 17.54624
538.5181, 16.52851
539.0002, 16.21085
539.4823, 16.58181
539.9644, 16.98615
540.4465, 17.45020
540.9286, 17.81647
541.4108, 17.80720
541.8929, 17.53949
542.3750, 17.62121
542.8571, 18.30239
543.3392, 18.92539
543.8214, 18.44313
544.3035, 17.27771
544.7856, 16.44597
545.2677, 16.43300
545.7498, 16.89659
546.2319, 18.11072
546.7141, 19.81607
547.1962, 20.53014
547.6783, 18.32764
548.1604, 15.97749
548.6425, 15.13914
549.1246, 16.62093
549.6068, 17.72277
550.0889, 18.14596
550.5710, 18.13424
551.0531, 17.82856
551.5352, 16.86217
552.0173, 16.44043
552.4995, 16.95847
552.9816, 17.93780
553.4637, 18.09892
553.9458, 17.32263
554.4279, 16.55511
554.9100, 16.14467
555.3922, 16.06027
555.8743, 16.29410
556.3564, 16.84470
556.8385, 17.32654
557.3206, 17.41474
557.8027, 17.22808
558.2849, 16.86550
558.7670, 16.24778
559.2491, 15.91247
559.7312, 16.74813
560.2133, 17.98525
560.6954, 18.57122
561.1776, 17.47048
561.6597, 16.36367
562.1418, 15.77630
562.6239, 15.62707
563.1060, 15.61434
563.5881, 15.79998
564.0703, 16.01226
564.5524, 16.18930
565.0345, 16.32011
565.5166, 16.58916
565.9987, 17.18771
566.4808, 17.59883
566.9630, 17.21792
567.4451, 15.93987
567.9272, 15.43461
568.4093, 16.00547
568.8914, 16.90228
569.3735, 16.97004
569.8557, 16.38332
570.3378, 15.99756
570.8199, 16.24364
571.3020, 16.69802
571.7841, 16.82101
572.2662, 16.67889
572.7484, 16.51671
573.2305, 16.37227
573.7126, 16.32451
574.1947, 16.56635
574.6768, 17.13914
575.1589, 17.33573
575.6411, 16.39774
576.1232, 15.34233
576.6053, 14.90491
577.0874, 15.58351
577.5695, 16.17236
578.0516, 16.80599
578.5338, 17.25592
579.0159, 17.11175
579.4980, 16.18521
579.9801, 15.33213
580.4622, 14.73246
580.9443, 14.34133
581.4265, 14.04906
581.9086, 13.85566
582.3907, 13.75911
582.8728, 13.61219
583.3549, 13.59625
583.8370, 14.33809
584.3192, 15.82291
584.8013, 17.02180
585.2834, 16.90787
585.7655, 16.22233
586.2476, 15.84366
586.7297, 16.12146
587.2118, 16.21180
587.6939, 15.54514
588.1760, 14.56093
588.6581, 13.81910
589.1403, 13.14843
589.6224, 13.07421
590.1045, 14.04428
590.5866, 15.65350
591.0687, 16.53409
591.5508, 16.46563
592.0330, 16.13809
592.5151, 15.70868
592.9972, 15.20714
593.4793, 15.02606
593.9614, 15.19570
594.4435, 15.45653
594.9257, 15.63717
595.4078, 15.74332
595.8899, 15.80396
596.3720, 15.82627
596.8541, 15.77304
597.3362, 15.59367
597.8184, 15.31996
598.3005, 14.97601
598.7826, 14.31728
599.2647, 13.94146
599.7468, 14.56731
600.2289, 15.66215
600.7111, 16.04872
601.1932, 14.40532
601.6753, 13.12349
602.1574, 12.88214
602.6395, 13.63037
603.1216, 14.77430
603.6038, 16.87391
604.0859, 18.36202
604.5680, 18.10239
605.0501, 15.92761
605.5322, 14.66563
606.0143, 14.38292
606.4965, 14.66890
606.9786, 15.42236
607.4607, 16.42118
607.9428, 16.88470
608.4249, 16.54741
608.9070, 15.98347
609.3892, 15.66234
609.8713, 15.55246
610.3534, 15.58826
610.8355, 16.06367
611.3176, 16.36371
611.7997, 15.97125
612.2819, 15.11765
612.7640, 14.66160
613.2461, 15.24271
613.7282, 15.79234
614.2103, 15.89888
614.6924, 15.52773
615.1746, 15.45082
615.6567, 15.86660
616.1388, 16.20202
616.6209, 15.92855
617.1030, 15.01649
617.5851, 14.56564
618.0673, 14.65389
618.5494, 15.08605
619.0315, 15.97845
619.5136, 17.04503
619.9957, 17.34681
620.4778, 16.32125
620.9600, 15.14537
621.4421, 15.24628
621.9242, 15.99433
622.4063, 16.10664
622.8884, 13.77507
