##NAMES=Cosalite
##RRUFFID=R060229
##IDEAL CHEMISTRY=Pb^2+^_2_Bi^3+^_2_S^2-^_5_
##LOCALITY=Amax mine, Kitsault, near Alice Arm, British Columbia, Canada
##OWNER=RRUFF
##SOURCE=Michael Scott
##DESCRIPTION=Parallel group of black metallic acicular crystals
##STATUS=The identification of this mineral is confirmed by single-crystal X-ray diffraction and chemical analysis.
##URL=rruff.info/R060229
##MEASURED CHEMISTRY=(Pb_1.84_Cu_0.16_)_Î£=2_Bi_2.00_S_5.00_
150.1633, 127.0641
150.6454, 126.7716
151.1275, 126.5209
151.6096, 126.4047
152.0917, 126.4990
152.5739, 126.7151
153.0560, 126.9464
153.5381, 127.2499
154.0202, 127.3848
154.5023, 127.0138
154.9844, 126.1071
155.4665, 125.3922
155.9487, 125.2959
156.4308, 125.4464
156.9129, 125.6037
157.3950, 125.7277
157.8771, 125.7782
158.3592, 125.6382
158.8414, 125.1520
159.3235, 124.8825
159.8056, 125.2655
160.2877, 125.7598
160.7698, 125.8101
161.2519, 125.1489
161.7341, 124.0962
162.2162, 123.6182
162.6983, 124.3133
163.1804, 124.8128
163.6625, 124.8999
164.1446, 124.6991
164.6268, 124.3231
165.1089, 123.8176
165.5910, 123.2366
166.0731, 122.9259
166.5552, 123.1118
167.0373, 123.3189
167.5195, 123.5223
168.0016, 123.6786
168.4837, 123.6941
168.9658, 123.4764
169.4479, 123.0588
169.9300, 122.9436
170.4122, 123.4538
170.8943, 123.8936
171.3764, 123.8641
171.8585, 123.4452
172.3406, 123.0446
172.8227, 122.9728
173.3049, 123.2005
173.7870, 123.3119
174.2691, 123.2667
174.7512, 123.1355
175.2333, 122.9461
175.7154, 122.6973
176.1976, 122.4619
176.6797, 122.3031
177.1618, 122.1990
177.6439, 122.1046
178.1260, 122.0323
178.6081, 121.9561
179.0903, 121.8100
179.5724, 121.5511
180.0545, 121.3536
180.5366, 121.3504
181.0187, 121.4736
181.5008, 121.6330
181.9830, 121.8201
182.4651, 122.0099
182.9472, 122.1120
183.4293, 122.0505
183.9114, 122.0191
184.3935, 122.1302
184.8757, 122.3222
185.3578, 122.4896
185.8399, 122.5606
186.3220, 122.5440
186.8041, 122.5300
187.2862, 122.5072
187.7684, 122.5017
188.2505, 122.5341
188.7326, 122.5896
189.2147, 122.6285
189.6968, 122.5988
190.1789, 122.4910
190.6611, 122.5818
191.1432, 123.1846
191.6253, 123.6834
192.1074, 123.8040
192.5895, 123.6323
193.0716, 123.4313
193.5538, 123.4339
194.0359, 123.6705
194.5180, 123.8584
195.0001, 123.9353
195.4822, 124.0302
195.9643, 124.2153
196.4465, 124.4814
196.9286, 124.7742
197.4107, 125.0541
197.8928, 125.3243
198.3749, 125.4943
198.8570, 125.4708
199.3392, 125.4287
199.8213, 125.4323
200.3034, 125.5024
200.7855, 125.7267
201.2676, 126.2627
201.7497, 127.1263
202.2319, 127.7162
202.7140, 127.8825
203.1961, 127.8412
203.6782, 127.7264
204.1603, 127.5442
204.6424, 127.4380
205.1246, 127.5551
205.6067, 127.8680
206.0888, 128.2681
206.5709, 128.9040
207.0530, 129.5522
207.5351, 129.8437
208.0173, 129.6691
208.4994, 129.4639
208.9815, 129.5773
209.4636, 129.9137
209.9457, 130.3114
210.4278, 130.7471
210.9100, 131.2006
211.3921, 131.6369
211.8742, 132.0673
212.3563, 132.4456
212.8384, 132.7107
213.3205, 132.9113
213.8027, 133.1376
214.2848, 133.4529
214.7669, 133.8275
215.2490, 134.1627
215.7311, 134.5062
216.2132, 134.7206
216.6954, 134.6652
217.1775, 134.4707
217.6596, 134.3572
218.1417, 134.4562
218.6238, 134.7460
219.1059, 135.0900
219.5881, 135.3666
220.0702, 135.8773
220.5523, 137.1011
221.0344, 138.5578
221.5165, 139.4554
221.9986, 139.1836
222.4808, 137.8912
222.9629, 136.9688
223.4450, 136.4405
223.9271, 136.3330
224.4092, 136.9286
224.8913, 137.9234
225.3735, 138.8644
225.8556, 139.4742
226.3377, 139.7541
226.8198, 139.7303
227.3019, 138.9528
227.7840, 138.3345
228.2662, 138.1943
228.7483, 138.3419
229.2304, 138.4303
229.7125, 138.2314
230.1946, 137.7732
230.6767, 137.3652
231.1589, 137.0065
231.6410, 136.6924
232.1231, 136.3923
232.6052, 136.1364
233.0873, 136.0150
233.5694, 136.1109
234.0516, 136.3625
234.5337, 136.3015
235.0158, 135.7136
235.4979, 135.1176
235.9800, 134.6450
236.4621, 134.2792
236.9443, 134.0082
237.4264, 133.8717
237.9085, 133.7769
238.3906, 133.2822
238.8727, 131.9856
239.3548, 130.8255
239.8370, 130.2879
240.3191, 130.1441
240.8012, 129.8061
241.2833, 128.9272
241.7654, 127.7296
242.2475, 126.8957
242.7297, 126.7262
243.2118, 126.3805
243.6939, 125.2151
244.1760, 123.5401
244.6581, 122.3495
245.1402, 122.2062
245.6224, 122.5980
246.1045, 122.4635
246.5866, 121.6680
247.0687, 120.7974
247.5508, 120.2487
248.0329, 119.8927
248.5151, 119.2245
248.9972, 117.9557
249.4793, 116.4255
249.9614, 115.1070
250.4435, 113.9896
250.9256, 113.0594
251.4078, 112.4570
251.8899, 112.0806
252.3720, 111.4317
252.8541, 110.2490
253.3362, 108.9193
253.8183, 107.8758
254.3005, 107.1126
254.7826, 106.4042
255.2647, 105.6148
255.7468, 104.7641
256.2289, 103.9432
256.7110, 103.1395
257.1931, 102.4172
257.6753, 101.8477
258.1574, 101.4102
258.6395, 100.9691
259.1216, 100.4505
259.6037, 99.86079
260.0858, 99.23035
260.5680, 98.58983
261.0501, 97.86203
261.5322, 96.90352
262.0143, 95.80806
262.4964, 94.85801
262.9785, 94.29700
263.4607, 94.06218
263.9428, 93.77076
264.4249, 93.40173
264.9070, 93.00304
265.3891, 92.66743
265.8712, 92.32419
266.3534, 91.81887
266.8355, 90.97325
267.3176, 89.90318
267.7997, 89.10095
268.2818, 88.64935
268.7639, 88.37045
269.2461, 88.30834
269.7282, 88.32488
270.2103, 88.21191
270.6924, 87.84019
271.1745, 87.28752
271.6566, 86.82050
272.1388, 86.52872
272.6209, 86.17274
273.1030, 85.64314
273.5851, 85.04121
274.0672, 84.48116
274.5493, 84.00926
275.0315, 83.61290
275.5136, 83.26842
275.9957, 82.98975
276.4778, 82.73987
276.9599, 82.53997
277.4420, 82.34573
277.9242, 82.14731
278.4063, 81.93839
278.8884, 81.65377
279.3705, 81.10287
279.8526, 79.97501
280.3347, 79.27213
280.8169, 79.37370
281.2990, 79.68016
281.7811, 79.75746
282.2632, 79.50002
282.7453, 79.09301
283.2274, 78.79860
283.7096, 78.64590
284.1917, 78.54191
284.6738, 78.65971
285.1559, 78.68719
285.6380, 78.39042
286.1201, 77.77390
286.6023, 77.03662
287.0844, 76.35378
287.5665, 75.65425
288.0486, 75.33508
288.5307, 75.85181
289.0128, 76.31096
289.4950, 76.22874
289.9771, 75.68184
290.4592, 75.09237
290.9413, 74.87186
291.4234, 75.06961
291.9055, 74.98308
292.3877, 74.25929
292.8698, 73.60746
293.3519, 73.31429
293.8340, 73.27665
294.3161, 73.23300
294.7982, 72.99208
295.2804, 72.57472
295.7625, 72.26260
296.2446, 72.11889
296.7267, 72.02004
297.2088, 72.01122
297.6909, 72.02061
298.1731, 71.93104
298.6552, 71.67294
299.1373, 71.30629
299.6194, 71.06168
300.1015, 71.07695
300.5836, 71.05743
301.0658, 71.01023
301.5479, 70.90514
302.0300, 70.65689
302.5121, 70.24030
302.9942, 69.79747
303.4763, 69.63426
303.9585, 70.05809
304.4406, 70.30923
304.9227, 70.27409
305.4048, 70.14293
305.8869, 70.05634
306.3690, 70.05115
306.8512, 70.09101
307.3333, 70.14282
307.8154, 70.28468
308.2975, 70.20993
308.7796, 69.71423
309.2617, 69.20338
309.7439, 68.93066
310.2260, 68.89967
310.7081, 68.96457
311.1902, 68.99357
311.6723, 68.99277
312.1544, 68.90420
312.6366, 68.60497
313.1187, 68.35076
313.6008, 68.28445
314.0829, 68.35034
314.5650, 68.40003
315.0471, 68.32509
315.5293, 68.13457
316.0114, 67.94736
316.4935, 67.64584
316.9756, 67.47779
317.4577, 67.59915
317.9398, 67.86611
318.4220, 68.08242
318.9041, 68.15012
319.3862, 68.08120
319.8683, 67.90760
320.3504, 67.44164
320.8326, 67.11080
321.3147, 67.03257
321.7968, 67.04966
322.2789, 67.00277
322.7610, 66.84212
323.2431, 66.63577
323.7253, 66.50044
324.2074, 66.46534
324.6895, 66.45101
325.1716, 66.50283
325.6537, 66.53957
326.1358, 66.47361
326.6180, 66.31470
327.1001, 66.17344
327.5822, 66.18557
328.0643, 66.40720
328.5464, 66.48964
329.0285, 66.39985
329.5107, 66.22480
329.9928, 65.94282
330.4749, 65.59970
330.9570, 65.28365
331.4391, 65.05475
331.9212, 64.91355
332.4034, 64.87094
332.8855, 64.96984
333.3676, 65.12885
333.8497, 65.51585
334.3318, 65.90862
334.8139, 65.94205
335.2961, 65.42399
335.7782, 64.58652
336.2603, 64.13046
336.7424, 64.38899
337.2245, 64.55022
337.7066, 64.41835
338.1888, 64.24776
338.6709, 64.31490
339.1530, 64.67519
339.6351, 65.10460
340.1172, 65.25844
340.5993, 65.02475
341.0815, 64.79085
341.5636, 64.53040
342.0457, 64.29218
342.5278, 64.07226
343.0099, 63.89139
343.4920, 63.81535
343.9742, 63.94871
344.4563, 64.31558
344.9384, 64.44151
345.4205, 64.02097
345.9026, 63.64452
346.3847, 63.49192
346.8669, 63.49195
347.3490, 63.51189
347.8311, 63.48267
348.3132, 63.39311
348.7953, 63.17232
349.2774, 62.57347
349.7596, 62.24193
350.2417, 62.49032
350.7238, 62.93324
351.2059, 63.18663
351.6880, 63.12028
352.1701, 62.88572
352.6523, 62.73415
353.1344, 62.70937
353.6165, 62.63256
354.0986, 62.41611
354.5807, 62.19682
355.0628, 62.03820
355.5450, 61.95278
356.0271, 61.93530
356.5092, 61.99937
356.9913, 62.14788
357.4734, 62.28822
357.9555, 62.50146
358.4377, 62.60479
358.9198, 62.45231
359.4019, 62.14327
359.8840, 61.87597
360.3661, 61.76399
360.8482, 61.77502
361.3304, 61.82778
361.8125, 61.96952
362.2946, 62.04544
362.7767, 61.91919
363.2588, 61.74250
363.7409, 61.68646
364.2231, 61.81360
364.7052, 61.99740
365.1873, 62.07977
365.6694, 62.05305
366.1515, 61.99502
366.6336, 61.88085
367.1158, 61.77508
367.5979, 61.74269
368.0800, 61.77920
368.5621, 61.79863
369.0442, 61.71324
369.5263, 61.55027
370.0085, 61.43907
370.4906, 61.39046
370.9727, 61.39563
371.4548, 61.48844
371.9369, 61.62690
372.4190, 61.71727
372.9012, 61.74028
373.3833, 61.68553
373.8654, 61.46429
374.3475, 61.04012
374.8296, 60.77985
375.3117, 61.02092
375.7939, 61.46395
376.2760, 61.65487
376.7581, 61.49084
377.2402, 61.23811
377.7223, 61.06475
378.2044, 60.95920
378.6866, 60.87470
379.1687, 60.80492
379.6508, 60.74041
380.1329, 60.63519
380.6150, 60.48689
381.0971, 60.45173
381.5793, 60.70837
382.0614, 61.05463
382.5435, 61.19626
383.0256, 61.09539
383.5077, 60.89691
383.9898, 60.63813
384.4720, 60.36592
384.9541, 60.32556
385.4362, 60.77122
385.9183, 61.22704
386.4004, 61.39115
386.8825, 61.31951
387.3647, 61.19639
387.8468, 61.08289
388.3289, 61.01300
388.8110, 61.10317
389.2931, 61.46115
389.7752, 61.71815
390.2574, 61.74521
390.7395, 61.65543
391.2216, 61.57776
391.7037, 61.54171
392.1858, 61.51319
392.6679, 61.45965
393.1501, 61.38479
393.6322, 61.24127
394.1143, 60.88616
394.5964, 60.59588
395.0785, 60.54921
395.5606, 60.70560
396.0428, 60.93787
396.5249, 61.18076
397.0070, 61.40930
397.4891, 61.49134
397.9712, 61.23637
398.4533, 61.06167
398.9355, 61.04137
399.4176, 61.10939
399.8997, 61.20284
400.3818, 61.29889
400.8639, 61.39772
401.3460, 61.50853
401.8282, 61.66869
402.3103, 61.73088
402.7924, 61.42802
403.2745, 61.27775
403.7566, 61.78734
404.2387, 62.71968
404.7209, 63.34008
405.2030, 63.01676
405.6851, 61.90937
406.1672, 61.25248
406.6493, 61.26013
407.1314, 61.45533
407.6136, 61.91793
408.0957, 62.40547
408.5778, 62.61770
409.0599, 62.44452
409.5420, 62.12693
410.0241, 62.04317
410.5063, 62.25729
410.9884, 62.35979
411.4705, 62.12327
411.9526, 61.90177
412.4347, 61.93194
412.9168, 62.17875
413.3990, 62.42566
413.8811, 62.52780
414.3632, 62.51129
414.8453, 62.42995
415.3274, 62.19187
415.8095, 62.11911
416.2917, 62.59370
416.7738, 63.27748
417.2559, 63.71214
417.7380, 63.72909
418.2201, 63.59493
418.7022, 63.49892
419.1844, 63.45116
419.6665, 63.57220
420.1486, 63.97460
420.6307, 64.45999
421.1128, 64.75672
421.5949, 64.86929
422.0771, 65.01598
422.5592, 65.44530
423.0413, 65.87892
423.5234, 65.83283
424.0055, 65.25320
424.4876, 64.69310
424.9698, 64.55898
425.4519, 64.81605
425.9340, 65.08569
426.4161, 65.33473
426.8982, 65.62979
427.3803, 66.08871
427.8625, 66.60798
428.3446, 66.97463
428.8267, 67.11092
429.3088, 67.05978
429.7909, 66.87333
430.2730, 66.42515
430.7552, 66.13750
431.2373, 66.10445
431.7194, 66.16584
432.2015, 66.28221
432.6836, 66.40239
433.1657, 66.37070
433.6479, 66.01971
434.1300, 65.39870
434.6121, 65.17017
435.0942, 65.96957
435.5763, 66.42851
436.0584, 66.07170
436.5406, 65.37166
437.0227, 64.85880
437.5048, 64.72031
437.9869, 64.79806
438.4690, 64.87386
438.9511, 64.97490
439.4333, 64.98377
439.9154, 64.91296
440.3975, 64.73403
440.8796, 64.33597
441.3617, 63.80784
441.8438, 63.37682
442.3260, 63.22093
442.8081, 63.25279
443.2902, 63.18237
443.7723, 62.96841
444.2544, 62.75458
444.7365, 62.45683
445.2187, 62.25273
445.7008, 62.39927
446.1829, 62.96857
446.6650, 63.52277
447.1471, 63.67602
447.6292, 63.47634
448.1114, 63.16357
448.5935, 62.71549
449.0756, 62.27144
449.5577, 61.94482
450.0398, 61.71474
450.5219, 61.53579
451.0041, 61.43547
451.4862, 61.35353
451.9683, 61.19478
452.4504, 60.98133
452.9325, 60.87093
453.4146, 60.94478
453.8968, 61.15008
454.3789, 61.41709
454.8610, 61.83250
455.3431, 62.04287
455.8252, 61.87053
456.3073, 61.50701
456.7895, 61.08841
457.2716, 60.66072
457.7537, 60.34528
458.2358, 60.25890
458.7179, 60.40202
459.2000, 60.54731
459.6822, 60.71168
460.1643, 60.85907
460.6464, 61.05383
461.1285, 61.20168
461.6106, 61.07489
462.0927, 60.60705
462.5748, 60.12844
463.0569, 60.28754
463.5391, 61.56879
464.0212, 62.15762
464.5033, 61.39154
464.9854, 60.59699
465.4675, 60.44051
465.9496, 60.78166
466.4318, 61.12913
466.9139, 61.16739
467.3960, 60.98939
467.8781, 60.90434
468.3602, 60.98794
468.8423, 60.96477
469.3245, 60.59790
469.8066, 60.19035
470.2887, 60.02741
470.7708, 60.14355
471.2529, 60.24317
471.7350, 59.97385
472.2172, 59.48194
472.6993, 59.39724
473.1814, 59.91397
473.6635, 60.42430
474.1456, 60.38956
474.6277, 60.03560
475.1099, 59.86494
475.5920, 60.08006
476.0741, 60.33604
476.5562, 60.39773
477.0383, 60.30767
477.5204, 60.20674
478.0026, 60.15461
478.4847, 60.04853
478.9668, 59.69014
479.4489, 58.97459
479.9310, 58.54331
480.4131, 58.57788
480.8953, 58.78438
481.3774, 59.03969
481.8595, 59.30108
482.3416, 59.52501
482.8237, 59.69816
483.3058, 59.77993
483.7880, 59.61954
484.2701, 58.82600
484.7522, 58.35907
485.2343, 58.46310
485.7164, 58.73543
486.1985, 58.85326
486.6807, 58.79863
487.1628, 58.78582
487.6449, 59.06551
488.1270, 59.59492
488.6091, 59.74036
489.0912, 59.20613
489.5734, 58.75267
490.0555, 58.67281
490.5376, 58.75587
491.0197, 58.75715
491.5018, 58.60521
491.9839, 58.44419
492.4661, 58.41363
492.9482, 58.50645
493.4303, 58.69493
493.9124, 59.07175
494.3945, 59.35875
494.8766, 59.22683
495.3588, 58.82090
495.8409, 58.52009
496.3230, 58.46822
496.8051, 58.50346
497.2872, 58.50189
497.7693, 58.47555
498.2515, 58.48930
498.7336, 58.58943
499.2157, 58.67192
499.6978, 58.53100
500.1799, 58.05104
500.6620, 57.80127
501.1442, 58.05970
501.6263, 58.35809
502.1084, 58.29358
502.5905, 57.96400
503.0726, 57.76643
503.5547, 57.95730
504.0369, 58.41102
504.5190, 58.69185
505.0011, 58.68971
505.4832, 58.68032
505.9653, 58.70077
506.4474, 58.70341
506.9296, 58.61586
507.4117, 58.46099
507.8938, 58.36131
508.3759, 58.45324
508.8580, 58.68568
509.3401, 58.73800
509.8223, 58.51430
510.3044, 58.31984
510.7865, 58.30278
511.2686, 58.34811
511.7507, 58.35954
512.2328, 58.32156
512.7150, 58.22908
513.1971, 58.00173
513.6792, 57.71758
514.1613, 57.65999
514.6434, 57.92254
515.1255, 58.11501
515.6077, 57.86091
516.0898, 57.28617
516.5719, 56.95972
517.0540, 56.97875
517.5361, 57.15485
518.0182, 57.60409
518.5004, 58.10244
518.9825, 58.18760
519.4646, 57.74158
519.9467, 57.19053
520.4288, 57.06124
520.9109, 57.44348
521.3931, 57.64590
521.8752, 57.53630
522.3573, 57.42373
522.8394, 57.44564
523.3215, 57.52474
523.8036, 57.52331
524.2858, 57.38804
524.7679, 57.20638
525.2500, 57.12376
525.7321, 57.15921
526.2142, 57.20193
526.6964, 57.33892
527.1785, 57.37697
527.6606, 57.13176
528.1427, 56.72884
528.6248, 56.44461
529.1069, 56.41267
529.5891, 56.52030
530.0712, 56.63699
530.5533, 56.76313
531.0354, 56.92785
531.5175, 57.20006
531.9996, 57.41801
532.4818, 57.28893
532.9639, 56.84673
533.4460, 56.59212
533.9281, 56.75611
534.4102, 57.03526
534.8923, 57.28687
535.3745, 57.46111
535.8566, 57.40712
536.3387, 57.03156
536.8208, 56.51216
537.3029, 56.22178
537.7850, 56.30985
538.2672, 56.32221
538.7493, 56.17435
539.2314, 56.03381
539.7135, 55.98147
540.1956, 56.01819
540.6777, 56.13276
541.1599, 56.33134
541.6420, 56.55568
542.1241, 56.63101
542.6062, 56.47991
543.0883, 56.43098
543.5704, 56.63745
544.0526, 56.88955
544.5347, 57.14143
545.0168, 57.34755
545.4989, 57.33959
545.9810, 56.79067
546.4631, 56.10975
546.9453, 56.00011
547.4274, 56.44648
547.9095, 56.94678
548.3916, 57.37304
548.8737, 57.65573
549.3558, 57.56096
549.8380, 56.99984
550.3201, 56.70673
550.8022, 57.07597
551.2843, 57.56671
551.7664, 57.79415
552.2485, 57.74398
552.7307, 57.45234
553.2128, 56.90294
553.6949, 56.27946
554.1770, 56.13382
554.6591, 57.00333
555.1412, 57.38221
555.6234, 56.90911
556.1055, 56.29127
556.5876, 55.89922
557.0697, 55.74096
557.5518, 55.69146
558.0339, 55.68886
558.5161, 55.71910
558.9982, 55.73194
559.4803, 55.70869
559.9624, 55.79330
560.4445, 56.14256
560.9266, 56.49828
561.4088, 56.63922
561.8909, 56.57029
562.3730, 56.37367
562.8551, 55.90908
563.3372, 55.45063
563.8193, 55.36672
564.3015, 55.58775
564.7836, 55.70188
565.2657, 55.50160
565.7478, 55.18193
566.2299, 55.10476
566.7120, 55.38306
567.1942, 55.65011
567.6763, 55.95575
568.1584, 56.20168
568.6405, 56.31833
569.1226, 56.33001
569.6047, 56.29730
570.0869, 56.25056
570.5690, 56.18837
571.0511, 56.09696
571.5332, 55.95275
572.0153, 55.86899
572.4974, 55.91221
572.9796, 55.96434
573.4617, 55.93678
573.9438, 55.86821
574.4259, 55.86781
574.9080, 56.01348
575.3901, 56.19592
575.8723, 56.31130
576.3544, 56.35915
576.8365, 56.33478
577.3186, 56.23544
577.8007, 56.06378
578.2828, 55.78768
578.7650, 55.39878
579.2471, 55.13440
579.7292, 55.06581
580.2113, 55.05513
580.6934, 54.99060
581.1755, 54.95221
581.6577, 55.12538
582.1398, 55.55675
582.6219, 56.03032
583.1040, 56.24287
583.5861, 56.15773
584.0682, 56.10088
584.5504, 56.07850
585.0325, 56.07943
585.5146, 56.12848
585.9967, 56.18668
586.4788, 56.18111
586.9609, 56.08582
587.4431, 56.03296
587.9252, 56.23895
588.4073, 56.60397
588.8894, 56.69255
589.3715, 56.40351
589.8536, 56.12017
590.3358, 56.12285
590.8179, 56.32351
591.3000, 56.39112
591.7821, 56.19415
592.2642, 56.10193
592.7463, 56.34875
593.2285, 56.69125
593.7106, 56.85850
594.1927, 56.82631
594.6748, 56.71108
595.1569, 56.59166
595.6390, 56.48002
596.1212, 56.44031
596.6033, 56.48233
597.0854, 56.58440
597.5675, 56.88240
598.0496, 57.12316
598.5317, 57.09442
599.0139, 56.82222
599.4960, 56.49218
599.9781, 56.12001
600.4602, 55.84188
600.9423, 56.06600
601.4244, 56.80165
601.9066, 57.17626
602.3887, 56.75718
602.8708, 56.05560
603.3529, 55.77075
603.8350, 55.89399
604.3171, 56.02478
604.7993, 56.15265
605.2814, 56.22978
605.7635, 56.18154
606.2456, 56.06604
606.7277, 56.02572
607.2098, 56.11214
607.6920, 56.21035
608.1741, 56.12199
608.6562, 55.78197
609.1383, 55.61146
609.6204, 55.68845
610.1025, 55.85650
610.5847, 56.23082
611.0668, 56.60160
611.5489, 56.62020
612.0310, 56.17205
612.5131, 55.72837
612.9952, 55.80539
613.4774, 56.23481
613.9595, 56.44990
614.4416, 56.37309
614.9237, 56.28587
615.4058, 56.36352
615.8879, 56.56015
616.3701, 56.74442
616.8522, 57.02955
617.3343, 57.08275
617.8164, 56.65780
618.2985, 56.10308
618.7806, 55.71170
619.2628, 55.49102
619.7449, 55.28988
620.2270, 54.99610
620.7091, 54.71893
621.1912, 54.79732
621.6733, 55.34543
622.1555, 55.91174
622.6376, 56.64847
623.1197, 57.19205
623.6018, 57.25657
624.0839, 56.96077
624.5660, 56.62708
625.0482, 56.33799
625.5303, 56.12386
626.0124, 56.02169
626.4945, 56.02323
626.9766, 56.15802
627.4587, 56.46034
627.9409, 56.65802
628.4230, 56.42896
628.9051, 55.78584
629.3872, 55.46480
629.8693, 55.77227
630.3514, 55.96176
630.8336, 55.78297
631.3157, 55.46661
631.7978, 55.18530
632.2799, 55.00491
632.7620, 55.01032
633.2441, 55.33573
633.7263, 55.86718
634.2084, 56.13628
634.6905, 56.09080
635.1726, 55.98569
635.6547, 55.86713
636.1368, 55.74285
636.6190, 55.55788
637.1011, 55.33152
637.5832, 55.31615
638.0653, 55.78669
638.5474, 56.32810
639.0295, 56.64377
639.5117, 56.75222
639.9938, 56.67562
640.4759, 56.42108
640.9580, 56.14642
641.4401, 56.06318
641.9222, 56.19395
642.4044, 56.30507
642.8865, 56.44658
643.3686, 56.50421
643.8507, 56.44121
644.3328, 56.28822
644.8149, 56.01907
645.2971, 55.65235
