##NAMES=Cotunnite
##RRUFFID=R060655
##IDEAL CHEMISTRY=Pb^2+^Cl_2_
##LOCALITY=Mount Vesuvius, Somma-Vesuvius Complex, Naples Province, Campania, Italy
##OWNER=RRUFF
##SOURCE=Michael Scott
##DESCRIPTION=Colorless tabular crystals with a melted looking exterior
##STATUS=The identification of this mineral is confirmed by single-crystal X-ray diffraction and chemical analysis.
##URL=rruff.info/R060655
##MEASURED CHEMISTRY=Pb_1.00_Cl_2.00_
90.185, 901.556
90.668, 913.064
91.150, 919.622
91.632, 918.832
92.114, 916.032
92.596, 917.402
93.078, 922.731
93.560, 930.044
94.042, 938.390
94.525, 947.596
95.007, 956.583
95.489, 963.909
95.971, 970.964
96.453, 982.740
96.935, 1000.090
97.417, 1018.853
97.899, 1030.280
98.381, 1033.252
98.864, 1045.935
99.346, 1077.747
99.828, 1129.867
100.310, 1186.549
100.792, 1247.401
101.274, 1312.895
101.756, 1383.520
102.238, 1453.673
102.720, 1540.115
103.203, 1654.769
103.685, 1798.848
104.167, 1964.845
104.649, 2144.386
105.131, 2339.104
105.613, 2581.197
106.095, 2867.698
106.577, 3208.395
107.060, 3606.602
107.542, 4053.488
108.024, 4575.001
108.506, 5182.658
108.988, 5872.899
109.470, 6645.639
109.952, 7508.814
110.434, 8449.777
110.916, 9442.769
111.399, 10492.960
111.881, 11584.530
112.363, 12721.550
112.845, 13864.230
113.327, 15087.570
113.809, 16393.350
114.291, 17793.439
114.773, 19292.600
115.256, 20855.949
115.738, 22517.051
116.220, 24318.279
116.702, 26285.420
117.184, 28369.141
117.666, 30565.971
118.148, 32871.449
118.630, 35253.270
119.113, 37745.180
119.595, 40264.461
120.077, 42661.570
120.559, 44840.871
121.041, 46883.660
121.523, 48879.449
122.005, 50892.379
122.487, 52739.410
122.969, 54227.250
123.451, 55400.270
123.934, 56414.930
124.416, 57357.000
124.898, 58195.391
125.380, 58882.559
125.862, 59377.469
126.344, 59732.781
126.826, 60005.828
127.308, 60195.289
127.791, 60301.961
128.273, 60290.898
128.755, 60187.660
129.237, 60077.160
129.719, 59969.328
130.201, 59878.289
130.683, 59830.141
131.165, 59814.738
131.648, 59879.570
132.130, 60113.480
132.612, 60512.488
133.094, 60965.090
133.576, 61394.891
134.058, 61805.789
134.540, 62314.559
135.022, 62947.352
135.504, 63673.379
135.986, 64388.840
136.469, 65097.039
136.951, 65815.383
137.433, 66547.500
137.915, 67296.906
138.397, 68074.203
138.879, 68903.828
139.361, 69778.547
139.844, 70517.148
140.326, 71081.023
140.808, 71574.242
141.290, 72112.609
141.772, 72739.227
142.254, 73319.094
142.736, 73810.000
143.218, 74210.477
143.700, 74553.031
144.182, 74819.094
144.665, 75038.297
145.147, 75271.383
145.629, 75511.977
146.111, 75765.047
146.593, 76029.250
147.075, 76318.539
147.557, 76591.547
148.040, 76832.906
148.522, 77050.930
149.004, 77287.297
149.486, 77556.594
149.968, 77834.930
150.450, 78109.570
150.932, 78407.273
151.414, 78680.906
151.896, 78933.797
152.378, 79172.750
152.861, 79371.328
153.343, 79566.117
153.825, 79712.883
154.307, 79772.383
154.789, 79687.148
155.271, 79573.898
155.753, 79495.359
156.235, 79495.422
156.718, 79338.719
157.200, 78913.797
157.682, 78318.906
158.164, 77695.523
158.646, 77102.477
159.128, 76462.977
159.610, 75725.867
160.092, 74845.797
160.574, 73957.094
161.057, 73118.844
161.539, 72295.711
162.021, 71427.844
162.503, 70433.227
162.985, 69412.391
163.467, 68433.781
163.949, 67506.797
164.431, 66632.773
164.913, 65795.844
165.396, 65002.039
165.878, 64279.680
166.360, 63658.410
166.842, 63114.230
167.324, 62622.250
167.806, 62140.648
168.288, 61736.238
168.770, 61462.191
169.253, 61317.520
169.735, 61253.391
170.217, 61251.941
170.699, 61309.801
171.181, 61420.828
171.663, 61608.859
172.145, 61835.539
172.627, 62073.449
173.109, 62322.281
173.592, 62572.449
174.074, 62832.539
174.556, 63088.512
175.038, 63311.320
175.520, 63529.898
176.002, 63692.762
176.484, 63714.602
176.966, 63571.410
177.449, 63323.512
177.931, 63064.961
178.413, 62775.289
178.895, 62359.051
179.377, 61734.711
179.859, 60937.930
180.341, 60061.641
180.823, 59142.410
181.305, 58129.980
181.788, 56940.109
182.270, 55574.629
182.752, 54139.891
183.234, 52729.422
183.716, 51323.480
184.198, 49905.020
184.680, 48424.391
185.162, 46942.520
185.645, 45518.891
186.127, 44166.770
186.609, 42857.809
187.091, 41577.059
187.573, 40332.828
188.055, 39135.422
188.537, 37999.000
189.019, 36921.461
189.501, 35898.102
189.984, 34936.090
190.466, 34013.160
190.948, 33115.699
191.430, 32236.881
191.912, 31402.080
192.394, 30632.760
192.876, 29931.250
193.358, 29215.510
193.840, 28472.250
194.323, 27750.410
194.805, 27136.051
195.287, 26639.461
195.769, 26168.850
196.251, 25677.721
196.733, 25166.539
197.215, 24651.420
197.697, 24126.461
198.180, 23606.090
198.662, 23126.061
199.144, 22689.320
199.626, 22279.770
200.108, 21885.730
200.590, 21508.199
201.072, 21137.859
201.554, 20768.869
202.036, 20404.391
202.519, 20059.400
203.001, 19736.590
203.483, 19422.891
203.965, 19103.789
204.447, 18774.580
204.929, 18463.840
205.411, 18185.090
205.893, 17932.141
206.376, 17666.510
206.858, 17383.619
207.340, 17096.920
207.822, 16821.699
208.304, 16562.211
208.786, 16297.690
209.268, 16022.230
209.750, 15737.560
210.232, 15464.040
210.715, 15203.130
211.197, 14952.960
211.679, 14713.670
212.161, 14489.710
212.643, 14262.620
213.125, 14024.110
213.607, 13769.680
214.089, 13532.700
214.572, 13314.510
215.054, 13112.230
215.536, 12919.460
216.018, 12739.360
216.500, 12559.220
216.982, 12369.560
217.464, 12165.940
217.946, 11974.990
218.428, 11801.900
218.911, 11638.700
219.393, 11472.620
219.875, 11298.380
220.357, 11128.250
220.839, 10970.850
221.321, 10834.170
221.803, 10689.020
222.285, 10531.860
222.768, 10365.930
223.250, 10201.290
223.732, 10027.710
224.214, 9870.215
224.696, 9743.008
225.178, 9662.667
225.660, 9576.257
226.142, 9482.786
226.624, 9381.039
227.107, 9267.128
227.589, 9129.645
228.071, 8995.722
228.553, 8885.821
229.035, 8813.986
229.517, 8732.488
229.999, 8634.000
230.481, 8520.328
230.964, 8410.141
231.446, 8300.787
231.928, 8198.203
232.410, 8109.600
232.892, 8045.736
233.374, 7973.952
233.856, 7887.562
234.338, 7787.789
234.820, 7700.652
235.303, 7635.926
235.785, 7572.444
236.267, 7489.703
236.749, 7369.468
237.231, 7265.183
237.713, 7188.550
238.195, 7139.634
238.677, 7089.953
239.160, 7041.327
239.642, 6990.272
240.124, 6933.177
240.606, 6867.573
241.088, 6800.529
241.570, 6733.312
242.052, 6665.967
242.534, 6597.048
243.016, 6523.952
243.499, 6451.357
243.981, 6384.263
244.463, 6323.049
244.945, 6266.189
245.427, 6213.127
245.909, 6164.201
246.391, 6118.622
246.873, 6076.674
247.355, 6037.309
247.838, 6001.738
248.320, 5978.560
248.802, 5942.455
249.284, 5881.632
249.766, 5790.507
250.248, 5716.455
250.730, 5665.619
251.212, 5627.305
251.695, 5588.863
252.177, 5555.005
252.659, 5512.333
253.141, 5453.244
253.623, 5372.202
254.105, 5306.063
254.587, 5257.559
255.069, 5221.304
255.551, 5191.754
256.034, 5175.997
256.516, 5152.455
256.998, 5109.867
257.480, 5040.487
257.962, 4989.946
258.444, 4964.862
258.926, 4952.934
259.408, 4933.885
259.891, 4907.910
260.373, 4874.083
260.855, 4827.222
261.337, 4759.593
261.819, 4715.882
262.301, 4707.017
262.783, 4713.135
263.265, 4696.631
263.747, 4647.657
264.229, 4598.478
264.712, 4562.006
265.194, 4542.291
265.676, 4518.452
266.158, 4491.126
266.640, 4459.661
267.122, 4421.802
267.604, 4374.328
268.086, 4330.017
268.569, 4295.089
269.051, 4270.644
269.533, 4249.586
270.015, 4234.408
270.497, 4220.536
270.979, 4198.105
271.461, 4164.276
271.943, 4132.060
272.426, 4109.005
272.908, 4097.177
273.390, 4081.124
273.872, 4060.739
274.354, 4036.125
274.836, 4004.662
275.318, 3964.057
275.800, 3927.142
276.282, 3900.454
276.765, 3884.450
277.247, 3874.231
277.729, 3872.871
278.211, 3872.712
278.693, 3857.166
279.175, 3823.796
279.657, 3790.036
280.139, 3763.666
280.621, 3744.698
281.104, 3730.869
281.586, 3724.685
282.068, 3718.990
282.550, 3698.485
283.032, 3661.948
283.514, 3626.740
283.996, 3601.841
284.478, 3586.719
284.961, 3574.493
285.443, 3566.543
285.925, 3557.894
286.407, 3538.685
286.889, 3508.917
287.371, 3479.345
287.853, 3453.642
288.335, 3432.198
288.818, 3419.997
289.300, 3420.234
289.782, 3421.462
290.264, 3402.052
290.746, 3363.937
291.228, 3331.281
291.710, 3322.183
292.192, 3329.400
292.674, 3325.258
293.156, 3306.869
293.639, 3283.184
294.121, 3266.716
294.603, 3256.311
295.085, 3244.779
295.567, 3227.374
296.049, 3206.488
296.531, 3187.389
297.013, 3170.459
297.496, 3154.815
297.978, 3138.674
298.460, 3122.788
298.942, 3109.417
299.424, 3100.739
299.906, 3095.101
300.388, 3090.457
300.870, 3087.110
301.353, 3081.721
301.835, 3066.160
302.317, 3045.241
302.799, 3030.937
303.281, 3035.892
303.763, 3047.699
304.245, 3048.771
304.727, 3037.298
305.209, 3026.163
305.691, 3030.843
306.174, 3043.588
306.656, 3049.598
307.138, 3039.429
307.620, 3021.448
308.102, 3001.894
308.584, 2980.792
309.066, 2961.620
309.548, 2947.484
310.031, 2936.693
310.513, 2926.329
310.995, 2916.490
311.477, 2905.739
311.959, 2892.581
312.441, 2877.064
312.923, 2861.368
313.405, 2845.163
313.888, 2830.029
314.370, 2818.076
314.852, 2807.946
315.334, 2802.607
315.816, 2808.543
316.298, 2824.991
316.780, 2832.643
317.262, 2813.820
317.744, 2786.641
318.227, 2768.234
318.709, 2775.453
319.191, 2780.265
319.673, 2769.582
320.155, 2745.111
320.637, 2727.000
321.119, 2698.850
321.601, 2718.670
322.083, 2726.847
322.566, 2724.004
323.048, 2677.144
323.530, 2687.125
324.012, 2674.324
324.494, 2660.591
324.976, 2678.572
325.458, 2638.113
325.940, 2652.481
326.422, 2660.192
326.905, 2668.821
327.387, 2678.081
327.869, 2685.776
328.351, 2682.196
328.833, 2650.447
329.315, 2621.472
329.797, 2609.880
330.280, 2636.373
330.762, 2648.839
331.244, 2639.642
331.726, 2616.885
332.208, 2604.444
332.690, 2609.940
333.172, 2616.013
333.654, 2615.034
334.136, 2603.050
334.618, 2593.675
335.101, 2586.910
335.583, 2582.640
336.065, 2581.062
336.547, 2583.304
337.029, 2585.688
337.511, 2587.489
337.993, 2589.324
338.475, 2585.879
338.958, 2575.451
339.440, 2561.893
339.922, 2550.805
340.404, 2541.898
340.886, 2536.421
341.368, 2536.735
341.850, 2542.385
342.332, 2541.152
342.815, 2531.285
343.297, 2519.994
343.779, 2518.204
344.261, 2525.892
344.743, 2529.675
345.225, 2522.945
345.707, 2509.163
346.189, 2501.119
346.671, 2499.240
347.154, 2500.871
347.636, 2505.607
348.118, 2512.360
348.600, 2515.902
349.082, 2513.174
349.564, 2507.361
350.046, 2505.851
350.528, 2508.251
351.010, 2508.096
351.493, 2497.306
351.975, 2480.450
352.457, 2466.332
352.939, 2456.609
353.421, 2451.370
353.903, 2455.169
354.385, 2465.447
354.867, 2470.345
355.349, 2454.390
355.832, 2432.206
356.314, 2421.581
356.796, 2429.290
357.278, 2441.560
357.760, 2453.457
358.242, 2462.783
358.724, 2464.470
359.207, 2445.304
359.689, 2424.554
360.171, 2417.997
360.653, 2432.483
361.135, 2444.403
361.617, 2440.295
362.099, 2427.295
362.581, 2416.898
363.063, 2410.452
363.546, 2409.120
364.028, 2415.751
364.510, 2432.474
364.992, 2444.680
365.474, 2446.985
365.956, 2444.006
366.438, 2440.750
366.920, 2435.608
367.402, 2432.662
367.885, 2433.996
368.367, 2440.041
368.849, 2443.763
369.331, 2442.549
369.813, 2440.674
370.295, 2440.233
370.777, 2429.328
371.259, 2439.143
371.741, 2488.690
372.224, 2567.339
372.706, 2601.108
373.188, 2569.468
373.670, 2521.373
374.152, 2482.739
374.634, 2453.022
375.116, 2437.570
375.598, 2440.932
376.081, 2456.194
376.563, 2467.283
377.045, 2474.691
377.527, 2476.158
378.009, 2467.151
378.491, 2447.210
378.973, 2436.703
379.455, 2438.253
379.938, 2444.819
380.420, 2445.295
380.902, 2439.846
381.384, 2435.277
381.866, 2434.235
382.348, 2436.366
382.830, 2441.522
383.312, 2450.188
383.794, 2457.459
384.276, 2455.556
384.759, 2447.381
385.241, 2442.615
385.723, 2445.170
386.205, 2452.265
386.687, 2461.925
387.169, 2473.589
387.651, 2482.759
388.134, 2485.404
388.616, 2483.479
389.098, 2479.300
389.580, 2471.841
390.062, 2464.735
390.544, 2459.762
391.026, 2457.239
391.508, 2458.430
391.990, 2467.220
392.473, 2477.968
392.955, 2487.428
393.437, 2496.051
393.919, 2500.645
394.401, 2495.213
394.883, 2485.723
395.365, 2481.914
395.847, 2497.325
396.329, 2509.221
396.812, 2507.005
397.294, 2487.008
397.776, 2470.057
398.258, 2456.731
398.740, 2448.690
399.222, 2447.799
399.704, 2461.052
400.186, 2473.104
400.668, 2482.813
401.151, 2490.069
401.633, 2492.059
402.115, 2483.479
402.597, 2475.623
403.079, 2477.869
403.561, 2498.898
404.043, 2505.788
404.525, 2488.716
405.008, 2459.098
405.490, 2453.091
405.972, 2478.017
406.454, 2502.221
406.936, 2507.257
407.418, 2492.248
407.900, 2484.419
408.382, 2486.149
408.865, 2490.812
409.347, 2485.992
409.829, 2472.520
410.311, 2464.983
410.793, 2474.992
411.275, 2494.619
411.757, 2499.781
412.239, 2490.076
412.721, 2477.374
413.203, 2471.915
413.686, 2471.912
414.168, 2473.531
414.650, 2476.073
415.132, 2479.195
415.614, 2480.968
416.096, 2482.275
416.578, 2487.592
417.060, 2509.137
417.543, 2531.368
418.025, 2536.474
418.507, 2514.283
418.989, 2492.696
419.471, 2486.790
419.953, 2491.380
420.435, 2496.589
420.917, 2500.249
421.400, 2502.766
421.882, 2506.278
422.364, 2512.724
422.846, 2509.686
423.328, 2483.031
423.810, 2451.200
424.292, 2432.351
424.774, 2439.758
425.256, 2446.735
425.738, 2449.313
426.221, 2448.004
426.703, 2449.429
427.185, 2458.556
427.667, 2464.486
428.149, 2458.943
428.631, 2435.045
429.113, 2419.039
429.595, 2413.524
430.078, 2415.527
430.560, 2419.768
431.042, 2427.538
431.524, 2431.450
432.006, 2425.262
432.488, 2409.732
432.970, 2403.203
433.452, 2407.325
433.935, 2414.039
434.417, 2413.325
434.899, 2406.370
435.381, 2399.492
435.863, 2393.725
436.345, 2390.094
436.827, 2392.643
437.309, 2400.741
437.791, 2406.803
438.274, 2404.210
438.756, 2396.221
439.238, 2387.210
439.720, 2377.559
440.202, 2368.150
440.684, 2357.188
441.166, 2346.833
441.648, 2342.110
442.130, 2350.002
442.613, 2360.738
443.095, 2370.331
443.577, 2379.147
444.059, 2381.211
444.541, 2366.548
445.023, 2347.527
445.505, 2336.848
445.987, 2345.243
446.470, 2353.426
446.952, 2359.695
447.434, 2363.673
447.916, 2361.642
448.398, 2346.771
448.880, 2332.715
449.362, 2327.089
449.844, 2334.885
450.327, 2340.397
450.809, 2344.884
451.291, 2345.937
451.773, 2337.011
452.255, 2314.792
452.737, 2294.438
453.219, 2281.056
453.701, 2274.387
454.183, 2272.725
454.665, 2276.912
455.148, 2281.771
455.630, 2281.951
456.112, 2278.010
456.594, 2273.260
457.076, 2267.935
457.558, 2262.906
458.040, 2259.920
458.522, 2258.712
459.005, 2257.655
459.487, 2256.099
459.969, 2253.978
460.451, 2249.401
460.933, 2240.489
461.415, 2237.189
461.897, 2257.232
462.379, 2285.419
462.862, 2298.895
463.344, 2274.867
463.826, 2246.467
464.308, 2226.460
464.790, 2215.427
465.272, 2212.284
465.754, 2225.400
466.236, 2241.025
466.718, 2250.150
467.201, 2247.910
467.683, 2244.066
468.165, 2236.877
468.647, 2228.517
469.129, 2224.267
469.611, 2225.941
470.093, 2229.015
470.575, 2233.202
471.057, 2239.194
471.540, 2237.412
472.022, 2224.805
472.504, 2210.454
472.986, 2204.567
473.468, 2207.461
473.950, 2213.808
474.432, 2224.499
474.914, 2236.183
475.397, 2238.742
475.879, 2232.671
476.361, 2227.788
476.843, 2235.479
477.325, 2248.429
477.807, 2249.211
478.289, 2234.263
478.771, 2217.267
479.254, 2209.161
479.736, 2208.239
480.218, 2211.320
480.700, 2222.969
481.182, 2233.484
481.664, 2233.672
482.146, 2224.761
482.628, 2219.520
483.110, 2228.435
483.592, 2239.230
484.075, 2243.338
484.557, 2234.866
485.039, 2226.249
485.521, 2217.683
486.003, 2210.122
486.485, 2205.714
486.967, 2206.935
487.449, 2207.957
487.931, 2206.422
488.414, 2201.982
488.896, 2202.967
489.378, 2212.972
489.860, 2222.577
490.342, 2222.760
490.824, 2212.376
491.306, 2202.785
491.789, 2194.920
492.271, 2189.600
492.753, 2181.987
493.235, 2172.954
493.717, 2185.250
494.199, 2264.607
494.681, 2368.378
495.163, 2391.155
495.645, 2324.457
496.128, 2242.515
496.610, 2208.390
497.092, 2204.031
497.574, 2201.382
498.056, 2187.368
498.538, 2176.950
499.020, 2186.513
499.502, 2209.183
499.984, 2221.054
500.467, 2197.739
500.949, 2172.870
501.431, 2167.391
501.913, 2192.226
502.395, 2207.562
502.877, 2200.427
503.359, 2184.866
503.841, 2175.681
504.323, 2171.973
504.806, 2176.677
505.288, 2196.130
505.770, 2225.325
506.252, 2235.366
506.734, 2220.305
507.216, 2201.792
507.698, 2191.896
508.181, 2190.756
508.663, 2192.716
509.145, 2198.381
509.627, 2204.733
510.109, 2207.275
510.591, 2206.807
511.073, 2207.980
511.555, 2215.342
512.037, 2223.039
512.519, 2218.413
513.002, 2203.886
513.484, 2194.819
513.966, 2208.038
514.448, 2228.045
514.930, 2239.041
515.412, 2236.284
515.894, 2231.696
516.376, 2230.383
516.859, 2230.708
517.341, 2230.409
517.823, 2229.145
518.305, 2226.895
518.787, 2221.460
519.269, 2213.343
519.751, 2212.062
520.233, 2223.064
520.716, 2235.070
521.198, 2242.161
521.680, 2242.747
522.162, 2243.093
522.644, 2242.825
523.126, 2242.897
523.608, 2245.536
524.090, 2251.145
524.572, 2255.173
525.055, 2257.644
525.537, 2256.932
526.019, 2243.913
526.501, 2219.366
526.983, 2200.243
527.465, 2206.523
527.947, 2224.695
528.429, 2228.891
528.911, 2212.108
529.394, 2196.598
529.876, 2203.785
530.358, 2222.822
530.840, 2236.887
531.322, 2236.923
531.804, 2233.077
532.286, 2229.236
532.768, 2225.343
533.250, 2219.620
533.733, 2204.815
534.215, 2193.701
534.697, 2193.925
535.179, 2213.021
535.661, 2225.312
536.143, 2228.603
536.625, 2226.976
537.107, 2225.527
537.589, 2224.526
538.072, 2222.459
538.554, 2218.084
539.036, 2212.760
539.518, 2212.239
540.000, 2216.716
540.482, 2221.602
540.964, 2222.932
541.446, 2222.233
541.929, 2224.563
542.411, 2230.766
542.893, 2235.896
543.375, 2231.772
543.857, 2223.937
544.339, 2221.906
544.821, 2232.724
545.303, 2246.239
545.786, 2260.755
546.268, 2274.103
546.750, 2278.492
547.232, 2260.700
547.714, 2242.273
548.196, 2233.440
548.678, 2237.571
549.160, 2242.590
549.643, 2250.338
550.125, 2257.213
550.607, 2259.479
551.089, 2254.408
551.571, 2252.232
552.053, 2255.844
552.535, 2261.932
553.017, 2260.946
553.499, 2252.143
553.982, 2243.826
554.464, 2238.793
554.946, 2237.273
555.428, 2242.886
555.910, 2255.975
556.392, 2265.749
556.874, 2258.586
557.356, 2243.238
557.838, 2233.511
558.321, 2232.838
558.803, 2237.918
559.285, 2252.706
559.767, 2271.100
560.249, 2281.407
560.731, 2270.355
561.213, 2259.535
561.695, 2258.490
562.177, 2267.604
562.660, 2272.563
563.142, 2269.369
563.624, 2264.661
564.106, 2262.341
564.588, 2265.138
565.070, 2261.135
565.552, 2244.752
566.034, 2228.926
566.516, 2236.591
566.999, 2269.674
567.481, 2294.496
567.963, 2299.166
568.445, 2292.173
568.927, 2294.169
569.409, 2303.769
569.891, 2309.358
570.373, 2297.069
570.856, 2279.163
571.338, 2273.911
571.820, 2284.113
572.302, 2292.422
572.784, 2284.581
573.266, 2271.030
573.748, 2262.544
574.230, 2267.654
574.713, 2271.690
575.195, 2267.515
575.677, 2259.777
576.159, 2261.957
576.641, 2284.973
577.123, 2303.567
577.605, 2311.251
578.087, 2307.964
578.570, 2295.789
579.052, 2270.292
579.534, 2247.349
580.016, 2242.747
580.498, 2254.815
580.980, 2261.345
581.462, 2258.575
581.944, 2254.527
582.426, 2262.036
582.909, 2277.237
583.391, 2288.603
583.873, 2288.318
584.355, 2284.787
584.837, 2285.463
585.319, 2289.372
585.801, 2292.450
586.283, 2289.464
586.765, 2287.707
587.248, 2293.699
587.730, 2312.222
588.212, 2321.111
588.694, 2305.727
589.176, 2287.369
589.658, 2284.568
590.140, 2309.901
590.622, 2321.361
591.104, 2309.236
591.587, 2285.966
592.069, 2280.997
592.551, 2295.802
593.033, 2311.523
593.515, 2322.675
593.997, 2328.434
594.479, 2322.522
594.961, 2305.548
595.443, 2291.272
595.926, 2294.242
596.408, 2304.052
596.890, 2305.942
597.372, 2295.883
597.854, 2286.820
598.336, 2285.721
598.818, 2289.943
599.300, 2296.241
599.783, 2310.496
600.265, 2319.257
600.747, 2315.133
601.229, 2303.117
601.711, 2298.675
602.193, 2306.168
602.675, 2313.854
603.157, 2316.897
603.640, 2315.446
604.122, 2319.952
604.604, 2332.421
605.086, 2342.112
605.568, 2336.367
606.050, 2319.319
606.532, 2309.100
607.014, 2308.738
607.497, 2313.216
607.979, 2320.221
