##NAMES=Covellite
##RRUFFID=R060129
##IDEAL CHEMISTRY=Cu^1+^S
##LOCALITY=Butte, Montana, USA
##OWNER=RRUFF
##SOURCE=University of Arizona Mineral Museum
##DESCRIPTION=Iridescent blue metallic hexagonal plates
##STATUS=The identification of this mineral has been confirmed by X-ray diffraction and chemical analysis
##URL=rruff.info/R060129
##MEASURED CHEMISTRY=Cu_1.00_S_1.00_
92.02539, 211.8252
92.50751, 217.9987
92.98962, 222.4529
93.47174, 220.3169
93.95386, 215.4614
94.43597, 209.6534
94.91809, 203.4441
95.40021, 197.5082
95.88232, 193.5215
96.36444, 192.4268
96.84656, 191.9633
97.32867, 192.7897
97.81078, 193.8291
98.29290, 193.3175
98.77502, 189.5627
99.25713, 181.9134
99.73925, 174.9712
100.2214, 167.7709
100.7035, 161.8213
101.1856, 157.5906
101.6677, 155.1421
102.1498, 154.5010
102.6320, 155.8214
103.1141, 159.9524
103.5962, 164.3337
104.0783, 171.2380
104.5604, 177.5588
105.0425, 179.5326
105.5247, 175.8032
106.0068, 168.4251
106.4889, 160.1560
106.9710, 150.6035
107.4531, 142.0489
107.9352, 135.6423
108.4173, 131.1546
108.8995, 127.3127
109.3816, 123.7410
109.8637, 120.6556
110.3458, 118.2078
110.8279, 116.4157
111.3100, 115.2075
111.7922, 114.6651
112.2743, 115.0669
112.7564, 115.2399
113.2385, 115.0931
113.7206, 114.4967
114.2027, 113.1769
114.6849, 110.9514
115.1670, 108.1187
115.6491, 105.7556
116.1312, 103.8779
116.6133, 102.5306
117.0954, 101.8104
117.5776, 101.5859
118.0597, 101.7060
118.5418, 102.0949
119.0239, 102.7588
119.5060, 103.2598
119.9881, 103.7413
120.4703, 103.9741
120.9524, 103.7488
121.4345, 103.1322
121.9166, 102.4407
122.3987, 102.0163
122.8808, 101.9183
123.3630, 101.3813
123.8451, 100.3179
124.3272, 98.86012
124.8093, 96.88969
125.2914, 94.25841
125.7735, 91.85629
126.2557, 90.99987
126.7378, 91.36806
127.2199, 91.84711
127.7020, 92.29537
128.1841, 92.57692
128.6662, 92.19126
129.1483, 90.72712
129.6305, 88.92995
130.1126, 87.36105
130.5947, 86.01388
131.0768, 84.76316
131.5589, 83.41733
132.0410, 81.91795
132.5232, 80.81124
133.0053, 80.49700
133.4874, 80.37484
133.9695, 80.25323
134.4516, 80.05949
134.9337, 79.71059
135.4159, 79.02811
135.8980, 77.68453
136.3801, 76.62279
136.8622, 75.78902
137.3443, 75.24898
137.8264, 75.22678
138.3086, 75.78091
138.7907, 76.57630
139.2728, 76.67641
139.7549, 75.44304
140.2370, 74.20607
140.7191, 73.04874
141.2013, 71.94561
141.6834, 70.83413
142.1655, 69.67372
142.6476, 68.50564
143.1297, 67.53274
143.6118, 66.80608
144.0939, 66.17213
144.5761, 65.64926
145.0582, 65.20194
145.5403, 64.65818
146.0224, 63.89618
146.5045, 62.95545
146.9866, 61.98822
147.4688, 60.79465
147.9509, 59.74947
148.4330, 59.31590
148.9151, 59.58459
149.3972, 59.89518
149.8793, 59.87693
150.3615, 59.65120
150.8436, 59.31964
151.3257, 58.84993
151.8078, 58.33011
152.2899, 58.00686
152.7720, 58.06594
153.2542, 57.97901
153.7363, 57.44963
154.2184, 56.67335
154.7005, 55.92592
155.1826, 55.35114
155.6647, 54.95049
156.1469, 54.76751
156.6290, 55.18941
157.1111, 55.45444
157.5932, 55.30798
158.0753, 54.84000
158.5574, 54.26504
159.0396, 53.75499
159.5217, 53.31635
160.0038, 52.88566
160.4859, 52.35938
160.9680, 51.92802
161.4501, 51.76395
161.9323, 51.81321
162.4144, 51.83782
162.8965, 51.57805
163.3786, 50.92802
163.8607, 50.43811
164.3428, 50.08979
164.8250, 49.89529
165.3071, 49.93831
165.7892, 50.21592
166.2713, 50.53386
166.7534, 50.67570
167.2355, 50.62973
167.7177, 50.45018
168.1998, 49.97216
168.6819, 49.42086
169.1640, 49.11290
169.6461, 49.14431
170.1282, 49.30467
170.6104, 49.36673
171.0925, 49.34378
171.5746, 49.26489
172.0567, 49.15524
172.5388, 48.99984
173.0209, 48.73640
173.5031, 48.28490
173.9852, 47.81738
174.4673, 47.46480
174.9494, 47.22288
175.4315, 47.05139
175.9136, 46.95077
176.3958, 46.91774
176.8779, 46.86338
177.3600, 46.81148
177.8421, 46.69670
178.3242, 46.39429
178.8063, 45.93478
179.2885, 45.56057
179.7706, 45.63647
180.2527, 46.35729
180.7348, 46.66650
181.2169, 46.16101
181.6990, 45.48311
182.1812, 44.86795
182.6633, 44.39283
183.1454, 44.10090
183.6275, 44.10364
184.1096, 44.67194
184.5917, 44.95238
185.0738, 44.74860
185.5560, 44.44061
186.0381, 44.36836
186.5202, 44.58884
187.0023, 44.82166
187.4844, 44.56938
187.9665, 43.27100
188.4487, 42.36824
188.9308, 42.00631
189.4129, 41.95147
189.8950, 42.06763
190.3771, 42.30355
190.8592, 42.55016
191.3414, 42.58323
191.8235, 42.28740
192.3056, 41.99471
192.7877, 41.74199
193.2698, 41.51122
193.7519, 41.26259
194.2341, 40.97237
194.7162, 40.69426
195.1983, 40.59046
195.6804, 40.75447
196.1625, 40.75659
196.6446, 40.26444
197.1268, 39.51372
197.6089, 39.05655
198.0910, 39.13231
198.5731, 39.50337
199.0552, 39.83311
199.5373, 40.15992
200.0195, 40.30886
200.5016, 40.02497
200.9837, 39.41607
201.4658, 39.06414
201.9479, 39.29879
202.4300, 39.70902
202.9122, 39.83406
203.3943, 39.64724
203.8764, 39.34856
204.3585, 39.07931
204.8406, 38.83876
205.3227, 38.57048
205.8048, 38.08942
206.2870, 37.72046
206.7691, 37.81240
207.2512, 38.39313
207.7333, 38.97734
208.2154, 38.97507
208.6975, 38.26299
209.1797, 37.69721
209.6618, 37.60465
210.1439, 37.57585
210.6260, 37.34069
211.1081, 36.87150
211.5902, 36.40141
212.0724, 36.27553
212.5545, 36.65553
213.0366, 36.89058
213.5187, 36.88741
214.0008, 36.77436
214.4829, 36.55816
214.9651, 36.27011
215.4472, 36.02422
215.9293, 36.01210
216.4114, 36.40773
216.8935, 36.68122
217.3756, 36.90937
217.8578, 36.99087
218.3399, 36.73359
218.8220, 36.15057
219.3041, 35.54824
219.7862, 35.43581
220.2683, 36.30990
220.7505, 36.70021
221.2326, 36.31137
221.7147, 35.68225
222.1968, 35.16796
222.6789, 34.87165
223.1610, 34.76471
223.6432, 34.83311
224.1253, 35.31801
224.6074, 35.44167
225.0895, 34.82861
225.5716, 34.06679
226.0537, 33.73887
226.5358, 33.97119
227.0180, 34.39973
227.5001, 34.52026
227.9822, 34.22943
228.4643, 33.92611
228.9464, 33.51223
229.4285, 33.15222
229.9107, 33.05998
230.3928, 33.28773
230.8749, 33.65488
231.3570, 33.95266
231.8391, 34.17953
232.3212, 34.36836
232.8034, 34.58300
233.2855, 34.73858
233.7676, 34.73130
234.2497, 34.54145
234.7318, 33.83806
235.2139, 34.38822
235.6961, 34.72127
236.1782, 34.84885
236.6603, 34.15562
237.1424, 34.52230
237.6245, 34.46422
238.1066, 34.38872
238.5888, 34.90459
239.0709, 34.33075
239.5530, 34.39875
240.0351, 34.12798
240.5172, 33.97651
240.9993, 33.91403
241.4815, 33.88752
241.9636, 33.89587
242.4457, 33.93602
242.9278, 34.03763
243.4099, 34.16929
243.8920, 34.26189
244.3742, 34.26632
244.8563, 34.21474
245.3384, 34.19131
245.8205, 34.22821
246.3026, 34.21796
246.7847, 34.07228
247.2668, 33.84862
247.7490, 33.63781
248.2311, 33.49668
248.7132, 33.38786
249.1953, 33.21864
249.6774, 32.98526
250.1595, 32.69304
250.6417, 32.26353
251.1238, 31.80626
251.6059, 31.48569
252.0880, 31.42033
252.5701, 31.48166
253.0522, 31.32891
253.5344, 30.84612
254.0165, 30.37197
254.4986, 29.98973
254.9807, 29.67646
255.4628, 29.37519
255.9449, 29.04290
256.4271, 28.78368
256.9092, 28.53285
257.3913, 28.98216
257.8734, 29.21434
258.3555, 29.24107
258.8376, 28.44698
259.3198, 28.71279
259.8019, 28.55385
260.2840, 28.37749
260.7661, 28.79249
261.2482, 28.11779
261.7303, 28.52342
262.2125, 28.35093
262.6946, 28.33417
263.1767, 28.27968
263.6588, 28.15005
264.1409, 27.99996
264.6230, 27.92723
265.1052, 27.96852
265.5873, 28.02172
266.0694, 28.22243
266.5515, 28.34261
267.0336, 28.13476
267.5157, 27.57946
267.9979, 26.93616
268.4800, 26.60284
268.9621, 26.76022
269.4442, 26.85237
269.9263, 26.89770
270.4084, 26.87966
270.8906, 26.75650
271.3727, 26.53973
271.8548, 26.30426
272.3369, 26.14184
272.8190, 26.07673
273.3011, 26.01176
273.7833, 25.97982
274.2654, 25.92216
274.7475, 25.79889
275.2296, 25.61380
275.7117, 25.39477
276.1938, 25.15637
276.6760, 24.87327
277.1581, 24.73946
277.6402, 24.91076
278.1223, 25.05182
278.6044, 24.92702
279.0865, 24.61011
279.5686, 24.37985
280.0508, 24.47797
280.5329, 24.91348
281.0150, 25.21815
281.4971, 25.32474
281.9792, 25.39871
282.4613, 25.54272
282.9435, 25.70616
283.4256, 25.76527
283.9077, 25.63872
284.3898, 25.33752
284.8719, 24.96235
285.3540, 24.25658
285.8362, 23.76936
286.3183, 23.80129
286.8004, 24.13695
287.2825, 24.37579
287.7646, 24.30214
288.2467, 24.02156
288.7289, 23.90530
289.2110, 24.21470
289.6931, 24.35553
290.1752, 24.06435
290.6573, 23.59515
291.1394, 23.32563
291.6216, 23.40794
292.1037, 23.68174
292.5858, 23.82639
293.0679, 23.82035
293.5500, 23.72448
294.0321, 23.42340
294.5143, 23.08702
294.9964, 22.93269
295.4785, 23.01744
295.9606, 23.18746
296.4427, 23.22290
296.9248, 23.06083
297.4070, 22.94775
297.8891, 22.88746
298.3712, 22.88196
298.8533, 22.96367
299.3354, 23.12841
299.8175, 23.29152
300.2997, 23.37435
300.7818, 23.36538
301.2639, 23.28335
301.7460, 23.08787
302.2281, 22.85377
302.7102, 22.56971
303.1924, 22.26468
303.6745, 22.07549
304.1566, 22.12159
304.6387, 22.39930
305.1208, 22.67105
305.6029, 23.05164
306.0851, 23.32077
306.5672, 23.33335
307.0493, 23.13455
307.5314, 22.86026
308.0135, 22.56515
308.4956, 22.27051
308.9778, 22.07509
309.4599, 22.01579
309.9420, 21.98771
310.4241, 21.96239
310.9062, 21.94477
311.3883, 21.94818
311.8705, 21.98050
312.3526, 22.02897
312.8347, 22.06882
313.3168, 22.11474
313.7989, 22.12273
314.2810, 22.07358
314.7632, 21.98526
315.2453, 21.87259
315.7274, 21.73849
316.2095, 21.60259
316.6916, 21.49385
317.1737, 21.42053
317.6559, 21.33669
318.1380, 21.20599
318.6201, 21.08268
319.1022, 21.02950
319.5843, 21.05086
320.0664, 21.08288
320.5485, 21.05521
321.0306, 20.96234
321.5128, 20.95400
321.9949, 21.12171
322.4770, 21.29428
322.9591, 21.37007
323.4412, 21.35115
323.9233, 21.27860
324.4055, 21.17110
324.8876, 21.03321
325.3697, 20.90688
325.8518, 20.78739
326.3339, 20.68168
326.8160, 20.59195
327.2982, 20.51769
327.7803, 20.45569
328.2624, 20.40356
328.7445, 20.36550
329.2266, 20.36120
329.7087, 20.45600
330.1909, 20.46554
330.6730, 20.25786
331.1551, 19.98017
331.6372, 19.84609
332.1193, 19.91953
332.6014, 20.06087
333.0836, 20.05587
333.5657, 19.80798
334.0478, 19.71212
334.5299, 19.90875
335.0120, 20.17847
335.4941, 20.37068
335.9763, 20.45634
336.4584, 20.44462
336.9405, 20.33665
337.4226, 20.12293
337.9047, 19.87659
338.3868, 19.50192
338.8690, 19.18427
339.3511, 19.01522
339.8332, 18.98355
340.3153, 19.05524
340.7974, 19.22526
341.2795, 19.46774
341.7617, 19.60990
342.2438, 19.61575
342.7259, 19.58111
343.2080, 19.49255
343.6901, 19.38481
344.1722, 19.31454
344.6544, 19.30619
345.1365, 19.32854
345.6186, 19.31809
346.1007, 19.27655
346.5828, 19.19160
347.0649, 18.94023
347.5471, 18.71764
348.0292, 18.74232
348.5113, 19.03387
348.9934, 19.39876
349.4755, 19.60994
349.9576, 19.64720
350.4398, 19.59006
350.9219, 19.36141
351.4040, 19.12380
351.8861, 18.96556
352.3682, 18.87687
352.8503, 18.79446
353.3325, 18.66530
353.8146, 18.49734
354.2967, 18.41874
354.7788, 18.49587
355.2609, 18.58566
355.7430, 18.73362
356.2252, 18.85665
356.7073, 18.80467
357.1894, 18.50262
357.6715, 18.08431
358.1536, 17.88743
358.6357, 18.07015
359.1179, 18.25158
359.5999, 18.50593
360.0821, 18.69919
360.5642, 18.67854
361.0463, 18.43656
361.5284, 18.13534
362.0105, 17.98027
362.4926, 18.01550
362.9748, 18.02882
363.4569, 17.99532
363.9390, 17.96481
364.4211, 17.97720
364.9032, 18.01337
365.3853, 18.01837
365.8675, 17.94479
366.3496, 17.80284
366.8317, 17.68784
367.3138, 17.57193
367.7959, 17.52633
368.2780, 17.59429
368.7602, 17.72724
369.2423, 17.88503
369.7244, 18.05306
370.2065, 18.19207
370.6886, 18.19849
371.1707, 17.97853
371.6529, 17.86568
372.1350, 18.06800
372.6171, 18.27046
373.0992, 18.21684
373.5813, 17.89682
374.0634, 17.55260
374.5456, 17.48834
375.0277, 17.72602
375.5098, 17.75805
375.9919, 17.38684
376.4740, 17.00352
376.9561, 16.75717
377.4383, 16.63759
377.9204, 16.61918
378.4025, 16.74214
378.8846, 16.92463
379.3667, 16.90903
379.8488, 16.60155
380.3310, 16.33919
380.8131, 16.28122
381.2952, 16.32580
381.7773, 16.38560
382.2594, 16.44311
382.7415, 16.49150
383.2237, 16.50431
383.7058, 16.48201
384.1879, 16.52144
384.6700, 16.71164
385.1521, 16.90201
385.6342, 16.95048
386.1164, 16.86428
386.5985, 16.76267
387.0806, 16.72709
387.5627, 16.72228
388.0448, 16.64823
388.5269, 16.47369
389.0091, 16.30980
389.4912, 16.26182
389.9733, 16.28575
390.4554, 16.28592
390.9375, 16.20353
391.4196, 16.12692
391.9018, 16.17196
392.3839, 16.32080
392.8660, 16.40198
393.3481, 16.31866
393.8302, 16.14330
394.3123, 16.02181
394.7945, 15.96646
395.2766, 15.91740
395.7587, 15.82120
396.2408, 15.72361
396.7229, 15.72588
397.2050, 15.85971
397.6872, 16.00373
398.1693, 15.99213
398.6514, 15.80363
399.1335, 15.78355
399.6156, 16.19540
400.0977, 16.57995
400.5798, 16.56983
401.0620, 16.21569
401.5441, 15.79967
402.0262, 15.47754
402.5083, 15.24654
402.9904, 15.10803
403.4725, 15.09911
403.9547, 15.12070
404.4368, 15.16608
404.9189, 15.22758
405.4010, 15.29894
405.8831, 15.37736
406.3652, 15.46049
406.8474, 15.55598
407.3295, 15.71680
407.8116, 15.71791
408.2937, 15.37154
408.7758, 15.05064
409.2579, 15.02068
409.7401, 15.21692
410.2222, 15.36135
410.7043, 15.22304
411.1864, 14.86315
411.6685, 14.82431
412.1506, 15.62284
412.6328, 16.10646
413.1149, 15.88603
413.5970, 15.36959
414.0791, 14.98248
414.5612, 14.87494
415.0433, 14.95070
415.5255, 15.10680
416.0076, 15.41983
416.4897, 15.54779
416.9718, 15.23752
417.4539, 14.93412
417.9360, 14.88523
418.4182, 15.04193
418.9003, 15.17969
419.3824, 15.10810
419.8645, 14.89035
420.3466, 14.82880
420.8287, 15.01926
421.3109, 15.16646
421.7930, 15.10761
422.2751, 14.96264
422.7572, 14.86960
423.2393, 14.87588
423.7214, 14.89382
424.2036, 14.79669
424.6857, 14.59230
425.1678, 14.48602
425.6499, 14.56485
426.1320, 14.70648
426.6141, 14.81137
427.0963, 14.87990
427.5784, 14.90981
428.0605, 14.86833
428.5426, 14.80051
429.0247, 14.77736
429.5068, 14.80399
429.9890, 14.85180
430.4711, 14.93693
430.9532, 15.01830
431.4353, 14.97875
431.9174, 14.71773
432.3995, 14.48447
432.8817, 14.44775
433.3638, 14.52495
433.8459, 14.52795
434.3280, 14.39066
434.8101, 14.21725
435.2922, 14.15969
435.7744, 14.25853
436.2565, 14.31152
436.7386, 14.25972
437.2207, 14.20167
437.7028, 14.20533
438.1849, 14.26773
438.6671, 14.36283
439.1492, 14.48340
439.6313, 14.61136
440.1134, 14.63620
440.5955, 14.42914
441.0776, 14.27705
441.5598, 14.19840
442.0418, 14.19597
442.5240, 14.30567
443.0061, 14.52183
443.4882, 14.75397
443.9703, 14.88172
444.4524, 14.88593
444.9345, 14.87701
445.4167, 14.84433
445.8988, 14.80890
446.3809, 14.78573
446.8630, 14.76467
447.3451, 14.72698
447.8272, 14.66342
448.3094, 14.57391
448.7915, 14.42988
449.2736, 14.16191
449.7557, 14.03977
450.2378, 14.25861
450.7199, 14.56187
451.2021, 14.80930
451.6842, 14.97417
452.1663, 15.02803
452.6484, 14.84946
453.1305, 14.51781
453.6126, 14.42530
454.0948, 14.69200
454.5769, 14.96784
455.0590, 14.96082
455.5411, 14.80587
456.0232, 14.73938
456.5053, 14.86254
456.9875, 15.02026
457.4696, 15.11521
457.9517, 15.14189
458.4338, 15.02737
458.9159, 14.66190
459.3980, 14.31421
459.8802, 14.50247
460.3623, 15.28911
460.8444, 15.83949
461.3265, 15.86877
461.8086, 15.69158
462.2907, 15.53823
462.7729, 15.43986
463.2550, 15.40842
463.7371, 15.46650
464.2192, 15.58960
464.7013, 15.63634
465.1834, 15.39372
465.6656, 15.34983
466.1477, 15.75943
466.6298, 16.30933
467.1119, 16.66318
467.5940, 16.74472
468.0761, 16.68922
468.5583, 16.64296
469.0404, 16.59561
469.5225, 16.62436
470.0046, 16.83825
470.4867, 17.01589
470.9688, 17.03458
471.4510, 16.98328
471.9331, 17.03600
472.4152, 17.28940
472.8973, 17.59201
473.3794, 17.63967
473.8615, 17.37731
474.3437, 17.09387
474.8258, 16.80437
475.3079, 16.53984
475.7900, 16.36843
476.2721, 16.26185
476.7542, 16.06767
477.2364, 15.57377
477.7185, 14.95229
478.2006, 14.62156
478.6827, 14.62585
479.1648, 14.67580
479.6469, 14.66080
480.1291, 14.58025
480.6112, 14.42492
481.0933, 14.15061
481.5754, 13.92520
482.0575, 13.85684
482.5396, 13.88998
483.0217, 13.93365
483.5038, 13.97149
483.9860, 13.98927
484.4681, 13.96730
484.9502, 13.90364
485.4323, 13.85953
485.9144, 13.82799
486.3965, 13.82171
486.8787, 13.86074
487.3608, 13.92614
487.8429, 14.00397
488.3250, 14.08865
488.8071, 14.12885
489.2892, 14.01650
489.7714, 13.62399
490.2535, 13.39380
490.7356, 13.38302
491.2177, 13.45246
491.6998, 13.58710
492.1819, 13.74329
492.6641, 13.84320
493.1462, 13.83322
493.6283, 13.74294
494.1104, 13.64574
494.5925, 13.51552
495.0746, 13.45024
495.5568, 13.57933
496.0389, 13.70767
496.5210, 13.63638
497.0031, 13.37746
497.4852, 13.20792
497.9673, 13.41819
498.4495, 13.85967
498.9316, 14.11927
499.4137, 14.16389
499.8958, 14.11543
500.3779, 14.00722
500.8600, 13.86039
501.3422, 13.71109
501.8243, 13.52718
502.3064, 13.41439
502.7885, 13.50904
503.2706, 13.68876
503.7527, 13.71347
504.2349, 13.52962
504.7170, 13.29001
505.1991, 13.13340
505.6812, 13.06296
506.1633, 13.04974
506.6454, 13.20438
507.1276, 13.28782
507.6097, 13.11627
508.0918, 12.84415
508.5739, 12.74366
509.0560, 12.90932
509.5381, 13.15686
510.0203, 13.18062
510.5024, 12.89682
510.9845, 12.67645
511.4666, 12.42014
511.9487, 12.32758
512.4308, 12.64568
512.9130, 13.16737
513.3951, 13.47282
513.8772, 13.31376
514.3593, 12.94347
514.8414, 12.83793
515.3235, 13.03475
515.8057, 13.21103
516.2878, 13.32194
516.7699, 13.35779
517.2520, 13.27483
517.7341, 13.09547
518.2162, 12.97457
518.6984, 13.04810
519.1805, 13.17449
519.6626, 13.14828
520.1447, 12.97873
520.6268, 12.84029
521.1089, 12.82716
521.5911, 12.88151
522.0732, 12.86319
522.5553, 12.73374
523.0374, 12.65632
523.5195, 12.73013
524.0016, 12.81702
524.4838, 12.76920
524.9659, 12.60213
525.4480, 12.45652
525.9301, 12.44174
526.4122, 12.52219
526.8943, 12.51124
527.3765, 12.34017
527.8586, 12.17093
528.3407, 11.92488
528.8228, 11.74848
529.3049, 11.78727
529.7870, 12.03781
530.2692, 12.36844
530.7513, 12.71467
531.2334, 13.04763
531.7155, 13.15170
532.1976, 12.87924
532.6797, 12.72268
533.1619, 13.12264
533.6440, 13.62989
534.1261, 13.72312
534.6082, 13.27166
535.0903, 12.84760
535.5724, 12.95067
536.0546, 13.32022
536.5367, 13.34507
537.0188, 12.92729
537.5009, 12.48992
537.9830, 12.31552
538.4651, 12.38887
538.9473, 12.57628
539.4294, 13.06776
539.9115, 13.42497
540.3936, 13.35546
540.8757, 13.16588
541.3578, 13.27365
541.8400, 13.73884
542.3221, 14.28047
542.8042, 14.61125
543.2863, 14.72787
543.7684, 14.83683
544.2505, 14.80820
544.7326, 14.93642
545.2147, 15.43084
545.6968, 16.03186
546.1790, 16.47198
546.6611, 16.68059
547.1432, 16.73354
547.6253, 16.66039
548.1074, 16.47535
548.5895, 16.35317
549.0717, 16.32888
549.5538, 16.30715
550.0359, 16.29095
550.5180, 16.22501
551.0001, 16.00097
551.4822, 15.56182
551.9644, 15.06155
552.4465, 14.47267
552.9286, 13.91333
553.4107, 13.68458
553.8928, 13.85092
554.3749, 14.08843
554.8571, 14.11428
555.3392, 13.93286
555.8213, 13.74825
556.3034, 13.61636
556.7855, 13.41477
557.2676, 13.00544
557.7498, 12.55892
558.2319, 12.28514
558.7140, 12.22755
559.1961, 12.28349
559.6782, 12.35509
560.1603, 12.44253
560.6425, 12.50222
561.1246, 12.55262
561.6067, 12.54255
562.0888, 12.44367
562.5709, 12.29101
563.0530, 12.10717
563.5352, 11.89579
564.0173, 11.71051
564.4994, 11.57058
564.9815, 11.49232
565.4636, 11.58203
565.9457, 11.89758
566.4279, 12.12440
566.9100, 12.00436
567.3921, 11.63240
567.8742, 11.36742
568.3563, 11.18325
568.8384, 11.14643
569.3206, 11.44905
569.8027, 11.82614
570.2848, 11.92491
570.7669, 11.71358
571.2490, 11.40946
571.7311, 11.17285
572.2133, 11.01940
572.6954, 11.14212
573.1775, 11.95460
573.6596, 12.47141
574.1417, 12.39520
574.6238, 12.10343
575.1060, 11.87693
575.5881, 11.77361
576.0702, 11.75843
576.5523, 11.82165
577.0344, 11.94790
577.5165, 12.10397
577.9987, 12.31705
578.4808, 12.43966
578.9629, 12.39086
579.4450, 12.22269
579.9271, 11.98698
580.4092, 11.66327
580.8914, 11.42503
581.3735, 11.32808
581.8556, 11.35570
582.3377, 11.57342
582.8198, 11.93112
583.3019, 12.17268
583.7841, 12.13960
584.2662, 11.91731
584.7483, 11.73834
585.2304, 11.59429
585.7125, 11.51284
586.1946, 11.52191
586.6768, 11.56420
587.1589, 11.61647
587.6410, 11.67133
588.1231, 11.73012
588.6052, 11.80114
589.0873, 11.85330
