##NAMES=Covellite
##RRUFFID=R060143
##IDEAL CHEMISTRY=Cu^1+^S
##LOCALITY=Butte, Montana, USA
##OWNER=RRUFF
##SOURCE=Marcus Origlieri
##DESCRIPTION=Irridescent blue to purple hexagonal plates
##STATUS=The identification of this mineral has been confirmed by X-ray diffraction and chemical analysis
##URL=rruff.info/R060143
##MEASURED CHEMISTRY=Cu_1.00_S_1.00_
92.02539, 350.7088
92.50751, 368.2941
92.98962, 379.1518
93.47174, 371.2417
93.95386, 355.7668
94.43597, 340.5513
94.91809, 329.3428
95.40021, 321.3230
95.88232, 312.9955
96.36444, 307.4864
96.84656, 297.3412
97.32867, 277.2308
97.81078, 252.0849
98.29290, 230.1465
98.77502, 218.4341
99.25713, 218.1664
99.73925, 212.7889
100.2214, 200.1448
100.7035, 185.8696
101.1856, 171.3829
101.6677, 157.2755
102.1498, 144.3843
102.6320, 133.7217
103.1141, 125.6553
103.5962, 119.4549
104.0783, 116.4614
104.5604, 114.7150
105.0425, 112.2840
105.5247, 108.6658
106.0068, 103.8768
106.4889, 97.36533
106.9710, 88.67487
107.4531, 80.95213
107.9352, 75.81599
108.4173, 72.94560
108.8995, 70.56970
109.3816, 68.14122
109.8637, 65.94670
110.3458, 64.29723
110.8279, 63.28163
111.3100, 62.56750
111.7922, 61.69591
112.2743, 60.50903
112.7564, 59.70606
113.2385, 59.77282
113.7206, 60.14307
114.2027, 60.37091
114.6849, 60.26387
115.1670, 59.86193
115.6491, 59.29262
116.1312, 58.22828
116.6133, 57.37409
117.0954, 56.91772
117.5776, 56.73049
118.0597, 56.62016
118.5418, 56.45856
119.0239, 56.24440
119.5060, 56.00874
119.9881, 55.53162
120.4703, 55.23173
120.9524, 55.38013
121.4345, 55.91516
121.9166, 56.53095
122.3987, 56.97438
122.8808, 57.21149
123.3630, 57.26223
123.8451, 57.01194
124.3272, 56.63369
124.8093, 56.25846
125.2914, 55.89172
125.7735, 55.60751
126.2557, 55.57838
126.7378, 55.74685
127.2199, 55.85387
127.7020, 55.85522
128.1841, 55.72807
128.6662, 55.37112
129.1483, 54.62280
129.6305, 53.80619
130.1126, 53.10057
130.5947, 52.51785
131.0768, 52.12712
131.5589, 52.11827
132.0410, 52.57531
132.5232, 52.72607
133.0053, 52.23772
133.4874, 51.56861
133.9695, 50.86110
134.4516, 50.16913
134.9337, 49.56734
135.4159, 49.18247
135.8980, 49.14751
136.3801, 49.09205
136.8622, 49.00958
137.3443, 48.89546
137.8264, 48.77425
138.3086, 48.65151
138.7907, 48.47460
139.2728, 48.09953
139.7549, 47.52056
140.2370, 46.72800
140.7191, 45.41026
141.2013, 43.92334
141.6834, 42.85435
142.1655, 42.57431
142.6476, 42.84822
143.1297, 42.62694
143.6118, 41.59776
144.0939, 40.52082
144.5761, 39.62767
145.0582, 38.92019
145.5403, 38.41276
146.0224, 38.18912
146.5045, 38.16700
146.9866, 38.06157
147.4688, 37.86761
147.9509, 37.58316
148.4330, 37.15373
148.9151, 36.54620
149.3972, 35.99799
149.8793, 35.69717
150.3615, 35.53181
150.8436, 35.38263
151.3257, 35.21893
151.8078, 35.04002
152.2899, 34.84438
152.7720, 34.61998
153.2542, 34.39584
153.7363, 34.16475
154.2184, 33.94293
154.7005, 33.76712
155.1826, 33.70064
155.6647, 33.71502
156.1469, 33.50548
156.6290, 32.69313
157.1111, 32.02248
157.5932, 31.72282
158.0753, 31.72340
158.5574, 31.86063
159.0396, 32.02027
159.5217, 32.22124
160.0038, 32.25785
160.4859, 31.97729
160.9680, 31.69389
161.4501, 31.55906
161.9323, 31.56048
162.4144, 31.57746
162.8965, 31.48049
163.3786, 31.22492
163.8607, 31.04809
164.3428, 30.99762
164.8250, 30.98557
165.3071, 30.94874
165.7892, 30.87741
166.2713, 30.80707
166.7534, 30.80156
167.2355, 30.88263
167.7177, 30.84934
168.1998, 30.53741
168.6819, 30.14878
169.1640, 29.98503
169.6461, 30.15089
170.1282, 30.38219
170.6104, 30.31731
171.0925, 29.99486
171.5746, 29.69922
172.0567, 29.55317
172.5388, 29.52076
173.0209, 29.49384
173.5031, 29.43640
173.9852, 29.27704
174.4673, 29.35154
174.9494, 29.35030
175.4315, 29.27739
175.9136, 28.91815
176.3958, 28.92862
176.8779, 28.79094
177.3600, 28.64718
177.8421, 28.70972
178.3242, 28.39212
178.8063, 28.51456
179.2885, 28.60210
179.7706, 28.55213
180.2527, 28.30175
180.7348, 28.19280
181.2169, 28.43330
181.6990, 28.68137
182.1812, 28.72947
182.6633, 28.55882
183.1454, 28.31735
183.6275, 28.22820
184.1096, 28.42620
184.5917, 28.48773
185.0738, 28.33846
185.5560, 28.12792
186.0381, 27.97066
186.5202, 27.89155
187.0023, 27.82198
187.4844, 27.63951
187.9665, 27.18457
188.4487, 26.87382
188.9308, 26.78506
189.4129, 26.79631
189.8950, 26.82957
190.3771, 26.85647
190.8592, 26.83438
191.3414, 26.66305
191.8235, 26.21164
192.3056, 25.86036
192.7877, 25.65160
193.2698, 25.56546
193.7519, 25.59866
194.2341, 25.76478
194.7162, 25.99795
195.1983, 26.18187
195.6804, 26.34988
196.1625, 26.40898
196.6446, 26.26669
197.1268, 25.99437
197.6089, 25.74510
198.0910, 25.55839
198.5731, 25.43726
199.0552, 25.39166
199.5373, 25.43244
200.0195, 25.47328
200.5016, 25.42745
200.9837, 25.32498
201.4658, 25.34302
201.9479, 25.65870
202.4300, 25.98615
202.9122, 25.98584
203.3943, 25.62266
203.8764, 25.21564
204.3585, 25.01410
204.8406, 25.01630
205.3227, 25.05333
205.8048, 25.18350
206.2870, 25.25600
206.7691, 25.10910
207.2512, 24.73013
207.7333, 24.34535
208.2154, 24.20821
208.6975, 24.35694
209.1797, 24.52746
209.6618, 24.78558
210.1439, 24.97828
210.6260, 24.97156
211.1081, 24.75791
211.5902, 24.48820
212.0724, 24.37114
212.5545, 24.47839
213.0366, 24.52257
213.5187, 24.42152
214.0008, 24.30075
214.4829, 24.24529
214.9651, 24.26764
215.4472, 24.31041
215.9293, 24.27791
216.4114, 24.08438
216.8935, 23.99891
217.3756, 24.09038
217.8578, 24.22173
218.3399, 24.29630
218.8220, 24.29438
219.3041, 24.26704
219.7862, 24.29841
220.2683, 24.46937
220.7505, 24.53475
221.2326, 24.38661
221.7147, 24.21191
222.1968, 24.18113
222.6789, 24.32511
223.1610, 24.51832
223.6432, 24.57121
224.1253, 24.38059
224.6074, 24.25239
225.0895, 24.18014
225.5716, 24.17167
226.0537, 24.28815
226.5358, 24.53541
227.0180, 24.76068
227.5001, 24.71374
227.9822, 24.24182
228.4643, 23.99623
228.9464, 24.18457
229.4285, 24.54017
229.9107, 24.79098
230.3928, 24.87611
230.8749, 24.87859
231.3570, 24.90438
231.8391, 24.96307
232.3212, 24.95143
232.8034, 24.74150
233.2855, 24.49535
233.7676, 24.43770
234.2497, 24.62521
234.7318, 24.90333
235.2139, 25.13704
235.6961, 25.32969
236.1782, 25.44315
236.6603, 25.39002
237.1424, 25.27482
237.6245, 25.28373
238.1066, 25.47694
238.5888, 25.66741
239.0709, 25.61666
239.5530, 25.40256
240.0351, 25.27423
240.5172, 25.36417
240.9993, 25.58498
241.4815, 25.78378
241.9636, 25.96337
242.4457, 26.08912
242.9278, 26.06186
243.4099, 25.96077
243.8920, 25.96131
244.3742, 26.20612
244.8563, 26.59202
245.3384, 26.90177
245.8205, 27.15628
246.3026, 27.27659
246.7847, 27.13551
247.2668, 26.85521
247.7490, 26.62718
248.2311, 26.54230
248.7132, 26.56355
249.1953, 26.61409
249.6774, 26.73054
250.1595, 26.79802
250.6417, 26.68783
251.1238, 26.52728
251.6059, 26.50150
252.0880, 26.73862
252.5701, 27.10606
253.0522, 27.24734
253.5344, 27.00709
254.0165, 26.84370
254.4986, 27.02118
254.9807, 27.29039
255.4628, 27.34334
255.9449, 27.01746
256.4271, 26.51292
256.9092, 26.31381
257.3913, 26.60085
257.8734, 26.86448
258.3555, 26.98324
258.8376, 27.04195
259.3198, 27.13750
259.8019, 27.30837
260.2840, 27.48203
260.7661, 27.49761
261.2482, 27.26948
261.7303, 27.03620
262.2125, 26.75130
262.6946, 26.51334
263.1767, 26.43375
263.6588, 26.53958
264.1409, 26.72738
264.6230, 26.79709
265.1052, 26.60042
265.5873, 26.58475
266.0694, 26.99444
266.5515, 27.41539
267.0336, 27.50530
267.5157, 27.20535
267.9979, 26.74074
268.4800, 26.43160
268.9621, 26.29877
269.4442, 26.30326
269.9263, 26.60668
270.4084, 26.90217
270.8906, 26.96278
271.3727, 26.77533
271.8548, 26.50736
272.3369, 26.36344
272.8190, 26.39263
273.3011, 26.38981
273.7833, 26.30740
274.2654, 26.23868
274.7475, 26.22096
275.2296, 26.26425
275.7117, 26.38344
276.1938, 26.61555
276.6760, 27.01221
277.1581, 27.18999
277.6402, 26.94090
278.1223, 26.71802
278.6044, 26.74582
279.0865, 26.99606
279.5686, 27.30753
280.0508, 27.54907
280.5329, 27.71711
281.0150, 27.96444
281.4971, 28.33636
281.9792, 28.72439
282.4613, 29.14444
282.9435, 29.55209
283.4256, 29.85256
283.9077, 29.97775
284.3898, 29.94556
284.8719, 29.90732
285.3540, 29.91286
285.8362, 29.85865
286.3183, 29.63909
286.8004, 29.34814
287.2825, 29.16439
287.7646, 29.18790
288.2467, 29.35614
288.7289, 29.45106
289.2110, 29.33545
289.6931, 29.31999
290.1752, 29.56039
290.6573, 29.90145
291.1394, 30.12301
291.6216, 30.13894
292.1037, 30.01614
292.5858, 29.87829
293.0679, 29.68079
293.5500, 29.55681
294.0321, 29.61731
294.5143, 29.71582
294.9964, 29.68091
295.4785, 29.46644
295.9606, 29.15792
296.4427, 28.86594
296.9248, 28.58689
297.4070, 28.34361
297.8891, 28.16325
298.3712, 28.00327
298.8533, 27.82959
299.3354, 27.63689
299.8175, 27.43107
300.2997, 27.21749
300.7818, 26.99494
301.2639, 26.76686
301.7460, 26.46693
302.2281, 26.21420
302.7102, 26.16071
303.1924, 26.27374
303.6745, 26.29663
304.1566, 25.99356
304.6387, 25.38988
305.1208, 25.01253
305.6029, 25.05331
306.0851, 25.10894
306.5672, 24.96457
307.0493, 24.66234
307.5314, 24.35934
308.0135, 24.14719
308.4956, 23.99919
308.9778, 23.79864
309.4599, 23.41794
309.9420, 23.14755
310.4241, 23.24191
310.9062, 23.49945
311.3883, 23.48459
311.8705, 22.98247
312.3526, 22.23400
312.8347, 21.78696
313.3168, 21.72306
313.7989, 21.69822
314.2810, 21.64592
314.7632, 21.59598
315.2453, 21.61036
315.7274, 21.71025
316.2095, 21.80582
316.6916, 21.75839
317.1737, 21.52211
317.6559, 21.34554
318.1380, 21.32297
318.6201, 21.32391
319.1022, 21.21221
319.5843, 20.97445
320.0664, 20.71177
320.5485, 20.50398
321.0306, 20.35904
321.5128, 20.29343
321.9949, 20.38440
322.4770, 20.48681
322.9591, 20.51244
323.4412, 20.46437
323.9233, 20.37899
324.4055, 20.26708
324.8876, 20.14067
325.3697, 20.08546
325.8518, 20.15033
326.3339, 20.22082
326.8160, 20.22343
327.2982, 20.20047
327.7803, 20.27226
328.2624, 20.51871
328.7445, 20.83334
329.2266, 20.91157
329.7087, 20.61268
330.1909, 20.36896
330.6730, 20.29076
331.1551, 20.30076
331.6372, 20.31751
332.1193, 20.31831
332.6014, 20.27789
333.0836, 20.14025
333.5657, 19.83070
334.0478, 19.66166
334.5299, 19.75414
335.0120, 19.91882
335.4941, 19.99386
335.9763, 19.96432
336.4584, 19.93371
336.9405, 20.01694
337.4226, 20.23214
337.9047, 20.27715
338.3868, 19.97850
338.8690, 19.69300
339.3511, 19.63574
339.8332, 19.75467
340.3153, 19.86641
340.7974, 19.85634
341.2795, 19.74154
341.7617, 19.62659
342.2438, 19.50133
342.7259, 19.38805
343.2080, 19.26575
343.6901, 19.16461
344.1722, 19.15072
344.6544, 19.25403
345.1365, 19.40454
345.6186, 19.45734
346.1007, 19.36115
346.5828, 19.23140
347.0649, 19.06141
347.5471, 18.86291
348.0292, 18.59855
348.5113, 18.28312
348.9934, 18.03804
349.4755, 18.03244
349.9576, 18.36059
350.4398, 18.53701
350.9219, 18.51668
351.4040, 18.41300
351.8861, 18.23792
352.3682, 18.02423
352.8503, 17.83051
353.3325, 17.69726
353.8146, 17.62569
354.2967, 17.64090
354.7788, 17.92026
355.2609, 18.08366
355.7430, 17.96804
356.2252, 17.70932
356.7073, 17.49368
357.1894, 17.40954
357.6715, 17.42288
358.1536, 17.45532
358.6357, 17.59763
359.1179, 17.61075
359.5999, 17.39078
360.0821, 17.11020
360.5642, 16.88103
361.0463, 16.73809
361.5284, 16.69284
362.0105, 16.80316
362.4926, 17.18807
362.9748, 17.25625
363.4569, 16.64406
363.9390, 16.07619
364.4211, 15.89733
364.9032, 16.03786
365.3853, 16.24260
365.8675, 16.32304
366.3496, 16.29299
366.8317, 16.28916
367.3138, 16.39937
367.7959, 16.41769
368.2780, 16.19436
368.7602, 15.89556
369.2423, 15.74286
369.7244, 15.83691
370.2065, 16.05207
370.6886, 16.13051
371.1707, 15.99720
371.6529, 15.91572
372.1350, 16.01894
372.6171, 16.11455
373.0992, 16.06528
373.5813, 15.85828
374.0634, 15.58822
374.5456, 15.30915
375.0277, 15.01417
375.5098, 14.87141
375.9919, 14.98852
376.4740, 15.15517
376.9561, 15.32831
377.4383, 15.47418
377.9204, 15.51621
378.4025, 15.35867
378.8846, 15.09714
379.3667, 15.02954
379.8488, 15.25812
380.3310, 15.41461
380.8131, 15.26244
381.2952, 15.00311
381.7773, 14.84950
382.2594, 14.87206
382.7415, 14.92968
383.2237, 14.84419
383.7058, 14.61670
384.1879, 14.45614
384.6700, 14.42962
385.1521, 14.47459
385.6342, 14.55608
386.1164, 14.66689
386.5985, 14.72945
387.0806, 14.68361
387.5627, 14.55981
388.0448, 14.41515
388.5269, 14.23859
389.0091, 14.09525
389.4912, 14.06587
389.9733, 14.10578
390.4554, 14.11638
390.9375, 14.02613
391.4196, 13.94705
391.9018, 14.00466
392.3839, 14.18426
392.8660, 14.33869
393.3481, 14.36915
393.8302, 14.37287
394.3123, 14.56032
394.7945, 15.00333
395.2766, 15.38061
395.7587, 15.54133
396.2408, 15.56035
396.7229, 15.54120
397.2050, 15.50060
397.6872, 15.48009
398.1693, 15.54093
398.6514, 15.69323
399.1335, 15.78891
399.6156, 15.75460
400.0977, 15.71649
400.5798, 15.75709
401.0620, 15.87500
401.5441, 16.04169
402.0262, 16.24520
402.5083, 16.47903
402.9904, 16.70678
403.4725, 16.95358
403.9547, 17.16511
404.4368, 17.33097
404.9189, 17.45627
405.4010, 17.52034
405.8831, 17.52167
406.3652, 17.53579
406.8474, 17.68814
407.3295, 18.07522
407.8116, 18.31164
408.2937, 18.30544
408.7758, 18.24918
409.2579, 18.25022
409.7401, 18.30050
410.2222, 18.34342
410.7043, 18.34475
411.1864, 18.29793
411.6685, 18.14780
412.1506, 17.85514
412.6328, 17.49584
413.1149, 17.03157
413.5970, 16.53010
414.0791, 16.04962
414.5612, 15.61257
415.0433, 15.22918
415.5255, 14.92190
416.0076, 14.70478
416.4897, 14.51125
416.9718, 14.32099
417.4539, 14.16971
417.9360, 14.09208
418.4182, 14.07359
418.9003, 14.06692
419.3824, 14.04088
419.8645, 13.99865
420.3466, 13.93974
420.8287, 13.81635
421.3109, 13.78019
421.7930, 14.05590
422.2751, 14.37863
422.7572, 14.39524
423.2393, 13.95686
423.7214, 13.45010
424.2036, 13.31275
424.6857, 13.53163
425.1678, 13.75812
425.6499, 13.95864
426.1320, 14.08668
426.6141, 14.08069
427.0963, 13.95744
427.5784, 13.84548
428.0605, 13.80380
428.5426, 13.80385
429.0247, 13.79742
429.5068, 13.78011
429.9890, 13.79128
430.4711, 13.87208
430.9532, 13.99730
431.4353, 14.08553
431.9174, 14.15148
432.3995, 14.15824
432.8817, 14.07603
433.3638, 13.92250
433.8459, 13.70197
434.3280, 13.40157
434.8101, 13.13222
435.2922, 13.06761
435.7744, 13.27516
436.2565, 13.42367
436.7386, 13.45425
437.2207, 13.46084
437.7028, 13.53855
438.1849, 13.66198
438.6671, 13.71214
439.1492, 13.60144
439.6313, 13.35927
440.1134, 13.16023
440.5955, 13.00122
441.0776, 12.89078
441.5598, 12.81274
442.0418, 12.79313
442.5240, 12.91044
443.0061, 13.16240
443.4882, 13.40107
443.9703, 13.43132
444.4524, 13.22292
444.9345, 12.94708
445.4167, 12.34243
445.8988, 11.93118
446.3809, 12.02309
446.8630, 12.43903
447.3451, 12.84015
447.8272, 13.04379
448.3094, 13.08652
448.7915, 13.02176
449.2736, 12.76604
449.7557, 12.64275
450.2378, 12.83946
450.7199, 13.12566
451.2021, 13.38156
451.6842, 13.58217
452.1663, 13.68397
452.6484, 13.57204
453.1305, 13.31355
453.6126, 13.23965
454.0948, 13.45227
454.5769, 13.65375
455.0590, 13.55814
455.5411, 13.32216
456.0232, 13.22828
456.5053, 13.40159
456.9875, 13.64699
457.4696, 13.83021
457.9517, 13.95218
458.4338, 14.00037
458.9159, 13.93604
459.3980, 13.86425
459.8802, 13.97919
460.3623, 14.30108
460.8444, 14.55070
461.3265, 14.61685
461.8086, 14.63138
462.2907, 14.72332
462.7729, 14.88826
463.2550, 15.02978
463.7371, 15.07529
464.2192, 15.04765
464.7013, 15.08189
465.1834, 15.22899
465.6656, 15.36830
466.1477, 15.46176
466.6298, 15.55082
467.1119, 15.67118
467.5940, 15.83550
468.0761, 16.05394
468.5583, 16.36037
469.0404, 16.79594
469.5225, 17.06587
470.0046, 17.00908
470.4867, 16.95076
470.9688, 17.04139
471.4510, 17.18443
471.9331, 17.20889
472.4152, 17.02859
472.8973, 16.72628
473.3794, 16.45678
473.8615, 16.23405
474.3437, 15.98572
474.8258, 15.67627
475.3079, 15.35554
475.7900, 15.04602
476.2721, 14.75274
476.7542, 14.47802
477.2364, 14.21813
477.7185, 13.98093
478.2006, 13.80277
478.6827, 13.70182
479.1648, 13.55073
479.6469, 13.22526
480.1291, 12.83564
480.6112, 12.57551
481.0933, 12.46865
481.5754, 12.44772
482.0575, 12.53162
482.5396, 12.66684
483.0217, 12.76044
483.5038, 12.79456
483.9860, 12.77985
484.4681, 12.72424
484.9502, 12.62480
485.4323, 12.48961
485.9144, 12.22662
486.3965, 12.02742
486.8787, 12.04239
487.3608, 12.16501
487.8429, 12.17726
488.3250, 11.99209
488.8071, 11.74333
489.2892, 11.67978
489.7714, 11.91681
490.2535, 12.05624
490.7356, 12.12103
491.2177, 12.08512
491.6998, 11.81625
492.1819, 11.43415
492.6641, 11.22742
493.1462, 11.40819
493.6283, 11.82259
494.1104, 12.00070
494.5925, 11.83665
495.0746, 11.72307
495.5568, 11.81603
496.0389, 11.94699
496.5210, 11.99491
497.0031, 11.95388
497.4852, 11.90574
497.9673, 11.90407
498.4495, 11.93911
498.9316, 12.00557
499.4137, 12.12389
499.8958, 12.17208
500.3779, 12.01782
500.8600, 11.76552
501.3422, 11.64551
501.8243, 11.74614
502.3064, 11.81050
502.7885, 11.63367
503.2706, 11.35331
503.7527, 11.23283
504.2349, 11.33098
504.7170, 11.49357
505.1991, 11.56932
505.6812, 11.55219
506.1633, 11.58086
506.6454, 11.78759
507.1276, 11.88958
507.6097, 11.64462
508.0918, 11.26724
508.5739, 11.10656
509.0560, 11.28803
509.5381, 11.63955
510.0203, 11.89546
510.5024, 12.03917
510.9845, 12.14459
511.4666, 12.20195
511.9487, 12.23011
512.4308, 12.24860
512.9130, 12.24143
513.3951, 12.16658
513.8772, 11.98895
514.3593, 11.77435
514.8414, 11.63546
515.3235, 11.57398
515.8057, 11.57725
516.2878, 11.70200
516.7699, 11.83210
517.2520, 11.87027
517.7341, 11.82386
518.2162, 11.75392
518.6984, 11.65916
519.1805, 11.56983
519.6626, 11.55139
520.1447, 11.59556
520.6268, 11.56579
521.1089, 11.34933
521.5911, 11.07590
522.0732, 11.08110
522.5553, 11.47345
523.0374, 11.77017
523.5195, 11.85708
524.0016, 11.83920
524.4838, 11.76909
524.9659, 11.67352
525.4480, 11.61671
525.9301, 11.65752
526.4122, 11.75885
526.8943, 11.71708
527.3765, 11.27588
527.8586, 11.06724
528.3407, 11.30838
528.8228, 11.67433
529.3049, 11.91532
529.7870, 11.99851
530.2692, 12.03116
530.7513, 12.12596
531.2334, 12.25380
531.7155, 12.21678
532.1976, 11.93104
532.6797, 11.67642
533.1619, 11.58384
533.6440, 11.57685
534.1261, 11.59162
534.6082, 11.62170
535.0903, 11.65330
535.5724, 11.67784
536.0546, 11.69750
536.5367, 11.70466
537.0188, 11.69472
537.5009, 11.72793
537.9830, 11.87519
538.4651, 12.10342
538.9473, 12.22661
539.4294, 12.18417
539.9115, 12.12402
540.3936, 12.05551
540.8757, 12.00655
541.3578, 12.03705
541.8400, 12.14623
542.3221, 12.23799
542.8042, 12.19984
543.2863, 12.02791
543.7684, 11.96524
544.2505, 12.10957
544.7326, 12.25149
545.2147, 12.37670
545.6968, 12.46721
546.1790, 12.49762
546.6611, 12.46431
547.1432, 12.40213
547.6253, 12.30758
548.1074, 12.19404
548.5895, 12.25389
549.0717, 12.59985
549.5538, 12.89190
550.0359, 12.87407
550.5180, 12.68465
551.0001, 12.51607
551.4822, 12.40572
551.9644, 12.30342
552.4465, 12.15234
552.9286, 11.99131
553.4107, 11.92958
553.8928, 11.99121
554.3749, 12.01586
554.8571, 11.81667
555.3392, 11.40695
555.8213, 11.29107
556.3034, 11.73071
556.7855, 12.09904
557.2676, 12.25414
557.7498, 12.24292
558.2319, 12.07457
558.7140, 11.77666
559.1961, 11.47096
559.6782, 11.27583
560.1603, 11.19162
560.6425, 11.25228
561.1246, 11.63526
561.6067, 11.89881
562.0888, 11.85389
562.5709, 11.65974
563.0530, 11.45952
563.5352, 11.28345
564.0173, 11.21098
564.4994, 11.39495
564.9815, 11.74079
565.4636, 11.90860
565.9457, 11.83312
566.4279, 11.76704
566.9100, 11.94705
567.3921, 12.25467
567.8742, 12.27667
568.3563, 11.82510
568.8384, 11.40420
569.3206, 11.14143
569.8027, 11.02421
570.2848, 11.09431
570.7669, 11.32622
571.2490, 11.55193
571.7311, 11.61951
572.2133, 11.54519
572.6954, 11.50336
573.1775, 11.49056
573.6596, 11.51896
574.1417, 11.62838
574.6238, 11.75207
575.1060, 11.84451
575.5881, 11.89421
576.0702, 11.89599
576.5523, 11.82438
577.0344, 11.70324
577.5165, 11.62395
577.9987, 11.59462
578.4808, 11.56842
578.9629, 11.48672
579.4450, 11.42746
579.9271, 11.52919
580.4092, 11.82930
580.8914, 12.03674
581.3735, 11.92422
581.8556, 11.73710
582.3377, 11.79938
582.8198, 12.08131
583.3019, 12.28136
583.7841, 12.21205
584.2662, 11.97849
584.7483, 11.87239
585.2304, 12.01928
585.7125, 12.08910
586.1946, 12.09100
586.6768, 12.01377
587.1589, 11.76516
587.6410, 11.43074
588.1231, 11.22911
588.6052, 11.30793
589.0873, 11.52589
589.5695, 11.57403
