##NAMES=Covellite
##RRUFFID=R060129
##IDEAL CHEMISTRY=Cu^1+^S
##LOCALITY=Butte, Montana, USA
##OWNER=RRUFF
##SOURCE=University of Arizona Mineral Museum
##DESCRIPTION=Iridescent blue metallic hexagonal plates
##STATUS=The identification of this mineral has been confirmed by X-ray diffraction and chemical analysis
##URL=rruff.info/R060129
##MEASURED CHEMISTRY=Cu_1.00_S_1.00_
89.78156, 0.0000000E+00
90.26367, 13.14575
90.74579, 12.84912
91.22791, 12.92665
91.71002, 13.34654
92.19214, 13.83660
92.67426, 14.40802
93.15638, 14.90860
93.63850, 14.89429
94.12061, 13.83971
94.60273, 12.27192
95.08485, 11.48062
95.56696, 11.53925
96.04908, 11.92605
96.53120, 12.02919
97.01331, 11.86433
97.49543, 11.78499
97.97755, 12.04960
98.45966, 12.62520
98.94178, 12.90684
99.42390, 12.82928
99.90602, 12.54518
100.3881, 12.32523
100.8703, 12.17231
101.3524, 12.07093
101.8345, 12.02898
102.3166, 12.07188
102.7987, 12.08178
103.2808, 12.10573
103.7630, 12.08924
104.2451, 11.73725
104.7272, 10.75982
105.2093, 9.825726
105.6914, 9.389791
106.1735, 9.787760
106.6557, 10.11813
107.1378, 10.27876
107.6199, 10.26794
108.1020, 10.17171
108.5841, 9.744947
109.0662, 9.361487
109.5484, 9.350765
110.0305, 10.01735
110.5126, 10.75332
110.9947, 11.57426
111.4768, 12.60974
111.9590, 13.15442
112.4411, 12.67914
112.9232, 11.79191
113.4053, 11.28883
113.8874, 11.70552
114.3695, 12.20373
114.8517, 12.46842
115.3338, 12.40491
115.8159, 12.25165
116.2980, 11.96038
116.7801, 11.62166
117.2622, 11.43297
117.7444, 11.55592
118.2265, 11.79868
118.7086, 12.05172
119.1907, 12.36942
119.6728, 12.57903
120.1549, 12.44587
120.6371, 12.07043
121.1192, 11.85950
121.6013, 12.13452
122.0834, 12.67176
122.5655, 13.22545
123.0476, 13.72678
123.5298, 14.21031
124.0119, 14.67543
124.4940, 15.12782
124.9761, 15.65022
125.4582, 16.26664
125.9404, 16.99630
126.4225, 17.87484
126.9046, 19.20474
127.3867, 20.60403
127.8688, 21.35229
128.3509, 21.39854
128.8331, 21.29042
129.3152, 21.59723
129.7973, 22.26805
130.2794, 23.03483
130.7615, 23.66724
131.2436, 24.28116
131.7258, 25.33282
132.2079, 26.91493
132.6900, 28.71294
133.1721, 30.23763
133.6542, 31.47852
134.1364, 32.71414
134.6185, 34.10518
135.1006, 35.65319
135.5827, 37.18299
136.0648, 38.62691
136.5469, 40.12138
137.0291, 42.22566
137.5112, 45.16421
137.9933, 47.71943
138.4754, 48.97080
138.9575, 48.68087
139.4396, 48.55565
139.9218, 49.00506
140.4039, 49.75750
140.8860, 49.28581
141.3681, 47.03789
141.8502, 44.54852
142.3323, 43.10958
142.8145, 43.08728
143.2966, 43.12481
143.7787, 43.06911
144.2608, 42.91839
144.7429, 42.57664
145.2250, 41.77568
145.7072, 41.02101
146.1893, 40.82667
146.6714, 41.64855
147.1535, 42.34309
147.6356, 42.57733
148.1178, 42.21593
148.5999, 42.30869
149.0820, 43.09157
149.5641, 44.23108
150.0462, 45.33540
150.5283, 46.64627
151.0105, 47.66745
151.4926, 47.73001
151.9747, 46.90426
152.4568, 46.53604
152.9389, 47.05442
153.4210, 47.94297
153.9032, 48.48730
154.3853, 48.56970
154.8674, 48.35320
155.3495, 47.81104
155.8316, 46.66951
156.3137, 45.83909
156.7959, 45.79128
157.2780, 46.11887
157.7601, 46.05590
158.2422, 44.99482
158.7243, 43.83266
159.2065, 42.97512
159.6886, 42.48682
160.1707, 42.28663
160.6528, 42.55167
161.1349, 43.10918
161.6170, 43.50304
162.0992, 43.54430
162.5813, 43.38789
163.0634, 43.11918
163.5455, 42.63200
164.0276, 42.20684
164.5097, 41.93166
164.9919, 41.80864
165.4740, 41.85244
165.9561, 42.28946
166.4382, 42.79643
166.9203, 43.07423
167.4024, 42.78566
167.8846, 42.50646
168.3667, 42.70857
168.8488, 43.30999
169.3309, 43.77955
169.8130, 43.75714
170.2952, 43.43047
170.7773, 43.03051
171.2594, 42.54667
171.7415, 42.08345
172.2236, 41.67015
172.7057, 41.31356
173.1879, 41.13804
173.6700, 41.37188
174.1521, 41.83363
174.6342, 42.21666
175.1163, 42.37284
175.5984, 42.41049
176.0806, 42.42999
176.5627, 42.43068
177.0448, 42.45110
177.5269, 42.64592
178.0090, 42.89689
178.4911, 42.92610
178.9733, 42.41600
179.4554, 41.67498
179.9375, 41.19221
180.4196, 40.99138
180.9017, 40.91164
181.3838, 40.81565
181.8660, 40.71034
182.3481, 40.61567
182.8302, 40.50597
183.3123, 40.41785
183.7944, 40.51307
184.2766, 40.84686
184.7587, 41.10163
185.2408, 40.30066
185.7229, 40.90052
186.2050, 41.23378
186.6871, 41.31477
187.1693, 40.38792
187.6514, 40.76249
188.1335, 40.61551
188.6156, 40.44714
189.0977, 41.00489
189.5798, 40.96180
190.0620, 41.06645
190.5441, 40.74425
191.0262, 40.09398
191.5083, 39.81102
191.9904, 39.98473
192.4725, 40.39959
192.9547, 40.80611
193.4368, 41.21665
193.9189, 41.35494
194.4010, 40.83519
194.8831, 39.72643
195.3652, 39.18201
195.8474, 39.39254
196.3295, 40.01217
196.8116, 40.40503
197.2937, 40.56286
197.7758, 40.57523
198.2579, 40.46421
198.7401, 40.22783
199.2222, 39.94760
199.7043, 39.60575
200.1864, 39.25353
200.6685, 39.02250
201.1507, 38.93410
201.6328, 38.87017
202.1149, 38.76937
202.5970, 38.63149
203.0791, 38.43296
203.5612, 38.11274
204.0434, 37.77678
204.5255, 37.79733
205.0076, 38.29546
205.4897, 38.73474
205.9718, 38.71034
206.4539, 38.11326
206.9361, 37.72915
207.4182, 37.69908
207.9003, 37.89447
208.3824, 37.87083
208.8645, 37.54105
209.3466, 37.22004
209.8288, 37.11942
210.3109, 37.29748
210.7930, 37.44883
211.2751, 37.57151
211.7572, 37.64260
212.2393, 37.54450
212.7215, 37.19315
213.2036, 36.85890
213.6857, 36.74012
214.1678, 36.92212
214.6499, 37.03961
215.1320, 37.09795
215.6142, 36.55059
216.0963, 37.17358
216.5784, 37.52996
217.0605, 37.63408
217.5426, 36.73035
218.0247, 37.12804
218.5069, 37.00418
218.9890, 36.85894
219.4711, 37.43980
219.9532, 36.25920
220.4353, 36.85080
220.9175, 37.17579
221.3996, 37.24850
221.8817, 36.31338
222.3638, 36.67968
222.8459, 36.52443
223.3280, 36.34779
223.8102, 36.89726
224.2923, 36.10872
224.7744, 36.64668
225.2565, 36.65512
225.7386, 36.90592
226.2207, 36.63193
226.7029, 36.52003
227.1850, 36.93308
227.6671, 37.05546
228.1492, 36.72107
228.6313, 36.98726
229.1134, 36.18040
229.5956, 36.43744
230.0777, 36.42912
230.5598, 36.36395
231.0419, 36.25723
231.5240, 36.20454
232.0062, 36.32590
232.4883, 36.33982
232.9704, 35.55736
233.4525, 36.17462
233.9346, 36.52530
234.4167, 36.62370
234.8989, 35.71425
235.3810, 36.10623
235.8631, 35.97666
236.3452, 35.82570
236.8273, 36.40085
237.3094, 35.63799
237.7916, 36.20163
238.2737, 36.23576
238.7558, 35.31714
239.2379, 34.95980
239.7200, 35.28169
240.2021, 35.70477
240.6843, 35.90892
241.1664, 35.74432
241.6485, 35.69088
242.1306, 35.79963
242.6127, 36.03551
243.0948, 36.26994
243.5770, 36.53487
244.0591, 36.75655
244.5412, 36.86691
245.0233, 36.72016
245.5054, 36.69970
245.9876, 37.05619
246.4697, 37.33089
246.9518, 37.52824
247.4339, 37.41651
247.9160, 37.70388
248.3981, 37.83131
248.8803, 37.95221
249.3624, 38.47734
249.8445, 39.11822
250.3266, 39.64723
250.8087, 39.97083
251.2908, 40.24472
251.7730, 40.47334
252.2551, 40.42493
252.7372, 40.80766
253.2193, 41.06251
253.7014, 41.34285
254.1835, 41.87792
254.6657, 42.03481
255.1478, 42.63046
255.6299, 43.09579
256.1120, 43.86138
256.5941, 44.25975
257.0763, 44.58110
257.5584, 44.80198
258.0405, 44.96487
258.5226, 45.15176
259.0047, 45.37780
259.4868, 45.60061
259.9690, 45.80426
260.4511, 45.98818
260.9332, 46.15506
261.4153, 46.30244
261.8974, 46.43696
262.3795, 46.57133
262.8617, 46.71772
263.3438, 46.83958
263.8259, 46.95412
264.3080, 47.08613
264.7901, 46.99550
265.2722, 46.58956
265.7544, 46.07096
266.2365, 45.77758
266.7186, 45.82440
267.2007, 45.74035
267.6828, 45.32029
268.1649, 44.52796
268.6471, 43.97401
269.1292, 43.72166
269.6113, 43.59188
270.0934, 43.36637
270.5755, 43.02436
271.0576, 42.65845
271.5398, 42.29691
272.0219, 41.93569
272.5040, 41.52224
272.9861, 41.02831
273.4682, 40.55375
273.9503, 40.22974
274.4325, 40.09436
274.9146, 39.90565
275.3967, 39.60568
275.8788, 39.20058
276.3610, 38.69677
276.8431, 38.02163
277.3252, 37.48169
277.8073, 36.94293
278.2894, 37.47675
278.7715, 37.74397
279.2537, 37.75891
279.7358, 36.76601
280.2179, 37.07454
280.7000, 36.86151
281.1821, 36.62710
281.6642, 37.11879
282.1464, 36.27247
282.6285, 36.75265
283.1106, 36.70332
283.5927, 36.89634
284.0748, 36.56458
284.5569, 36.39491
285.0391, 36.75016
285.5212, 36.42022
286.0033, 36.71820
286.4854, 36.84840
286.9675, 36.73404
287.4496, 36.47716
287.9318, 36.21801
288.4139, 35.95362
288.8960, 35.83820
289.3781, 36.13039
289.8602, 36.70594
290.3423, 36.88409
290.8245, 36.53278
291.3066, 35.96086
291.7887, 35.62210
292.2708, 35.50139
292.7529, 35.47589
293.2350, 35.53598
293.7172, 35.64419
294.1993, 35.65481
294.6814, 35.53847
295.1635, 35.43314
295.6456, 35.56375
296.1277, 35.87548
296.6099, 36.13445
297.0920, 36.22371
297.5741, 36.18562
298.0562, 36.06055
298.5383, 35.84154
299.0204, 35.64690
299.5026, 35.63652
299.9847, 35.74921
300.4668, 35.82095
300.9489, 35.73577
301.4311, 35.59937
301.9132, 35.55854
302.3953, 35.61110
302.8774, 35.70819
303.3595, 35.84899
303.8416, 36.00252
304.3238, 36.12561
304.8059, 36.26778
305.2880, 36.30839
305.7701, 36.00658
306.2522, 35.42337
306.7343, 34.94929
307.2165, 34.92969
307.6986, 35.13490
308.1807, 35.27000
308.6628, 35.21626
309.1449, 35.15248
309.6270, 35.24142
310.1092, 35.44116
310.5913, 35.61491
311.0734, 35.68767
311.5555, 35.70147
312.0376, 35.69952
312.5197, 35.70849
313.0019, 35.64980
313.4840, 35.35832
313.9661, 34.96856
314.4482, 34.75214
314.9303, 35.10490
315.4124, 35.46735
315.8946, 35.40685
316.3767, 34.75779
316.8588, 34.27858
317.3409, 34.44151
317.8230, 34.91252
318.3051, 35.24994
318.7873, 35.13700
319.2694, 35.02690
319.7515, 35.16699
320.2336, 35.59597
320.7157, 35.88468
321.1978, 35.82580
321.6800, 35.61061
322.1621, 35.41116
322.6442, 35.23700
323.1263, 35.10641
323.6084, 35.03278
324.0905, 35.01350
324.5727, 35.00996
325.0548, 35.05728
325.5369, 35.09309
326.0190, 35.07969
326.5012, 35.01892
326.9833, 34.90354
327.4654, 34.66082
327.9475, 34.34374
328.4296, 34.16778
328.9117, 34.19958
329.3939, 34.31444
329.8760, 34.47270
330.3581, 34.74330
330.8402, 34.92443
331.3223, 34.93224
331.8044, 34.42059
332.2866, 34.93105
332.7687, 35.21164
333.2508, 35.27472
333.7329, 34.46879
334.2150, 34.78500
334.6971, 34.65150
335.1793, 34.49957
335.6614, 34.60995
336.1435, 35.08633
336.6256, 35.33283
337.1077, 35.36182
337.5898, 34.52180
338.0720, 34.80392
338.5541, 34.63634
339.0362, 34.45033
339.5183, 34.89039
340.0004, 34.90466
340.4825, 34.95306
340.9647, 34.95309
341.4468, 34.93926
341.9289, 34.90558
342.4110, 34.77137
342.8931, 34.50093
343.3752, 34.36843
343.8574, 34.76194
344.3395, 35.62197
344.8216, 35.88424
345.3037, 35.28366
345.7858, 34.36298
346.2679, 34.09600
346.7501, 34.44681
347.2322, 34.87276
347.7143, 35.14616
348.1964, 35.27312
348.6785, 35.24780
349.1607, 35.05122
349.6428, 34.81258
350.1249, 34.68066
350.6070, 34.62710
351.0891, 34.55819
351.5713, 34.37594
352.0534, 34.18708
352.5355, 34.15825
353.0176, 34.28702
353.4997, 34.48379
353.9818, 34.79888
354.4640, 35.10971
354.9461, 35.21094
355.4282, 34.91357
355.9103, 34.55297
356.3924, 34.41352
356.8745, 34.46232
357.3567, 34.57007
357.8388, 34.79622
358.3209, 34.97654
358.8030, 34.94711
359.2851, 34.61782
359.7672, 34.24300
360.2494, 33.83847
360.7315, 33.49135
361.2136, 33.36665
361.6957, 33.80631
362.1778, 34.25224
362.6599, 34.38922
363.1421, 34.15048
363.6242, 33.93368
364.1063, 33.93117
364.5884, 33.97834
365.0705, 33.90690
365.5526, 33.42099
366.0348, 33.08672
366.5169, 33.05173
366.9990, 33.30726
367.4811, 33.66025
367.9632, 34.38719
368.4453, 35.00609
368.9275, 35.23063
369.4096, 34.64891
369.8917, 34.24102
370.3738, 34.08463
370.8559, 34.10986
371.3380, 34.12299
371.8202, 34.09136
372.3023, 34.09350
372.7844, 34.18435
373.2665, 34.42028
373.7487, 34.49829
374.2308, 34.33104
374.7129, 34.09415
375.1950, 34.03597
375.6771, 34.21202
376.1592, 34.40203
376.6414, 34.60671
377.1235, 34.79890
377.6056, 34.63500
378.0877, 34.00022
378.5698, 33.38176
379.0519, 33.29356
379.5341, 33.74065
380.0162, 34.00108
380.4983, 33.91865
380.9804, 33.62317
381.4625, 33.35926
381.9446, 33.12470
382.4268, 33.00154
382.9089, 33.03760
383.3910, 33.22305
383.8731, 33.59851
384.3552, 34.21516
384.8373, 34.77712
385.3195, 34.89381
385.8016, 34.66425
386.2837, 34.38005
386.7658, 34.06631
387.2479, 33.82210
387.7300, 33.87560
388.2122, 34.20928
388.6943, 34.42463
389.1764, 34.01915
389.6585, 33.38937
390.1406, 33.05898
390.6227, 33.32475
391.1049, 33.70801
391.5870, 33.99446
392.0691, 34.16156
392.5512, 34.14137
393.0333, 33.63263
393.5154, 33.11457
393.9976, 32.95403
394.4797, 33.34232
394.9618, 33.59480
395.4439, 33.32784
395.9260, 32.84623
396.4081, 32.55628
396.8903, 32.56619
397.3724, 32.75163
397.8545, 33.24219
398.3366, 34.06167
398.8188, 34.45019
399.3009, 34.02842
399.7830, 33.37589
400.2651, 32.84642
400.7472, 32.37900
401.2293, 32.13435
401.7115, 32.21297
402.1936, 32.50921
402.6757, 32.70049
403.1578, 32.73362
403.6399, 32.75267
404.1220, 32.81377
404.6042, 32.92092
405.0863, 33.08672
405.5684, 33.40265
406.0505, 33.62828
406.5326, 33.30308
407.0147, 32.31046
407.4969, 31.67122
407.9790, 31.76323
408.4611, 32.39079
408.9432, 32.74696
409.4253, 32.80564
409.9074, 32.84768
410.3896, 33.24792
410.8717, 33.86500
411.3538, 33.99043
411.8359, 33.39671
412.3180, 32.59138
412.8001, 32.27125
413.2823, 32.36221
413.7644, 32.54226
414.2465, 32.75315
414.7286, 32.90837
415.2107, 32.82995
415.6928, 32.50274
416.1750, 32.22307
416.6571, 32.29117
417.1392, 32.52345
417.6213, 32.67269
418.1034, 32.60075
418.5855, 32.48226
419.0677, 32.39346
419.5498, 32.33525
420.0319, 32.31440
420.5140, 32.37025
420.9961, 32.43797
421.4782, 32.48697
421.9604, 32.52967
422.4425, 32.50823
422.9246, 32.36323
423.4067, 32.16033
423.8889, 31.98737
424.3710, 31.73553
424.8531, 31.64287
425.3352, 31.82205
425.8173, 32.27322
426.2994, 32.64199
426.7816, 32.95354
427.2637, 33.15346
427.7458, 33.19340
428.2279, 33.00893
428.7100, 32.81274
429.1921, 32.59562
429.6743, 32.38968
430.1564, 32.28900
430.6385, 32.31567
431.1206, 32.36400
431.6027, 32.42048
432.0848, 32.48031
432.5670, 32.37118
433.0491, 32.04687
433.5312, 31.74265
434.0133, 31.73053
434.4954, 31.97640
434.9775, 32.25368
435.4597, 32.51259
435.9418, 32.76652
436.4239, 33.03767
436.9060, 33.32135
437.3881, 33.60235
437.8702, 33.84347
438.3524, 34.08488
438.8345, 34.41001
439.3166, 34.84472
439.7987, 35.24364
440.2808, 35.41206
440.7629, 35.48433
441.2451, 35.66807
441.7272, 36.26388
442.2093, 36.79572
442.6914, 36.88395
443.1735, 36.61176
443.6556, 36.54360
444.1378, 36.94710
444.6199, 37.58000
445.1020, 38.31364
445.5841, 39.23753
446.0662, 40.04626
446.5483, 40.67698
447.0305, 41.17337
447.5126, 41.60200
447.9947, 41.74546
448.4768, 42.08051
448.9590, 42.71109
449.4411, 43.63736
449.9232, 44.78569
450.4053, 46.27705
450.8874, 47.83166
451.3695, 49.16766
451.8517, 50.16875
452.3338, 51.50474
452.8159, 53.26178
453.2980, 55.33108
453.7801, 57.52682
454.2622, 59.82481
454.7444, 62.32424
455.2265, 64.97121
455.7086, 67.84179
456.1907, 71.20747
456.6728, 75.13406
457.1549, 79.25102
457.6371, 83.20410
458.1192, 87.14371
458.6013, 91.63481
459.0834, 97.02139
459.5655, 102.5353
460.0476, 107.2848
460.5298, 111.4622
461.0119, 115.3894
461.4940, 119.0214
461.9761, 122.7246
462.4582, 126.8515
462.9403, 131.4956
463.4225, 136.1330
463.9046, 139.7877
464.3867, 143.6975
464.8688, 148.9407
465.3509, 156.6058
465.8330, 164.7211
466.3152, 172.7044
466.7973, 180.7634
467.2794, 189.6162
467.7615, 199.7161
468.2436, 210.3428
468.7257, 221.3887
469.2079, 232.7866
469.6900, 244.3043
470.1721, 256.0299
470.6542, 267.6767
471.1363, 279.3100
471.6184, 291.5040
472.1006, 301.5252
472.5827, 309.2264
473.0648, 314.2488
473.5469, 315.6908
474.0291, 313.5966
474.5112, 307.4507
474.9933, 296.3105
475.4754, 280.7384
475.9575, 262.4765
476.4396, 241.3120
476.9218, 219.5078
477.4039, 198.9894
477.8860, 179.8310
478.3681, 162.4269
478.8502, 146.9114
479.3323, 133.1855
479.8145, 121.2964
480.2966, 111.0708
480.7787, 102.3529
481.2608, 95.31753
481.7429, 89.32829
482.2250, 84.02915
482.7072, 79.41989
483.1893, 75.25027
483.6714, 71.45896
484.1535, 68.05101
484.6356, 65.02541
485.1177, 62.40552
485.5999, 60.10691
486.0820, 58.19470
486.5641, 56.61773
487.0462, 55.16297
487.5283, 53.92157
488.0104, 52.67724
488.4926, 51.28547
488.9747, 49.69336
489.4568, 48.38293
489.9389, 47.42039
490.4210, 46.63966
490.9031, 45.90660
491.3853, 45.22215
491.8674, 44.49667
492.3495, 43.69093
492.8316, 42.86577
493.3137, 42.14194
493.7958, 41.51528
494.2780, 40.98009
494.7601, 40.57478
495.2422, 40.25064
495.7243, 39.91585
496.2064, 39.55989
496.6885, 39.25228
497.1707, 39.09363
497.6528, 38.99613
498.1349, 38.84064
498.6170, 38.58755
499.0992, 38.27534
499.5813, 37.94657
500.0634, 37.57360
500.5455, 37.08675
501.0276, 36.14108
501.5097, 35.36738
501.9919, 35.11959
502.4740, 35.52726
502.9561, 35.70547
503.4382, 35.37891
503.9203, 34.95212
504.4024, 34.69418
504.8846, 34.65948
505.3667, 34.70443
505.8488, 34.90705
506.3309, 35.13172
506.8130, 35.01667
507.2951, 34.45877
507.7773, 34.03899
508.2594, 34.10652
508.7415, 34.51542
509.2236, 34.31231
509.7057, 33.44871
510.1878, 32.59214
510.6700, 32.29312
511.1521, 32.43879
511.6342, 32.73404
512.1163, 33.17696
512.5984, 33.59182
513.0806, 33.73529
513.5627, 33.71368
514.0448, 33.74915
514.5269, 34.09293
515.0090, 34.39977
515.4911, 34.39267
515.9733, 34.11142
516.4554, 33.84272
516.9375, 33.65709
517.4196, 33.54506
517.9017, 33.53105
518.3839, 33.72456
518.8660, 33.75023
519.3481, 33.38359
519.8302, 32.91469
520.3123, 32.65859
520.7944, 32.70905
521.2766, 32.80495
521.7587, 32.94566
522.2408, 33.09853
522.7229, 33.13144
523.2050, 33.02673
523.6871, 32.87016
524.1693, 32.66142
524.6514, 32.41671
525.1335, 32.34044
525.6156, 32.45951
526.0977, 32.57079
526.5798, 32.09153
527.0620, 32.63235
527.5441, 32.94331
528.0262, 33.03674
528.5083, 32.26117
528.9904, 32.60774
529.4725, 32.50461
529.9547, 32.38304
530.4368, 32.88755
530.9189, 32.23837
531.4010, 32.58059
531.8831, 32.33186
532.3652, 32.24348
532.8474, 32.62074
533.3295, 33.07849
533.8116, 33.38262
534.2937, 33.49886
534.7758, 33.46167
535.2579, 33.19011
535.7401, 32.80783
536.2222, 32.48027
536.7043, 32.14967
537.1864, 32.00835
537.6685, 32.15096
538.1506, 32.50851
538.6328, 32.78056
539.1149, 32.97638
539.5970, 33.04628
540.0791, 32.85757
540.5612, 32.49219
541.0433, 32.41328
541.5255, 32.66859
542.0076, 32.89978
542.4897, 32.68242
542.9718, 32.19148
543.4539, 31.76628
543.9360, 31.48491
544.4182, 31.32945
544.9003, 31.35044
545.3824, 31.49024
545.8645, 31.62109
546.3466, 31.71600
546.8287, 31.76785
547.3109, 31.74201
547.7930, 31.63644
548.2751, 31.59398
548.7572, 31.73619
549.2393, 31.86894
549.7214, 31.88494
550.2036, 31.72890
550.6857, 31.58456
551.1678, 31.47214
551.6499, 31.35090
552.1320, 31.11908
552.6141, 30.73024
553.0963, 30.54020
553.5784, 30.68625
554.0605, 31.03688
554.5426, 31.29922
555.0247, 31.47055
555.5068, 31.49645
555.9890, 31.27983
556.4711, 30.91720
556.9532, 30.54053
557.4353, 30.15598
557.9174, 29.85217
558.3995, 29.73458
558.8817, 29.71856
559.3638, 29.71239
559.8459, 29.68278
560.3281, 29.68515
560.8102, 29.78524
561.2923, 29.92189
561.7744, 29.99822
562.2565, 29.97634
562.7386, 29.91326
563.2208, 29.80270
563.7029, 29.65504
564.1850, 29.51787
564.6671, 29.32425
565.1492, 29.26608
565.6313, 29.56998
566.1135, 30.30249
566.5956, 30.37476
567.0777, 29.27069
567.5598, 29.78344
568.0419, 30.06633
568.5240, 30.13170
569.0062, 29.32806
569.4883, 29.64656
569.9704, 29.51536
570.4525, 29.36572
570.9346, 29.84216
571.4167, 29.16492
571.8989, 29.63142
572.3810, 29.64137
572.8631, 29.86027
573.3452, 29.62670
573.8273, 29.53288
574.3094, 29.48656
574.7916, 29.24948
575.2737, 28.89352
575.7558, 28.28319
576.2379, 28.04658
576.7200, 28.46011
577.2021, 29.03281
577.6843, 29.34340
578.1664, 29.33721
578.6485, 29.21083
579.1306, 28.94731
579.6127, 28.61251
580.0948, 28.27868
580.5770, 27.94590
581.0591, 27.79925
581.5412, 27.99353
582.0233, 28.37879
582.5054, 28.68422
582.9875, 28.89917
583.4697, 28.96795
583.9518, 28.74714
584.4339, 28.41329
584.9160, 28.10862
585.3981, 27.83310
585.8802, 27.74820
586.3624, 28.22200
586.8445, 28.77897
