##NAMES=Covellite
##RRUFFID=R060143
##IDEAL CHEMISTRY=Cu^1+^S
##LOCALITY=Butte, Montana, USA
##OWNER=RRUFF
##SOURCE=Marcus Origlieri
##DESCRIPTION=Irridescent blue to purple hexagonal plates
##STATUS=The identification of this mineral has been confirmed by X-ray diffraction and chemical analysis
##URL=rruff.info/R060143
##MEASURED CHEMISTRY=Cu_1.00_S_1.00_
89.78156, 0.0000000E+00
90.26367, 13.90134
90.74579, 13.74486
91.22791, 13.87295
91.71002, 14.24266
92.19214, 14.46926
92.67426, 13.98895
93.15638, 13.08677
93.63850, 12.54540
94.12061, 12.87931
94.60273, 13.67515
95.08485, 13.92027
95.56696, 13.56042
96.04908, 13.00192
96.53120, 12.75364
97.01331, 12.80092
97.49543, 12.75844
97.97755, 12.37048
98.45966, 11.66808
98.94178, 11.16454
99.42390, 10.86619
99.90602, 10.76441
100.3881, 10.94954
100.8703, 11.55618
101.3524, 11.96973
101.8345, 11.71101
102.3166, 10.49158
102.7987, 9.888431
103.2808, 10.20614
103.7630, 11.21371
104.2451, 11.88680
104.7272, 12.14626
105.2093, 12.18384
105.6914, 12.12134
106.1735, 11.94086
106.6557, 11.69104
107.1378, 11.37473
107.6199, 10.98835
108.1020, 10.55169
108.5841, 9.879770
109.0662, 9.252295
109.5484, 8.911465
110.0305, 9.015247
110.5126, 9.244079
110.9947, 9.592473
111.4768, 10.11115
111.9590, 10.52233
112.4411, 10.85892
112.9232, 11.06299
113.4053, 11.05049
113.8874, 10.52668
114.3695, 10.01266
114.8517, 9.716490
115.3338, 9.723059
115.8159, 9.794298
116.2980, 9.882758
116.7801, 9.988666
117.2622, 10.11116
117.7444, 10.22625
118.2265, 10.37269
118.7086, 10.59051
119.1907, 10.97389
119.6728, 11.30311
120.1549, 11.30398
120.6371, 11.08911
121.1192, 11.11539
121.6013, 11.93064
122.0834, 13.03330
122.5655, 13.85411
123.0476, 14.04803
123.5298, 14.04308
124.0119, 14.10669
124.4940, 14.25129
124.9761, 14.65446
125.4582, 15.58897
125.9404, 16.87857
126.4225, 18.17180
126.9046, 19.34442
127.3867, 20.43346
127.8688, 21.46799
128.3509, 22.43979
128.8331, 23.43714
129.3152, 24.76701
129.7973, 26.30776
130.2794, 27.42454
130.7615, 27.45214
131.2436, 26.77122
131.7258, 26.67041
132.2079, 27.22639
132.6900, 28.27898
133.1721, 29.63181
133.6542, 31.28114
134.1364, 33.18471
134.6185, 35.55235
135.1006, 38.35852
135.5827, 40.58622
136.0648, 42.01099
136.5469, 43.01200
137.0291, 44.58805
137.5112, 46.87310
137.9933, 49.13571
138.4754, 51.05235
138.9575, 52.66028
139.4396, 53.54588
139.9218, 53.50111
140.4039, 52.69971
140.8860, 51.92570
141.3681, 51.12310
141.8502, 50.45827
142.3323, 50.14514
142.8145, 50.40324
143.2966, 50.41976
143.7787, 49.95166
144.2608, 49.00867
144.7429, 48.48276
145.2250, 48.72502
145.7072, 49.06298
146.1893, 48.46719
146.6714, 48.62867
147.1535, 48.73236
147.6356, 48.78727
148.1178, 48.31901
148.5999, 48.77746
149.0820, 49.01805
149.5641, 49.35480
150.0462, 50.25706
150.5283, 51.63469
151.0105, 52.99730
151.4926, 53.46375
151.9747, 53.24609
152.4568, 53.26060
152.9389, 53.85592
153.4210, 54.61480
153.9032, 54.95854
154.3853, 54.70314
154.8674, 54.15349
155.3495, 53.29806
155.8316, 51.76665
156.3137, 50.77903
156.7959, 50.97038
157.2780, 51.78684
157.7601, 52.18668
158.2422, 51.42065
158.7243, 50.57704
159.2065, 50.20875
159.6886, 50.70726
160.1707, 51.13152
160.6528, 51.06050
161.1349, 50.69055
161.6170, 50.54283
162.0992, 51.20848
162.5813, 51.91214
163.0634, 52.12040
163.5455, 51.40996
164.0276, 49.99660
164.5097, 50.72044
164.9919, 51.11594
165.4740, 51.20075
165.9561, 50.04432
166.4382, 50.49070
166.9203, 50.29475
167.4024, 50.07246
167.8846, 50.74442
168.3667, 49.76853
168.8488, 50.06357
169.3309, 49.78759
169.8130, 50.27578
170.2952, 50.96917
170.7773, 51.16185
171.2594, 49.55611
171.7415, 50.19567
172.2236, 50.50689
172.7057, 50.50742
173.1879, 49.26669
173.6700, 49.62879
174.1521, 49.34855
174.6342, 49.04198
175.1163, 49.62966
175.5984, 48.56949
176.0806, 49.14297
176.5627, 48.90442
177.0448, 48.76546
177.5269, 49.10908
178.0090, 49.71803
178.4911, 50.08403
178.9733, 49.87002
179.4554, 48.75050
179.9375, 49.43740
180.4196, 49.79597
180.9017, 49.84385
181.3838, 48.65049
181.8660, 49.05993
182.3481, 48.82704
182.8302, 48.56782
183.3123, 49.20285
183.7944, 48.19004
184.2766, 48.81088
184.7587, 49.24020
185.2408, 49.28177
185.7229, 48.86718
186.2050, 47.72262
186.6871, 48.44010
187.1693, 48.82924
187.6514, 48.90770
188.1335, 47.74492
188.6156, 48.18494
189.0977, 47.98262
189.5798, 47.75397
190.0620, 48.41958
190.5441, 47.43733
191.0262, 48.08876
191.5083, 48.08805
191.9904, 48.38581
192.4725, 48.03727
192.9547, 48.54784
193.4368, 49.00909
193.9189, 49.22465
194.4010, 49.04242
194.8831, 48.49454
195.3652, 48.10205
195.8474, 47.94099
196.3295, 47.88291
196.8116, 47.62939
197.2937, 47.15304
197.7758, 46.74683
198.2579, 46.59763
198.7401, 46.70916
199.2222, 46.92091
199.7043, 47.30494
200.1864, 47.68697
200.6685, 47.58595
201.1507, 46.90796
201.6328, 45.58449
202.1149, 46.33695
202.5970, 46.76107
203.0791, 46.87451
203.5612, 45.74671
204.0434, 46.22171
204.5255, 46.05437
205.0076, 45.86071
205.4897, 46.56129
205.9718, 45.61403
206.4539, 46.30043
206.9361, 46.33471
207.4182, 46.66744
207.9003, 46.35388
208.3824, 46.77430
208.8645, 46.45656
209.3466, 45.93429
209.8288, 45.63317
210.3109, 45.63995
210.7930, 45.48046
211.2751, 45.07156
211.7572, 43.88393
212.2393, 44.58173
212.7215, 44.95118
213.2036, 45.00996
213.6857, 43.82750
214.1678, 44.24784
214.6499, 44.02586
215.1320, 43.77753
215.6142, 44.42345
216.0963, 43.42152
216.5784, 44.05327
217.0605, 44.03289
217.5426, 44.31097
218.0247, 43.94275
218.5069, 43.77552
218.9890, 42.79722
219.4711, 43.49163
219.9532, 43.85770
220.4353, 43.91309
220.9175, 42.72722
221.3996, 43.14417
221.8817, 42.91879
222.3638, 42.66707
222.8459, 43.30961
223.3280, 42.30429
223.8102, 42.93264
224.2923, 42.90886
224.7744, 43.18355
225.2565, 42.93487
225.7386, 42.58313
226.2207, 42.36190
226.7029, 42.38749
227.1850, 42.59828
227.6671, 42.65540
228.1492, 42.43475
228.6313, 42.23638
229.1134, 42.28954
229.5956, 42.84578
230.0777, 43.06615
230.5598, 42.70624
231.0419, 41.93698
231.5240, 41.61766
232.0062, 41.96700
232.4883, 42.46850
232.9704, 42.84499
233.4525, 43.15132
233.9346, 43.19712
234.4167, 42.84070
234.8989, 42.19611
235.3810, 41.81216
235.8631, 41.81663
236.3452, 41.90730
236.8273, 41.90213
237.3094, 41.71167
237.7916, 41.61443
238.2737, 41.61653
238.7558, 41.72176
239.2379, 41.97738
239.7200, 42.56026
240.2021, 43.05397
240.6843, 43.18895
241.1664, 42.66029
241.6485, 42.45906
242.1306, 42.78514
242.6127, 43.47052
243.0948, 43.86708
243.5770, 43.90005
244.0591, 43.75067
244.5412, 43.45252
245.0233, 42.74685
245.5054, 42.48359
245.9876, 42.84546
246.4697, 43.64632
246.9518, 44.34309
247.4339, 45.02801
247.9160, 45.47389
248.3981, 45.47520
248.8803, 44.60842
249.3624, 44.33603
249.8445, 44.91590
250.3266, 46.04504
250.8087, 46.90514
251.2908, 47.40594
251.7730, 47.76954
252.2551, 48.07532
252.7372, 48.29723
253.2193, 48.50346
253.7014, 48.55152
254.1835, 48.64311
254.6657, 49.36934
255.1478, 51.30810
255.6299, 52.86491
256.1120, 53.23253
256.5941, 51.82134
257.0763, 51.13830
257.5584, 51.46773
258.0405, 52.33974
258.5226, 52.79101
259.0047, 52.63073
259.4868, 52.45127
259.9690, 52.46004
260.4511, 52.66870
260.9332, 53.04108
261.4153, 53.68975
261.8974, 54.40828
262.3795, 54.81132
262.8617, 54.77595
263.3438, 54.73194
263.8259, 54.86366
264.3080, 55.22533
264.7901, 55.35406
265.2722, 55.19546
265.7544, 54.86904
266.2365, 54.49763
266.7186, 54.00491
267.2007, 53.71867
267.6828, 53.89856
268.1649, 54.60824
268.6471, 54.58356
269.1292, 53.59602
269.6113, 52.23602
270.0934, 51.21296
270.5755, 50.56762
271.0576, 50.07238
271.5398, 49.70409
272.0219, 49.45480
272.5040, 49.13758
272.9861, 48.72593
273.4682, 48.31209
273.9503, 48.02382
274.4325, 47.90217
274.9146, 47.67576
275.3967, 47.24389
275.8788, 46.63767
276.3610, 46.11286
276.8431, 45.65653
277.3252, 45.33453
277.8073, 45.28315
278.2894, 45.53661
278.7715, 45.65908
279.2537, 45.52004
279.7358, 45.19505
280.2179, 45.00700
280.7000, 44.97694
281.1821, 44.98901
281.6642, 44.97712
282.1464, 44.94184
282.6285, 44.81897
283.1106, 44.59832
283.5927, 44.28335
284.0748, 43.77314
284.5569, 43.02098
285.0391, 42.48376
285.5212, 42.65396
286.0033, 43.45354
286.4854, 43.93182
286.9675, 43.89675
287.4496, 43.59679
287.9318, 43.57046
288.4139, 43.82245
288.8960, 43.98953
289.3781, 43.69592
289.8602, 43.07714
290.3423, 42.88997
290.8245, 43.29933
291.3066, 43.89998
291.7887, 44.02510
292.2708, 43.71847
292.7529, 43.37312
293.2350, 43.27906
293.7172, 43.31883
294.1993, 43.06174
294.6814, 42.42678
295.1635, 41.77950
295.6456, 41.55517
296.1277, 41.71031
296.6099, 42.07536
297.0920, 42.84643
297.5741, 43.71296
298.0562, 43.98961
298.5383, 43.63791
299.0204, 43.04893
299.5026, 42.46581
299.9847, 41.93732
300.4668, 41.57542
300.9489, 41.45082
301.4311, 41.51168
301.9132, 41.78712
302.3953, 42.26812
302.8774, 42.66077
303.3595, 42.64855
303.8416, 42.39967
304.3238, 42.21290
304.8059, 42.24969
305.2880, 42.32734
305.7701, 42.29173
306.2522, 42.14256
306.7343, 41.88062
307.2165, 41.24497
307.6986, 40.58205
308.1807, 40.37730
308.6628, 41.00985
309.1449, 41.69852
309.6270, 41.79275
310.1092, 41.43404
310.5913, 41.07416
311.0734, 40.85693
311.5555, 40.80206
312.0376, 40.99359
312.5197, 41.58041
313.0019, 42.04765
313.4840, 41.93545
313.9661, 41.50250
314.4482, 41.27693
314.9303, 41.82017
315.4124, 42.40128
315.8946, 42.52177
316.3767, 42.03861
316.8588, 41.53361
317.3409, 41.20849
317.8230, 41.00977
318.3051, 40.86738
318.7873, 40.86948
319.2694, 40.82598
319.7515, 40.57548
320.2336, 40.08342
320.7157, 39.80431
321.1978, 40.08883
321.6800, 40.54301
322.1621, 40.81064
322.6442, 40.54992
323.1263, 40.37499
323.6084, 40.51621
324.0905, 40.94635
324.5727, 41.20978
325.0548, 41.00642
325.5369, 40.76537
326.0190, 40.74640
326.5012, 41.41676
326.9833, 41.78904
327.4654, 41.59063
327.9475, 40.98301
328.4296, 40.61687
328.9117, 40.62157
329.3939, 40.75515
329.8760, 40.94631
330.3581, 41.37743
330.8402, 41.51221
331.3223, 41.09762
331.8044, 40.45595
332.2866, 40.27900
332.7687, 40.96816
333.2508, 41.53013
333.7329, 41.58303
334.2150, 40.95707
334.6971, 40.67226
335.1793, 40.93348
335.6614, 41.33506
336.1435, 41.28147
336.6256, 40.51242
337.1077, 39.99068
337.5898, 40.05026
338.0720, 40.65240
338.5541, 40.98519
339.0362, 40.99105
339.5183, 40.86713
340.0004, 40.78429
340.4825, 40.74950
340.9647, 40.69582
341.4468, 40.58229
341.9289, 40.45774
342.4110, 40.51966
342.8931, 40.79623
343.3752, 41.06813
343.8574, 41.21109
344.3395, 41.22439
344.8216, 41.05247
345.3037, 40.63093
345.7858, 40.13791
346.2679, 39.87323
346.7501, 39.82774
347.2322, 39.89470
347.7143, 40.10955
348.1964, 40.39846
348.6785, 40.51423
349.1607, 40.43584
349.6428, 40.26046
350.1249, 39.97438
350.6070, 39.65805
351.0891, 39.56721
351.5713, 39.99496
352.0534, 40.61792
352.5355, 41.00199
353.0176, 41.14326
353.4997, 41.08908
353.9818, 40.73146
354.4640, 40.23488
354.9461, 39.84269
355.4282, 39.62072
355.9103, 39.53898
356.3924, 39.62427
356.8745, 39.84565
357.3567, 40.07692
357.8388, 40.34035
358.3209, 40.53318
358.8030, 40.52571
359.2851, 40.19877
359.7672, 39.93569
360.2494, 40.15126
360.7315, 40.55784
361.2136, 40.62321
361.6957, 39.63475
362.1778, 38.67462
362.6599, 38.31440
363.1421, 38.65769
363.6242, 39.14593
364.1063, 39.82116
364.5884, 40.47675
365.0705, 40.89577
365.5526, 40.82815
366.0348, 40.73549
366.5169, 40.72851
366.9990, 40.80219
367.4811, 40.83475
367.9632, 40.82239
368.4453, 40.76014
368.9275, 40.64173
369.4096, 40.33022
369.8917, 40.15624
370.3738, 40.23988
370.8559, 40.46085
371.3380, 40.46538
371.8202, 40.03548
372.3023, 39.68620
372.7844, 39.65480
373.2665, 40.06023
373.7487, 40.28309
374.2308, 40.23439
374.7129, 40.09311
375.1950, 40.12037
375.6771, 40.38540
376.1592, 40.59750
376.6414, 40.66351
377.1235, 40.60147
377.6056, 40.61567
378.0877, 40.73785
378.5698, 40.83393
379.0519, 40.75827
379.5341, 40.51049
380.0162, 40.30819
380.4983, 40.20963
380.9804, 40.15197
381.4625, 39.93776
381.9446, 39.56969
382.4268, 39.32340
382.9089, 39.46089
383.3910, 39.86106
383.8731, 40.16261
384.3552, 40.34803
384.8373, 40.37286
385.3195, 40.04928
385.8016, 39.50026
386.2837, 39.08369
386.7658, 39.07531
387.2479, 39.23370
387.7300, 39.25482
388.2122, 39.14208
388.6943, 39.00513
389.1764, 38.88308
389.6585, 38.79859
390.1406, 38.78945
390.6227, 38.90738
391.1049, 39.04316
391.5870, 39.07706
392.0691, 39.06097
392.5512, 39.15152
393.0333, 39.75231
393.5154, 40.25207
393.9976, 40.13234
394.4797, 39.05640
394.9618, 38.29272
395.4439, 38.50412
395.9260, 39.18732
396.4081, 39.67126
396.8903, 39.83385
397.3724, 39.76852
397.8545, 39.38070
398.3366, 38.65285
398.8188, 38.15218
399.3009, 37.96972
399.7830, 37.99251
400.2651, 38.15580
400.7472, 38.54439
401.2293, 38.95913
401.7115, 39.50962
402.1936, 40.07131
402.6757, 40.23887
403.1578, 39.83504
403.6399, 39.33664
404.1220, 38.89795
404.6042, 38.48262
405.0863, 38.36475
405.5684, 38.65889
406.0505, 39.06771
406.5326, 39.15362
407.0147, 38.85984
407.4969, 38.68937
407.9790, 38.83490
408.4611, 39.19389
408.9432, 39.34134
409.4253, 39.26305
409.9074, 39.11283
410.3896, 38.96170
410.8717, 38.82762
411.3538, 38.82323
411.8359, 39.01376
412.3180, 39.21516
412.8001, 39.05741
413.2823, 38.64820
413.7644, 38.40819
414.2465, 38.80066
414.7286, 39.38491
415.2107, 39.50877
415.6928, 39.12913
416.1750, 38.73850
416.6571, 38.80639
417.1392, 39.06440
417.6213, 39.14475
418.1034, 38.74025
418.5855, 38.32311
419.0677, 38.16716
419.5498, 38.22786
420.0319, 38.34497
420.5140, 38.66958
420.9961, 38.87779
421.4782, 38.70050
421.9604, 37.86873
422.4425, 37.28431
422.9246, 37.25026
423.4067, 37.54781
423.8889, 37.87833
424.3710, 38.33232
424.8531, 38.68486
425.3352, 38.88708
425.8173, 38.94119
426.2994, 38.86522
426.7816, 38.47139
427.2637, 38.13872
427.7458, 38.16704
428.2279, 38.84710
428.7100, 39.14076
429.1921, 38.79042
429.6743, 38.14006
430.1564, 38.07576
430.6385, 38.75973
431.1206, 39.40426
431.6027, 39.69073
432.0848, 39.63182
432.5670, 39.41184
433.0491, 38.98129
433.5312, 38.59133
434.0133, 38.52924
434.4954, 38.75969
434.9775, 39.04766
435.4597, 39.33990
435.9418, 39.65377
436.4239, 40.07725
436.9060, 40.57696
437.3881, 40.96205
437.8702, 41.07643
438.3524, 41.01266
438.8345, 40.83544
439.3166, 40.51457
439.7987, 40.33308
440.2808, 40.63984
440.7629, 41.21117
441.2451, 41.69512
441.7272, 41.88607
442.2093, 42.01372
442.6914, 42.19405
443.1735, 42.41920
443.6556, 42.62638
444.1378, 42.48708
444.6199, 42.53196
445.1020, 43.14087
445.5841, 44.71193
446.0662, 46.16833
446.5483, 47.46856
447.0305, 48.54990
447.5126, 49.29338
447.9947, 49.16737
448.4768, 49.34637
448.9590, 50.18274
449.4411, 51.68963
449.9232, 53.02631
450.4053, 54.08543
450.8874, 55.14684
451.3695, 56.36139
451.8517, 57.69600
452.3338, 59.39303
452.8159, 61.56545
453.2980, 63.98004
453.7801, 66.10229
454.2622, 67.87371
454.7444, 69.94303
455.2265, 72.50801
455.7086, 75.59814
456.1907, 79.32259
456.6728, 83.75880
457.1549, 88.43519
457.6371, 93.01189
458.1192, 97.55920
458.6013, 102.4181
459.0834, 107.7391
459.5655, 113.1788
460.0476, 118.3124
460.5298, 123.2475
461.0119, 128.0304
461.4940, 132.7141
461.9761, 137.3640
462.4582, 141.8875
462.9403, 146.2787
463.4225, 151.1492
463.9046, 156.5902
464.3867, 162.7738
464.8688, 169.7273
465.3509, 177.3935
465.8330, 185.9615
466.3152, 195.4296
466.7973, 205.7907
467.2794, 216.9744
467.7615, 229.2164
468.2436, 242.2053
468.7257, 256.0328
469.2079, 270.7001
469.6900, 285.4692
470.1721, 300.6000
470.6542, 315.4159
471.1363, 329.5086
471.6184, 343.2954
472.1006, 354.7819
472.5827, 363.8274
473.0648, 370.2249
473.5469, 373.9581
474.0291, 375.2320
474.5112, 371.4879
474.9933, 360.4057
475.4754, 342.8989
475.9575, 322.1146
476.4396, 297.8628
476.9218, 272.5752
477.4039, 248.2555
477.8860, 225.0633
478.3681, 203.5915
478.8502, 183.8166
479.3323, 166.0954
479.8145, 150.9551
480.2966, 138.1125
480.7787, 127.1392
481.2608, 118.0628
481.7429, 110.2801
482.2250, 103.4924
482.7072, 97.73738
483.1893, 92.53880
483.6714, 87.80625
484.1535, 83.51304
484.6356, 79.62532
485.1177, 76.10556
485.5999, 72.98490
486.0820, 70.45463
486.5641, 68.37610
487.0462, 66.13726
487.5283, 63.29383
488.0104, 60.89022
488.4926, 59.43381
488.9747, 59.13381
489.4568, 58.51192
489.9389, 57.52059
490.4210, 56.30165
490.9031, 54.90536
491.3853, 53.29267
491.8674, 52.06416
492.3495, 51.44646
492.8316, 51.16872
493.3137, 50.64643
493.7958, 49.89748
494.2780, 49.14594
494.7601, 48.54116
495.2422, 48.02113
495.7243, 47.47353
496.2064, 46.88389
496.6885, 46.33309
497.1707, 45.85442
497.6528, 45.45110
498.1349, 45.13142
498.6170, 44.94027
499.0992, 44.76517
499.5813, 44.54856
500.0634, 44.29983
500.5455, 44.04032
501.0276, 43.75769
501.5097, 43.48412
501.9919, 43.24091
502.4740, 43.04013
502.9561, 42.80219
503.4382, 42.43145
503.9203, 42.08312
504.4024, 41.87490
504.8846, 41.92840
505.3667, 41.87970
505.8488, 41.70701
506.3309, 41.42221
506.8130, 40.96302
507.2951, 40.22502
507.7773, 39.79641
508.2594, 40.04283
508.7415, 40.80632
509.2236, 41.14967
509.7057, 41.04553
510.1878, 40.87111
510.6700, 41.02074
511.1521, 41.35333
511.6342, 41.41851
512.1163, 41.09778
512.5984, 40.67611
513.0806, 40.48407
513.5627, 40.41323
514.0448, 40.23701
514.5269, 39.50755
515.0090, 38.92552
515.4911, 39.16381
515.9733, 40.08647
516.4554, 40.75455
516.9375, 40.59967
517.4196, 40.23505
517.9017, 40.04296
518.3839, 40.21724
518.8660, 40.19564
519.3481, 39.78698
519.8302, 39.21314
520.3123, 38.69409
520.7944, 38.13249
521.2766, 37.80392
521.7587, 37.80637
522.2408, 38.06592
522.7229, 38.31275
523.2050, 38.55649
523.6871, 38.75496
524.1693, 38.88948
524.6514, 38.95909
525.1335, 38.99013
525.6156, 38.99189
526.0977, 38.89337
526.5798, 38.45928
527.0620, 37.85094
527.5441, 37.58787
528.0262, 37.89608
528.5083, 38.37321
528.9904, 38.61897
529.4725, 38.69559
529.9547, 38.75195
530.4368, 38.90854
530.9189, 39.02877
531.4010, 38.99406
531.8831, 38.80366
532.3652, 38.63563
532.8474, 38.63762
533.3295, 38.61708
533.8116, 38.42895
534.2937, 37.77040
534.7758, 37.45064
535.2579, 37.74474
535.7401, 38.26013
536.2222, 38.39516
536.7043, 37.93333
537.1864, 37.60581
537.6685, 37.58385
538.1506, 37.81404
538.6328, 38.11493
539.1149, 38.52780
539.5970, 38.77253
540.0791, 38.55894
540.5612, 38.00309
541.0433, 37.65919
541.5255, 37.55521
542.0076, 37.58226
542.4897, 37.75956
542.9718, 37.97383
543.4539, 37.97060
543.9360, 37.54663
544.4182, 37.12107
544.9003, 37.11017
545.3824, 37.34811
545.8645, 37.46680
546.3466, 37.13600
546.8287, 36.81488
547.3109, 36.74446
547.7930, 36.94039
548.2751, 37.09857
548.7572, 37.21540
549.2393, 37.24855
549.7214, 37.16460
550.2036, 36.88285
550.6857, 36.66862
551.1678, 36.54008
551.6499, 36.46095
552.1320, 36.35882
552.6141, 36.20933
553.0963, 36.23404
553.5784, 36.62333
554.0605, 37.10122
554.5426, 36.75075
555.0247, 35.62529
555.5068, 34.68828
555.9890, 34.65467
556.4711, 35.15028
556.9532, 35.60725
557.4353, 36.00058
557.9174, 36.21552
558.3995, 36.08397
558.8817, 35.76213
559.3638, 35.37482
559.8459, 34.78946
560.3281, 34.48336
560.8102, 34.94618
561.2923, 35.74676
561.7744, 36.20443
562.2565, 35.96368
562.7386, 35.61642
563.2208, 35.18697
563.7029, 34.71923
564.1850, 34.52331
564.6671, 34.74640
565.1492, 34.98249
565.6313, 34.99787
566.1135, 34.76330
566.5956, 34.77681
567.0777, 35.13140
567.5598, 35.40475
568.0419, 34.95245
568.5240, 33.95975
569.0062, 33.40113
569.4883, 33.56590
569.9704, 34.00675
570.4525, 34.27625
570.9346, 34.37933
571.4167, 34.31989
571.8989, 33.86323
572.3810, 33.44225
572.8631, 33.41941
573.3452, 33.73983
573.8273, 34.00769
574.3094, 34.05346
574.7916, 34.02223
575.2737, 33.98411
575.7558, 33.94005
576.2379, 33.90830
576.7200, 33.92663
577.2021, 33.92706
577.6843, 33.83824
578.1664, 33.61866
578.6485, 33.41706
579.1306, 33.19846
579.6127, 33.05950
580.0948, 33.30781
580.5770, 33.94358
581.0591, 34.34824
581.5412, 34.08564
582.0233, 33.53512
582.5054, 33.66442
582.9875, 34.37661
583.4697, 34.94682
583.9518, 34.69778
584.4339, 34.14358
584.9160, 33.83821
585.3981, 33.86098
585.8802, 33.95319
586.3624, 34.19588
586.8445, 34.33965
587.3266, 34.14842
