##NAMES=Covellite
##RRUFFID=R060306
##IDEAL CHEMISTRY=Cu^1+^S
##LOCALITY=3800' level, Leonard mine, Butte, Silver Bow County, Montana, USA
##OWNER=RRUFF
##SOURCE=Michael Scott
##DESCRIPTION=Blue iridescent metallic hexagonal plates
##STATUS=The identification of this mineral has been confirmed by X-ray diffraction and chemical analysis
##URL=rruff.info/R060306
##MEASURED CHEMISTRY=Cu_1.00_S_1.00_
91.53320, 330.1159
92.01532, 334.9593
92.49744, 336.2482
92.97955, 338.8996
93.46167, 337.5288
93.94379, 328.1087
94.42590, 310.7147
94.90802, 291.1797
95.39014, 274.4368
95.87225, 260.1942
96.35437, 249.1593
96.83649, 241.8446
97.31860, 237.2291
97.80072, 234.8222
98.28284, 234.7760
98.76495, 236.1143
99.24707, 235.0537
99.72919, 229.8377
100.2113, 224.2540
100.6934, 218.6350
101.1755, 213.3000
101.6577, 208.5794
102.1398, 204.4013
102.6219, 199.9958
103.1040, 200.2960
103.5861, 206.1824
104.0682, 214.4781
104.5504, 225.8267
105.0325, 239.3626
105.5146, 250.8532
105.9967, 253.8716
106.4788, 245.0878
106.9609, 235.5879
107.4431, 224.0808
107.9252, 212.6189
108.4073, 204.4382
108.8894, 201.1076
109.3715, 200.2292
109.8536, 197.6070
110.3358, 193.0014
110.8179, 188.1843
111.3000, 183.4836
111.7821, 179.0256
112.2642, 176.2144
112.7463, 176.9931
113.2285, 178.9166
113.7106, 179.7984
114.1927, 179.4063
114.6748, 177.5505
115.1569, 173.3963
115.6390, 165.4849
116.1212, 158.9712
116.6033, 155.5541
117.0854, 153.9457
117.5675, 152.9926
118.0496, 152.1323
118.5317, 151.4743
119.0139, 151.5653
119.4960, 153.2353
119.9781, 154.8451
120.4602, 155.7186
120.9423, 156.3288
121.4244, 157.5959
121.9066, 160.3386
122.3887, 164.7403
122.8708, 168.0506
123.3529, 171.4615
123.8350, 173.1298
124.3171, 171.5611
124.7993, 166.9893
125.2814, 161.2259
125.7635, 155.7763
126.2456, 150.6001
126.7277, 146.8847
127.2098, 145.5441
127.6920, 145.2769
128.1741, 144.8463
128.6562, 144.0528
129.1383, 142.9150
129.6204, 141.6023
130.1025, 140.1593
130.5847, 137.8587
131.0668, 133.4579
131.5489, 127.7542
132.0310, 123.6052
132.5131, 122.1211
132.9952, 121.9274
133.4774, 121.8599
133.9595, 121.8789
134.4416, 121.7855
134.9237, 121.4239
135.4058, 120.7888
135.8879, 119.9084
136.3701, 118.6489
136.8522, 117.2336
137.3343, 115.6239
137.8164, 113.8286
138.2985, 112.1851
138.7806, 111.3625
139.2628, 112.1642
139.7449, 112.3118
140.2270, 111.2961
140.7091, 109.7840
141.1912, 108.3402
141.6733, 107.2257
142.1555, 106.3376
142.6376, 105.3430
143.1197, 104.5072
143.6018, 103.2459
144.0839, 100.8992
144.5660, 98.14478
145.0482, 96.14315
145.5303, 95.67597
146.0124, 96.45570
146.4945, 96.28210
146.9766, 94.41366
147.4587, 92.55205
147.9409, 91.39050
148.4230, 90.86176
148.9051, 90.58315
149.3872, 90.37796
149.8693, 90.21338
150.3514, 89.92688
150.8336, 89.26927
151.3157, 88.64043
151.7978, 88.52847
152.2799, 89.02625
152.7620, 89.43195
153.2441, 89.11008
153.7263, 88.33140
154.2084, 87.47812
154.6905, 86.57893
155.1726, 85.70745
155.6547, 85.05423
156.1368, 84.74761
156.6190, 84.43736
157.1011, 83.74210
157.5832, 82.89635
158.0653, 82.38424
158.5474, 82.81945
159.0295, 84.07081
159.5117, 84.34473
159.9938, 82.37239
160.4759, 80.62147
160.9580, 80.07365
161.4401, 80.51749
161.9222, 81.26701
162.4044, 81.76832
162.8865, 82.03093
163.3686, 81.96809
163.8507, 81.28371
164.3328, 80.55336
164.8149, 80.02654
165.2971, 79.71091
165.7792, 79.46989
166.2613, 79.12556
166.7434, 78.56967
167.2255, 78.25835
167.7076, 78.44194
168.1898, 78.66384
168.6719, 78.50809
169.1540, 77.92139
169.6361, 77.28848
170.1182, 77.17122
170.6003, 77.83457
171.0825, 78.38476
171.5646, 79.00843
172.0467, 79.41382
172.5288, 79.03022
173.0109, 77.58936
173.4930, 75.96974
173.9752, 75.93587
174.4573, 77.73769
174.9394, 78.95040
175.4215, 78.60400
175.9036, 77.16367
176.3857, 75.53069
176.8679, 73.66113
177.3500, 72.16252
177.8321, 71.87836
178.3142, 72.86594
178.7963, 74.05827
179.2784, 75.01674
179.7606, 75.72337
180.2427, 75.91592
180.7248, 75.09647
181.2069, 74.08867
181.6890, 73.64257
182.1711, 73.82570
182.6533, 74.20438
183.1354, 74.37521
183.6175, 74.31059
184.0996, 74.25774
184.5817, 74.34414
185.0638, 74.41370
185.5460, 74.36335
186.0281, 74.17248
186.5102, 73.90858
186.9923, 73.62428
187.4744, 73.22848
187.9565, 73.07337
188.4387, 73.77817
188.9208, 74.36672
189.4029, 73.82964
189.8850, 71.92879
190.3671, 69.63813
190.8492, 68.87925
191.3314, 70.97978
191.8135, 72.54391
192.2956, 73.33918
192.7777, 73.59150
193.2598, 73.38162
193.7419, 72.75776
194.2241, 71.91075
194.7062, 71.30103
195.1883, 71.08823
195.6704, 70.96082
196.1525, 71.09983
196.6346, 71.26128
197.1168, 71.09184
197.5989, 70.42346
198.0810, 69.48885
198.5631, 68.97375
199.0452, 69.12603
199.5273, 69.33198
200.0095, 69.54200
200.4916, 69.73894
200.9737, 69.92786
201.4558, 70.13952
201.9379, 70.28549
202.4200, 70.06139
202.9022, 69.21646
203.3843, 68.51623
203.8664, 68.33698
204.3485, 68.52534
204.8306, 68.63834
205.3127, 68.43001
205.7949, 68.10255
206.2770, 68.14306
206.7591, 68.78870
207.2412, 69.26952
207.7233, 68.92747
208.2054, 67.91518
208.6876, 67.19620
209.1697, 67.24854
209.6518, 67.75925
210.1339, 68.24413
210.6160, 68.72012
211.0981, 69.06699
211.5803, 69.13890
212.0624, 68.93545
212.5445, 68.71485
213.0266, 68.63390
213.5087, 68.52896
213.9908, 68.21317
214.4730, 67.63174
214.9551, 67.00108
215.4372, 66.46397
215.9193, 65.96513
216.4014, 65.89500
216.8836, 66.97765
217.3657, 68.19775
217.8478, 68.85390
218.3299, 68.76994
218.8120, 68.32890
219.2941, 68.08902
219.7763, 68.20621
220.2584, 67.99497
220.7405, 66.92500
221.2226, 65.75200
221.7047, 64.96432
222.1868, 64.69812
222.6690, 64.81020
223.1511, 65.13156
223.6332, 65.82671
224.1153, 66.35489
224.5974, 66.49310
225.0795, 66.57961
225.5617, 66.92565
226.0438, 67.59660
226.5259, 68.33715
227.0080, 68.67757
227.4901, 68.30720
227.9722, 68.08713
228.4544, 68.27952
228.9365, 68.47459
229.4186, 68.30563
229.9007, 67.68925
230.3828, 66.86058
230.8649, 66.20682
231.3471, 65.55983
231.8292, 65.43251
232.3113, 66.52174
232.7934, 67.68315
233.2755, 67.80682
233.7576, 66.63990
234.2398, 64.96305
234.7219, 64.07468
235.2040, 64.44142
235.6861, 64.87154
236.1682, 65.39912
236.6503, 65.96942
237.1325, 66.58145
237.6146, 67.22325
238.0967, 67.78312
238.5788, 68.06397
239.0609, 67.84617
239.5430, 67.86083
240.0252, 68.39449
240.5073, 69.04128
240.9894, 69.34475
241.4715, 69.19917
241.9536, 68.91624
242.4357, 68.90065
242.9179, 69.19433
243.4000, 69.59656
243.8821, 70.34139
244.3642, 71.07008
244.8463, 71.32298
245.3284, 70.99387
245.8106, 70.46842
246.2927, 70.13328
246.7748, 69.98152
247.2569, 70.07881
247.7390, 70.51402
248.2211, 71.17167
248.7033, 72.05283
249.1854, 73.21364
249.6675, 74.16781
250.1496, 74.23804
250.6317, 73.56475
251.1138, 73.05161
251.5960, 73.13240
252.0781, 73.36724
252.5602, 73.16133
253.0423, 72.42377
253.5244, 71.47395
254.0065, 70.33462
254.4887, 69.16184
254.9708, 68.48099
255.4529, 68.68164
255.9350, 69.34763
256.4171, 70.02338
256.8992, 70.76382
257.3813, 71.19995
257.8635, 70.78059
258.3456, 69.89026
258.8277, 69.13213
259.3098, 68.61873
259.7919, 68.36665
260.2740, 68.54933
260.7562, 69.31527
261.2383, 69.87199
261.7204, 69.62753
262.2025, 68.93105
262.6846, 68.09948
263.1667, 67.03239
263.6489, 66.10075
264.1310, 65.96529
264.6131, 66.83054
265.0952, 67.60159
265.5773, 67.79861
266.0594, 67.64412
266.5416, 67.27988
267.0237, 66.71398
267.5058, 66.02910
267.9879, 65.27035
268.4700, 64.38618
268.9521, 63.68060
269.4343, 63.44813
269.9164, 63.34092
270.3985, 63.08496
270.8806, 62.60395
271.3627, 62.07694
271.8448, 61.73821
272.3270, 61.62275
272.8091, 61.50462
273.2912, 61.29112
273.7733, 61.08379
274.2554, 61.03909
274.7375, 61.16526
275.2197, 61.15266
275.7018, 60.43888
276.1839, 58.81773
276.6660, 57.85598
277.1481, 58.45006
277.6302, 59.29985
278.1124, 59.84469
278.5945, 60.02195
279.0766, 60.00979
279.5587, 59.94286
280.0408, 59.81029
280.5229, 59.72209
281.0051, 59.70190
281.4872, 59.71620
281.9693, 59.81626
282.4514, 59.95652
282.9335, 60.00559
283.4156, 59.83135
283.8978, 59.42921
284.3799, 59.01442
284.8620, 58.34504
285.3441, 57.92785
285.8262, 58.06037
286.3083, 58.58265
286.7905, 59.18230
287.2726, 59.73165
287.7547, 60.17933
288.2368, 59.96175
288.7189, 58.21814
289.2010, 56.81769
289.6832, 56.32180
290.1653, 56.47126
290.6474, 56.89388
291.1295, 57.41772
291.6116, 57.98794
292.0938, 58.38636
292.5759, 58.65022
293.0580, 58.64684
293.5401, 58.15559
294.0222, 57.48812
294.5043, 56.96161
294.9865, 56.71388
295.4686, 56.71954
295.9507, 56.98123
296.4328, 57.89222
296.9149, 58.32731
297.3970, 57.73280
297.8792, 56.91158
298.3613, 56.63740
298.8434, 57.12099
299.3255, 57.88122
299.8076, 58.08767
300.2897, 57.42122
300.7719, 56.90918
301.2540, 56.55499
301.7361, 56.37370
302.2182, 56.42327
302.7003, 56.68817
303.1824, 57.05102
303.6646, 57.41738
304.1467, 57.86565
304.6288, 58.01168
305.1109, 57.48486
305.5930, 56.99752
306.0751, 57.04961
306.5573, 57.50634
307.0394, 57.77506
307.5215, 57.20211
308.0036, 55.67730
308.4857, 54.90266
308.9678, 55.71479
309.4500, 56.48522
309.9321, 56.76767
310.4142, 56.64862
310.8963, 56.36966
311.3784, 56.06439
311.8605, 55.75635
312.3427, 55.63668
312.8248, 55.87383
313.3069, 56.11839
313.7890, 56.39505
314.2711, 56.61642
314.7532, 56.69427
315.2354, 56.58702
315.7175, 56.28857
316.1996, 55.73925
316.6817, 54.52134
317.1638, 53.73491
317.6459, 53.61971
318.1281, 53.86702
318.6102, 54.29912
319.0923, 54.83349
319.5744, 55.32951
320.0565, 55.52840
320.5386, 55.26959
321.0208, 55.07665
321.5029, 55.10425
321.9850, 55.09369
322.4671, 54.82383
322.9492, 54.30456
323.4313, 53.75977
323.9135, 53.40551
324.3956, 53.23688
324.8777, 53.30076
325.3598, 53.83841
325.8419, 54.38517
326.3240, 54.81165
326.8062, 55.10000
327.2883, 55.26312
327.7704, 55.28968
328.2525, 55.19035
328.7346, 55.16341
329.2167, 55.44187
329.6989, 55.51727
330.1810, 54.99645
330.6631, 54.25760
331.1452, 53.92112
331.6273, 54.36768
332.1094, 55.27151
332.5916, 55.56561
333.0737, 54.70257
333.5558, 54.16358
334.0379, 54.38513
334.5200, 54.90015
335.0021, 55.30075
335.4843, 55.45195
335.9664, 55.44387
336.4485, 55.41101
336.9306, 55.35424
337.4127, 55.26766
337.8948, 55.24883
338.3770, 55.12776
338.8591, 54.64950
339.3412, 53.87465
339.8233, 53.23536
340.3055, 53.32576
340.7876, 54.26862
341.2697, 54.68793
341.7518, 54.13274
342.2339, 53.45390
342.7160, 52.74060
343.1982, 52.15575
343.6803, 52.04681
344.1624, 52.85255
344.6445, 54.29039
345.1266, 54.86547
345.6087, 53.96186
346.0909, 53.17624
346.5730, 53.11572
347.0551, 53.43064
347.5372, 53.70190
348.0193, 53.76831
348.5014, 53.69213
348.9836, 53.56244
349.4657, 53.34812
349.9478, 53.18762
350.4299, 53.39493
350.9120, 53.49819
351.3941, 52.92904
351.8763, 51.61055
352.3584, 50.41568
352.8405, 50.48012
353.3226, 51.85239
353.8047, 52.69308
354.2868, 52.33748
354.7690, 51.81966
355.2511, 51.77104
355.7332, 52.14050
356.2153, 52.61591
356.6974, 53.21524
357.1795, 53.79473
357.6617, 53.64524
358.1438, 52.30960
358.6259, 51.18976
359.1080, 51.35575
359.5901, 52.19584
360.0722, 52.72363
360.5544, 52.42854
361.0365, 51.85563
361.5186, 51.90985
362.0007, 52.71251
362.4828, 53.16182
362.9649, 52.47676
363.4471, 51.38344
363.9292, 50.73832
364.4113, 50.70697
364.8934, 50.75860
365.3755, 50.30173
365.8576, 49.49527
366.3398, 49.30851
366.8219, 50.28129
367.3040, 51.46748
367.7861, 51.83765
368.2682, 51.46886
368.7503, 51.02137
369.2325, 50.79440
369.7146, 50.64320
370.1967, 50.25515
370.6788, 49.55244
371.1609, 48.92918
371.6430, 48.76227
372.1252, 48.93055
372.6073, 49.02717
373.0894, 48.85490
373.5715, 48.71012
374.0536, 48.89756
374.5357, 49.35894
375.0179, 49.76328
375.5000, 49.97629
375.9821, 49.99861
376.4642, 49.85524
376.9463, 49.56817
377.4284, 49.10637
377.9106, 48.20340
378.3927, 47.17344
378.8748, 46.56835
379.3569, 46.54505
379.8390, 46.89733
380.3211, 47.49062
380.8033, 48.43667
381.2854, 48.89399
381.7675, 48.42748
382.2496, 47.71776
382.7317, 47.21833
383.2138, 46.98231
383.6960, 46.99714
384.1781, 47.34770
384.6602, 47.97218
385.1423, 47.97746
385.6244, 46.61360
386.1065, 45.58530
386.5887, 45.59645
387.0708, 46.29461
387.5529, 47.20112
388.0350, 48.13488
388.5171, 48.85516
388.9992, 48.80739
389.4814, 46.95906
389.9635, 45.93320
390.4456, 46.33826
390.9277, 47.14797
391.4098, 47.61232
391.8919, 47.59078
392.3741, 47.28512
392.8562, 46.85515
393.3383, 46.24052
393.8204, 45.96873
394.3025, 46.48889
394.7846, 46.86270
395.2668, 46.57436
395.7489, 45.92588
396.2310, 45.52349
396.7131, 45.73835
397.1952, 46.38188
397.6773, 46.80773
398.1595, 46.97617
398.6416, 46.96777
399.1237, 46.77343
399.6058, 46.44605
400.0879, 45.97145
400.5700, 45.36888
401.0522, 44.78297
401.5343, 44.37053
402.0164, 44.13867
402.4985, 44.05990
402.9806, 44.33517
403.4627, 44.57660
403.9449, 44.55763
404.4270, 44.36357
404.9091, 44.23559
405.3912, 44.35258
405.8733, 44.62876
406.3554, 44.81884
406.8376, 44.95785
407.3197, 44.92041
407.8018, 44.31131
408.2839, 43.66090
408.7660, 43.67723
409.2481, 44.65832
409.7303, 45.59813
410.2124, 45.17413
410.6945, 43.51118
411.1766, 42.63154
411.6587, 43.41191
412.1408, 44.52929
412.6230, 44.63076
413.1051, 43.85921
413.5872, 43.26107
414.0693, 43.47976
414.5514, 44.06586
415.0335, 44.29881
415.5157, 44.11819
415.9978, 43.80418
416.4799, 43.43460
416.9620, 43.08770
417.4441, 42.98421
417.9262, 43.35605
418.4084, 43.67427
418.8905, 43.52687
419.3726, 43.08940
419.8547, 42.81285
420.3368, 42.85396
420.8189, 43.10823
421.3011, 43.47123
421.7832, 44.02965
422.2653, 44.32529
422.7474, 43.88232
423.2295, 43.44458
423.7116, 43.95988
424.1938, 45.31210
424.6759, 46.25799
425.1580, 45.71317
425.6401, 43.79493
426.1222, 42.68679
426.6043, 42.68370
427.0865, 43.00814
427.5686, 43.90712
428.0507, 44.88260
428.5328, 45.17118
429.0149, 44.49421
429.4970, 43.36674
429.9792, 42.70194
430.4613, 42.78529
430.9434, 42.71351
431.4255, 42.34972
431.9076, 41.97883
432.3897, 41.70331
432.8719, 41.55919
433.3540, 41.59307
433.8361, 41.87562
434.3182, 42.36076
434.8003, 42.70780
435.2824, 42.78703
435.7646, 42.92439
436.2467, 43.18718
436.7288, 43.54643
437.2109, 44.05748
437.6930, 44.74283
438.1751, 45.29700
438.6573, 45.24494
439.1394, 44.53467
439.6215, 43.92611
440.1036, 43.45575
440.5857, 43.19535
441.0678, 43.27607
441.5500, 43.61018
442.0321, 43.87475
442.5142, 43.90806
442.9963, 43.76944
443.4784, 43.44793
443.9605, 42.87912
444.4427, 42.64727
444.9248, 43.24982
445.4069, 44.28314
445.8890, 45.04585
446.3711, 45.49593
446.8532, 45.72115
447.3354, 45.60672
447.8175, 45.31925
448.2996, 45.23558
448.7817, 45.45194
449.2638, 45.79908
449.7459, 46.13272
450.2281, 46.45234
450.7102, 46.65839
451.1923, 46.31159
451.6744, 46.23658
452.1565, 47.27852
452.6386, 49.07378
453.1208, 50.45015
453.6029, 50.75929
454.0850, 50.40552
454.5671, 50.51043
455.0492, 51.62718
455.5313, 52.46300
456.0135, 52.87985
456.4956, 53.09457
456.9777, 53.11607
457.4598, 53.05125
457.9419, 53.29624
458.4240, 54.35414
458.9062, 56.24574
459.3883, 57.28064
459.8704, 56.32816
460.3525, 55.77204
460.8346, 56.49755
461.3167, 57.77324
461.7989, 58.62883
462.2810, 58.69344
462.7631, 58.40047
463.2452, 58.38531
463.7273, 58.67290
464.2094, 59.10064
464.6916, 59.87017
465.1737, 60.56155
465.6558, 60.84679
466.1379, 60.82298
466.6200, 60.87311
467.1021, 61.27283
467.5843, 61.85136
468.0664, 62.35786
468.5485, 62.83852
469.0306, 62.89663
469.5127, 62.08156
469.9948, 60.88448
470.4770, 60.11425
470.9591, 59.89943
471.4412, 59.72734
471.9233, 59.54255
472.4054, 59.17918
472.8875, 58.18234
473.3697, 56.43353
473.8518, 54.65607
474.3339, 53.52639
474.8160, 53.05463
475.2981, 52.44903
475.7802, 51.57771
476.2624, 50.71758
476.7445, 50.03854
477.2266, 49.44716
477.7087, 48.76879
478.1908, 47.92813
478.6729, 46.97291
479.1551, 45.94615
479.6372, 44.53002
480.1193, 43.83563
480.6014, 44.43580
481.0835, 45.13980
481.5656, 45.42042
482.0478, 45.23273
482.5299, 44.60413
483.0120, 43.46906
483.4941, 42.07218
483.9762, 41.45124
484.4583, 42.13076
484.9405, 42.51704
485.4226, 42.00276
485.9047, 41.30138
486.3868, 40.97198
486.8689, 41.07869
487.3510, 41.29908
487.8332, 41.35690
488.3153, 41.29485
488.7974, 41.37958
489.2795, 41.75309
489.7616, 41.94330
490.2437, 41.42694
490.7259, 40.59215
491.2080, 40.01789
491.6901, 39.84944
492.1722, 39.87809
492.6543, 40.01784
493.1364, 40.23966
493.6186, 40.49232
494.1007, 40.79114
494.5828, 40.99650
495.0649, 40.88863
495.5470, 40.42403
496.0291, 40.17921
496.5113, 40.41424
496.9934, 40.64791
497.4755, 40.57723
497.9576, 40.27889
498.4397, 39.98487
498.9218, 39.81279
499.4040, 39.66175
499.8861, 39.26648
500.3682, 38.10715
500.8503, 37.70415
501.3324, 38.71742
501.8145, 39.83105
502.2967, 40.21958
502.7788, 39.96318
503.2609, 39.61115
503.7430, 39.54393
504.2251, 39.67542
504.7072, 39.66127
505.1894, 39.42398
505.6715, 39.21791
506.1536, 39.08533
506.6357, 39.02300
507.1178, 39.06311
507.5999, 39.20131
508.0821, 39.33064
508.5642, 39.30819
509.0463, 39.21723
509.5284, 39.34725
510.0105, 39.76933
510.4926, 40.17576
510.9748, 40.44721
511.4569, 40.53961
511.9390, 40.32862
512.4211, 39.50940
512.9032, 38.93688
513.3853, 39.36467
513.8674, 40.23023
514.3495, 40.49486
514.8317, 39.92946
515.3138, 39.12160
515.7959, 38.64312
516.2780, 38.51163
516.7601, 38.47388
517.2422, 38.67379
517.7244, 38.79047
518.2065, 38.56683
518.6886, 38.24217
519.1707, 38.21581
519.6528, 38.61486
520.1349, 39.14596
520.6171, 39.37560
521.0992, 39.26983
521.5813, 38.99971
522.0634, 38.23791
522.5455, 37.64009
523.0276, 37.57264
523.5098, 37.82242
523.9919, 37.94489
524.4740, 37.68591
524.9561, 37.38545
525.4382, 37.67056
525.9203, 38.55529
526.4025, 39.09476
526.8846, 38.94108
527.3667, 38.53850
527.8488, 38.28805
528.3309, 38.17101
528.8130, 38.07341
529.2952, 37.88822
529.7773, 37.76446
530.2594, 37.93018
530.7415, 38.30960
531.2236, 38.51643
531.7057, 38.33564
532.1879, 38.02523
532.6700, 38.11109
533.1521, 38.92548
533.6342, 39.37244
534.1163, 39.15905
534.5984, 38.80504
535.0806, 38.71360
535.5627, 38.78659
536.0448, 38.57743
536.5269, 37.75853
537.0090, 36.69093
537.4911, 36.54787
537.9733, 37.84114
538.4554, 38.93933
538.9375, 39.67548
539.4196, 40.15156
539.9017, 40.35605
540.3839, 40.33619
540.8660, 40.23576
541.3481, 40.09778
541.8302, 39.96882
542.3123, 39.95575
542.7944, 40.06410
543.2766, 40.22035
543.7587, 40.27156
544.2408, 40.47573
544.7229, 41.29181
545.2050, 42.81599
545.6871, 44.07276
546.1693, 44.68357
546.6514, 44.88456
547.1335, 44.87458
547.6156, 44.69024
548.0977, 44.37496
548.5798, 43.92805
549.0620, 43.41138
549.5441, 43.03770
550.0262, 43.11882
550.5083, 42.91949
550.9904, 42.24456
551.4725, 41.43225
551.9547, 40.68433
552.4368, 40.03945
552.9189, 39.46823
553.4010, 38.94179
553.8831, 38.48652
554.3652, 38.21037
554.8474, 38.10638
555.3295, 38.20369
555.8116, 38.86679
556.2937, 39.48816
556.7758, 39.55273
557.2579, 39.06334
557.7401, 38.52452
558.2222, 38.19053
558.7043, 38.01295
559.1864, 37.95756
559.6685, 38.02408
560.1506, 38.02403
560.6328, 37.89612
561.1149, 37.61800
561.5970, 37.04750
562.0791, 35.99956
562.5612, 35.30141
563.0433, 35.24163
563.5255, 35.48739
564.0076, 35.90493
564.4897, 36.39019
564.9718, 36.71065
565.4539, 36.70854
565.9360, 36.46374
566.4182, 36.24329
566.9003, 36.06416
567.3824, 35.87528
567.8645, 35.42141
568.3466, 35.16697
568.8287, 35.57409
569.3109, 36.48434
569.7930, 37.29383
570.2751, 37.65528
570.7572, 37.65903
571.2393, 37.42336
571.7214, 36.92603
572.2036, 36.46508
572.6857, 36.11013
573.1678, 35.86517
573.6499, 35.76581
574.1320, 35.80766
574.6141, 35.80386
575.0963, 35.54951
575.5784, 35.35169
576.0605, 35.57038
576.5426, 36.09194
577.0247, 36.53158
577.5068, 36.71907
577.9890, 36.69888
578.4711, 36.54334
578.9532, 36.19823
579.4353, 35.85014
579.9174, 35.20501
580.3995, 34.84595
580.8817, 35.32376
581.3638, 36.25085
581.8459, 36.89436
582.3280, 36.90501
582.8101, 36.52166
583.2922, 36.01386
583.7744, 35.35272
584.2565, 35.03614
584.7386, 35.28648
585.2207, 35.67289
585.7029, 35.95523
586.1850, 36.13301
586.6671, 36.19530
587.1492, 36.15229
587.6313, 35.97606
588.1135, 35.40905
