##NAMES=Covellite
##RRUFFID=R060306
##IDEAL CHEMISTRY=Cu^1+^S
##LOCALITY=3800' level, Leonard mine, Butte, Silver Bow County, Montana, USA
##OWNER=RRUFF
##SOURCE=Michael Scott
##DESCRIPTION=Blue iridescent metallic hexagonal plates
##STATUS=The identification of this mineral has been confirmed by X-ray diffraction and chemical analysis
##URL=rruff.info/R060306
##MEASURED CHEMISTRY=Cu_1.00_S_1.00_
90.97430, 27.25765
91.45642, 27.30747
91.93854, 27.39248
92.42065, 27.35167
92.90277, 26.88360
93.38489, 25.90958
93.86700, 24.76993
94.34912, 23.64767
94.83124, 22.60952
95.31335, 22.08339
95.79547, 22.87072
96.27759, 24.54041
96.75970, 25.25360
97.24182, 24.53522
97.72394, 23.01361
98.20605, 21.98478
98.68817, 21.47857
99.17029, 21.20521
99.65240, 21.00603
100.1345, 20.89197
100.6166, 20.64217
101.0988, 20.08623
101.5809, 19.31340
102.0630, 19.15095
102.5451, 19.83800
103.0272, 20.70754
103.5093, 21.02271
103.9915, 20.64351
104.4736, 20.05030
104.9557, 19.25287
105.4378, 18.12367
105.9199, 17.54272
106.4020, 17.78405
106.8842, 18.43583
107.3663, 18.77609
107.8484, 18.52833
108.3305, 18.28608
108.8126, 18.27754
109.2947, 18.85023
109.7769, 19.07795
110.2590, 18.75768
110.7411, 18.05563
111.2232, 17.49731
111.7053, 17.11443
112.1874, 16.85979
112.6696, 16.71612
113.1517, 16.95746
113.6338, 17.01290
114.1159, 16.52960
114.5980, 15.63886
115.0801, 15.27352
115.5623, 16.60072
116.0444, 18.08454
116.5265, 18.53626
117.0086, 16.14885
117.4907, 13.99327
117.9728, 13.59697
118.4550, 15.05982
118.9371, 16.10703
119.4192, 15.29440
119.9013, 13.57755
120.3834, 12.18624
120.8655, 11.65636
121.3477, 11.60623
121.8298, 11.85454
122.3119, 12.42836
122.7940, 13.04824
123.2761, 13.63595
123.7582, 14.13192
124.2404, 14.40355
124.7225, 14.23837
125.2046, 13.85741
125.6867, 13.51312
126.1688, 13.21849
126.6509, 13.01972
127.1331, 12.93131
127.6152, 12.96641
128.0973, 13.19025
128.5794, 14.00679
129.0615, 15.05577
129.5436, 15.42656
130.0258, 14.72981
130.5079, 13.47416
130.9900, 12.44353
131.4721, 11.64673
131.9542, 11.06666
132.4363, 10.69621
132.9185, 10.53481
133.4006, 10.57335
133.8827, 10.78546
134.3648, 11.19881
134.8469, 12.13601
135.3290, 13.74978
135.8112, 15.22073
136.2933, 15.27277
136.7754, 13.78369
137.2575, 12.82294
137.7396, 13.41757
138.2217, 15.49302
138.7039, 16.44449
139.1860, 15.88562
139.6681, 14.81159
140.1502, 14.83583
140.6323, 16.27847
141.1144, 17.75226
141.5966, 18.76260
142.0787, 19.25730
142.5608, 19.41592
143.0429, 18.98531
143.5250, 18.35999
144.0071, 18.51845
144.4893, 19.88254
144.9714, 21.34373
145.4535, 22.35762
145.9356, 22.56973
146.4177, 23.08980
146.8998, 24.20527
147.3820, 25.67798
147.8641, 26.53570
148.3462, 26.28652
148.8283, 25.87476
149.3104, 25.76978
149.7925, 25.53286
150.2747, 26.19892
150.7568, 28.49537
151.2389, 32.20835
151.7210, 34.67527
152.2031, 34.81506
152.6852, 34.34964
153.1674, 34.34832
153.6495, 35.40481
154.1316, 36.34884
154.6137, 36.96320
155.0958, 37.23801
155.5779, 37.57141
156.0601, 37.76125
156.5422, 38.14027
157.0243, 38.99287
157.5064, 41.48002
157.9885, 43.41502
158.4706, 43.89082
158.9528, 42.67034
159.4349, 41.75861
159.9170, 41.69047
160.3991, 42.19605
160.8812, 42.96339
161.3633, 44.24080
161.8455, 45.49061
162.3276, 46.49376
162.8097, 47.20283
163.2918, 47.73243
163.7739, 48.16621
164.2560, 48.38485
164.7382, 47.98857
165.2203, 46.50287
165.7024, 45.23150
166.1845, 45.07169
166.6666, 46.46055
167.1487, 47.83119
167.6309, 48.10546
168.1130, 47.74174
168.5951, 47.70199
169.0772, 48.71155
169.5593, 50.08411
170.0414, 51.30375
170.5236, 52.38573
171.0057, 53.07921
171.4878, 52.88396
171.9699, 52.08659
172.4520, 51.56139
172.9341, 52.23778
173.4163, 53.29321
173.8984, 53.76548
174.3805, 53.38715
174.8626, 52.48500
175.3447, 50.83516
175.8268, 48.69191
176.3090, 47.26184
176.7911, 47.90435
177.2732, 49.70004
177.7553, 51.19994
178.2374, 52.10353
178.7195, 52.49123
179.2017, 52.17749
179.6838, 51.24471
180.1659, 50.51469
180.6480, 50.97516
181.1301, 52.12159
181.6122, 52.74188
182.0944, 52.17990
182.5765, 51.13642
183.0586, 50.84639
183.5407, 51.30486
184.0228, 51.91526
184.5049, 52.15269
184.9871, 52.09899
185.4692, 52.02953
185.9513, 51.97797
186.4334, 51.98619
186.9155, 52.32873
187.3976, 53.05532
187.8798, 53.52859
188.3619, 52.61328
188.8440, 50.59556
189.3261, 49.41180
189.8082, 50.12995
190.2903, 52.16644
190.7725, 53.51092
191.2546, 54.16828
191.7367, 54.20753
192.2188, 53.32934
192.7009, 51.59809
193.1830, 50.41921
193.6652, 50.63662
194.1473, 51.96354
194.6294, 52.54265
195.1115, 52.27178
195.5936, 51.60476
196.0757, 51.00541
196.5579, 50.46510
197.0400, 50.20728
197.5221, 50.45488
198.0042, 51.16089
198.4863, 51.64213
198.9684, 51.90229
199.4506, 51.92405
199.9327, 51.59428
200.4148, 50.87011
200.8969, 50.18054
201.3790, 49.67174
201.8611, 49.34701
202.3433, 49.17727
202.8254, 49.17805
203.3075, 49.30646
203.7896, 49.58556
204.2717, 50.09804
204.7538, 50.35186
205.2360, 49.96769
205.7181, 48.82052
206.2002, 48.27061
206.6823, 48.55183
207.1644, 49.14777
207.6465, 48.93921
208.1287, 47.61501
208.6108, 46.58492
209.0929, 46.67582
209.5750, 48.22182
210.0571, 49.06122
210.5392, 49.04726
211.0214, 48.46561
211.5035, 47.82830
211.9856, 47.06306
212.4677, 46.45843
212.9498, 46.20570
213.4319, 46.42869
213.9140, 46.43836
214.3962, 46.03749
214.8783, 45.54283
215.3604, 45.84709
215.8425, 47.43739
216.3246, 48.73458
216.8067, 48.85344
217.2889, 47.26390
217.7710, 46.34693
218.2531, 46.33897
218.7352, 46.91716
219.2173, 47.37986
219.6994, 47.86195
220.1816, 47.96886
220.6637, 47.35173
221.1458, 45.45475
221.6279, 44.49267
222.1100, 44.84657
222.5921, 46.00846
223.0743, 46.64312
223.5564, 46.51089
224.0385, 46.26826
224.5206, 46.23176
225.0027, 46.51936
225.4848, 46.68948
225.9670, 46.68605
226.4491, 46.57746
226.9312, 46.56608
227.4133, 46.77824
227.8954, 46.88224
228.3775, 46.71824
228.8597, 46.21250
229.3418, 45.56240
229.8239, 44.51144
230.3060, 43.37961
230.7881, 43.21223
231.2702, 44.78162
231.7524, 46.13905
232.2345, 46.28416
232.7166, 44.43465
233.1987, 43.20851
233.6808, 42.75603
234.1629, 42.89668
234.6451, 43.20270
235.1272, 43.86150
235.6093, 44.40506
236.0914, 44.59843
236.5735, 44.23573
237.0556, 43.98901
237.5378, 43.83367
238.0199, 43.80247
238.5020, 44.00267
238.9841, 44.58997
239.4662, 45.18338
239.9483, 45.57707
240.4305, 45.50983
240.9126, 45.89210
241.3947, 47.05883
241.8768, 48.57009
242.3589, 49.33595
242.8410, 49.14767
243.3232, 48.53484
243.8053, 47.59464
244.2874, 45.86239
244.7695, 44.97499
245.2516, 45.31407
245.7337, 46.34022
246.2159, 46.75977
246.6980, 45.92333
247.1801, 45.50890
247.6622, 46.38167
248.1443, 49.44478
248.6264, 51.18409
249.1086, 51.01057
249.5907, 49.81761
250.0728, 49.51660
250.5549, 50.73501
251.0370, 51.78595
251.5191, 51.93847
252.0013, 50.80369
252.4834, 50.05342
252.9655, 49.71791
253.4476, 49.75140
253.9297, 50.11963
254.4118, 50.96624
254.8940, 51.87309
255.3761, 52.75356
255.8582, 53.70101
256.3403, 54.20777
256.8224, 54.04796
257.3046, 53.62230
257.7867, 53.61332
258.2688, 54.17112
258.7509, 54.83036
259.2330, 55.43664
259.7151, 55.97463
260.1973, 56.62087
260.6794, 57.52563
261.1615, 58.38174
261.6436, 58.59744
262.1257, 57.77174
262.6078, 57.29954
263.0900, 57.75072
263.5721, 59.27196
264.0542, 60.34476
264.5363, 61.03797
265.0184, 61.21243
265.5005, 60.48201
265.9827, 58.36678
266.4648, 56.78259
266.9469, 56.48083
267.4290, 57.50069
267.9111, 57.87189
268.3932, 57.37872
268.8754, 56.56437
269.3575, 56.07768
269.8396, 56.04261
270.3217, 55.84876
270.8038, 55.25707
271.2859, 54.29904
271.7681, 53.70256
272.2502, 53.52205
272.7323, 53.58931
273.2144, 53.95434
273.6965, 54.82418
274.1786, 54.82507
274.6608, 53.28817
275.1429, 50.54284
275.6250, 49.04124
276.1071, 49.04668
276.5892, 49.53935
277.0714, 49.59190
277.5535, 49.14362
278.0356, 48.84424
278.5177, 48.88536
278.9998, 49.14906
279.4819, 49.10744
279.9641, 48.69849
280.4462, 48.24363
280.9283, 48.05204
281.4104, 48.13928
281.8925, 48.05557
282.3746, 47.71486
282.8568, 47.17345
283.3389, 46.46995
283.8210, 45.55107
284.3031, 44.87848
284.7852, 44.85119
285.2673, 45.43864
285.7495, 46.18506
286.2316, 47.18557
286.7137, 48.10065
287.1958, 48.00680
287.6779, 46.86852
288.1600, 45.80152
288.6422, 45.59963
289.1243, 46.14284
289.6064, 46.59220
290.0885, 46.90206
290.5706, 47.05407
291.0527, 46.90821
291.5349, 46.49080
292.0170, 46.18247
292.4991, 46.33026
292.9812, 46.77990
293.4633, 46.90775
293.9454, 46.62251
294.4276, 46.27216
294.9097, 46.40176
295.3918, 46.91825
295.8739, 47.32957
296.3560, 47.29447
296.8381, 46.99268
297.3203, 46.89959
297.8024, 47.05383
298.2845, 47.15002
298.7666, 46.80993
299.2487, 46.13758
299.7308, 45.43978
300.2130, 44.64891
300.6951, 43.98242
301.1772, 43.85077
301.6593, 44.25159
302.1414, 44.85856
302.6235, 45.65211
303.1057, 46.43443
303.5878, 46.76412
304.0699, 46.15393
304.5520, 45.29827
305.0341, 45.11584
305.5162, 45.52534
305.9984, 45.83007
306.4805, 45.28160
306.9626, 44.38041
307.4447, 43.86313
307.9268, 44.14233
308.4089, 44.57060
308.8911, 44.49604
309.3732, 44.04567
309.8553, 43.74354
310.3374, 44.04221
310.8195, 44.57417
311.3016, 45.00025
311.7838, 45.29840
312.2659, 45.37576
312.7480, 44.96172
313.2301, 44.25898
313.7122, 43.76125
314.1943, 43.94099
314.6765, 44.25023
315.1586, 44.27515
315.6407, 43.88102
316.1228, 43.47487
316.6049, 43.14756
317.0870, 42.94996
317.5692, 42.96816
318.0513, 43.41837
318.5334, 43.93746
319.0155, 44.38738
319.4976, 44.77122
319.9797, 44.99466
320.4619, 45.01432
320.9440, 44.86048
321.4261, 44.56866
321.9082, 43.91064
322.3903, 43.34209
322.8724, 42.98895
323.3546, 42.85765
323.8367, 42.88939
324.3188, 43.22628
324.8009, 43.64120
325.2830, 43.95699
325.7651, 44.16867
326.2473, 44.26810
326.7294, 44.13948
327.2115, 43.83451
327.6936, 43.75410
328.1757, 44.28404
328.6578, 44.77985
329.1400, 44.91841
329.6221, 44.29110
330.1042, 43.86015
330.5863, 43.75943
331.0684, 43.86130
331.5505, 43.77030
332.0327, 43.12425
332.5148, 42.70987
332.9969, 42.91210
333.4790, 44.08500
333.9611, 44.87923
334.4432, 45.18704
334.9254, 45.17793
335.4075, 45.13529
335.8896, 45.08742
336.3717, 44.94930
336.8538, 44.69877
337.3359, 44.33277
337.8180, 43.80539
338.3001, 42.95906
338.7823, 42.19305
339.2644, 42.04808
339.7465, 42.67350
340.2286, 43.26920
340.7107, 43.67537
341.1928, 43.89834
341.6750, 43.88263
342.1571, 43.55163
342.6392, 43.26424
343.1213, 43.46357
343.6034, 44.16056
344.0855, 44.41204
344.5677, 43.91013
345.0498, 43.02871
345.5319, 42.73510
346.0140, 43.04662
346.4961, 43.45071
346.9782, 43.60337
347.4604, 43.56067
347.9425, 43.59903
348.4246, 43.76458
348.9067, 43.95770
349.3888, 44.06262
349.8709, 44.07913
350.3531, 44.00294
350.8352, 43.73047
351.3173, 43.38746
351.7994, 43.24636
352.2815, 43.33085
352.7636, 43.45068
353.2458, 43.36536
353.7279, 43.17841
354.2100, 43.11663
354.6921, 43.39709
355.1742, 43.75346
355.6563, 43.93567
356.1385, 43.94489
356.6206, 43.81481
357.1027, 43.21891
357.5848, 42.62459
358.0669, 42.64044
358.5490, 43.87015
359.0312, 45.08242
359.5133, 45.44558
359.9954, 45.14642
360.4775, 44.77678
360.9596, 44.72599
361.4417, 44.63250
361.9239, 44.13383
362.4060, 42.90309
362.8881, 42.06954
363.3702, 42.39226
363.8523, 43.31435
364.3344, 43.98227
364.8166, 44.00828
365.2987, 43.87239
365.7808, 43.71671
366.2629, 43.54236
366.7450, 43.41939
367.2271, 43.36843
367.7093, 43.36950
368.1914, 43.40503
368.6735, 43.78888
369.1556, 43.85404
369.6377, 43.19429
370.1198, 41.95013
370.6020, 41.44019
371.0841, 42.31199
371.5662, 43.31773
372.0483, 43.75085
372.5304, 43.10083
373.0125, 42.87628
373.4947, 43.38327
373.9768, 44.23642
374.4589, 44.47679
374.9410, 43.78836
375.4231, 43.14109
375.9052, 43.00598
376.3874, 43.51347
376.8695, 43.38527
377.3516, 42.33110
377.8337, 41.12770
378.3158, 40.78415
378.7979, 41.40204
379.2801, 42.14730
379.7622, 42.91230
380.2443, 43.61587
380.7264, 43.85989
381.2085, 43.59950
381.6906, 43.18001
382.1728, 42.79448
382.6549, 42.46494
383.1370, 42.39814
383.6191, 42.71607
384.1012, 43.15271
384.5833, 43.19374
385.0655, 42.89614
385.5476, 42.69004
386.0297, 42.85491
386.5118, 43.27000
386.9939, 43.87062
387.4760, 44.72347
387.9582, 45.23032
388.4403, 44.39865
388.9224, 42.81346
389.4045, 41.69608
389.8866, 41.93171
390.3687, 42.57430
390.8509, 42.86292
391.3330, 42.81248
391.8151, 42.68474
392.2972, 42.45787
392.7793, 42.30893
393.2614, 42.44799
393.7436, 43.30571
394.2257, 43.91745
394.7078, 43.60704
395.1899, 42.71061
395.6720, 42.11058
396.1541, 42.42906
396.6363, 42.83487
397.1184, 42.88061
397.6005, 42.33270
398.0826, 42.01855
398.5647, 42.36133
399.0468, 42.90203
399.5290, 43.08426
400.0111, 42.47436
400.4932, 41.92826
400.9753, 41.54564
401.4574, 41.32661
401.9395, 41.36515
402.4217, 41.90590
402.9038, 42.44612
403.3859, 42.62185
403.8680, 42.22490
404.3501, 41.97728
404.8322, 42.03547
405.3144, 42.22168
405.7965, 41.96058
406.2786, 41.04205
406.7607, 40.36834
407.2428, 40.42774
407.7249, 41.24670
408.2071, 42.08752
408.6892, 43.07404
409.1713, 43.73965
409.6534, 43.09059
410.1355, 41.22607
410.6176, 40.14470
411.0998, 40.77111
411.5819, 42.33158
412.0640, 43.02781
412.5461, 42.87179
413.0282, 42.30985
413.5103, 41.34283
413.9925, 40.26009
414.4746, 39.70649
414.9567, 39.88673
415.4388, 40.32016
415.9209, 40.49466
416.4030, 40.52744
416.8852, 40.71539
417.3673, 41.59814
417.8494, 42.43861
418.3315, 42.47725
418.8136, 41.66092
419.2957, 40.91050
419.7779, 40.69952
420.2600, 40.83127
420.7421, 41.11250
421.2242, 41.79497
421.7063, 42.29739
422.1884, 42.25996
422.6706, 41.85085
423.1527, 41.70451
423.6348, 42.56178
424.1169, 43.23846
424.5990, 43.07219
425.0811, 41.32272
425.5633, 40.32879
426.0454, 40.61178
426.5275, 41.49754
427.0096, 42.16471
427.4917, 42.62380
427.9738, 42.83080
428.4560, 42.70055
428.9381, 42.25091
429.4202, 41.92994
429.9023, 41.79037
430.3844, 41.68776
430.8665, 41.49863
431.3487, 41.19074
431.8308, 40.99986
432.3129, 40.96701
432.7950, 41.03236
433.2771, 41.02504
433.7592, 40.93475
434.2414, 41.02348
434.7235, 41.38360
435.2056, 42.01740
435.6877, 43.18365
436.1698, 44.94910
436.6519, 46.37826
437.1341, 46.05783
437.6162, 44.63160
438.0983, 43.81755
438.5804, 44.32306
439.0625, 45.28656
439.5446, 45.84665
440.0268, 46.05097
440.5089, 46.07224
440.9910, 45.67859
441.4731, 45.34243
441.9552, 45.62312
442.4373, 46.72591
442.9195, 47.62235
443.4016, 47.47994
443.8837, 46.93642
444.3658, 46.76704
444.8479, 47.32145
445.3300, 48.16312
445.8122, 49.33448
446.2943, 50.76350
446.7764, 51.95094
447.2585, 52.54155
447.7406, 53.08883
448.2227, 53.87395
448.7049, 54.98706
449.1870, 56.16367
449.6691, 57.49087
450.1512, 58.83318
450.6333, 59.87270
451.1154, 60.26584
451.5976, 61.11953
452.0797, 62.78933
452.5618, 65.22879
453.0439, 67.72032
453.5260, 70.21523
454.0081, 72.76357
454.4903, 75.29579
454.9724, 77.79692
455.4545, 80.75804
455.9366, 84.20851
456.4187, 88.14687
456.9008, 92.41280
457.3830, 97.09826
457.8651, 102.3918
458.3472, 109.2290
458.8293, 116.5443
459.3114, 122.2954
459.7935, 126.4365
460.2757, 130.5213
460.7578, 136.0979
461.2399, 142.2466
461.7220, 147.5748
462.2041, 151.2362
462.6862, 154.9338
463.1684, 159.6192
463.6505, 165.2032
464.1326, 171.3757
464.6147, 177.9996
465.0968, 185.2293
465.5789, 192.9538
466.0611, 201.1270
466.5432, 210.1449
467.0253, 219.5230
467.5074, 230.0132
467.9895, 242.2025
468.4716, 257.2433
468.9538, 272.8321
469.4359, 288.9145
469.9180, 305.3076
470.4001, 321.6201
470.8822, 337.9578
471.3643, 353.8677
471.8465, 369.5460
472.3286, 385.2295
472.8107, 398.4903
473.2928, 409.3964
473.7749, 417.4210
474.2570, 422.5218
474.7392, 424.6874
475.2213, 420.8177
475.7034, 409.8258
476.1855, 392.9336
476.6676, 371.3328
477.1497, 345.2626
477.6319, 318.1676
478.1140, 290.7477
478.5961, 263.8038
479.0782, 238.3068
479.5603, 214.2424
480.0424, 192.7207
480.5246, 174.9173
481.0067, 160.1498
481.4888, 147.4185
481.9709, 136.9812
482.4530, 127.6673
482.9352, 118.8031
483.4173, 110.5623
483.8994, 103.4942
484.3815, 98.30498
484.8636, 93.89094
485.3457, 89.74369
485.8279, 85.74181
486.3100, 82.20874
486.7921, 79.27544
487.2742, 76.77660
487.7563, 74.57875
488.2384, 72.92704
488.7206, 71.12373
489.2027, 68.96664
489.6848, 66.62213
490.1669, 64.72756
490.6490, 63.37972
491.1311, 62.23661
491.6133, 61.17426
492.0954, 60.18811
492.5775, 59.29967
493.0596, 58.53305
493.5417, 57.78288
494.0238, 56.88855
494.5060, 55.89365
494.9881, 55.03064
495.4702, 54.41411
495.9523, 53.87824
496.4344, 53.16976
496.9165, 52.33773
497.3987, 51.56991
497.8808, 50.87120
498.3629, 50.33783
498.8450, 50.25642
499.3271, 50.68066
499.8092, 50.68941
500.2914, 48.96281
500.7735, 46.98779
501.2556, 46.15306
501.7377, 48.35152
502.2198, 49.86528
502.7019, 49.43237
503.1841, 47.70664
503.6662, 46.48055
504.1483, 46.22699
504.6304, 46.12036
505.1125, 45.95818
505.5946, 45.73626
506.0768, 45.51886
506.5589, 45.30991
507.0410, 45.10307
507.5231, 44.88037
508.0052, 44.63041
508.4873, 44.42403
508.9695, 44.22955
509.4516, 44.15051
509.9337, 44.50827
510.4158, 45.27317
510.8979, 45.88514
511.3800, 46.12652
511.8622, 46.04210
512.3443, 45.55040
512.8264, 44.68719
513.3085, 44.04756
513.7906, 44.38886
514.2728, 45.11100
514.7549, 45.41335
515.2370, 45.06514
515.7191, 44.52639
516.2012, 43.90691
516.6833, 43.32343
517.1655, 42.94417
517.6476, 43.05606
518.1297, 43.15131
518.6118, 42.97724
519.0939, 42.56886
519.5760, 42.36094
520.0582, 42.61163
520.5403, 42.89973
521.0224, 43.07686
521.5045, 43.20564
521.9866, 43.00758
522.4688, 42.28884
522.9509, 41.45613
523.4330, 40.97338
523.9151, 40.85316
524.3972, 41.06512
524.8793, 41.76406
525.3615, 42.65285
525.8436, 42.84774
526.3257, 42.35927
526.8078, 41.89355
527.2899, 41.85128
527.7720, 42.12854
528.2542, 42.62841
528.7363, 43.36021
529.2184, 43.84608
529.7005, 43.45534
530.1826, 42.63833
530.6647, 42.00644
531.1469, 41.80484
531.6290, 41.70499
532.1111, 41.45381
532.5932, 41.18081
533.0753, 41.15001
533.5574, 41.65357
534.0396, 42.20274
534.5217, 42.70710
535.0038, 43.16459
535.4859, 43.33648
535.9680, 43.16849
536.4501, 42.76438
536.9323, 42.09079
537.4144, 40.80663
537.8965, 40.23985
538.3786, 40.59599
538.8607, 41.42628
539.3428, 42.17420
539.8250, 42.86724
540.3071, 43.16345
540.7892, 42.84995
541.2713, 42.17046
541.7534, 41.60947
542.2355, 41.18251
542.7177, 41.05493
543.1998, 41.71984
543.6819, 42.60805
544.1640, 42.64223
544.6461, 41.69576
545.1282, 40.95374
545.6104, 41.57946
546.0925, 42.73839
546.5746, 43.50724
547.0567, 43.64762
547.5388, 43.34504
548.0209, 42.26961
548.5031, 40.81202
548.9852, 39.80887
549.4673, 39.51241
549.9494, 39.56388
550.4315, 40.01525
550.9136, 40.86361
551.3958, 41.40895
551.8779, 41.66726
552.3600, 41.59527
552.8421, 41.02484
553.3242, 39.86203
553.8063, 39.11007
554.2885, 38.84894
554.7706, 38.89531
555.2527, 39.01733
555.7348, 39.22880
556.2169, 39.66764
556.6990, 40.57722
557.1812, 41.46470
557.6633, 41.48171
558.1454, 40.82035
558.6275, 40.20109
559.1096, 40.14977
559.5917, 40.23555
560.0739, 40.08250
560.5560, 39.65998
561.0381, 39.28931
561.5202, 39.25558
562.0023, 39.23333
562.4844, 38.96502
562.9666, 38.01621
563.4487, 37.42797
563.9308, 37.40794
564.4129, 37.70386
564.8950, 37.96854
565.3771, 38.27209
565.8593, 38.36289
566.3414, 38.09241
566.8235, 37.57698
567.3056, 37.36421
567.7877, 37.49072
568.2698, 37.66195
568.7520, 37.63405
569.2341, 37.49844
569.7162, 37.69710
570.1983, 38.26633
570.6804, 38.76955
571.1625, 38.70445
571.6447, 38.32119
572.1268, 38.04335
572.6089, 38.05996
573.0910, 38.00785
573.5731, 37.47782
574.0552, 36.74694
574.5374, 36.28798
575.0195, 36.62658
575.5016, 36.89090
575.9837, 36.62340
576.4658, 35.89584
576.9479, 35.66016
577.4301, 36.29248
577.9122, 36.99993
578.3943, 37.51214
578.8764, 37.86618
579.3585, 37.68732
579.8406, 36.74866
580.3228, 35.78166
580.8049, 35.64370
581.2870, 36.28485
581.7691, 36.84631
582.2512, 37.20480
582.7333, 37.36457
583.2155, 37.26516
583.6975, 36.96128
584.1796, 36.61910
584.6617, 36.27855
585.1439, 35.96253
585.6260, 35.59259
586.1081, 35.22569
586.5902, 35.14824
587.0723, 35.83484
587.5544, 36.58134
