##NAMES=Creedite
##RRUFFID=R050141
##IDEAL CHEMISTRY=Ca_3_Al_2_(S^6+^O_4_)(OH)_2_F_8_&#183;2H_2_O
##LOCALITY=Mina de Navidad, Rodeo, Durango, Mexico
##OWNER=RRUFF
##SOURCE=Dave Bunk Minerals
##DESCRIPTION=Radiating group of bladed crystals
##STATUS=The identification of this mineral has been confirmed by X-ray diffraction and chemical analysis
##URL=rruff.info/R050141
##MEASURED CHEMISTRY=Ca_3.00_Al_2.00_(S_1.00_O_4_)(OH)_2_(F_7.31_(OH)_0.69_)_Σ=8_·2H_2_O ; OH estimated by stoichiometry and charge balance OH=10-F
93.56738, 97.69029
94.04950, 99.22999
94.53162, 100.6876
95.01373, 100.6696
95.49585, 99.80132
95.97797, 98.84801
96.46008, 98.52183
96.94220, 99.22335
97.42432, 99.59642
97.90643, 99.35963
98.38855, 98.91966
98.87067, 98.47339
99.35278, 98.10535
99.83490, 97.83693
100.3170, 97.66901
100.7991, 97.15028
101.2813, 97.09347
101.7634, 97.60909
102.2455, 98.54067
102.7276, 99.77232
103.2097, 101.2733
103.6918, 102.9563
104.1740, 104.3581
104.6561, 105.2635
105.1382, 106.1853
105.6203, 107.2016
106.1024, 108.3500
106.5845, 109.6898
107.0667, 110.8363
107.5488, 112.3129
108.0309, 115.8734
108.5130, 121.7013
108.9951, 129.6143
109.4772, 140.0786
109.9594, 153.9950
110.4415, 167.7552
110.9236, 181.0486
111.4057, 192.6458
111.8878, 199.2165
112.3699, 198.3647
112.8521, 190.5976
113.3342, 179.5917
113.8163, 161.7389
114.2984, 144.1252
114.7805, 129.1307
115.2626, 116.8469
115.7447, 107.1551
116.2269, 99.99159
116.7090, 95.72251
117.1911, 93.02733
117.6732, 92.31273
118.1553, 92.58814
118.6374, 93.39459
119.1196, 94.61755
119.6017, 96.42237
120.0838, 99.08799
120.5659, 103.2300
121.0480, 107.4136
121.5301, 111.2586
122.0123, 115.2643
122.4944, 120.0367
122.9765, 125.8317
123.4586, 132.3629
123.9407, 139.1142
124.4228, 147.4541
124.9050, 153.7031
125.3871, 156.6108
125.8692, 156.4225
126.3513, 153.7328
126.8334, 147.8578
127.3155, 140.0596
127.7977, 133.0745
128.2798, 126.9745
128.7619, 121.6502
129.2440, 117.0569
129.7261, 113.2445
130.2083, 109.9725
130.6904, 107.4046
131.1725, 105.2505
131.6546, 103.3098
132.1367, 101.6110
132.6188, 99.99837
133.1010, 98.00124
133.5831, 95.04462
134.0652, 92.69342
134.5473, 91.43832
135.0294, 90.94260
135.5115, 90.74635
135.9936, 90.56454
136.4758, 90.41084
136.9579, 90.52510
137.4400, 90.72229
137.9221, 91.39176
138.4042, 92.81564
138.8863, 94.82872
139.3685, 97.06940
139.8506, 99.22649
140.3327, 101.2704
140.8148, 103.4774
141.2969, 106.0710
141.7790, 108.6123
142.2612, 110.6256
142.7433, 112.1605
143.2254, 113.9176
143.7075, 116.8988
144.1896, 121.4414
144.6717, 124.7530
145.1539, 126.1841
145.6360, 126.5263
146.1181, 126.3277
146.6002, 125.4965
147.0823, 124.9689
147.5644, 126.0858
148.0466, 128.6014
148.5287, 131.4947
149.0108, 134.4290
149.4929, 137.4322
149.9750, 140.7541
150.4571, 145.0804
150.9393, 148.8024
151.4214, 151.0320
151.9035, 151.7475
152.3856, 150.9560
152.8677, 148.1515
153.3498, 143.1973
153.8320, 138.5369
154.3141, 134.8509
154.7962, 131.3585
155.2783, 127.5505
155.7604, 123.3972
156.2425, 119.4657
156.7247, 116.3692
157.2068, 113.8366
157.6889, 112.9438
158.1710, 114.3549
158.6531, 116.7092
159.1352, 119.0539
159.6174, 121.1069
160.0995, 123.2808
160.5816, 126.4075
161.0637, 131.3515
161.5458, 136.1942
162.0279, 140.3844
162.5101, 144.6581
162.9922, 149.7923
163.4743, 156.1451
163.9564, 163.3990
164.4385, 170.7731
164.9206, 178.6389
165.4028, 186.1585
165.8849, 192.5344
166.3670, 198.4909
166.8491, 205.4287
167.3312, 214.0112
167.8133, 223.9920
168.2955, 234.4195
168.7776, 244.7311
169.2597, 256.0663
169.7418, 269.4617
170.2239, 284.5741
170.7060, 299.8745
171.1882, 316.3223
171.6703, 331.3952
172.1524, 341.3924
172.6345, 345.7322
173.1166, 345.5451
173.5987, 340.7512
174.0809, 330.9132
174.5630, 320.3520
175.0451, 310.8587
175.5272, 301.8568
176.0093, 292.6118
176.4914, 282.5612
176.9736, 272.8839
177.4557, 265.5882
177.9378, 261.3700
178.4199, 257.9440
178.9020, 254.5796
179.3841, 251.4478
179.8663, 248.6468
180.3484, 246.1903
180.8305, 244.1993
181.3126, 243.0732
181.7947, 242.9248
182.2768, 243.6496
182.7590, 244.7370
183.2411, 246.6883
183.7232, 250.0654
184.2053, 255.1605
184.6874, 261.9794
185.1695, 270.4384
185.6517, 281.2236
186.1338, 293.1626
186.6159, 305.6450
187.0980, 319.2423
187.5801, 334.8366
188.0622, 353.1124
188.5444, 373.8749
189.0265, 395.7109
189.5086, 424.7841
189.9907, 448.5663
190.4728, 464.3966
190.9549, 471.9111
191.4371, 470.8196
191.9192, 460.6043
192.4013, 441.0833
192.8834, 415.3582
193.3655, 379.1384
193.8476, 341.6272
194.3298, 306.1605
194.8119, 273.0140
195.2940, 243.1632
195.7761, 217.0421
196.2582, 195.3078
196.7403, 176.9425
197.2225, 163.0092
197.7046, 151.6871
198.1867, 141.7653
198.6688, 133.1801
199.1509, 126.0502
199.6330, 120.8445
200.1152, 117.2039
200.5973, 114.3384
201.0794, 112.4971
201.5615, 111.1389
202.0436, 109.6104
202.5257, 107.8753
203.0079, 106.1590
203.4900, 105.0009
203.9721, 103.8607
204.4542, 101.9292
204.9363, 98.66462
205.4184, 94.66322
205.9006, 90.91493
206.3827, 87.28466
206.8648, 84.32566
207.3469, 82.33714
207.8290, 81.03735
208.3111, 80.17262
208.7933, 79.73449
209.2754, 79.54601
209.7575, 79.01933
210.2396, 77.71220
210.7217, 76.80405
211.2038, 76.60023
211.6860, 76.92812
212.1681, 77.61982
212.6502, 78.62348
213.1323, 79.86440
213.6144, 80.98529
214.0965, 81.80765
214.5787, 82.73792
215.0608, 84.14406
215.5429, 85.63678
216.0250, 86.70729
216.5071, 87.06694
216.9892, 86.77029
217.4713, 86.13348
217.9535, 84.96871
218.4356, 83.61736
218.9177, 81.98508
219.3998, 80.21876
219.8819, 78.48238
220.3640, 76.84981
220.8462, 75.35442
221.3283, 74.26001
221.8104, 73.48019
222.2925, 73.16361
222.7746, 73.72579
223.2567, 74.74944
223.7389, 75.57213
224.2210, 75.84816
224.7031, 75.58223
225.1852, 74.73139
225.6673, 73.48736
226.1494, 71.60374
226.6316, 68.45731
227.1137, 64.60468
227.5958, 61.23032
228.0779, 59.02292
228.5600, 57.71010
229.0421, 56.26650
229.5243, 54.44002
230.0064, 52.80831
230.4885, 51.63306
230.9706, 50.83228
231.4527, 50.19186
231.9348, 49.68509
232.4170, 49.20099
232.8991, 48.40605
233.3812, 46.95049
233.8633, 45.83432
234.3454, 45.84545
234.8275, 46.72966
235.3097, 47.39647
235.7918, 47.31132
236.2739, 46.85514
236.7560, 46.76147
237.2381, 47.16459
237.7202, 47.52109
238.2024, 47.37157
238.6845, 46.80173
239.1666, 46.38832
239.6487, 46.30006
240.1308, 46.50202
240.6129, 46.95293
241.0951, 47.68934
241.5772, 48.42513
242.0593, 48.94313
242.5414, 49.25517
243.0235, 49.53933
243.5056, 49.81498
243.9878, 50.09600
244.4699, 50.33001
244.9520, 50.52072
245.4341, 50.86628
245.9162, 51.53234
246.3983, 52.51805
246.8805, 53.70412
247.3626, 55.15748
247.8447, 56.75317
248.3268, 58.59434
248.8089, 60.60219
249.2910, 62.31011
249.7732, 63.07975
250.2553, 62.86042
250.7374, 63.09711
251.2195, 64.32838
251.7016, 65.67744
252.1837, 66.81167
252.6659, 67.70141
253.1480, 68.42422
253.6301, 69.10332
254.1122, 69.76845
254.5943, 69.96969
255.0764, 69.51142
255.5586, 68.70692
256.0407, 67.55831
256.5228, 66.13433
257.0049, 64.57207
257.4870, 62.94747
257.9691, 61.25687
258.4513, 59.67762
258.9334, 58.39030
259.4155, 57.04206
259.8976, 55.43153
260.3797, 53.67927
260.8618, 52.02317
261.3440, 50.62048
261.8261, 49.46783
262.3082, 48.62521
262.7903, 48.23841
263.2724, 48.05546
263.7545, 48.11554
264.2367, 48.33823
264.7188, 48.59563
265.2009, 48.79547
265.6830, 48.96324
266.1651, 49.30144
266.6472, 50.27746
267.1294, 50.92161
267.6115, 50.83907
268.0936, 50.36711
268.5757, 49.99509
269.0578, 49.99214
269.5399, 50.29457
270.0221, 50.62827
270.5042, 50.94017
270.9863, 51.35064
271.4684, 51.99158
271.9505, 52.70316
272.4326, 53.22152
272.9148, 53.42305
273.3969, 53.50298
273.8790, 54.00229
274.3611, 55.83798
274.8432, 56.99302
275.3253, 56.69910
275.8075, 55.97980
276.2896, 56.01442
276.7717, 57.22315
277.2538, 59.08207
277.7359, 60.60955
278.2180, 61.46014
278.7002, 62.49526
279.1823, 64.00436
279.6644, 65.54694
280.1465, 66.54855
280.6286, 66.89636
281.1107, 67.22655
281.5929, 68.52829
282.0750, 71.67400
282.5571, 73.55434
283.0392, 73.15739
283.5213, 72.16005
284.0034, 72.15113
284.4856, 73.29504
284.9677, 74.34059
285.4498, 73.82503
285.9319, 71.27580
286.4140, 69.52279
286.8961, 69.14958
287.3783, 69.09123
287.8604, 68.60282
288.3425, 67.66805
288.8246, 66.74136
289.3067, 66.28580
289.7888, 66.30085
290.2710, 65.74291
290.7531, 64.01686
291.2352, 62.30033
291.7173, 61.37064
292.1994, 61.09544
292.6815, 60.74349
293.1637, 59.78387
293.6458, 58.36019
294.1279, 57.40549
294.6100, 57.04228
295.0921, 56.94985
295.5742, 57.18024
296.0564, 57.59823
296.5385, 57.81582
297.0206, 57.58689
297.5027, 57.10527
297.9848, 56.98183
298.4669, 57.38617
298.9491, 57.77309
299.4312, 57.65272
299.9133, 57.42936
300.3954, 58.03767
300.8775, 59.95057
301.3596, 62.39459
301.8418, 63.79386
302.3239, 63.88998
302.8060, 64.24792
303.2881, 65.61451
303.7702, 67.33227
304.2523, 68.24675
304.7345, 67.99673
305.2166, 67.71516
305.6987, 69.06007
306.1808, 72.18320
306.6629, 74.81034
307.1451, 76.60643
307.6272, 77.78230
308.1093, 78.30140
308.5914, 78.16937
309.0735, 78.12172
309.5556, 78.91740
310.0378, 80.51819
310.5199, 81.75133
311.0020, 82.61696
311.4841, 83.05505
311.9662, 82.91377
312.4483, 82.23218
312.9305, 81.34789
313.4126, 80.38866
313.8947, 79.41148
314.3768, 78.62479
314.8589, 78.76555
315.3410, 78.33907
315.8232, 76.01001
316.3053, 72.31639
316.7874, 69.19126
317.2695, 67.58788
317.7516, 67.01727
318.2337, 66.29176
318.7159, 65.41850
319.1980, 64.41560
319.6801, 63.23431
320.1622, 61.93270
320.6443, 60.57160
321.1264, 59.12649
321.6086, 57.77290
322.0907, 56.88573
322.5728, 56.49860
323.0549, 56.09151
323.5370, 55.57658
324.0191, 54.97015
324.5013, 54.20142
324.9834, 53.23783
325.4655, 52.44915
325.9476, 52.40166
326.4297, 53.09341
326.9118, 53.10957
327.3940, 51.52848
327.8761, 49.79385
328.3582, 49.26250
328.8403, 49.91241
329.3224, 50.65775
329.8045, 50.71098
330.2867, 50.19389
330.7688, 50.01680
331.2509, 50.35589
331.7330, 50.84121
332.2151, 51.41097
332.6972, 51.99771
333.1794, 52.37916
333.6615, 52.41395
334.1436, 52.22121
334.6257, 52.13982
335.1078, 52.29520
335.5899, 52.29769
336.0721, 51.61011
336.5542, 50.78554
337.0363, 50.94841
337.5184, 52.54789
338.0005, 54.52370
338.4826, 55.10095
338.9648, 53.75289
339.4469, 53.40125
339.9290, 55.09100
340.4111, 57.51930
340.8932, 59.57853
341.3753, 61.07664
341.8574, 62.06788
342.3395, 62.42569
342.8217, 62.08771
343.3038, 62.56624
343.7859, 64.68996
344.2680, 66.86735
344.7501, 67.92863
345.2322, 68.12971
345.7144, 68.64894
346.1965, 70.30379
346.6786, 72.84326
347.1607, 74.77975
347.6428, 76.18855
348.1249, 77.07014
348.6071, 77.31138
349.0892, 77.04614
349.5713, 76.47980
350.0534, 75.68804
350.5355, 74.65929
351.0176, 73.31270
351.4998, 71.33286
351.9819, 69.65298
352.4640, 68.14104
352.9461, 67.04732
353.4282, 66.81097
353.9103, 67.43570
354.3925, 68.22003
354.8746, 68.33217
355.3567, 67.55269
355.8388, 67.23053
356.3209, 67.53305
356.8030, 68.07358
357.2852, 68.83937
357.7673, 69.69292
358.2494, 70.25333
358.7315, 70.17545
359.2136, 69.58254
359.6957, 69.75581
360.1779, 71.61690
360.6600, 73.12419
361.1421, 73.56213
361.6242, 73.49152
362.1063, 73.70831
362.5884, 74.55260
363.0706, 75.78783
363.5527, 76.88699
364.0348, 77.70824
364.5169, 78.61284
364.9990, 79.45967
365.4811, 80.47218
365.9633, 81.87798
366.4454, 83.67918
366.9275, 85.68837
367.4096, 87.79606
367.8917, 90.16146
368.3738, 91.70375
368.8560, 91.75804
369.3381, 91.71585
369.8202, 92.35384
370.3023, 93.32558
370.7844, 93.72836
371.2665, 92.89745
371.7487, 91.08059
372.2308, 89.71460
372.7129, 89.30328
373.1950, 88.67890
373.6771, 87.66826
374.1592, 86.35767
374.6414, 84.84699
375.1235, 83.16900
375.6056, 81.30564
376.0877, 79.12682
376.5698, 76.30686
377.0519, 74.09487
377.5341, 72.74509
378.0162, 71.86869
378.4983, 71.42101
378.9804, 71.31105
379.4625, 71.28570
379.9446, 71.05952
380.4268, 70.64610
380.9089, 70.62970
381.3910, 71.57271
381.8731, 72.18415
382.3552, 71.63337
382.8373, 70.51521
383.3195, 69.75026
383.8016, 69.74699
384.2837, 70.41735
384.7658, 71.70895
385.2479, 73.81828
385.7300, 75.86985
386.2122, 77.54265
386.6943, 79.04985
387.1764, 80.47527
387.6585, 81.83593
388.1406, 83.28667
388.6227, 84.98546
389.1049, 86.92511
389.5870, 88.92487
390.0691, 91.02632
390.5512, 93.08630
391.0333, 95.04921
391.5154, 96.90529
391.9976, 98.62888
392.4797, 100.3414
392.9618, 101.8736
393.4439, 102.9640
393.9260, 103.6376
394.4081, 103.7193
394.8903, 102.6739
395.3724, 101.0877
395.8545, 99.99644
396.3366, 99.78056
396.8187, 99.57730
397.3008, 98.76228
397.7830, 97.41038
398.2651, 95.79443
398.7472, 93.92570
399.2293, 91.96364
399.7114, 89.99402
400.1935, 87.94682
400.6757, 86.57972
401.1578, 86.86892
401.6399, 87.60973
402.1220, 87.16570
402.6041, 85.34940
403.0862, 83.24059
403.5684, 81.64714
404.0505, 80.55962
404.5326, 79.48524
405.0147, 78.59953
405.4968, 77.55792
405.9789, 75.94743
406.4611, 74.04418
406.9432, 72.56856
407.4253, 71.86256
407.9074, 71.61167
408.3895, 71.10117
408.8716, 70.08505
409.3538, 69.27629
409.8359, 68.56860
410.3180, 68.18099
410.8001, 68.37354
411.2822, 69.14768
411.7643, 70.28765
412.2465, 71.64125
412.7286, 73.27460
413.2107, 74.41605
413.6928, 74.21426
414.1749, 74.50475
414.6570, 76.07290
415.1392, 78.54403
415.6213, 81.15230
416.1034, 83.49401
416.5855, 85.88425
417.0676, 89.20329
417.5497, 94.00125
418.0319, 98.82807
418.5140, 103.0983
418.9961, 107.6973
419.4782, 113.0823
419.9603, 119.4002
420.4424, 126.8575
420.9246, 136.0134
421.4067, 147.0067
421.8888, 156.9449
422.3709, 165.0209
422.8530, 172.9637
423.3351, 181.5518
423.8173, 190.4194
424.2994, 199.0667
424.7815, 207.3146
425.2636, 215.0621
425.7457, 221.7681
426.2278, 227.0888
426.7100, 232.9845
427.1921, 239.5170
427.6742, 247.2266
428.1563, 256.5811
428.6384, 267.6376
429.1205, 279.9355
429.6027, 293.7773
430.0848, 308.6536
430.5669, 322.3786
431.0490, 333.6403
431.5311, 346.6724
432.0132, 365.8685
432.4954, 389.0131
432.9775, 411.9334
433.4596, 431.4461
433.9417, 453.1026
434.4238, 481.5663
434.9059, 516.5751
435.3881, 555.8523
435.8702, 598.4950
436.3523, 645.0186
436.8344, 696.8757
437.3165, 753.9602
437.7986, 813.5306
438.2808, 879.1752
438.7629, 944.7443
439.2450, 1006.854
439.7271, 1063.997
440.2092, 1107.079
440.6913, 1129.856
441.1735, 1131.532
441.6556, 1108.194
442.1377, 1052.105
442.6198, 983.9442
443.1019, 903.5721
443.5840, 817.1030
444.0662, 732.9352
444.5483, 653.5222
445.0304, 580.2357
445.5125, 514.2567
445.9946, 455.2637
446.4767, 406.3386
446.9589, 369.7151
447.4410, 339.2204
447.9231, 312.1854
448.4052, 287.9629
448.8873, 266.7811
449.3694, 248.9224
449.8516, 234.0714
450.3337, 220.8367
450.8158, 209.6948
451.2979, 199.5913
451.7800, 190.1701
452.2621, 181.6191
452.7443, 174.2857
453.2264, 168.2114
453.7085, 162.9555
454.1906, 157.8611
454.6727, 152.8987
455.1548, 149.1234
455.6370, 147.1309
456.1191, 145.7362
456.6012, 144.2388
457.0833, 142.7749
457.5654, 141.7023
458.0475, 141.4133
458.5297, 141.3324
459.0118, 140.7656
459.4939, 139.7207
459.9760, 137.9879
460.4581, 135.2987
460.9402, 131.9995
461.4224, 128.5542
461.9045, 124.9374
462.3866, 121.4224
462.8687, 118.3126
463.3508, 115.2854
463.8329, 111.7376
464.3151, 107.5939
464.7972, 103.4336
465.2793, 99.61958
465.7614, 96.19145
466.2435, 93.35651
466.7256, 91.17563
467.2078, 89.48242
467.6899, 88.53197
468.1720, 87.95296
468.6541, 87.04216
469.1362, 85.57237
469.6183, 84.10698
470.1005, 83.52438
470.5826, 84.27440
471.0647, 84.43319
471.5468, 83.51369
472.0289, 82.55437
472.5110, 81.98848
472.9932, 81.80443
473.4753, 81.80155
473.9574, 81.83531
474.4395, 82.07640
474.9216, 83.15424
475.4037, 85.70866
475.8859, 87.81065
476.3680, 89.10892
476.8501, 90.01840
477.3322, 90.52197
477.8143, 90.79328
478.2964, 91.49931
478.7786, 93.32671
479.2607, 96.13273
479.7428, 99.02700
480.2249, 102.3110
480.7070, 105.0380
481.1891, 106.6605
481.6713, 107.5205
482.1534, 107.9422
482.6355, 107.9724
483.1176, 107.6610
483.5997, 107.1461
484.0818, 106.3487
484.5640, 105.0324
485.0461, 103.2754
485.5282, 100.6173
486.0103, 95.87385
486.4924, 89.38533
486.9745, 84.24117
487.4567, 82.01248
487.9388, 80.24504
488.4209, 77.17142
488.9030, 73.12671
489.3851, 69.15662
489.8672, 65.71666
490.3494, 62.73037
490.8315, 60.00785
491.3136, 57.50761
491.7957, 55.42511
492.2778, 53.91585
492.7599, 52.69994
493.2421, 51.67075
493.7242, 50.76078
494.2063, 49.87569
494.6884, 48.93989
495.1705, 47.97092
495.6526, 47.04874
496.1348, 46.13390
496.6169, 45.33409
497.0990, 44.59114
497.5811, 43.99704
498.0632, 43.74415
498.5453, 43.80369
499.0275, 43.79311
499.5096, 43.21783
499.9917, 42.15841
500.4738, 41.53926
500.9559, 41.61056
501.4380, 41.63270
501.9202, 41.05273
502.4023, 40.25322
502.8844, 39.79796
503.3665, 39.92667
503.8486, 40.07983
504.3307, 39.65322
504.8129, 38.85313
505.2950, 38.43566
505.7771, 38.61340
506.2592, 39.03040
506.7413, 39.41697
507.2234, 39.75948
507.7055, 39.89944
508.1877, 39.63727
508.6698, 39.34887
509.1519, 39.28823
509.6340, 39.36742
510.1161, 39.36784
510.5982, 39.19778
511.0804, 38.93953
511.5625, 38.73116
512.0446, 38.58133
512.5267, 38.46603
513.0089, 38.24600
513.4910, 38.18447
513.9731, 38.69827
514.4552, 39.47625
514.9373, 39.71560
515.4194, 38.86577
515.9016, 37.51128
516.3837, 37.30958
516.8658, 38.79935
517.3479, 39.96959
517.8300, 40.17474
518.3121, 40.21488
518.7943, 40.65823
519.2764, 41.43388
519.7585, 41.97591
520.2406, 41.64075
520.7227, 40.93048
521.2048, 41.04725
521.6870, 42.09729
522.1691, 43.09597
522.6512, 43.48339
523.1333, 43.66162
523.6154, 44.40232
524.0975, 45.89834
524.5797, 47.05060
525.0618, 47.09887
525.5439, 46.75922
526.0260, 46.88207
526.5081, 47.56017
526.9902, 48.63071
527.4724, 50.11288
527.9545, 51.83804
528.4366, 52.72266
528.9187, 51.89263
529.4008, 51.42279
529.8829, 51.70190
530.3651, 52.38232
530.8472, 53.21255
531.3293, 54.10653
531.8114, 55.01122
532.2935, 55.92874
532.7756, 56.83849
533.2578, 57.28436
533.7399, 57.00598
534.2220, 56.63717
534.7041, 56.06581
535.1862, 55.64807
535.6683, 55.91408
536.1505, 56.96424
536.6326, 57.99829
537.1147, 58.19998
537.5968, 57.73356
538.0789, 57.30042
538.5610, 56.87863
539.0432, 56.73120
539.5253, 57.22655
540.0074, 58.09727
540.4895, 58.71477
540.9716, 58.87747
541.4537, 59.04494
541.9359, 59.39691
542.4180, 59.92603
542.9001, 60.69892
543.3822, 61.72178
543.8643, 62.69387
544.3464, 63.26336
544.8286, 63.40660
545.3107, 64.04384
545.7928, 65.53544
546.2749, 67.01765
546.7570, 68.47995
547.2391, 69.72386
547.7213, 70.47636
548.2034, 70.69231
548.6855, 70.66631
549.1676, 70.79848
549.6497, 71.12276
550.1318, 71.00163
550.6140, 70.06870
551.0961, 69.20078
551.5782, 68.95484
552.0603, 68.87678
552.5424, 68.28103
553.0245, 66.90012
553.5067, 65.49720
553.9888, 64.86346
554.4709, 64.80245
554.9530, 64.56737
555.4351, 64.03635
555.9172, 63.36938
556.3994, 62.56581
556.8815, 61.71929
557.3636, 61.25848
557.8457, 61.51238
558.3278, 61.78525
558.8099, 61.81548
559.2921, 61.68880
559.7742, 61.37853
560.2563, 60.92992
560.7384, 60.79735
561.2205, 61.52673
561.7026, 63.16570
562.1848, 64.53665
562.6669, 65.10967
563.1490, 66.03877
563.6311, 68.23535
564.1132, 70.54622
564.5953, 71.39528
565.0775, 70.51564
565.5596, 69.51395
566.0417, 70.43187
566.5238, 73.01097
567.0059, 74.41233
567.4880, 74.18614
567.9702, 73.70634
568.4523, 73.65697
568.9344, 73.82279
569.4165, 73.92702
569.8986, 73.92908
570.3807, 73.89082
570.8629, 73.88703
571.3450, 73.85194
571.8271, 73.64003
572.3092, 73.23602
572.7913, 72.79376
573.2734, 72.38403
573.7556, 72.03934
574.2377, 71.98900
574.7198, 72.68398
575.2019, 73.05629
575.6840, 72.32967
576.1661, 71.63924
576.6483, 72.28079
577.1304, 74.18815
577.6125, 76.06216
578.0946, 76.65534
578.5767, 76.35048
579.0588, 77.39752
579.5410, 80.43063
580.0231, 83.37127
580.5052, 85.24825
580.9873, 87.07795
581.4694, 89.71211
581.9515, 93.18105
582.4337, 96.83324
582.9158, 100.1774
583.3979, 103.5233
583.8800, 107.3949
584.3621, 111.7966
584.8442, 116.1896
585.3264, 120.3403
585.8085, 124.2983
586.2906, 128.1360
586.7727, 131.5981
587.2548, 135.6801
