##NAMES=Crichtonite
##RRUFFID=R090006
##IDEAL CHEMISTRY=Sr(Mn^2+^,Y^3+^,U^6+^)Fe^2+^_2_(Ti^4+^,Fe^3+^,Cr^3+^,V^5+^)_18_(O,OH)_38_
##LOCALITY=Presidente Kubitschek, Minas Gerias, Brazil
##OWNER=RRUFF
##SOURCE=Luiz Menezes
##DESCRIPTION=Black poorly shaped, rounded crystals associated with quartz and rutile
##STATUS=The identification of this mineral has been confirmed only by single crystal X-ray diffraction.
##URL=rruff.info/R090006
91.72394, 0.0000000E+00
92.20605, 170.1963
92.68817, 169.2269
93.17029, 169.9502
93.65240, 171.1462
94.13452, 172.7407
94.61664, 173.9582
95.09875, 174.7484
95.58087, 175.1516
96.06299, 174.7086
96.54510, 172.3718
97.02721, 170.7292
97.50933, 170.9499
97.99145, 172.0617
98.47356, 172.6692
98.95568, 171.6308
99.43780, 168.6552
99.91991, 166.7987
100.4020, 166.2819
100.8841, 166.3541
101.3663, 167.2071
101.8484, 168.5567
102.3305, 169.4722
102.8126, 168.8887
103.2947, 166.2684
103.7768, 164.4913
104.2590, 163.9344
104.7411, 163.9985
105.2232, 164.1558
105.7053, 164.3284
106.1874, 164.4125
106.6695, 164.2229
107.1517, 163.7860
107.6338, 163.1978
108.1159, 162.2395
108.5980, 161.0499
109.0801, 160.3934
109.5622, 160.7975
110.0444, 161.5180
110.5265, 162.0567
111.0086, 162.3760
111.4907, 162.3616
111.9728, 161.6580
112.4549, 159.8677
112.9371, 158.7972
113.4192, 159.4803
113.9013, 160.5446
114.3834, 160.9660
114.8655, 160.3510
115.3476, 159.0994
115.8298, 158.2744
116.3119, 158.1131
116.7940, 158.1483
117.2761, 158.5896
117.7582, 159.1339
118.2403, 159.3694
118.7225, 159.0285
119.2046, 158.1763
119.6867, 157.5817
120.1688, 157.0869
120.6509, 156.9270
121.1330, 157.6286
121.6152, 158.8975
122.0973, 159.6553
122.5794, 158.8918
123.0615, 156.6056
123.5436, 154.9543
124.0257, 154.1672
124.5079, 153.8763
124.9900, 153.9387
125.4721, 154.4230
125.9542, 154.7468
126.4363, 154.1554
126.9184, 152.9605
127.4006, 151.8232
127.8827, 150.8690
128.3648, 150.1503
128.8469, 149.8904
129.3290, 150.3637
129.8111, 150.9798
130.2932, 151.5008
130.7754, 151.8851
131.2575, 152.0093
131.7396, 151.7160
132.2217, 150.9644
132.7038, 150.1716
133.1859, 148.9990
133.6681, 148.0586
134.1502, 147.9140
134.6323, 148.4750
135.1144, 149.0171
135.5965, 148.4251
136.0786, 145.5180
136.5608, 143.9102
137.0429, 144.2845
137.5250, 145.2866
138.0071, 146.0273
138.4892, 146.2069
138.9713, 145.9533
139.4535, 145.5037
139.9356, 144.2887
140.4177, 143.6834
140.8998, 144.4197
141.3819, 145.6600
141.8640, 146.1745
142.3462, 145.3427
142.8283, 143.6826
143.3104, 142.6824
143.7925, 142.5855
144.2746, 142.5496
144.7567, 142.2465
145.2388, 141.7207
145.7210, 141.1356
146.2031, 140.4660
146.6852, 139.8645
147.1673, 139.6112
147.6494, 139.9465
148.1315, 140.2943
148.6137, 140.1187
149.0958, 139.3782
149.5779, 138.3991
150.0600, 136.9257
150.5421, 135.4225
151.0242, 134.3757
151.5064, 134.0202
151.9885, 134.1117
152.4706, 134.2146
152.9527, 134.4541
153.4348, 134.4422
153.9169, 134.0592
154.3991, 133.4121
154.8812, 132.6082
155.3633, 131.6940
155.8454, 130.6850
156.3275, 129.6793
156.8096, 128.5183
157.2918, 127.5491
157.7739, 126.9186
158.2560, 126.5248
158.7381, 126.1896
159.2202, 125.7722
159.7023, 125.2656
160.1845, 124.9507
160.6666, 125.1601
161.1487, 125.2190
161.6308, 124.7253
162.1129, 123.8044
162.5950, 122.9454
163.0772, 122.6301
163.5593, 122.9611
164.0414, 122.8364
164.5235, 121.8496
165.0056, 120.7557
165.4877, 120.0754
165.9698, 119.8544
166.4520, 119.8079
166.9341, 119.6874
167.4162, 119.4915
167.8983, 119.2697
168.3804, 119.0565
168.8625, 118.8075
169.3447, 118.3836
169.8268, 117.6921
170.3089, 117.1272
170.7910, 117.3627
171.2731, 118.1621
171.7552, 118.6040
172.2374, 118.1157
172.7195, 116.9818
173.2016, 115.9736
173.6837, 115.1057
174.1658, 114.5071
174.6479, 114.2806
175.1301, 114.3640
175.6122, 114.5229
176.0943, 114.6459
176.5764, 114.7303
177.0585, 114.7087
177.5406, 114.6912
178.0228, 114.4269
178.5049, 113.5205
178.9870, 112.1473
179.4691, 110.9911
179.9512, 110.9671
180.4333, 112.5238
180.9155, 113.1215
181.3976, 111.6703
181.8797, 110.1598
182.3618, 109.5867
182.8439, 109.9725
183.3260, 110.6546
183.8082, 110.8375
184.2903, 110.3968
184.7724, 109.7217
185.2545, 108.2868
185.7366, 107.0350
186.2187, 106.7247
186.7009, 107.4243
187.1830, 108.5135
187.6651, 109.1176
188.1472, 109.0580
188.6293, 108.7838
189.1114, 108.2273
189.5936, 107.5086
190.0757, 106.6507
190.5578, 105.6730
191.0399, 104.7355
191.5220, 104.1229
192.0041, 103.9710
192.4863, 103.7757
192.9684, 103.3759
193.4505, 102.9418
193.9326, 102.6283
194.4147, 102.4488
194.8968, 102.5355
195.3790, 103.3865
195.8611, 105.1478
196.3432, 106.3779
196.8253, 106.4970
197.3074, 105.7811
197.7895, 104.6874
198.2717, 103.0658
198.7538, 101.5952
199.2359, 101.2426
199.7180, 102.0069
200.2001, 102.8242
200.6822, 103.2241
201.1644, 103.2299
201.6465, 102.8909
202.1286, 101.8903
202.6107, 100.9176
203.0928, 100.6546
203.5749, 101.0938
204.0571, 101.6276
204.5392, 101.7876
205.0213, 101.5797
205.5034, 101.3636
205.9855, 101.1068
206.4676, 100.9451
206.9497, 101.0713
207.4319, 101.4551
207.9140, 101.7573
208.3961, 101.5156
208.8782, 100.5903
209.3603, 100.0087
209.8424, 100.1976
210.3246, 100.5207
210.8067, 100.7353
211.2888, 100.7910
211.7709, 100.7219
212.2530, 100.5311
212.7351, 100.1433
213.2173, 99.87764
213.6994, 99.66808
214.1815, 99.61931
214.6636, 99.95626
215.1457, 100.6200
215.6278, 101.2253
216.1100, 101.2132
216.5921, 100.1758
217.0742, 99.53203
217.5563, 99.41326
218.0384, 99.49796
218.5205, 99.70677
219.0027, 99.96627
219.4848, 100.1002
219.9669, 99.84634
220.4490, 98.96725
220.9311, 98.27706
221.4132, 97.68730
221.8954, 97.31457
222.3775, 97.26566
222.8596, 97.55054
223.3417, 98.09772
223.8238, 98.89015
224.3059, 100.2450
224.7881, 100.8265
225.2702, 100.0986
225.7523, 98.93388
226.2344, 97.98754
226.7165, 97.39497
227.1986, 97.08002
227.6807, 97.01930
228.1629, 97.29723
228.6450, 97.38794
229.1271, 96.97639
229.6092, 96.50514
230.0913, 96.49691
230.5734, 97.05499
231.0556, 97.76241
231.5377, 98.18520
232.0198, 98.32774
232.5019, 98.33765
232.9840, 98.17045
233.4661, 97.90809
233.9483, 97.62605
234.4304, 97.32458
234.9125, 97.06227
235.3946, 96.89468
235.8767, 96.81189
236.3588, 96.81186
236.8410, 97.01102
237.3231, 97.25384
237.8052, 97.25203
238.2873, 96.90563
238.7694, 96.59436
239.2515, 96.69971
239.7337, 97.07606
240.2158, 97.42854
240.6979, 97.73886
241.1800, 97.94353
241.6621, 97.90854
242.1442, 97.59490
242.6264, 97.13474
243.1085, 96.33660
243.5906, 95.47771
244.0727, 95.08498
244.5548, 95.68694
245.0369, 96.75497
245.5191, 97.06494
246.0012, 96.26641
246.4833, 95.53600
246.9654, 95.52419
247.4475, 95.89744
247.9296, 96.26812
248.4117, 96.56264
248.8939, 96.66649
249.3760, 96.21461
249.8581, 94.83114
250.3402, 93.69749
250.8223, 93.23669
251.3044, 93.21091
251.7866, 93.43565
252.2687, 93.88641
252.7508, 94.41609
253.2329, 94.66675
253.7150, 94.46487
254.1971, 94.33060
254.6793, 94.36309
255.1614, 94.52452
255.6435, 94.78513
256.1256, 95.13349
256.6077, 95.56866
257.0898, 96.21384
257.5720, 97.63831
258.0541, 98.06490
258.5362, 96.40135
259.0183, 94.26966
259.5004, 93.13305
259.9825, 93.48370
260.4647, 94.57199
260.9468, 94.94384
261.4289, 93.98798
261.9110, 93.51823
262.3931, 93.99334
262.8752, 94.71101
263.3574, 95.14604
263.8395, 95.15615
264.3216, 94.92886
264.8037, 94.72472
265.2858, 94.40992
265.7679, 94.42033
266.2501, 95.09483
266.7322, 95.80276
267.2143, 96.12709
267.6964, 95.98965
268.1785, 95.55558
268.6606, 94.97398
269.1428, 93.96286
269.6249, 93.60368
270.1070, 94.27946
270.5891, 95.16976
271.0712, 95.94640
271.5533, 96.48592
272.0355, 96.65397
272.5176, 96.21653
272.9997, 94.88802
273.4818, 94.22587
273.9639, 94.62702
274.4460, 95.20454
274.9282, 95.54255
275.4103, 95.61977
275.8924, 95.59992
276.3745, 95.62698
276.8566, 95.70937
277.3387, 95.76018
277.8208, 95.80692
278.3029, 95.80645
278.7851, 95.78553
279.2672, 95.70981
279.7493, 95.45848
280.2314, 94.89874
280.7135, 94.05314
281.1956, 93.61959
281.6778, 93.64671
282.1599, 93.93492
282.6420, 94.73782
283.1241, 95.75722
283.6062, 96.32090
284.0883, 95.97129
284.5705, 94.91344
285.0526, 94.36677
285.5347, 94.73026
286.0168, 95.05077
286.4989, 95.05209
286.9810, 94.86932
287.4632, 94.70550
287.9453, 94.63996
288.4274, 94.70875
288.9095, 95.04940
289.3916, 96.07005
289.8737, 96.74171
290.3559, 96.78286
290.8380, 96.41614
291.3201, 95.80021
291.8022, 94.96327
292.2843, 94.23201
292.7664, 94.30489
293.2486, 95.80085
293.7307, 96.60181
294.2128, 95.99120
294.6949, 94.82334
295.1770, 93.97673
295.6591, 93.65681
296.1413, 93.62444
296.6234, 93.59943
297.1055, 93.57873
297.5876, 93.58938
298.0697, 93.71101
298.5518, 93.81576
299.0340, 93.76125
299.5161, 93.54142
299.9982, 93.30753
300.4803, 93.21529
300.9624, 93.28221
301.4445, 93.23360
301.9267, 92.89377
302.4088, 92.58292
302.8909, 92.55258
303.3730, 92.77605
303.8551, 93.00802
304.3372, 93.06429
304.8194, 92.97318
305.3015, 93.00521
305.7836, 93.24786
306.2657, 93.51219
306.7478, 93.89720
307.2299, 94.26436
307.7121, 94.10113
308.1942, 92.97177
308.6763, 91.31474
309.1584, 90.71642
309.6405, 91.88232
310.1227, 92.81398
310.6048, 92.65743
311.0869, 91.85247
311.5690, 91.21446
312.0511, 91.05274
312.5332, 91.17036
313.0154, 91.24032
313.4975, 91.34892
313.9796, 91.18952
314.4617, 90.29195
314.9438, 89.24503
315.4259, 88.87234
315.9081, 89.39104
316.3902, 90.30099
316.8723, 91.11699
317.3544, 91.90041
317.8365, 92.07649
318.3186, 90.97205
318.8007, 89.62842
319.2828, 88.99435
319.7650, 89.15614
320.2471, 89.65462
320.7292, 90.21569
321.2113, 90.80885
321.6934, 90.93159
322.1755, 90.09856
322.6577, 89.23136
323.1398, 88.89176
323.6219, 89.03370
324.1040, 89.37254
324.5861, 89.80928
325.0682, 90.26665
325.5504, 90.35977
326.0325, 89.62141
326.5146, 89.09314
326.9967, 89.40916
327.4788, 88.99716
327.9609, 90.41916
328.4431, 91.19255
328.9252, 91.35223
329.4073, 89.05996
329.8894, 89.93386
330.3715, 89.53891
330.8536, 89.09192
331.3358, 90.41145
331.8179, 88.47580
332.3000, 89.76732
332.7821, 89.77061
333.2642, 90.36349
333.7463, 89.67968
334.2285, 89.39018
334.7106, 90.37781
335.1927, 90.65829
335.6748, 89.82750
336.1569, 90.45786
336.6390, 88.47762
337.1212, 88.78821
337.6033, 90.08720
338.0854, 89.32061
338.5675, 89.97431
339.0496, 90.08709
339.5317, 87.74158
340.0139, 89.67126
340.4960, 89.75207
340.9781, 87.93448
341.4602, 89.71769
341.9423, 88.16181
342.4244, 87.79778
342.9066, 88.33069
343.3887, 87.92857
343.8708, 89.00064
344.3529, 88.65253
344.8350, 88.17752
345.3171, 88.25626
345.7993, 87.82428
346.2814, 88.18651
346.7635, 87.61867
347.2456, 88.03927
347.7277, 88.68391
348.2098, 87.61307
348.6920, 88.35837
349.1741, 86.28725
349.6562, 86.57274
350.1383, 86.60446
350.6204, 88.14248
351.1025, 86.08508
351.5847, 86.30509
352.0668, 87.49479
352.5489, 87.32767
353.0310, 87.72784
353.5131, 86.44861
353.9952, 86.74705
354.4774, 86.61061
354.9595, 87.97691
355.4416, 88.15687
355.9237, 86.90612
356.4058, 85.66144
356.8879, 87.13588
357.3701, 86.03310
357.8522, 86.32069
358.3343, 85.17233
358.8164, 85.26382
359.2985, 85.33565
359.7806, 86.04305
360.2627, 85.85439
360.7448, 86.10331
361.2270, 85.93850
361.7091, 86.19933
362.1912, 86.41280
362.6733, 86.52524
363.1554, 86.17482
363.6375, 86.68970
364.1197, 85.35956
364.6018, 84.72948
365.0839, 84.59705
365.5660, 86.81329
366.0481, 86.84647
366.5302, 84.27023
367.0124, 86.38297
367.4945, 85.61095
367.9766, 85.69620
368.4587, 85.46868
368.9408, 85.33375
369.4229, 85.39240
369.9051, 84.26048
370.3872, 85.76168
370.8693, 85.11159
371.3514, 85.92329
371.8335, 84.07095
372.3156, 83.79993
372.7978, 83.94865
373.2799, 84.25047
373.7620, 83.32912
374.2441, 83.58184
374.7262, 83.43278
375.2083, 83.23468
375.6905, 83.25043
376.1726, 83.01197
376.6547, 82.61728
377.1368, 84.18944
377.6189, 82.70119
378.1010, 84.09750
378.5832, 84.56924
379.0653, 83.79104
379.5474, 83.67702
380.0295, 82.30293
380.5116, 82.86123
380.9937, 82.75492
381.4759, 83.74363
381.9580, 82.37460
382.4401, 83.71983
382.9222, 82.41404
383.4043, 83.86916
383.8864, 82.50732
384.3686, 83.65483
384.8507, 81.80707
385.3328, 82.12728
385.8149, 82.61933
386.2970, 83.66643
386.7791, 82.57960
387.2613, 83.75834
387.7434, 82.94888
388.2255, 83.52379
388.7076, 83.78749
389.1897, 83.81332
389.6718, 83.59251
390.1540, 83.27430
390.6361, 83.18813
391.1182, 83.61850
391.6003, 84.07475
392.0824, 84.11307
392.5645, 83.76260
393.0467, 83.23613
393.5288, 82.49516
394.0109, 81.75722
394.4930, 81.41325
394.9751, 81.51010
395.4572, 81.74676
395.9394, 82.17642
396.4215, 82.62625
396.9036, 82.74609
397.3857, 82.44026
397.8678, 82.03831
398.3499, 81.88205
398.8321, 81.99048
399.3142, 82.08569
399.7963, 82.07661
400.2784, 82.11530
400.7605, 81.23280
401.2426, 82.67667
401.7247, 83.47196
402.2068, 83.65351
402.6890, 81.38311
403.1711, 82.27889
403.6532, 81.90582
404.1353, 81.48071
404.6174, 82.82213
405.0995, 80.90836
405.5817, 82.22176
406.0638, 82.24693
406.5459, 82.86169
407.0280, 82.19975
407.5101, 81.93214
407.9922, 82.94165
408.4744, 83.24400
408.9565, 82.43510
409.4386, 83.08733
409.9207, 81.12897
410.4028, 81.46145
410.8849, 82.78232
411.3671, 82.03760
411.8492, 82.71318
412.3313, 82.84784
412.8134, 80.52421
413.2955, 82.47578
413.7776, 82.57848
414.2598, 80.78275
414.7419, 82.58784
415.2240, 81.05384
415.7061, 80.71170
416.1882, 81.26649
416.6703, 80.88625
417.1525, 81.98019
417.6346, 81.65395
418.1167, 81.20083
418.5988, 81.30145
419.0809, 80.89137
419.5630, 81.27547
420.0452, 80.72950
420.5273, 81.17198
421.0094, 81.83851
421.4915, 80.78954
421.9736, 81.55672
422.4557, 79.50748
422.9379, 79.81485
423.4200, 79.86845
423.9021, 81.42835
424.3842, 79.39284
424.8663, 79.63473
425.3484, 80.84631
425.8306, 80.70107
426.3127, 81.12312
426.7948, 79.86575
427.2769, 80.18608
427.7590, 80.07153
428.2411, 81.45970
428.7233, 81.66154
429.2054, 80.43267
429.6875, 79.20987
430.1696, 80.70619
430.6517, 79.62529
431.1339, 79.93477
431.6160, 78.80828
432.0981, 78.92165
432.5802, 79.01536
433.0623, 79.74464
433.5444, 79.57785
434.0266, 79.84865
434.5087, 79.70573
434.9908, 79.98843
435.4729, 80.22379
435.9550, 80.35810
436.4371, 80.02958
436.9193, 80.56633
437.4014, 79.25807
437.8835, 78.64986
438.3656, 78.53932
438.8477, 80.77744
439.3298, 80.83250
439.8120, 78.27814
440.2941, 80.41276
440.7762, 79.66263
441.2583, 79.76974
441.7404, 79.56411
442.2225, 79.45106
442.7046, 79.53159
443.1867, 78.42156
443.6689, 79.94463
444.1510, 79.31642
444.6331, 80.15000
445.1152, 78.31954
445.5973, 78.07040
446.0794, 78.24101
446.5616, 78.56470
447.0437, 77.66523
447.5258, 77.93983
448.0079, 77.80487
448.4900, 77.63643
448.9721, 77.67406
449.4543, 77.45748
449.9364, 77.14354
450.4185, 78.67871
450.9006, 77.21233
451.3827, 78.63053
451.8648, 78.67915
452.3470, 78.75961
452.8291, 78.20419
453.3112, 77.23666
453.7933, 76.96644
454.2754, 77.74046
454.7575, 78.51979
455.2397, 78.62807
455.7218, 78.27009
456.2039, 77.69421
456.6860, 76.75475
457.1681, 75.90076
457.6502, 75.51865
458.1324, 75.55248
458.6145, 75.78224
459.0966, 76.20716
459.5787, 76.66177
460.0608, 76.88779
460.5429, 76.88339
461.0251, 76.82214
461.5072, 76.67268
461.9893, 76.52193
462.4714, 76.40820
462.9535, 76.35356
463.4356, 76.45943
463.9178, 76.83909
464.3999, 77.40629
464.8820, 77.68925
465.3641, 77.37772
465.8462, 77.19814
466.3283, 77.38320
466.8105, 77.68067
467.2926, 77.80737
467.7747, 77.70481
468.2568, 77.51137
468.7389, 77.35972
469.2210, 77.21476
469.7032, 77.34350
470.1853, 78.41853
470.6674, 79.06274
471.1495, 78.54226
471.6316, 77.37913
472.1137, 76.40200
472.5959, 75.99564
473.0780, 75.98948
473.5601, 76.12746
474.0422, 76.47202
474.5243, 76.69434
475.0064, 76.71731
475.4886, 76.60564
475.9707, 76.36602
476.4528, 76.01629
476.9349, 75.62022
477.4170, 75.10688
477.8991, 74.59851
478.3813, 74.41900
478.8634, 74.62106
479.3455, 74.84917
479.8276, 74.99391
480.3097, 75.01162
480.7918, 74.79953
481.2740, 74.23194
481.7561, 73.78306
482.2382, 73.79803
482.7203, 74.07082
483.2024, 74.23021
483.6845, 74.20275
484.1666, 74.07498
484.6487, 73.91151
485.1309, 73.71115
485.6130, 73.52856
486.0951, 73.24007
486.5772, 73.09763
487.0593, 73.38025
487.5414, 73.85154
488.0236, 74.05726
488.5057, 73.81779
488.9878, 73.35880
489.4699, 73.06373
489.9520, 72.91531
490.4341, 72.98750
490.9163, 73.48563
491.3984, 73.97435
491.8805, 74.22704
492.3626, 74.28379
492.8447, 74.27901
493.3268, 74.28335
493.8090, 74.31292
494.2911, 74.45999
494.7732, 74.85578
495.2553, 75.01208
495.7374, 74.50201
496.2195, 73.92922
496.7017, 73.68275
497.1838, 73.80035
497.6659, 74.14522
498.1480, 74.93407
498.6301, 75.85615
499.1122, 75.93921
499.5944, 75.00403
500.0765, 73.89702
500.5586, 72.87842
501.0407, 72.08866
501.5228, 71.83188
502.0049, 72.37740
502.4871, 72.89552
502.9692, 72.84949
503.4513, 72.52841
503.9334, 72.51807
504.4155, 72.95016
504.8976, 73.38396
505.3798, 73.33826
505.8619, 72.77178
506.3440, 72.54002
506.8261, 73.00048
507.3082, 73.36156
507.7903, 73.20401
508.2725, 72.79642
508.7546, 72.62743
509.2367, 72.86776
509.7188, 73.18251
510.2009, 72.96043
510.6830, 71.87852
511.1652, 71.35593
511.6473, 72.14590
512.1294, 72.75124
512.6115, 72.28039
513.0936, 71.22102
513.5757, 70.62899
514.0579, 71.11367
514.5400, 72.11537
515.0221, 72.58295
515.5042, 72.43759
515.9863, 72.38982
516.4684, 72.82829
516.9506, 73.17712
517.4327, 72.89157
517.9148, 72.04227
518.3969, 71.18592
518.8790, 70.30930
519.3611, 69.68954
519.8433, 69.85852
520.3254, 70.76086
520.8075, 71.61001
521.2896, 72.08618
521.7717, 72.21671
522.2538, 71.95778
522.7360, 71.08895
523.2181, 70.52193
523.7002, 70.81889
524.1823, 71.19738
524.6644, 70.74646
525.1465, 69.59606
525.6287, 68.73230
526.1108, 68.92013
526.5929, 69.93332
527.0750, 70.57827
527.5571, 70.43002
528.0392, 70.50798
528.5214, 71.28474
529.0035, 72.05138
529.4856, 72.15420
529.9677, 71.57384
530.4498, 70.82851
530.9319, 70.37283
531.4141, 70.14976
531.8962, 69.76112
532.3783, 69.05654
532.8604, 68.53910
533.3425, 68.53014
533.8246, 68.77215
534.3068, 69.02010
534.7889, 69.23174
535.2710, 69.49911
535.7531, 70.11415
536.2352, 70.78433
536.7173, 70.77355
537.1995, 69.94626
537.6816, 68.98534
538.1637, 68.28144
538.6458, 67.88528
539.1279, 67.99162
539.6100, 69.36994
540.0922, 70.26507
540.5743, 69.70125
541.0564, 68.61076
541.5385, 68.16355
542.0206, 68.58434
542.5027, 69.33920
542.9849, 69.89668
543.4670, 70.25346
543.9491, 70.56543
544.4312, 70.97446
544.9133, 71.15034
545.3954, 70.90002
545.8775, 70.44686
546.3596, 69.95679
546.8417, 69.49424
547.3239, 69.22535
547.8060, 69.49796
548.2881, 70.23933
548.7702, 70.56176
549.2523, 70.31804
549.7344, 69.88419
550.2166, 69.09078
550.6987, 68.35143
551.1808, 68.53805
551.6629, 70.41578
552.1450, 71.78882
552.6271, 70.63148
553.1093, 68.10850
553.5914, 66.56700
554.0735, 66.47792
554.5556, 67.32067
555.0377, 68.92044
555.5198, 71.24333
556.0020, 72.09168
556.4841, 70.02097
556.9662, 68.45285
557.4483, 68.67019
557.9304, 69.69926
558.4125, 70.47079
558.8947, 70.66966
559.3768, 70.41691
559.8589, 69.71974
560.3410, 68.56015
560.8231, 67.95844
561.3052, 68.39181
561.7874, 68.70432
562.2695, 68.24692
562.7516, 67.61550
563.2337, 67.54922
563.7158, 68.24868
564.1979, 69.15427
564.6801, 69.95775
565.1622, 70.58907
565.6443, 70.69630
566.1264, 70.13311
566.6085, 69.64516
567.0906, 69.88842
567.5728, 70.59722
568.0549, 70.73621
568.5370, 69.91875
569.0191, 69.14560
569.5012, 68.67258
569.9833, 68.47105
570.4655, 68.59991
570.9476, 69.01696
571.4297, 69.45660
571.9118, 69.68440
572.3939, 69.71102
572.8760, 69.65418
573.3582, 69.21408
573.8403, 69.11559
574.3224, 69.78097
574.8045, 70.60108
575.2866, 71.10071
575.7687, 71.18948
576.2509, 70.96243
576.7330, 70.30424
577.2151, 69.39614
577.6972, 69.01599
578.1793, 69.29708
578.6614, 69.52535
579.1436, 69.29831
579.6257, 68.90231
580.1078, 68.74489
580.5899, 68.84882
581.0720, 69.09436
581.5541, 69.71912
582.0363, 70.28875
582.5184, 70.08311
583.0005, 69.23216
583.4826, 68.73945
583.9647, 69.25649
584.4468, 70.40645
584.9290, 71.09439
585.4111, 71.18881
585.8932, 70.98643
586.3753, 69.91317
586.8574, 69.05793
587.3395, 69.41580
