##NAMES=Crichtonite
##RRUFFID=R060314
##IDEAL CHEMISTRY=Sr(Mn^2+^,Y^3+^,U^6+^)Fe^2+^_2_(Ti^4+^,Fe^3+^,Cr^3+^,V^5+^)_18_(O,OH)_38_
##LOCALITY=Fazenda Guariba, Minas Gerais, Brazil
##OWNER=RRUFF
##SOURCE=Michael Scott
##DESCRIPTION=Black colored rhombohedral single crystal
##STATUS=The identification of this mineral has been confirmed by X-ray diffraction.
##URL=rruff.info/R060314
90.49219, 27.84581
90.97430, 27.75000
91.45642, 27.71686
91.93854, 27.67033
92.42065, 27.71012
92.90277, 28.15687
93.38489, 29.16609
93.86700, 29.98878
94.34912, 29.37601
94.83124, 27.56763
95.31335, 25.95654
95.79547, 25.62313
96.27759, 26.26302
96.75970, 26.56085
97.24182, 26.21857
97.72394, 25.59829
98.20605, 25.49216
98.68817, 25.93782
99.17029, 26.60229
99.65240, 27.39719
100.1345, 28.36292
100.6166, 28.85194
101.0988, 28.63594
101.5809, 27.79908
102.0630, 27.05514
102.5451, 26.42633
103.0272, 25.83945
103.5093, 25.16037
103.9915, 24.28398
104.4736, 23.60646
104.9557, 23.27699
105.4378, 23.36298
105.9199, 23.41541
106.4020, 23.38427
106.8842, 23.34404
107.3663, 23.44353
107.8484, 23.90293
108.3305, 24.24566
108.8126, 24.29851
109.2947, 23.89198
109.7769, 23.47628
110.2590, 22.97305
110.7411, 22.44521
111.2232, 22.10185
111.7053, 22.27544
112.1874, 22.40273
112.6696, 22.22939
113.1517, 21.09961
113.6338, 20.34813
114.1159, 20.36842
114.5980, 21.04503
115.0801, 21.54800
115.5623, 21.72526
116.0444, 21.63260
116.5265, 21.31471
117.0086, 20.33186
117.4907, 19.51685
117.9728, 19.33044
118.4550, 19.80487
118.9371, 20.12593
119.4192, 19.77671
119.9013, 19.09905
120.3834, 18.53369
120.8655, 18.02846
121.3477, 17.84579
121.8298, 18.48319
122.3119, 20.20824
122.7940, 21.45576
123.2761, 20.39080
123.7582, 17.95143
124.2404, 16.22670
124.7225, 17.08756
125.2046, 19.02402
125.6867, 20.17489
126.1688, 20.19368
126.6509, 19.59135
127.1331, 18.38444
127.6152, 16.79209
128.0973, 15.90322
128.5794, 17.05775
129.0615, 19.48674
129.5436, 21.30567
130.0258, 21.88242
130.5079, 21.90929
130.9900, 22.67986
131.4721, 24.18691
131.9542, 25.81541
132.4363, 26.98686
132.9185, 27.77106
133.4006, 28.62249
133.8827, 29.53775
134.3648, 30.62532
134.8469, 32.40557
135.3290, 34.94225
135.8112, 37.90532
136.2933, 40.81065
136.7754, 43.63605
137.2575, 46.94081
137.7396, 51.08142
138.2217, 55.96280
138.7039, 60.67020
139.1860, 65.08525
139.6681, 69.52584
140.1502, 74.63433
140.6323, 80.51093
141.1144, 86.55457
141.5966, 92.64609
142.0787, 98.85703
142.5608, 104.6528
143.0429, 110.0198
143.5250, 114.9708
144.0071, 119.4218
144.4893, 123.0398
144.9714, 126.6364
145.4535, 130.3719
145.9356, 133.5554
146.4177, 138.4293
146.8998, 145.8642
147.3820, 155.1264
147.8641, 163.4849
148.3462, 170.2049
148.8283, 176.6080
149.3104, 183.4300
149.7925, 190.0771
150.2747, 197.8966
150.7568, 207.5688
151.2389, 218.8705
151.7210, 229.0601
152.2031, 237.5269
152.6852, 245.1596
153.1674, 252.6014
153.6495, 260.1864
154.1316, 267.1806
154.6137, 273.5298
155.0958, 279.2329
155.5779, 284.1851
156.0601, 287.6774
156.5422, 290.7366
157.0243, 294.1992
157.5064, 299.1089
157.9885, 303.6077
158.4706, 307.0541
158.9528, 309.3146
159.4349, 311.4378
159.9170, 313.1016
160.3991, 314.9443
160.8812, 317.7034
161.3633, 322.2276
161.8455, 327.2035
162.3276, 332.2439
162.8097, 337.3395
163.2918, 342.0140
163.7739, 345.2030
164.2560, 347.5396
164.7382, 348.4426
165.2203, 350.6830
165.7024, 353.9853
166.1845, 357.9254
166.6666, 362.7525
167.1487, 367.2298
167.6309, 370.7200
168.1130, 373.4384
168.5951, 375.7677
169.0772, 377.1490
169.5593, 378.6487
170.0414, 381.3651
170.5236, 386.0078
171.0057, 390.6558
171.4878, 393.9471
171.9699, 396.1592
172.4520, 398.0525
172.9341, 399.8759
173.4163, 401.7121
173.8984, 403.7705
174.3805, 406.4803
174.8626, 408.7941
175.3447, 409.3552
175.8268, 408.5028
176.3090, 407.8177
176.7911, 408.3151
177.2732, 409.6811
177.7553, 411.5560
178.2374, 414.4440
178.7195, 417.1309
179.2017, 417.4722
179.6838, 415.7257
180.1659, 414.3261
180.6480, 416.1866
181.1301, 419.8350
181.6122, 421.7844
182.0944, 420.3766
182.5765, 417.2364
183.0586, 415.0551
183.5407, 413.8563
184.0228, 412.7246
184.5049, 410.7219
184.9871, 408.0760
185.4692, 405.7107
185.9513, 404.1530
186.4334, 402.9609
186.9155, 400.8607
187.3976, 397.7863
187.8798, 394.6850
188.3619, 392.5140
188.8440, 391.1714
189.3261, 390.1663
189.8082, 389.4281
190.2903, 388.8874
190.7725, 388.3707
191.2546, 387.9152
191.7367, 387.2533
192.2188, 385.7706
192.7009, 383.5193
193.1830, 381.7970
193.6652, 381.5134
194.1473, 382.3147
194.6294, 381.7489
195.1115, 379.5107
195.5936, 376.9260
196.0757, 376.0945
196.5579, 377.0964
197.0400, 377.4935
197.5221, 375.9519
198.0042, 372.6491
198.4863, 370.2255
198.9684, 368.8626
199.4506, 368.0075
199.9327, 366.9918
200.4148, 365.8350
200.8969, 364.3322
201.3790, 362.3089
201.8611, 359.7553
202.3433, 357.1374
202.8254, 354.4402
203.3075, 351.6784
203.7896, 348.7352
204.2717, 345.4269
204.7538, 342.7381
205.2360, 341.3654
205.7181, 341.5177
206.2002, 340.9838
206.6823, 339.6158
207.1644, 337.7414
207.6465, 335.8832
208.1287, 334.0117
208.6108, 332.3288
209.0929, 330.9639
209.5750, 329.9704
210.0571, 328.9664
210.5392, 327.8136
211.0214, 326.7749
211.5035, 326.4892
211.9856, 327.1994
212.4677, 328.0104
212.9498, 328.5941
213.4319, 328.9911
213.9141, 328.9210
214.3962, 328.1476
214.8783, 327.0530
215.3604, 326.6034
215.8425, 327.0731
216.3246, 327.5443
216.8067, 327.4181
217.2889, 326.2137
217.7710, 326.1002
218.2531, 327.4220
218.7352, 329.6778
219.2173, 331.8351
219.6994, 334.1781
220.1816, 335.8789
220.6637, 336.3899
221.1458, 335.0200
221.6279, 334.4893
222.1100, 335.0806
222.5921, 336.4365
223.0743, 337.6733
223.5564, 338.7787
224.0385, 339.7920
224.5206, 340.6605
225.0027, 341.2281
225.4848, 342.1609
225.9670, 343.7022
226.4491, 345.5347
226.9312, 346.7993
227.4133, 347.1724
227.8954, 347.4875
228.3775, 348.1205
228.8597, 349.2068
229.3418, 350.3326
229.8239, 351.7402
230.3060, 353.1094
230.7881, 353.3544
231.2702, 351.4775
231.7524, 349.9692
232.2345, 350.1891
232.7166, 353.5280
233.1987, 355.2899
233.6808, 354.9505
234.1629, 353.1608
234.6451, 351.5450
235.1272, 349.9257
235.6093, 348.7797
236.0914, 348.4459
236.5735, 349.5864
237.0556, 350.0092
237.5378, 349.3289
238.0199, 348.0593
238.5020, 347.5463
238.9841, 348.2887
239.4662, 349.0543
239.9483, 349.2391
240.4305, 348.3121
240.9126, 348.0854
241.3947, 348.9091
241.8768, 350.3157
242.3589, 351.0892
242.8410, 350.6836
243.3232, 350.4650
243.8053, 351.0970
244.2874, 353.1580
244.7695, 354.6454
245.2516, 355.3832
245.7337, 355.6269
246.2159, 355.9734
246.6980, 356.6457
247.1801, 357.0759
247.6622, 357.0011
248.1443, 356.2011
248.6264, 355.5016
249.1086, 354.8134
249.5907, 354.2673
250.0728, 354.1901
250.5549, 354.8967
251.0370, 355.5392
251.5191, 355.7552
252.0013, 355.3605
252.4834, 355.1562
252.9655, 355.2939
253.4476, 355.5238
253.9297, 355.3878
254.4118, 354.8239
254.8940, 353.9918
255.3761, 352.7553
255.8582, 350.7442
256.3403, 349.8951
256.8224, 350.6878
257.3046, 352.2743
257.7867, 353.3024
258.2688, 353.8139
258.7509, 353.7059
259.2330, 352.8162
259.7151, 350.9754
260.1973, 349.3151
260.6794, 347.7409
261.1615, 346.4813
261.6436, 345.9705
262.1257, 346.4370
262.6078, 347.0934
263.0900, 347.7724
263.5721, 348.5081
264.0542, 348.9032
264.5363, 348.7408
265.0184, 348.4915
265.5005, 348.8894
265.9827, 350.2815
266.4648, 351.2733
266.9469, 351.3508
267.4290, 350.4888
267.9111, 349.8223
268.3932, 349.3261
268.8754, 349.0692
269.3575, 349.1938
269.8396, 349.8141
270.3217, 350.4164
270.8038, 350.9239
271.2859, 351.3348
271.7681, 351.3373
272.2502, 350.6413
272.7323, 350.1417
273.2144, 350.9367
273.6965, 353.2979
274.1786, 355.4920
274.6608, 357.1739
275.1429, 358.3845
275.6250, 359.5211
276.1071, 360.6627
276.5892, 361.5094
277.0714, 361.5519
277.5535, 360.6543
278.0356, 360.2441
278.5177, 360.6787
278.9998, 361.7798
279.4819, 362.8542
279.9641, 363.9261
280.4462, 364.9315
280.9283, 365.8387
281.4104, 366.6433
281.8925, 367.2837
282.3746, 367.6266
282.8568, 367.8939
283.3389, 368.7502
283.8210, 370.2350
284.3031, 371.9846
284.7852, 374.0600
285.2673, 376.3792
285.7495, 377.6371
286.2316, 377.2649
286.7137, 376.3246
287.1958, 377.3799
287.6779, 380.4956
288.1600, 383.4348
288.6422, 384.3839
289.1243, 383.7017
289.6064, 384.1252
290.0885, 386.1889
290.5706, 388.6587
291.0527, 389.4960
291.5349, 388.7824
292.0170, 387.6642
292.4991, 386.3773
292.9812, 385.1371
293.4633, 384.9617
293.9454, 386.0822
294.4276, 387.5155
294.9097, 387.7912
295.3918, 387.1342
295.8739, 386.7168
296.3560, 387.3630
296.8381, 388.6266
297.3203, 389.3318
297.8024, 389.3826
298.2845, 389.4835
298.7666, 390.8002
299.2487, 392.8505
299.7308, 394.1920
300.2130, 393.6764
300.6951, 392.2943
301.1772, 391.7113
301.6593, 391.9283
302.1414, 392.2527
302.6235, 391.8916
303.1057, 391.2136
303.5878, 390.9782
304.0699, 391.6949
304.5520, 392.7783
305.0341, 393.5438
305.5162, 394.0270
305.9984, 394.5530
306.4805, 395.5662
306.9626, 396.7049
307.4447, 397.3873
307.9268, 397.1010
308.4089, 396.7886
308.8911, 397.5756
309.3732, 399.1598
309.8553, 400.3104
310.3374, 399.7724
310.8195, 398.6841
311.3016, 398.2225
311.7838, 398.8455
312.2659, 399.6758
312.7480, 399.8952
313.2301, 399.8600
313.7122, 400.4502
314.1943, 403.0196
314.6765, 405.7738
315.1586, 407.3467
315.6407, 407.2644
316.1228, 407.0003
316.6049, 407.1357
317.0870, 407.5614
317.5692, 408.0912
318.0513, 408.5497
318.5334, 409.1784
319.0155, 410.1976
319.4976, 411.7070
319.9797, 413.0073
320.4619, 413.8859
320.9440, 414.4222
321.4261, 414.6979
321.9082, 414.2721
322.3903, 414.0305
322.8724, 414.1981
323.3546, 414.7867
323.8367, 415.7725
324.3188, 417.7403
324.8009, 419.8013
325.2830, 421.2578
325.7651, 421.7116
326.2473, 421.9451
326.7294, 421.7488
327.2115, 421.2603
327.6936, 421.5085
328.1757, 423.3291
328.6578, 425.3376
329.1400, 426.8486
329.6221, 427.2119
330.1042, 427.9332
330.5863, 429.1815
331.0684, 430.7981
331.5505, 432.2923
332.0327, 433.5410
332.5148, 434.8177
332.9969, 436.4113
333.4790, 438.9398
333.9611, 439.9019
334.4432, 438.5630
334.9254, 436.0703
335.4075, 434.4247
335.8896, 434.0209
336.3717, 433.6414
336.8538, 432.8760
337.3359, 431.6615
337.8180, 430.6831
338.3001, 429.8978
338.7823, 429.4228
339.2644, 429.4697
339.7465, 430.1455
340.2286, 430.9479
340.7107, 432.0575
341.1928, 433.2577
341.6750, 432.6425
342.1571, 429.7681
342.6392, 426.6947
343.1213, 425.3002
343.6034, 425.6216
344.0855, 425.5676
344.5677, 424.6679
345.0498, 423.3240
345.5319, 422.4961
346.0140, 422.1909
346.4961, 422.2057
346.9782, 422.8068
347.4604, 423.7470
347.9425, 423.5630
348.4246, 421.8475
348.9067, 419.8229
349.3888, 419.3966
349.8709, 420.3277
350.3531, 421.2592
350.8352, 421.3979
351.3173, 421.1015
351.7994, 420.9350
352.2815, 420.8961
352.7636, 421.2783
353.2458, 422.9520
353.7279, 425.2549
354.2100, 426.7332
354.6921, 425.8396
355.1742, 424.5266
355.6563, 425.5018
356.1385, 428.4766
356.6206, 430.5266
357.1027, 428.5453
357.5848, 424.9151
358.0669, 422.4490
358.5490, 422.3365
359.0312, 422.8876
359.5133, 423.0387
359.9954, 422.9782
360.4775, 423.2939
360.9596, 424.9584
361.4417, 426.6391
361.9239, 427.2975
362.4060, 426.3621
362.8881, 425.6105
363.3702, 425.9575
363.8523, 426.8587
364.3344, 427.4811
364.8166, 427.4778
365.2987, 427.2593
365.7808, 426.9000
366.2629, 426.3716
366.7450, 426.0191
367.2271, 426.1720
367.7093, 426.3970
368.1914, 426.3140
368.6735, 425.7921
369.1556, 425.0707
369.6377, 424.0804
370.1198, 422.8613
370.6020, 421.7936
371.0841, 420.4753
371.5662, 419.6803
372.0483, 419.8891
372.5304, 421.7729
373.0125, 423.4511
373.4947, 425.1688
373.9768, 426.5446
374.4589, 426.3759
374.9410, 423.4631
375.4231, 421.5005
375.9052, 422.4423
376.3874, 426.9353
376.8695, 428.9863
377.3516, 427.8267
377.8337, 425.5556
378.3158, 424.8890
378.7979, 426.0638
379.2801, 427.0562
379.7622, 427.2370
380.2443, 426.8135
380.7264, 426.6690
381.2085, 426.8004
381.6906, 427.2357
382.1728, 428.0374
382.6549, 429.1844
383.1370, 430.5961
383.6191, 432.4566
384.1012, 434.2408
384.5833, 434.9964
385.0655, 434.8151
385.5476, 434.4240
386.0297, 433.9585
386.5118, 433.6371
386.9939, 433.8849
387.4760, 434.7666
387.9582, 436.0128
388.4403, 437.6142
388.9224, 439.4027
389.4045, 441.0163
389.8866, 442.4174
390.3687, 443.5242
390.8509, 444.0512
391.3330, 444.0588
391.8151, 444.2375
392.2972, 445.2484
392.7793, 446.5057
393.2614, 447.4546
393.7436, 447.8924
394.2257, 448.0666
394.7078, 447.8333
395.1899, 447.3880
395.6720, 447.2437
396.1541, 447.7515
396.6363, 448.4534
397.1184, 449.1612
397.6005, 449.8785
398.0826, 450.5381
398.5647, 451.2867
399.0468, 451.9228
399.5290, 452.2008
400.0111, 451.5129
400.4932, 451.1023
400.9753, 451.0275
401.4574, 451.2943
401.9395, 452.5186
402.4217, 455.7007
402.9038, 458.7909
403.3859, 460.2779
403.8680, 459.1990
404.3501, 458.7971
404.8322, 459.3747
405.3144, 460.7198
405.7965, 462.4137
406.2786, 464.6817
406.7607, 466.5797
407.2428, 467.5375
407.7249, 467.5211
408.2071, 467.7532
408.6892, 468.2513
409.1713, 468.9413
409.6534, 469.8927
410.1355, 471.0730
410.6176, 471.8642
411.0998, 471.8503
411.5819, 471.4901
412.0640, 471.9894
412.5461, 473.3161
413.0282, 474.7575
413.5103, 475.6997
413.9925, 476.3564
414.4746, 477.1919
414.9567, 478.3151
415.4388, 479.5398
415.9209, 480.9839
416.4030, 482.4086
416.8852, 483.2592
417.3673, 482.4267
417.8494, 481.4348
418.3315, 481.7620
418.8136, 483.5038
419.2957, 485.1624
419.7779, 485.7397
420.2600, 485.8769
420.7421, 486.2079
421.2242, 487.0970
421.7063, 488.0291
422.1884, 489.0196
422.6706, 489.9717
423.1527, 490.5519
423.6348, 490.7940
424.1169, 490.5595
424.5990, 489.5716
425.0811, 486.8930
425.5633, 485.6222
426.0454, 486.7558
426.5275, 488.9602
427.0096, 490.5981
427.4917, 491.5154
427.9738, 492.0796
428.4560, 492.3521
428.9381, 492.3326
429.4202, 491.9196
429.9023, 490.8510
430.3844, 489.8714
430.8665, 489.6157
431.3487, 490.2237
431.8308, 490.7131
432.3129, 491.0566
432.7950, 491.1558
433.2771, 490.6643
433.7592, 489.5564
434.2414, 488.5133
434.7235, 487.9034
435.2056, 487.6183
435.6877, 487.2973
436.1698, 486.9532
436.6519, 486.4055
437.1341, 485.3587
437.6162, 483.9693
438.0983, 482.6344
438.5804, 481.5350
439.0625, 480.4372
439.5446, 478.7345
440.0268, 476.7068
440.5089, 475.3698
440.9910, 476.6453
441.4731, 478.1019
441.9552, 477.2615
442.4373, 473.4484
442.9195, 469.6259
443.4016, 467.3830
443.8837, 465.9583
444.3658, 464.4255
444.8479, 462.3816
445.3300, 460.3207
445.8122, 458.5072
446.2943, 456.8914
446.7764, 454.8868
447.2585, 451.5538
447.7406, 448.4656
448.2227, 446.4357
448.7049, 446.0108
449.1870, 445.6709
449.6691, 445.8935
450.1512, 445.9623
450.6333, 444.6464
451.1154, 441.3184
451.5976, 437.9002
452.0797, 434.7767
452.5618, 431.9549
453.0439, 429.8937
453.5260, 428.8178
454.0081, 427.9196
454.4903, 426.5582
454.9724, 424.7518
455.4545, 422.9311
455.9366, 421.1413
456.4187, 419.4072
456.9008, 417.7234
457.3830, 416.1023
457.8651, 414.8138
458.3472, 414.2561
458.8293, 414.0080
459.3114, 413.2097
459.7935, 411.8677
460.2757, 410.5068
460.7578, 409.5682
461.2399, 408.8788
461.7220, 408.2652
462.2041, 407.9540
462.6862, 407.2222
463.1684, 404.8789
463.6505, 401.7211
464.1326, 399.6534
464.6147, 400.5140
465.0968, 401.7596
465.5789, 402.1713
466.0611, 401.6038
466.5432, 400.5956
467.0253, 398.6992
467.5074, 396.6998
467.9895, 395.2649
468.4716, 395.1080
468.9538, 394.6011
469.4359, 393.2725
469.9180, 391.5388
470.4001, 390.8403
470.8822, 391.8363
471.3643, 392.7176
471.8465, 392.6945
472.3286, 391.6713
472.8107, 390.8065
473.2928, 390.1419
473.7749, 389.5764
474.2570, 389.0008
474.7392, 388.4185
475.2213, 387.9546
475.7034, 387.7007
476.1855, 387.5034
476.6676, 387.0714
477.1497, 386.4050
477.6319, 385.5520
478.1140, 384.2404
478.5961, 382.8411
479.0782, 381.9450
479.5603, 381.5907
480.0424, 381.6969
480.5246, 382.6391
481.0067, 383.8802
481.4888, 384.6404
481.9709, 384.1190
482.4530, 383.6964
482.9352, 384.2836
483.4173, 385.5796
483.8994, 386.6355
484.3815, 387.2400
484.8636, 387.4415
485.3457, 387.1119
485.8279, 385.9822
486.3100, 385.3326
486.7921, 385.8210
487.2742, 386.5355
487.7563, 386.6418
488.2384, 385.5396
488.7206, 384.8922
489.2027, 385.1017
489.6848, 385.8669
490.1669, 386.0554
490.6490, 385.4873
491.1311, 384.8922
491.6133, 384.4988
492.0954, 384.3108
492.5775, 384.9023
493.0596, 386.4355
493.5417, 388.0607
494.0238, 388.7630
494.5060, 388.7189
494.9881, 388.7305
495.4702, 389.0356
495.9523, 389.4239
496.4344, 389.4546
496.9165, 389.2630
497.3987, 389.3582
497.8808, 390.5199
498.3629, 391.8053
498.8450, 392.2336
499.3271, 391.7044
499.8092, 391.0119
500.2914, 390.0668
500.7735, 389.4021
501.2556, 389.5164
501.7377, 391.6574
502.2198, 393.2251
502.7019, 393.3368
503.1841, 392.4497
503.6662, 391.8260
504.1483, 392.0148
504.6304, 391.9793
505.1125, 391.2159
505.5946, 389.5945
506.0768, 389.0706
506.5589, 390.3678
507.0410, 391.7043
507.5231, 391.4388
508.0052, 389.2704
508.4873, 387.5410
508.9695, 386.5833
509.4516, 386.1036
509.9337, 385.6238
510.4158, 385.1444
510.8979, 384.6953
511.3800, 384.5358
511.8622, 384.3298
512.3443, 382.9762
512.8264, 380.5587
513.3085, 378.4737
513.7906, 378.1435
514.2728, 378.6469
514.7549, 378.8593
515.2370, 378.6348
515.7191, 377.8912
516.2012, 376.2841
516.6833, 374.1934
517.1655, 372.1763
517.6476, 370.2753
518.1297, 368.6215
518.6118, 367.3762
519.0939, 366.4995
519.5760, 365.5199
520.0582, 363.9393
520.5403, 362.6461
521.0224, 362.2142
521.5045, 363.3871
521.9866, 363.1129
522.4688, 360.6414
522.9509, 357.5428
523.4330, 355.9148
523.9151, 356.1278
524.3972, 355.7222
524.8793, 354.0478
525.3615, 351.5430
525.8436, 349.2386
526.3257, 347.1247
526.8078, 345.1526
527.2899, 343.1236
527.7720, 341.2196
528.2542, 339.9834
528.7363, 339.4587
529.2184, 339.0945
529.7005, 338.5532
530.1826, 337.8587
530.6647, 337.0743
531.1469, 336.4123
531.6290, 335.3490
532.1111, 333.1222
532.5932, 330.3195
533.0753, 328.1478
533.5574, 327.4846
534.0396, 326.9776
534.5217, 326.1366
535.0038, 324.9247
535.4859, 323.8173
535.9680, 323.0331
536.4501, 322.1569
536.9323, 320.9242
537.4144, 319.1485
537.8965, 317.4640
538.3786, 315.7993
538.8607, 314.3423
539.3428, 313.5112
539.8250, 313.3497
540.3071, 313.2110
540.7892, 313.1568
541.2713, 312.8245
541.7534, 310.9406
542.2355, 307.6566
542.7177, 304.5707
543.1998, 302.4532
543.6819, 301.2408
544.1640, 301.1531
544.6461, 302.2575
545.1282, 303.2119
545.6104, 302.9021
546.0925, 301.9845
546.5746, 301.2100
547.0567, 301.1051
547.5388, 300.7198
548.0209, 299.4180
548.5031, 297.6293
548.9852, 296.2736
549.4673, 295.9324
549.9494, 295.5651
550.4315, 294.7842
550.9136, 293.5936
551.3958, 293.0290
551.8779, 293.3901
552.3600, 293.8739
552.8421, 294.1068
553.3242, 294.1386
553.8063, 293.2221
554.2885, 291.0118
554.7706, 288.7192
555.2527, 288.2130
555.7348, 289.2188
556.2169, 290.0424
556.6990, 290.2084
557.1812, 289.8943
557.6633, 289.0927
558.1454, 287.9532
558.6275, 287.0348
559.1096, 286.8196
559.5917, 286.8545
560.0739, 286.6894
560.5560, 286.2851
561.0381, 286.2329
561.5202, 287.4340
562.0023, 288.6764
562.4844, 289.0092
562.9666, 287.0420
563.4487, 286.0779
563.9308, 286.7875
564.4129, 288.3594
564.8950, 289.6735
565.3771, 290.9559
565.8593, 291.3568
566.3414, 290.2604
566.8235, 288.1849
567.3056, 287.6694
567.7877, 288.9286
568.2698, 290.1946
568.7520, 290.2187
569.2341, 289.3627
569.7162, 288.9673
570.1983, 289.0799
570.6804, 289.5973
571.1625, 290.8450
571.6447, 292.3290
572.1268, 293.2386
572.6089, 293.3044
573.0910, 292.9515
573.5731, 292.2121
574.0552, 291.2863
574.5374, 290.5064
575.0195, 289.4080
575.5016, 289.0650
575.9837, 290.3560
576.4658, 293.0866
576.9479, 294.8384
577.4301, 295.0406
577.9122, 294.8636
578.3943, 294.8116
578.8764, 294.9605
579.3585, 294.6539
579.8406, 293.5617
580.3228, 292.7461
580.8049, 293.7486
581.2870, 296.4204
581.7691, 298.0774
582.2512, 298.0241
582.7333, 297.3050
583.2155, 297.4624
583.6976, 298.2562
584.1797, 298.9499
584.6617, 299.0748
585.1439, 299.0281
585.6260, 299.0670
586.1081, 299.2144
586.5902, 299.5884
587.0723, 300.7176
587.5544, 301.7155
