##NAMES=Crichtonite
##RRUFFID=R090006
##IDEAL CHEMISTRY=Sr(Mn^2+^,Y^3+^,U^6+^)Fe^2+^_2_(Ti^4+^,Fe^3+^,Cr^3+^,V^5+^)_18_(O,OH)_38_
##LOCALITY=Presidente Kubitschek, Minas Gerias, Brazil
##OWNER=RRUFF
##SOURCE=Luiz Menezes
##DESCRIPTION=Black poorly shaped, rounded crystals associated with quartz and rutile
##STATUS=The identification of this mineral has been confirmed only by single crystal X-ray diffraction.
##URL=rruff.info/R090006
91.62726, 0.0000000E+00
92.10938, 6.349343
92.59149, 6.679107
93.07361, 6.481648
93.55573, 5.808625
94.03784, 5.315727
94.51996, 6.075821
95.00208, 7.611215
95.48419, 8.200761
95.96631, 6.719114
96.44843, 4.028755
96.93054, 2.692392
97.41266, 2.863842
97.89478, 3.629239
98.37689, 3.857666
98.85901, 3.535290
99.34113, 3.454862
99.82324, 3.943200
100.3054, 4.995439
100.7875, 6.404106
101.2696, 8.448789
101.7517, 10.48846
102.2338, 11.27264
102.7159, 10.50225
103.1981, 9.307235
103.6802, 8.071807
104.1623, 6.574646
104.6444, 5.747054
105.1265, 5.773707
105.6086, 6.476750
106.0908, 7.222555
106.5729, 8.122479
107.0550, 8.926609
107.5371, 9.430929
108.0192, 8.932510
108.5013, 9.198592
108.9835, 10.62242
109.4656, 13.16341
109.9477, 15.55043
110.4298, 18.14955
110.9119, 20.39422
111.3940, 21.95520
111.8762, 21.24114
112.3583, 21.42130
112.8404, 23.56715
113.3225, 27.96899
113.8046, 31.37076
114.2867, 32.35815
114.7689, 32.45046
115.2510, 33.29813
115.7331, 35.93473
116.2152, 38.84090
116.6973, 41.45753
117.1794, 43.69023
117.6616, 45.80963
118.1437, 48.20046
118.6258, 50.53493
119.1079, 52.19122
119.5900, 51.57641
120.0721, 51.05789
120.5543, 52.51062
121.0364, 57.04392
121.5185, 61.52584
122.0006, 63.49950
122.4827, 63.76953
122.9648, 64.67374
123.4470, 68.29128
123.9291, 72.98254
124.4112, 76.91801
124.8933, 79.63383
125.3754, 81.54946
125.8575, 82.76341
126.3397, 83.38213
126.8218, 84.06332
127.3039, 85.28444
127.7860, 86.91136
128.2681, 88.63895
128.7502, 90.21542
129.2324, 91.97789
129.7145, 94.77116
130.1966, 98.60982
130.6787, 102.3381
131.1608, 104.9881
131.6429, 106.6046
132.1251, 107.4805
132.6072, 107.1644
133.0893, 106.1958
133.5714, 106.8054
134.0535, 109.3120
134.5356, 111.9311
135.0178, 111.6291
135.4999, 108.3106
135.9820, 106.5537
136.4641, 108.8877
136.9462, 115.1805
137.4283, 119.8112
137.9105, 122.4115
138.3926, 124.0773
138.8747, 126.5640
139.3568, 130.0435
139.8389, 133.7394
140.3210, 137.7449
140.8032, 142.5433
141.2853, 145.0104
141.7674, 144.2933
142.2495, 141.7253
142.7316, 140.3950
143.2137, 140.1564
143.6959, 139.7983
144.1780, 139.6089
144.6601, 139.5640
145.1422, 139.7335
145.6243, 140.1493
146.1064, 140.7749
146.5886, 141.5400
147.0707, 142.7654
147.5528, 143.7746
148.0349, 144.2054
148.5170, 144.0737
148.9991, 143.3774
149.4813, 141.7445
149.9634, 139.3237
150.4455, 137.6550
150.9276, 137.0441
151.4097, 136.9381
151.8918, 137.0041
152.3740, 137.5131
152.8561, 137.8792
153.3382, 138.2090
153.8203, 138.4921
154.3024, 138.1307
154.7845, 136.3400
155.2667, 134.2934
155.7488, 132.8443
156.2309, 132.7567
156.7130, 132.6485
157.1951, 132.3769
157.6772, 131.9561
158.1594, 130.9398
158.6415, 128.1990
159.1236, 125.2319
159.6057, 123.4958
160.0878, 124.6136
160.5699, 125.8937
161.0521, 126.3649
161.5342, 125.8783
162.0163, 125.3268
162.4984, 125.0159
162.9805, 124.8204
163.4626, 124.5820
163.9448, 124.3880
164.4269, 124.0320
164.9090, 123.3736
165.3911, 122.3686
165.8732, 121.2545
166.3553, 119.8637
166.8375, 118.4690
167.3196, 117.5224
167.8017, 117.7087
168.2838, 118.1135
168.7659, 117.9285
169.2480, 116.8520
169.7302, 116.0050
170.2123, 116.3756
170.6944, 117.5558
171.1765, 118.6222
171.6586, 119.3478
172.1407, 119.6197
172.6229, 119.2236
173.1050, 117.9555
173.5871, 116.5231
174.0692, 115.3350
174.5513, 114.4407
175.0334, 114.0159
175.5156, 114.3075
175.9977, 115.0938
176.4798, 116.2417
176.9619, 118.0928
177.4440, 119.5265
177.9261, 118.6552
178.4083, 115.9956
178.8904, 113.7883
179.3725, 114.0415
179.8546, 115.7269
180.3367, 116.9069
180.8188, 117.1895
181.3010, 116.9100
181.7831, 116.3341
182.2652, 115.5059
182.7473, 114.7312
183.2294, 114.3390
183.7115, 114.1865
184.1937, 113.8547
184.6758, 113.1416
185.1579, 112.3503
185.6400, 111.8403
186.1221, 111.6228
186.6042, 111.9309
187.0864, 113.6462
187.5685, 116.2860
188.0506, 117.5768
188.5327, 116.7876
189.0148, 114.6182
189.4969, 112.2112
189.9791, 109.5452
190.4612, 107.3797
190.9433, 106.6903
191.4254, 107.2891
191.9075, 107.4805
192.3896, 106.7132
192.8718, 105.3765
193.3539, 104.4290
193.8360, 103.8328
194.3181, 103.8446
194.8002, 105.1538
195.2823, 107.7236
195.7645, 109.4827
196.2466, 109.8843
196.7287, 109.1331
197.2108, 107.8138
197.6929, 105.7735
198.1750, 103.8541
198.6572, 102.9442
199.1393, 103.0874
199.6214, 103.3180
200.1035, 103.4499
200.5856, 103.4871
201.0677, 103.4915
201.5499, 103.5049
202.0320, 103.3558
202.5141, 102.7228
202.9962, 101.5021
203.4783, 100.6610
203.9604, 100.5625
204.4426, 101.0885
204.9247, 101.1638
205.4068, 100.6423
205.8889, 100.0398
206.3710, 99.96318
206.8531, 100.5626
207.3353, 100.8945
207.8174, 100.5648
208.2995, 99.66653
208.7816, 99.57140
209.2637, 100.5458
209.7458, 101.8016
210.2280, 102.5237
210.7101, 102.5958
211.1922, 102.5384
211.6743, 102.3493
212.1564, 102.0477
212.6385, 102.3287
213.1207, 103.4882
213.6028, 104.7449
214.0849, 105.2308
214.5670, 104.7036
215.0491, 104.1238
215.5313, 103.6416
216.0134, 103.2572
216.4955, 103.1293
216.9776, 103.3177
217.4597, 103.6782
217.9418, 104.1201
218.4240, 104.7558
218.9061, 105.1660
219.3882, 105.2254
219.8703, 104.9318
220.3524, 104.5604
220.8345, 103.9812
221.3167, 103.4883
221.7988, 103.3763
222.2809, 103.7118
222.7630, 104.3034
223.2451, 105.2939
223.7272, 106.7063
224.2094, 107.3421
224.6915, 106.9022
225.1736, 106.0310
225.6557, 105.3523
226.1378, 104.8571
226.6199, 104.5712
227.1021, 104.6519
227.5842, 105.1036
228.0663, 104.8978
228.5484, 103.5040
229.0305, 102.0242
229.5126, 101.5243
229.9948, 102.4199
230.4769, 103.4728
230.9590, 104.6799
231.4411, 106.0325
231.9232, 106.5147
232.4053, 105.7439
232.8875, 104.5151
233.3696, 103.4944
233.8517, 102.6887
234.3338, 102.0658
234.8159, 101.5334
235.2980, 101.0980
235.7802, 101.3574
236.2623, 102.8538
236.7444, 104.4591
237.2265, 105.2351
237.7086, 104.9044
238.1907, 104.2477
238.6729, 103.0849
239.1550, 101.4965
239.6371, 100.9467
240.1192, 101.9030
240.6013, 103.3690
241.0834, 104.6570
241.5656, 106.0469
242.0477, 106.6211
242.5298, 105.8217
243.0119, 103.8671
243.4940, 103.1085
243.9761, 104.2189
244.4583, 105.7280
244.9404, 106.6248
245.4225, 106.8067
245.9046, 106.5238
246.3867, 105.4295
246.8688, 103.7646
247.3510, 103.3550
247.8331, 105.1875
248.3152, 107.0114
248.7973, 107.2322
249.2794, 104.7220
249.7615, 103.0110
250.2437, 102.5656
250.7258, 103.1529
251.2079, 103.7476
251.6900, 104.4691
252.1721, 105.0305
252.6542, 105.2343
253.1364, 104.9080
253.6185, 104.5999
254.1006, 104.2115
254.5827, 103.8754
255.0648, 104.1255
255.5469, 105.1964
256.0291, 106.4697
256.5112, 107.7745
256.9933, 109.5674
257.4754, 110.1352
257.9575, 108.8904
258.4396, 106.5517
258.9218, 105.2207
259.4039, 105.2289
259.8860, 105.6160
260.3681, 105.9108
260.8502, 105.9407
261.3323, 106.4761
261.8145, 107.8794
262.2966, 109.5764
262.7787, 110.2701
263.2608, 109.6211
263.7429, 108.6728
264.2250, 107.6828
264.7072, 106.4349
265.1893, 106.1347
265.6714, 107.1306
266.1535, 108.7771
266.6356, 109.9390
267.1177, 110.5372
267.5999, 110.8727
268.0820, 110.9215
268.5641, 110.5741
269.0462, 110.8456
269.5283, 111.9971
270.0104, 113.4529
270.4926, 114.4466
270.9747, 114.9949
271.4568, 115.0354
271.9389, 114.2742
272.4210, 112.6580
272.9031, 112.1112
273.3853, 112.8396
273.8674, 114.2687
274.3495, 115.8531
274.8316, 117.7362
275.3137, 119.0409
275.7958, 119.3171
276.2780, 118.6700
276.7601, 118.6279
277.2422, 119.3165
277.7243, 120.2814
278.2064, 121.2252
278.6885, 122.2156
279.1707, 122.5074
279.6528, 121.5940
280.1349, 119.8408
280.6170, 119.1457
281.0991, 119.5833
281.5812, 120.7842
282.0634, 122.9011
282.5455, 126.0159
283.0276, 127.8454
283.5097, 127.5646
283.9918, 125.9498
284.4739, 125.5176
284.9561, 126.3971
285.4382, 127.5054
285.9203, 128.0066
286.4024, 127.9339
286.8845, 127.8966
287.3666, 127.9328
287.8488, 128.1073
288.3309, 128.7340
288.8130, 129.8281
289.2951, 130.6945
289.7772, 130.7417
290.2593, 130.1041
290.7415, 129.5134
291.2236, 128.9811
291.7057, 128.6714
292.1878, 129.1325
292.6699, 130.2811
293.1520, 131.0826
293.6342, 130.5848
294.1163, 129.2364
294.5984, 128.6239
295.0805, 128.9238
295.5626, 129.5316
296.0447, 129.6670
296.5269, 129.4265
297.0090, 129.2778
297.4911, 129.6631
297.9732, 130.2632
298.4553, 130.3010
298.9374, 129.7321
299.4196, 128.9939
299.9017, 128.3757
300.3838, 127.9250
300.8659, 127.7883
301.3480, 128.1347
301.8301, 128.7740
302.3123, 129.6813
302.7944, 130.8372
303.2765, 131.4928
303.7586, 130.5797
304.2407, 128.8046
304.7228, 127.4203
305.2050, 126.8673
305.6871, 126.8351
306.1692, 127.3141
306.6513, 128.1838
307.1334, 128.7001
307.6155, 127.8879
308.0977, 126.5991
308.5798, 125.9897
309.0619, 126.6516
309.5440, 127.4630
310.0261, 127.3224
310.5082, 126.5412
310.9904, 126.0681
311.4725, 127.1399
311.9546, 128.3548
312.4367, 128.2979
312.9188, 126.3770
313.4009, 124.3571
313.8831, 123.0243
314.3652, 122.3805
314.8473, 122.3986
315.3294, 123.8328
315.8115, 125.3734
316.2936, 126.2224
316.7758, 126.2565
317.2579, 125.9260
317.7400, 125.1315
318.2221, 124.1701
318.7042, 123.4036
319.1863, 122.7449
319.6685, 122.4851
320.1506, 123.0684
320.6327, 124.5219
321.1148, 125.3741
321.5969, 124.5508
322.0790, 123.2616
322.5612, 122.5006
323.0433, 123.3607
323.5254, 123.8533
324.0075, 123.0827
324.4896, 121.2864
324.9717, 120.3362
325.4539, 121.4046
325.9360, 122.7991
326.4181, 123.5672
326.9002, 123.4012
327.3823, 122.9049
327.8644, 121.6388
328.3466, 120.0000
328.8287, 119.2072
329.3108, 119.9923
329.7929, 121.0113
330.2750, 121.8117
330.7571, 122.4038
331.2393, 122.7824
331.7214, 122.9646
332.2035, 122.9252
332.6856, 122.5963
333.1677, 121.6922
333.6498, 120.9150
334.1320, 120.5638
334.6141, 120.7650
335.0962, 120.3576
335.5783, 118.8103
336.0604, 117.2070
336.5425, 116.8032
337.0247, 118.2222
337.5068, 119.2495
337.9889, 119.3171
338.4710, 118.5723
338.9531, 118.3386
339.4352, 118.7708
339.9174, 119.3588
340.3995, 119.7461
340.8816, 119.9361
341.3637, 119.8706
341.8458, 119.3744
342.3279, 118.7553
342.8101, 119.0593
343.2922, 120.4765
343.7743, 121.5331
344.2564, 121.0921
344.7385, 119.2437
345.2206, 117.8496
345.7028, 117.0158
346.1849, 116.5998
346.6670, 116.5625
347.1491, 116.8676
347.6312, 116.9596
348.1133, 116.2710
348.5955, 115.1616
349.0776, 114.9818
349.5597, 115.8004
350.0418, 116.7974
350.5239, 116.9474
351.0060, 116.5492
351.4882, 116.5973
351.9703, 117.9232
352.4524, 119.4320
352.9345, 119.0722
353.4166, 117.0483
353.8987, 115.1847
354.3809, 115.1839
354.8630, 116.1199
355.3451, 116.5710
355.8272, 116.0508
356.3093, 115.3694
356.7914, 115.2384
357.2736, 115.5286
357.7557, 115.8936
358.2378, 116.3773
358.7199, 116.7129
359.2020, 116.5630
359.6841, 115.7925
360.1663, 115.1103
360.6484, 115.2427
361.1305, 115.6365
361.6126, 115.5154
362.0947, 113.6677
362.5768, 112.0495
363.0590, 111.7353
363.5411, 112.7392
364.0232, 113.7140
364.5053, 114.4206
364.9874, 114.8114
365.4695, 114.8494
365.9517, 113.9926
366.4338, 113.3736
366.9159, 113.3954
367.3980, 113.8770
367.8801, 114.0968
368.3622, 113.7731
368.8444, 113.3165
369.3265, 112.8764
369.8086, 112.3142
370.2907, 112.0319
370.7728, 112.1550
371.2549, 112.5155
371.7371, 112.8557
372.2192, 113.2694
372.7013, 113.5345
373.1834, 113.6085
373.6655, 113.4989
374.1476, 113.1412
374.6298, 112.5427
375.1119, 111.7040
375.5940, 110.4292
376.0761, 108.3043
376.5582, 107.1797
377.0403, 107.6971
377.5225, 109.4077
378.0046, 110.3216
378.4867, 110.2934
378.9688, 109.9559
379.4509, 109.6700
379.9330, 109.4394
380.4152, 109.1272
380.8973, 108.6388
381.3794, 108.2393
381.8615, 108.6010
382.3436, 109.7017
382.8257, 110.5046
383.3079, 110.3800
383.7900, 109.5846
384.2721, 108.9781
384.7542, 108.5749
385.2363, 108.2369
385.7184, 107.7915
386.2006, 107.3004
386.6827, 106.8908
387.1648, 106.5081
387.6469, 106.3331
388.1290, 106.8502
388.6111, 107.9128
389.0933, 108.6961
389.5754, 108.3344
390.0575, 107.5373
390.5396, 107.1950
391.0217, 107.5953
391.5038, 108.0417
391.9860, 108.1677
392.4681, 107.9873
392.9502, 107.5229
393.4323, 106.2372
393.9144, 105.0949
394.3965, 104.7903
394.8787, 105.3955
395.3608, 105.9802
395.8429, 106.1940
396.3250, 106.2485
396.8071, 106.3341
397.2892, 106.8008
397.7714, 106.9692
398.2535, 106.3972
398.7356, 105.2949
399.2177, 104.6948
399.6998, 105.0779
400.1819, 105.6793
400.6641, 106.2103
401.1462, 106.8126
401.6283, 107.0318
402.1104, 106.5519
402.5925, 105.8342
403.0746, 105.6421
403.5568, 106.4655
404.0389, 106.9037
404.5210, 106.3980
405.0031, 104.9455
405.4852, 104.2457
405.9673, 104.5062
406.4495, 105.1304
406.9316, 105.7836
407.4137, 106.5608
407.8958, 106.5613
408.3779, 105.3703
408.8600, 103.6123
409.3422, 102.9816
409.8243, 103.5515
410.3064, 104.1520
410.7885, 103.8072
411.2706, 102.8488
411.7527, 103.1328
412.2349, 104.9145
412.7170, 106.8548
413.1991, 107.2006
413.6812, 106.3565
414.1633, 105.6544
414.6454, 105.7311
415.1276, 106.0915
415.6097, 106.0673
416.0918, 105.7009
416.5739, 105.3052
417.0560, 105.0109
417.5381, 104.8396
418.0203, 104.8667
418.5024, 105.2237
418.9845, 105.4751
419.4666, 105.2177
419.9487, 104.6690
420.4308, 104.2436
420.9130, 104.0140
421.3951, 104.0199
421.8772, 104.4280
422.3593, 105.2835
422.8414, 105.8583
423.3235, 105.7931
423.8057, 105.4517
424.2878, 105.1253
424.7699, 104.8597
425.2520, 104.6068
425.7341, 104.2785
426.2162, 103.9457
426.6984, 103.8736
427.1805, 104.3956
427.6626, 104.7941
428.1447, 104.7386
428.6268, 104.0305
429.1089, 103.5673
429.5911, 103.2628
430.0732, 103.2900
430.5553, 104.0287
431.0374, 105.7669
431.5195, 107.0818
432.0016, 107.6799
432.4838, 107.6005
432.9659, 106.8312
433.4480, 105.2326
433.9301, 103.8129
434.4122, 103.4316
434.8943, 103.9487
435.3765, 104.4195
435.8586, 104.8026
436.3407, 104.9578
436.8228, 104.2999
437.3049, 103.1081
437.7870, 102.5829
438.2692, 104.0453
438.7513, 106.1313
439.2334, 106.8810
439.7155, 106.3393
440.1976, 105.3119
440.6797, 103.9330
441.1619, 102.5707
441.6440, 101.6961
442.1261, 101.5929
442.6082, 101.7000
443.0903, 101.8237
443.5724, 101.9194
444.0546, 101.8904
444.5367, 101.3605
445.0188, 100.9816
445.5009, 101.1698
445.9830, 102.0434
446.4651, 102.7243
446.9473, 102.9826
447.4294, 103.0127
447.9115, 102.9739
448.3936, 102.5987
448.8757, 102.5094
449.3578, 103.0039
449.8400, 103.8257
450.3221, 104.0944
450.8042, 103.5186
451.2863, 102.8561
451.7684, 102.4194
452.2505, 102.2611
452.7327, 101.9538
453.2148, 101.3791
453.6969, 100.8805
454.1790, 101.0173
454.6611, 101.8415
455.1432, 102.3938
455.6254, 102.4268
456.1075, 102.0602
456.5896, 101.4743
457.0717, 100.6720
457.5538, 100.0307
458.0359, 99.76889
458.5181, 99.85130
459.0002, 100.4181
459.4823, 101.5913
459.9644, 102.4329
460.4465, 101.4923
460.9286, 99.58870
461.4108, 98.30096
461.8929, 98.58042
462.3750, 99.40686
462.8571, 100.1990
463.3392, 100.9430
463.8214, 101.5330
464.3035, 102.0840
464.7856, 102.3636
465.2677, 102.0567
465.7498, 100.6847
466.2319, 99.95409
466.7141, 100.8282
467.1962, 102.3941
467.6783, 103.4927
468.1604, 104.0294
468.6425, 104.0075
469.1246, 102.9714
469.6068, 101.0894
470.0889, 100.5187
470.5710, 102.2598
471.0531, 103.9446
471.5352, 104.1391
472.0173, 102.2587
472.4995, 101.0338
472.9816, 100.6252
473.4637, 100.7131
473.9458, 100.8862
474.4279, 101.1567
474.9100, 101.3570
475.3922, 101.4943
475.8743, 101.4995
476.3564, 101.0266
476.8385, 100.0818
477.3206, 99.20964
477.8027, 98.90727
478.2849, 98.96922
478.7670, 98.97441
479.2491, 98.85612
479.7312, 98.71933
480.2133, 98.62521
480.6954, 98.58640
481.1776, 98.62752
481.6597, 98.86298
482.1418, 99.09215
482.6239, 99.11012
483.1060, 98.96346
483.5881, 98.98109
484.0703, 99.47835
484.5524, 100.0483
485.0345, 100.4877
485.5166, 100.8987
485.9987, 100.8766
486.4808, 99.88516
486.9630, 98.58999
487.4451, 97.91038
487.9272, 98.35695
488.4093, 98.69874
488.8914, 98.64449
489.3735, 98.26357
489.8557, 98.20512
490.3378, 98.60806
490.8199, 99.02132
491.3020, 99.23180
491.7841, 99.25291
492.2662, 98.83314
492.7484, 97.82431
493.2305, 96.75698
493.7126, 96.38964
494.1947, 96.65964
494.6768, 97.17531
495.1589, 97.93172
495.6411, 98.74625
496.1232, 99.32097
496.6053, 99.66399
497.0874, 99.79000
497.5695, 99.34248
498.0516, 98.86478
498.5338, 99.16636
499.0159, 100.4945
499.4980, 101.5735
499.9801, 101.6158
500.4622, 100.9817
500.9443, 100.0941
501.4265, 98.46745
501.9086, 97.28068
502.3907, 97.07703
502.8728, 97.65328
503.3549, 98.14133
503.8370, 98.06800
504.3192, 98.23543
504.8013, 99.15565
505.2834, 101.2753
505.7655, 102.0547
506.2476, 100.6635
506.7297, 98.87115
507.2119, 98.52475
507.6940, 100.0609
508.1761, 101.2646
508.6582, 101.7937
509.1403, 101.8289
509.6224, 101.7647
510.1046, 101.6006
510.5867, 101.3363
511.0688, 100.6871
511.5509, 99.94424
512.0330, 100.2886
512.5151, 101.7536
512.9973, 102.9727
513.4794, 102.3415
513.9615, 100.8218
514.4436, 99.94861
514.9257, 100.1925
515.4078, 100.8680
515.8900, 101.7275
516.3721, 102.6434
516.8542, 103.3752
517.3363, 103.8943
517.8184, 104.1641
518.3005, 104.0806
518.7827, 103.6535
519.2648, 103.2689
519.7469, 102.7525
520.2290, 102.4816
520.7111, 102.7262
521.1932, 104.0556
521.6754, 104.6692
522.1575, 104.1988
522.6396, 103.3179
523.1217, 103.0546
523.6038, 103.6267
524.0859, 103.9885
524.5681, 103.8151
525.0502, 103.2772
525.5323, 102.9002
526.0144, 102.6774
526.4965, 102.7293
526.9786, 103.2449
527.4608, 104.0958
527.9429, 104.9070
528.4250, 105.6644
528.9071, 106.3842
529.3892, 107.2047
529.8713, 107.9781
530.3535, 108.4488
530.8356, 108.5371
531.3177, 108.3216
531.7998, 107.6626
532.2819, 106.7273
532.7640, 105.9468
533.2462, 105.3091
533.7283, 104.9850
534.2104, 105.1148
534.6925, 105.7400
535.1746, 106.3892
535.6567, 107.0952
536.1389, 107.7533
536.6210, 108.2719
537.1031, 108.5525
537.5852, 108.9783
538.0673, 109.7579
538.5494, 110.4961
539.0316, 110.3379
539.5137, 109.0780
539.9958, 108.3880
540.4779, 109.0770
540.9600, 110.5141
541.4421, 110.5959
541.9243, 109.3817
542.4064, 108.1897
542.8885, 107.9311
543.3706, 108.3085
543.8527, 108.8190
544.3348, 109.4241
544.8170, 110.1142
545.2991, 111.2264
545.7812, 112.2942
546.2633, 112.7258
546.7454, 111.9864
547.2275, 111.0497
547.7097, 109.9177
548.1918, 108.8825
548.6739, 108.6362
549.1560, 110.4169
549.6381, 111.9046
550.1202, 112.2871
550.6024, 111.5342
551.0845, 110.7590
551.5666, 109.7332
552.0487, 108.9908
552.5308, 109.0948
553.0129, 110.3639
553.4951, 110.6019
553.9772, 109.4434
554.4593, 107.8405
554.9414, 107.0090
555.4235, 106.9275
555.9056, 107.4662
556.3878, 109.0257
556.8699, 110.6596
557.3520, 110.4331
557.8341, 108.7301
558.3162, 107.2097
558.7983, 106.8340
559.2805, 107.1062
559.7626, 107.8698
560.2447, 109.1190
560.7268, 109.7434
561.2089, 108.4733
561.6910, 106.8068
562.1732, 105.9850
562.6553, 107.1872
563.1374, 107.7537
563.6195, 106.6842
564.1016, 105.0011
564.5837, 104.2058
565.0659, 104.5452
565.5480, 105.3665
566.0301, 106.8585
566.5122, 108.7271
566.9943, 109.3155
567.4764, 108.4134
567.9586, 107.2242
568.4407, 106.2810
568.9228, 105.6137
569.4049, 105.5331
569.8870, 106.0973
570.3691, 106.6559
570.8513, 106.4061
571.3334, 105.7185
571.8155, 105.3577
572.2976, 105.6103
572.7797, 105.9337
573.2618, 105.9566
573.7440, 105.7597
574.2261, 105.4893
574.7082, 104.9249
575.1903, 104.5668
575.6724, 104.8027
576.1545, 105.5383
576.6367, 105.9254
577.1188, 105.7250
577.6009, 105.3262
578.0830, 104.8529
578.5651, 104.2968
579.0472, 103.7041
579.5294, 102.9981
580.0115, 102.3829
580.4936, 102.0447
580.9757, 101.9832
581.4578, 102.1329
581.9399, 102.5489
582.4221, 103.0186
582.9042, 103.1039
583.3863, 102.9229
583.8684, 102.9663
584.3505, 103.7028
584.8326, 104.5662
585.3148, 104.8765
585.7969, 104.7454
586.2790, 104.6736
586.7611, 105.1579
587.2432, 105.6128
