##NAMES=Cristobalite
##RRUFFID=R060648
##IDEAL CHEMISTRY=SiO_2_
##LOCALITY=Idaho, USA
##OWNER=RRUFF
##SOURCE=Gemological Institute of America
##DESCRIPTION=Blue cryptocrystalline massive, variety opal
##STATUS=The identification of this mineral has been confirmed by X-ray diffraction and chemical analysis
##URL=rruff.info/R060648
##MEASURED CHEMISTRY=Si_1.00_O_2_
142.253, 5811.822
142.735, 5821.294
143.217, 5842.076
143.699, 5860.433
144.181, 5876.725
144.663, 5890.315
145.145, 5899.999
145.628, 5899.604
146.110, 5908.518
146.592, 5934.631
147.074, 5970.482
147.556, 5988.087
148.038, 5970.402
148.520, 5949.157
149.002, 5940.521
149.484, 5952.083
149.967, 5966.197
150.449, 5984.219
150.931, 6005.937
151.413, 6022.340
151.895, 6029.780
152.377, 6034.255
152.859, 6039.947
153.342, 6042.395
153.824, 6051.521
154.306, 6073.851
154.788, 6112.718
155.270, 6141.865
155.752, 6155.424
156.234, 6159.158
156.716, 6159.748
157.198, 6144.904
157.680, 6138.754
158.163, 6154.716
158.645, 6204.654
159.127, 6243.080
159.609, 6242.790
160.091, 6223.309
160.573, 6220.604
161.055, 6259.168
161.538, 6308.758
162.020, 6354.067
162.502, 6397.305
162.984, 6426.108
163.466, 6420.664
163.948, 6392.382
164.430, 6379.221
164.912, 6415.216
165.394, 6465.921
165.876, 6502.439
166.359, 6503.653
166.841, 6501.900
167.323, 6519.223
167.805, 6553.296
168.287, 6583.848
168.769, 6599.069
169.251, 6603.859
169.733, 6604.180
170.216, 6595.327
170.698, 6587.602
171.180, 6587.839
171.662, 6596.255
172.144, 6614.255
172.626, 6654.864
173.108, 6705.419
173.590, 6743.214
174.072, 6744.145
174.555, 6732.837
175.037, 6738.221
175.519, 6763.752
176.001, 6796.791
176.483, 6824.486
176.965, 6849.384
177.447, 6878.558
177.929, 6927.422
178.412, 6980.578
178.894, 7007.443
179.376, 6995.440
179.858, 6977.563
180.340, 7001.340
180.822, 7060.581
181.304, 7117.375
181.786, 7135.778
182.268, 7132.464
182.751, 7150.603
183.233, 7205.162
183.715, 7275.360
184.197, 7322.555
184.679, 7347.853
185.161, 7373.757
185.643, 7425.991
186.125, 7496.395
186.607, 7552.637
187.090, 7573.940
187.572, 7582.012
188.054, 7640.687
188.536, 7753.726
189.018, 7867.113
189.500, 7921.550
189.982, 7922.172
190.464, 7916.705
190.947, 7914.165
191.429, 7917.004
191.911, 7937.868
192.393, 7978.932
192.875, 8028.628
193.357, 8072.391
193.839, 8109.761
194.321, 8154.457
194.803, 8223.280
195.286, 8311.534
195.768, 8358.472
196.250, 8352.026
196.732, 8333.518
197.214, 8369.855
197.696, 8466.608
198.178, 8569.421
198.661, 8654.628
199.143, 8722.097
199.625, 8791.181
200.107, 8862.586
200.589, 8936.911
201.071, 9017.043
201.553, 9104.527
202.035, 9191.967
202.517, 9274.622
202.999, 9351.394
203.482, 9434.184
203.964, 9525.068
204.446, 9621.049
204.928, 9711.069
205.410, 9789.965
205.892, 9878.330
206.374, 9993.797
206.857, 10143.560
207.339, 10278.610
207.821, 10387.140
208.303, 10477.870
208.785, 10590.260
209.267, 10731.080
209.749, 10879.820
210.231, 11020.210
210.713, 11149.620
211.195, 11284.710
211.678, 11423.670
212.160, 11570.170
212.642, 11747.460
213.124, 11964.100
213.606, 12200.520
214.088, 12438.290
214.570, 12680.240
215.052, 12921.510
215.535, 13157.640
216.017, 13390.590
216.499, 13650.830
216.981, 13946.620
217.463, 14260.290
217.945, 14573.970
218.427, 14872.860
218.909, 15193.100
219.391, 15543.760
219.874, 15928.020
220.356, 16303.670
220.838, 16659.770
221.320, 17014.570
221.802, 17386.650
222.284, 17782.180
222.766, 18180.590
223.248, 18578.279
223.731, 18984.119
224.213, 19353.609
224.695, 19682.500
225.177, 19982.471
225.659, 20279.891
226.141, 20589.789
226.623, 20867.029
227.105, 21100.270
227.587, 21290.359
228.070, 21431.020
228.552, 21521.279
229.034, 21561.010
229.516, 21547.891
229.998, 21477.641
230.480, 21360.430
230.962, 21202.090
231.444, 21010.850
231.926, 20749.359
232.409, 20394.881
232.891, 19983.160
233.373, 19581.971
233.855, 19210.230
234.337, 18823.529
234.819, 18400.971
235.301, 17921.150
235.783, 17445.920
236.266, 16961.359
236.748, 16486.090
237.230, 16070.950
237.712, 15743.000
238.194, 15428.050
238.676, 15098.470
239.158, 14749.500
239.640, 14390.370
240.122, 14007.670
240.605, 13617.450
241.087, 13266.920
241.569, 12958.690
242.051, 12680.070
242.533, 12429.690
243.015, 12216.520
243.497, 12008.350
243.980, 11805.670
244.462, 11607.080
244.944, 11406.150
245.426, 11192.120
245.908, 10989.780
246.390, 10810.910
246.872, 10658.450
247.354, 10526.700
247.836, 10423.940
248.318, 10341.970
248.801, 10249.960
249.283, 10140.600
249.765, 10031.230
250.247, 9932.450
250.729, 9852.111
251.211, 9765.964
251.693, 9668.097
252.176, 9563.711
252.658, 9479.082
253.140, 9424.296
253.622, 9375.503
254.104, 9315.597
254.586, 9234.364
255.068, 9171.624
255.550, 9141.184
256.032, 9133.354
256.514, 9096.764
256.997, 9011.653
257.479, 8927.965
257.961, 8879.833
258.443, 8882.889
258.925, 8880.428
259.407, 8865.385
259.889, 8840.165
260.371, 8816.101
260.854, 8790.261
261.336, 8769.640
261.818, 8759.309
262.300, 8761.767
262.782, 8766.794
263.264, 8773.694
263.746, 8782.124
264.228, 8790.549
264.711, 8799.104
265.193, 8807.222
265.675, 8814.121
266.157, 8818.759
266.639, 8826.063
267.121, 8838.428
267.603, 8853.848
268.085, 8861.633
268.567, 8858.865
269.050, 8855.314
269.532, 8858.215
270.014, 8868.668
270.496, 8882.226
270.978, 8902.012
271.460, 8923.894
271.942, 8928.335
272.424, 8911.103
272.906, 8888.254
273.389, 8871.727
273.871, 8863.166
274.353, 8852.054
274.835, 8837.561
275.317, 8819.540
275.799, 8795.035
276.281, 8761.680
276.763, 8730.186
277.246, 8710.661
277.728, 8704.422
278.210, 8693.048
278.692, 8671.726
279.174, 8644.511
279.656, 8622.041
280.138, 8603.358
280.620, 8593.556
281.103, 8599.387
281.585, 8620.962
282.067, 8638.464
282.549, 8641.135
283.031, 8644.559
283.513, 8705.602
283.995, 8832.059
284.477, 8945.765
284.959, 8986.304
285.441, 8957.632
285.924, 8915.693
286.406, 8868.869
286.888, 8812.606
287.370, 8734.671
287.852, 8634.453
288.334, 8526.869
288.816, 8417.338
289.298, 8308.222
289.781, 8206.586
290.263, 8111.886
290.745, 8027.302
291.227, 7958.896
291.709, 7906.063
292.191, 7870.251
292.673, 7863.972
293.155, 7877.275
293.638, 7872.681
294.120, 7841.137
294.602, 7798.356
295.084, 7768.718
295.566, 7751.004
296.048, 7733.641
296.530, 7704.920
297.012, 7671.307
297.494, 7650.865
297.977, 7649.325
298.459, 7652.381
298.941, 7639.694
299.423, 7614.578
299.905, 7591.741
300.387, 7583.192
300.869, 7581.658
301.351, 7572.629
301.833, 7551.457
302.316, 7532.044
302.798, 7534.766
303.280, 7552.182
303.762, 7562.955
304.244, 7542.160
304.726, 7512.799
305.208, 7508.801
305.690, 7538.678
306.172, 7567.009
306.655, 7552.946
307.137, 7513.646
307.619, 7486.806
308.101, 7507.252
308.583, 7539.337
309.065, 7548.086
309.547, 7527.870
310.030, 7505.772
310.512, 7495.830
310.994, 7469.161
311.476, 7477.383
311.958, 7477.137
312.440, 7468.876
312.922, 7428.595
313.404, 7429.662
313.886, 7414.158
314.369, 7397.973
314.851, 7404.858
315.333, 7369.235
315.815, 7375.754
316.297, 7362.371
316.779, 7357.554
317.261, 7387.237
317.743, 7410.321
318.225, 7401.625
318.708, 7382.393
319.190, 7374.194
319.672, 7394.866
320.154, 7415.827
320.636, 7430.424
321.118, 7438.390
321.600, 7437.666
322.082, 7420.938
322.565, 7398.776
323.047, 7379.509
323.529, 7357.828
324.011, 7345.695
324.493, 7349.091
324.975, 7366.492
325.457, 7381.680
325.939, 7387.276
326.422, 7393.721
326.904, 7407.187
327.386, 7445.854
327.868, 7470.138
328.350, 7468.457
328.832, 7447.307
329.314, 7440.905
329.796, 7465.898
330.278, 7490.690
330.760, 7498.391
331.243, 7466.838
331.725, 7457.115
332.207, 7484.242
332.689, 7532.830
333.171, 7555.113
333.653, 7535.403
334.135, 7513.082
334.617, 7505.462
335.100, 7517.321
335.582, 7531.512
336.064, 7551.377
336.546, 7571.371
337.028, 7579.451
337.510, 7572.444
337.992, 7561.761
338.474, 7548.831
338.957, 7531.945
339.439, 7528.557
339.921, 7541.031
340.403, 7562.453
340.885, 7585.421
341.367, 7611.288
341.849, 7629.167
342.331, 7633.751
342.813, 7626.219
343.296, 7616.388
343.778, 7603.024
344.260, 7592.965
344.742, 7592.761
345.224, 7602.625
345.706, 7624.514
346.188, 7667.294
346.670, 7720.340
347.152, 7751.916
347.635, 7761.635
348.117, 7761.175
348.599, 7752.449
349.081, 7740.270
349.563, 7742.574
350.045, 7768.207
350.527, 7805.333
351.009, 7837.173
351.491, 7863.673
351.974, 7884.777
352.456, 7895.748
352.938, 7902.141
353.420, 7914.270
353.902, 7936.218
354.384, 7959.936
354.866, 7978.012
355.349, 7991.165
355.831, 8002.215
356.313, 8007.040
356.795, 8013.804
357.277, 8033.533
357.759, 8073.218
358.241, 8108.443
358.723, 8119.763
359.205, 8116.203
359.688, 8114.463
360.170, 8110.302
360.652, 8118.459
361.134, 8153.945
361.616, 8222.780
362.098, 8283.691
362.580, 8318.461
363.062, 8337.399
363.544, 8353.092
364.027, 8357.490
364.509, 8369.532
364.991, 8404.089
365.473, 8462.835
365.955, 8499.213
366.437, 8477.235
366.919, 8445.914
367.401, 8442.999
367.884, 8504.588
368.366, 8557.409
368.848, 8594.070
369.330, 8615.436
369.812, 8628.298
370.294, 8619.120
370.776, 8614.217
371.258, 8629.494
371.741, 8686.251
372.223, 8721.529
372.705, 8720.430
373.187, 8699.646
373.669, 8707.183
374.151, 8756.657
374.633, 8807.847
375.115, 8841.779
375.597, 8852.592
376.079, 8875.154
376.562, 8915.022
377.044, 8958.867
377.526, 8980.695
378.008, 8975.926
378.490, 8980.148
378.972, 9013.471
379.454, 9069.999
379.936, 9101.500
380.419, 9103.313
380.901, 9101.562
381.383, 9127.291
381.865, 9177.716
382.347, 9226.612
382.829, 9267.659
383.311, 9302.894
383.793, 9331.054
384.276, 9352.922
384.758, 9386.184
385.240, 9454.452
385.722, 9542.910
386.204, 9621.415
386.686, 9681.771
387.168, 9731.461
387.650, 9768.290
388.132, 9798.931
388.615, 9847.775
389.097, 9949.783
389.579, 10066.530
390.061, 10156.210
390.543, 10207.420
391.025, 10255.790
391.507, 10320.300
391.989, 10397.430
392.471, 10481.190
392.954, 10569.970
393.436, 10665.740
393.918, 10772.090
394.400, 10890.100
394.882, 11009.110
395.364, 11114.130
395.846, 11222.990
396.328, 11352.640
396.810, 11524.270
397.293, 11697.010
397.775, 11857.370
398.257, 12007.940
398.739, 12176.170
399.221, 12371.580
399.703, 12577.260
400.185, 12784.470
400.668, 12989.390
401.150, 13200.260
401.632, 13408.000
402.114, 13623.490
402.596, 13874.760
403.078, 14172.240
403.560, 14488.780
404.042, 14822.510
404.524, 15174.690
405.007, 15510.810
405.489, 15815.710
405.971, 16128.550
406.453, 16510.449
406.935, 16972.641
407.417, 17436.480
407.899, 17874.619
408.381, 18296.480
408.863, 18734.930
409.346, 19191.680
409.828, 19664.600
410.310, 20170.301
410.792, 20702.170
411.274, 21214.699
411.756, 21696.400
412.238, 22156.570
412.720, 22608.939
413.203, 23048.490
413.685, 23469.449
414.167, 23894.789
414.649, 24289.471
415.131, 24609.240
415.613, 24854.141
416.095, 25011.381
416.577, 25072.369
417.060, 25039.900
417.542, 24920.330
418.024, 24700.240
418.506, 24404.340
418.988, 24047.561
419.470, 23626.660
419.952, 23162.811
420.434, 22640.230
420.916, 22088.350
421.398, 21524.480
421.881, 20957.301
422.363, 20380.869
422.845, 19779.961
423.327, 19166.789
423.809, 18594.980
424.291, 18089.480
424.773, 17611.850
425.255, 17149.141
425.738, 16700.529
426.220, 16270.690
426.702, 15854.890
427.184, 15465.360
427.666, 15111.560
428.148, 14808.030
428.630, 14514.790
429.112, 14216.650
429.595, 13910.750
430.077, 13644.490
430.559, 13422.740
431.041, 13228.540
431.523, 13042.990
432.005, 12866.790
432.487, 12701.410
432.969, 12550.060
433.451, 12406.830
433.934, 12253.280
434.416, 12089.760
434.898, 11936.300
435.380, 11810.090
435.862, 11704.080
436.344, 11602.070
436.826, 11504.720
437.308, 11401.660
437.790, 11268.410
438.273, 11118.910
438.755, 10990.590
439.237, 10908.280
439.719, 10847.980
440.201, 10794.090
440.683, 10745.450
441.165, 10689.790
441.647, 10618.290
442.129, 10536.440
442.612, 10449.000
443.094, 10341.480
443.576, 10249.340
444.058, 10197.450
444.540, 10171.960
445.022, 10132.990
445.504, 10064.210
445.987, 9986.148
446.469, 9904.721
446.951, 9816.608
447.433, 9737.487
447.915, 9671.060
448.397, 9612.844
448.879, 9557.826
449.361, 9504.425
449.843, 9457.393
450.326, 9419.642
450.808, 9390.090
451.290, 9353.790
451.772, 9307.229
452.254, 9261.266
452.736, 9220.882
453.218, 9184.855
453.700, 9149.859
454.182, 9138.262
454.665, 9120.987
455.147, 9098.339
455.629, 9054.210
456.111, 9037.813
456.593, 9010.305
457.075, 8982.342
457.557, 8969.852
458.039, 8928.848
458.522, 8916.112
459.004, 8890.022
459.486, 8872.201
459.968, 8857.880
460.450, 8833.365
460.932, 8810.549
461.414, 8786.594
461.896, 8735.947
462.379, 8755.379
462.861, 8757.803
463.343, 8744.128
463.825, 8666.146
464.307, 8671.205
464.789, 8642.980
465.271, 8631.234
465.753, 8625.126
466.235, 8618.848
466.717, 8599.549
467.200, 8583.857
467.682, 8580.212
468.164, 8587.968
468.646, 8580.153
469.128, 8548.852
469.610, 8510.311
470.092, 8472.974
470.574, 8433.896
471.057, 8404.327
471.539, 8385.939
472.021, 8375.715
472.503, 8370.958
472.985, 8373.716
473.467, 8367.325
473.949, 8338.369
474.431, 8292.471
474.914, 8265.064
475.396, 8257.092
475.878, 8256.825
476.360, 8259.702
476.842, 8262.031
477.324, 8251.215
477.806, 8218.639
478.288, 8181.284
478.770, 8155.046
479.253, 8139.699
479.735, 8133.996
480.217, 8144.687
480.699, 8160.308
481.181, 8175.321
481.663, 8191.138
482.145, 8190.797
482.627, 8148.772
483.109, 8093.128
483.592, 8054.009
484.074, 8038.572
484.556, 8039.884
485.038, 8066.673
485.520, 8031.312
486.002, 8062.174
486.484, 8076.960
486.966, 8076.536
487.448, 8015.342
487.931, 8032.618
488.413, 8018.447
488.895, 8002.987
489.377, 8031.309
489.859, 7978.954
490.341, 8006.582
490.823, 8002.280
491.306, 7990.579
491.788, 7980.878
492.270, 7956.295
492.752, 7915.606
493.234, 7881.661
493.716, 7876.195
494.198, 7892.000
494.680, 7907.134
495.162, 7919.114
495.645, 7928.951
496.127, 7943.217
496.609, 7956.256
497.091, 7955.564
497.573, 7911.041
498.055, 7868.368
498.537, 7873.458
499.019, 7922.189
499.501, 7955.809
499.984, 7931.945
500.466, 7891.916
500.948, 7866.897
501.430, 7875.866
501.912, 7878.796
502.394, 7859.249
502.876, 7830.763
503.358, 7819.858
503.841, 7845.850
504.323, 7865.330
504.805, 7864.470
505.287, 7842.304
505.769, 7831.073
506.251, 7833.304
506.733, 7841.337
507.215, 7850.211
507.698, 7859.901
508.180, 7869.455
508.662, 7879.689
509.144, 7888.006
509.626, 7888.300
510.108, 7881.245
510.590, 7874.280
511.072, 7875.024
511.554, 7877.155
512.036, 7865.805
512.519, 7841.413
513.001, 7817.640
513.483, 7800.826
513.965, 7792.516
514.447, 7795.977
514.929, 7818.844
515.411, 7840.367
515.893, 7844.817
516.375, 7840.155
516.858, 7842.463
517.340, 7869.166
517.822, 7891.834
518.304, 7899.655
518.786, 7890.886
519.268, 7877.021
519.750, 7843.342
520.232, 7817.669
520.715, 7821.744
521.197, 7876.739
521.679, 7911.914
522.161, 7917.190
522.643, 7905.249
523.125, 7902.909
523.607, 7912.240
524.089, 7918.783
524.571, 7918.333
525.054, 7910.646
525.536, 7888.582
526.018, 7851.219
526.500, 7820.439
526.982, 7817.929
527.464, 7835.171
527.946, 7856.184
528.429, 7882.350
528.911, 7899.467
529.393, 7884.360
529.875, 7850.794
530.357, 7826.739
530.839, 7832.129
531.321, 7842.987
531.803, 7847.951
532.286, 7846.646
532.768, 7842.639
533.250, 7830.735
533.732, 7820.847
534.214, 7819.508
534.696, 7837.322
535.178, 7846.779
535.660, 7843.816
536.142, 7834.873
536.625, 7830.764
537.107, 7834.807
537.589, 7834.753
538.071, 7825.707
538.553, 7810.014
539.035, 7798.997
539.517, 7792.715
539.999, 7791.336
540.481, 7794.151
540.964, 7801.768
541.446, 7819.522
541.928, 7850.196
542.410, 7879.068
542.892, 7890.024
543.374, 7887.380
543.856, 7879.791
544.338, 7857.604
544.820, 7842.902
545.303, 7852.131
545.785, 7822.386
546.267, 7858.322
546.749, 7878.315
547.231, 7883.221
547.713, 7827.853
548.195, 7850.316
548.677, 7841.588
549.159, 7831.582
549.642, 7864.999
550.124, 7818.398
550.606, 7851.127
551.088, 7852.189
551.570, 7867.744
552.052, 7845.432
552.534, 7857.721
553.016, 7835.708
553.499, 7821.692
553.981, 7846.878
554.463, 7900.096
554.945, 7925.492
555.427, 7921.957
555.909, 7906.399
556.391, 7887.124
556.873, 7868.157
557.356, 7858.339
557.838, 7862.448
558.320, 7870.408
558.802, 7864.006
559.284, 7856.303
559.766, 7818.375
560.248, 7872.646
560.730, 7904.536
561.213, 7915.250
561.695, 7841.353
562.177, 7876.711
562.659, 7868.285
563.141, 7858.063
563.623, 7908.799
564.105, 7847.209
564.587, 7890.999
565.069, 7899.651
565.552, 7900.295
566.034, 7894.733
566.516, 7880.856
566.998, 7879.862
567.480, 7902.859
567.962, 7938.488
568.444, 7956.598
568.926, 7958.117
569.408, 7953.770
569.891, 7942.916
570.373, 7933.503
570.855, 7941.599
571.337, 7969.864
571.819, 7994.393
572.301, 8002.146
572.783, 7995.467
573.265, 7975.827
573.747, 7919.580
574.230, 7881.854
574.712, 7888.457
575.194, 7924.463
575.676, 7952.599
576.158, 7971.366
576.640, 7980.421
577.122, 7978.387
577.604, 7965.426
578.086, 7947.162
578.569, 7917.771
579.051, 7896.791
579.533, 7907.746
580.015, 7950.505
580.497, 7964.289
580.979, 7939.155
581.461, 7903.444
581.943, 7883.497
582.426, 7882.236
582.908, 7858.147
583.390, 7910.847
583.872, 7944.908
584.354, 7961.333
584.836, 7907.288
585.318, 7944.237
585.800, 7944.721
586.282, 7943.707
586.765, 7993.463
587.247, 7949.671
587.729, 7998.621
588.211, 8010.549
588.693, 8013.897
589.175, 8024.083
589.657, 8044.749
590.140, 8056.908
590.622, 8058.027
591.104, 8051.678
591.586, 8042.411
592.068, 8028.899
592.550, 8022.518
593.032, 8033.122
593.514, 8050.527
593.996, 8037.943
594.479, 7997.587
594.961, 7964.534
595.443, 7970.308
595.925, 7995.900
596.407, 8014.410
596.889, 8022.790
597.371, 8027.721
597.853, 8036.539
598.335, 8042.793
598.818, 8039.489
599.300, 8011.695
599.782, 7990.082
600.264, 7983.523
600.746, 7987.762
601.228, 7992.000
601.710, 7992.708
602.192, 7999.143
602.674, 8018.933
603.157, 8049.557
603.639, 8052.672
604.121, 8020.651
604.603, 7991.885
605.085, 7999.062
605.567, 8035.405
606.049, 8058.662
606.531, 8064.946
607.013, 8066.723
607.496, 8075.359
607.978, 8089.293
608.460, 8106.861
608.942, 8135.758
609.424, 8155.481
609.906, 8138.775
610.388, 8102.769
610.870, 8086.364
611.353, 8124.735
611.835, 8162.141
612.317, 8180.226
612.799, 8177.956
613.281, 8167.270
613.763, 8138.399
614.245, 8113.932
614.727, 8108.100
615.209, 8125.125
615.692, 8139.354
616.174, 8151.599
616.656, 8158.490
617.138, 8152.804
617.620, 8136.802
618.102, 8121.399
618.584, 8105.271
619.067, 8098.229
619.549, 8124.393
620.031, 8170.366
620.513, 8201.505
620.995, 8189.614
621.477, 8167.871
621.959, 8152.232
622.441, 8143.608
622.923, 8144.641
623.406, 8164.946
623.888, 8187.532
624.370, 8203.492
624.852, 8210.117
625.334, 8218.294
625.816, 8183.381
626.298, 8227.186
626.780, 8251.882
627.263, 8258.497
627.745, 8192.876
628.227, 8220.533
628.709, 8210.809
629.191, 8199.552
629.673, 8240.337
630.155, 8185.223
630.637, 8225.183
631.119, 8227.191
631.602, 8246.569
632.084, 8228.335
632.566, 8221.718
633.048, 8252.725
633.530, 8262.899
634.012, 8240.335
634.494, 8260.816
634.976, 8204.389
635.458, 8215.450
635.941, 8255.631
636.423, 8234.957
636.905, 8256.127
637.387, 8261.360
637.869, 8194.171
638.351, 8252.933
638.833, 8257.225
639.315, 8205.588
639.797, 8260.034
640.280, 8216.107
640.762, 8207.295
641.244, 8224.906
641.726, 8214.971
642.208, 8248.466
642.690, 8240.121
643.172, 8228.038
643.654, 8232.269
644.137, 8224.620
644.619, 8221.331
645.101, 8196.760
645.583, 8181.057
646.065, 8198.563
646.547, 8276.409
647.029, 8310.618
647.511, 8279.925
647.994, 8231.919
648.476, 8219.120
648.958, 8245.153
649.440, 8265.876
649.922, 8271.909
650.404, 8274.306
650.886, 8295.363
651.368, 8330.383
651.851, 8360.249
652.333, 8380.306
652.815, 8388.357
653.297, 8373.616
653.779, 8342.307
654.261, 8319.732
654.743, 8323.905
655.225, 8334.297
655.707, 8343.307
656.190, 8351.494
656.672, 8349.117
657.154, 8324.068
657.636, 8301.386
658.118, 8297.828
658.600, 8317.382
659.082, 8338.980
659.564, 8364.661
660.046, 8386.215
660.529, 8389.127
661.011, 8376.940
661.493, 8370.369
661.975, 8376.916
