##NAMES=Cristobalite
##RRUFFID=R061107
##IDEAL CHEMISTRY=SiO_2_
##LOCALITY=Vechec, Slovakia
##OWNER=RRUFF
##SOURCE=Michael Scott
##DESCRIPTION=White distorted octahedra associated with colorless labradorite
##STATUS=The identification of this mineral is confirmed by single-crystal X-ray diffraction and chemical analysis.
##URL=rruff.info/R061107
##MEASURED CHEMISTRY=([box]_0.99_Na_0.01_)_Σ=1_(Si_0.99_Al_0.01_)_Σ=1_O_2_
119.2188, 477.4299
119.7009, 473.6371
120.1830, 472.5365
120.6651, 475.1737
121.1473, 481.6629
121.6294, 490.5321
122.1115, 498.8663
122.5936, 502.6274
123.0757, 512.3182
123.5578, 531.4685
124.0400, 554.5342
124.5221, 577.1806
125.0042, 597.4631
125.4863, 615.5989
125.9684, 632.0029
126.4505, 639.5648
126.9327, 653.7437
127.4148, 679.2791
127.8969, 710.9296
128.3790, 741.1401
128.8611, 766.0891
129.3432, 788.7515
129.8254, 819.6154
130.3075, 868.9609
130.7896, 913.9675
131.2717, 949.5977
131.7538, 977.6305
132.2359, 1001.741
132.7181, 1024.080
133.2002, 1043.504
133.6823, 1054.379
134.1644, 1055.119
134.6465, 1051.145
135.1286, 1039.985
135.6108, 1024.743
136.0929, 1015.583
136.5750, 1021.080
137.0571, 1036.120
137.5392, 1038.427
138.0213, 1012.510
138.5035, 988.7873
138.9856, 983.8712
139.4677, 996.5339
139.9498, 1019.518
140.4319, 1052.584
140.9140, 1092.484
141.3961, 1126.201
141.8783, 1143.698
142.3604, 1162.390
142.8425, 1196.679
143.3246, 1246.558
143.8067, 1302.836
144.2888, 1361.241
144.7710, 1422.553
145.2531, 1488.039
145.7352, 1552.978
146.2173, 1599.659
146.6994, 1621.046
147.1815, 1629.033
147.6637, 1631.967
148.1458, 1627.482
148.6279, 1622.634
149.1100, 1629.465
149.5921, 1659.718
150.0742, 1697.483
150.5564, 1718.810
151.0385, 1721.055
151.5206, 1717.512
152.0027, 1715.978
152.4848, 1713.281
152.9669, 1703.895
153.4491, 1681.466
153.9312, 1652.520
154.4133, 1631.211
154.8954, 1620.089
155.3775, 1609.486
155.8596, 1590.620
156.3418, 1569.097
156.8239, 1554.491
157.3060, 1555.238
157.7881, 1564.290
158.2702, 1560.783
158.7523, 1537.021
159.2345, 1514.988
159.7166, 1506.379
160.1987, 1505.151
160.6808, 1501.340
161.1629, 1486.036
161.6451, 1465.158
162.1272, 1462.885
162.6093, 1493.052
163.0914, 1520.064
163.5735, 1532.614
164.0556, 1534.036
164.5378, 1528.325
165.0199, 1514.100
165.5020, 1495.246
165.9841, 1492.602
166.4662, 1520.112
166.9483, 1545.510
167.4305, 1558.451
167.9126, 1562.606
168.3947, 1564.027
168.8768, 1565.598
169.3589, 1567.634
169.8410, 1572.748
170.3232, 1584.645
170.8053, 1595.076
171.2874, 1602.540
171.7695, 1606.836
172.2516, 1607.372
172.7337, 1602.433
173.2159, 1593.136
173.6980, 1590.784
174.1801, 1605.526
174.6622, 1616.012
175.1443, 1610.842
175.6264, 1597.960
176.1085, 1591.590
176.5907, 1602.300
177.0728, 1628.318
177.5549, 1649.481
178.0370, 1666.457
178.5191, 1676.812
179.0012, 1672.952
179.4834, 1662.592
179.9655, 1645.965
180.4476, 1670.413
180.9297, 1687.721
181.4118, 1698.272
181.8939, 1681.826
182.3761, 1700.241
182.8582, 1704.685
183.3403, 1708.556
183.8224, 1731.877
184.3045, 1719.357
184.7866, 1742.370
185.2688, 1751.200
185.7509, 1766.520
186.2330, 1767.783
186.7151, 1773.389
187.1972, 1793.055
187.6793, 1804.935
188.1615, 1804.582
188.6436, 1820.315
189.1257, 1807.305
189.6078, 1819.517
190.0899, 1842.611
190.5720, 1842.963
191.0542, 1842.708
191.5363, 1852.258
192.0184, 1874.140
192.5005, 1905.718
192.9826, 1930.870
193.4647, 1939.483
193.9469, 1952.542
194.4290, 1976.282
194.9111, 2005.940
195.3932, 2034.764
195.8753, 2059.268
196.3574, 2079.696
196.8396, 2096.597
197.3217, 2094.270
197.8038, 2106.285
198.2859, 2146.898
198.7680, 2201.711
199.2501, 2251.273
199.7323, 2285.223
200.2144, 2307.958
200.6965, 2335.205
201.1786, 2380.316
201.6607, 2414.919
202.1428, 2421.692
202.6250, 2421.348
203.1071, 2442.866
203.5892, 2500.039
204.0713, 2578.528
204.5534, 2634.873
205.0355, 2640.054
205.5177, 2656.418
205.9998, 2690.297
206.4819, 2735.520
206.9640, 2786.000
207.4461, 2839.198
207.9282, 2894.680
208.4104, 2951.333
208.8925, 3004.782
209.3746, 3065.732
209.8567, 3137.100
210.3388, 3214.143
210.8209, 3293.934
211.3030, 3375.331
211.7852, 3456.373
212.2673, 3534.551
212.7494, 3603.322
213.2315, 3678.340
213.7136, 3753.463
214.1957, 3837.344
214.6779, 3940.806
215.1600, 4065.067
215.6421, 4199.389
216.1242, 4325.669
216.6063, 4437.202
217.0884, 4553.479
217.5706, 4676.390
218.0527, 4802.766
218.5348, 4926.541
219.0169, 5048.295
219.4990, 5177.590
219.9811, 5329.212
220.4633, 5517.977
220.9454, 5689.488
221.4275, 5843.282
221.9096, 5983.915
222.3917, 6106.618
222.8738, 6215.366
223.3560, 6326.576
223.8381, 6462.441
224.3202, 6636.845
224.8023, 6773.565
225.2844, 6863.430
225.7665, 6930.603
226.2487, 6980.071
226.7308, 7015.309
227.2129, 7042.416
227.6950, 7068.666
228.1771, 7096.677
228.6592, 7095.388
229.1414, 7054.308
229.6235, 6996.266
230.1056, 6928.167
230.5877, 6849.598
231.0698, 6757.441
231.5519, 6648.626
232.0341, 6523.498
232.5162, 6386.818
232.9983, 6225.045
233.4804, 6065.541
233.9625, 5914.870
234.4446, 5770.141
234.9268, 5625.670
235.4089, 5479.340
235.8910, 5329.989
236.3731, 5171.506
236.8552, 4986.800
237.3373, 4813.140
237.8195, 4663.595
238.3016, 4527.191
238.7837, 4386.485
239.2658, 4232.822
239.7479, 4075.473
240.2300, 3944.121
240.7122, 3857.870
241.1943, 3770.416
241.6764, 3676.979
242.1585, 3578.668
242.6406, 3474.393
243.1227, 3363.829
243.6049, 3254.056
244.0870, 3159.088
244.5691, 3084.165
245.0512, 3013.576
245.5333, 2946.208
246.0154, 2881.385
246.4975, 2819.301
246.9797, 2759.687
247.4618, 2701.829
247.9439, 2644.272
248.4260, 2585.899
248.9081, 2531.783
249.3902, 2482.427
249.8724, 2437.446
250.3545, 2397.595
250.8366, 2362.692
251.3187, 2330.717
251.8008, 2300.558
252.2829, 2272.490
252.7651, 2243.670
253.2472, 2206.692
253.7293, 2176.326
254.2114, 2165.933
254.6935, 2169.302
255.1756, 2166.670
255.6578, 2138.091
256.1399, 2087.599
256.6220, 2052.869
257.1041, 2041.950
257.5862, 2036.810
258.0684, 2031.846
258.5505, 2025.964
259.0326, 2017.028
259.5147, 2002.654
259.9968, 1985.149
260.4789, 1970.122
260.9611, 1956.084
261.4432, 1948.035
261.9253, 1951.162
262.4074, 1960.055
262.8895, 1968.782
263.3716, 1975.945
263.8537, 1981.116
264.3358, 1982.714
264.8180, 1979.887
265.3001, 1978.524
265.7822, 1981.378
266.2643, 1986.673
266.7464, 1991.887
267.2285, 1995.642
267.7107, 2003.139
268.1928, 2021.282
268.6749, 2049.274
269.1570, 2076.108
269.6391, 2100.879
270.1212, 2120.454
270.6034, 2132.339
271.0855, 2136.287
271.5676, 2135.493
272.0497, 2129.241
272.5318, 2119.360
273.0139, 2112.723
273.4961, 2113.009
273.9782, 2111.516
274.4603, 2095.006
274.9424, 2065.670
275.4245, 2042.426
275.9066, 2037.940
276.3888, 2040.324
276.8709, 2033.086
277.3530, 2014.239
277.8351, 1988.273
278.3172, 1954.436
278.7993, 1914.845
279.2815, 1885.515
279.7636, 1876.491
280.2457, 1871.710
280.7278, 1856.339
281.2099, 1831.707
281.6920, 1811.176
282.1742, 1804.117
282.6563, 1807.693
283.1384, 1806.572
283.6205, 1798.618
284.1026, 1788.882
284.5847, 1781.359
285.0669, 1773.544
285.5490, 1758.730
286.0311, 1733.239
286.5132, 1701.493
286.9953, 1675.236
287.4774, 1660.259
287.9596, 1640.669
288.4417, 1606.079
288.9238, 1569.386
289.4059, 1547.632
289.8880, 1544.958
290.3701, 1549.388
290.8523, 1544.058
291.3344, 1525.660
291.8165, 1504.186
292.2986, 1473.846
292.7807, 1445.123
293.2628, 1423.029
293.7450, 1408.811
294.2271, 1403.310
294.7092, 1408.975
295.1913, 1427.508
295.6734, 1436.187
296.1555, 1427.922
296.6377, 1417.685
297.1198, 1409.965
297.6019, 1403.948
298.0840, 1396.432
298.5661, 1384.762
299.0482, 1371.183
299.5304, 1367.210
300.0125, 1388.085
300.4946, 1396.781
300.9767, 1378.574
301.4588, 1350.197
301.9409, 1328.378
302.4231, 1319.312
302.9052, 1319.402
303.3873, 1324.539
303.8694, 1338.330
304.3515, 1346.010
304.8336, 1341.495
305.3158, 1333.348
305.7979, 1325.656
306.2800, 1319.240
306.7621, 1314.009
307.2442, 1309.547
307.7263, 1305.907
308.2085, 1305.084
308.6906, 1310.608
309.1727, 1314.613
309.6548, 1310.777
310.1369, 1301.588
310.6190, 1294.544
311.1012, 1295.422
311.5833, 1300.644
312.0654, 1300.786
312.5475, 1293.463
313.0296, 1289.572
313.5117, 1302.649
313.9939, 1321.627
314.4760, 1328.723
314.9581, 1315.012
315.4402, 1295.828
315.9223, 1284.332
316.4044, 1279.857
316.8866, 1276.475
317.3687, 1271.420
317.8508, 1266.875
318.3329, 1267.783
318.8150, 1276.995
319.2971, 1281.708
319.7793, 1270.869
320.2614, 1253.771
320.7435, 1248.234
321.2256, 1259.324
321.7077, 1274.332
322.1898, 1277.413
322.6720, 1265.605
323.1541, 1259.537
323.6362, 1266.192
324.1183, 1274.387
324.6004, 1274.631
325.0826, 1267.692
325.5647, 1261.279
326.0468, 1261.177
326.5289, 1267.077
327.0110, 1273.307
327.4931, 1283.605
327.9753, 1290.059
328.4574, 1287.572
328.9395, 1280.502
329.4216, 1275.650
329.9037, 1276.078
330.3858, 1279.732
330.8680, 1281.794
331.3501, 1281.323
331.8322, 1280.719
332.3143, 1280.056
332.7964, 1279.336
333.2785, 1278.655
333.7606, 1277.970
334.2427, 1276.987
334.7249, 1274.738
335.2070, 1270.617
335.6891, 1269.949
336.1712, 1276.767
336.6533, 1283.162
337.1354, 1287.359
337.6176, 1288.807
338.0997, 1286.042
338.5818, 1275.238
339.0639, 1261.667
339.5460, 1262.548
340.0281, 1284.007
340.5103, 1303.084
340.9924, 1310.738
341.4745, 1311.235
341.9566, 1306.991
342.4387, 1297.108
342.9208, 1287.953
343.4030, 1285.956
343.8851, 1290.505
344.3672, 1296.677
344.8493, 1304.267
345.3314, 1311.678
345.8135, 1317.827
346.2957, 1322.872
346.7778, 1324.830
347.2599, 1319.656
347.7420, 1312.394
348.2241, 1309.586
348.7062, 1311.957
349.1884, 1318.726
349.6705, 1331.383
350.1526, 1349.019
350.6347, 1359.648
351.1168, 1360.772
351.5989, 1357.664
352.0811, 1350.158
352.5632, 1340.406
353.0453, 1332.462
353.5274, 1327.996
354.0095, 1327.489
354.4916, 1332.226
354.9738, 1352.492
355.4559, 1364.216
355.9380, 1357.262
356.4201, 1347.966
356.9022, 1352.663
357.3843, 1372.651
357.8665, 1394.416
358.3486, 1401.977
358.8307, 1392.128
359.3128, 1390.848
359.7949, 1408.902
360.2770, 1425.080
360.7592, 1431.413
361.2413, 1430.975
361.7234, 1430.053
362.2055, 1431.757
362.6876, 1435.980
363.1697, 1443.448
363.6519, 1456.721
364.1340, 1466.342
364.6161, 1464.640
365.0982, 1461.046
365.5803, 1463.620
366.0624, 1474.006
366.5446, 1486.576
367.0267, 1498.769
367.5088, 1509.761
367.9909, 1513.779
368.4730, 1506.308
368.9551, 1498.433
369.4373, 1500.674
369.9194, 1511.004
370.4015, 1522.516
370.8836, 1534.106
371.3657, 1545.455
371.8478, 1558.162
372.3300, 1571.641
372.8121, 1578.642
373.2942, 1572.738
373.7763, 1558.793
374.2584, 1554.409
374.7405, 1563.316
375.2227, 1574.502
375.7048, 1587.294
376.1869, 1600.023
376.6690, 1609.109
377.1511, 1613.868
377.6332, 1619.545
378.1154, 1633.966
378.5975, 1662.321
379.0796, 1680.681
379.5617, 1678.838
380.0438, 1678.469
380.5259, 1690.525
381.0081, 1712.716
381.4902, 1737.713
381.9723, 1761.439
382.4544, 1783.500
382.9365, 1801.929
383.4186, 1812.844
383.9008, 1827.281
384.3829, 1846.330
384.8650, 1870.005
385.3471, 1900.681
385.8292, 1938.730
386.3113, 1975.923
386.7935, 2001.356
387.2756, 2016.171
387.7577, 2036.176
388.2398, 2063.507
388.7219, 2095.916
389.2040, 2133.337
389.6862, 2174.275
390.1683, 2213.997
390.6504, 2246.540
391.1325, 2279.772
391.6146, 2321.255
392.0967, 2371.092
392.5789, 2429.113
393.0610, 2498.570
393.5431, 2573.285
394.0252, 2636.256
394.5073, 2680.298
394.9894, 2729.146
395.4716, 2785.749
395.9537, 2851.967
396.4358, 2932.269
396.9179, 3027.083
397.4000, 3128.387
397.8821, 3227.683
398.3643, 3324.103
398.8464, 3426.977
399.3285, 3532.827
399.8106, 3648.866
400.2927, 3778.556
400.7748, 3920.400
401.2570, 4070.439
401.7391, 4227.159
402.2212, 4392.096
402.7033, 4570.002
403.1854, 4763.485
403.6675, 4960.981
404.1497, 5145.842
404.6317, 5345.177
405.1139, 5581.714
405.5960, 5852.923
406.0781, 6128.675
406.5602, 6381.000
407.0423, 6620.440
407.5244, 6889.974
408.0066, 7196.561
408.4887, 7511.759
408.9708, 7825.376
409.4529, 8134.067
409.9350, 8432.501
410.4171, 8716.398
410.8993, 8994.277
411.3814, 9282.754
411.8635, 9568.534
412.3456, 9818.086
412.8277, 10021.68
413.3098, 10185.11
413.7920, 10317.27
414.2741, 10417.74
414.7562, 10471.16
415.2383, 10475.67
415.7204, 10435.07
416.2025, 10347.75
416.6847, 10217.07
417.1668, 10050.32
417.6489, 9851.217
418.1310, 9619.800
418.6131, 9356.924
419.0952, 9047.740
419.5774, 8729.354
420.0595, 8395.992
420.5416, 8063.055
421.0237, 7743.248
421.5058, 7438.841
421.9879, 7146.030
422.4701, 6861.085
422.9522, 6584.285
423.4343, 6319.041
423.9164, 6066.485
424.3985, 5823.351
424.8806, 5584.718
425.3628, 5354.881
425.8449, 5143.827
426.3270, 4955.956
426.8091, 4784.167
427.2912, 4624.161
427.7733, 4474.980
428.2555, 4331.642
428.7376, 4190.608
429.2197, 4056.688
429.7018, 3937.521
430.1839, 3836.195
430.6660, 3735.115
431.1482, 3626.011
431.6303, 3522.623
432.1124, 3436.219
432.5945, 3364.491
433.0766, 3297.644
433.5587, 3229.776
434.0409, 3161.298
434.5230, 3092.736
435.0051, 3017.483
435.4872, 2953.385
435.9693, 2906.252
436.4514, 2866.083
436.9336, 2826.213
437.4157, 2785.143
437.8978, 2744.380
438.3799, 2705.685
438.8620, 2668.552
439.3441, 2629.143
439.8263, 2585.927
440.3084, 2543.302
440.7905, 2503.184
441.2726, 2465.143
441.7547, 2428.499
442.2368, 2392.119
442.7190, 2359.621
443.2011, 2336.818
443.6832, 2320.126
444.1653, 2298.805
444.6474, 2269.697
445.1295, 2238.340
445.6117, 2211.488
446.0938, 2190.577
446.5759, 2162.880
447.0580, 2119.713
447.5401, 2078.485
448.0222, 2048.329
448.5044, 2027.077
448.9865, 2010.184
449.4686, 1995.716
449.9507, 1980.918
450.4328, 1958.521
450.9149, 1921.610
451.3971, 1893.270
451.8792, 1882.168
452.3613, 1872.952
452.8434, 1856.523
453.3255, 1833.921
453.8076, 1812.169
454.2898, 1796.792
454.7719, 1784.683
455.2540, 1766.915
455.7361, 1741.990
456.2182, 1720.168
456.7003, 1706.589
457.1825, 1697.777
457.6646, 1688.735
458.1467, 1679.684
458.6288, 1669.110
459.1109, 1654.482
459.5930, 1638.802
460.0752, 1626.349
460.5573, 1617.508
461.0394, 1610.400
461.5215, 1603.848
462.0036, 1597.738
462.4857, 1590.857
462.9679, 1583.594
463.4500, 1575.118
463.9321, 1562.564
464.4142, 1550.163
464.8963, 1543.183
465.3784, 1542.459
465.8606, 1543.302
466.3427, 1540.498
466.8248, 1533.950
467.3069, 1526.515
467.7890, 1515.724
468.2711, 1507.815
468.7533, 1507.486
469.2354, 1510.937
469.7175, 1512.763
470.1996, 1512.131
470.6817, 1507.851
471.1638, 1496.934
471.6460, 1481.100
472.1281, 1466.096
472.6102, 1452.409
473.0923, 1442.978
473.5744, 1442.356
474.0565, 1451.642
474.5387, 1457.303
475.0208, 1461.258
475.5029, 1459.577
475.9850, 1445.860
476.4671, 1425.858
476.9492, 1409.700
477.4313, 1401.609
477.9135, 1399.313
478.3956, 1399.938
478.8777, 1406.146
479.3598, 1407.479
479.8419, 1400.969
480.3240, 1392.100
480.8062, 1379.844
481.2883, 1367.057
481.7704, 1360.233
482.2525, 1364.538
482.7346, 1373.003
483.2167, 1374.826
483.6989, 1370.157
484.1810, 1366.959
484.6631, 1368.886
485.1452, 1371.302
485.6273, 1366.792
486.1094, 1355.313
486.5916, 1346.648
487.0737, 1343.343
487.5558, 1342.801
488.0379, 1346.564
488.5200, 1351.728
489.0021, 1348.764
489.4843, 1331.947
489.9664, 1308.728
490.4485, 1297.766
490.9306, 1307.699
491.4127, 1313.469
491.8948, 1312.289
492.3770, 1309.425
492.8591, 1307.530
493.3412, 1306.592
493.8233, 1305.595
494.3054, 1304.134
494.7875, 1302.004
495.2697, 1297.850
495.7518, 1291.216
496.2339, 1287.965
496.7160, 1292.855
497.1981, 1299.047
497.6802, 1296.001
498.1624, 1282.980
498.6445, 1274.858
499.1266, 1280.459
499.6087, 1289.181
500.0908, 1291.153
500.5729, 1287.105
501.0551, 1282.536
501.5372, 1280.367
502.0193, 1279.943
502.5014, 1279.515
502.9835, 1279.356
503.4656, 1278.686
503.9478, 1277.289
504.4299, 1275.627
504.9120, 1273.065
505.3941, 1270.385
505.8762, 1270.321
506.3583, 1276.963
506.8405, 1284.656
507.3226, 1277.290
507.8047, 1252.554
508.2868, 1237.851
508.7689, 1249.714
509.2510, 1267.260
509.7332, 1260.140
510.2153, 1227.000
510.6974, 1205.146
511.1795, 1212.724
511.6616, 1229.061
512.1437, 1238.699
512.6259, 1241.246
513.1080, 1239.559
513.5901, 1234.882
514.0722, 1228.137
514.5543, 1221.318
515.0364, 1213.912
515.5186, 1207.498
516.0007, 1202.702
516.4828, 1198.191
516.9649, 1194.453
517.4470, 1190.420
517.9291, 1183.114
518.4113, 1169.032
518.8934, 1153.860
519.3755, 1146.002
519.8576, 1145.471
520.3397, 1154.958
520.8218, 1183.187
521.3040, 1209.869
521.7861, 1203.293
522.2682, 1165.062
522.7503, 1140.273
523.2324, 1145.411
523.7145, 1156.916
524.1967, 1161.729
524.6788, 1160.822
525.1609, 1157.629
525.6430, 1153.559
526.1251, 1149.861
526.6072, 1149.234
527.0894, 1153.775
527.5715, 1154.398
528.0536, 1147.430
528.5357, 1140.070
529.0178, 1137.464
529.4999, 1135.943
529.9821, 1127.021
530.4642, 1104.175
530.9463, 1082.507
531.4284, 1082.966
531.9105, 1099.945
532.3926, 1105.270
532.8748, 1090.412
533.3569, 1075.025
533.8390, 1078.347
534.3211, 1100.400
534.8032, 1118.388
535.2853, 1135.963
535.7675, 1145.401
536.2496, 1136.739
536.7317, 1121.653
537.2138, 1116.742
537.6959, 1125.389
538.1780, 1135.473
538.6602, 1132.121
539.1423, 1115.678
539.6244, 1106.082
540.1065, 1107.287
540.5886, 1108.169
541.0707, 1102.749
541.5529, 1095.211
542.0350, 1090.249
542.5171, 1088.735
542.9992, 1088.705
543.4813, 1090.273
543.9634, 1092.088
544.4456, 1091.949
544.9277, 1089.705
545.4098, 1086.274
545.8919, 1081.883
546.3740, 1077.175
546.8561, 1074.853
547.3383, 1078.904
547.8204, 1079.626
548.3025, 1073.542
548.7846, 1066.617
549.2667, 1063.145
549.7488, 1062.920
550.2310, 1063.361
550.7131, 1062.951
551.1952, 1061.965
551.6773, 1060.817
552.1594, 1059.485
552.6415, 1058.401
553.1237, 1056.798
553.6058, 1056.693
554.0879, 1063.772
554.5700, 1077.917
555.0521, 1082.707
555.5342, 1064.534
556.0164, 1047.136
556.4985, 1048.058
556.9806, 1060.156
557.4627, 1068.400
557.9448, 1067.141
558.4269, 1060.988
558.9091, 1055.938
559.3912, 1051.605
559.8733, 1051.072
560.3554, 1058.360
560.8375, 1064.045
561.3196, 1064.319
561.8018, 1060.749
562.2839, 1055.220
562.7660, 1047.672
563.2481, 1040.109
563.7302, 1032.683
564.2123, 1026.567
564.6945, 1025.646
565.1766, 1030.139
565.6587, 1033.155
566.1408, 1029.162
566.6229, 1019.859
567.1050, 1013.858
567.5872, 1011.204
568.0693, 1012.166
568.5514, 1021.866
569.0335, 1031.233
569.5156, 1032.184
569.9977, 1025.957
570.4799, 1020.387
570.9620, 1021.605
571.4441, 1025.383
571.9262, 1021.677
572.4083, 1010.300
572.8904, 1002.365
573.3726, 1000.465
573.8547, 1003.991
574.3368, 1016.053
574.8189, 1037.010
575.3010, 1046.332
575.7831, 1031.532
576.2653, 1016.153
576.7474, 1013.338
577.2295, 1017.308
577.7116, 1017.411
578.1937, 1010.666
578.6758, 1003.675
579.1580, 1006.201
579.6401, 1018.309
580.1222, 1021.846
580.6042, 1011.224
581.0864, 1002.985
581.5685, 1008.884
582.0506, 1019.134
582.5327, 1021.426
583.0148, 1012.851
583.4969, 1006.082
583.9791, 1008.653
584.4612, 1014.928
584.9433, 1018.281
585.4254, 1018.865
585.9075, 1020.809
586.3896, 1026.832
586.8718, 1033.851
587.3539, 1033.756
587.8360, 1022.154
588.3181, 1014.053
588.8002, 1012.287
589.2823, 1011.686
589.7645, 1012.615
590.2466, 1012.656
590.7287, 1005.800
591.2108, 986.2247
591.6929, 968.4162
592.1750, 968.3883
592.6572, 980.7078
593.1393, 990.8172
593.6214, 996.0955
594.1035, 999.1217
594.5856, 1001.313
595.0677, 1003.059
595.5499, 1007.700
596.0320, 1023.013
596.5141, 1030.878
596.9962, 1025.517
597.4783, 1015.301
597.9604, 1004.377
598.4426, 994.6118
598.9247, 988.8687
599.4068, 989.7238
599.8889, 994.9313
600.3710, 1003.349
600.8531, 1014.442
601.3353, 1015.877
601.8174, 1001.084
602.2995, 983.4081
602.7816, 978.2744
603.2637, 986.9939
603.7458, 991.6710
604.2280, 986.7626
604.7101, 984.4252
605.1922, 991.7441
605.6743, 1002.528
606.1564, 1009.969
606.6385, 1012.252
607.1207, 1010.376
607.6028, 1003.841
608.0849, 994.0057
608.5670, 986.4492
609.0491, 980.9630
609.5313, 978.9789
610.0134, 983.2017
610.4955, 989.1154
610.9776, 988.9050
611.4597, 981.6889
611.9418, 978.6717
612.4240, 983.7565
612.9061, 991.3610
613.3882, 1001.205
613.8703, 1010.388
614.3524, 1013.266
614.8345, 1008.073
615.3167, 999.9830
