##NAMES=Cristobalite
##RRUFFID=R061107
##IDEAL CHEMISTRY=SiO_2_
##LOCALITY=Vechec, Slovakia
##OWNER=RRUFF
##SOURCE=Michael Scott
##DESCRIPTION=White distorted octahedra associated with colorless labradorite
##STATUS=The identification of this mineral is confirmed by single-crystal X-ray diffraction and chemical analysis.
##URL=rruff.info/R061107
##MEASURED CHEMISTRY=([box]_0.99_Na_0.01_)_Σ=1_(Si_0.99_Al_0.01_)_Σ=1_O_2_
141.8137, 7199.421
142.2958, 7236.684
142.7779, 7276.461
143.2600, 7313.213
143.7421, 7342.367
144.2243, 7376.143
144.7064, 7421.127
145.1885, 7493.315
145.6706, 7541.692
146.1527, 7556.946
146.6348, 7548.424
147.1170, 7544.991
147.5991, 7540.636
148.0812, 7545.706
148.5633, 7565.722
149.0454, 7627.113
149.5275, 7669.223
150.0097, 7680.375
150.4918, 7662.354
150.9739, 7649.797
151.4560, 7643.542
151.9381, 7641.808
152.4202, 7643.303
152.9024, 7659.980
153.3845, 7667.533
153.8666, 7658.488
154.3487, 7630.522
154.8308, 7605.066
155.3129, 7582.297
155.7950, 7564.544
156.2772, 7554.794
156.7593, 7552.550
157.2414, 7559.583
157.7235, 7581.103
158.2056, 7625.589
158.6877, 7658.471
159.1699, 7665.326
159.6520, 7654.882
160.1341, 7642.848
160.6162, 7622.388
161.0983, 7609.752
161.5804, 7615.796
162.0626, 7652.069
162.5447, 7690.908
163.0268, 7724.392
163.5089, 7752.245
163.9910, 7773.482
164.4731, 7727.286
164.9553, 7811.680
165.4374, 7869.078
165.9195, 7900.937
166.4016, 7830.759
166.8837, 7892.340
167.3658, 7901.119
167.8480, 7907.737
168.3301, 7987.862
168.8122, 7932.525
169.2943, 8011.485
169.7764, 8036.837
170.2585, 8086.724
170.7407, 8083.486
171.2228, 8096.653
171.7049, 8162.967
172.1870, 8199.854
172.6691, 8190.495
173.1512, 8241.941
173.6334, 8184.755
174.1155, 8225.143
174.5976, 8240.736
175.0797, 8255.579
175.5618, 8268.689
176.0439, 8273.817
176.5260, 8274.945
177.0082, 8285.021
177.4903, 8320.339
177.9724, 8368.418
178.4545, 8405.163
178.9366, 8425.904
179.4187, 8439.394
179.9009, 8450.163
180.3830, 8460.136
180.8651, 8481.736
181.3472, 8531.552
181.8293, 8600.586
182.3114, 8663.973
182.7936, 8719.094
183.2757, 8763.979
183.7578, 8791.707
184.2399, 8802.246
184.7220, 8814.554
185.2041, 8845.183
185.6863, 8891.773
186.1684, 8942.658
186.6505, 8998.805
187.1326, 9055.920
187.6147, 9100.198
188.0968, 9130.229
188.5790, 9163.823
189.0611, 9225.663
189.5432, 9313.099
190.0253, 9396.821
190.5074, 9470.275
190.9895, 9532.525
191.4717, 9577.438
191.9538, 9600.511
192.4359, 9624.581
192.9180, 9681.113
193.4001, 9770.931
193.8822, 9870.652
194.3644, 9974.906
194.8465, 10082.91
195.3286, 10181.12
195.8107, 10265.98
196.2928, 10347.08
196.7749, 10443.42
197.2570, 10556.36
197.7392, 10667.02
198.2213, 10759.76
198.7034, 10833.61
199.1855, 10922.93
199.6676, 11033.38
200.1497, 11156.46
200.6319, 11271.64
201.1140, 11376.21
201.5961, 11484.24
202.0782, 11604.13
202.5603, 11737.24
203.0424, 11874.44
203.5246, 12014.84
204.0067, 12158.22
204.4888, 12296.63
204.9709, 12423.18
205.4530, 12565.13
205.9352, 12745.81
206.4173, 12972.00
206.8994, 13206.83
207.3815, 13441.24
207.8636, 13677.81
208.3457, 13920.42
208.8279, 14169.91
209.3100, 14423.28
209.7921, 14668.81
210.2742, 14890.32
210.7563, 15164.46
211.2384, 15514.46
211.7206, 15937.02
212.2027, 16328.70
212.6848, 16674.50
213.1669, 17012.51
213.6490, 17375.72
214.1311, 17766.83
214.6133, 18179.72
215.0954, 18614.11
215.5775, 19061.57
216.0596, 19549.31
216.5417, 20098.15
217.0238, 20663.93
217.5059, 21197.84
217.9881, 21687.02
218.4702, 22176.72
218.9523, 22686.45
219.4344, 23217.59
219.9165, 23742.96
220.3986, 24267.70
220.8808, 24787.14
221.3629, 25305.21
221.8450, 25832.29
222.3271, 26341.64
222.8092, 26836.28
223.2913, 27324.53
223.7735, 27755.54
224.2556, 28123.74
224.7377, 28438.78
225.2198, 28708.86
225.7019, 28930.55
226.1840, 29116.26
226.6662, 29279.31
227.1483, 29442.93
227.6304, 29515.11
228.1125, 29489.76
228.5946, 29376.32
229.0767, 29189.40
229.5589, 28905.81
230.0410, 28586.60
230.5231, 28260.83
231.0052, 27966.70
231.4873, 27580.79
231.9694, 27063.51
232.4516, 26457.16
232.9337, 25885.59
233.4158, 25384.26
233.8979, 24869.57
234.3800, 24299.98
234.8621, 23636.41
235.3443, 23003.40
235.8264, 22413.10
236.3085, 21857.08
236.7906, 21301.20
237.2727, 20736.31
237.7548, 20185.36
238.2369, 19653.52
238.7191, 19139.46
239.2012, 18650.83
239.6833, 18193.97
240.1654, 17764.37
240.6475, 17353.69
241.1296, 16969.65
241.6118, 16593.23
242.0939, 16209.85
242.5760, 15802.45
243.0581, 15421.96
243.5402, 15074.04
244.0223, 14759.18
244.5045, 14459.94
244.9866, 14176.64
245.4687, 13909.59
245.9508, 13660.79
246.4329, 13438.14
246.9150, 13219.64
247.3972, 13002.58
247.8793, 12789.34
248.3614, 12578.51
248.8435, 12358.58
249.3256, 12154.64
249.8077, 11990.56
250.2899, 11883.66
250.7720, 11777.12
251.2541, 11663.65
251.7362, 11544.29
252.2183, 11419.52
252.7004, 11278.85
253.1826, 11146.67
253.6647, 11045.50
254.1468, 10989.47
254.6289, 10932.52
255.1110, 10867.75
255.5931, 10794.75
256.0753, 10718.15
256.5574, 10628.49
257.0395, 10546.19
257.5216, 10490.87
258.0037, 10469.38
258.4858, 10459.48
258.9680, 10466.94
259.4501, 10489.93
259.9322, 10475.17
260.4143, 10406.80
260.8964, 10324.27
261.3785, 10263.24
261.8607, 10227.34
262.3428, 10202.59
262.8249, 10189.31
263.3070, 10186.94
263.7891, 10178.69
264.2712, 10160.22
264.7534, 10142.79
265.2355, 10137.48
265.7176, 10146.35
266.1997, 10160.46
266.6818, 10179.26
267.1639, 10202.31
267.6461, 10225.98
268.1282, 10252.88
268.6103, 10275.39
269.0924, 10283.03
269.5745, 10269.78
270.0566, 10264.67
270.5387, 10277.44
271.0208, 10305.91
271.5030, 10320.08
271.9851, 10314.23
272.4672, 10305.97
272.9493, 10318.07
273.4314, 10357.28
273.9135, 10378.68
274.3957, 10366.48
274.8778, 10325.19
275.3599, 10297.25
275.8420, 10287.35
276.3241, 10278.43
276.8062, 10252.12
277.2884, 10206.57
277.7705, 10159.63
278.2526, 10112.25
278.7347, 10066.77
279.2168, 10039.79
279.6989, 10035.25
280.1811, 10035.80
280.6632, 10025.69
281.1453, 10004.85
281.6274, 9976.892
282.1095, 9937.490
282.5916, 9892.182
283.0738, 9867.119
283.5559, 9864.413
284.0380, 9871.309
284.5201, 9887.098
285.0022, 9910.401
285.4843, 9900.163
285.9665, 9836.184
286.4486, 9734.362
286.9307, 9647.599
287.4128, 9577.714
287.8949, 9511.756
288.3770, 9437.768
288.8592, 9356.879
289.3413, 9281.564
289.8234, 9218.745
290.3055, 9160.842
290.7876, 9081.490
291.2697, 8979.225
291.7519, 8889.158
292.2340, 8848.646
292.7161, 8849.291
293.1982, 8852.541
293.6803, 8851.397
294.1624, 8846.108
294.6446, 8835.122
295.1267, 8818.727
295.6088, 8803.395
296.0909, 8796.802
296.5730, 8795.737
297.0551, 8791.468
297.5373, 8784.272
298.0194, 8770.280
298.5015, 8735.818
298.9836, 8683.911
299.4657, 8639.268
299.9478, 8628.214
300.4300, 8637.104
300.9121, 8639.845
301.3942, 8626.945
301.8763, 8611.380
302.3584, 8612.145
302.8405, 8625.941
303.3227, 8635.986
303.8048, 8625.372
304.2869, 8605.796
304.7690, 8593.841
305.2511, 8594.646
305.7332, 8601.015
306.2154, 8612.267
306.6975, 8625.231
307.1796, 8629.093
307.6617, 8609.847
308.1438, 8581.614
308.6259, 8556.847
309.1081, 8535.027
309.5901, 8524.465
310.0723, 8537.713
310.5544, 8567.813
311.0365, 8596.238
311.5186, 8618.672
312.0007, 8633.109
312.4828, 8636.191
312.9650, 8624.152
313.4471, 8610.416
313.9292, 8604.492
314.4113, 8601.873
314.8934, 8593.582
315.3755, 8560.521
315.8577, 8531.110
316.3398, 8527.101
316.8219, 8559.397
317.3040, 8585.932
317.7861, 8582.558
318.2682, 8564.638
318.7504, 8556.327
319.2325, 8575.335
319.7146, 8596.946
320.1967, 8609.778
320.6788, 8611.205
321.1609, 8612.344
321.6431, 8615.230
322.1252, 8619.625
322.6073, 8625.197
323.0894, 8640.330
323.5715, 8648.888
324.0536, 8640.971
324.5358, 8611.154
325.0179, 8596.143
325.5000, 8611.878
325.9821, 8638.824
326.4642, 8657.735
326.9464, 8657.277
327.4285, 8659.428
327.9106, 8673.901
328.3927, 8702.841
328.8748, 8710.126
329.3569, 8676.688
329.8391, 8634.777
330.3212, 8610.347
330.8033, 8615.978
331.2854, 8620.723
331.7675, 8617.654
332.2496, 8607.973
332.7318, 8611.797
333.2139, 8639.229
333.6960, 8668.416
334.1781, 8682.133
334.6602, 8668.483
335.1423, 8668.398
335.6245, 8693.195
336.1066, 8735.006
336.5887, 8752.670
337.0708, 8736.140
337.5529, 8717.783
338.0350, 8719.308
338.5172, 8745.152
338.9993, 8769.628
339.4814, 8793.539
339.9635, 8813.234
340.4456, 8816.411
340.9277, 8799.772
341.4099, 8783.834
341.8920, 8779.973
342.3741, 8788.262
342.8562, 8800.148
343.3383, 8816.346
343.8204, 8833.591
344.3026, 8842.853
344.7847, 8844.013
345.2668, 8853.667
345.7489, 8887.701
346.2310, 8939.036
346.7131, 8972.905
347.1953, 8986.567
347.6774, 8990.366
348.1595, 8996.912
348.6416, 9004.628
349.1237, 9007.014
349.6058, 8993.884
350.0880, 8975.361
350.5700, 8972.672
351.0522, 8986.602
351.5343, 9005.057
352.0164, 9017.414
352.4985, 9026.206
352.9806, 9036.628
353.4627, 9051.018
353.9449, 9067.938
354.4270, 9085.793
354.9091, 9104.705
355.3912, 9125.740
355.8733, 9153.644
356.3554, 9182.525
356.8376, 9204.950
357.3197, 9212.425
357.8018, 9220.537
358.2839, 9243.812
358.7660, 9277.697
359.2481, 9304.571
359.7303, 9297.874
360.2124, 9291.159
360.6945, 9311.932
361.1766, 9381.809
361.6587, 9449.513
362.1408, 9500.184
362.6230, 9534.193
363.1051, 9551.787
363.5872, 9524.356
364.0693, 9502.939
364.5514, 9514.576
365.0335, 9576.047
365.5157, 9631.832
365.9978, 9673.860
366.4799, 9704.966
366.9620, 9729.444
367.4441, 9739.081
367.9262, 9750.340
368.4084, 9769.027
368.8905, 9797.829
369.3726, 9819.384
369.8547, 9823.506
370.3368, 9826.884
370.8189, 9848.102
371.3011, 9914.404
371.7832, 9953.880
372.2653, 9940.798
372.7474, 9880.098
373.2295, 9863.934
373.7116, 9913.453
374.1938, 9975.703
374.6759, 10008.80
375.1580, 10002.98
375.6401, 10002.00
376.1222, 10005.91
376.6043, 10020.37
377.0865, 10073.23
377.5686, 10173.94
378.0507, 10269.88
378.5328, 10320.07
379.0149, 10325.43
379.4970, 10351.18
379.9792, 10405.76
380.4613, 10474.31
380.9434, 10525.39
381.4255, 10560.87
381.9076, 10605.82
382.3897, 10680.46
382.8719, 10774.85
383.3540, 10854.55
383.8361, 10918.07
384.3182, 10975.63
384.8003, 11032.26
385.2824, 11091.29
385.7646, 11162.15
386.2467, 11251.68
386.7288, 11354.00
387.2109, 11466.70
387.6930, 11590.39
388.1751, 11709.38
388.6573, 11813.30
389.1394, 11907.56
389.6215, 11994.97
390.1036, 12056.45
390.5857, 12136.86
391.0678, 12275.59
391.5499, 12461.38
392.0320, 12654.65
392.5142, 12837.44
392.9963, 13017.48
393.4784, 13201.40
393.9605, 13389.90
394.4426, 13580.01
394.9247, 13752.88
395.4069, 13928.57
395.8890, 14144.41
396.3711, 14430.78
396.8532, 14736.32
397.3353, 15042.25
397.8174, 15341.79
398.2996, 15661.33
398.7817, 16019.14
399.2638, 16388.92
399.7459, 16740.46
400.2280, 17008.41
400.7101, 17347.02
401.1923, 17803.90
401.6744, 18368.83
402.1565, 18913.30
402.6386, 19411.30
403.1207, 19924.38
403.6028, 20499.93
404.0850, 21157.24
404.5671, 21820.79
405.0492, 22490.50
405.5313, 23163.21
406.0134, 23825.55
406.4955, 24464.79
406.9777, 25125.43
407.4598, 25851.65
407.9419, 26642.19
408.4240, 27363.03
408.9061, 27991.89
409.3882, 28594.70
409.8704, 29288.12
410.3525, 30057.79
410.8346, 30756.14
411.3167, 31307.10
411.7988, 31758.97
412.2809, 32216.64
412.7631, 32684.54
413.2452, 33090.12
413.7273, 33376.88
414.2094, 33553.85
414.6915, 33636.58
415.1736, 33646.70
415.6558, 33542.37
416.1379, 33263.98
416.6200, 32831.11
417.1021, 32328.51
417.5842, 31797.65
418.0663, 31213.02
418.5485, 30547.72
419.0306, 29759.17
419.5127, 28974.33
419.9948, 28195.08
420.4769, 27459.06
420.9590, 26812.92
421.4412, 26355.57
421.9233, 25905.68
422.4054, 25408.78
422.8875, 24870.94
423.3696, 24239.65
423.8517, 23424.69
424.3339, 22564.97
424.8160, 21760.56
425.2981, 21005.88
425.7802, 20327.51
426.2623, 19728.46
426.7444, 19207.70
427.2266, 18745.84
427.7087, 18353.82
428.1908, 17997.40
428.6729, 17651.69
429.1550, 17311.05
429.6371, 17014.82
430.1193, 16779.80
430.6014, 16575.49
431.0835, 16338.77
431.5656, 16063.58
432.0477, 15808.56
432.5298, 15600.88
433.0119, 15434.79
433.4940, 15282.06
433.9762, 15144.94
434.4583, 15004.34
434.9404, 14822.66
435.4225, 14616.63
435.9046, 14451.25
436.3867, 14362.90
436.8689, 14304.15
437.3510, 14209.07
437.8331, 14083.75
438.3152, 13962.00
438.7973, 13867.64
439.2794, 13787.65
439.7616, 13707.92
440.2437, 13627.31
440.7258, 13545.12
441.2079, 13455.16
441.6900, 13364.08
442.1721, 13283.20
442.6543, 13240.60
443.1364, 13188.51
443.6185, 13096.16
444.1006, 12960.21
444.5827, 12837.45
445.0648, 12739.26
445.5470, 12659.75
446.0291, 12594.51
446.5112, 12565.59
446.9933, 12524.71
447.4754, 12467.78
447.9576, 12396.76
448.4397, 12313.75
448.9218, 12205.32
449.4039, 12105.51
449.8860, 12032.04
450.3681, 11994.96
450.8503, 11944.69
451.3324, 11873.63
451.8145, 11798.82
452.2966, 11745.91
452.7787, 11716.89
453.2608, 11689.63
453.7430, 11655.84
454.2251, 11618.68
454.7072, 11592.63
455.1893, 11578.40
455.6714, 11562.50
456.1535, 11529.14
456.6357, 11484.53
457.1178, 11448.50
457.5999, 11426.84
458.0820, 11410.26
458.5641, 11392.38
459.0462, 11371.37
459.5284, 11341.59
460.0105, 11289.12
460.4926, 11233.76
460.9747, 11194.06
461.4568, 11171.21
461.9389, 11159.22
462.4211, 11170.92
462.9032, 11185.14
463.3853, 11179.29
463.8674, 11122.33
464.3495, 11069.62
464.8316, 11037.41
465.3138, 11023.08
465.7959, 11013.92
466.2780, 11017.40
466.7601, 11017.70
467.2422, 11006.62
467.7243, 10975.46
468.2065, 10951.76
468.6886, 10934.17
469.1707, 10924.78
469.6528, 10928.25
470.1349, 10951.25
470.6170, 10972.45
471.0992, 10989.25
471.5813, 11000.83
472.0634, 10997.34
472.5455, 10976.76
473.0276, 10949.72
473.5097, 10920.73
473.9918, 10890.35
474.4739, 10869.98
474.9561, 10861.99
475.4382, 10862.07
475.9203, 10865.74
476.4024, 10872.24
476.8845, 10878.37
477.3666, 10880.43
477.8488, 10881.82
478.3309, 10891.25
478.8130, 10908.91
479.2951, 10918.30
479.7772, 10902.97
480.2593, 10874.50
480.7415, 10845.46
481.2236, 10812.67
481.7057, 10789.23
482.1878, 10787.95
482.6699, 10801.58
483.1520, 10809.71
483.6342, 10801.47
484.1163, 10790.92
484.5984, 10783.59
485.0805, 10780.28
485.5626, 10779.59
486.0447, 10789.09
486.5269, 10796.78
487.0090, 10790.17
487.4911, 10761.08
487.9732, 10732.97
488.4553, 10705.88
488.9374, 10682.39
489.4196, 10675.77
489.9017, 10690.73
490.3838, 10707.12
490.8659, 10713.13
491.3480, 10708.84
491.8301, 10703.58
492.3123, 10696.88
492.7944, 10691.33
493.2765, 10691.72
493.7586, 10696.61
494.2407, 10699.68
494.7228, 10697.84
495.2050, 10693.65
495.6871, 10689.18
496.1692, 10685.01
496.6513, 10684.45
497.1334, 10690.78
497.6155, 10701.43
498.0977, 10716.48
498.5798, 10740.50
499.0619, 10754.88
499.5440, 10739.17
500.0261, 10710.67
500.5082, 10694.00
500.9904, 10710.96
501.4725, 10725.11
501.9546, 10718.53
502.4367, 10690.87
502.9188, 10686.75
503.4009, 10735.18
503.8831, 10780.48
504.3652, 10788.21
504.8473, 10731.08
505.3294, 10704.97
505.8115, 10722.68
506.2936, 10762.45
506.7758, 10787.93
507.2579, 10798.34
507.7400, 10801.07
508.2221, 10799.51
508.7042, 10792.56
509.1863, 10770.78
509.6685, 10733.51
510.1506, 10698.14
510.6327, 10681.63
511.1148, 10677.72
511.5969, 10669.37
512.0790, 10650.25
512.5612, 10636.26
513.0433, 10648.28
513.5254, 10677.05
514.0075, 10702.87
514.4896, 10720.11
514.9717, 10728.57
515.4539, 10725.86
515.9360, 10712.43
516.4181, 10697.67
516.9002, 10678.91
517.3823, 10664.06
517.8644, 10658.68
518.3466, 10671.97
518.8287, 10682.76
519.3108, 10692.84
519.7929, 10699.21
520.2750, 10694.81
520.7571, 10670.05
521.2393, 10651.42
521.7214, 10643.09
522.2035, 10645.38
522.6856, 10672.36
523.1677, 10732.01
523.6498, 10786.79
524.1320, 10804.29
524.6141, 10787.21
525.0962, 10768.59
525.5783, 10752.98
526.0604, 10733.75
526.5425, 10692.04
527.0247, 10637.39
527.5068, 10599.03
527.9889, 10599.62
528.4710, 10617.87
528.9531, 10640.13
529.4352, 10664.50
529.9174, 10673.98
530.3995, 10649.07
530.8816, 10611.85
531.3637, 10578.95
531.8458, 10554.48
532.3279, 10533.27
532.8101, 10505.30
533.2922, 10482.02
533.7743, 10481.52
534.2564, 10537.16
534.7385, 10577.10
535.2206, 10583.24
535.7027, 10559.33
536.1848, 10546.67
536.6669, 10544.40
537.1490, 10554.27
537.6312, 10586.28
538.1133, 10644.64
538.5954, 10667.88
539.0775, 10646.50
539.5596, 10609.94
540.0417, 10598.22
540.5239, 10607.67
541.0060, 10616.64
541.4881, 10616.91
541.9702, 10614.03
542.4523, 10615.77
542.9344, 10621.59
543.4166, 10628.71
543.8987, 10632.07
544.3808, 10637.68
544.8629, 10651.14
545.3450, 10673.63
545.8271, 10699.73
546.3093, 10741.96
546.7914, 10779.67
547.2735, 10792.43
547.7556, 10742.95
548.2377, 10706.26
548.7198, 10698.36
549.2020, 10711.87
549.6841, 10723.47
550.1662, 10734.75
550.6483, 10741.76
551.1304, 10741.85
551.6125, 10734.75
552.0947, 10733.35
552.5768, 10740.49
553.0589, 10745.67
553.5410, 10734.06
554.0231, 10708.55
554.5052, 10693.99
554.9874, 10698.73
555.4695, 10708.32
555.9516, 10692.92
556.4337, 10662.89
556.9158, 10653.02
557.3979, 10706.12
557.8801, 10769.46
558.3622, 10792.52
558.8443, 10776.45
559.3264, 10756.99
559.8085, 10748.48
560.2906, 10744.55
560.7728, 10740.54
561.2549, 10733.46
561.7370, 10730.09
562.2191, 10734.62
562.7012, 10741.99
563.1833, 10745.93
563.6655, 10748.18
564.1476, 10742.33
564.6297, 10719.83
565.1118, 10687.34
565.5939, 10687.20
566.0760, 10727.24
566.5582, 10766.23
567.0403, 10777.60
567.5224, 10765.66
568.0045, 10757.87
568.4866, 10756.36
568.9688, 10753.31
569.4509, 10734.61
569.9330, 10709.04
570.4151, 10694.77
570.8972, 10702.93
571.3793, 10716.07
571.8615, 10718.90
572.3436, 10715.96
572.8257, 10718.58
573.3078, 10738.25
573.7899, 10758.49
574.2720, 10770.64
574.7542, 10773.67
575.2363, 10777.40
575.7184, 10782.56
576.2005, 10788.66
576.6826, 10794.12
577.1647, 10793.08
577.6469, 10809.21
578.1290, 10855.04
578.6111, 10903.89
579.0932, 10902.99
579.5753, 10847.59
580.0574, 10812.03
580.5396, 10828.42
581.0217, 10873.65
581.5038, 10889.66
581.9859, 10878.97
582.4680, 10866.93
582.9501, 10873.06
583.4323, 10886.16
583.9144, 10892.77
584.3965, 10891.57
584.8786, 10885.28
585.3607, 10863.86
585.8428, 10843.78
586.3250, 10841.49
586.8071, 10877.65
587.2892, 10912.10
587.7713, 10941.20
588.2534, 10963.50
588.7355, 10975.86
589.2177, 10975.06
589.6998, 10968.86
590.1819, 10957.21
590.6640, 10940.59
591.1461, 10926.61
591.6282, 10913.04
592.1104, 10909.23
592.5925, 10931.11
593.0746, 10972.44
593.5567, 10993.40
594.0388, 10990.14
594.5209, 10969.07
595.0031, 10917.64
595.4852, 10855.47
595.9673, 10824.21
596.4494, 10859.13
596.9315, 10903.20
597.4136, 10917.48
597.8958, 10909.18
598.3779, 10897.60
598.8600, 10886.23
599.3421, 10876.36
599.8242, 10868.39
600.3063, 10862.36
600.7885, 10860.08
601.2706, 10862.45
601.7527, 10867.73
602.2348, 10875.89
602.7169, 10888.79
603.1990, 10895.29
603.6812, 10891.63
604.1633, 10887.41
604.6454, 10899.54
605.1275, 10926.38
605.6096, 10948.95
606.0917, 10962.45
606.5739, 10967.68
607.0560, 10959.63
607.5381, 10942.45
608.0202, 10933.34
608.5023, 10950.46
608.9844, 10973.65
609.4666, 10986.23
609.9487, 10986.90
610.4308, 10987.07
610.9129, 10981.39
611.3950, 10982.85
611.8771, 11002.36
612.3593, 11074.26
612.8414, 11107.46
613.3235, 11078.88
613.8056, 11028.81
614.2877, 11018.26
614.7698, 11061.03
615.2520, 11086.64
615.7341, 11073.90
616.2162, 11038.94
616.6983, 11025.13
617.1804, 11031.77
617.6625, 11042.92
618.1446, 11047.85
618.6267, 11052.22
619.1088, 11066.18
619.5909, 11089.69
620.0731, 11115.67
620.5552, 11149.75
621.0373, 11177.53
621.5194, 11182.71
622.0015, 11149.69
622.4836, 11123.91
622.9658, 11122.26
623.4479, 11131.98
623.9300, 11136.76
624.4121, 11132.64
624.8942, 11128.15
625.3763, 11121.93
625.8585, 11116.74
626.3406, 11123.14
626.8227, 11143.66
627.3048, 11162.53
627.7869, 11175.03
628.2690, 11180.88
628.7512, 11175.10
629.2333, 11158.49
629.7154, 11142.72
630.1975, 11139.80
630.6796, 11142.82
631.1617, 11141.46
631.6439, 11133.63
632.1260, 11127.82
632.6081, 11144.10
633.0902, 11158.88
633.5723, 11146.42
634.0544, 11056.47
634.5366, 10992.21
635.0187, 10981.91
635.5008, 11002.47
635.9829, 11004.92
636.4650, 10979.74
636.9471, 10955.55
637.4293, 10938.83
637.9114, 10929.08
