##NAMES=Crocoite
##RRUFFID=R040053
##IDEAL CHEMISTRY=Pb^2+^Cr^6+^O_4_
##LOCALITY=Dundas, Tasmania
##OWNER=RRUFF
##SOURCE=Bob Downs
##DESCRIPTION=Reddish-orange prismatic crystal
##STATUS=The identification of this mineral has been confirmed by X-ray diffraction and chemical analysis
##URL=rruff.info/R040053
##MEASURED CHEMISTRY=(Pb_.995_Mn_.005_)CrO_4_
87.29785, 13.77183
87.77997, 18.01521
88.26208, 21.00835
88.74420, 22.43390
89.22632, 22.73115
89.70844, 22.37314
90.19055, 21.54882
90.67267, 20.29395
91.15479, 20.06515
91.63690, 22.61056
92.11902, 24.48907
92.60114, 24.37774
93.08325, 22.63540
93.56537, 20.44288
94.04749, 18.88399
94.52960, 18.14273
95.01172, 17.00694
95.49384, 14.68162
95.97595, 12.64909
96.45807, 11.81504
96.94019, 12.24751
97.42230, 13.43687
97.90442, 14.99876
98.38654, 17.69345
98.86865, 18.24868
99.35077, 13.95370
99.83289, 8.847350
100.3150, 7.225468
100.7971, 10.31729
101.2792, 15.40691
101.7614, 18.10926
102.2435, 17.95748
102.7256, 17.35368
103.2077, 15.48622
103.6898, 13.61571
104.1719, 14.41241
104.6541, 19.49870
105.1362, 26.35422
105.6183, 30.31701
106.1004, 31.09002
106.5825, 30.66714
107.0646, 28.82435
107.5468, 26.14712
108.0289, 25.44209
108.5110, 28.87798
108.9931, 34.28200
109.4752, 37.42603
109.9573, 37.03313
110.4394, 36.48857
110.9216, 38.69978
111.4037, 43.73822
111.8858, 49.39177
112.3679, 55.55389
112.8500, 61.34176
113.3321, 65.33796
113.8143, 66.12930
114.2964, 66.32635
114.7785, 70.28653
115.2606, 79.55968
115.7427, 87.53455
116.2248, 89.57621
116.7070, 89.04958
117.1891, 89.84336
117.6712, 93.60912
118.1533, 99.72645
118.6354, 106.3264
119.1175, 112.0329
119.5997, 120.9383
120.0818, 133.4330
120.5639, 149.5828
121.0460, 169.0861
121.5281, 189.9737
122.0102, 213.5695
122.4924, 250.1065
122.9745, 302.7163
123.4566, 366.4539
123.9387, 435.4140
124.4208, 513.0488
124.9029, 606.1078
125.3851, 718.4028
125.8672, 849.9460
126.3493, 1006.496
126.8314, 1199.802
127.3135, 1410.273
127.7956, 1642.206
128.2778, 1889.118
128.7599, 2141.194
129.2420, 2391.839
129.7241, 2647.457
130.2062, 2866.708
130.6883, 3056.562
131.1705, 3210.270
131.6526, 3323.189
132.1347, 3395.309
132.6168, 3430.026
133.0989, 3429.340
133.5810, 3385.863
134.0632, 3320.846
134.5453, 3234.304
135.0274, 3130.922
135.5095, 3005.300
135.9916, 2860.208
136.4737, 2711.212
136.9559, 2581.792
137.4380, 2483.525
137.9201, 2386.144
138.4022, 2279.569
138.8843, 2179.223
139.3664, 2096.870
139.8486, 2036.339
140.3307, 1994.670
140.8128, 1967.810
141.2949, 1960.998
141.7770, 1963.307
142.2591, 1973.651
142.7413, 1993.384
143.2234, 2027.542
143.7055, 2078.219
144.1876, 2136.152
144.6697, 2183.212
145.1518, 2222.548
145.6340, 2246.367
146.1161, 2245.908
146.5982, 2231.103
147.0803, 2217.413
147.5624, 2211.736
148.0445, 2206.643
148.5267, 2182.066
149.0088, 2134.311
149.4909, 2079.587
149.9730, 2019.051
150.4551, 1954.180
150.9372, 1887.088
151.4194, 1817.006
151.9015, 1747.264
152.3836, 1686.224
152.8657, 1638.301
153.3478, 1589.576
153.8299, 1533.568
154.3121, 1472.619
154.7942, 1411.516
155.2763, 1350.372
155.7584, 1293.200
156.2405, 1249.464
156.7226, 1223.619
157.2048, 1202.405
157.6869, 1179.031
158.1690, 1154.523
158.6511, 1133.315
159.1332, 1119.175
159.6153, 1108.864
160.0975, 1093.663
160.5796, 1066.861
161.0617, 1044.721
161.5438, 1042.145
162.0259, 1056.623
162.5080, 1067.589
162.9902, 1062.700
163.4723, 1049.215
163.9544, 1043.218
164.4365, 1048.558
164.9186, 1056.907
165.4007, 1062.096
165.8829, 1064.264
166.3650, 1066.513
166.8471, 1072.281
167.3292, 1077.967
167.8113, 1077.396
168.2934, 1066.958
168.7756, 1054.291
169.2577, 1046.876
169.7398, 1044.892
170.2219, 1042.120
170.7040, 1032.979
171.1861, 1022.474
171.6683, 1018.422
172.1504, 1025.679
172.6325, 1034.664
173.1146, 1034.332
173.5967, 1023.776
174.0788, 1013.600
174.5610, 1008.985
175.0431, 1007.565
175.5252, 1007.035
176.0073, 1008.578
176.4894, 1008.534
176.9715, 1000.742
177.4537, 983.6914
177.9358, 969.1564
178.4179, 964.1635
178.9000, 964.3976
179.3821, 966.1067
179.8642, 970.0581
180.3464, 972.7166
180.8285, 967.9922
181.3106, 954.1800
181.7927, 942.2537
182.2748, 939.5501
182.7569, 940.5392
183.2391, 940.4409
183.7212, 938.7502
184.2033, 934.2229
184.6854, 923.6180
185.1675, 905.2781
185.6496, 888.8987
186.1318, 878.9223
186.6139, 873.0804
187.0960, 870.1865
187.5781, 870.8195
188.0602, 872.5215
188.5423, 873.2515
189.0245, 874.0369
189.5066, 869.2344
189.9887, 849.7305
190.4708, 826.3087
190.9529, 807.8799
191.4350, 796.6512
191.9172, 792.2213
192.3993, 797.5491
192.8814, 816.4086
193.3635, 828.2020
193.8456, 816.1489
194.3277, 797.3400
194.8099, 787.4496
195.2920, 792.4595
195.7741, 802.0235
196.2562, 801.3259
196.7383, 787.7223
197.2204, 776.2006
197.7026, 774.4808
198.1847, 776.0609
198.6668, 775.5973
199.1489, 771.3529
199.6310, 766.3947
200.1131, 765.3997
200.5953, 769.4677
201.0774, 771.5780
201.5595, 766.3411
202.0416, 759.6693
202.5237, 756.4869
203.0058, 758.2903
203.4880, 761.4416
203.9701, 760.9934
204.4522, 756.1262
204.9343, 753.1634
205.4164, 758.4529
205.8985, 763.7932
206.3807, 761.6521
206.8628, 749.9356
207.3449, 736.7147
207.8270, 731.6509
208.3091, 735.7242
208.7912, 738.3385
209.2734, 734.0435
209.7555, 729.1188
210.2376, 728.4297
210.7197, 732.7745
211.2018, 739.2051
211.6839, 746.0884
212.1660, 753.5987
212.6482, 757.6584
213.1303, 754.3629
213.6124, 749.4030
214.0945, 747.3542
214.5766, 748.6481
215.0587, 749.9553
215.5409, 748.4031
216.0230, 744.0508
216.5051, 738.6600
216.9872, 730.2892
217.4693, 723.2449
217.9514, 721.0766
218.4336, 723.7923
218.9157, 727.6984
219.3978, 730.0987
219.8799, 731.1680
220.3620, 732.7537
220.8441, 735.9672
221.3263, 738.7529
221.8084, 739.4484
222.2905, 738.2085
222.7726, 736.6202
223.2547, 736.5880
223.7368, 737.3923
224.2190, 734.5490
224.7011, 724.2324
225.1832, 715.0728
225.6653, 714.8082
226.1474, 721.6364
226.6295, 727.3520
227.1117, 725.7520
227.5938, 719.4559
228.0759, 716.7072
228.5580, 719.0697
229.0401, 723.2614
229.5222, 728.0306
230.0044, 732.8423
230.4865, 735.7574
230.9686, 734.4620
231.4507, 730.9614
231.9328, 729.6864
232.4149, 731.5489
232.8971, 733.5429
233.3792, 732.5632
233.8613, 730.0890
234.3434, 729.3469
234.8255, 734.4612
235.3076, 740.6584
235.7898, 739.6090
236.2719, 729.7958
236.7540, 720.6649
237.2361, 718.7825
237.7182, 721.8134
238.2003, 725.5272
238.6825, 730.8456
239.1646, 735.1774
239.6467, 735.5525
240.1288, 731.9120
240.6109, 726.1602
241.0930, 715.9891
241.5752, 705.5428
242.0573, 703.7992
242.5394, 717.9034
243.0215, 733.1354
243.5036, 737.5791
243.9857, 732.3097
244.4679, 725.6836
244.9500, 720.1820
245.4321, 716.6815
245.9142, 716.5852
246.3963, 721.3644
246.8784, 726.7685
247.3606, 730.6254
247.8427, 733.2601
248.3248, 735.7870
248.8069, 738.5814
249.2890, 741.4913
249.7711, 744.3913
250.2533, 747.5701
250.7354, 749.9370
251.2175, 750.2761
251.6996, 749.6151
252.1817, 749.9794
252.6638, 752.0761
253.1460, 754.9431
253.6281, 756.9657
254.1102, 757.7328
254.5923, 759.4302
255.0744, 764.6228
255.5565, 770.0745
256.0387, 770.5656
256.5208, 764.9189
257.0029, 758.8717
257.4850, 759.8506
257.9671, 770.4609
258.4492, 776.7468
258.9314, 773.4505
259.4135, 768.8823
259.8956, 770.6526
260.3777, 779.0461
260.8598, 788.1987
261.3419, 792.8735
261.8241, 792.4563
262.3062, 792.0499
262.7883, 790.0730
263.2704, 789.4964
263.7525, 792.9731
264.2346, 799.5432
264.7168, 805.9570
265.1989, 810.0826
265.6810, 811.9389
266.1631, 811.3533
266.6452, 803.1545
267.1273, 798.4352
267.6095, 803.3073
268.0916, 813.6789
268.5737, 821.9216
269.0558, 823.7197
269.5379, 820.8979
270.0201, 820.8152
270.5022, 825.8094
270.9843, 831.1362
271.4664, 838.4951
271.9485, 845.2122
272.4306, 847.0558
272.9128, 842.5057
273.3949, 835.7982
273.8770, 836.2366
274.3591, 850.9668
274.8412, 860.3223
275.3233, 858.6467
275.8055, 855.1817
276.2876, 857.4196
276.7697, 866.6194
277.2518, 878.1971
277.7339, 886.3511
278.2160, 890.0847
278.6982, 893.4803
279.1803, 895.7292
279.6624, 898.3354
280.1445, 903.1499
280.6266, 909.4111
281.1087, 914.1302
281.5909, 914.3338
282.0730, 910.0013
282.5551, 905.1748
283.0372, 895.2524
283.5193, 890.4865
284.0014, 901.0261
284.4836, 919.2688
284.9657, 928.9542
285.4478, 915.9541
285.9299, 889.4041
286.4120, 880.8036
286.8941, 897.9375
287.3763, 916.7477
287.8584, 927.9734
288.3405, 934.8417
288.8226, 940.8096
289.3047, 946.6611
289.7868, 952.8138
290.2690, 961.5358
290.7511, 973.8071
291.2332, 980.2075
291.7153, 969.8195
292.1974, 956.2182
292.6795, 955.3633
293.1617, 971.4015
293.6438, 989.1381
294.1259, 993.9709
294.6080, 988.9383
295.0901, 992.1777
295.5722, 1011.726
296.0544, 1036.357
296.5365, 1051.947
297.0186, 1058.178
297.5007, 1066.298
297.9828, 1082.610
298.4649, 1103.180
298.9471, 1121.758
299.4292, 1137.606
299.9113, 1150.901
300.3934, 1160.623
300.8755, 1166.984
301.3576, 1175.681
301.8398, 1187.366
302.3219, 1201.547
302.8040, 1219.259
303.2861, 1239.897
303.7682, 1259.114
304.2503, 1273.071
304.7325, 1282.854
305.2146, 1298.889
305.6967, 1327.427
306.1788, 1354.505
306.6609, 1372.932
307.1430, 1386.511
307.6252, 1403.826
308.1073, 1429.249
308.5894, 1459.004
309.0715, 1482.369
309.5536, 1490.243
310.0357, 1503.201
310.5179, 1523.801
311.0000, 1548.825
311.4821, 1574.527
311.9642, 1600.240
312.4463, 1628.937
312.9284, 1665.508
313.4106, 1714.403
313.8927, 1758.660
314.3748, 1792.802
314.8569, 1828.048
315.3390, 1870.326
315.8211, 1919.485
316.3033, 1971.482
316.7854, 2022.628
317.2675, 2073.035
317.7496, 2130.554
318.2317, 2204.280
318.7138, 2274.424
319.1960, 2322.090
319.6781, 2364.709
320.1602, 2432.336
320.6423, 2545.444
321.1244, 2681.751
321.6065, 2785.440
322.0887, 2841.021
322.5708, 2909.159
323.0529, 3012.136
323.5350, 3134.720
324.0171, 3268.767
324.4992, 3413.901
324.9814, 3559.067
325.4635, 3686.746
325.9456, 3800.186
326.4277, 3930.362
326.9098, 4078.671
327.3919, 4254.199
327.8741, 4462.252
328.3562, 4701.573
328.8383, 4964.955
329.3204, 5248.244
329.8025, 5553.833
330.2846, 5886.317
330.7668, 6244.075
331.2489, 6629.009
331.7310, 7046.084
332.2131, 7492.491
332.6952, 7950.458
333.1773, 8398.200
333.6595, 8873.552
334.1415, 9412.013
334.6237, 10002.05
335.1058, 10603.10
335.5879, 11211.08
336.0700, 11794.86
336.5521, 12233.78
337.0342, 12606.11
337.5164, 12756.39
337.9985, 12606.34
338.4806, 12241.21
338.9627, 11706.42
339.4448, 11026.72
339.9269, 10312.37
340.4091, 9714.455
340.8912, 9221.282
341.3733, 8899.540
341.8554, 8742.015
342.3375, 8731.951
342.8196, 8873.371
343.3018, 9156.321
343.7839, 9557.325
344.2660, 10056.19
344.7481, 10654.63
345.2302, 11380.66
345.7123, 12223.22
346.1945, 13221.32
346.6766, 14372.27
347.1587, 15682.61
347.6408, 17155.75
348.1229, 18796.40
348.6050, 20619.84
349.0872, 22644.66
349.5693, 24871.27
350.0514, 27336.77
350.5335, 30103.04
351.0156, 33097.04
351.4977, 36273.63
351.9799, 39640.28
352.4620, 43175.09
352.9441, 46898.69
353.4262, 50793.77
353.9083, 54777.00
354.3904, 58881.18
354.8726, 62996.09
355.3547, 67228.62
355.8368, 71448.57
356.3189, 74958.64
356.8010, 77904.33
357.2831, 79883.82
357.7653, 80586.68
358.2474, 79996.51
358.7295, 78042.46
359.2116, 74518.30
359.6937, 69685.48
360.1758, 64370.39
360.6580, 58221.21
361.1401, 52203.33
361.6222, 46367.20
362.1043, 40892.58
362.5864, 36037.93
363.0685, 31856.37
363.5507, 28246.12
364.0328, 25087.10
364.5149, 22426.07
364.9970, 20124.09
365.4791, 18175.68
365.9612, 16519.30
366.4434, 15169.86
366.9255, 14088.52
367.4076, 13210.30
367.8897, 12486.84
368.3718, 11918.43
368.8539, 11511.31
369.3361, 11322.99
369.8182, 11230.06
370.3003, 11179.23
370.7824, 11207.98
371.2645, 11357.94
371.7466, 11643.41
372.2288, 12047.27
372.7109, 12547.19
373.1930, 13141.00
373.6751, 13853.73
374.1572, 14771.63
374.6393, 15728.27
375.1215, 16713.38
375.6036, 17682.25
376.0857, 18319.25
376.5678, 18486.86
377.0499, 18209.17
377.5320, 17459.46
378.0142, 16206.48
378.4963, 14752.91
378.9784, 13215.32
379.4605, 11629.90
379.9426, 10152.82
380.4247, 8721.823
380.9069, 7465.550
381.3890, 6440.602
381.8711, 5627.837
382.3532, 4994.359
382.8353, 4532.246
383.3174, 4196.787
383.7996, 3913.458
384.2817, 3690.896
384.7638, 3510.595
385.2459, 3386.683
385.7280, 3293.015
386.2101, 3216.001
386.6923, 3152.477
387.1744, 3102.685
387.6565, 3066.452
388.1386, 3043.939
388.6207, 3037.484
389.1028, 3044.576
389.5850, 3073.444
390.0671, 3126.656
390.5492, 3200.826
391.0313, 3290.191
391.5134, 3391.846
391.9955, 3515.650
392.4777, 3679.447
392.9598, 3886.585
393.4419, 4103.152
393.9240, 4323.363
394.4061, 4553.011
394.8882, 4784.411
395.3704, 5021.586
395.8525, 5290.021
396.3346, 5606.186
396.8167, 5959.859
397.2988, 6339.832
397.7809, 6747.004
398.2631, 7163.454
398.7452, 7623.954
399.2273, 8068.250
399.7094, 8327.931
400.1915, 8439.289
400.6736, 8325.112
401.1558, 7888.058
401.6379, 7223.413
402.1200, 6447.041
402.6021, 5588.308
403.0842, 4733.666
403.5663, 3999.343
404.0485, 3389.955
404.5306, 2897.163
405.0127, 2545.435
405.4948, 2267.269
405.9769, 2046.279
406.4590, 1871.614
406.9412, 1731.174
407.4233, 1619.459
407.9054, 1532.170
408.3875, 1457.913
408.8696, 1398.526
409.3517, 1349.223
409.8339, 1314.444
410.3160, 1284.812
410.7981, 1252.289
411.2802, 1215.507
411.7623, 1181.271
412.2444, 1156.233
412.7266, 1139.238
413.2087, 1123.370
413.6908, 1107.574
414.1729, 1093.906
414.6550, 1086.875
415.1371, 1083.456
415.6193, 1075.317
416.1014, 1057.027
416.5835, 1036.793
417.0656, 1020.143
417.5477, 1006.622
418.0298, 994.5833
418.5120, 983.1271
418.9941, 973.2230
419.4762, 966.9399
419.9583, 966.9385
420.4404, 964.9943
420.9225, 959.3405
421.4047, 952.7776
421.8868, 947.6857
422.3689, 943.8774
422.8510, 939.6263
423.3331, 933.8129
423.8152, 926.2884
424.2974, 915.5330
424.7795, 896.0663
425.2616, 881.5584
425.7437, 876.4196
426.2258, 876.2324
426.7079, 877.7798
427.1901, 880.1154
427.6722, 880.4333
428.1543, 873.4119
428.6364, 859.8645
429.1185, 852.4160
429.6006, 855.4661
430.0828, 860.0085
430.5649, 858.7580
431.0470, 853.3565
431.5291, 848.5425
432.0112, 845.2679
432.4933, 843.3417
432.9755, 842.8649
433.4576, 843.6744
433.9397, 845.1970
434.4218, 847.3412
434.9039, 849.7488
435.3860, 851.6777
435.8682, 852.9771
436.3503, 854.1306
436.8324, 852.7665
437.3145, 853.0346
437.7966, 861.5016
438.2787, 875.8447
438.7609, 885.2084
439.2430, 880.0903
439.7251, 862.9344
440.2072, 853.2670
440.6893, 856.4731
441.1714, 859.1171
441.6536, 858.0160
442.1357, 855.3351
442.6178, 853.2172
443.0999, 852.1625
443.5820, 851.0982
444.0641, 849.6241
444.5463, 847.4754
445.0284, 842.7194
445.5105, 834.6132
445.9926, 825.0993
446.4747, 814.2261
446.9568, 802.9697
447.4390, 794.3257
447.9211, 792.0521
448.4032, 789.4727
448.8853, 782.0115
449.3674, 770.8464
449.8495, 758.0981
450.3317, 744.3610
450.8138, 731.3223
451.2959, 722.2302
451.7780, 720.3477
452.2601, 713.4117
452.7422, 696.5606
453.2244, 679.4712
453.7065, 667.0851
454.1886, 659.0114
454.6707, 653.0358
455.1528, 648.0212
455.6349, 643.7144
456.1171, 638.9438
456.5992, 632.3545
457.0813, 628.9607
457.5634, 635.4769
458.0455, 641.6799
458.5276, 639.3035
459.0098, 628.2109
459.4919, 616.4203
459.9740, 608.0947
460.4561, 602.6669
460.9382, 599.3422
461.4203, 598.1429
461.9025, 598.2028
462.3846, 599.9329
462.8667, 602.2381
463.3488, 601.3160
463.8309, 593.9190
464.3130, 588.6226
464.7952, 589.4122
465.2773, 592.8360
465.7594, 595.0917
466.2415, 595.3648
466.7236, 594.2875
467.2057, 591.7391
467.6879, 587.4422
468.1700, 589.6410
468.6521, 608.0562
469.1342, 621.8864
469.6163, 624.1360
470.0984, 620.3575
470.5806, 616.9113
471.0627, 615.8552
471.5448, 616.5187
472.0269, 619.2051
472.5090, 623.6110
472.9911, 624.7330
473.4733, 619.3531
473.9554, 615.4561
474.4375, 623.0068
474.9196, 637.8185
475.4017, 647.0851
475.8839, 645.7917
476.3660, 640.8611
476.8481, 635.6027
477.3302, 630.2615
477.8123, 625.4323
478.2944, 621.3379
478.7766, 617.7427
479.2587, 614.4254
479.7408, 611.6890
480.2229, 608.2194
480.7050, 603.6845
481.1871, 598.8619
481.6693, 592.9766
482.1514, 587.2480
482.6335, 584.4351
483.1156, 586.3856
483.5977, 589.9734
484.0798, 588.5652
484.5620, 581.0911
485.0441, 575.5341
485.5262, 574.8506
486.0083, 575.0424
486.4904, 573.6073
486.9725, 570.4143
487.4547, 564.7535
487.9368, 554.2527
488.4189, 542.6136
488.9010, 533.2983
489.3831, 526.3386
489.8652, 522.0023
490.3474, 521.1083
490.8295, 521.0685
491.3116, 516.3671
491.7937, 503.1986
492.2758, 492.5171
492.7579, 485.8661
493.2401, 480.3806
493.7222, 473.6553
494.2043, 466.3877
494.6864, 460.9718
495.1685, 459.0736
495.6506, 459.7780
496.1328, 461.2771
496.6149, 464.8397
497.0970, 464.7525
497.5791, 457.9055
498.0612, 448.1843
498.5433, 437.4023
499.0254, 425.9198
499.5075, 416.9150
499.9897, 413.1179
500.4718, 411.8512
500.9539, 410.4742
501.4360, 408.7232
501.9181, 405.1412
502.4002, 398.3053
502.8824, 390.3612
503.3645, 386.5443
503.8466, 388.3227
504.3287, 392.0178
504.8108, 402.7789
505.2929, 411.2511
505.7751, 408.3824
506.2572, 396.7808
506.7393, 386.5319
507.2214, 384.9368
507.7035, 388.9176
508.1856, 388.7091
508.6678, 382.6729
509.1499, 378.2024
509.6320, 379.6493
510.1141, 381.3926
510.5962, 377.1656
511.0783, 367.2653
511.5605, 360.8847
512.0426, 365.5808
512.5247, 373.7550
513.0068, 375.9843
513.4890, 372.6498
513.9711, 368.9900
514.4532, 367.6985
514.9353, 367.4772
515.4174, 365.3468
515.8995, 360.9401
516.3817, 354.9949
516.8638, 344.3433
517.3459, 334.9059
517.8280, 330.9635
518.3101, 331.6734
518.7922, 333.9022
519.2744, 336.0093
519.7565, 337.8004
520.2386, 338.8726
520.7207, 339.2216
521.2028, 338.8793
521.6849, 338.1457
522.1671, 336.3470
522.6492, 332.7226
523.1313, 327.4022
523.6134, 321.8403
524.0955, 316.4613
524.5776, 311.0752
525.0598, 304.2683
525.5419, 297.0839
526.0240, 293.1938
526.5061, 294.2542
526.9882, 298.7476
527.4703, 304.4740
527.9525, 314.5315
528.4346, 317.6565
528.9167, 308.8910
529.3988, 299.0564
529.8809, 293.6863
530.3630, 290.8856
530.8452, 285.1870
531.3273, 272.9771
531.8094, 261.0607
532.2915, 262.0098
532.7736, 275.1930
533.2557, 281.3258
533.7379, 273.8759
534.2200, 264.1833
534.7021, 263.2351
535.1842, 269.7831
535.6663, 275.5943
536.1484, 280.9143
536.6306, 284.1437
537.1127, 283.8882
537.5948, 281.1265
538.0769, 276.8759
538.5590, 271.5929
539.0411, 266.6887
539.5233, 263.9936
540.0054, 263.7134
540.4875, 263.5712
540.9696, 263.4376
541.4517, 263.6422
541.9338, 266.1423
542.4160, 268.2446
542.8981, 265.7760
543.3802, 257.1242
543.8623, 248.2637
544.3444, 243.9789
544.8265, 243.0842
545.3087, 243.1436
545.7908, 243.9338
546.2729, 244.4051
546.7550, 243.9443
547.2371, 242.5351
547.7192, 240.0322
548.2014, 235.7830
548.6835, 231.3996
549.1656, 224.3895
549.6477, 219.1886
550.1298, 222.0144
550.6119, 231.4873
551.0941, 238.9660
551.5762, 236.8510
552.0583, 228.2588
552.5404, 224.6876
553.0225, 227.7775
553.5046, 228.5147
553.9868, 221.2444
554.4689, 212.9743
554.9510, 212.6635
555.4331, 220.4493
555.9152, 225.2262
556.3973, 220.6090
556.8795, 213.9635
557.3616, 212.1789
557.8437, 213.9201
558.3258, 214.0446
558.8079, 210.1789
559.2900, 204.6006
559.7722, 201.5520
560.2543, 202.3716
560.7364, 201.5677
561.2185, 197.3851
561.7006, 193.2830
562.1827, 190.4178
562.6649, 188.5322
563.1470, 187.1024
563.6291, 185.9368
564.1112, 185.1574
564.5933, 185.7193
565.0754, 186.8228
565.5576, 185.1851
566.0397, 179.9690
566.5218, 174.7810
567.0039, 172.6665
567.4860, 173.3045
567.9681, 173.2396
568.4503, 169.3442
568.9324, 168.8758
569.4145, 178.4566
569.8966, 188.6019
570.3787, 188.8502
570.8608, 179.3506
571.3430, 169.1885
571.8251, 165.8080
572.3072, 167.4836
572.7893, 168.7349
573.2714, 169.5303
573.7535, 170.0227
574.2357, 170.0446
574.7178, 169.9803
575.1999, 170.8088
575.6820, 172.6506
576.1641, 172.5787
576.6462, 167.9401
577.1284, 162.9350
577.6105, 160.2587
578.0926, 159.6581
578.5747, 160.5311
579.0568, 162.6234
579.5389, 164.9249
580.0211, 165.5810
580.5032, 164.0494
580.9852, 164.2793
581.4673, 169.7524
581.9495, 172.2104
582.4316, 165.6289
582.9137, 155.0787
583.3958, 148.3233
583.8779, 147.6588
584.3600, 148.3770
584.8422, 148.0731
