##NAMES=Crocoite
##RRUFFID=R050044
##IDEAL CHEMISTRY=Pb^2+^Cr^6+^O_4_
##LOCALITY=Red Ledge mine, Dundas, Tasmania
##OWNER=RRUFF
##SOURCE=Eugene Schlepp
##DESCRIPTION=Red crystal fragment
##STATUS=The identification of this mineral has been confirmed by X-ray diffraction and chemical analysis
##URL=rruff.info/R050044
##MEASURED CHEMISTRY=Pb_1.02_Cr_0.99_O_4_
170.3929, 5180.723
170.8750, 5202.427
171.3571, 5216.335
171.8392, 5226.523
172.3213, 5238.723
172.8034, 5255.460
173.2856, 5267.809
173.7677, 5259.018
174.2498, 5236.183
174.7319, 5223.724
175.2140, 5247.630
175.6961, 5288.604
176.1783, 5315.488
176.6604, 5317.199
177.1425, 5312.483
177.6246, 5327.344
178.1067, 5358.651
178.5888, 5387.088
179.0710, 5396.694
179.5531, 5392.833
180.0352, 5386.336
180.5173, 5378.117
180.9994, 5370.233
181.4815, 5364.247
181.9637, 5360.257
182.4458, 5362.930
182.9279, 5383.884
183.4100, 5416.935
183.8921, 5438.308
184.3742, 5434.491
184.8564, 5417.631
185.3385, 5418.207
185.8206, 5437.418
186.3027, 5459.534
186.7848, 5468.771
187.2669, 5466.337
187.7491, 5461.708
188.2312, 5455.367
188.7133, 5449.276
189.1954, 5452.935
189.6775, 5468.139
190.1596, 5484.966
190.6418, 5487.725
191.1239, 5476.920
191.6060, 5473.124
192.0881, 5490.531
192.5702, 5525.672
193.0524, 5546.869
193.5345, 5551.802
194.0166, 5548.767
194.4987, 5547.309
194.9808, 5547.058
195.4629, 5554.017
195.9451, 5578.631
196.4272, 5620.514
196.9093, 5638.254
197.3914, 5625.377
197.8735, 5596.496
198.3556, 5578.442
198.8378, 5572.486
199.3199, 5569.532
199.8020, 5562.107
200.2841, 5549.118
200.7662, 5551.456
201.2483, 5576.583
201.7305, 5611.967
202.2126, 5622.817
202.6947, 5602.302
203.1768, 5582.759
203.6589, 5587.619
204.1410, 5621.726
204.6232, 5644.003
205.1053, 5645.673
205.5874, 5635.449
206.0695, 5646.679
206.5516, 5688.861
207.0337, 5727.553
207.5159, 5734.703
207.9980, 5701.537
208.4801, 5677.793
208.9622, 5669.499
209.4443, 5675.247
209.9264, 5691.167
210.4086, 5723.495
210.8907, 5753.548
211.3728, 5763.544
211.8549, 5745.292
212.3370, 5735.920
212.8191, 5744.233
213.3013, 5767.284
213.7834, 5779.413
214.2655, 5775.048
214.7476, 5768.733
215.2297, 5775.098
215.7118, 5801.751
216.1940, 5819.628
216.6761, 5820.529
217.1582, 5805.526
217.6403, 5798.308
218.1224, 5800.383
218.6045, 5808.300
219.0867, 5820.007
219.5688, 5838.366
220.0509, 5853.593
220.5330, 5863.600
221.0151, 5868.497
221.4972, 5868.360
221.9794, 5858.863
222.4615, 5849.154
222.9436, 5850.922
223.4257, 5873.789
223.9078, 5887.777
224.3899, 5881.426
224.8721, 5851.782
225.3542, 5841.049
225.8363, 5859.416
226.3184, 5886.930
226.8005, 5898.290
227.2827, 5880.729
227.7648, 5871.642
228.2469, 5884.480
228.7290, 5923.999
229.2111, 5946.753
229.6932, 5942.546
230.1754, 5929.575
230.6575, 5932.870
231.1396, 5963.052
231.6217, 5990.831
232.1038, 6009.035
232.5859, 6017.340
233.0681, 6016.602
233.5502, 6000.232
234.0323, 5979.576
234.5144, 5971.417
234.9965, 5981.549
235.4786, 5994.629
235.9608, 6006.707
236.4429, 6017.674
236.9250, 6027.830
237.4071, 6039.075
237.8892, 6048.229
238.3713, 6048.938
238.8535, 6033.615
239.3356, 6022.635
239.8177, 6024.097
240.2998, 6042.887
240.7819, 6054.761
241.2640, 6055.140
241.7462, 6051.453
242.2283, 6057.554
242.7104, 6081.136
243.1925, 6101.753
243.6746, 6110.708
244.1567, 6101.565
244.6389, 6103.853
245.1210, 6124.066
245.6031, 6151.798
246.0852, 6167.949
246.5673, 6166.501
247.0494, 6163.766
247.5316, 6166.514
248.0137, 6178.741
248.4958, 6182.203
248.9779, 6172.264
249.4600, 6156.139
249.9421, 6146.082
250.4243, 6138.720
250.9064, 6143.447
251.3885, 6168.653
251.8706, 6227.646
252.3527, 6261.656
252.8348, 6262.312
253.3170, 6243.262
253.7991, 6228.260
254.2812, 6214.372
254.7633, 6210.516
255.2454, 6223.285
255.7275, 6259.975
256.2097, 6285.771
256.6918, 6298.798
257.1739, 6301.956
257.6560, 6298.705
258.1381, 6283.646
258.6202, 6273.354
259.1024, 6275.213
259.5845, 6292.520
260.0666, 6308.683
260.5487, 6325.059
261.0308, 6339.211
261.5129, 6346.533
261.9951, 6344.623
262.4772, 6341.461
262.9593, 6340.213
263.4414, 6341.477
263.9235, 6340.753
264.4056, 6334.699
264.8878, 6329.808
265.3699, 6340.087
265.8520, 6372.342
266.3341, 6400.579
266.8162, 6413.764
267.2983, 6409.259
267.7805, 6404.998
268.2626, 6399.212
268.7447, 6395.715
269.2268, 6404.285
269.7089, 6430.132
270.1910, 6449.188
270.6732, 6448.065
271.1553, 6423.362
271.6374, 6411.939
272.1195, 6414.924
272.6016, 6429.557
273.0837, 6456.829
273.5659, 6501.861
274.0480, 6533.902
274.5301, 6533.042
275.0122, 6497.341
275.4943, 6489.220
275.9764, 6516.534
276.4586, 6556.657
276.9407, 6574.250
277.4228, 6566.506
277.9049, 6559.048
278.3870, 6563.353
278.8691, 6578.677
279.3513, 6586.607
279.8334, 6585.011
280.3155, 6581.503
280.7976, 6588.831
281.2798, 6607.600
281.7619, 6621.522
282.2440, 6621.212
282.7261, 6609.267
283.2082, 6605.561
283.6903, 6610.789
284.1725, 6621.712
284.6546, 6637.517
285.1367, 6657.717
285.6188, 6672.710
286.1009, 6675.402
286.5830, 6669.762
287.0652, 6673.288
287.5473, 6686.645
288.0294, 6704.971
288.5115, 6726.673
288.9936, 6750.675
289.4757, 6767.333
289.9579, 6771.779
290.4400, 6767.099
290.9221, 6758.417
291.4042, 6744.965
291.8863, 6737.140
292.3684, 6748.914
292.8506, 6776.532
293.3327, 6804.153
293.8148, 6829.489
294.2969, 6850.389
294.7790, 6862.887
295.2611, 6866.989
295.7433, 6864.845
296.2254, 6850.363
296.7075, 6830.187
297.1896, 6824.282
297.6717, 6846.090
298.1538, 6878.201
298.6360, 6892.770
299.1181, 6891.207
299.6002, 6888.612
300.0823, 6897.139
300.5644, 6912.821
301.0465, 6927.994
301.5287, 6939.252
302.0108, 6950.922
302.4929, 6972.842
302.9750, 7002.265
303.4571, 7022.225
303.9392, 7004.347
304.4214, 6975.333
304.9035, 6974.768
305.3856, 7028.538
305.8677, 7086.517
306.3498, 7100.800
306.8319, 7080.695
307.3141, 7059.159
307.7962, 7047.911
308.2783, 7048.391
308.7604, 7065.065
309.2425, 7106.602
309.7246, 7146.665
310.2068, 7163.179
310.6889, 7164.495
311.1710, 7172.504
311.6531, 7208.061
312.1352, 7248.100
312.6173, 7273.925
313.0995, 7277.621
313.5816, 7280.714
314.0637, 7293.754
314.5458, 7313.205
315.0279, 7332.468
315.5100, 7353.465
315.9922, 7370.262
316.4743, 7373.365
316.9564, 7353.110
317.4385, 7354.894
317.9206, 7418.896
318.4027, 7508.191
318.8849, 7571.178
319.3670, 7568.069
319.8491, 7559.122
320.3312, 7565.269
320.8133, 7589.477
321.2954, 7620.860
321.7776, 7666.752
322.2597, 7715.339
322.7418, 7754.024
323.2239, 7767.302
323.7060, 7784.188
324.1881, 7812.108
324.6703, 7852.029
325.1524, 7893.775
325.6345, 7941.276
326.1166, 7987.438
326.5987, 8026.871
327.0808, 8048.367
327.5630, 8076.305
328.0451, 8116.156
328.5272, 8167.233
329.0093, 8215.058
329.4914, 8257.986
329.9735, 8298.068
330.4557, 8336.089
330.9378, 8370.202
331.4199, 8405.554
331.9020, 8442.603
332.3841, 8481.342
332.8662, 8521.425
333.3484, 8560.558
333.8305, 8603.919
334.3126, 8657.530
334.7947, 8728.502
335.2768, 8786.043
335.7589, 8827.260
336.2411, 8854.846
336.7232, 8875.334
337.2053, 8886.968
337.6874, 8896.188
338.1695, 8909.302
338.6516, 8928.593
339.1338, 8929.332
339.6159, 8907.449
340.0980, 8872.673
340.5801, 8840.287
341.0622, 8809.912
341.5443, 8781.857
342.0265, 8753.679
342.5086, 8726.541
342.9907, 8707.408
343.4728, 8695.272
343.9549, 8695.784
344.4370, 8724.313
344.9192, 8777.357
345.4013, 8822.730
345.8834, 8844.120
346.3655, 8850.609
346.8476, 8867.093
347.3297, 8893.940
347.8119, 8918.376
348.2940, 8929.190
348.7761, 8927.869
349.2582, 8917.411
349.7403, 8890.867
350.2225, 8863.398
350.7046, 8859.365
351.1867, 8876.421
351.6688, 8896.734
352.1509, 8911.418
352.6331, 8920.165
353.1152, 8920.589
353.5973, 8906.460
354.0794, 8894.667
354.5615, 8903.214
355.0436, 8927.134
355.5258, 8951.315
356.0079, 8974.554
356.4900, 8990.486
356.9721, 8990.240
357.4542, 8966.875
357.9363, 8946.286
358.4185, 8947.434
358.9006, 8960.716
359.3827, 8969.520
359.8648, 8973.489
360.3469, 8966.458
360.8290, 8939.033
361.3112, 8886.153
361.7933, 8844.415
362.2754, 8830.799
362.7575, 8831.938
363.2396, 8833.314
363.7217, 8835.485
364.2039, 8833.760
364.6860, 8820.253
365.1681, 8794.767
365.6502, 8787.692
366.1323, 8822.827
366.6144, 8865.022
367.0966, 8889.891
367.5787, 8855.688
368.0608, 8854.677
368.5429, 8913.184
369.0250, 9016.206
369.5071, 9084.734
369.9893, 9098.590
370.4714, 9101.346
370.9535, 9112.406
371.4356, 9130.627
371.9177, 9160.464
372.3998, 9207.493
372.8820, 9263.555
373.3641, 9310.897
373.8462, 9349.561
374.3283, 9379.237
374.8104, 9399.439
375.2925, 9410.284
375.7747, 9413.805
376.2568, 9413.154
376.7389, 9399.043
377.2210, 9355.271
377.7031, 9280.192
378.1852, 9199.191
378.6674, 9117.281
379.1495, 9035.716
379.6316, 8954.072
380.1137, 8872.237
380.5958, 8797.562
381.0779, 8738.162
381.5601, 8692.359
382.0422, 8657.214
382.5243, 8634.971
383.0064, 8618.007
383.4885, 8590.600
383.9706, 8554.470
384.4528, 8524.199
384.9349, 8512.692
385.4170, 8512.548
385.8991, 8510.711
386.3812, 8504.133
386.8633, 8499.290
387.3455, 8503.795
387.8276, 8514.698
388.3097, 8525.368
388.7918, 8532.037
389.2739, 8537.299
389.7560, 8544.226
390.2382, 8553.466
390.7203, 8559.333
391.2024, 8548.176
391.6845, 8535.512
392.1666, 8539.182
392.6487, 8587.074
393.1309, 8631.919
393.6130, 8649.608
394.0951, 8642.788
394.5772, 8644.090
395.0593, 8676.173
395.5414, 8709.928
396.0236, 8726.792
396.5057, 8694.669
396.9878, 8680.675
397.4699, 8707.865
397.9520, 8759.946
398.4341, 8785.382
398.9163, 8765.132
399.3984, 8737.872
399.8805, 8716.936
400.3626, 8704.575
400.8447, 8692.164
401.3268, 8681.167
401.8090, 8669.044
402.2911, 8649.632
402.7732, 8616.390
403.2553, 8594.108
403.7374, 8594.220
404.2195, 8614.778
404.7017, 8618.188
405.1838, 8599.795
405.6659, 8576.707
406.1480, 8564.962
406.6301, 8564.664
407.1122, 8563.126
407.5944, 8556.188
408.0765, 8548.663
408.5586, 8553.310
409.0407, 8569.949
409.5228, 8589.551
410.0049, 8615.152
410.4871, 8639.174
410.9692, 8632.603
411.4513, 8584.667
411.9334, 8537.785
412.4155, 8551.346
412.8976, 8607.033
413.3798, 8651.263
413.8619, 8650.456
414.3440, 8631.912
414.8261, 8620.950
415.3082, 8618.306
415.7903, 8623.401
416.2725, 8646.668
416.7546, 8673.385
417.2367, 8686.629
417.7188, 8659.919
418.2009, 8641.661
418.6830, 8665.216
419.1652, 8718.662
419.6473, 8757.355
420.1294, 8750.337
420.6115, 8736.775
421.0937, 8738.784
421.5758, 8767.718
422.0579, 8793.920
422.5400, 8817.073
423.0221, 8834.570
423.5042, 8842.376
423.9864, 8830.267
424.4685, 8819.837
424.9506, 8816.951
425.4327, 8822.554
425.9148, 8823.090
426.3969, 8811.887
426.8791, 8803.209
427.3612, 8811.771
427.8433, 8845.122
428.3254, 8871.980
428.8075, 8887.747
429.2896, 8894.084
429.7718, 8893.031
430.2539, 8881.908
430.7360, 8877.290
431.2181, 8894.772
431.7002, 8932.120
432.1823, 8955.276
432.6645, 8960.652
433.1466, 8958.201
433.6287, 8960.232
434.1108, 8966.052
434.5929, 8972.361
435.0750, 8978.782
435.5572, 8984.367
436.0393, 8984.106
436.5214, 8978.552
437.0035, 8979.456
437.4856, 9005.178
437.9677, 9040.350
438.4499, 9062.719
438.9320, 9061.759
439.4141, 9055.015
439.8962, 9053.288
440.3783, 9055.350
440.8604, 9057.972
441.3426, 9055.345
441.8247, 9056.179
442.3068, 9067.021
442.7889, 9090.942
443.2710, 9113.442
443.7531, 9135.276
444.2353, 9151.869
444.7174, 9158.528
445.1995, 9149.002
445.6816, 9135.375
446.1637, 9110.927
446.6458, 9078.790
447.1280, 9073.202
447.6101, 9115.208
448.0922, 9160.666
448.5743, 9183.511
449.0564, 9171.881
449.5385, 9170.193
450.0207, 9182.496
450.5028, 9202.550
450.9849, 9219.479
451.4670, 9233.150
451.9491, 9243.396
452.4312, 9247.631
452.9134, 9247.421
453.3955, 9258.832
453.8776, 9284.006
454.3597, 9305.327
454.8418, 9297.348
455.3239, 9268.373
455.8061, 9254.287
456.2882, 9267.323
456.7703, 9292.122
457.2524, 9309.505
457.7345, 9320.233
458.2166, 9327.750
458.6988, 9326.864
459.1809, 9327.367
459.6630, 9346.381
460.1451, 9390.088
460.6272, 9420.134
461.1093, 9393.221
461.5915, 9344.300
462.0736, 9317.370
462.5557, 9357.436
463.0378, 9392.062
463.5199, 9384.726
464.0020, 9342.217
464.4842, 9317.559
464.9663, 9332.146
465.4484, 9359.940
465.9305, 9388.394
466.4126, 9424.837
466.8947, 9448.170
467.3769, 9449.985
467.8590, 9442.335
468.3411, 9446.737
468.8232, 9474.488
469.3053, 9491.009
469.7874, 9482.273
470.2696, 9450.401
470.7517, 9435.341
471.2338, 9439.579
471.7159, 9452.925
472.1980, 9466.857
472.6801, 9481.569
473.1623, 9504.783
473.6444, 9543.146
474.1265, 9579.907
474.6086, 9576.659
475.0907, 9540.126
475.5728, 9513.796
476.0550, 9528.161
476.5371, 9564.857
477.0192, 9597.963
477.5013, 9626.861
477.9834, 9646.223
478.4655, 9647.273
478.9477, 9637.749
479.4298, 9627.706
479.9119, 9620.008
480.3940, 9612.508
480.8761, 9594.365
481.3582, 9574.174
481.8404, 9577.143
482.3225, 9649.667
482.8046, 9715.730
483.2867, 9734.120
483.7688, 9681.346
484.2509, 9650.493
484.7331, 9671.768
485.2152, 9706.918
485.6973, 9719.604
486.1794, 9690.509
486.6615, 9672.012
487.1436, 9672.848
487.6258, 9689.840
488.1079, 9709.746
488.5900, 9734.803
489.0721, 9756.226
489.5542, 9768.780
490.0363, 9772.502
490.5185, 9772.980
491.0006, 9770.304
491.4827, 9764.538
491.9648, 9749.134
492.4470, 9727.873
492.9291, 9723.396
493.4112, 9753.271
493.8933, 9795.646
494.3754, 9814.895
494.8575, 9814.174
495.3397, 9812.209
495.8218, 9819.385
496.3039, 9832.807
496.7860, 9850.647
497.2681, 9874.699
497.7502, 9895.834
498.2324, 9905.978
498.7145, 9911.319
499.1966, 9920.475
499.6787, 9949.472
500.1608, 9968.919
500.6429, 9963.028
501.1251, 9933.880
501.6072, 9916.822
502.0893, 9924.761
502.5714, 9935.804
503.0535, 9938.585
503.5356, 9924.010
504.0178, 9924.164
504.4999, 9946.655
504.9820, 9976.967
505.4641, 9991.306
505.9462, 9985.695
506.4283, 9985.243
506.9105, 10000.60
507.3926, 10025.79
507.8747, 10033.40
508.3568, 10022.36
508.8389, 10013.94
509.3210, 10034.98
509.8032, 10070.82
510.2853, 10074.02
510.7674, 10030.76
511.2495, 9988.819
511.7316, 10007.95
512.2137, 10064.16
512.6959, 10108.27
513.1780, 10107.41
513.6601, 10098.28
514.1422, 10106.03
514.6243, 10128.19
515.1064, 10146.13
515.5886, 10148.30
516.0707, 10147.01
516.5528, 10149.46
517.0349, 10156.98
517.5170, 10167.40
517.9991, 10181.91
518.4813, 10198.60
518.9634, 10215.85
519.4455, 10239.11
519.9276, 10253.15
520.4097, 10251.85
520.8918, 10238.04
521.3740, 10227.32
521.8561, 10216.50
522.3382, 10219.31
522.8203, 10255.57
523.3024, 10321.77
523.7845, 10360.53
524.2667, 10366.20
524.7488, 10354.18
525.2309, 10330.86
525.7130, 10303.38
526.1951, 10298.08
526.6772, 10339.67
527.1594, 10392.87
527.6415, 10412.32
528.1236, 10405.04
528.6057, 10402.32
529.0878, 10440.28
529.5699, 10477.53
530.0521, 10475.28
530.5342, 10416.55
531.0163, 10373.57
531.4984, 10377.28
531.9805, 10404.70
532.4626, 10431.32
532.9448, 10462.02
533.4269, 10481.63
533.9090, 10481.13
534.3911, 10467.51
534.8732, 10468.23
535.3553, 10487.62
535.8375, 10513.91
536.3196, 10549.34
536.8017, 10596.53
537.2838, 10600.44
537.7659, 10550.89
538.2480, 10491.70
538.7302, 10465.64
539.2123, 10470.76
539.6944, 10500.12
540.1765, 10564.53
540.6586, 10629.83
541.1407, 10641.23
541.6229, 10611.16
542.1050, 10584.72
542.5871, 10586.95
543.0692, 10603.09
543.5513, 10624.66
544.0334, 10650.80
544.5156, 10670.01
544.9977, 10668.26
545.4798, 10662.31
545.9619, 10665.61
546.4440, 10687.67
546.9261, 10708.65
547.4083, 10728.59
547.8904, 10745.23
548.3725, 10754.06
548.8546, 10751.58
549.3367, 10746.53
549.8188, 10736.63
550.3010, 10723.81
550.7831, 10737.12
551.2652, 10786.54
551.7473, 10828.82
552.2294, 10818.96
552.7115, 10764.89
553.1937, 10754.01
553.6758, 10800.97
554.1579, 10858.99
554.6400, 10862.81
555.1221, 10829.88
555.6042, 10810.48
556.0864, 10830.89
556.5685, 10863.89
557.0506, 10886.33
557.5327, 10899.80
558.0148, 10909.81
558.4969, 10911.35
558.9791, 10916.10
559.4612, 10934.81
559.9433, 10973.21
560.4254, 11000.73
560.9075, 11011.09
561.3896, 11008.21
561.8718, 10994.20
562.3539, 10944.35
562.8360, 10927.33
563.3181, 10961.80
563.8002, 11025.70
564.2823, 11068.51
564.7645, 11088.70
565.2466, 11092.29
565.7287, 11074.09
566.2108, 11040.58
566.6929, 11025.91
567.1750, 11030.82
567.6572, 11040.71
568.1393, 11040.26
568.6214, 11036.51
569.1035, 11044.35
569.5856, 11067.66
570.0677, 11096.62
570.5499, 11130.34
571.0320, 11163.07
571.5141, 11186.02
571.9962, 11191.25
572.4783, 11190.78
572.9604, 11187.92
573.4426, 11182.96
573.9247, 11176.81
574.4068, 11160.87
574.8889, 11152.05
575.3710, 11157.81
575.8531, 11180.56
576.3353, 11205.18
576.8174, 11233.00
577.2995, 11260.37
577.7816, 11286.10
578.2637, 11310.90
578.7458, 11323.05
579.2280, 11317.30
579.7101, 11304.71
580.1922, 11302.46
580.6743, 11310.23
581.1564, 11326.20
581.6385, 11361.35
582.1207, 11397.92
582.6028, 11409.61
583.0849, 11398.67
583.5670, 11383.62
584.0491, 11362.08
584.5313, 11349.26
585.0134, 11361.21
585.4955, 11410.43
585.9776, 11450.91
586.4597, 11461.51
586.9418, 11461.18
587.4240, 11472.13
587.9061, 11516.56
588.3882, 11537.65
588.8703, 11516.26
589.3524, 11471.21
589.8345, 11461.29
590.3167, 11495.22
590.7988, 11530.86
591.2809, 11547.44
591.7630, 11550.00
592.2451, 11567.10
592.7272, 11599.48
593.2094, 11628.54
593.6915, 11636.38
594.1736, 11630.41
594.6557, 11622.65
595.1378, 11613.45
595.6199, 11610.10
596.1021, 11615.95
596.5842, 11631.73
597.0663, 11658.62
597.5485, 11722.38
598.0306, 11770.10
598.5127, 11771.56
598.9948, 11739.29
599.4769, 11728.44
599.9590, 11758.98
600.4412, 11791.05
600.9233, 11812.09
601.4054, 11821.63
601.8875, 11828.62
602.3696, 11832.18
602.8517, 11835.17
603.3339, 11842.97
603.8160, 11854.56
604.2981, 11850.41
604.7802, 11823.41
605.2623, 11798.04
605.7444, 11812.11
606.2266, 11853.93
606.7087, 11891.44
607.1908, 11912.30
607.6729, 11925.62
608.1550, 11938.71
608.6371, 11950.41
609.1193, 11957.47
609.6014, 11946.35
610.0835, 11940.75
610.5656, 11953.88
611.0477, 11988.97
611.5298, 12024.18
612.0120, 12061.72
612.4941, 12095.85
612.9762, 12122.33
613.4583, 12140.11
613.9404, 12153.55
614.4225, 12162.28
614.9047, 12167.49
615.3868, 12170.16
615.8689, 12170.49
616.3510, 12170.13
616.8331, 12165.93
617.3152, 12165.96
617.7974, 12188.73
618.2795, 12228.32
618.7616, 12262.96
619.2437, 12279.24
619.7258, 12286.90
620.2079, 12290.98
620.6901, 12291.91
621.1722, 12295.29
621.6543, 12305.89
622.1364, 12317.63
622.6185, 12326.04
623.1006, 12327.64
623.5828, 12333.70
624.0649, 12347.92
624.5470, 12363.19
625.0291, 12369.12
625.5112, 12362.68
625.9933, 12362.37
626.4755, 12370.04
626.9576, 12387.57
627.4397, 12428.69
627.9218, 12488.94
628.4039, 12534.46
628.8860, 12538.05
629.3682, 12522.85
629.8503, 12516.61
630.3324, 12519.21
630.8145, 12528.85
631.2966, 12557.57
631.7787, 12583.70
632.2609, 12585.78
632.7430, 12549.40
633.2251, 12535.51
633.7072, 12576.95
634.1893, 12632.86
634.6714, 12670.36
635.1536, 12685.22
635.6357, 12689.08
636.1178, 12676.29
636.5999, 12659.61
637.0820, 12662.99
637.5641, 12686.97
638.0463, 12720.23
638.5284, 12768.21
639.0105, 12815.54
639.4926, 12826.36
639.9747, 12805.97
640.4568, 12785.15
640.9390, 12778.91
641.4211, 12783.09
641.9032, 12797.07
642.3853, 12820.67
642.8674, 12841.48
643.3495, 12849.49
643.8317, 12856.28
644.3138, 12870.71
644.7959, 12901.73
645.2780, 12924.24
645.7601, 12932.27
646.2422, 12936.96
646.7244, 12951.99
647.2065, 12978.98
647.6886, 13009.96
648.1707, 13049.65
648.6528, 13083.59
649.1349, 13069.28
649.6171, 13015.01
650.0992, 12979.04
650.5813, 13004.58
651.0634, 13053.28
651.5455, 13076.87
652.0276, 13080.21
652.5098, 13088.33
652.9919, 13118.20
653.4740, 13154.21
653.9561, 13189.69
654.4382, 13225.91
654.9203, 13249.20
655.4025, 13248.83
655.8846, 13242.53
656.3667, 13240.92
656.8488, 13243.16
657.3309, 13254.29
657.8130, 13278.14
658.2952, 13304.35
658.7773, 13315.64
659.2594, 13313.64
659.7415, 13317.31
660.2236, 13333.00
660.7057, 13354.35
661.1879, 13373.95
661.6700, 13391.80
662.1521, 13407.66
662.6342, 13414.71
663.1163, 13425.49
663.5984, 13459.33
664.0806, 13510.55
664.5627, 13533.36
665.0448, 13475.23
665.5269, 13424.08
666.0090, 13422.77
666.4911, 13481.05
666.9733, 13513.38
667.4554, 13506.66
667.9375, 13499.98
