##NAMES=Crocoite
##RRUFFID=R040053
##IDEAL CHEMISTRY=Pb^2+^Cr^6+^O_4_
##LOCALITY=Dundas, Tasmania
##OWNER=RRUFF
##SOURCE=Bob Downs
##DESCRIPTION=Reddish-orange prismatic crystal
##STATUS=The identification of this mineral has been confirmed by X-ray diffraction and chemical analysis
##URL=rruff.info/R040053
##MEASURED CHEMISTRY=(Pb_.995_Mn_.005_)CrO_4_
128.7539, 6100.726
129.2360, 6164.010
129.7182, 6245.671
130.2003, 6334.501
130.6824, 6408.998
131.1645, 6469.300
131.6466, 6518.695
132.1287, 6554.238
132.6109, 6577.549
133.0930, 6607.062
133.5751, 6650.279
134.0572, 6705.509
134.5393, 6758.500
135.0215, 6807.656
135.5036, 6859.847
135.9857, 6929.650
136.4678, 7020.104
136.9499, 7107.782
137.4320, 7184.025
137.9142, 7248.863
138.3963, 7304.991
138.8784, 7350.701
139.3605, 7389.567
139.8426, 7429.549
140.3247, 7472.744
140.8069, 7513.245
141.2890, 7545.019
141.7711, 7562.819
142.2532, 7590.275
142.7353, 7635.887
143.2174, 7695.452
143.6996, 7733.453
144.1817, 7738.255
144.6638, 7734.477
145.1459, 7742.704
145.6280, 7774.072
146.1101, 7798.050
146.5923, 7808.317
147.0744, 7803.823
147.5565, 7795.795
148.0386, 7777.420
148.5207, 7758.873
149.0028, 7752.694
149.4850, 7778.300
149.9671, 7796.718
150.4492, 7797.364
150.9313, 7771.185
151.4134, 7751.376
151.8955, 7740.356
152.3777, 7736.084
152.8598, 7735.036
153.3419, 7725.407
153.8240, 7729.062
154.3061, 7757.524
154.7882, 7845.176
155.2704, 7904.653
155.7525, 7900.867
156.2346, 7856.364
156.7167, 7839.699
157.1988, 7886.805
157.6809, 7951.329
158.1631, 8006.965
158.6452, 8048.497
159.1273, 8079.462
159.6094, 8092.582
160.0915, 8090.606
160.5736, 8096.615
161.0558, 8128.636
161.5379, 8166.934
162.0200, 8194.672
162.5021, 8201.648
162.9842, 8200.789
163.4663, 8191.729
163.9485, 8174.329
164.4306, 8167.400
164.9127, 8190.086
165.3948, 8226.552
165.8769, 8256.257
166.3591, 8271.940
166.8412, 8278.091
167.3233, 8274.567
167.8054, 8259.579
168.2875, 8247.857
168.7696, 8252.883
169.2518, 8268.013
169.7339, 8280.212
170.2160, 8282.122
170.6981, 8278.668
171.1802, 8272.581
171.6623, 8261.615
172.1445, 8255.460
172.6266, 8264.244
173.1087, 8285.025
173.5908, 8308.586
174.0729, 8333.204
174.5550, 8355.944
175.0372, 8372.091
175.5193, 8379.604
176.0014, 8382.007
176.4835, 8382.481
176.9656, 8381.025
177.4477, 8377.806
177.9299, 8366.541
178.4120, 8353.789
178.8941, 8354.751
179.3762, 8384.688
179.8583, 8421.567
180.3404, 8425.587
180.8226, 8397.606
181.3047, 8369.959
181.7868, 8376.343
182.2689, 8408.009
182.7510, 8436.853
183.2331, 8449.611
183.7153, 8453.838
184.1974, 8471.437
184.6795, 8504.340
185.1616, 8529.533
185.6437, 8506.074
186.1258, 8444.013
186.6080, 8403.015
187.0901, 8423.226
187.5722, 8486.244
188.0543, 8526.832
188.5364, 8541.710
189.0185, 8543.571
189.5007, 8549.758
189.9828, 8559.753
190.4649, 8564.072
190.9470, 8551.698
191.4291, 8526.848
191.9112, 8517.602
192.3934, 8529.544
192.8755, 8549.116
193.3576, 8551.163
193.8397, 8534.790
194.3218, 8518.184
194.8039, 8510.856
195.2861, 8512.711
195.7682, 8522.055
196.2503, 8542.884
196.7324, 8566.537
197.2145, 8568.779
197.6967, 8546.126
198.1788, 8524.552
198.6609, 8524.165
199.1430, 8546.183
199.6251, 8564.791
200.1072, 8575.862
200.5894, 8581.709
201.0715, 8590.049
201.5536, 8600.915
202.0357, 8613.128
202.5178, 8627.679
202.9999, 8645.659
203.4821, 8654.552
203.9642, 8646.863
204.4463, 8627.710
204.9284, 8629.150
205.4105, 8656.084
205.8926, 8691.133
206.3748, 8721.905
206.8569, 8750.559
207.3390, 8764.012
207.8211, 8753.225
208.3032, 8721.163
208.7853, 8712.360
209.2675, 8738.040
209.7496, 8767.422
210.2317, 8761.305
210.7138, 8705.492
211.1959, 8663.993
211.6780, 8656.622
212.1602, 8684.024
212.6423, 8709.040
213.1244, 8734.087
213.6065, 8753.551
214.0886, 8756.271
214.5707, 8732.104
215.0529, 8717.673
215.5350, 8726.088
216.0171, 8760.481
216.4992, 8791.492
216.9813, 8822.636
217.4634, 8846.658
217.9456, 8848.176
218.4277, 8813.309
218.9098, 8786.542
219.3919, 8785.881
219.8740, 8818.772
220.3561, 8843.873
220.8383, 8862.626
221.3204, 8873.286
221.8025, 8869.591
222.2846, 8840.962
222.7667, 8818.852
223.2488, 8817.812
223.7310, 8847.907
224.2131, 8866.022
224.6952, 8867.521
225.1773, 8859.212
225.6594, 8855.099
226.1415, 8854.279
226.6237, 8858.726
227.1058, 8869.363
227.5879, 8886.780
228.0700, 8909.787
228.5521, 8946.835
229.0343, 8986.741
229.5164, 8995.845
229.9985, 8949.122
230.4806, 8909.259
230.9627, 8910.829
231.4448, 8984.921
231.9270, 9029.210
232.4091, 9032.211
232.8912, 9005.061
233.3733, 8983.436
233.8554, 8966.710
234.3375, 8956.336
234.8197, 8953.322
235.3018, 8959.214
235.7839, 8969.903
236.2660, 8988.214
236.7481, 9011.344
237.2302, 9026.966
237.7124, 9029.748
238.1945, 9032.396
238.6766, 9043.543
239.1587, 9072.852
239.6408, 9090.119
240.1229, 9087.636
240.6051, 9070.708
241.0872, 9065.714
241.5693, 9079.611
242.0514, 9096.217
242.5335, 9104.369
243.0156, 9094.825
243.4978, 9095.425
243.9799, 9111.990
244.4620, 9141.153
244.9441, 9164.785
245.4262, 9182.568
245.9083, 9194.428
246.3905, 9199.004
246.8726, 9189.737
247.3547, 9187.268
247.8368, 9198.422
248.3189, 9219.743
248.8010, 9226.377
249.2832, 9211.338
249.7653, 9191.389
250.2474, 9177.470
250.7295, 9169.526
251.2116, 9169.763
251.6937, 9182.070
252.1759, 9204.600
252.6580, 9222.878
253.1401, 9241.167
253.6222, 9249.928
254.1043, 9237.961
254.5864, 9188.051
255.0686, 9158.166
255.5507, 9161.051
256.0328, 9192.638
256.5149, 9217.677
256.9970, 9232.994
257.4792, 9245.634
257.9613, 9261.392
258.4434, 9282.515
258.9255, 9299.040
259.4076, 9306.493
259.8897, 9306.605
260.3719, 9316.955
260.8540, 9342.142
261.3361, 9369.725
261.8182, 9391.321
262.3003, 9409.392
262.7824, 9412.899
263.2646, 9393.163
263.7467, 9354.858
264.2288, 9338.840
264.7109, 9353.035
265.1930, 9375.452
265.6751, 9388.101
266.1573, 9386.419
266.6394, 9391.604
267.1215, 9410.129
267.6036, 9438.908
268.0857, 9458.099
268.5678, 9465.501
269.0500, 9467.835
269.5321, 9470.016
270.0142, 9472.348
270.4963, 9473.908
270.9784, 9474.693
271.4605, 9474.761
271.9427, 9472.132
272.4248, 9463.782
272.9069, 9460.738
273.3890, 9475.926
273.8711, 9514.138
274.3532, 9540.362
274.8354, 9542.875
275.3175, 9530.038
275.7996, 9544.618
276.2817, 9596.039
276.7638, 9644.701
277.2459, 9654.530
277.7281, 9621.110
278.2102, 9597.726
278.6923, 9595.446
279.1744, 9607.664
279.6565, 9607.506
280.1386, 9590.840
280.6208, 9580.136
281.1029, 9601.434
281.5850, 9655.489
282.0671, 9686.086
282.5492, 9678.825
283.0313, 9647.072
283.5135, 9623.609
283.9956, 9607.754
284.4777, 9606.581
284.9598, 9637.058
285.4419, 9695.854
285.9240, 9728.721
286.4062, 9716.951
286.8883, 9686.631
287.3704, 9706.934
287.8525, 9780.214
288.3346, 9851.542
288.8167, 9874.340
289.2989, 9857.038
289.7810, 9846.515
290.2631, 9851.381
290.7452, 9862.753
291.2273, 9863.201
291.7094, 9853.084
292.1916, 9841.684
292.6737, 9831.472
293.1558, 9824.499
293.6379, 9831.916
294.1200, 9861.236
294.6021, 9893.097
295.0843, 9891.753
295.5664, 9861.550
296.0485, 9834.081
296.5306, 9828.642
297.0127, 9841.000
297.4948, 9862.149
297.9770, 9892.967
298.4591, 9927.486
298.9412, 9964.969
299.4233, 10002.42
299.9054, 10026.10
300.3875, 10008.19
300.8697, 9975.707
301.3518, 9977.327
301.8339, 10023.66
302.3160, 10082.05
302.7981, 10121.52
303.2803, 10145.32
303.7624, 10162.32
304.2445, 10166.50
304.7266, 10170.93
305.2087, 10196.29
305.6909, 10247.78
306.1730, 10299.14
306.6551, 10325.70
307.1372, 10335.58
307.6193, 10345.45
308.1014, 10365.32
308.5836, 10387.96
309.0657, 10404.88
309.5478, 10414.61
310.0299, 10429.01
310.5120, 10460.25
310.9941, 10500.46
311.4763, 10538.07
311.9584, 10563.76
312.4405, 10588.07
312.9226, 10616.60
313.4047, 10649.80
313.8868, 10689.46
314.3690, 10744.40
314.8511, 10803.64
315.3332, 10855.19
315.8153, 10890.41
316.2974, 10920.47
316.7795, 10951.52
317.2617, 10983.83
317.7438, 11009.48
318.2259, 11003.13
318.7080, 10999.16
319.1901, 11028.22
319.6722, 11137.17
320.1544, 11242.47
320.6365, 11311.95
321.1186, 11349.30
321.6007, 11393.57
322.0828, 11457.95
322.5649, 11529.89
323.0471, 11600.79
323.5292, 11681.01
324.0113, 11746.85
324.4934, 11788.15
324.9755, 11808.46
325.4576, 11831.79
325.9398, 11870.79
326.4219, 11905.99
326.9040, 11927.61
327.3861, 11911.48
327.8682, 11910.12
328.3503, 11939.29
328.8325, 11986.03
329.3146, 12007.72
329.7967, 11980.49
330.2788, 11951.82
330.7609, 11941.81
331.2430, 11964.68
331.7252, 11977.50
332.2073, 11966.74
332.6894, 11950.20
333.1715, 11967.43
333.6536, 12039.13
334.1357, 12112.88
334.6179, 12169.82
335.1000, 12207.83
335.5821, 12238.03
336.0642, 12256.55
336.5463, 12270.13
337.0284, 12289.51
337.5106, 12316.66
337.9927, 12342.97
338.4748, 12369.39
338.9569, 12396.65
339.4390, 12395.67
339.9211, 12356.75
340.4033, 12308.60
340.8854, 12288.68
341.3675, 12299.76
341.8496, 12312.86
342.3317, 12320.39
342.8138, 12323.76
343.2960, 12329.87
343.7781, 12339.29
344.2602, 12350.56
344.7423, 12361.82
345.2244, 12373.42
345.7065, 12387.54
346.1887, 12403.79
346.6708, 12423.36
347.1529, 12451.50
347.6350, 12487.66
348.1171, 12521.66
348.5992, 12541.79
349.0814, 12552.04
349.5635, 12566.77
350.0456, 12590.91
350.5277, 12615.21
351.0098, 12629.84
351.4919, 12634.26
351.9741, 12627.00
352.4562, 12591.14
352.9383, 12547.81
353.4204, 12532.25
353.9025, 12553.66
354.3846, 12588.40
354.8668, 12624.95
355.3489, 12659.40
355.8310, 12680.97
356.3131, 12677.38
356.7952, 12663.06
357.2773, 12650.12
357.7595, 12639.81
358.2416, 12629.09
358.7237, 12619.29
359.2058, 12607.08
359.6879, 12587.94
360.1700, 12552.33
360.6522, 12515.43
361.1343, 12485.79
361.6164, 12463.58
362.0985, 12439.20
362.5806, 12408.85
363.0627, 12374.49
363.5449, 12337.86
364.0270, 12292.21
364.5091, 12251.66
364.9912, 12218.69
365.4734, 12193.51
365.9555, 12177.85
366.4376, 12182.78
366.9197, 12190.34
367.4018, 12190.63
367.8839, 12152.57
368.3661, 12145.02
368.8482, 12195.63
369.3303, 12280.19
369.8124, 12328.61
370.2945, 12304.99
370.7766, 12283.47
371.2588, 12294.96
371.7409, 12360.47
372.2230, 12401.77
372.7051, 12403.40
373.1872, 12389.15
373.6693, 12399.70
374.1515, 12444.84
374.6336, 12492.07
375.1157, 12535.13
375.5978, 12574.26
376.0799, 12593.08
376.5620, 12587.38
377.0442, 12569.32
377.5263, 12556.89
378.0084, 12553.95
378.4905, 12525.28
378.9726, 12454.36
379.4547, 12353.49
379.9369, 12265.02
380.4190, 12189.02
380.9011, 12131.23
381.3832, 12115.58
381.8653, 12131.25
382.3474, 12100.12
382.8296, 11987.63
383.3117, 11856.10
383.7938, 11820.33
384.2759, 11871.62
384.7580, 11931.70
385.2401, 11948.37
385.7223, 11941.33
386.2044, 11951.34
386.6865, 11986.21
387.1686, 12021.35
387.6507, 12029.89
388.1328, 12019.42
388.6150, 12009.12
389.0971, 12006.00
389.5792, 12008.28
390.0613, 12020.29
390.5434, 12042.77
391.0255, 12053.88
391.5077, 12022.29
391.9898, 11978.91
392.4719, 11959.36
392.9540, 11990.61
393.4361, 12034.96
393.9182, 12087.88
394.4004, 12145.52
394.8825, 12182.20
395.3646, 12163.99
395.8467, 12138.48
396.3288, 12136.51
396.8109, 12189.06
397.2931, 12228.12
397.7752, 12242.66
398.2573, 12236.34
398.7394, 12218.92
399.2215, 12188.68
399.7036, 12149.12
400.1858, 12096.40
400.6679, 12018.20
401.1500, 11968.95
401.6321, 11972.25
402.1142, 11989.65
402.5963, 11967.71
403.0785, 11879.66
403.5606, 11807.13
404.0427, 11773.69
404.5248, 11777.39
405.0069, 11765.91
405.4890, 11731.78
405.9712, 11699.07
406.4533, 11693.37
406.9354, 11718.59
407.4175, 11731.12
407.8996, 11720.43
408.3817, 11696.26
408.8639, 11683.13
409.3460, 11681.14
409.8281, 11685.61
410.3102, 11698.85
410.7923, 11717.32
411.2744, 11721.80
411.7566, 11706.54
412.2387, 11693.99
412.7208, 11728.87
413.2029, 11793.96
413.6850, 11833.05
414.1671, 11792.21
414.6493, 11723.33
415.1314, 11692.64
415.6135, 11701.32
416.0956, 11723.57
416.5777, 11749.13
417.0598, 11773.99
417.5420, 11793.19
418.0241, 11801.28
418.5062, 11807.38
418.9883, 11818.75
419.4704, 11833.29
419.9525, 11842.22
420.4347, 11835.95
420.9168, 11827.72
421.3989, 11827.09
421.8810, 11843.41
422.3631, 11850.58
422.8452, 11830.06
423.3274, 11799.65
423.8095, 11787.79
424.2916, 11819.56
424.7737, 11848.94
425.2558, 11864.19
425.7379, 11863.44
426.2201, 11861.65
426.7022, 11851.33
427.1843, 11846.11
427.6664, 11859.84
428.1486, 11905.48
428.6307, 11941.08
429.1128, 11961.88
429.5949, 11968.61
430.0770, 11960.56
430.5591, 11931.53
431.0413, 11907.08
431.5234, 11906.57
432.0055, 11930.63
432.4876, 11943.80
432.9697, 11941.65
433.4518, 11934.44
433.9340, 11938.89
434.4161, 11954.01
434.8982, 11967.87
435.3803, 11975.51
435.8624, 11978.49
436.3445, 11977.18
436.8267, 11971.52
437.3088, 11971.53
437.7909, 11992.31
438.2730, 12023.58
438.7551, 12046.32
439.2372, 12050.79
439.7194, 12051.61
440.2015, 12058.66
440.6836, 12071.95
441.1657, 12091.51
441.6478, 12126.85
442.1299, 12162.06
442.6121, 12186.94
443.0942, 12200.29
443.5763, 12202.81
444.0584, 12187.04
444.5405, 12163.19
445.0226, 12143.91
445.5048, 12131.00
445.9869, 12124.53
446.4690, 12123.42
446.9511, 12127.73
447.4332, 12143.96
447.9153, 12189.49
448.3975, 12232.04
448.8796, 12250.72
449.3617, 12222.68
449.8438, 12218.65
450.3259, 12257.03
450.8080, 12313.75
451.2902, 12324.92
451.7723, 12273.77
452.2544, 12227.52
452.7365, 12218.85
453.2186, 12246.61
453.7007, 12254.43
454.1829, 12237.25
454.6650, 12218.86
455.1471, 12230.60
455.6292, 12268.97
456.1113, 12303.17
456.5934, 12326.95
457.0756, 12340.54
457.5577, 12342.18
458.0398, 12332.86
458.5219, 12319.33
459.0040, 12293.74
459.4861, 12271.07
459.9683, 12278.02
460.4504, 12323.68
460.9325, 12373.60
461.4146, 12411.12
461.8967, 12434.02
462.3788, 12437.92
462.8610, 12392.77
463.3431, 12352.94
463.8252, 12353.44
464.3073, 12392.77
464.7894, 12423.91
465.2715, 12424.49
465.7537, 12417.43
466.2358, 12417.49
466.7179, 12428.54
467.2000, 12444.01
467.6821, 12473.35
468.1642, 12505.42
468.6464, 12515.39
469.1285, 12481.57
469.6106, 12457.57
470.0927, 12464.32
470.5748, 12505.94
471.0569, 12529.74
471.5391, 12529.79
472.0212, 12522.55
472.5033, 12526.77
472.9854, 12544.02
473.4675, 12551.77
473.9496, 12544.11
474.4318, 12526.70
474.9139, 12511.93
475.3960, 12500.07
475.8781, 12489.56
476.3602, 12474.31
476.8423, 12460.97
477.3245, 12470.82
477.8066, 12508.82
478.2887, 12543.61
478.7708, 12534.10
479.2529, 12501.62
479.7350, 12485.31
480.2172, 12508.98
480.6993, 12545.16
481.1814, 12581.32
481.6635, 12615.64
482.1456, 12640.58
482.6277, 12646.53
483.1099, 12645.27
483.5920, 12642.63
484.0741, 12634.87
484.5562, 12635.38
485.0383, 12654.25
485.5204, 12680.40
486.0026, 12697.80
486.4847, 12704.49
486.9668, 12704.54
487.4489, 12693.96
487.9310, 12674.54
488.4131, 12674.85
488.8953, 12710.21
489.3774, 12740.21
489.8595, 12733.83
490.3416, 12684.47
490.8238, 12642.64
491.3059, 12608.30
491.7880, 12588.77
492.2701, 12607.32
492.7522, 12661.96
493.2343, 12706.91
493.7165, 12719.79
494.1986, 12710.27
494.6807, 12697.65
495.1628, 12681.79
495.6449, 12670.91
496.1270, 12673.57
496.6092, 12684.51
497.0913, 12696.26
497.5734, 12707.39
498.0555, 12718.68
498.5376, 12732.67
499.0197, 12747.47
499.5019, 12759.10
499.9840, 12765.21
500.4661, 12768.80
500.9482, 12771.40
501.4303, 12773.19
501.9124, 12772.78
502.3946, 12757.70
502.8767, 12747.66
503.3588, 12757.64
503.8409, 12806.60
504.3230, 12845.97
504.8051, 12873.67
505.2873, 12890.20
505.7694, 12893.61
506.2515, 12876.57
506.7336, 12865.24
507.2157, 12872.27
507.6978, 12896.69
508.1800, 12913.13
508.6621, 12921.12
509.1442, 12924.27
509.6263, 12924.29
510.1084, 12922.09
510.5905, 12921.88
511.0727, 12924.77
511.5548, 12930.03
512.0369, 12936.59
512.5190, 12944.67
513.0011, 12954.87
513.4832, 12968.46
513.9653, 12983.48
514.4474, 12997.03
514.9296, 13008.80
515.4117, 13023.62
515.8938, 13053.93
516.3759, 13083.13
516.8580, 13095.71
517.3401, 13062.44
517.8223, 13045.24
518.3044, 13072.12
518.7865, 13124.53
519.2687, 13154.38
519.7508, 13155.83
520.2329, 13139.79
520.7150, 13099.87
521.1971, 13031.42
521.6793, 13000.95
522.1614, 13018.41
522.6435, 13057.37
523.1256, 13101.69
523.6077, 13153.12
524.0898, 13186.69
524.5720, 13195.59
525.0541, 13192.00
525.5362, 13200.73
526.0183, 13219.71
526.5004, 13231.41
526.9825, 13219.12
527.4647, 13196.76
527.9468, 13187.95
528.4289, 13192.54
528.9110, 13201.91
529.3931, 13218.19
529.8752, 13232.29
530.3574, 13232.00
530.8395, 13206.68
531.3216, 13183.57
531.8037, 13175.80
532.2858, 13178.53
532.7679, 13182.92
533.2501, 13191.99
533.7322, 13197.76
534.2143, 13192.96
534.6964, 13177.27
535.1785, 13178.44
535.6606, 13206.15
536.1428, 13239.83
536.6249, 13268.49
537.1070, 13291.95
537.5891, 13311.27
538.0712, 13328.89
538.5533, 13338.91
539.0355, 13322.88
539.5176, 13279.90
539.9997, 13257.03
540.4818, 13280.25
540.9639, 13327.74
541.4460, 13340.14
541.9282, 13321.05
542.4103, 13312.30
542.8924, 13365.68
543.3745, 13438.65
543.8566, 13469.58
544.3387, 13444.15
544.8209, 13410.77
545.3030, 13392.24
545.7851, 13387.57
546.2672, 13395.56
546.7493, 13438.37
547.2314, 13470.34
547.7136, 13470.96
548.1957, 13446.56
548.6778, 13430.23
549.1599, 13426.24
549.6420, 13429.22
550.1241, 13437.90
550.6063, 13452.99
551.0884, 13471.29
551.5705, 13494.69
552.0526, 13518.45
552.5347, 13540.54
553.0168, 13561.78
553.4990, 13566.36
553.9811, 13545.03
554.4632, 13515.38
554.9453, 13515.72
555.4274, 13542.27
555.9095, 13568.88
556.3917, 13582.32
556.8738, 13587.54
557.3559, 13592.16
557.8380, 13596.27
558.3201, 13595.23
558.8022, 13574.47
559.2844, 13552.93
559.7665, 13549.94
560.2486, 13578.88
560.7307, 13608.09
561.2128, 13625.81
561.6949, 13637.67
562.1771, 13653.09
562.6592, 13678.08
563.1413, 13700.20
563.6234, 13713.98
564.1055, 13720.86
564.5876, 13740.70
565.0698, 13784.55
565.5519, 13819.06
566.0340, 13817.24
566.5161, 13775.97
566.9982, 13762.35
567.4803, 13782.60
567.9625, 13813.04
568.4446, 13824.75
568.9267, 13821.33
569.4088, 13817.82
569.8909, 13820.76
570.3730, 13822.27
570.8552, 13802.62
571.3373, 13771.62
571.8194, 13759.73
572.3015, 13814.03
572.7836, 13869.70
573.2657, 13870.23
573.7479, 13808.51
574.2300, 13772.14
574.7121, 13809.63
575.1942, 13867.93
575.6763, 13908.87
576.1584, 13919.15
576.6406, 13928.69
577.1227, 13937.57
577.6048, 13946.13
578.0869, 13955.76
578.5690, 13968.63
579.0511, 13975.19
579.5333, 13972.43
580.0154, 13961.52
580.4975, 13942.73
580.9796, 13915.25
581.4617, 13896.29
581.9438, 13895.18
582.4260, 13911.23
582.9081, 13948.77
583.3902, 14010.35
583.8723, 14069.77
584.3544, 14092.50
584.8365, 14103.61
585.3187, 14139.30
585.8008, 14250.34
586.2829, 14333.44
586.7650, 14334.47
587.2471, 14277.90
587.7292, 14218.92
588.2114, 14139.07
588.6935, 14089.13
589.1756, 14094.39
589.6577, 14155.64
590.1398, 14188.12
590.6219, 14181.34
591.1041, 14165.36
591.5862, 14155.70
592.0683, 14151.86
592.5504, 14165.30
593.0325, 14197.91
593.5146, 14244.04
593.9968, 14308.50
594.4789, 14382.97
594.9610, 14432.17
595.4431, 14436.88
595.9252, 14422.67
596.4073, 14420.85
596.8895, 14425.23
597.3716, 14416.87
597.8537, 14359.00
598.3358, 14307.25
598.8179, 14301.35
599.3000, 14345.42
599.7822, 14387.23
600.2643, 14409.90
600.7464, 14429.52
601.2285, 14457.17
601.7106, 14503.17
602.1927, 14534.38
602.6749, 14541.07
603.1570, 14542.91
603.6391, 14574.78
604.1212, 14643.54
604.6033, 14691.50
605.0854, 14701.29
605.5676, 14684.87
606.0497, 14659.08
606.5318, 14626.99
607.0139, 14616.77
607.4960, 14665.86
607.9781, 14735.64
608.4603, 14777.70
608.9424, 14789.56
609.4245, 14788.23
609.9066, 14765.30
610.3887, 14744.27
610.8708, 14747.54
611.3530, 14796.34
611.8351, 14836.07
612.3172, 14845.29
612.7993, 14844.42
613.2814, 14861.90
613.7635, 14914.96
614.2457, 14953.99
614.7278, 14967.41
615.2099, 14962.21
615.6920, 14959.62
616.1741, 14959.15
616.6563, 14965.70
617.1384, 14982.31
617.6205, 15007.85
618.1026, 15044.89
618.5847, 15092.99
619.0668, 15131.48
619.5490, 15135.32
620.0311, 15121.52
620.5132, 15110.96
620.9953, 15105.54
621.4774, 15109.84
621.9595, 15130.03
622.4417, 15159.87
622.9238, 15191.52
623.4059, 15235.86
623.8880, 15266.66
624.3701, 15269.74
624.8522, 15256.86
625.3344, 15264.19
625.8165, 15308.99
626.2986, 15335.11
