##NAMES=Cronstedtite
##RRUFFID=R061026
##IDEAL CHEMISTRY=(Fe^2+^,Fe^3+^)_3_(Si,Fe^3+^)_2_O_5_(OH)_4_
##LOCALITY=Kisbanya, Hungary
##OWNER=RRUFF
##SOURCE=Michael Scott
##DESCRIPTION=Black elongated prismatic crystals with triangular cross-sections, polytype 3T
##STATUS=The identification of this mineral is confirmed by single-crystal X-ray diffraction and chemical analysis.
##URL=rruff.info/R061026
##MEASURED CHEMISTRY=(Fe^2+^_2.13_Fe^3+^_0.87_)_Σ=3_(Si_1.13_Fe^3+^_0.87_)_Σ=2_O_5_(OH)_4_ ; Fe2 and Fe3 splitted by stoichiometry (sum of cations = 5) and charge balance
137.9141, 851.0491
138.3962, 873.2620
138.8783, 873.0289
139.3604, 852.9418
139.8426, 838.8594
140.3247, 831.5695
140.8068, 829.1115
141.2889, 830.1187
141.7710, 836.5089
142.2531, 841.5093
142.7353, 842.2491
143.2174, 836.9296
143.6995, 836.7916
144.1816, 844.3279
144.6637, 855.8023
145.1458, 864.0469
145.6280, 868.3232
146.1101, 870.3326
146.5922, 870.6911
147.0743, 869.3946
147.5564, 866.2951
148.0385, 859.4022
148.5207, 850.2122
149.0028, 845.1667
149.4849, 845.3919
149.9670, 849.0431
150.4491, 855.0726
150.9312, 869.1629
151.4134, 879.5056
151.8955, 884.1773
152.3776, 883.2206
152.8597, 882.2059
153.3418, 882.8170
153.8239, 882.9429
154.3061, 880.7904
154.7882, 870.2366
155.2703, 862.9791
155.7524, 863.6956
156.2345, 874.8240
156.7166, 882.4314
157.1988, 881.6945
157.6809, 876.2269
158.1630, 871.0970
158.6451, 864.8644
159.1272, 861.2800
159.6093, 862.2344
160.0915, 869.3192
160.5736, 877.9273
161.0557, 889.0501
161.5378, 900.7942
162.0199, 908.6635
162.5020, 908.8765
162.9841, 905.7305
163.4663, 901.9235
163.9484, 896.1723
164.4305, 892.3255
164.9126, 894.0693
165.3947, 900.2371
165.8768, 904.5912
166.3590, 901.9663
166.8411, 896.6816
167.3232, 893.1116
167.8053, 891.5146
168.2874, 893.0309
168.7695, 901.0856
169.2517, 915.5955
169.7338, 927.0276
170.2159, 927.7570
170.6980, 921.3367
171.1801, 913.4545
171.6622, 903.0090
172.1444, 894.0330
172.6265, 890.7061
173.1086, 893.6205
173.5907, 899.9211
174.0728, 908.8738
174.5549, 919.6082
175.0371, 929.7286
175.5192, 937.1231
176.0013, 943.3991
176.4834, 951.1907
176.9655, 961.4714
177.4476, 971.3591
177.9298, 977.0910
178.4119, 979.2794
178.8940, 980.8696
179.3761, 984.3175
179.8582, 988.5381
180.3403, 990.8908
180.8225, 989.3620
181.3046, 987.6222
181.7867, 991.7341
182.2688, 1001.443
182.7509, 1012.965
183.2330, 1023.613
183.7152, 1033.494
184.1973, 1044.135
184.6794, 1058.168
185.1615, 1072.025
185.6436, 1074.410
186.1257, 1064.386
186.6079, 1054.763
187.0900, 1062.137
187.5721, 1083.676
188.0542, 1100.710
188.5363, 1102.838
189.0184, 1094.943
189.5006, 1096.648
189.9827, 1109.233
190.4648, 1126.398
190.9469, 1142.938
191.4290, 1158.494
191.9111, 1168.209
192.3932, 1166.622
192.8754, 1155.338
193.3575, 1150.280
193.8396, 1153.644
194.3217, 1159.462
194.8038, 1156.897
195.2859, 1145.389
195.7681, 1132.367
196.2502, 1118.618
196.7323, 1104.325
197.2144, 1102.387
197.6965, 1119.368
198.1786, 1143.066
198.6608, 1141.659
199.1429, 1110.571
199.6250, 1076.083
200.1071, 1055.239
200.5892, 1048.968
201.0714, 1043.623
201.5535, 1037.407
202.0356, 1030.935
202.5177, 1026.700
202.9998, 1025.050
203.4819, 1024.418
203.9641, 1024.134
204.4462, 1024.532
204.9283, 1022.974
205.4104, 1018.636
205.8925, 1011.796
206.3746, 1004.399
206.8568, 995.6181
207.3389, 987.9529
207.8210, 984.8729
208.3031, 987.9333
208.7852, 989.0967
209.2673, 985.9058
209.7495, 978.4567
210.2316, 972.8663
210.7137, 969.8795
211.1958, 967.7448
211.6779, 964.5875
212.1600, 960.6133
212.6422, 954.9246
213.1243, 946.1873
213.6064, 933.7720
214.0885, 925.6053
214.5706, 923.0146
215.0527, 923.2941
215.5349, 922.1654
216.0170, 918.7792
216.4991, 915.9371
216.9812, 915.3157
217.4633, 918.2471
217.9454, 916.9713
218.4276, 909.3322
218.9097, 898.8257
219.3918, 892.3510
219.8739, 891.2549
220.3560, 891.7690
220.8381, 892.4724
221.3203, 893.2625
221.8024, 894.6432
222.2845, 896.8549
222.7666, 899.6131
223.2487, 901.7245
223.7308, 901.5002
224.2129, 903.3757
224.6951, 910.7554
225.1772, 929.1062
225.6593, 939.5743
226.1414, 938.9373
226.6235, 929.9811
227.1056, 923.2722
227.5878, 919.2427
228.0699, 916.7170
228.5520, 914.1948
229.0341, 908.2682
229.5162, 910.4161
229.9983, 925.6107
230.4805, 950.6520
230.9626, 966.6645
231.4447, 969.7841
231.9268, 968.3927
232.4089, 968.1801
232.8910, 970.9088
233.3732, 971.1796
233.8553, 967.9285
234.3374, 961.3946
234.8195, 954.4696
235.3016, 945.7020
235.7837, 938.1750
236.2659, 934.3104
236.7480, 934.8629
237.2301, 937.7430
237.7122, 943.3480
238.1943, 951.6219
238.6764, 959.3534
239.1586, 968.2180
239.6407, 974.9948
240.1228, 976.2891
240.6049, 968.8001
241.0870, 962.0225
241.5691, 957.6252
242.0513, 955.6733
242.5334, 954.0486
243.0155, 951.9894
243.4976, 950.9037
243.9797, 952.5394
244.4618, 958.5784
244.9440, 964.1689
245.4261, 968.8317
245.9082, 972.7561
246.3903, 972.9037
246.8724, 966.9999
247.3545, 959.2617
247.8367, 954.8076
248.3188, 956.0439
248.8009, 956.1766
249.2830, 953.0005
249.7651, 945.9050
250.2472, 940.9970
250.7294, 938.3015
251.2115, 937.8470
251.6936, 940.6014
252.1757, 950.8356
252.6578, 956.3578
253.1399, 952.5738
253.6220, 937.3542
254.1042, 926.3611
254.5863, 920.0291
255.0684, 917.6569
255.5505, 919.5373
256.0326, 930.3048
256.5147, 936.1385
256.9969, 930.7562
257.4790, 910.3475
257.9611, 899.7712
258.4432, 903.3519
258.9253, 913.0424
259.4074, 915.6734
259.8896, 907.4805
260.3717, 900.1470
260.8538, 897.6608
261.3359, 901.0768
261.8180, 903.5898
262.3001, 904.2478
262.7823, 904.8340
263.2644, 909.9816
263.7465, 924.2744
264.2286, 931.9452
264.7107, 924.6803
265.1928, 898.3183
265.6750, 880.1987
266.1571, 871.2676
266.6392, 869.5029
267.1213, 872.6970
267.6034, 883.2820
268.0855, 892.1960
268.5677, 895.4995
269.0498, 892.2566
269.5319, 889.3706
270.0140, 886.9289
270.4961, 884.7444
270.9782, 882.6650
271.4604, 880.9471
271.9425, 878.4324
272.4246, 874.0226
272.9067, 867.1888
273.3888, 863.1160
273.8709, 863.0690
274.3531, 864.1194
274.8352, 859.5808
275.3173, 847.3439
275.7994, 838.7184
276.2815, 841.2184
276.7636, 856.0214
277.2458, 863.7922
277.7279, 863.4965
278.2100, 857.4962
278.6921, 847.5605
279.1742, 832.4556
279.6563, 821.6661
280.1385, 821.8474
280.6206, 832.9547
281.1027, 840.3008
281.5848, 843.9835
282.0669, 843.1143
282.5490, 833.4117
283.0312, 813.9821
283.5133, 797.7148
283.9954, 792.0891
284.4775, 796.4059
284.9596, 799.4803
285.4417, 801.0210
285.9239, 801.5036
286.4060, 800.6760
286.8881, 798.5681
287.3702, 798.4755
287.8523, 802.8792
288.3344, 811.0748
288.8166, 819.7787
289.2987, 830.0825
289.7808, 837.1791
290.2629, 831.0034
290.7450, 812.8620
291.2271, 796.9705
291.7093, 790.5750
292.1914, 791.9343
292.6735, 795.8451
293.1556, 802.7651
293.6377, 809.2776
294.1198, 810.1043
294.6020, 806.1467
295.0841, 802.5669
295.5662, 801.0448
296.0483, 801.7192
296.5304, 806.8301
297.0125, 817.4185
297.4947, 825.9671
297.9768, 821.0231
298.4589, 806.1016
298.9410, 793.1609
299.4231, 788.8597
299.9052, 789.8577
300.3873, 791.2241
300.8694, 792.9118
301.3516, 793.7542
301.8337, 790.1771
302.3158, 784.5917
302.7979, 783.0723
303.2800, 794.4714
303.7621, 808.5753
304.2443, 811.1794
304.7264, 801.3052
305.2085, 789.4619
305.6906, 782.5968
306.1727, 779.8266
306.6548, 779.4024
307.1370, 783.7484
307.6191, 788.2919
308.1012, 787.0179
308.5833, 779.8303
309.0654, 774.9700
309.5475, 782.4869
310.0297, 794.8416
310.5118, 801.8644
310.9939, 793.9363
311.4760, 783.5590
311.9581, 779.0485
312.4402, 780.3984
312.9224, 782.8828
313.4045, 787.8204
313.8866, 791.1450
314.3687, 788.4075
314.8508, 768.0803
315.3329, 750.1368
315.8151, 746.7849
316.2972, 756.7734
316.7793, 765.1197
317.2614, 764.3680
317.7435, 759.8872
318.2256, 756.1918
318.7078, 752.8224
319.1899, 752.0750
319.6720, 757.5470
320.1541, 767.7821
320.6362, 773.2480
321.1183, 764.4506
321.6005, 753.7679
322.0826, 749.3392
322.5647, 759.9507
323.0468, 769.0017
323.5289, 773.8669
324.0110, 774.8306
324.4932, 773.3599
324.9753, 763.6955
325.4574, 755.8998
325.9395, 755.0916
326.4216, 770.8093
326.9037, 782.1464
327.3859, 788.6225
327.8680, 790.0882
328.3501, 785.8215
328.8322, 762.9622
329.3143, 745.8813
329.7964, 745.2845
330.2786, 778.1770
330.7607, 798.1451
331.2428, 799.8099
331.7249, 789.3640
332.2070, 781.3519
332.6891, 776.9037
333.1713, 773.3773
333.6534, 769.6838
334.1355, 765.2147
334.6176, 762.4977
335.0997, 762.2809
335.5818, 763.3259
336.0640, 763.2403
336.5461, 761.1083
337.0282, 759.8675
337.5103, 760.6776
337.9924, 763.7488
338.4745, 766.8002
338.9567, 769.8699
339.4388, 772.8413
339.9209, 775.3671
340.4030, 777.1802
340.8851, 780.0721
341.3672, 786.3708
341.8494, 795.3464
342.3315, 795.5027
342.8136, 785.0895
343.2957, 771.7581
343.7778, 762.8604
344.2599, 758.4729
344.7421, 758.1383
345.2242, 762.5266
345.7063, 770.7141
346.1884, 780.6043
346.6705, 792.3873
347.1526, 802.8552
347.6348, 808.7808
348.1169, 810.6276
348.5990, 810.2291
349.0811, 806.8281
349.5632, 802.5776
350.0453, 802.0368
350.5275, 804.8713
351.0096, 806.8884
351.4917, 804.2670
351.9738, 798.6630
352.4559, 793.2048
352.9380, 788.2488
353.4202, 784.3671
353.9023, 781.7474
354.3844, 780.6736
354.8665, 782.1873
355.3486, 792.2842
355.8307, 802.9612
356.3129, 804.1551
356.7950, 791.4509
357.2771, 777.3245
357.7592, 767.9532
358.2413, 763.6520
358.7234, 765.0994
359.2056, 779.6678
359.6877, 795.2596
360.1698, 802.9064
360.6519, 800.1919
361.1340, 796.7885
361.6161, 797.5350
362.0982, 799.9495
362.5804, 800.6401
363.0625, 794.9166
363.5446, 790.5043
364.0267, 791.1227
364.5088, 797.4539
364.9909, 803.4159
365.4731, 807.5412
365.9552, 810.8321
366.4373, 814.2092
366.9194, 821.1801
367.4015, 824.6843
367.8836, 822.1675
368.3658, 813.7239
368.8479, 806.3532
369.3300, 799.1047
369.8121, 793.7897
370.2942, 791.5903
370.7763, 792.9395
371.2585, 796.9113
371.7406, 806.0110
372.2227, 818.0087
372.7048, 823.1321
373.1869, 817.9222
373.6690, 810.8909
374.1512, 806.0655
374.6333, 803.6893
375.1154, 802.6647
375.5975, 802.7798
376.0796, 804.3666
376.5617, 808.6742
377.0439, 816.4341
377.5260, 823.9687
378.0081, 830.1597
378.4902, 835.1077
378.9723, 836.7952
379.4544, 834.7952
379.9366, 830.7819
380.4187, 825.9224
380.9008, 820.3290
381.3829, 817.0079
381.8650, 817.9980
382.3471, 821.9696
382.8293, 824.6499
383.3114, 825.9988
383.7935, 826.8107
384.2756, 827.8386
384.7577, 828.9396
385.2398, 829.6771
385.7220, 829.8134
386.2041, 829.5980
386.6862, 829.3329
387.1683, 828.9938
387.6504, 828.5634
388.1325, 827.7725
388.6147, 826.9449
389.0968, 826.3292
389.5789, 825.4157
390.0610, 825.9053
390.5431, 831.0609
391.0252, 838.8783
391.5074, 844.2095
391.9895, 845.2195
392.4716, 842.5467
392.9537, 834.0416
393.4358, 816.0142
393.9179, 806.3228
394.4001, 819.6243
394.8822, 843.5151
395.3643, 860.6570
395.8464, 863.3009
396.3285, 861.2778
396.8106, 855.9327
397.2928, 846.7110
397.7749, 841.4224
398.2570, 845.0223
398.7391, 850.8348
399.2212, 853.3287
399.7033, 851.2394
400.1855, 847.0451
400.6676, 837.7444
401.1497, 825.1356
401.6318, 822.4258
402.1139, 836.9828
402.5960, 852.3596
403.0782, 859.1745
403.5603, 854.5581
404.0424, 848.6223
404.5245, 839.8897
405.0066, 831.3038
405.4887, 830.4622
405.9709, 839.4462
406.4530, 848.7188
406.9351, 853.4406
407.4172, 853.5073
407.8993, 857.1224
408.3814, 865.6068
408.8636, 873.9918
409.3457, 874.6177
409.8278, 868.1151
410.3099, 862.4877
410.7920, 861.6723
411.2741, 863.2427
411.7563, 860.4773
412.2384, 853.2794
412.7205, 846.2329
413.2026, 843.4433
413.6847, 843.5042
414.1668, 843.1709
414.6490, 840.6204
415.1311, 838.9643
415.6132, 844.2425
416.0953, 854.1619
416.5774, 859.6260
417.0595, 850.1860
417.5417, 837.0140
418.0238, 829.6262
418.5059, 829.7808
418.9880, 834.9305
419.4701, 849.0821
419.9522, 866.5030
420.4344, 877.9737
420.9165, 877.2280
421.3986, 872.8502
421.8807, 867.0234
422.3628, 859.7053
422.8449, 854.3464
423.3270, 850.5109
423.8091, 849.5565
424.2913, 852.5851
424.7734, 865.8669
425.2555, 875.8850
425.7376, 880.2847
426.2197, 880.0505
426.7018, 880.5853
427.1840, 883.0460
427.6661, 884.8051
428.1482, 884.6485
428.6303, 882.4847
429.1124, 878.1783
429.5945, 870.4822
430.0767, 861.8048
430.5588, 856.1848
431.0409, 853.6874
431.5230, 854.3040
432.0051, 859.8431
432.4872, 869.4608
432.9694, 853.3814
433.4515, 878.4694
433.9336, 892.5156
434.4157, 896.1133
434.8978, 857.9682
435.3799, 873.7253
435.8621, 867.8808
436.3442, 861.1506
436.8263, 884.4942
437.3084, 852.4205
437.7905, 875.2872
438.2726, 876.2227
438.7548, 887.1955
439.2369, 876.4334
439.7190, 872.3845
440.2011, 890.0776
440.6832, 895.7320
441.1653, 882.4678
441.6475, 894.0787
442.1296, 861.2458
442.6117, 867.4130
443.0938, 890.4069
443.5759, 878.2356
444.0580, 890.2439
444.5402, 893.0433
445.0223, 853.9919
445.5044, 887.7232
445.9865, 887.4121
446.4686, 896.2441
446.9507, 887.4984
447.4329, 865.3589
447.9150, 851.1514
448.3971, 848.8966
448.8792, 850.3844
449.3613, 852.0871
449.8434, 853.0897
450.3256, 857.2365
450.8077, 866.3547
451.2898, 876.8668
451.7719, 883.3314
452.2540, 885.3990
452.7361, 884.1362
453.2183, 877.0171
453.7004, 866.0994
454.1825, 869.0511
454.6646, 888.3215
455.1467, 906.7301
455.6288, 904.5956
456.1110, 876.6822
456.5931, 888.9606
457.0752, 895.9226
457.5573, 897.8539
458.0394, 879.6867
458.5215, 887.4725
459.0037, 884.8575
459.4858, 881.8161
459.9679, 893.2546
460.4500, 878.0107
460.9321, 889.2197
461.4142, 889.8691
461.8964, 895.3514
462.3785, 890.3687
462.8606, 888.6183
463.3427, 897.3362
463.8248, 900.2577
464.3069, 894.0703
464.7891, 899.8598
465.2712, 884.2504
465.7533, 887.1381
466.2354, 886.3299
466.7175, 890.3187
467.1996, 906.3500
467.6818, 916.2170
468.1639, 917.2701
468.6460, 912.6335
469.1281, 907.4905
469.6102, 900.7906
470.0923, 895.3428
470.5745, 891.8791
471.0566, 890.4345
471.5387, 890.2390
472.0208, 891.2615
472.5029, 893.6060
472.9850, 898.5533
473.4672, 906.2914
473.9493, 910.7350
474.4314, 910.4670
474.9135, 906.9672
475.3956, 901.1533
475.8777, 893.4482
476.3599, 889.7811
476.8420, 897.9063
477.3241, 911.6296
477.8062, 917.2449
478.2883, 913.0403
478.7704, 908.9737
479.2526, 917.5405
479.7347, 931.4412
480.2168, 938.6444
480.6989, 926.6997
481.1810, 914.0594
481.6631, 913.4415
482.1453, 922.5161
482.6274, 929.6896
483.1095, 927.4052
483.5916, 923.6921
484.0737, 923.8395
484.5558, 931.7922
485.0379, 936.5178
485.5201, 934.8110
486.0022, 929.4357
486.4843, 924.2863
486.9664, 915.3069
487.4485, 912.3589
487.9306, 920.1161
488.4128, 938.0124
488.8949, 949.0665
489.3770, 952.2259
489.8591, 950.9539
490.3412, 946.3115
490.8233, 937.6567
491.3055, 932.4211
491.7876, 931.7097
492.2697, 934.0540
492.7518, 938.3389
493.2339, 944.2350
493.7160, 947.8283
494.1982, 945.6821
494.6803, 940.1876
495.1624, 935.5801
495.6445, 931.8232
496.1266, 931.1647
496.6087, 939.6672
497.0909, 951.0790
497.5730, 956.0223
498.0551, 948.2780
498.5372, 939.6603
499.0193, 937.4097
499.5014, 940.0904
499.9836, 944.1803
500.4657, 950.6606
500.9478, 956.2978
501.4299, 959.3075
501.9120, 958.9914
502.3941, 959.0366
502.8763, 962.5065
503.3584, 965.0118
503.8405, 962.6757
504.3226, 951.6043
504.8047, 941.9670
505.2868, 934.6772
505.7690, 929.4667
506.2511, 925.1588
506.7332, 921.3057
507.2153, 919.7504
507.6974, 923.9408
508.1795, 933.6938
508.6617, 932.3260
509.1438, 917.4233
509.6259, 901.2236
510.1080, 900.4096
510.5901, 911.3807
511.0722, 917.3025
511.5544, 912.3820
512.0365, 901.7132
512.5186, 889.6672
513.0007, 876.9989
513.4828, 867.3508
513.9650, 864.5892
514.4471, 864.8090
514.9292, 864.5663
515.4113, 863.3683
515.8934, 862.2839
516.3755, 863.8671
516.8576, 864.9848
517.3397, 862.2527
517.8218, 848.7943
518.3040, 838.0851
518.7861, 833.7607
519.2682, 834.9866
519.7503, 836.5473
520.2324, 841.3070
520.7145, 842.9230
521.1967, 837.4385
521.6788, 822.0356
522.1609, 812.8987
522.6430, 811.3622
523.1251, 814.0172
523.6072, 817.2667
524.0894, 821.1305
524.5715, 825.2465
525.0536, 830.4966
525.5357, 835.0085
526.0178, 833.6928
526.4999, 826.8904
526.9821, 819.2652
527.4642, 814.0943
527.9463, 809.9101
528.4284, 803.1312
528.9105, 792.8233
529.3926, 785.9285
529.8748, 793.8900
530.3569, 806.7057
530.8390, 811.2375
531.3211, 794.4957
531.8032, 777.4995
532.2853, 769.6424
532.7675, 768.2786
533.2496, 763.5375
533.7317, 745.9023
534.2138, 731.0684
534.6959, 726.2473
535.1780, 734.4476
535.6602, 740.9903
536.1423, 745.1203
536.6244, 748.4980
537.1065, 753.5763
537.5886, 761.8408
538.0707, 765.4274
538.5529, 761.6485
539.0350, 753.6855
539.5171, 749.1241
539.9992, 747.9567
540.4813, 750.1764
540.9634, 758.5795
541.4456, 770.1400
541.9277, 776.4564
542.4098, 777.1977
542.8919, 775.4758
543.3740, 772.6227
543.8561, 769.4299
544.3383, 767.2131
544.8204, 767.2535
545.3025, 766.8718
545.7846, 763.5892
546.2667, 758.7097
546.7488, 755.2299
547.2310, 751.6989
547.7131, 752.0335
548.1952, 760.8727
548.6773, 780.5266
549.1594, 789.8541
549.6415, 780.8735
550.1237, 768.2323
550.6058, 762.0983
551.0879, 765.2507
551.5700, 767.1207
552.0521, 766.5510
552.5342, 764.9440
553.0164, 765.4626
553.4985, 768.3314
553.9806, 769.8594
554.4627, 767.8201
554.9448, 763.6447
555.4269, 761.0829
555.9091, 760.1330
556.3912, 761.1647
556.8733, 766.8605
557.3554, 773.9020
557.8375, 777.0762
558.3196, 774.7949
558.8018, 771.4432
559.2839, 768.7230
559.7660, 767.0601
560.2481, 767.0220
560.7302, 769.9191
561.2123, 773.3069
561.6945, 777.1360
562.1766, 781.0985
562.6587, 783.2431
563.1408, 783.2271
563.6229, 781.5401
564.1050, 777.0031
564.5872, 767.0394
565.0693, 766.9466
565.5514, 781.2896
566.0335, 797.8653
566.5156, 800.8350
566.9977, 789.7394
567.4799, 782.1541
567.9620, 782.4035
568.4441, 786.9517
568.9262, 788.7768
569.4083, 788.5694
569.8904, 790.2266
570.3726, 799.2277
570.8547, 809.5052
571.3368, 812.1852
571.8189, 807.1027
572.3010, 804.3055
572.7831, 813.6793
573.2653, 826.0267
573.7474, 833.2045
574.2295, 832.9847
574.7116, 828.5156
575.1937, 814.7264
575.6758, 798.3232
576.1580, 791.4905
576.6401, 801.9059
577.1222, 811.2863
577.6043, 816.2700
578.0864, 817.0877
578.5685, 814.3732
579.0507, 806.3624
579.5328, 800.4478
580.0149, 803.1497
580.4970, 813.5372
580.9791, 818.8638
581.4612, 817.8924
581.9434, 815.3560
582.4255, 817.1356
582.9076, 821.5827
583.3897, 824.7691
583.8718, 825.9606
584.3539, 824.7636
584.8361, 819.1106
585.3182, 810.5884
585.8003, 803.5181
586.2824, 800.7339
586.7645, 799.1307
587.2466, 797.1095
587.7288, 794.4426
588.2109, 792.8812
588.6930, 794.9499
589.1751, 796.4157
589.6572, 794.0547
590.1393, 783.4429
590.6215, 780.2346
591.1036, 787.7801
591.5857, 799.3286
592.0678, 803.7388
592.5499, 800.6432
593.0320, 796.1367
593.5142, 791.3217
593.9963, 786.8464
594.4784, 785.3163
594.9605, 786.2568
595.4426, 785.8335
595.9247, 779.8275
596.4069, 771.9778
596.8890, 767.6005
597.3711, 767.5060
597.8532, 765.5948
598.3353, 754.6877
598.8174, 742.2740
599.2996, 735.3729
599.7817, 742.5479
600.2638, 746.2803
600.7459, 740.0232
601.2280, 729.4139
601.7101, 725.6603
602.1923, 732.2333
602.6744, 739.4104
603.1565, 745.5063
603.6386, 750.2392
604.1207, 750.1020
604.6028, 744.1442
605.0850, 738.8270
605.5671, 738.2906
606.0492, 742.0764
606.5313, 749.7430
607.0134, 761.9086
607.4955, 772.7372
607.9777, 778.7371
608.4598, 779.2437
608.9419, 772.1824
609.4240, 748.7924
609.9061, 730.0892
610.3882, 732.0344
610.8704, 746.8181
611.3525, 757.6960
611.8346, 754.9294
612.3167, 753.2782
612.7988, 759.8256
613.2809, 774.1679
613.7631, 780.1257
614.2452, 774.8195
614.7273, 766.0317
615.2094, 755.9703
615.6915, 743.5776
616.1736, 743.6003
616.6558, 759.5734
617.1379, 777.2026
617.6200, 777.9239
618.1021, 765.2960
618.5842, 752.7857
619.0663, 742.1013
619.5485, 736.0244
620.0306, 739.2578
620.5127, 749.5632
620.9948, 761.3367
621.4769, 778.7982
621.9590, 790.8146
622.4412, 786.0984
622.9233, 765.8612
623.4054, 756.1211
623.8875, 773.5248
624.3696, 792.8854
624.8517, 802.4465
625.3339, 800.2928
625.8160, 794.1111
626.2981, 781.8390
626.7802, 768.8011
627.2623, 760.5965
627.7444, 757.2725
628.2266, 757.0807
628.7087, 760.4167
629.1908, 765.3876
629.6729, 769.6271
630.1550, 772.9877
