##NAMES=Crookesite
##RRUFFID=R061025
##IDEAL CHEMISTRY=Cu_7_TlSe_4_
##LOCALITY=Skrikerum mine, Ostergotland, Sweden
##OWNER=RRUFF
##SOURCE=Michael Scott
##DESCRIPTION=Lead gray metallic massive associated with umangite
##STATUS=The identification of this mineral is confirmed by single-crystal X-ray diffraction and chemical analysis.
##URL=rruff.info/R061025
##MEASURED CHEMISTRY=Cu_7.01_Tl_0.99_Se_4.00_ ; (light phase) Tl not measured but estimated by difference and stoichiometry ; the dark phase is Cu_3.00_Se_2.00_ (umangite, with trace amounts of S)
154.7938, 3249.502
155.2759, 3271.324
155.7580, 3292.207
156.2401, 3314.774
156.7223, 3345.707
157.2044, 3390.723
157.6865, 3442.163
158.1686, 3486.948
158.6507, 3522.138
159.1328, 3570.655
159.6150, 3661.002
160.0971, 3775.028
160.5792, 3880.019
161.0613, 3958.872
161.5434, 4028.530
162.0255, 4116.398
162.5077, 4227.150
162.9898, 4339.048
163.4719, 4439.843
163.9540, 4532.796
164.4361, 4622.265
164.9182, 4715.006
165.4004, 4802.669
165.8825, 4867.113
166.3646, 4902.854
166.8467, 4930.885
167.3288, 4968.090
167.8109, 5005.541
168.2931, 5027.779
168.7752, 5023.966
169.2573, 5002.897
169.7394, 4983.507
170.2215, 4968.802
170.7036, 4949.043
171.1858, 4923.580
171.6679, 4890.184
172.1500, 4843.204
172.6321, 4775.406
173.1142, 4694.423
173.5963, 4618.759
174.0785, 4550.380
174.5606, 4483.738
175.0427, 4415.002
175.5248, 4346.050
176.0069, 4280.481
176.4890, 4220.696
176.9712, 4164.899
177.4533, 4105.943
177.9354, 4038.257
178.4175, 3977.754
178.8996, 3934.258
179.3817, 3900.376
179.8639, 3864.315
180.3460, 3816.964
180.8281, 3764.734
181.3102, 3729.424
181.7923, 3720.120
182.2744, 3713.256
182.7566, 3705.261
183.2387, 3692.834
183.7208, 3669.850
184.2029, 3629.571
184.6850, 3579.090
185.1671, 3542.801
185.6493, 3529.517
186.1314, 3516.752
186.6135, 3499.221
187.0956, 3477.177
187.5777, 3449.400
188.0598, 3412.209
188.5419, 3372.098
189.0241, 3351.781
189.5062, 3370.565
189.9883, 3377.903
190.4704, 3350.840
190.9525, 3308.147
191.4346, 3274.575
191.9168, 3264.083
192.3989, 3268.161
192.8810, 3260.302
193.3631, 3231.708
193.8452, 3205.485
194.3273, 3187.435
194.8095, 3174.782
195.2916, 3165.707
195.7737, 3160.501
196.2558, 3155.409
196.7379, 3137.802
197.2200, 3094.081
197.7022, 3062.060
198.1843, 3057.099
198.6664, 3063.521
199.1485, 3065.978
199.6306, 3058.168
200.1127, 3040.632
200.5949, 3012.625
201.0770, 2962.610
201.5591, 2923.632
202.0412, 2904.933
202.5233, 2896.610
203.0054, 2890.311
203.4876, 2882.948
203.9697, 2873.286
204.4518, 2857.443
204.9339, 2829.078
205.4160, 2807.426
205.8981, 2796.739
206.3803, 2792.395
206.8624, 2793.882
207.3445, 2801.060
207.8266, 2805.710
208.3087, 2789.261
208.7908, 2735.565
209.2730, 2697.737
209.7551, 2691.589
210.2372, 2696.717
210.7193, 2697.633
211.2014, 2689.878
211.6835, 2680.544
212.1657, 2681.825
212.6478, 2699.045
213.1299, 2712.361
213.6120, 2711.809
214.0941, 2712.003
214.5762, 2725.496
215.0584, 2754.100
215.5405, 2785.809
216.0226, 2802.953
216.5047, 2798.914
216.9868, 2803.103
217.4689, 2824.215
217.9511, 2849.287
218.4332, 2870.832
218.9153, 2888.129
219.3974, 2906.306
219.8795, 2932.152
220.3616, 2967.694
220.8438, 3000.987
221.3259, 3032.222
221.8080, 3060.632
222.2901, 3083.148
222.7722, 3101.115
223.2543, 3120.481
223.7365, 3150.986
224.2186, 3195.804
224.7007, 3224.489
225.1828, 3217.732
225.6649, 3210.561
226.1470, 3219.076
226.6292, 3240.555
227.1113, 3262.641
227.5934, 3277.169
228.0755, 3284.079
228.5576, 3280.612
229.0397, 3257.711
229.5219, 3233.485
230.0040, 3214.919
230.4861, 3200.765
230.9682, 3187.952
231.4503, 3177.950
231.9324, 3168.178
232.4146, 3140.077
232.8967, 3074.823
233.3788, 3017.924
233.8609, 2988.337
234.3430, 2977.551
234.8251, 2973.061
235.3073, 2972.717
235.7894, 2970.854
236.2715, 2946.152
236.7536, 2881.655
237.2357, 2827.188
237.7178, 2801.253
238.2000, 2794.274
238.6821, 2796.648
239.1642, 2807.626
239.6463, 2820.485
240.1284, 2819.445
240.6105, 2797.242
241.0927, 2782.602
241.5748, 2791.237
242.0569, 2809.468
242.5390, 2825.643
243.0211, 2836.498
243.5032, 2843.832
243.9854, 2845.430
244.4675, 2837.874
244.9496, 2845.898
245.4317, 2888.853
245.9138, 2944.630
246.3959, 2996.113
246.8781, 3040.045
247.3602, 3084.468
247.8423, 3136.230
248.3244, 3195.722
248.8065, 3259.640
249.2886, 3329.664
249.7708, 3402.360
250.2529, 3475.567
250.7350, 3549.149
251.2171, 3621.774
251.6992, 3690.729
252.1813, 3756.922
252.6635, 3826.330
253.1456, 3899.879
253.6277, 3976.561
254.1098, 4058.284
254.5919, 4143.687
255.0740, 4222.091
255.5562, 4290.557
256.0383, 4348.074
256.5204, 4390.713
257.0025, 4414.671
257.4846, 4432.314
257.9667, 4466.732
258.4489, 4506.851
258.9310, 4511.599
259.4131, 4455.641
259.8952, 4363.356
260.3773, 4266.700
260.8594, 4167.154
261.3416, 4057.298
261.8237, 3926.638
262.3058, 3780.510
262.7879, 3633.453
263.2700, 3487.878
263.7521, 3342.185
264.2343, 3191.597
264.7164, 3036.856
265.1985, 2887.119
265.6806, 2741.653
266.1627, 2608.568
266.6448, 2507.688
267.1270, 2457.728
267.6091, 2412.200
268.0912, 2343.471
268.5733, 2259.940
269.0554, 2185.491
269.5375, 2128.286
270.0197, 2086.241
270.5018, 2057.625
270.9839, 2047.357
271.4660, 2034.905
271.9481, 2010.652
272.4302, 1982.049
272.9124, 1961.890
273.3945, 1954.205
273.8766, 1949.826
274.3587, 1934.066
274.8408, 1899.296
275.3229, 1876.091
275.8051, 1873.167
276.2872, 1878.084
276.7693, 1882.173
277.2514, 1883.450
277.7335, 1880.307
278.2156, 1869.696
278.6978, 1848.999
279.1799, 1838.587
279.6620, 1844.682
280.1441, 1854.071
280.6262, 1863.023
281.1083, 1869.655
281.5905, 1870.329
282.0726, 1861.573
282.5547, 1844.140
283.0368, 1831.265
283.5189, 1823.422
284.0010, 1819.358
284.4832, 1823.998
284.9653, 1831.234
285.4474, 1831.048
285.9295, 1817.982
286.4116, 1796.438
286.8937, 1780.320
287.3759, 1768.922
287.8580, 1764.977
288.3401, 1776.990
288.8222, 1791.660
289.3043, 1794.160
289.7864, 1780.674
290.2685, 1763.169
290.7506, 1762.665
291.2328, 1790.319
291.7149, 1805.379
292.1970, 1795.638
292.6791, 1782.076
293.1612, 1776.379
293.6433, 1779.215
294.1255, 1784.083
294.6076, 1783.119
295.0897, 1775.558
295.5718, 1776.873
296.0539, 1801.510
296.5360, 1819.090
297.0182, 1811.591
297.5003, 1787.022
297.9824, 1764.530
298.4645, 1755.346
298.9466, 1756.698
299.4287, 1759.923
299.9109, 1765.331
300.3930, 1771.998
300.8751, 1781.771
301.3572, 1791.761
301.8393, 1798.888
302.3214, 1803.055
302.8036, 1802.121
303.2857, 1788.163
303.7678, 1759.665
304.2499, 1743.393
304.7320, 1756.992
305.2141, 1782.214
305.6963, 1798.189
306.1784, 1803.338
306.6605, 1802.147
307.1426, 1796.292
307.6247, 1786.233
308.1068, 1770.817
308.5890, 1745.223
309.0711, 1723.918
309.5532, 1730.891
310.0353, 1763.995
310.5174, 1788.524
310.9995, 1789.357
311.4817, 1779.529
311.9638, 1775.437
312.4459, 1778.849
312.9280, 1780.988
313.4101, 1774.101
313.8922, 1758.297
314.3744, 1745.178
314.8565, 1733.935
315.3386, 1725.991
315.8207, 1723.369
316.3028, 1724.908
316.7849, 1727.458
317.2671, 1729.550
317.7492, 1731.044
318.2313, 1731.279
318.7134, 1729.781
319.1955, 1727.708
319.6776, 1724.286
320.1598, 1720.706
320.6419, 1717.894
321.1240, 1716.232
321.6061, 1716.533
322.0882, 1720.646
322.5703, 1732.623
323.0525, 1738.894
323.5346, 1734.750
324.0167, 1729.465
324.4988, 1729.351
324.9809, 1734.000
325.4630, 1738.383
325.9452, 1737.365
326.4273, 1730.785
326.9094, 1728.759
327.3915, 1734.532
327.8736, 1741.734
328.3557, 1750.409
328.8379, 1759.052
329.3200, 1765.508
329.8021, 1768.543
330.2842, 1769.101
330.7663, 1768.650
331.2484, 1765.476
331.7306, 1766.005
332.2127, 1778.260
332.6948, 1791.269
333.1769, 1795.438
333.6590, 1788.696
334.1411, 1777.492
334.6233, 1766.303
335.1054, 1755.311
335.5875, 1747.673
336.0696, 1743.843
336.5517, 1743.926
337.0338, 1750.958
337.5160, 1763.280
337.9981, 1769.662
338.4802, 1757.536
338.9623, 1739.295
339.4444, 1736.895
339.9265, 1753.151
340.4087, 1771.372
340.8908, 1781.792
341.3729, 1784.542
341.8550, 1782.979
342.3371, 1775.066
342.8192, 1764.787
343.3014, 1753.341
343.7835, 1741.207
344.2656, 1729.326
344.7477, 1717.379
345.2298, 1707.335
345.7119, 1704.012
346.1941, 1710.683
346.6762, 1717.276
347.1583, 1721.137
347.6404, 1725.297
348.1225, 1734.223
348.6046, 1748.081
349.0868, 1761.381
349.5689, 1768.034
350.0510, 1766.845
350.5331, 1765.601
351.0152, 1766.471
351.4973, 1765.174
351.9795, 1759.472
352.4616, 1750.310
352.9437, 1739.207
353.4258, 1726.694
353.9079, 1714.058
354.3900, 1706.378
354.8722, 1706.058
355.3543, 1706.865
355.8364, 1709.077
356.3185, 1710.952
356.8006, 1711.570
357.2827, 1710.598
357.7649, 1706.744
358.2470, 1696.386
358.7291, 1679.033
359.2112, 1667.054
359.6933, 1664.182
360.1754, 1664.615
360.6576, 1665.146
361.1397, 1665.617
361.6218, 1665.683
362.1039, 1665.733
362.5860, 1665.101
363.0681, 1662.043
363.5503, 1656.182
364.0324, 1650.439
364.5145, 1646.046
364.9966, 1643.149
365.4787, 1641.629
365.9608, 1640.721
366.4430, 1642.361
366.9251, 1650.490
367.4072, 1661.971
367.8893, 1668.646
368.3714, 1667.352
368.8535, 1662.510
369.3357, 1661.113
369.8178, 1665.131
370.2999, 1666.328
370.7820, 1661.378
371.2641, 1655.561
371.7462, 1652.259
372.2283, 1651.942
372.7104, 1654.757
373.1926, 1661.812
373.6747, 1672.530
374.1568, 1674.507
374.6389, 1654.836
375.1210, 1640.986
375.6031, 1642.394
376.0853, 1650.813
376.5674, 1655.458
377.0495, 1652.104
377.5316, 1645.483
378.0137, 1644.713
378.4958, 1653.107
378.9780, 1655.785
379.4601, 1642.556
379.9422, 1630.068
380.4243, 1628.594
380.9064, 1636.800
381.3885, 1645.046
381.8707, 1647.483
382.3528, 1644.733
382.8349, 1637.899
383.3170, 1625.164
383.7991, 1613.660
384.2813, 1606.739
384.7634, 1603.841
385.2455, 1604.845
385.7276, 1611.024
386.2097, 1618.905
386.6918, 1628.572
387.1740, 1638.293
387.6561, 1640.690
388.1382, 1631.844
388.6203, 1619.029
389.1024, 1612.582
389.5845, 1613.270
390.0667, 1615.576
390.5488, 1621.724
391.0309, 1627.200
391.5130, 1627.418
391.9951, 1622.855
392.4772, 1617.646
392.9594, 1614.639
393.4415, 1613.752
393.9236, 1614.371
394.4057, 1618.530
394.8878, 1621.796
395.3699, 1622.859
395.8521, 1622.965
396.3342, 1624.181
396.8163, 1626.975
397.2984, 1628.922
397.7805, 1625.256
398.2626, 1613.694
398.7448, 1607.069
399.2269, 1609.051
399.7090, 1613.395
400.1911, 1620.422
400.6732, 1627.764
401.1553, 1629.396
401.6375, 1618.062
402.1196, 1601.356
402.6017, 1595.802
403.0838, 1603.148
403.5659, 1611.600
404.0480, 1620.556
404.5302, 1624.831
405.0123, 1615.138
405.4944, 1585.750
405.9765, 1560.356
406.4586, 1552.468
406.9407, 1556.563
407.4229, 1563.914
407.9050, 1573.077
408.3871, 1581.910
408.8692, 1588.605
409.3513, 1593.030
409.8334, 1594.481
410.3156, 1591.428
410.7977, 1587.115
411.2798, 1583.015
411.7619, 1578.771
412.2440, 1571.938
412.7261, 1560.993
413.2083, 1550.622
413.6904, 1553.671
414.1725, 1583.468
414.6546, 1601.136
415.1367, 1598.475
415.6188, 1590.222
416.1010, 1583.912
416.5831, 1580.932
417.0652, 1580.597
417.5473, 1583.466
418.0294, 1588.649
418.5115, 1591.203
418.9937, 1590.194
419.4758, 1588.638
419.9579, 1587.067
420.4400, 1586.082
420.9221, 1587.456
421.4042, 1593.345
421.8864, 1596.316
422.3685, 1585.876
422.8506, 1567.207
423.3327, 1558.881
423.8148, 1567.094
424.2969, 1579.721
424.7791, 1583.257
425.2612, 1576.979
425.7433, 1572.382
426.2254, 1569.078
426.7075, 1568.598
427.1896, 1573.595
427.6718, 1582.314
428.1539, 1590.751
428.6360, 1597.017
429.1181, 1600.550
429.6002, 1599.597
430.0823, 1590.000
430.5645, 1582.432
431.0466, 1577.649
431.5287, 1574.455
432.0108, 1571.833
432.4929, 1569.841
432.9750, 1569.551
433.4572, 1573.132
433.9393, 1579.479
434.4214, 1580.689
434.9035, 1575.639
435.3856, 1567.736
435.8677, 1551.422
436.3499, 1535.922
436.8320, 1534.113
437.3141, 1551.614
437.7962, 1572.166
438.2783, 1585.566
438.7604, 1592.029
439.2426, 1590.628
439.7247, 1579.468
440.2068, 1567.289
440.6889, 1563.185
441.1710, 1567.574
441.6531, 1570.796
442.1353, 1572.320
442.6174, 1572.794
443.0995, 1571.082
443.5816, 1568.678
444.0637, 1568.864
444.5458, 1573.187
445.0280, 1580.058
445.5101, 1586.529
445.9922, 1594.648
446.4743, 1598.020
446.9564, 1593.375
447.4385, 1587.531
447.9207, 1583.813
448.4028, 1582.384
448.8849, 1582.658
449.3670, 1585.866
449.8491, 1589.345
450.3312, 1583.124
450.8134, 1563.600
451.2955, 1548.192
451.7776, 1543.689
452.2597, 1546.581
452.7418, 1554.848
453.2239, 1569.433
453.7060, 1581.428
454.1881, 1586.010
454.6703, 1585.074
455.1524, 1579.837
455.6345, 1570.504
456.1166, 1563.741
456.5987, 1566.733
457.0808, 1577.654
457.5630, 1575.963
458.0451, 1542.882
458.5272, 1521.756
459.0093, 1533.681
459.4914, 1558.886
459.9735, 1573.076
460.4557, 1569.870
460.9378, 1560.633
461.4199, 1560.104
461.9020, 1570.099
462.3841, 1574.196
462.8662, 1568.276
463.3484, 1560.935
463.8305, 1552.088
464.3126, 1544.718
464.7947, 1544.482
465.2768, 1555.655
465.7589, 1568.390
466.2411, 1569.417
466.7232, 1560.053
467.2053, 1553.948
467.6874, 1556.069
468.1695, 1558.830
468.6516, 1551.320
469.1338, 1534.516
469.6159, 1524.098
470.0980, 1527.868
470.5801, 1533.871
471.0622, 1533.273
471.5443, 1527.925
472.0265, 1523.336
472.5086, 1521.887
472.9907, 1523.966
473.4728, 1531.200
473.9549, 1551.217
474.4370, 1561.395
474.9192, 1555.624
475.4013, 1547.004
475.8834, 1542.335
476.3655, 1541.302
476.8476, 1540.274
477.3297, 1536.190
477.8119, 1531.678
478.2940, 1535.073
478.7761, 1548.924
479.2582, 1556.258
479.7403, 1546.340
480.2224, 1531.993
480.7046, 1528.181
481.1867, 1535.711
481.6688, 1542.922
482.1509, 1546.797
482.6330, 1547.112
483.1151, 1539.525
483.5973, 1525.866
484.0794, 1521.061
484.5615, 1536.669
485.0436, 1564.627
485.5257, 1575.646
486.0078, 1549.100
486.4900, 1532.094
486.9721, 1531.322
487.4542, 1536.720
487.9363, 1541.845
488.4184, 1545.341
488.9005, 1547.799
489.3827, 1550.089
489.8648, 1551.631
490.3469, 1548.404
490.8290, 1536.938
491.3111, 1529.690
491.7932, 1536.075
492.2754, 1546.304
492.7575, 1550.946
493.2396, 1548.687
493.7217, 1544.844
494.2038, 1540.990
494.6859, 1537.951
495.1681, 1537.303
495.6502, 1539.150
496.1323, 1542.477
496.6144, 1547.386
497.0965, 1552.976
497.5786, 1554.433
498.0608, 1546.815
498.5429, 1541.880
499.0250, 1543.887
499.5071, 1547.332
499.9892, 1546.011
500.4713, 1539.947
500.9535, 1535.011
501.4356, 1537.314
501.9177, 1545.571
502.3998, 1549.260
502.8819, 1545.924
503.3640, 1543.306
503.8462, 1546.018
504.3283, 1549.849
504.8104, 1550.405
505.2925, 1546.828
505.7746, 1542.564
506.2567, 1540.005
506.7389, 1537.971
507.2210, 1531.932
507.7031, 1521.731
508.1852, 1518.880
508.6673, 1533.883
509.1494, 1561.715
509.6316, 1575.948
510.1137, 1567.382
510.5958, 1558.192
511.0779, 1548.252
511.5600, 1540.365
512.0421, 1538.588
512.5242, 1542.252
513.0063, 1545.989
513.4885, 1545.663
513.9706, 1541.398
514.4527, 1531.881
514.9348, 1511.756
515.4169, 1500.232
515.8990, 1512.816
516.3812, 1532.562
516.8633, 1543.189
517.3454, 1542.636
517.8275, 1539.778
518.3096, 1539.943
518.7917, 1539.998
519.2739, 1533.273
519.7560, 1520.279
520.2381, 1511.619
520.7202, 1514.903
521.2023, 1525.902
521.6844, 1530.034
522.1666, 1515.743
522.6487, 1509.939
523.1308, 1520.012
523.6129, 1533.171
524.0950, 1541.993
524.5771, 1545.171
525.0593, 1542.693
525.5414, 1532.731
526.0235, 1519.036
526.5056, 1513.371
526.9877, 1517.767
527.4698, 1519.270
527.9520, 1511.532
528.4341, 1501.367
528.9162, 1497.681
529.3983, 1500.709
529.8804, 1500.082
530.3625, 1488.271
530.8447, 1474.703
531.3268, 1467.569
531.8089, 1466.452
532.2910, 1469.683
532.7731, 1477.246
533.2552, 1484.059
533.7374, 1477.729
534.2195, 1444.694
534.7016, 1428.802
535.1837, 1444.771
535.6658, 1462.120
536.1479, 1464.356
536.6301, 1456.552
537.1122, 1451.984
537.5943, 1456.722
538.0764, 1467.653
538.5585, 1483.442
539.0406, 1503.214
539.5228, 1516.506
540.0049, 1520.895
540.4870, 1518.295
540.9691, 1507.631
541.4512, 1489.375
541.9333, 1477.548
542.4155, 1476.319
542.8976, 1477.891
543.3797, 1479.884
543.8618, 1481.993
544.3439, 1484.534
544.8260, 1487.421
545.3082, 1489.043
545.7903, 1487.202
546.2724, 1481.747
546.7545, 1475.418
547.2366, 1466.024
547.7188, 1459.222
548.2009, 1458.342
548.6830, 1460.522
549.1651, 1461.553
549.6472, 1459.919
550.1293, 1461.256
550.6115, 1473.965
551.0936, 1490.667
551.5757, 1496.208
552.0578, 1489.368
552.5399, 1482.715
553.0220, 1485.804
553.5042, 1495.242
553.9863, 1495.817
554.4684, 1478.417
554.9505, 1463.863
555.4326, 1449.993
555.9147, 1441.242
556.3969, 1444.437
556.8790, 1456.778
557.3611, 1467.153
557.8432, 1467.505
558.3253, 1461.766
558.8074, 1458.053
559.2896, 1456.326
559.7717, 1457.586
560.2538, 1464.151
560.7359, 1471.242
561.2180, 1471.914
561.7001, 1466.439
562.1823, 1463.335
562.6644, 1466.463
563.1465, 1469.872
563.6286, 1473.400
564.1107, 1473.818
564.5928, 1462.222
565.0750, 1435.805
565.5571, 1407.443
566.0392, 1395.933
566.5213, 1403.509
567.0034, 1411.845
567.4855, 1422.696
567.9677, 1431.768
568.4498, 1436.389
568.9319, 1438.817
569.4140, 1442.794
569.8961, 1449.929
570.3782, 1454.858
570.8604, 1452.918
571.3425, 1446.816
571.8246, 1439.657
572.3067, 1432.217
572.7888, 1429.273
573.2709, 1434.872
573.7531, 1446.617
574.2352, 1454.551
574.7173, 1454.174
575.1994, 1456.609
575.6815, 1466.890
576.1636, 1476.088
576.6458, 1476.484
577.1279, 1470.026
577.6100, 1465.190
578.0921, 1467.967
578.5742, 1473.302
579.0563, 1471.497
579.5385, 1463.146
580.0206, 1458.717
580.5027, 1462.125
580.9848, 1467.153
581.4669, 1466.840
581.9490, 1460.711
582.4312, 1456.370
582.9133, 1456.936
583.3954, 1455.747
583.8775, 1446.873
584.3596, 1436.226
584.8417, 1431.961
585.3239, 1435.821
585.8060, 1443.396
586.2881, 1452.428
586.7702, 1461.821
587.2523, 1459.651
587.7344, 1439.759
588.2166, 1427.471
588.6987, 1439.804
589.1808, 1461.097
589.6629, 1469.111
590.1450, 1461.452
590.6271, 1454.801
591.1093, 1456.756
591.5914, 1459.837
592.0735, 1457.014
592.5556, 1449.488
593.0377, 1441.406
593.5198, 1434.595
594.0020, 1430.199
594.4841, 1431.279
594.9662, 1439.835
595.4483, 1445.598
595.9304, 1450.000
596.4125, 1449.311
596.8947, 1436.730
597.3768, 1419.789
597.8589, 1411.457
598.3410, 1416.329
598.8231, 1425.061
599.3052, 1433.380
599.7874, 1440.942
600.2695, 1447.587
600.7516, 1453.144
601.2337, 1456.290
601.7158, 1455.845
602.1979, 1452.759
602.6801, 1450.514
603.1622, 1448.840
603.6443, 1448.593
604.1264, 1451.543
604.6085, 1454.261
605.0906, 1454.341
605.5728, 1452.450
606.0549, 1450.814
606.5370, 1450.142
607.0191, 1450.547
607.5012, 1452.518
607.9833, 1455.695
608.4655, 1459.154
608.9476, 1462.788
609.4297, 1465.574
609.9118, 1466.661
610.3939, 1466.045
610.8760, 1463.685
611.3582, 1457.968
611.8403, 1452.561
612.3224, 1447.506
612.8045, 1443.233
613.2866, 1439.441
613.7687, 1436.569
614.2509, 1436.452
614.7330, 1441.324
615.2151, 1448.786
615.6972, 1455.242
616.1793, 1460.649
616.6614, 1464.543
617.1436, 1467.031
617.6257, 1467.050
618.1078, 1462.102
618.5899, 1451.265
619.0720, 1447.046
619.5541, 1455.586
620.0363, 1462.863
620.5184, 1466.294
621.0005, 1465.511
621.4826, 1458.064
621.9647, 1444.779
622.4468, 1433.147
622.9290, 1429.600
623.4111, 1432.440
623.8932, 1437.833
624.3753, 1445.949
624.8574, 1452.932
625.3395, 1457.273
625.8217, 1460.099
626.3038, 1463.543
626.7859, 1468.490
627.2680, 1468.489
627.7501, 1456.823
628.2322, 1447.450
628.7144, 1448.958
629.1965, 1455.283
629.6786, 1457.825
630.1607, 1454.270
630.6428, 1448.324
631.1249, 1443.430
631.6071, 1439.316
632.0892, 1432.767
632.5713, 1422.382
633.0534, 1421.220
633.5355, 1439.880
634.0176, 1464.876
634.4998, 1472.077
634.9819, 1456.432
635.4640, 1448.867
635.9461, 1458.047
636.4282, 1469.123
636.9103, 1477.685
637.3925, 1481.872
637.8746, 1477.181
638.3567, 1462.825
638.8388, 1449.165
639.3209, 1450.896
639.8030, 1464.270
640.2852, 1467.047
640.7673, 1457.218
641.2494, 1445.957
641.7315, 1436.202
642.2136, 1429.899
642.6957, 1432.906
643.1779, 1449.380
643.6600, 1457.130
644.1421, 1447.245
644.6242, 1435.368
645.1063, 1430.512
645.5884, 1429.479
646.0706, 1423.751
646.5527, 1410.931
647.0348, 1402.308
647.5169, 1416.875
