##NAMES=Crookesite
##RRUFFID=R061025
##IDEAL CHEMISTRY=Cu_7_TlSe_4_
##LOCALITY=Skrikerum mine, Ostergotland, Sweden
##OWNER=RRUFF
##SOURCE=Michael Scott
##DESCRIPTION=Lead gray metallic massive associated with umangite
##STATUS=The identification of this mineral is confirmed by single-crystal X-ray diffraction and chemical analysis.
##URL=rruff.info/R061025
##MEASURED CHEMISTRY=Cu_7.01_Tl_0.99_Se_4.00_ ; (light phase) Tl not measured but estimated by difference and stoichiometry ; the dark phase is Cu_3.00_Se_2.00_ (umangite, with trace amounts of S)
175.5192, 2617.517
176.0013, 2607.601
176.4834, 2606.982
176.9655, 2618.542
177.4476, 2635.365
177.9298, 2655.069
178.4119, 2675.818
178.8940, 2687.435
179.3761, 2672.955
179.8582, 2645.555
180.3403, 2633.159
180.8225, 2645.403
181.3046, 2669.926
181.7867, 2693.506
182.2688, 2715.462
182.7509, 2727.903
183.2330, 2715.655
183.7152, 2686.548
184.1973, 2667.271
184.6794, 2671.342
185.1615, 2686.947
185.6436, 2684.532
186.1257, 2662.665
186.6079, 2640.111
187.0900, 2640.533
187.5721, 2660.081
188.0542, 2673.496
188.5363, 2668.931
189.0184, 2651.020
189.5006, 2637.386
189.9827, 2628.800
190.4648, 2621.914
190.9469, 2611.885
191.4290, 2598.966
191.9111, 2586.848
192.3932, 2578.178
192.8754, 2572.413
193.3575, 2564.631
193.8396, 2555.480
194.3217, 2542.847
194.8038, 2520.104
195.2859, 2486.082
195.7681, 2455.830
196.2502, 2439.760
196.7323, 2437.802
197.2144, 2429.704
197.6965, 2412.141
198.1786, 2389.791
198.6608, 2373.486
199.1429, 2364.106
199.6250, 2356.794
200.1071, 2348.899
200.5892, 2340.448
201.0714, 2330.322
201.5535, 2317.638
202.0356, 2303.342
202.5177, 2289.916
202.9998, 2276.213
203.4819, 2266.745
203.9641, 2268.799
204.4462, 2285.612
204.9283, 2293.079
205.4104, 2283.863
205.8925, 2260.673
206.3746, 2244.807
206.8568, 2236.981
207.3389, 2234.711
207.8210, 2237.250
208.3031, 2246.533
208.7852, 2252.910
209.2673, 2253.651
209.7495, 2248.895
210.2316, 2243.859
210.7137, 2236.935
211.1958, 2232.245
211.6779, 2235.013
212.1600, 2246.533
212.6422, 2261.844
213.1243, 2281.258
213.6064, 2305.545
214.0885, 2323.627
214.5706, 2332.845
215.0527, 2338.393
215.5349, 2348.020
216.0170, 2362.105
216.4991, 2378.871
216.9812, 2397.314
217.4633, 2416.418
217.9454, 2441.298
218.4276, 2475.456
218.9097, 2513.068
219.3918, 2542.754
219.8739, 2560.744
220.3560, 2577.588
220.8381, 2597.877
221.3203, 2622.854
221.8024, 2647.578
222.2845, 2671.881
222.7666, 2695.940
223.2487, 2719.441
223.7308, 2740.313
224.2129, 2763.859
224.6951, 2793.978
225.1772, 2837.092
225.6593, 2872.277
226.1414, 2900.389
226.6235, 2920.011
227.1056, 2924.809
227.5878, 2905.993
228.0699, 2884.520
228.5520, 2871.827
229.0341, 2871.050
229.5162, 2872.950
229.9983, 2880.746
230.4805, 2891.706
230.9626, 2888.521
231.4447, 2864.041
231.9268, 2834.040
232.4089, 2809.258
232.8910, 2791.011
233.3732, 2774.493
233.8553, 2759.169
234.3374, 2745.018
234.8195, 2732.947
235.3016, 2722.025
235.7837, 2714.281
236.2659, 2711.338
236.7480, 2713.823
237.2301, 2719.917
237.7122, 2728.930
238.1943, 2740.930
238.6764, 2758.613
239.1586, 2782.388
239.6407, 2811.910
240.1228, 2846.308
240.6049, 2884.426
241.0870, 2930.095
241.5691, 2985.140
242.0513, 3049.841
242.5334, 3114.876
243.0155, 3171.840
243.4976, 3236.725
243.9797, 3327.438
244.4618, 3451.571
244.9440, 3585.353
245.4261, 3724.230
245.9082, 3867.911
246.3903, 4017.020
246.8724, 4164.467
247.3545, 4323.154
247.8367, 4509.456
248.3188, 4727.970
248.8009, 4961.894
249.2830, 5212.639
249.7651, 5481.293
250.2472, 5739.307
250.7294, 5982.635
251.2115, 6219.230
251.6936, 6458.937
252.1757, 6704.149
252.6578, 6951.140
253.1399, 7206.140
253.6220, 7473.692
254.1042, 7725.775
254.5863, 7969.573
255.0684, 8189.868
255.5505, 8375.150
256.0326, 8568.560
256.5147, 8639.233
256.9969, 8506.721
257.4790, 8104.839
257.9611, 7864.316
258.4432, 7855.580
258.9253, 7947.201
259.4074, 7934.473
259.8896, 7785.607
260.3717, 7597.322
260.8538, 7397.728
261.3359, 7189.308
261.8180, 6953.806
262.3001, 6696.581
262.7823, 6405.900
263.2644, 6046.571
263.7465, 5594.497
264.2286, 5136.478
264.7107, 4706.996
265.1928, 4298.163
265.6750, 3929.605
266.1571, 3598.340
266.6392, 3307.216
267.1213, 3056.200
267.6034, 2851.007
268.0855, 2675.101
268.5677, 2524.206
269.0498, 2399.633
269.5319, 2293.198
270.0140, 2206.269
270.4961, 2134.640
270.9782, 2071.137
271.4604, 2015.750
271.9425, 1966.516
272.4246, 1923.004
272.9067, 1885.486
273.3888, 1851.393
273.8709, 1820.436
274.3531, 1793.323
274.8352, 1771.230
275.3173, 1754.693
275.7994, 1741.337
276.2815, 1731.684
276.7636, 1726.372
277.2458, 1717.030
277.7279, 1703.528
278.2100, 1686.139
278.6921, 1662.718
279.1742, 1631.601
279.6563, 1605.508
280.1385, 1591.879
280.6206, 1590.822
281.1027, 1590.354
281.5848, 1592.312
282.0669, 1590.959
282.5490, 1572.190
283.0312, 1534.291
283.5133, 1501.987
283.9954, 1489.123
284.4775, 1494.486
284.9596, 1499.533
285.4417, 1504.697
285.9239, 1507.572
286.4060, 1502.092
286.8881, 1488.380
287.3702, 1476.951
287.8523, 1472.904
288.3344, 1475.566
288.8166, 1482.687
289.2987, 1495.999
289.7808, 1507.872
290.2629, 1504.878
290.7450, 1488.308
291.2271, 1472.514
291.7093, 1463.655
292.1914, 1460.943
292.6735, 1462.745
293.1556, 1469.818
293.6377, 1477.754
294.1198, 1481.604
294.6020, 1481.627
295.0841, 1479.167
295.5662, 1472.876
296.0483, 1464.728
296.5304, 1459.993
297.0125, 1459.174
297.4947, 1459.713
297.9768, 1459.885
298.4589, 1459.335
298.9410, 1456.775
299.4231, 1446.781
299.9052, 1435.593
300.3873, 1436.879
300.8694, 1452.255
301.3516, 1467.881
301.8337, 1468.152
302.3158, 1458.048
302.7979, 1450.136
303.2800, 1451.422
303.7621, 1457.158
304.2443, 1461.885
304.7264, 1465.350
305.2085, 1468.005
305.6906, 1472.159
306.1727, 1475.630
306.6548, 1474.564
307.1370, 1461.298
307.6191, 1446.437
308.1012, 1440.662
308.5833, 1444.294
309.0654, 1450.142
309.5475, 1456.427
310.0297, 1461.185
310.5118, 1461.772
310.9939, 1453.964
311.4760, 1444.042
311.9581, 1434.763
312.4402, 1426.307
312.9224, 1421.168
313.4045, 1423.649
313.8866, 1429.016
314.3687, 1432.155
314.8508, 1430.644
315.3329, 1427.131
315.8151, 1421.109
316.2972, 1412.997
316.7793, 1408.159
317.2614, 1415.743
317.7435, 1424.175
318.2256, 1423.724
318.7078, 1393.515
319.1899, 1372.154
319.6720, 1381.081
320.1541, 1414.591
320.6362, 1434.634
321.1183, 1415.631
321.6005, 1387.544
322.0826, 1370.045
322.5647, 1376.562
323.0468, 1383.289
323.5289, 1385.784
324.0110, 1384.868
324.4932, 1384.699
324.9753, 1384.384
325.4574, 1386.036
325.9395, 1390.857
326.4216, 1409.648
326.9037, 1418.274
327.3859, 1409.140
327.8680, 1387.553
328.3501, 1372.541
328.8322, 1366.818
329.3143, 1365.579
329.7964, 1367.286
330.2786, 1374.783
330.7607, 1380.455
331.2428, 1384.942
331.7249, 1387.512
332.2070, 1386.109
332.6891, 1377.303
333.1713, 1369.133
333.6534, 1364.814
334.1355, 1365.732
334.6176, 1366.342
335.0997, 1366.909
335.5818, 1366.988
336.0640, 1365.364
336.5461, 1360.596
337.0282, 1357.318
337.5103, 1357.913
337.9924, 1363.148
338.4745, 1364.643
338.9567, 1361.066
339.4388, 1355.647
339.9209, 1352.699
340.4030, 1352.515
340.8851, 1353.635
341.3672, 1357.581
341.8494, 1363.604
342.3315, 1359.239
342.8136, 1341.627
343.2957, 1323.107
343.7778, 1318.902
344.2599, 1328.897
344.7421, 1338.583
345.2242, 1343.763
345.7063, 1345.448
346.1884, 1345.022
346.6705, 1342.088
347.1526, 1341.849
347.6348, 1352.990
348.1169, 1372.130
348.5990, 1384.473
349.0811, 1383.261
349.5632, 1375.797
350.0453, 1374.634
350.5275, 1379.356
351.0096, 1384.652
351.4917, 1388.759
351.9738, 1390.402
352.4559, 1385.892
352.9380, 1371.427
353.4202, 1356.451
353.9023, 1351.334
354.3844, 1354.839
354.8665, 1362.145
355.3486, 1378.098
355.8307, 1392.947
356.3129, 1393.904
356.7950, 1374.625
357.2771, 1353.947
357.7592, 1344.870
358.2413, 1344.271
358.7234, 1345.507
359.2056, 1345.726
359.6877, 1346.526
360.1698, 1349.505
360.6519, 1355.428
361.1340, 1360.458
361.6161, 1364.905
362.0982, 1366.993
362.5804, 1364.297
363.0625, 1348.294
363.5446, 1334.268
364.0267, 1329.404
364.5088, 1334.952
364.9909, 1339.802
365.4731, 1342.790
365.9552, 1343.489
366.4373, 1341.508
366.9194, 1330.946
367.4015, 1323.959
367.8836, 1325.313
368.3658, 1334.839
368.8479, 1338.903
369.3300, 1335.093
369.8121, 1327.344
370.2942, 1317.593
370.7763, 1298.637
371.2585, 1288.875
371.7406, 1293.273
372.2227, 1308.310
372.7048, 1319.165
373.1869, 1324.867
373.6690, 1327.583
374.1512, 1329.021
374.6333, 1330.889
375.1154, 1323.907
375.5975, 1300.925
376.0796, 1274.334
376.5617, 1276.445
377.0439, 1316.052
377.5260, 1349.032
378.0081, 1350.352
378.4902, 1319.065
378.9723, 1304.458
379.4544, 1310.326
379.9366, 1322.810
380.4187, 1321.056
380.9008, 1305.528
381.3829, 1294.790
381.8650, 1299.556
382.3471, 1313.686
382.8293, 1315.607
383.3114, 1304.581
383.7935, 1291.511
384.2756, 1284.910
384.7577, 1284.419
385.2398, 1289.692
385.7220, 1305.984
386.2041, 1322.447
386.6862, 1321.203
387.1683, 1304.400
387.6504, 1287.324
388.1325, 1280.564
388.6147, 1279.850
389.0968, 1279.303
389.5789, 1276.242
390.0610, 1276.149
390.5431, 1288.965
391.0252, 1308.693
391.5074, 1319.990
391.9895, 1309.411
392.4716, 1291.996
392.9537, 1276.174
393.4358, 1260.958
393.9179, 1255.507
394.4001, 1275.299
394.8822, 1304.102
395.3643, 1319.284
395.8464, 1297.500
396.3285, 1277.000
396.8106, 1272.611
397.2928, 1286.538
397.7749, 1298.927
398.2570, 1311.170
398.7391, 1318.807
399.2212, 1317.964
399.7033, 1299.401
400.1855, 1283.583
400.6676, 1271.839
401.1497, 1264.308
401.6318, 1261.669
402.1139, 1266.707
402.5960, 1273.228
403.0782, 1278.460
403.5603, 1283.879
404.0424, 1283.143
404.5245, 1272.263
405.0066, 1257.507
405.4887, 1254.418
405.9709, 1266.282
406.4530, 1278.001
406.9351, 1281.443
407.4172, 1276.407
407.8993, 1277.755
408.3814, 1286.887
408.8636, 1298.579
409.3457, 1308.190
409.8278, 1315.460
410.3099, 1315.555
410.7920, 1301.891
411.2741, 1281.737
411.7563, 1274.446
412.2384, 1280.155
412.7205, 1288.638
413.2026, 1291.650
413.6847, 1291.101
414.1668, 1291.063
414.6490, 1292.572
415.1311, 1294.832
415.6132, 1297.318
416.0953, 1299.942
416.5774, 1302.292
417.0595, 1305.294
417.5417, 1307.310
418.0238, 1305.795
418.5059, 1298.586
418.9880, 1294.184
419.4701, 1300.529
419.9522, 1312.043
420.4344, 1319.893
420.9165, 1318.449
421.3986, 1315.226
421.8807, 1313.012
422.3628, 1312.106
422.8449, 1311.116
423.3270, 1307.083
423.8091, 1304.326
424.2913, 1306.348
424.7734, 1321.135
425.2555, 1331.702
425.7376, 1334.968
426.2197, 1332.256
426.7018, 1330.564
427.1840, 1329.252
427.6661, 1329.697
428.1482, 1332.972
428.6303, 1340.705
429.1124, 1346.793
429.5945, 1351.084
430.0767, 1353.781
430.5588, 1354.946
431.0409, 1354.221
431.5230, 1353.570
432.0051, 1353.469
432.4872, 1353.998
432.9694, 1356.224
433.4515, 1360.458
433.9336, 1364.986
434.4157, 1369.090
434.8978, 1372.356
435.3799, 1371.995
435.8621, 1365.560
436.3442, 1356.918
436.8263, 1352.388
437.3084, 1351.663
437.7905, 1352.902
438.2726, 1355.790
438.7548, 1359.542
439.2369, 1363.719
439.7190, 1369.099
440.2011, 1371.950
440.6832, 1363.079
441.1653, 1350.045
441.6475, 1347.063
442.1296, 1373.806
442.6117, 1401.445
443.0938, 1412.539
443.5759, 1405.256
444.0580, 1396.300
444.5402, 1387.135
445.0223, 1380.965
445.5044, 1380.604
445.9865, 1399.143
446.4686, 1409.388
446.9507, 1401.303
447.4329, 1379.375
447.9150, 1366.536
448.3971, 1368.809
448.8792, 1373.866
449.3613, 1375.933
449.8434, 1371.598
450.3256, 1374.743
450.8077, 1390.435
451.2898, 1408.886
451.7719, 1413.118
452.2540, 1399.280
452.7361, 1386.233
453.2183, 1379.748
453.7004, 1379.081
454.1825, 1379.651
454.6646, 1381.986
455.1467, 1382.403
455.6288, 1373.746
456.1110, 1358.745
456.5931, 1353.862
457.0752, 1366.479
457.5573, 1383.302
458.0394, 1381.444
458.5215, 1364.734
459.0037, 1350.642
459.4858, 1350.068
459.9679, 1357.510
460.4500, 1368.516
460.9321, 1383.698
461.4142, 1394.629
461.8964, 1394.546
462.3785, 1387.116
462.8606, 1377.385
463.3427, 1355.222
463.8248, 1342.168
464.3069, 1356.875
464.7891, 1394.266
465.2712, 1416.974
465.7533, 1403.276
466.2354, 1380.828
466.7175, 1364.824
467.1996, 1359.856
467.6818, 1356.387
468.1639, 1353.211
468.6460, 1351.613
469.1281, 1354.732
469.6102, 1368.934
470.0923, 1376.611
470.5745, 1369.515
471.0566, 1346.935
471.5387, 1337.869
472.0208, 1346.885
472.5029, 1359.300
472.9850, 1360.192
473.4672, 1349.074
473.9493, 1343.094
474.4314, 1346.453
474.9135, 1354.749
475.3956, 1359.924
475.8777, 1362.091
476.3599, 1361.627
476.8420, 1356.353
477.3241, 1349.187
477.8062, 1345.709
478.2883, 1346.377
478.7704, 1350.140
479.2526, 1359.783
479.7347, 1371.281
480.2168, 1377.926
480.6989, 1370.892
481.1810, 1364.045
481.6631, 1366.842
482.1453, 1377.563
482.6274, 1387.747
483.1095, 1392.688
483.5916, 1396.786
484.0737, 1403.272
484.5558, 1416.273
485.0379, 1423.673
485.5201, 1421.643
486.0022, 1413.549
486.4843, 1404.066
486.9664, 1385.879
487.4485, 1376.520
487.9306, 1382.050
488.4128, 1401.911
488.8949, 1419.214
489.3770, 1435.288
489.8591, 1446.654
490.3412, 1449.121
490.8233, 1441.734
491.3055, 1435.854
491.7876, 1432.315
492.2697, 1431.183
492.7518, 1432.700
493.2339, 1436.793
493.7160, 1442.956
494.1982, 1453.221
494.6803, 1464.877
495.1624, 1471.149
495.6445, 1472.051
496.1266, 1471.706
496.6087, 1472.089
497.0909, 1473.764
497.5730, 1477.822
498.0551, 1485.879
498.5372, 1494.168
499.0193, 1499.420
499.5014, 1502.992
499.9836, 1508.171
500.4657, 1517.788
500.9478, 1527.923
501.4299, 1536.938
501.9120, 1544.466
502.3941, 1551.725
502.8763, 1558.837
503.3584, 1565.651
503.8405, 1572.025
504.3226, 1577.841
504.8047, 1583.283
505.2868, 1588.139
505.7690, 1592.605
506.2511, 1597.963
506.7332, 1605.211
507.2153, 1610.438
507.6974, 1610.882
508.1795, 1606.640
508.6617, 1604.009
509.1438, 1603.028
509.6259, 1603.717
510.1080, 1607.407
510.5901, 1613.238
511.0722, 1617.388
511.5544, 1619.528
512.0365, 1618.526
512.5186, 1609.806
513.0007, 1595.435
513.4828, 1584.426
513.9650, 1583.430
514.4471, 1587.475
514.9292, 1593.975
515.4113, 1603.802
515.8934, 1608.115
516.3755, 1601.503
516.8576, 1587.690
517.3397, 1570.694
517.8218, 1539.998
518.3040, 1518.739
518.7861, 1518.116
519.2682, 1533.734
519.7503, 1539.281
520.2324, 1528.982
520.7145, 1515.311
521.1967, 1502.958
521.6788, 1491.769
522.1609, 1482.400
522.6430, 1474.902
523.1251, 1469.165
523.6072, 1465.698
524.0894, 1464.667
524.5715, 1462.908
525.0536, 1459.106
525.5357, 1454.652
526.0178, 1453.625
526.4999, 1455.668
526.9821, 1456.361
527.4642, 1454.654
527.9463, 1449.191
528.4284, 1434.700
528.9105, 1409.352
529.3926, 1388.391
529.8748, 1387.577
530.3569, 1397.156
530.8390, 1404.483
531.3211, 1409.323
531.8032, 1407.049
532.2853, 1390.478
532.7675, 1363.990
533.2496, 1344.525
533.7317, 1337.223
534.2138, 1336.033
534.6959, 1340.956
535.1780, 1356.276
535.6602, 1359.378
536.1423, 1340.645
536.6244, 1319.595
537.1065, 1317.826
537.5886, 1342.104
538.0707, 1358.777
538.5529, 1360.186
539.0350, 1353.007
539.5171, 1355.127
539.9992, 1366.668
540.4813, 1379.921
540.9634, 1394.443
541.4456, 1407.242
541.9277, 1407.469
542.4098, 1394.437
542.8919, 1380.362
543.3740, 1376.836
543.8561, 1379.127
544.3383, 1380.515
544.8204, 1379.231
545.3025, 1376.533
545.7846, 1372.407
546.2667, 1367.430
546.7488, 1362.900
547.2310, 1359.697
547.7131, 1356.707
548.1952, 1352.546
548.6773, 1346.563
549.1594, 1345.128
549.6415, 1350.841
550.1237, 1358.877
550.6058, 1366.126
551.0879, 1372.363
551.5700, 1378.983
552.0521, 1388.245
552.5342, 1395.567
553.0164, 1388.347
553.4985, 1365.148
553.9806, 1349.115
554.4627, 1351.994
554.9448, 1367.686
555.4269, 1380.807
555.9091, 1391.307
556.3912, 1395.663
556.8733, 1384.677
557.3554, 1368.032
557.8375, 1361.667
558.3196, 1371.391
558.8018, 1379.234
559.2839, 1366.188
559.7660, 1345.596
560.2481, 1336.614
560.7302, 1358.550
561.2123, 1379.475
561.6945, 1389.075
562.1766, 1388.160
562.6587, 1385.849
563.1408, 1380.481
563.6229, 1376.201
564.1050, 1374.309
564.5872, 1374.482
565.0693, 1379.909
565.5514, 1394.567
566.0335, 1407.891
566.5156, 1405.069
566.9977, 1385.583
567.4799, 1369.999
567.9620, 1362.886
568.4441, 1361.420
568.9262, 1361.820
569.4083, 1363.745
569.8904, 1365.172
570.3726, 1365.675
570.8547, 1364.716
571.3368, 1359.248
571.8189, 1349.422
572.3010, 1344.694
572.7831, 1356.882
573.2653, 1373.525
573.7474, 1383.034
574.2295, 1377.671
574.7116, 1374.238
575.1937, 1378.142
575.6758, 1386.010
576.1580, 1391.947
576.6401, 1396.120
577.1222, 1397.993
577.6043, 1396.753
578.0864, 1392.811
578.5685, 1390.417
579.0507, 1390.117
579.5328, 1389.591
580.0149, 1386.204
580.4970, 1380.453
580.9791, 1379.124
581.4612, 1382.933
581.9434, 1388.822
582.4255, 1393.798
582.9076, 1398.021
583.3897, 1401.894
583.8718, 1405.766
584.3539, 1408.948
584.8361, 1412.380
585.3182, 1414.813
585.8003, 1412.893
586.2824, 1397.220
586.7645, 1383.703
587.2466, 1382.400
587.7288, 1395.314
588.2109, 1403.722
588.6930, 1400.255
589.1751, 1395.524
589.6572, 1396.153
590.1393, 1405.936
590.6215, 1411.797
591.1036, 1411.904
591.5857, 1409.853
592.0678, 1412.422
592.5499, 1420.081
593.0320, 1424.943
593.5142, 1423.657
593.9963, 1418.726
594.4784, 1415.017
594.9605, 1412.653
595.4426, 1412.899
595.9247, 1418.451
596.4069, 1426.092
596.8890, 1433.684
597.3711, 1441.470
597.8532, 1443.074
598.3353, 1426.374
598.8174, 1406.348
599.2996, 1397.016
599.7817, 1413.905
600.2638, 1425.587
600.7459, 1422.024
601.2280, 1411.354
601.7101, 1409.842
602.1923, 1423.456
602.6744, 1435.254
603.1565, 1440.915
603.6386, 1440.967
604.1207, 1437.946
604.6028, 1431.168
605.0850, 1425.145
605.5671, 1423.730
606.0492, 1425.796
606.5313, 1426.683
607.0134, 1425.923
607.4955, 1425.468
607.9777, 1430.800
608.4598, 1436.851
608.9419, 1434.257
609.4240, 1410.334
609.9061, 1392.098
610.3882, 1400.738
610.8704, 1425.539
611.3525, 1443.376
611.8346, 1444.597
612.3167, 1441.962
612.7988, 1436.124
613.2809, 1427.500
613.7631, 1430.484
614.2452, 1453.517
614.7273, 1474.370
615.2094, 1478.169
615.6915, 1462.886
616.1736, 1452.131
616.6558, 1446.996
617.1379, 1444.516
617.6200, 1440.000
618.1021, 1434.821
618.5842, 1434.737
619.0663, 1442.178
619.5485, 1453.382
620.0306, 1468.902
620.5127, 1485.232
620.9948, 1493.838
621.4769, 1481.552
621.9590, 1468.526
622.4412, 1467.331
622.9233, 1477.475
623.4054, 1483.122
623.8875, 1473.537
624.3696, 1465.304
624.8517, 1468.350
625.3339, 1489.768
625.8160, 1496.251
626.2981, 1482.457
626.7802, 1462.171
627.2623, 1449.819
627.7444, 1445.514
628.2266, 1444.582
628.7087, 1447.013
629.1908, 1450.915
629.6729, 1453.282
630.1550, 1454.462
630.6371, 1455.622
631.1193, 1455.650
631.6014, 1457.133
632.0835, 1465.130
632.5656, 1478.001
633.0477, 1485.710
633.5298, 1478.625
634.0120, 1469.496
634.4941, 1466.433
634.9762, 1473.207
635.4583, 1473.522
635.9404, 1458.233
636.4225, 1444.238
636.9047, 1448.162
637.3868, 1478.085
637.8689, 1492.299
638.3510, 1483.261
638.8331, 1463.793
639.3152, 1453.955
639.7973, 1453.177
640.2794, 1455.589
640.7615, 1459.890
641.2437, 1465.577
641.7258, 1475.104
642.2079, 1486.353
642.6900, 1491.217
643.1721, 1477.419
643.6542, 1461.734
644.1364, 1456.592
644.6185, 1463.633
645.1006, 1468.689
645.5827, 1467.469
646.0648, 1463.823
646.5469, 1459.911
647.0291, 1454.547
647.5112, 1451.501
647.9933, 1451.032
648.4754, 1452.413
648.9575, 1455.122
649.4396, 1459.210
649.9218, 1463.858
650.4039, 1471.062
650.8860, 1474.999
651.3681, 1457.404
651.8502, 1425.654
652.3323, 1407.264
652.8145, 1433.101
653.2966, 1465.031
653.7787, 1468.306
654.2608, 1446.322
654.7429, 1428.080
655.2250, 1425.607
655.7072, 1429.282
656.1893, 1435.652
656.6714, 1446.445
657.1535, 1451.269
657.6356, 1448.801
658.1177, 1441.892
658.5999, 1431.301
659.0820, 1415.666
659.5641, 1405.172
660.0462, 1400.390
660.5283, 1401.733
661.0104, 1415.248
661.4926, 1436.848
661.9747, 1448.796
662.4568, 1439.812
662.9389, 1426.056
663.4210, 1425.223
663.9031, 1433.655
664.3853, 1441.143
664.8674, 1443.890
665.3495, 1443.912
665.8316, 1440.055
666.3137, 1432.383
666.7958, 1429.877
667.2780, 1435.382
667.7601, 1443.155
668.2422, 1451.486
