##NAMES=Cryolithionite
##RRUFFID=R080051
##IDEAL CHEMISTRY=Na_3_Al_2_(LiF_4_)_3_
##LOCALITY=Zapot mine, Zapot amazonite-topaz-zinnwaldite pegmatite, Gillis Range, Mineral County, Nevada, USA
##OWNER=RRUFF
##SOURCE=Michael Scott
##DESCRIPTION=Vitreous colorless fragment
##STATUS=The identification of this mineral has been confirmed by single-crystal X-ray diffraction.
##URL=rruff.info/R080051
93.88477, 6.424968
94.36688, 6.208798
94.84900, 6.325335
95.33112, 6.715852
95.81323, 7.102632
96.29535, 7.276621
96.77747, 7.313972
97.25958, 7.540056
97.74170, 8.027112
98.22382, 8.616172
98.70593, 8.938971
99.18805, 8.970654
99.67017, 9.089112
100.1523, 9.623282
100.6344, 10.59042
101.1165, 11.41046
101.5986, 11.92590
102.0807, 12.24901
102.5629, 12.88127
103.0450, 13.92281
103.5271, 15.06912
104.0092, 16.02558
104.4913, 16.71371
104.9734, 17.45404
105.4556, 18.31275
105.9377, 19.28354
106.4198, 20.36674
106.9019, 21.69130
107.3840, 23.02785
107.8661, 24.08288
108.3483, 24.88194
108.8304, 25.37542
109.3125, 25.46429
109.7946, 24.85759
110.2767, 24.62757
110.7588, 24.83832
111.2410, 25.42074
111.7231, 26.25071
112.2052, 27.76668
112.6873, 29.18128
113.1694, 30.18302
113.6515, 30.28458
114.1337, 30.73517
114.6158, 32.03622
115.0979, 33.86606
115.5800, 35.28511
116.0621, 35.75658
116.5442, 35.92936
117.0264, 36.19225
117.5085, 36.97015
117.9906, 37.50131
118.4727, 37.25039
118.9548, 36.36797
119.4369, 35.85973
119.9191, 36.42659
120.4012, 37.49165
120.8833, 38.46172
121.3654, 39.01889
121.8475, 39.51058
122.3296, 40.23444
122.8118, 41.19823
123.2939, 42.00452
123.7760, 42.37085
124.2581, 42.40072
124.7402, 42.26476
125.2223, 41.73079
125.7045, 41.20770
126.1866, 41.17631
126.6687, 41.69786
127.1508, 42.51685
127.6329, 43.47396
128.1150, 44.53805
128.5972, 45.64207
129.0793, 46.87001
129.5614, 48.09175
130.0435, 48.97463
130.5256, 49.40359
131.0077, 49.68089
131.4899, 50.34585
131.9720, 51.36131
132.4541, 52.20716
132.9362, 52.08129
133.4183, 51.14087
133.9004, 50.77292
134.3826, 51.23830
134.8647, 52.23442
135.3468, 53.01169
135.8289, 53.54693
136.3110, 54.13837
136.7931, 55.11846
137.2753, 56.49902
137.7574, 57.69701
138.2395, 58.59466
138.7216, 59.22663
139.2037, 59.85864
139.6858, 60.56641
140.1680, 61.09450
140.6501, 61.11109
141.1322, 60.46082
141.6143, 59.90747
142.0964, 59.63689
142.5785, 59.65533
143.0607, 59.68882
143.5428, 59.80178
144.0249, 59.86065
144.5070, 59.66978
144.9891, 59.10678
145.4712, 58.54206
145.9534, 58.10497
146.4355, 57.84086
146.9176, 57.49977
147.3997, 57.13124
147.8818, 56.66770
148.3639, 55.94840
148.8461, 54.59122
149.3282, 53.42577
149.8103, 52.75697
150.2924, 52.80739
150.7745, 52.89088
151.2566, 53.03894
151.7388, 53.22076
152.2209, 53.35184
152.7030, 53.26420
153.1851, 53.25824
153.6672, 53.44704
154.1493, 53.87815
154.6315, 54.43663
155.1136, 55.38768
155.5957, 56.53306
156.0778, 57.15985
156.5599, 56.64798
157.0420, 55.96217
157.5242, 55.61760
158.0063, 55.86825
158.4884, 56.27839
158.9705, 56.90195
159.4526, 57.68350
159.9347, 58.29749
160.4169, 58.64356
160.8990, 58.80000
161.3811, 58.82331
161.8632, 58.66066
162.3453, 58.43058
162.8274, 58.21440
163.3096, 58.00026
163.7917, 57.62187
164.2738, 56.82158
164.7559, 55.89815
165.2380, 55.14606
165.7201, 54.66928
166.2023, 54.38362
166.6844, 54.33023
167.1665, 54.50872
167.6486, 54.61166
168.1307, 54.49787
168.6128, 54.20568
169.0950, 53.78482
169.5771, 52.97386
170.0592, 52.22515
170.5413, 51.99443
171.0234, 52.34486
171.5055, 52.61781
171.9877, 52.21286
172.4698, 51.42212
172.9519, 50.76550
173.4340, 50.60647
173.9161, 50.63971
174.3982, 50.56362
174.8804, 50.35014
175.3625, 50.06553
175.8446, 49.72240
176.3267, 49.34896
176.8088, 49.01783
177.2909, 48.67439
177.7731, 48.42478
178.2552, 48.45794
178.7373, 48.83797
179.2194, 49.31970
179.7015, 49.66781
180.1836, 49.90465
180.6658, 50.10903
181.1479, 50.32772
181.6300, 50.54847
182.1121, 50.74239
182.5942, 50.90300
183.0763, 51.04367
183.5585, 51.16441
184.0406, 51.27235
184.5227, 51.41036
185.0048, 51.52696
185.4869, 51.68664
185.9690, 52.14112
186.4511, 53.02982
186.9333, 54.03656
187.4154, 54.62287
187.8975, 54.80969
188.3796, 54.86395
188.8617, 54.99529
189.3438, 55.16343
189.8260, 55.15858
190.3081, 54.90591
190.7902, 54.51714
191.2723, 54.18675
191.7544, 53.91333
192.2365, 53.74493
192.7187, 53.72913
193.2008, 53.85967
193.6829, 54.09343
194.1650, 54.50312
194.6471, 54.95552
195.1292, 54.99371
195.6114, 54.57547
196.0935, 54.15441
196.5756, 54.16974
197.0577, 54.61329
197.5398, 54.92275
198.0219, 54.92203
198.5041, 54.74060
198.9862, 54.86438
199.4683, 55.32089
199.9504, 55.93752
200.4325, 56.65167
200.9146, 57.47754
201.3968, 58.09734
201.8789, 58.40846
202.3610, 58.46212
202.8431, 58.51241
203.3252, 58.57499
203.8073, 58.58578
204.2895, 58.53960
204.7716, 58.46912
205.2537, 58.08803
205.7358, 57.20482
206.2179, 55.93498
206.7000, 55.13991
207.1822, 54.96453
207.6643, 54.92858
208.1464, 54.55247
208.6285, 53.74582
209.1106, 53.03463
209.5927, 52.55980
210.0749, 52.29528
210.5570, 51.91127
211.0391, 51.34446
211.5212, 50.78111
212.0033, 50.40564
212.4854, 50.25722
212.9676, 50.15603
213.4497, 50.08368
213.9318, 50.03588
214.4139, 49.92431
214.8960, 49.72071
215.3781, 49.49530
215.8603, 49.29914
216.3424, 49.11085
216.8245, 49.02815
217.3066, 49.12355
217.7887, 49.39396
218.2708, 49.47764
218.7530, 49.29765
219.2351, 49.03511
219.7172, 48.88472
220.1993, 48.88645
220.6814, 48.89191
221.1635, 48.86741
221.6457, 48.81224
222.1278, 48.78020
222.6099, 48.79050
223.0920, 48.80009
223.5741, 48.73685
224.0562, 48.49533
224.5384, 48.43311
225.0205, 48.73391
225.5026, 49.41209
225.9847, 49.65674
226.4668, 49.25219
226.9489, 48.64495
227.4311, 48.31647
227.9132, 48.39695
228.3953, 48.46900
228.8774, 48.44347
229.3595, 48.31659
229.8416, 48.22084
230.3238, 48.17292
230.8059, 48.13845
231.2880, 48.08298
231.7701, 47.99882
232.2522, 47.90718
232.7343, 47.79134
233.2165, 47.64619
233.6986, 47.61339
234.1807, 47.75959
234.6628, 47.94927
235.1449, 48.02681
235.6270, 47.86456
236.1092, 47.84607
236.5913, 48.11717
237.0734, 48.68785
237.5555, 49.01488
238.0376, 49.01499
238.5197, 48.85690
239.0019, 48.68863
239.4840, 48.49227
239.9661, 48.31653
240.4482, 48.15211
240.9303, 47.99974
241.4124, 47.95470
241.8946, 48.07623
242.3767, 48.24214
242.8588, 48.34077
243.3409, 48.33227
243.8230, 48.33251
244.3051, 48.35606
244.7873, 48.40284
245.2694, 48.47495
245.7515, 48.58482
246.2336, 48.70592
246.7157, 48.82325
247.1978, 48.96348
247.6800, 49.04687
248.1621, 49.05733
248.6442, 48.99775
249.1263, 48.89122
249.6084, 48.67539
250.0905, 48.48954
250.5726, 48.45650
251.0548, 48.67147
251.5369, 48.83865
252.0190, 48.92307
252.5011, 48.92769
252.9832, 48.85310
253.4653, 48.61168
253.9475, 48.40876
254.4296, 48.42374
254.9117, 48.82674
255.3938, 49.04308
255.8759, 48.93040
256.3581, 48.56203
256.8402, 48.39055
257.3223, 48.49567
257.8044, 48.66992
258.2865, 48.78720
258.7686, 48.84094
259.2508, 48.84817
259.7329, 48.78690
260.2150, 48.68196
260.6971, 48.63795
261.1792, 48.68505
261.6613, 48.74183
262.1435, 48.74714
262.6256, 48.65899
263.1077, 48.65564
263.5898, 48.77208
264.0719, 48.97549
264.5540, 49.17294
265.0362, 49.38964
265.5183, 49.55077
266.0004, 49.57436
266.4825, 49.37186
266.9646, 49.39354
267.4467, 49.77400
267.9289, 50.32330
268.4110, 50.49562
268.8931, 50.15588
269.3752, 49.80061
269.8573, 49.67749
270.3394, 49.83130
270.8216, 49.99981
271.3037, 50.19271
271.7858, 50.38430
272.2679, 50.51689
272.7500, 50.58877
273.2321, 50.61237
273.7143, 50.58499
274.1964, 50.50256
274.6785, 50.41367
275.1606, 50.32125
275.6427, 50.22127
276.1248, 50.07981
276.6070, 49.87153
277.0891, 49.75399
277.5712, 49.82708
278.0533, 50.09397
278.5354, 50.27138
279.0175, 50.33622
279.4996, 50.36036
279.9818, 50.42604
280.4639, 50.52905
280.9460, 50.71089
281.4281, 51.06688
281.9102, 51.55642
282.3923, 51.70660
282.8745, 51.45061
283.3566, 51.07423
283.8387, 50.89173
284.3208, 50.90590
284.8029, 50.99606
285.2850, 51.14001
285.7672, 51.33146
286.2493, 51.55375
286.7314, 51.81335
287.2135, 52.06766
287.6956, 52.29198
288.1777, 52.48461
288.6599, 52.59662
289.1420, 52.58057
289.6241, 52.49716
290.1062, 52.52767
290.5883, 52.67830
291.0704, 52.85683
291.5526, 52.97980
292.0347, 53.06041
292.5168, 53.17190
292.9989, 53.33500
293.4810, 53.52936
293.9631, 53.70972
294.4453, 53.87748
294.9274, 54.07777
295.4095, 54.35471
295.8916, 54.68964
296.3737, 55.03989
296.8558, 55.42151
297.3380, 55.75978
297.8201, 55.90575
298.3022, 55.88764
298.7843, 55.88282
299.2664, 56.00304
299.7485, 56.21624
300.2307, 56.48006
300.7128, 56.82446
301.1949, 57.10825
301.6770, 57.06167
302.1591, 56.79435
302.6412, 56.67130
303.1234, 56.94768
303.6055, 57.45898
304.0876, 58.01057
304.5697, 58.58919
305.0518, 59.13554
305.5339, 59.58080
306.0161, 59.94807
306.4982, 60.27552
306.9803, 60.58502
307.4624, 60.86054
307.9445, 61.08955
308.4266, 61.27104
308.9088, 61.38232
309.3909, 61.25269
309.8730, 61.07534
310.3551, 61.12646
310.8372, 61.80481
311.3193, 62.52880
311.8015, 62.80162
312.2836, 62.67574
312.7657, 62.58703
313.2478, 62.83168
313.7299, 63.21981
314.2120, 63.56543
314.6942, 63.74430
315.1763, 63.95087
315.6584, 64.29858
316.1405, 64.76751
316.6226, 65.25950
317.1047, 65.77319
317.5869, 66.27343
318.0690, 66.73396
318.5511, 67.13612
319.0332, 67.52116
319.5153, 67.91960
319.9974, 68.31066
320.4796, 68.64096
320.9617, 68.71084
321.4438, 68.86134
321.9259, 69.29342
322.4080, 70.13837
322.8901, 70.93631
323.3723, 71.58033
323.8544, 72.11848
324.3365, 72.62137
324.8186, 72.79590
325.3007, 73.21777
325.7828, 74.20435
326.2650, 75.92422
326.7471, 77.28852
327.2292, 77.80907
327.7113, 78.10245
328.1934, 78.75904
328.6755, 80.18762
329.1577, 81.57118
329.6398, 82.68980
330.1219, 83.54922
330.6040, 84.70647
331.0861, 86.29145
331.5682, 88.07024
332.0504, 89.89888
332.5325, 91.72584
333.0146, 93.65849
333.4967, 95.78094
333.9788, 98.04190
334.4609, 100.1236
334.9431, 101.8485
335.4252, 103.6711
335.9073, 105.8143
336.3894, 108.3997
336.8715, 111.0227
337.3536, 113.6561
337.8358, 116.3549
338.3179, 119.3449
338.8000, 122.7023
339.2821, 126.0660
339.7642, 129.2212
340.2463, 132.0819
340.7285, 135.4236
341.2106, 139.2363
341.6927, 143.4348
342.1748, 147.8778
342.6569, 152.6124
343.1390, 157.3750
343.6212, 161.9641
344.1033, 166.4897
344.5854, 171.3968
345.0675, 176.6271
345.5496, 182.1824
346.0317, 188.1497
346.5139, 194.5150
346.9960, 200.5153
347.4781, 205.9928
347.9602, 211.0829
348.4423, 216.1561
348.9244, 221.2068
349.4066, 226.0744
349.8887, 230.7491
350.3708, 235.1851
350.8529, 239.1887
351.3350, 242.8220
351.8171, 245.7708
352.2993, 247.6587
352.7814, 248.4782
353.2635, 248.2580
353.7456, 247.1840
354.2277, 245.0094
354.7098, 241.1372
355.1920, 235.4625
355.6741, 229.0651
356.1562, 222.8479
356.6383, 216.6341
357.1204, 209.9977
357.6025, 202.3819
358.0847, 194.5518
358.5668, 187.0845
359.0489, 179.9128
359.5310, 172.9553
360.0131, 166.1956
360.4952, 159.5691
360.9774, 153.0716
361.4595, 146.3621
361.9416, 140.1292
362.4237, 134.7278
362.9058, 130.0654
363.3879, 125.8483
363.8701, 122.1459
364.3522, 118.7182
364.8343, 115.4385
365.3164, 112.1566
365.7985, 109.2777
366.2806, 106.9818
366.7628, 105.1219
367.2449, 103.4941
367.7270, 102.0531
368.2091, 100.8316
368.6912, 99.80398
369.1733, 98.94998
369.6555, 98.46317
370.1376, 98.52760
370.6197, 98.86377
371.1018, 99.23882
371.5839, 99.60641
372.0660, 100.0714
372.5482, 100.5740
373.0303, 101.1466
373.5124, 102.1063
373.9945, 103.6651
374.4766, 105.3262
374.9587, 106.7524
375.4409, 107.6983
375.9230, 109.1593
376.4051, 111.3491
376.8872, 113.9696
377.3693, 116.2328
377.8514, 117.8942
378.3336, 120.1577
378.8157, 123.6627
379.2978, 128.4595
379.7799, 133.1003
380.2620, 137.5698
380.7441, 142.0657
381.2263, 146.7412
381.7084, 151.5845
382.1905, 156.9946
382.6726, 163.2775
383.1547, 170.0849
383.6368, 176.2640
384.1190, 181.8613
384.6011, 187.1273
385.0832, 192.4883
385.5653, 197.6840
386.0474, 202.0676
386.5295, 205.4432
387.0117, 208.0343
387.4938, 210.0427
387.9759, 211.4980
388.4580, 212.5524
388.9401, 213.3191
389.4222, 213.7195
389.9044, 213.6531
390.3865, 213.1073
390.8686, 212.1601
391.3507, 211.0858
391.8328, 209.6011
392.3149, 207.2976
392.7971, 203.8608
393.2792, 199.7255
393.7613, 195.2284
394.2434, 190.2877
394.7255, 184.5503
395.2076, 177.2421
395.6898, 169.4465
396.1719, 161.9297
396.6540, 154.8339
397.1361, 148.0414
397.6182, 141.4268
398.1003, 135.0946
398.5825, 129.2828
399.0646, 124.1574
399.5467, 119.4420
400.0288, 115.0280
400.5109, 110.8507
400.9930, 107.1758
401.4752, 104.2512
401.9573, 101.6591
402.4394, 98.96397
402.9215, 95.94482
403.4036, 93.18262
403.8857, 90.74543
404.3678, 88.62778
404.8499, 86.89541
405.3321, 85.64614
405.8142, 84.57403
406.2963, 83.52691
406.7784, 82.51315
407.2605, 81.42318
407.7426, 80.18105
408.2248, 78.94820
408.7069, 78.08873
409.1890, 77.64684
409.6711, 77.19762
410.1532, 76.45972
410.6353, 75.53313
411.1175, 75.07784
411.5996, 75.15459
412.0817, 75.26659
412.5638, 74.78287
413.0459, 73.88025
413.5280, 73.20324
414.0102, 73.05312
414.4923, 73.04593
414.9744, 72.60127
415.4565, 71.77941
415.9386, 70.91640
416.4207, 70.23925
416.9029, 69.62944
417.3850, 68.90307
417.8671, 67.98801
418.3492, 67.15466
418.8313, 66.55875
419.3134, 66.17258
419.7956, 65.94016
420.2777, 66.00536
420.7598, 66.07758
421.2419, 65.98027
421.7240, 65.71702
422.2061, 65.47588
422.6883, 65.39902
423.1704, 65.31601
423.6525, 65.10175
424.1346, 64.61765
424.6167, 64.15445
425.0988, 63.71117
425.5810, 63.32018
426.0631, 63.06755
426.5452, 63.12898
427.0273, 63.14952
427.5094, 63.00362
427.9915, 62.64437
428.4737, 62.35826
428.9558, 62.15551
429.4379, 62.01826
429.9200, 61.93800
430.4021, 61.93571
430.8842, 61.93657
431.3664, 61.94659
431.8485, 61.94761
432.3306, 61.82665
432.8127, 61.54357
433.2948, 61.32526
433.7769, 61.28633
434.2591, 61.42679
434.7412, 61.84924
435.2233, 62.65312
435.7054, 63.41327
436.1875, 63.44353
436.6696, 62.85769
437.1518, 62.34055
437.6339, 62.21183
438.1160, 62.27389
438.5981, 62.18021
439.0802, 61.94507
439.5623, 61.73167
440.0445, 61.69812
440.5266, 61.74684
441.0087, 61.74072
441.4908, 61.62819
441.9729, 61.51854
442.4550, 61.53535
442.9372, 61.60841
443.4193, 61.59911
443.9014, 61.28704
444.3835, 61.01301
444.8656, 61.01540
445.3477, 61.32195
445.8299, 61.52424
446.3120, 61.38482
446.7941, 61.16662
447.2762, 61.07550
447.7583, 61.34241
448.2404, 61.49034
448.7226, 61.34742
449.2047, 61.04656
449.6868, 60.99123
450.1689, 61.36489
450.6510, 61.73843
451.1331, 61.93954
451.6153, 61.92534
452.0974, 62.03166
452.5795, 62.35019
453.0616, 62.65701
453.5437, 62.65850
454.0258, 62.28866
454.5080, 62.07432
454.9901, 62.15171
455.4722, 62.42993
455.9543, 62.68354
456.4364, 62.91228
456.9185, 63.07103
457.4007, 63.11523
457.8828, 63.06585
458.3649, 62.98014
458.8470, 62.85624
459.3291, 62.73576
459.8112, 62.68126
460.2934, 62.66584
460.7755, 62.62443
461.2576, 62.44242
461.7397, 62.30607
462.2218, 62.49285
462.7039, 62.92283
463.1861, 63.20936
463.6682, 62.93822
464.1503, 62.57207
464.6324, 62.51837
465.1145, 62.96530
465.5966, 63.30525
466.0788, 63.13173
466.5609, 62.79421
467.0430, 62.74453
467.5251, 63.53523
468.0072, 64.13103
468.4893, 64.14701
468.9715, 63.62774
469.4536, 63.42143
469.9357, 63.76294
470.4178, 64.16473
470.8999, 64.35686
471.3820, 64.22615
471.8642, 64.16669
472.3463, 64.14967
472.8284, 64.23709
473.3105, 64.58669
473.7926, 65.25847
474.2747, 65.84404
474.7569, 66.23008
475.2390, 66.43243
475.7211, 66.46264
476.2032, 66.30773
476.6853, 66.17210
477.1674, 66.19987
477.6496, 66.37017
478.1317, 66.65335
478.6138, 67.07647
479.0959, 67.48685
479.5780, 67.66753
480.0602, 67.70370
480.5423, 67.79262
481.0244, 67.95146
481.5065, 68.25089
481.9886, 68.90420
482.4707, 69.84697
482.9529, 70.53690
483.4350, 70.50798
483.9171, 70.26360
484.3992, 70.16547
484.8813, 70.30772
485.3634, 70.52494
485.8456, 70.87518
486.3277, 71.25365
486.8098, 71.50123
487.2919, 71.44730
487.7740, 71.43088
488.2561, 71.49465
488.7383, 71.63888
489.2204, 71.89577
489.7025, 72.32883
490.1846, 72.76945
490.6667, 73.11906
491.1488, 73.36572
491.6310, 73.54458
492.1131, 73.61134
492.5952, 73.69285
493.0773, 74.06494
493.5594, 74.72609
494.0415, 75.21529
494.5237, 75.31565
495.0058, 75.18351
495.4879, 75.11537
495.9700, 75.12106
496.4521, 75.32175
496.9342, 76.04158
497.4164, 76.93701
497.8985, 77.39186
498.3806, 77.23758
498.8627, 77.10439
499.3448, 77.55270
499.8269, 78.31226
500.3091, 78.98015
500.7912, 79.33424
501.2733, 79.63551
501.7554, 79.98080
502.2375, 80.36596
502.7196, 80.76418
503.2018, 81.14455
503.6839, 81.56166
504.1660, 82.05311
504.6481, 82.68909
505.1302, 83.23040
505.6123, 83.66840
506.0945, 84.01797
506.5766, 84.26428
507.0587, 84.32385
507.5408, 84.49580
508.0229, 84.84037
508.5050, 85.33056
508.9872, 85.92055
509.4693, 86.63013
509.9514, 87.30891
510.4335, 87.87984
510.9156, 88.35445
511.3977, 88.71076
511.8799, 88.92850
512.3619, 89.22169
512.8441, 89.92407
513.3262, 90.86187
513.8083, 91.61233
514.2904, 91.94519
514.7725, 92.25338
515.2546, 92.97749
515.7368, 93.97066
516.2189, 94.87202
516.7010, 95.46408
517.1831, 95.94939
517.6652, 96.39642
518.1473, 96.80586
518.6295, 97.32609
519.1116, 98.00905
519.5937, 98.81285
520.0758, 99.69951
520.5579, 100.7327
521.0400, 101.7738
521.5222, 102.8676
522.0043, 103.9586
522.4864, 104.9375
522.9685, 105.7619
523.4506, 106.5836
523.9327, 107.4339
524.4149, 108.3128
524.8970, 109.1123
525.3791, 109.7934
525.8612, 110.6171
526.3433, 111.8779
526.8254, 113.4913
527.3076, 114.9631
527.7897, 116.2105
528.2718, 117.4363
528.7539, 118.8902
529.2360, 120.5078
529.7181, 122.1733
530.2003, 123.8730
530.6824, 125.5678
531.1645, 127.2309
531.6466, 128.8561
532.1287, 130.5358
532.6108, 132.4058
533.0930, 134.2647
533.5751, 135.9285
534.0572, 137.2631
534.5393, 138.9665
535.0214, 141.3863
535.5035, 144.1277
535.9857, 146.7744
536.4678, 149.1385
536.9499, 151.7574
537.4320, 154.6490
537.9141, 157.8269
538.3962, 161.2964
538.8784, 165.1994
539.3605, 169.0399
539.8426, 172.4300
540.3247, 175.5618
540.8068, 179.5396
541.2889, 184.3937
541.7711, 189.5751
542.2532, 194.4861
542.7353, 199.3157
543.2174, 204.5889
543.6995, 210.3562
544.1816, 216.6634
544.6638, 223.5479
545.1459, 231.0309
545.6280, 239.0197
546.1101, 247.3793
546.5922, 256.3368
547.0743, 266.0907
547.5565, 276.5690
548.0386, 287.5021
548.5207, 298.2794
549.0028, 309.9235
549.4849, 322.9813
549.9670, 337.6938
550.4492, 352.9936
550.9313, 368.7934
551.4134, 385.1058
551.8955, 402.2583
552.3776, 420.0638
552.8597, 438.9515
553.3419, 458.9001
553.8240, 480.0131
554.3061, 502.5371
554.7882, 526.4925
555.2703, 551.7806
555.7524, 577.5961
556.2346, 604.5724
556.7167, 633.8105
557.1988, 665.2916
557.6809, 698.7366
558.1630, 733.7819
558.6451, 770.8808
559.1273, 810.1849
559.6094, 852.1077
560.0915, 895.9307
560.5736, 942.5737
561.0557, 990.7571
561.5378, 1039.003
562.0200, 1088.444
562.5021, 1136.161
562.9842, 1183.384
563.4663, 1228.536
563.9484, 1268.470
564.4305, 1305.415
564.9127, 1334.086
565.3948, 1353.525
565.8769, 1363.631
566.3590, 1362.918
566.8411, 1351.152
567.3232, 1328.895
567.8054, 1295.382
568.2875, 1250.457
568.7696, 1198.227
569.2517, 1137.694
569.7338, 1073.079
570.2159, 1006.906
570.6981, 940.7079
571.1802, 875.1703
571.6623, 808.9550
572.1444, 745.7283
572.6265, 688.1569
573.1086, 636.0657
573.5908, 588.2774
574.0729, 544.1757
574.5550, 503.5875
575.0371, 466.2744
575.5192, 432.3457
576.0013, 401.7070
576.4835, 375.3889
576.9656, 352.0838
577.4477, 330.7215
577.9298, 311.9583
578.4119, 294.0236
578.8940, 276.9295
579.3762, 260.9964
579.8583, 246.9512
580.3404, 234.8704
580.8225, 223.6255
581.3046, 212.9621
581.7867, 202.9515
582.2689, 194.2232
582.7510, 186.6981
583.2331, 179.6518
583.7152, 172.4284
584.1973, 165.4224
584.6794, 159.6010
585.1616, 154.9446
585.6437, 150.5239
586.1258, 145.5706
586.6079, 140.6224
587.0900, 136.1619
587.5721, 132.3245
588.0543, 128.7357
588.5364, 125.2217
589.0185, 121.8990
589.5006, 118.9163
589.9827, 116.6048
590.4648, 114.2248
