##NAMES=Cryolite
##RRUFFID=R120026
##IDEAL CHEMISTRY=Na_3_AlF_6_
##LOCALITY=Francon quarry, Montréal, Québec, Canada
##OWNER=RRUFF
##SOURCE=Donald Doell
##DESCRIPTION=Colorless, pseudo-octahedral crystals
##STATUS=The identification of this mineral has been confirmed only by single crystal X-ray diffraction.
##URL=rruff.info/R120026
91.60352, 293.8448
92.08563, 292.9012
92.56775, 292.7455
93.04987, 293.5215
93.53198, 295.0279
94.01410, 294.1938
94.49622, 290.7061
94.97833, 285.2559
95.46045, 278.4820
95.94257, 270.4246
96.42468, 261.7721
96.90680, 251.0467
97.38892, 241.5031
97.87103, 234.6773
98.35315, 229.9331
98.83527, 225.4767
99.31738, 220.0343
99.79950, 213.1142
100.2816, 207.1756
100.7637, 202.5445
101.2458, 198.4736
101.7280, 194.1116
102.2101, 189.0987
102.6922, 184.3784
103.1743, 181.8449
103.6564, 181.4716
104.1385, 181.0286
104.6207, 179.5288
105.1028, 177.2823
105.5849, 175.3908
106.0670, 174.4780
106.5491, 173.7167
107.0313, 172.2038
107.5134, 169.8174
107.9955, 167.1023
108.4776, 164.4996
108.9597, 161.9412
109.4418, 159.7694
109.9240, 158.3526
110.4061, 157.1905
110.8882, 155.9305
111.3703, 154.4290
111.8524, 152.8014
112.3345, 151.3369
112.8167, 149.8886
113.2988, 148.8636
113.7809, 148.3788
114.2630, 148.3017
114.7451, 148.5670
115.2272, 149.1846
115.7094, 150.1015
116.1915, 150.1622
116.6736, 148.8634
117.1557, 147.3587
117.6378, 145.9313
118.1199, 144.6101
118.6021, 143.3414
119.0842, 142.0339
119.5663, 140.7048
120.0484, 139.8361
120.5305, 139.5432
121.0126, 139.6148
121.4948, 140.0365
121.9769, 140.8589
122.4590, 141.5727
122.9411, 141.5427
123.4232, 140.9446
123.9053, 140.2057
124.3875, 139.3935
124.8696, 138.5399
125.3517, 137.6917
125.8338, 136.6620
126.3159, 135.9504
126.7980, 136.0207
127.2802, 136.7316
127.7623, 137.4232
128.2444, 137.5600
128.7265, 137.0976
129.2086, 136.5509
129.6907, 135.9447
130.1729, 135.2648
130.6550, 134.5322
131.1371, 133.7349
131.6192, 132.8139
132.1013, 131.6773
132.5834, 130.2082
133.0656, 128.7101
133.5477, 127.2159
134.0298, 125.6882
134.5119, 123.9354
134.9940, 121.9340
135.4761, 120.0149
135.9583, 118.9700
136.4404, 119.9419
136.9225, 120.4161
137.4046, 119.9857
137.8867, 119.0379
138.3688, 118.1136
138.8510, 117.4603
139.3331, 116.9812
139.8152, 116.3597
140.2973, 115.4859
140.7794, 114.6558
141.2615, 114.0283
141.7437, 113.5664
142.2258, 113.1041
142.7079, 112.6103
143.1900, 112.0217
143.6721, 111.2216
144.1542, 110.0269
144.6364, 108.8353
145.1185, 108.0327
145.6006, 107.6502
146.0827, 107.4713
146.5648, 107.5990
147.0469, 107.8065
147.5291, 107.8576
148.0112, 107.6562
148.4933, 107.2657
148.9754, 106.8162
149.4575, 106.2719
149.9396, 105.7228
150.4218, 105.0464
150.9039, 104.4108
151.3860, 104.0721
151.8681, 104.2275
152.3502, 104.8039
152.8323, 105.1523
153.3145, 105.0873
153.7966, 104.9461
154.2787, 104.7178
154.7608, 104.4608
155.2429, 104.2675
155.7250, 104.2176
156.2072, 104.3241
156.6893, 104.3786
157.1714, 104.2320
157.6535, 104.1763
158.1356, 104.4330
158.6177, 104.9389
159.0999, 105.3998
159.5820, 105.5200
160.0641, 105.2242
160.5462, 105.1096
161.0283, 105.2007
161.5104, 105.4427
161.9926, 105.9005
162.4747, 106.5735
162.9568, 107.1799
163.4389, 107.4615
163.9210, 107.4221
164.4031, 106.9804
164.8853, 105.6446
165.3674, 104.0332
165.8495, 103.2301
166.3316, 103.6500
166.8137, 104.1375
167.2958, 103.5083
167.7780, 102.0028
168.2601, 100.3874
168.7422, 98.81833
169.2243, 97.37877
169.7064, 96.50144
170.1885, 96.63300
170.6707, 96.84513
171.1528, 96.61223
171.6349, 95.95507
172.1170, 95.01238
172.5991, 93.65305
173.0812, 91.82825
173.5634, 90.63723
174.0455, 90.86862
174.5276, 91.19670
175.0097, 91.01111
175.4918, 90.34871
175.9739, 89.65482
176.4561, 89.50669
176.9382, 90.21137
177.4203, 90.39709
177.9024, 89.83207
178.3845, 88.99805
178.8666, 87.94685
179.3488, 86.79270
179.8309, 85.81313
180.3130, 85.46298
180.7951, 86.28085
181.2772, 86.49500
181.7593, 85.50278
182.2415, 84.37577
182.7236, 84.00388
183.2057, 84.56231
183.6878, 85.47165
184.1699, 85.86040
184.6520, 85.44411
185.1342, 84.99242
185.6163, 84.48808
186.0984, 83.96626
186.5805, 83.47234
187.0626, 83.02198
187.5447, 82.57321
188.0269, 81.95783
188.5090, 80.98734
188.9911, 80.55835
189.4732, 81.43568
189.9553, 82.90160
190.4374, 83.60845
190.9196, 83.00014
191.4017, 81.89711
191.8838, 81.50886
192.3659, 81.85372
192.8480, 82.24494
193.3301, 82.30137
193.8123, 82.13268
194.2944, 82.17519
194.7765, 82.67480
195.2586, 83.25404
195.7407, 83.57645
196.2228, 83.64104
196.7050, 83.46194
197.1871, 82.84733
197.6692, 81.83206
198.1513, 81.22355
198.6334, 81.52566
199.1155, 82.01201
199.5977, 82.18520
200.0798, 82.02096
200.5619, 81.78875
201.0440, 81.80327
201.5261, 82.13290
202.0082, 82.25146
202.4904, 81.81963
202.9725, 81.35217
203.4546, 81.19682
203.9367, 81.35154
204.4188, 81.46742
204.9009, 80.99909
205.3831, 79.58626
205.8652, 78.71539
206.3473, 78.82897
206.8294, 79.15014
207.3115, 79.30481
207.7936, 79.20266
208.2758, 78.92165
208.7579, 78.54044
209.2400, 77.92679
209.7221, 77.51835
210.2042, 77.31627
210.6863, 77.27563
211.1685, 77.49351
211.6506, 77.93236
212.1327, 78.31892
212.6148, 78.24192
213.0969, 77.42025
213.5790, 76.67928
214.0612, 76.08647
214.5433, 75.52846
215.0254, 74.89746
215.5075, 74.17629
215.9896, 73.42086
216.4718, 72.69126
216.9539, 71.87690
217.4360, 71.42197
217.9181, 71.61863
218.4002, 72.03494
218.8823, 72.15971
219.3645, 71.86609
219.8466, 71.60318
220.3287, 72.11874
220.8108, 73.63645
221.2929, 74.64382
221.7750, 74.77097
222.2572, 74.34579
222.7393, 73.65468
223.2214, 72.70843
223.7035, 71.79301
224.1856, 71.30622
224.6677, 71.20731
225.1499, 71.23168
225.6320, 71.33253
226.1141, 71.51131
226.5962, 71.81662
227.0783, 72.31413
227.5604, 72.76802
228.0426, 72.84649
228.5247, 72.64336
229.0068, 72.54942
229.4889, 72.88261
229.9710, 73.41508
230.4531, 73.55540
230.9353, 73.02641
231.4174, 72.57326
231.8995, 73.01148
232.3816, 74.01475
232.8637, 74.67391
233.3458, 74.40058
233.8280, 73.43105
234.3101, 72.46960
234.7922, 71.39681
235.2743, 70.60251
235.7564, 70.43948
236.2385, 70.67301
236.7207, 70.82211
237.2028, 70.50571
237.6849, 69.88146
238.1670, 69.64580
238.6491, 70.02693
239.1312, 70.48303
239.6134, 70.87794
240.0955, 71.17525
240.5776, 71.32291
241.0597, 71.28126
241.5418, 71.06670
242.0239, 70.74178
242.5061, 70.15748
242.9882, 69.66880
243.4703, 69.36537
243.9524, 69.21367
244.4345, 69.19607
244.9166, 69.34037
245.3988, 69.56750
245.8809, 69.47976
246.3630, 68.68862
246.8451, 68.07765
247.3272, 67.97767
247.8093, 68.11074
248.2915, 68.11316
248.7736, 67.78268
249.2557, 67.19893
249.7378, 66.67541
250.2199, 65.96491
250.7020, 65.66374
251.1842, 66.18661
251.6663, 67.03809
252.1484, 67.68211
252.6305, 67.86565
253.1126, 67.63106
253.5947, 67.09777
254.0769, 65.81046
254.5590, 64.77045
255.0411, 63.86972
255.5232, 63.30433
256.0053, 63.52037
256.4874, 64.69656
256.9695, 66.21782
257.4517, 66.59550
257.9338, 64.17843
258.4159, 62.53764
258.8980, 62.09648
259.3801, 62.26619
259.8622, 62.48143
260.3444, 62.54116
260.8265, 62.51343
261.3086, 62.51868
261.7907, 62.45965
262.2728, 62.61616
262.7549, 63.25335
263.2371, 63.98109
263.7192, 64.40431
264.2013, 64.42031
264.6834, 64.20168
265.1655, 64.00325
265.6476, 63.89186
266.1298, 63.61094
266.6119, 62.92651
267.0940, 62.19548
267.5761, 61.70644
268.0582, 61.52128
268.5403, 61.63318
269.0225, 62.09570
269.5046, 63.03027
269.9867, 63.76392
270.4688, 64.42660
270.9509, 64.79099
271.4330, 64.50921
271.9152, 63.57779
272.3973, 62.53310
272.8794, 61.85644
273.3615, 61.58999
273.8436, 61.44166
274.3257, 61.52423
274.8079, 61.63919
275.2900, 61.57561
275.7721, 61.34052
276.2542, 61.19794
276.7363, 61.40880
277.2184, 61.91510
277.7006, 62.17548
278.1827, 61.90385
278.6648, 61.61062
279.1469, 61.73444
279.6290, 62.22264
280.1111, 62.61344
280.5933, 62.58587
281.0754, 62.25940
281.5575, 62.10551
282.0396, 62.27154
282.5217, 62.43003
283.0038, 62.33778
283.4860, 62.04267
283.9681, 61.79242
284.4502, 61.69547
284.9323, 61.71995
285.4144, 61.73030
285.8965, 61.59695
286.3787, 61.74441
286.8608, 62.71021
287.3429, 64.22076
287.8250, 65.28168
288.3071, 65.50635
288.7892, 65.20286
289.2714, 64.82362
289.7535, 64.37156
290.2356, 63.86269
290.7177, 63.25253
291.1998, 62.58887
291.6819, 61.93726
292.1641, 61.20873
292.6462, 60.71248
293.1283, 60.94243
293.6104, 61.80245
294.0925, 62.54626
294.5746, 62.77607
295.0568, 62.70609
295.5389, 62.77491
296.0210, 63.07112
296.5031, 63.39135
296.9852, 63.55370
297.4673, 63.60102
297.9495, 63.63387
298.4316, 63.77412
298.9137, 63.88412
299.3958, 63.63561
299.8779, 62.90771
300.3600, 62.38444
300.8422, 62.74642
301.3243, 63.59833
301.8064, 64.28886
302.2885, 64.68754
302.7706, 64.86512
303.2527, 64.80302
303.7349, 64.47448
304.2170, 64.28658
304.6991, 64.46104
305.1812, 64.88774
305.6633, 65.49568
306.1454, 66.43478
306.6276, 67.15726
307.1097, 66.93320
307.5918, 65.83491
308.0739, 65.13511
308.5560, 65.36440
309.0381, 66.11191
309.5203, 66.89217
310.0024, 67.69863
310.4845, 68.51643
310.9666, 69.47783
311.4487, 70.49207
311.9308, 71.03635
312.4130, 70.76329
312.8951, 70.33963
313.3772, 70.40657
313.8593, 70.89790
314.3414, 71.40434
314.8235, 71.68895
315.3057, 71.84010
315.7878, 72.12368
316.2699, 72.63829
316.7520, 73.09399
317.2341, 73.07359
317.7162, 72.82397
318.1984, 72.92075
318.6805, 73.81389
319.1626, 75.05936
319.6447, 75.92844
320.1268, 76.34839
320.6089, 76.75715
321.0911, 77.39830
321.5732, 78.18933
322.0553, 79.03819
322.5374, 79.96848
323.0195, 80.89037
323.5016, 81.74199
323.9838, 82.52947
324.4659, 83.14198
324.9480, 83.42467
325.4301, 83.57940
325.9122, 83.75719
326.3943, 83.90446
326.8765, 84.41328
327.3586, 85.80358
327.8407, 87.90324
328.3228, 89.70219
328.8049, 90.85853
329.2870, 91.79250
329.7692, 92.83055
330.2513, 93.97530
330.7334, 95.41035
331.2155, 97.46909
331.6976, 99.85561
332.1797, 101.8203
332.6619, 103.1593
333.1440, 104.4307
333.6261, 105.9630
334.1082, 107.7557
334.5903, 109.9374
335.0724, 113.0618
335.5546, 116.3225
336.0367, 118.5660
336.5188, 119.7007
337.0009, 120.6327
337.4830, 121.5630
337.9651, 122.7494
338.4473, 124.7046
338.9294, 127.8936
339.4115, 131.2127
339.8936, 133.8511
340.3758, 135.8552
340.8579, 137.4438
341.3400, 138.5434
341.8221, 139.4183
342.3042, 140.5748
342.7863, 142.1264
343.2685, 143.3692
343.7506, 144.0994
344.2327, 144.2641
344.7148, 143.6452
345.1969, 142.0740
345.6790, 140.0438
346.1612, 137.9076
346.6433, 135.6951
347.1254, 133.7721
347.6075, 132.8617
348.0896, 131.9901
348.5717, 129.6394
349.0539, 125.6141
349.5360, 121.7964
350.0181, 119.9250
350.5002, 119.4520
350.9823, 117.8054
351.4644, 113.6862
351.9466, 109.3625
352.4287, 106.3607
352.9108, 104.5010
353.3929, 102.9204
353.8750, 101.3639
354.3571, 99.68273
354.8393, 97.43359
355.3214, 94.22392
355.8035, 91.40137
356.2856, 89.81457
356.7677, 88.88106
357.2498, 87.46375
357.7320, 85.17060
358.2141, 82.70813
358.6962, 81.06813
359.1783, 80.37576
359.6604, 79.68522
360.1425, 79.00270
360.6247, 78.20354
361.1068, 77.13065
361.5889, 75.77752
362.0710, 74.31589
362.5531, 72.79187
363.0352, 71.23673
363.5174, 70.30090
363.9995, 70.55032
364.4816, 70.79146
364.9637, 70.35017
365.4458, 69.43918
365.9279, 68.64945
366.4101, 68.29513
366.8922, 68.25225
367.3743, 68.12674
367.8564, 67.67540
368.3385, 67.48620
368.8206, 67.95395
369.3028, 68.58670
369.7849, 68.72810
370.2670, 68.21493
370.7491, 67.50518
371.2312, 67.20136
371.7133, 67.33078
372.1955, 67.90199
372.6776, 69.49888
373.1597, 71.01421
373.6418, 71.70039
374.1239, 71.62971
374.6060, 71.34737
375.0882, 71.25394
375.5703, 71.35105
376.0524, 71.65611
376.5345, 72.15164
377.0166, 72.86764
377.4987, 74.05514
377.9809, 75.40940
378.4630, 76.44703
378.9451, 76.94271
379.4272, 77.17442
379.9093, 77.80592
380.3914, 79.08364
380.8736, 80.38646
381.3557, 81.61356
381.8378, 82.90369
382.3199, 84.29697
382.8020, 85.84109
383.2841, 87.65134
383.7663, 89.90678
384.2484, 92.70251
384.7305, 95.33397
385.2126, 97.59632
385.6947, 99.89808
386.1768, 102.2037
386.6590, 104.6594
387.1411, 107.6366
387.6232, 111.5267
388.1053, 115.8658
388.5874, 118.8744
389.0695, 119.8396
389.5517, 120.7672
390.0338, 122.1622
390.5159, 123.7226
390.9980, 125.2891
391.4801, 126.8108
391.9622, 128.0116
392.4444, 128.3746
392.9265, 127.7753
393.4086, 127.5619
393.8907, 128.3602
394.3728, 129.1495
394.8549, 129.3693
395.3371, 129.0677
395.8192, 128.5331
396.3013, 127.8683
396.7834, 127.1118
397.2655, 126.4830
397.7477, 126.1793
398.2298, 125.4893
398.7119, 123.5388
399.1940, 121.1285
399.6761, 119.4236
400.1582, 119.0692
400.6404, 118.6994
401.1225, 116.7413
401.6046, 113.2732
402.0867, 109.9085
402.5688, 107.1768
403.0509, 104.6910
403.5331, 102.0192
404.0152, 99.16633
404.4973, 96.15543
404.9794, 92.57430
405.4615, 88.95975
405.9436, 86.37618
406.4258, 85.04523
406.9079, 84.04924
407.3900, 82.73722
407.8721, 81.15213
408.3542, 79.54387
408.8363, 77.89495
409.3185, 76.26314
409.8006, 74.74142
410.2827, 73.28667
410.7648, 71.65377
411.2469, 69.58756
411.7290, 67.57529
412.2112, 66.94068
412.6933, 68.39920
413.1754, 69.22746
413.6575, 68.41410
414.1396, 67.04028
414.6217, 66.30936
415.1039, 66.39353
415.5860, 66.56570
416.0681, 66.08271
416.5502, 64.86330
417.0323, 63.85402
417.5144, 62.87730
417.9966, 62.25029
418.4787, 62.37653
418.9608, 62.91745
419.4429, 63.24875
419.9250, 63.04834
420.4071, 62.44279
420.8893, 61.77359
421.3714, 61.01876
421.8535, 60.23151
422.3356, 59.31829
422.8177, 58.43784
423.2998, 57.62169
423.7820, 56.92680
424.2641, 56.54496
424.7462, 56.76257
425.2283, 57.64380
425.7104, 58.17505
426.1925, 57.95198
426.6747, 57.80133
427.1568, 58.06426
427.6389, 58.52954
428.1210, 58.88253
428.6031, 58.98719
429.0852, 58.84935
429.5674, 58.35069
430.0495, 57.26281
430.5316, 56.63330
431.0137, 57.20992
431.4958, 57.99845
431.9779, 58.35237
432.4601, 58.24370
432.9422, 58.10304
433.4243, 58.43564
433.9064, 59.04589
434.3885, 58.98318
434.8706, 57.91512
435.3528, 56.84649
435.8349, 56.41292
436.3170, 56.41189
436.7991, 56.56162
437.2812, 56.84674
437.7633, 57.18809
438.2455, 57.55489
438.7276, 57.93315
439.2097, 58.21468
439.6918, 58.35573
440.1739, 58.39038
440.6560, 58.24704
441.1382, 57.86037
441.6203, 57.89727
442.1024, 59.10101
442.5845, 60.51906
443.0666, 61.01034
443.5487, 60.49849
444.0309, 59.60373
444.5130, 58.66187
444.9951, 57.73452
445.4772, 57.32043
445.9593, 57.76923
446.4414, 58.24328
446.9236, 58.60194
447.4057, 58.79508
447.8878, 58.73361
448.3699, 58.39036
448.8520, 57.86182
449.3341, 57.26387
449.8163, 56.48256
450.2984, 55.98246
450.7805, 55.78981
451.2626, 55.80637
451.7447, 56.21027
452.2268, 56.79213
452.7090, 57.04457
453.1911, 56.58593
453.6732, 55.62101
454.1553, 55.00445
454.6374, 54.80813
455.1195, 54.87248
455.6017, 55.47942
456.0838, 56.10067
456.5659, 56.19269
457.0480, 55.69912
457.5301, 55.13576
458.0122, 55.15595
458.4944, 55.74082
458.9765, 55.84395
459.4586, 55.06583
459.9407, 54.35450
460.4228, 54.17611
460.9049, 54.39646
461.3871, 54.83065
461.8692, 55.55570
462.3513, 56.23403
462.8334, 56.32860
463.3155, 55.86769
463.7976, 55.61352
464.2798, 55.90727
464.7619, 56.38281
465.2440, 56.53290
465.7261, 56.35107
466.2082, 56.28050
466.6903, 56.66095
467.1725, 57.13054
467.6546, 57.20424
468.1367, 56.86283
468.6188, 56.43021
469.1009, 56.04625
469.5830, 55.77024
470.0652, 55.89095
470.5473, 56.77195
471.0294, 57.52986
471.5115, 57.97284
471.9936, 58.15682
472.4757, 58.07587
472.9579, 57.75120
473.4400, 57.39049
473.9221, 57.26338
474.4042, 57.44493
474.8863, 57.41902
475.3684, 56.81427
475.8506, 56.41768
476.3327, 56.67311
476.8148, 57.30590
477.2969, 57.84649
477.7790, 58.06469
478.2611, 58.07692
478.7433, 58.08740
479.2254, 58.02422
479.7075, 58.16790
480.1896, 58.83181
480.6717, 59.47643
481.1538, 59.77752
481.6360, 59.77021
482.1181, 59.71417
482.6002, 59.80021
483.0823, 59.95979
483.5644, 59.93996
484.0465, 59.64153
484.5287, 59.54103
485.0108, 60.13704
485.4929, 60.89485
485.9750, 61.11455
486.4571, 60.62088
486.9392, 60.13127
487.4214, 60.05799
487.9035, 60.30457
488.3856, 60.78060
488.8677, 61.53231
489.3498, 62.03822
489.8319, 61.70573
490.3141, 60.61483
490.7962, 60.00507
491.2783, 60.04020
491.7604, 60.37121
492.2425, 61.16949
492.7246, 62.09229
493.2068, 62.46288
493.6889, 62.04386
494.1710, 61.22370
494.6531, 60.57230
495.1352, 60.06701
495.6173, 59.83683
496.0995, 60.02256
496.5816, 60.30357
497.0637, 60.59834
497.5458, 60.86064
498.0279, 60.96456
498.5100, 60.80384
498.9922, 60.62919
499.4743, 61.19342
499.9564, 62.97561
500.4385, 64.27186
500.9206, 64.52876
501.4027, 64.48631
501.8849, 64.48410
502.3670, 64.57603
502.8491, 64.76025
503.3312, 65.12078
503.8133, 65.55358
504.2954, 65.73774
504.7776, 65.61767
505.2597, 65.50952
505.7418, 65.56222
506.2239, 65.71091
506.7060, 65.86037
507.1881, 66.00284
507.6703, 66.15935
508.1524, 66.36869
508.6345, 66.58990
509.1166, 66.71578
509.5987, 66.73058
510.0808, 66.80381
510.5630, 67.06192
511.0451, 67.50449
511.5272, 68.09081
512.0093, 68.93261
512.4914, 69.76755
512.9735, 70.65281
513.4556, 71.43577
513.9377, 71.83022
514.4199, 71.79358
514.9020, 71.69145
515.3841, 71.98878
515.8662, 72.74315
516.3483, 73.49551
516.8304, 74.29240
517.3126, 75.03421
517.7947, 75.65715
518.2768, 76.21510
518.7589, 76.80555
519.2410, 77.47173
519.7231, 78.10905
520.2053, 78.51405
520.6874, 78.65916
521.1695, 78.95782
521.6516, 79.44288
522.1337, 80.13325
522.6158, 81.00710
523.0980, 82.06784
523.5801, 83.34057
524.0622, 84.91067
524.5443, 86.61580
525.0264, 88.28791
525.5085, 89.94604
525.9907, 91.63993
526.4728, 93.43150
526.9549, 95.19607
527.4370, 96.76443
527.9191, 98.16232
528.4012, 99.31802
528.8834, 99.62792
529.3655, 100.2051
529.8476, 101.9431
530.3297, 104.6254
530.8118, 107.5291
531.2939, 110.2817
531.7761, 112.9262
532.2582, 115.5285
532.7403, 117.7008
533.2224, 120.5772
533.7045, 124.4050
534.1866, 128.6224
534.6688, 133.0319
535.1509, 137.5535
535.6330, 142.0401
536.1151, 146.2687
536.5972, 150.5678
537.0793, 155.9198
537.5615, 162.4191
538.0436, 169.4701
538.5257, 177.0867
539.0078, 185.0203
539.4899, 192.5677
539.9720, 199.8442
540.4542, 208.7142
540.9363, 220.9095
541.4184, 234.7932
541.9005, 247.7595
542.3826, 259.8197
542.8647, 272.8635
543.3469, 287.7131
543.8290, 304.4460
544.3111, 323.5771
544.7932, 345.2259
545.2753, 368.2903
545.7574, 392.2520
546.2396, 417.9874
546.7217, 446.1648
547.2038, 476.8707
547.6859, 509.6537
548.1680, 544.4405
548.6501, 580.9556
549.1323, 618.2425
549.6144, 657.7777
550.0965, 695.1520
550.5786, 731.6353
551.0607, 764.9889
551.5428, 795.1751
552.0250, 821.0901
552.5071, 839.0614
552.9892, 846.8978
553.4713, 844.7293
553.9534, 832.4945
554.4355, 809.6340
554.9177, 779.0450
555.3998, 739.2166
555.8819, 693.6352
556.3640, 646.4982
556.8461, 597.4872
557.3282, 550.1091
557.8104, 504.8573
558.2925, 462.1595
558.7746, 422.6899
559.2567, 386.2397
559.7388, 353.3153
560.2209, 324.1141
560.7031, 298.2946
561.1852, 274.6832
561.6673, 253.2654
562.1494, 233.9545
562.6315, 217.0349
563.1136, 202.0002
563.5958, 188.6804
564.0779, 176.8621
564.5600, 166.5714
565.0421, 157.9528
565.5242, 150.5632
566.0063, 142.7601
566.4885, 134.0626
566.9706, 126.4756
567.4527, 121.1260
567.9348, 116.6431
568.4169, 112.1236
568.8990, 107.6017
569.3812, 103.5563
569.8633, 100.6170
570.3454, 98.14626
570.8275, 95.15217
571.3096, 91.68074
571.7917, 88.44902
572.2739, 85.77812
572.7560, 83.41433
573.2381, 80.82089
573.7202, 77.76923
574.2023, 75.34361
574.6844, 74.04112
575.1666, 73.03880
575.6487, 71.86405
576.1308, 70.50864
576.6129, 69.02956
577.0950, 67.43382
577.5771, 65.91636
578.0593, 64.96185
578.5414, 64.84996
579.0235, 64.53624
579.5056, 64.15639
579.9877, 63.37984
580.4698, 61.62001
580.9520, 59.36240
581.4341, 57.71913
581.9162, 57.34933
582.3983, 57.46599
582.8804, 57.03216
583.3625, 56.09642
583.8447, 55.19763
584.3268, 54.47329
584.8089, 53.79291
585.2910, 53.06432
585.7732, 52.28196
586.2553, 51.38334
586.7374, 49.79181
587.2195, 48.68031
587.7017, 49.00204
588.1838, 50.13308
588.6659, 51.08241
589.1480, 51.52937
589.6301, 51.55494
590.1122, 51.21719
