##NAMES=Cryolite
##RRUFFID=R050287
##IDEAL CHEMISTRY=Na_3_AlF_6_
##LOCALITY=Ivigtut, Greenland
##OWNER=RRUFF
##SOURCE=Marcus Origlieri
##DESCRIPTION=Colorless fragment
##STATUS=The identification of this mineral has been confirmed by X-ray diffraction and chemical analysis
##URL=rruff.info/R050287
##MEASURED CHEMISTRY=Na_3.00_Al_1.00_F_6.00_
92.35352, 1.197388
92.83563, 1.318010
93.31775, 1.369449
93.79987, 1.281367
94.28198, 1.114814
94.76410, 1.063108
95.24622, 1.213058
95.72833, 1.447244
96.21045, 1.489281
96.69257, 1.328999
97.17468, 1.144871
97.65680, 1.120437
98.13892, 1.251629
98.62103, 1.335968
99.10315, 1.280883
99.58527, 1.123437
100.0674, 1.150085
100.5495, 1.413487
101.0316, 1.744837
101.5137, 1.929159
101.9958, 1.932932
102.4780, 1.909193
102.9601, 1.872488
103.4422, 1.795543
103.9243, 1.905131
104.4064, 2.298916
104.8885, 2.817527
105.3707, 3.168744
105.8528, 3.223320
106.3349, 3.287832
106.8170, 3.490652
107.2991, 3.983947
107.7813, 4.324301
108.2634, 4.423326
108.7455, 4.357570
109.2276, 4.380457
109.7097, 4.539871
110.1918, 4.754413
110.6740, 4.990795
111.1561, 5.324669
111.6382, 5.594498
112.1203, 5.690774
112.6024, 5.665259
113.0845, 5.828685
113.5667, 6.436924
114.0488, 7.134500
114.5309, 7.688515
115.0130, 7.810247
115.4951, 8.001898
115.9772, 8.470555
116.4594, 9.213773
116.9415, 9.895526
117.4236, 10.36023
117.9057, 10.70998
118.3878, 11.05262
118.8699, 11.55550
119.3521, 11.97041
119.8342, 12.09560
120.3163, 11.89032
120.7984, 11.71223
121.2805, 11.77596
121.7626, 12.01461
122.2448, 12.31376
122.7269, 12.66708
123.2090, 13.03215
123.6911, 13.38109
124.1732, 13.72106
124.6553, 14.00247
125.1375, 14.15457
125.6196, 14.20322
126.1017, 14.23026
126.5838, 14.22642
127.0659, 14.24240
127.5480, 14.36588
128.0302, 14.61006
128.5123, 14.96442
128.9944, 15.48863
129.4765, 16.16076
129.9586, 16.77612
130.4407, 17.15223
130.9229, 17.33742
131.4050, 17.53129
131.8871, 17.77527
132.3692, 18.04165
132.8513, 18.28025
133.3334, 18.46526
133.8156, 18.50389
134.2977, 18.36588
134.7798, 18.12076
135.2619, 17.86442
135.7440, 17.57945
136.2261, 17.30218
136.7083, 17.20568
137.1904, 17.31540
137.6725, 17.51520
138.1546, 17.73424
138.6367, 18.00603
139.1188, 18.12522
139.6010, 18.01716
140.0831, 17.68343
140.5652, 17.33145
141.0473, 16.93561
141.5294, 16.54967
142.0115, 16.26503
142.4937, 16.13759
142.9758, 15.96775
143.4579, 15.64694
143.9400, 15.09133
144.4221, 14.81022
144.9042, 14.92107
145.3864, 15.23267
145.8685, 15.40854
146.3506, 15.31564
146.8327, 15.27080
147.3148, 15.40620
147.7969, 15.89873
148.2791, 16.16539
148.7612, 16.03829
149.2433, 15.70325
149.7254, 15.58932
150.2075, 15.93956
150.6896, 16.29881
151.1718, 16.49697
151.6539, 16.39020
152.1360, 16.33637
152.6181, 16.30456
153.1002, 16.32353
153.5823, 16.48048
154.0645, 17.07077
154.5466, 17.59199
155.0287, 17.80633
155.5108, 17.34623
155.9929, 16.99604
156.4750, 16.92283
156.9572, 17.06829
157.4393, 17.20091
157.9214, 17.24654
158.4035, 17.27996
158.8856, 17.34789
159.3677, 17.46283
159.8499, 17.61109
160.3320, 17.83912
160.8141, 18.12259
161.2962, 18.31112
161.7783, 18.32221
162.2604, 18.22842
162.7426, 18.08967
163.2247, 17.79581
163.7068, 17.57243
164.1889, 17.56800
164.6710, 17.76712
165.1531, 17.94351
165.6353, 18.01960
166.1174, 18.00422
166.5995, 17.90680
167.0816, 17.59075
167.5637, 17.29700
168.0458, 17.23301
168.5280, 17.40023
169.0101, 17.52521
169.4922, 17.40320
169.9743, 17.13651
170.4564, 16.86803
170.9385, 16.59587
171.4207, 16.38234
171.9028, 16.30900
172.3849, 16.38444
172.8670, 16.48384
173.3491, 16.55827
173.8312, 16.58796
174.3134, 16.53433
174.7955, 16.32800
175.2776, 16.05285
175.7597, 15.77907
176.2418, 15.49874
176.7239, 15.29867
177.2061, 15.29927
177.6882, 15.44676
178.1703, 15.59410
178.6524, 15.68743
179.1345, 15.73224
179.6166, 15.71393
180.0988, 15.61733
180.5809, 15.53361
181.0630, 15.60386
181.5451, 15.79036
182.0272, 15.93902
182.5093, 15.94308
182.9915, 15.85297
183.4736, 15.78286
183.9557, 15.73624
184.4378, 15.72276
184.9199, 15.79480
185.4020, 15.93410
185.8842, 16.02005
186.3663, 15.92244
186.8484, 15.70459
187.3305, 15.62069
187.8126, 15.71899
188.2947, 15.87598
188.7769, 15.86777
189.2590, 15.70353
189.7411, 15.57352
190.2232, 15.65691
190.7053, 15.90234
191.1874, 15.94435
191.6696, 15.69318
192.1517, 15.34442
192.6338, 15.28527
193.1159, 15.52483
193.5980, 15.80255
194.0801, 15.97905
194.5623, 16.05783
195.0444, 16.08108
195.5265, 16.03337
196.0086, 15.95788
196.4907, 15.96142
196.9728, 16.05496
197.4550, 16.13455
197.9371, 16.12752
198.4192, 16.03243
198.9013, 15.93112
199.3834, 15.80360
199.8655, 15.70105
200.3477, 15.79643
200.8298, 16.14092
201.3119, 16.45020
201.7940, 16.53240
202.2761, 16.36671
202.7582, 16.20618
203.2404, 16.06303
203.7225, 15.94582
204.2046, 15.88551
204.6867, 15.89281
205.1688, 15.92047
205.6509, 15.95160
206.1331, 15.99438
206.6152, 15.97757
207.0973, 15.85826
207.5794, 15.69436
208.0615, 15.69245
208.5436, 15.91558
209.0258, 16.13474
209.5079, 16.18539
209.9900, 16.01921
210.4721, 15.92070
210.9542, 15.94773
211.4363, 16.04557
211.9185, 16.00643
212.4006, 15.76093
212.8827, 15.52725
213.3648, 15.46653
213.8469, 15.64649
214.3290, 15.74420
214.8112, 15.72087
215.2933, 15.60114
215.7754, 15.45874
216.2575, 15.26384
216.7396, 15.10184
217.2217, 15.04411
217.7039, 15.15005
218.1860, 15.17006
218.6681, 15.04389
219.1502, 14.82662
219.6323, 14.71988
220.1144, 14.73983
220.5966, 14.84411
221.0787, 15.03757
221.5608, 15.40238
222.0429, 15.63123
222.5250, 15.68773
223.0071, 15.59714
223.4893, 15.41974
223.9714, 15.03656
224.4535, 14.75114
224.9356, 14.76942
225.4177, 15.30224
225.8998, 15.61721
226.3820, 15.59177
226.8641, 15.33523
227.3462, 15.23339
227.8283, 15.36666
228.3104, 15.53126
228.7925, 15.62606
229.2746, 15.64165
229.7568, 15.60357
230.2389, 15.47885
230.7210, 15.30573
231.2031, 15.21576
231.6852, 15.25541
232.1673, 15.30913
232.6495, 15.32290
233.1316, 15.28976
233.6137, 15.22873
234.0958, 15.11990
234.5779, 14.98828
235.0600, 14.90175
235.5422, 14.84812
236.0243, 14.85627
236.5064, 14.94966
236.9885, 15.18503
237.4706, 15.38462
237.9527, 15.56836
238.4349, 15.70826
238.9170, 15.72040
239.3991, 15.53355
239.8812, 15.32527
240.3633, 15.16611
240.8454, 15.06441
241.3276, 14.98893
241.8097, 14.92488
242.2918, 14.89355
242.7739, 14.95453
243.2560, 15.17873
243.7381, 15.38586
244.2203, 15.50754
244.7024, 15.52371
245.1845, 15.50997
245.6666, 15.46127
246.1487, 15.38521
246.6308, 15.28077
247.1130, 15.07772
247.5951, 14.96221
248.0772, 15.02074
248.5593, 15.31519
249.0414, 15.56335
249.5235, 15.78514
250.0057, 15.94749
250.4878, 15.98799
250.9699, 15.84594
251.4520, 15.68890
251.9341, 15.56861
252.4162, 15.49006
252.8984, 15.41767
253.3805, 15.33986
253.8626, 15.27687
254.3447, 15.24899
254.8268, 15.22100
255.3089, 15.30351
255.7911, 15.58234
256.2732, 16.10774
256.7553, 16.40518
257.2374, 16.39845
257.7195, 16.23851
258.2017, 16.10657
258.6838, 16.01500
259.1659, 15.91779
259.6480, 15.77998
260.1301, 15.59676
260.6122, 15.54237
261.0944, 15.67307
261.5765, 15.86348
262.0586, 15.99418
262.5407, 16.07717
263.0228, 16.05901
263.5049, 15.87429
263.9871, 15.53486
264.4692, 15.39882
264.9513, 15.53482
265.4334, 15.76200
265.9155, 15.93194
266.3976, 16.04641
266.8798, 16.08027
267.3619, 15.99214
267.8440, 15.80664
268.3261, 15.73272
268.8082, 15.78887
269.2903, 15.91693
269.7725, 16.09581
270.2546, 16.35012
270.7367, 16.53612
271.2188, 16.64312
271.7009, 16.66393
272.1830, 16.52912
272.6652, 16.17609
273.1473, 15.84162
273.6294, 15.69205
274.1115, 15.75243
274.5936, 15.86291
275.0757, 16.03236
275.5579, 16.22530
276.0400, 16.32845
276.5221, 16.32729
277.0042, 16.29449
277.4863, 16.24366
277.9684, 16.16596
278.4506, 16.21501
278.9327, 16.45203
279.4148, 16.75671
279.8969, 16.84736
280.3790, 16.69459
280.8611, 16.53568
281.3433, 16.49835
281.8254, 16.58187
282.3075, 16.66330
282.7896, 16.73821
283.2717, 16.81301
283.7538, 16.91885
284.2360, 17.05931
284.7181, 17.14185
285.2002, 17.08283
285.6823, 16.90558
286.1644, 16.84279
286.6465, 16.91912
287.1287, 17.02198
287.6108, 16.97814
288.0929, 16.79760
288.5750, 16.66734
289.0571, 16.67720
289.5392, 16.79330
290.0214, 16.88070
290.5035, 16.93586
290.9856, 16.98873
291.4677, 17.08679
291.9498, 17.21890
292.4319, 17.30765
292.9141, 17.29623
293.3962, 17.24558
293.8783, 17.32778
294.3604, 17.54485
294.8425, 17.74952
295.3246, 17.81644
295.8068, 17.76892
296.2889, 17.67044
296.7710, 17.49150
297.2531, 17.32138
297.7352, 17.34079
298.2173, 17.53141
298.6995, 17.74005
299.1816, 17.87142
299.6637, 17.93868
300.1458, 17.94911
300.6279, 17.87323
301.1100, 17.80911
301.5922, 17.90347
302.0743, 18.12534
302.5564, 18.34925
303.0385, 18.49898
303.5206, 18.60629
304.0027, 18.72787
304.4849, 18.87894
304.9670, 19.00510
305.4491, 19.00123
305.9312, 18.92633
306.4133, 18.92189
306.8954, 19.13033
307.3776, 19.40565
307.8597, 19.59421
308.3418, 19.68262
308.8239, 19.74785
309.3060, 19.84550
309.7881, 19.95929
310.2703, 20.06016
310.7524, 20.09666
311.2345, 20.14669
311.7166, 20.24459
312.1987, 20.39339
312.6808, 20.63530
313.1630, 21.10757
313.6451, 21.64515
314.1272, 22.07433
314.6093, 22.28172
315.0914, 22.41541
315.5735, 22.51633
316.0557, 22.59119
316.5378, 22.67642
317.0199, 22.70255
317.5020, 22.79346
317.9841, 23.05380
318.4662, 23.61683
318.9484, 24.18000
319.4305, 24.67409
319.9126, 25.09631
320.3947, 25.43916
320.8768, 25.56662
321.3589, 25.71570
321.8411, 26.01283
322.3232, 26.51851
322.8053, 27.05515
323.2874, 27.68597
323.7695, 28.30978
324.2516, 28.76632
324.7338, 28.77769
325.2159, 28.85127
325.6980, 29.16130
326.1801, 29.76756
326.6622, 30.38246
327.1443, 31.07248
327.6265, 31.72891
328.1086, 32.24157
328.5907, 32.30840
329.0728, 32.56596
329.5549, 33.23199
330.0370, 34.31587
330.5192, 35.08183
331.0013, 35.18830
331.4834, 35.27208
331.9655, 35.80897
332.4476, 37.25323
332.9297, 38.37111
333.4119, 38.97827
333.8940, 39.16887
334.3761, 39.33311
334.8582, 39.47264
335.3403, 39.57724
335.8224, 39.64208
336.3046, 39.66902
336.7867, 39.64278
337.2688, 39.53954
337.7509, 39.40037
338.2330, 39.32288
338.7151, 39.34389
339.1973, 39.31200
339.6794, 39.14854
340.1615, 38.84769
340.6436, 38.58051
341.1257, 38.35125
341.6078, 38.15392
342.0900, 38.01426
342.5721, 37.94628
343.0542, 37.78382
343.5363, 37.44608
344.0184, 36.98064
344.5005, 36.58526
344.9827, 36.26917
345.4648, 35.98026
345.9469, 35.68678
346.4290, 35.38350
346.9111, 35.08499
347.3932, 34.84072
347.8754, 34.53424
348.3575, 33.86189
348.8396, 32.85781
349.3217, 31.87810
349.8038, 31.16820
350.2859, 30.66805
350.7680, 30.26871
351.2502, 29.98836
351.7323, 29.68656
352.2144, 29.18815
352.6965, 28.53002
353.1786, 27.83813
353.6607, 27.07136
354.1429, 26.35383
354.6250, 25.88399
355.1071, 25.67661
355.5892, 25.50472
356.0713, 25.20335
356.5534, 24.82304
357.0356, 24.43686
357.5177, 24.00352
357.9998, 23.62931
358.4819, 23.43473
358.9640, 23.39181
359.4461, 23.35090
359.9283, 23.26566
360.4104, 23.13147
360.8925, 22.92717
361.3746, 22.55460
361.8567, 22.27310
362.3388, 22.30379
362.8210, 22.50576
363.3031, 22.56001
363.7852, 22.18857
364.2673, 21.78940
364.7494, 21.54803
365.2315, 21.51183
365.7137, 21.53070
366.1958, 21.57213
366.6779, 21.65462
367.1600, 21.80043
367.6421, 22.14981
368.1242, 22.42020
368.6064, 22.53307
369.0885, 22.47993
369.5706, 22.42532
370.0527, 22.32577
370.5348, 22.25812
371.0169, 22.27398
371.4991, 22.41147
371.9812, 22.56758
372.4633, 22.73433
372.9454, 22.91610
373.4275, 23.11598
373.9096, 23.30541
374.3918, 23.56782
374.8739, 23.95337
375.3560, 24.50220
375.8381, 25.00700
376.3202, 25.44444
376.8023, 25.86055
377.2845, 26.33593
377.7666, 26.88213
378.2487, 27.39679
378.7308, 27.78832
379.2129, 28.10285
379.6950, 28.67394
380.1772, 29.55594
380.6593, 30.43809
381.1414, 30.96393
381.6235, 31.17914
382.1056, 31.55523
382.5877, 32.19101
383.0699, 33.02867
383.5520, 34.00850
384.0341, 35.12663
384.5162, 36.25096
384.9983, 37.33980
385.4804, 38.37938
385.9626, 39.32617
386.4447, 40.15827
386.9268, 40.99246
387.4089, 42.00639
387.8910, 43.11935
388.3731, 44.12643
388.8553, 44.88842
389.3374, 45.53605
389.8195, 46.21317
390.3016, 46.90416
390.7837, 47.47392
391.2658, 47.74180
391.7480, 47.87689
392.2301, 48.07419
392.7122, 48.58927
393.1943, 48.89870
393.6764, 48.69614
394.1585, 48.08199
394.6407, 47.34840
395.1228, 46.59216
395.6049, 45.74564
396.0870, 44.72520
396.5691, 43.43898
397.0512, 42.27129
397.5334, 41.32228
398.0155, 40.51812
398.4976, 39.77835
398.9797, 39.29360
399.4618, 38.65052
399.9439, 37.67919
400.4261, 36.38209
400.9082, 35.29082
401.3903, 34.58847
401.8724, 33.91704
402.3545, 33.01616
402.8366, 31.67881
403.3188, 30.59088
403.8009, 29.85240
404.2830, 29.35873
404.7651, 28.85070
405.2472, 28.32586
405.7293, 27.80848
406.2115, 27.30881
406.6936, 26.83162
407.1757, 26.35320
407.6578, 25.86632
408.1399, 25.39514
408.6220, 24.96659
409.1042, 24.57993
409.5863, 24.19261
410.0684, 23.76940
410.5505, 23.35806
411.0326, 23.06697
411.5147, 22.89249
411.9969, 22.75288
412.4790, 22.60727
412.9611, 22.44957
413.4432, 22.26665
413.9253, 22.05308
414.4074, 21.82163
414.8896, 21.53038
415.3717, 21.22784
415.8538, 21.03142
416.3359, 21.08836
416.8180, 21.21959
417.3001, 21.30549
417.7823, 21.33928
418.2644, 21.24611
418.7465, 20.82620
419.2286, 20.32979
419.7107, 20.00729
420.1928, 20.01165
420.6750, 20.07412
421.1571, 20.13340
421.6392, 20.17636
422.1213, 20.16711
422.6034, 20.02338
423.0855, 19.88823
423.5677, 19.82527
424.0498, 19.86130
424.5319, 19.89303
425.0140, 19.94535
425.4961, 19.97494
425.9782, 19.93332
426.4604, 19.72428
426.9425, 19.58877
427.4246, 19.59901
427.9067, 19.72519
428.3888, 19.74283
428.8709, 19.57967
429.3531, 19.43570
429.8352, 19.45367
430.3173, 19.69096
430.7994, 19.77310
431.2815, 19.63630
431.7636, 19.42793
432.2458, 19.40391
432.7279, 19.57489
433.2100, 19.74865
433.6921, 19.86948
434.1742, 19.93906
434.6563, 19.95175
435.1385, 19.90647
435.6206, 19.84249
436.1027, 19.78295
436.5848, 19.73073
437.0669, 19.69940
437.5490, 19.70161
438.0312, 19.70024
438.5133, 19.63165
438.9954, 19.52209
439.4775, 19.44412
439.9596, 19.47306
440.4417, 19.52663
440.9239, 19.51093
441.4060, 19.42068
441.8881, 19.37234
442.3702, 19.48244
442.8523, 19.64414
443.3344, 19.75591
443.8166, 19.78239
444.2987, 19.76453
444.7808, 19.65742
445.2629, 19.50758
445.7450, 19.45138
446.2271, 19.60395
446.7093, 19.77961
447.1914, 19.93737
447.6735, 20.12487
448.1556, 20.11436
448.6377, 19.73163
449.1198, 19.26833
449.6020, 19.03315
450.0841, 19.17018
450.5662, 19.23641
451.0483, 19.12376
451.5304, 18.89168
452.0125, 18.82368
452.4947, 18.96311
452.9768, 19.13096
453.4589, 19.24082
453.9410, 19.29257
454.4231, 19.27234
454.9052, 19.15430
455.3874, 19.04762
455.8695, 19.15351
456.3516, 19.43281
456.8337, 19.58499
457.3158, 19.43859
457.7979, 19.17274
458.2801, 19.11697
458.7622, 19.24964
459.2443, 19.41935
459.7264, 19.57466
460.2085, 19.68484
460.6906, 19.68300
461.1728, 19.53476
461.6549, 19.39479
462.1370, 19.39278
462.6191, 19.46735
463.1012, 19.52900
463.5833, 19.54759
464.0655, 19.54318
464.5476, 19.49519
465.0297, 19.41529
465.5118, 19.39651
465.9939, 19.58121
466.4760, 19.74820
466.9582, 19.76009
467.4403, 19.42330
467.9224, 19.26264
468.4045, 19.38276
468.8866, 19.64250
469.3687, 19.85276
469.8509, 20.02539
470.3330, 20.11654
470.8151, 20.08816
471.2972, 19.95627
471.7793, 19.88148
472.2614, 19.86016
472.7436, 19.90460
473.2257, 20.10310
473.7078, 20.46254
474.1899, 20.50054
474.6720, 20.10422
475.1541, 19.59196
475.6363, 19.46823
476.1184, 19.67761
476.6005, 19.86533
477.0826, 19.86429
477.5647, 19.77115
478.0468, 19.74679
478.5290, 19.78476
479.0111, 19.82636
479.4932, 19.73970
479.9753, 19.67237
480.4574, 19.85367
480.9395, 20.42360
481.4217, 20.91290
481.9038, 20.94222
482.3859, 20.72237
482.8680, 20.56082
483.3501, 20.64437
483.8322, 20.71986
484.3144, 20.66526
484.7965, 20.49156
485.2786, 20.38747
485.7607, 20.46377
486.2428, 20.55162
486.7249, 20.55923
487.2071, 20.40971
487.6892, 20.34470
488.1713, 20.38270
488.6534, 20.49255
489.1355, 20.64633
489.6176, 20.87992
490.0998, 21.05410
490.5819, 21.13140
491.0640, 21.12614
491.5461, 21.10136
492.0282, 21.05510
492.5103, 21.00557
492.9925, 20.94160
493.4746, 20.87783
493.9567, 20.90276
494.4388, 21.03136
494.9209, 21.20129
495.4030, 21.37424
495.8852, 21.53414
496.3673, 21.64253
496.8494, 21.63811
497.3315, 21.61847
497.8136, 21.73021
498.2957, 21.92626
498.7779, 22.00944
499.2600, 21.71121
499.7421, 21.37832
500.2242, 21.27367
500.7063, 21.47787
501.1884, 21.68524
501.6706, 21.80011
502.1527, 21.87455
502.6348, 21.95889
503.1169, 22.07699
503.5990, 22.18463
504.0811, 22.26744
504.5633, 22.33475
505.0454, 22.42850
505.5275, 22.57800
506.0096, 22.69989
506.4917, 22.74517
506.9738, 22.70308
507.4560, 22.73378
507.9381, 22.86333
508.4202, 22.99514
508.9023, 22.98480
509.3844, 22.84659
509.8665, 22.85007
510.3487, 23.08810
510.8308, 23.41080
511.3129, 23.58416
511.7950, 23.62367
512.2772, 23.60113
512.7593, 23.40899
513.2414, 23.25311
513.7235, 23.45679
514.2056, 24.00785
514.6877, 24.52934
515.1699, 24.75914
515.6520, 24.85970
516.1341, 24.96681
516.6162, 25.06244
517.0983, 25.26117
517.5804, 25.76787
518.0626, 26.36933
518.5447, 26.71602
519.0268, 26.44745
519.5089, 26.24372
519.9910, 26.26390
520.4731, 26.49564
520.9553, 26.75962
521.4374, 27.06354
521.9195, 27.38387
522.4016, 27.70471
522.8837, 28.01669
523.3658, 28.39587
523.8480, 28.90046
524.3301, 29.35183
524.8122, 29.39514
525.2943, 29.06620
525.7764, 28.95535
526.2585, 29.25662
526.7407, 29.82644
527.2228, 30.42794
527.7049, 31.07268
528.1870, 31.80486
528.6691, 32.83779
529.1512, 33.88628
529.6334, 34.53484
530.1155, 34.74631
530.5976, 35.02116
531.0797, 35.61967
531.5618, 36.45391
532.0439, 37.43728
532.5261, 38.68045
533.0082, 39.89475
533.4903, 40.92947
533.9724, 41.90025
534.4545, 43.08283
534.9366, 44.57460
535.4188, 46.18587
535.9009, 47.85859
536.3830, 49.59484
536.8651, 51.47861
537.3472, 53.49360
537.8293, 55.68010
538.3115, 58.07351
538.7936, 60.67609
539.2757, 63.34235
539.7578, 66.07459
540.2399, 68.79145
540.7220, 71.27448
541.2042, 73.59262
541.6863, 76.29906
542.1684, 79.57426
542.6505, 83.35194
543.1326, 87.71706
543.6147, 92.54471
544.0969, 97.48831
544.5790, 101.9861
545.0611, 106.6372
545.5432, 111.9910
546.0253, 118.0914
546.5074, 124.3836
546.9896, 130.3654
547.4717, 136.5349
547.9538, 143.3145
548.4359, 151.6949
548.9180, 159.4348
549.4001, 166.1842
549.8823, 172.3047
550.3644, 178.4494
550.8465, 185.1857
551.3286, 191.0600
551.8107, 196.0513
552.2928, 199.9743
552.7750, 201.2302
553.2571, 199.6469
553.7392, 196.3426
554.2213, 191.9989
554.7034, 186.5803
555.1855, 179.4883
555.6677, 170.6086
556.1498, 160.6616
556.6319, 149.8905
557.1140, 138.7486
557.5961, 128.2778
558.0782, 118.9017
558.5604, 110.0371
559.0425, 101.0194
559.5246, 92.21319
560.0067, 84.49473
560.4888, 78.77509
560.9709, 73.79939
561.4531, 69.14693
561.9352, 64.77021
562.4173, 60.74619
562.8994, 57.10418
563.3815, 53.81464
563.8636, 50.82306
564.3458, 48.12492
564.8279, 45.81749
565.3100, 43.97522
565.7921, 42.39863
566.2742, 40.87670
566.7563, 39.40288
567.2385, 37.95797
567.7206, 36.51372
568.2027, 35.13856
568.6848, 34.13277
569.1669, 33.43171
569.6490, 32.65389
570.1312, 31.34222
570.6133, 29.93237
571.0954, 29.19049
571.5775, 29.07907
572.0596, 28.92963
572.5417, 28.14221
573.0239, 27.21761
573.5060, 26.64916
573.9881, 26.69703
574.4702, 26.60571
574.9523, 25.94558
575.4344, 25.09401
575.9166, 24.53772
576.3987, 24.59227
576.8808, 24.55319
577.3629, 24.29344
577.8450, 23.89181
578.3271, 23.62104
578.8093, 23.53677
579.2914, 23.41525
579.7735, 23.11622
580.2556, 22.68476
580.7377, 22.49424
581.2198, 22.56830
581.7020, 22.63346
582.1841, 22.41544
582.6662, 22.02157
583.1483, 21.70065
583.6304, 21.49359
584.1125, 21.34270
584.5947, 21.22130
585.0768, 21.11843
585.5589, 21.01903
586.0410, 20.96108
586.5231, 20.85827
587.0052, 20.57355
587.4874, 20.21042
587.9695, 20.05008
588.4516, 20.41137
588.9337, 20.70715
589.4158, 20.76824
589.8979, 20.59385
590.3801, 20.33350
