##NAMES=Cryolite
##RRUFFID=R120027
##IDEAL CHEMISTRY=Na_3_AlF_6_
##LOCALITY=Francon quarry, Montréal, Québec, Canada
##OWNER=RRUFF
##SOURCE=Donald Doell
##DESCRIPTION=Pale brownish-yellow massive
##STATUS=The identification of this mineral has been confirmed by single-crystal X-ray diffraction.
##URL=rruff.info/R120027
9.112140e+001, 0.000000e+000
9.160352e+001, 7.787084e+002
9.208563e+001, 7.623958e+002
9.256775e+001, 7.603864e+002
9.304987e+001, 7.801757e+002
9.353198e+001, 8.045511e+002
9.401410e+001, 8.200804e+002
9.449622e+001, 8.261069e+002
9.497833e+001, 8.252213e+002
9.546045e+001, 8.194232e+002
9.594257e+001, 8.086496e+002
9.642468e+001, 7.992473e+002
9.690680e+001, 7.922317e+002
9.738892e+001, 7.861943e+002
9.787103e+001, 7.812128e+002
9.835315e+001, 7.760423e+002
9.883527e+001, 7.694976e+002
9.931738e+001, 7.624613e+002
9.979950e+001, 7.548127e+002
1.002816e+002, 7.480743e+002
1.007637e+002, 7.421116e+002
1.012458e+002, 7.366793e+002
1.017280e+002, 7.313585e+002
1.022101e+002, 7.258635e+002
1.026922e+002, 7.210322e+002
1.031743e+002, 7.186102e+002
1.036564e+002, 7.184644e+002
1.041385e+002, 7.184901e+002
1.046207e+002, 7.178553e+002
1.051028e+002, 7.167421e+002
1.055849e+002, 7.158198e+002
1.060670e+002, 7.152621e+002
1.065491e+002, 7.147225e+002
1.070313e+002, 7.139787e+002
1.075134e+002, 7.130408e+002
1.079955e+002, 7.116466e+002
1.084776e+002, 7.092424e+002
1.089597e+002, 7.054459e+002
1.094418e+002, 7.022151e+002
1.099240e+002, 6.999479e+002
1.104061e+002, 6.984584e+002
1.108882e+002, 6.978782e+002
1.113703e+002, 6.983011e+002
1.118524e+002, 6.993129e+002
1.123345e+002, 6.997521e+002
1.128167e+002, 6.986078e+002
1.132988e+002, 6.982698e+002
1.137809e+002, 6.998523e+002
1.142630e+002, 7.022243e+002
1.147451e+002, 7.039626e+002
1.152272e+002, 7.041461e+002
1.157094e+002, 7.028474e+002
1.161915e+002, 7.013944e+002
1.166736e+002, 6.991805e+002
1.171557e+002, 6.973948e+002
1.176378e+002, 6.967053e+002
1.181199e+002, 6.968847e+002
1.186021e+002, 6.971095e+002
1.190842e+002, 6.966573e+002
1.195663e+002, 6.954557e+002
1.200484e+002, 6.945751e+002
1.205305e+002, 6.938968e+002
1.210126e+002, 6.935745e+002
1.214948e+002, 6.938408e+002
1.219769e+002, 6.947584e+002
1.224590e+002, 6.959246e+002
1.229411e+002, 6.975065e+002
1.234232e+002, 6.992347e+002
1.239053e+002, 6.996531e+002
1.243875e+002, 6.971793e+002
1.248696e+002, 6.929392e+002
1.253517e+002, 6.901285e+002
1.258338e+002, 6.896215e+002
1.263159e+002, 6.900066e+002
1.267980e+002, 6.902480e+002
1.272802e+002, 6.903738e+002
1.277623e+002, 6.905413e+002
1.282444e+002, 6.910076e+002
1.287265e+002, 6.918405e+002
1.292086e+002, 6.922437e+002
1.296907e+002, 6.920375e+002
1.301729e+002, 6.914453e+002
1.306550e+002, 6.904108e+002
1.311371e+002, 6.889879e+002
1.316192e+002, 6.874075e+002
1.321013e+002, 6.859508e+002
1.325834e+002, 6.844841e+002
1.330656e+002, 6.834462e+002
1.335477e+002, 6.829539e+002
1.340298e+002, 6.827426e+002
1.345119e+002, 6.825165e+002
1.349940e+002, 6.821993e+002
1.354761e+002, 6.820577e+002
1.359583e+002, 6.827259e+002
1.364404e+002, 6.859076e+002
1.369225e+002, 6.877888e+002
1.374046e+002, 6.872454e+002
1.378867e+002, 6.854701e+002
1.383688e+002, 6.841756e+002
1.388510e+002, 6.841963e+002
1.393331e+002, 6.850919e+002
1.398152e+002, 6.854542e+002
1.402973e+002, 6.853610e+002
1.407794e+002, 6.848083e+002
1.412615e+002, 6.833295e+002
1.417437e+002, 6.811971e+002
1.422258e+002, 6.797053e+002
1.427079e+002, 6.799898e+002
1.431900e+002, 6.811339e+002
1.436721e+002, 6.810383e+002
1.441542e+002, 6.786225e+002
1.446364e+002, 6.761598e+002
1.451185e+002, 6.762208e+002
1.456006e+002, 6.792227e+002
1.460827e+002, 6.822066e+002
1.465648e+002, 6.839791e+002
1.470469e+002, 6.848265e+002
1.475291e+002, 6.848057e+002
1.480112e+002, 6.837341e+002
1.484933e+002, 6.820212e+002
1.489754e+002, 6.804362e+002
1.494575e+002, 6.784640e+002
1.499396e+002, 6.776548e+002
1.504218e+002, 6.789756e+002
1.509039e+002, 6.814163e+002
1.513860e+002, 6.836896e+002
1.518681e+002, 6.850722e+002
1.523502e+002, 6.856303e+002
1.528323e+002, 6.858849e+002
1.533145e+002, 6.853054e+002
1.537966e+002, 6.849196e+002
1.542787e+002, 6.851264e+002
1.547608e+002, 6.856891e+002
1.552429e+002, 6.861202e+002
1.557250e+002, 6.860194e+002
1.562072e+002, 6.853387e+002
1.566893e+002, 6.847809e+002
1.571714e+002, 6.845342e+002
1.576535e+002, 6.842045e+002
1.581356e+002, 6.831895e+002
1.586177e+002, 6.817555e+002
1.590999e+002, 6.810450e+002
1.595820e+002, 6.823732e+002
1.600641e+002, 6.862399e+002
1.605462e+002, 6.882193e+002
1.610283e+002, 6.873593e+002
1.615104e+002, 6.853809e+002
1.619926e+002, 6.831644e+002
1.624747e+002, 6.808645e+002
1.629568e+002, 6.790674e+002
1.634389e+002, 6.787335e+002
1.639210e+002, 6.797761e+002
1.644031e+002, 6.804570e+002
1.648853e+002, 6.800914e+002
1.653674e+002, 6.793160e+002
1.658495e+002, 6.791418e+002
1.663316e+002, 6.798713e+002
1.668137e+002, 6.807689e+002
1.672958e+002, 6.811976e+002
1.677780e+002, 6.812365e+002
1.682601e+002, 6.810480e+002
1.687422e+002, 6.804973e+002
1.692243e+002, 6.797264e+002
1.697064e+002, 6.793884e+002
1.701885e+002, 6.799927e+002
1.706707e+002, 6.804666e+002
1.711528e+002, 6.799788e+002
1.716349e+002, 6.787128e+002
1.721170e+002, 6.774577e+002
1.725991e+002, 6.769031e+002
1.730812e+002, 6.770882e+002
1.735634e+002, 6.771239e+002
1.740455e+002, 6.766729e+002
1.745276e+002, 6.762974e+002
1.750097e+002, 6.763212e+002
1.754918e+002, 6.766940e+002
1.759739e+002, 6.771010e+002
1.764561e+002, 6.771592e+002
1.769382e+002, 6.767050e+002
1.774203e+002, 6.764512e+002
1.779024e+002, 6.763752e+002
1.783845e+002, 6.764828e+002
1.788666e+002, 6.767505e+002
1.793488e+002, 6.771895e+002
1.798309e+002, 6.778870e+002
1.803130e+002, 6.790604e+002
1.807951e+002, 6.814166e+002
1.812772e+002, 6.825207e+002
1.817593e+002, 6.816212e+002
1.822415e+002, 6.801379e+002
1.827236e+002, 6.790531e+002
1.832057e+002, 6.786164e+002
1.836878e+002, 6.785059e+002
1.841699e+002, 6.782275e+002
1.846520e+002, 6.775636e+002
1.851342e+002, 6.772054e+002
1.856163e+002, 6.771913e+002
1.860984e+002, 6.774844e+002
1.865805e+002, 6.782523e+002
1.870626e+002, 6.795906e+002
1.875447e+002, 6.809023e+002
1.880269e+002, 6.808889e+002
1.885090e+002, 6.790419e+002
1.889911e+002, 6.781140e+002
1.894732e+002, 6.793063e+002
1.899553e+002, 6.817228e+002
1.904374e+002, 6.839258e+002
1.909196e+002, 6.856459e+002
1.914017e+002, 6.867233e+002
1.918838e+002, 6.867138e+002
1.923659e+002, 6.855452e+002
1.928480e+002, 6.845685e+002
1.933301e+002, 6.844831e+002
1.938123e+002, 6.851065e+002
1.942944e+002, 6.857872e+002
1.947765e+002, 6.863842e+002
1.952586e+002, 6.869574e+002
1.957407e+002, 6.878108e+002
1.962228e+002, 6.889569e+002
1.967050e+002, 6.895133e+002
1.971871e+002, 6.885648e+002
1.976692e+002, 6.861832e+002
1.981513e+002, 6.839105e+002
1.986334e+002, 6.815228e+002
1.991155e+002, 6.798682e+002
1.995977e+002, 6.797795e+002
2.000798e+002, 6.812278e+002
2.005619e+002, 6.830300e+002
2.010440e+002, 6.841331e+002
2.015261e+002, 6.844955e+002
2.020082e+002, 6.844839e+002
2.024904e+002, 6.840555e+002
2.029725e+002, 6.833079e+002
2.034546e+002, 6.820315e+002
2.039367e+002, 6.803065e+002
2.044188e+002, 6.786570e+002
2.049009e+002, 6.777949e+002
2.053831e+002, 6.779969e+002
2.058652e+002, 6.781578e+002
2.063473e+002, 6.782798e+002
2.068294e+002, 6.783203e+002
2.073115e+002, 6.783537e+002
2.077936e+002, 6.783400e+002
2.082758e+002, 6.780646e+002
2.087579e+002, 6.771455e+002
2.092400e+002, 6.750408e+002
2.097221e+002, 6.734913e+002
2.102042e+002, 6.723668e+002
2.106863e+002, 6.717678e+002
2.111685e+002, 6.720767e+002
2.116506e+002, 6.732269e+002
2.121327e+002, 6.744729e+002
2.126148e+002, 6.747111e+002
2.130969e+002, 6.733157e+002
2.135790e+002, 6.721221e+002
2.140612e+002, 6.713696e+002
2.145433e+002, 6.706595e+002
2.150254e+002, 6.695009e+002
2.155075e+002, 6.678333e+002
2.159896e+002, 6.662016e+002
2.164717e+002, 6.654147e+002
2.169539e+002, 6.658969e+002
2.174360e+002, 6.663114e+002
2.179181e+002, 6.665672e+002
2.184002e+002, 6.667805e+002
2.188823e+002, 6.671324e+002
2.193644e+002, 6.676674e+002
2.198466e+002, 6.681433e+002
2.203287e+002, 6.681746e+002
2.208108e+002, 6.676702e+002
2.212929e+002, 6.672627e+002
2.217750e+002, 6.671776e+002
2.222571e+002, 6.671813e+002
2.227393e+002, 6.669821e+002
2.232214e+002, 6.665135e+002
2.237035e+002, 6.658856e+002
2.241856e+002, 6.650517e+002
2.246677e+002, 6.640228e+002
2.251498e+002, 6.634765e+002
2.256320e+002, 6.642510e+002
2.261141e+002, 6.654574e+002
2.265962e+002, 6.653463e+002
2.270783e+002, 6.632067e+002
2.275604e+002, 6.610198e+002
2.280425e+002, 6.611738e+002
2.285247e+002, 6.631201e+002
2.290068e+002, 6.647516e+002
2.294889e+002, 6.653605e+002
2.299710e+002, 6.650772e+002
2.304531e+002, 6.638585e+002
2.309352e+002, 6.609940e+002
2.314174e+002, 6.587268e+002
2.318995e+002, 6.593086e+002
2.323816e+002, 6.618714e+002
2.328637e+002, 6.641172e+002
2.333458e+002, 6.645334e+002
2.338279e+002, 6.637370e+002
2.343101e+002, 6.639541e+002
2.347922e+002, 6.661741e+002
2.352743e+002, 6.677603e+002
2.357564e+002, 6.666677e+002
2.362385e+002, 6.639462e+002
2.367206e+002, 6.617269e+002
2.372028e+002, 6.615857e+002
2.376849e+002, 6.629381e+002
2.381670e+002, 6.631432e+002
2.386491e+002, 6.611521e+002
2.391312e+002, 6.595762e+002
2.396133e+002, 6.599682e+002
2.400955e+002, 6.613855e+002
2.405776e+002, 6.621140e+002
2.410597e+002, 6.607574e+002
2.415418e+002, 6.580089e+002
2.420239e+002, 6.574402e+002
2.425060e+002, 6.613393e+002
2.429882e+002, 6.643171e+002
2.434703e+002, 6.642184e+002
2.439524e+002, 6.624086e+002
2.444345e+002, 6.609412e+002
2.449166e+002, 6.610693e+002
2.453987e+002, 6.623559e+002
2.458809e+002, 6.626852e+002
2.463630e+002, 6.608536e+002
2.468451e+002, 6.595987e+002
2.473272e+002, 6.598727e+002
2.478093e+002, 6.609041e+002
2.482914e+002, 6.617634e+002
2.487736e+002, 6.619678e+002
2.492557e+002, 6.615559e+002
2.497378e+002, 6.606373e+002
2.502199e+002, 6.580019e+002
2.507020e+002, 6.564106e+002
2.511841e+002, 6.570695e+002
2.516663e+002, 6.586641e+002
2.521484e+002, 6.594859e+002
2.526305e+002, 6.586934e+002
2.531126e+002, 6.569949e+002
2.535947e+002, 6.566391e+002
2.540768e+002, 6.598344e+002
2.545590e+002, 6.617438e+002
2.550411e+002, 6.612002e+002
2.555232e+002, 6.595818e+002
2.560053e+002, 6.584994e+002
2.564874e+002, 6.586318e+002
2.569695e+002, 6.593485e+002
2.574517e+002, 6.591231e+002
2.579338e+002, 6.562595e+002
2.584159e+002, 6.544717e+002
2.588980e+002, 6.541916e+002
2.593801e+002, 6.548145e+002
2.598622e+002, 6.559625e+002
2.603444e+002, 6.574749e+002
2.608265e+002, 6.589171e+002
2.613086e+002, 6.594478e+002
2.617907e+002, 6.582415e+002
2.622728e+002, 6.573574e+002
2.627549e+002, 6.568762e+002
2.632371e+002, 6.566939e+002
2.637192e+002, 6.567394e+002
2.642013e+002, 6.569879e+002
2.646834e+002, 6.574107e+002
2.651655e+002, 6.580266e+002
2.656476e+002, 6.591291e+002
2.661298e+002, 6.596218e+002
2.666119e+002, 6.590830e+002
2.670940e+002, 6.581527e+002
2.675761e+002, 6.573446e+002
2.680582e+002, 6.567716e+002
2.685403e+002, 6.564168e+002
2.690225e+002, 6.563026e+002
2.695046e+002, 6.565158e+002
2.699867e+002, 6.565983e+002
2.704688e+002, 6.563353e+002
2.709509e+002, 6.560706e+002
2.714330e+002, 6.562178e+002
2.719152e+002, 6.567975e+002
2.723973e+002, 6.572850e+002
2.728794e+002, 6.570421e+002
2.733615e+002, 6.560129e+002
2.738436e+002, 6.557015e+002
2.743257e+002, 6.570744e+002
2.748079e+002, 6.585039e+002
2.752900e+002, 6.584205e+002
2.757721e+002, 6.568438e+002
2.762542e+002, 6.553229e+002
2.767363e+002, 6.550422e+002
2.772184e+002, 6.559273e+002
2.777006e+002, 6.566110e+002
2.781827e+002, 6.570844e+002
2.786648e+002, 6.573536e+002
2.791469e+002, 6.574296e+002
2.796290e+002, 6.573087e+002
2.801111e+002, 6.569274e+002
2.805933e+002, 6.561168e+002
2.810754e+002, 6.550522e+002
2.815575e+002, 6.543154e+002
2.820396e+002, 6.538916e+002
2.825217e+002, 6.538058e+002
2.830038e+002, 6.543738e+002
2.834860e+002, 6.554274e+002
2.839681e+002, 6.560361e+002
2.844502e+002, 6.556058e+002
2.849323e+002, 6.546094e+002
2.854144e+002, 6.540872e+002
2.858965e+002, 6.541879e+002
2.863787e+002, 6.543709e+002
2.868608e+002, 6.542068e+002
2.873429e+002, 6.538490e+002
2.878250e+002, 6.539498e+002
2.883071e+002, 6.549905e+002
2.887892e+002, 6.562047e+002
2.892714e+002, 6.564387e+002
2.897535e+002, 6.556155e+002
2.902356e+002, 6.546742e+002
2.907177e+002, 6.539308e+002
2.911998e+002, 6.533935e+002
2.916819e+002, 6.531202e+002
2.921641e+002, 6.532113e+002
2.926462e+002, 6.533997e+002
2.931283e+002, 6.533093e+002
2.936104e+002, 6.529825e+002
2.940925e+002, 6.528576e+002
2.945746e+002, 6.531588e+002
2.950568e+002, 6.537712e+002
2.955389e+002, 6.545458e+002
2.960210e+002, 6.555617e+002
2.965031e+002, 6.564518e+002
2.969852e+002, 6.568059e+002
2.974673e+002, 6.567747e+002
2.979495e+002, 6.567165e+002
2.984316e+002, 6.567652e+002
2.989137e+002, 6.568459e+002
2.993958e+002, 6.567944e+002
2.998779e+002, 6.565558e+002
3.003600e+002, 6.564403e+002
3.008422e+002, 6.569027e+002
3.013243e+002, 6.575941e+002
3.018064e+002, 6.578365e+002
3.022885e+002, 6.569498e+002
3.027706e+002, 6.560729e+002
3.032527e+002, 6.569011e+002
3.037349e+002, 6.595974e+002
3.042170e+002, 6.616776e+002
3.046991e+002, 6.612838e+002
3.051812e+002, 6.599147e+002
3.056633e+002, 6.596544e+002
3.061454e+002, 6.610299e+002
3.066276e+002, 6.628485e+002
3.071097e+002, 6.643370e+002
3.075918e+002, 6.654772e+002
3.080739e+002, 6.658459e+002
3.085560e+002, 6.646295e+002
3.090381e+002, 6.631676e+002
3.095203e+002, 6.631437e+002
3.100024e+002, 6.647414e+002
3.104845e+002, 6.662667e+002
3.109666e+002, 6.661044e+002
3.114487e+002, 6.647175e+002
3.119308e+002, 6.645463e+002
3.124130e+002, 6.666598e+002
3.128951e+002, 6.692492e+002
3.133772e+002, 6.707076e+002
3.138593e+002, 6.711515e+002
3.143414e+002, 6.711890e+002
3.148235e+002, 6.706598e+002
3.153057e+002, 6.699632e+002
3.157878e+002, 6.702173e+002
3.162699e+002, 6.717432e+002
3.167520e+002, 6.736777e+002
3.172341e+002, 6.754511e+002
3.177162e+002, 6.771327e+002
3.181984e+002, 6.789002e+002
3.186805e+002, 6.811060e+002
3.191626e+002, 6.832980e+002
3.196447e+002, 6.846813e+002
3.201268e+002, 6.851385e+002
3.206089e+002, 6.853842e+002
3.210911e+002, 6.855797e+002
3.215732e+002, 6.858876e+002
3.220553e+002, 6.865057e+002
3.225374e+002, 6.873312e+002
3.230195e+002, 6.887179e+002
3.235016e+002, 6.914252e+002
3.239838e+002, 6.954841e+002
3.244659e+002, 6.989177e+002
3.249480e+002, 7.004013e+002
3.254301e+002, 7.012645e+002
3.259122e+002, 7.031351e+002
3.263943e+002, 7.062381e+002
3.268765e+002, 7.096934e+002
3.273586e+002, 7.130709e+002
3.278407e+002, 7.163411e+002
3.283228e+002, 7.191810e+002
3.288049e+002, 7.212262e+002
3.292870e+002, 7.232234e+002
3.297692e+002, 7.260251e+002
3.302513e+002, 7.295485e+002
3.307334e+002, 7.329794e+002
3.312155e+002, 7.356744e+002
3.316976e+002, 7.380067e+002
3.321797e+002, 7.409515e+002
3.326619e+002, 7.448126e+002
3.331440e+002, 7.487110e+002
3.336261e+002, 7.518402e+002
3.341082e+002, 7.544428e+002
3.345903e+002, 7.570736e+002
3.350724e+002, 7.595477e+002
3.355546e+002, 7.622875e+002
3.360367e+002, 7.661768e+002
3.365188e+002, 7.713483e+002
3.370009e+002, 7.760805e+002
3.374830e+002, 7.789343e+002
3.379651e+002, 7.808270e+002
3.384473e+002, 7.835585e+002
3.389294e+002, 7.879180e+002
3.394115e+002, 7.922036e+002
3.398936e+002, 7.950364e+002
3.403757e+002, 7.965430e+002
3.408578e+002, 7.975504e+002
3.413400e+002, 7.982844e+002
3.418221e+002, 7.987155e+002
3.423042e+002, 7.990699e+002
3.427863e+002, 7.995555e+002
3.432684e+002, 7.989749e+002
3.437505e+002, 7.963683e+002
3.442327e+002, 7.922755e+002
3.447148e+002, 7.880011e+002
3.451969e+002, 7.838653e+002
3.456790e+002, 7.794706e+002
3.461611e+002, 7.739475e+002
3.466432e+002, 7.675058e+002
3.471254e+002, 7.616718e+002
3.476075e+002, 7.571959e+002
3.480896e+002, 7.533741e+002
3.485717e+002, 7.495579e+002
3.490538e+002, 7.456870e+002
3.495359e+002, 7.415599e+002
3.500181e+002, 7.368842e+002
3.505002e+002, 7.317822e+002
3.509823e+002, 7.268757e+002
3.514644e+002, 7.223865e+002
3.519465e+002, 7.179681e+002
3.524286e+002, 7.131231e+002
3.529108e+002, 7.080424e+002
3.533929e+002, 7.035553e+002
3.538750e+002, 7.001341e+002
3.543571e+002, 6.975378e+002
3.548392e+002, 6.952054e+002
3.553214e+002, 6.934133e+002
3.558035e+002, 6.912595e+002
3.562856e+002, 6.879210e+002
3.567677e+002, 6.841018e+002
3.572498e+002, 6.810753e+002
3.577319e+002, 6.792242e+002
3.582141e+002, 6.781130e+002
3.586962e+002, 6.772905e+002
3.591783e+002, 6.768538e+002
3.596604e+002, 6.760934e+002
3.601425e+002, 6.748107e+002
3.606246e+002, 6.732409e+002
3.611068e+002, 6.714218e+002
3.615889e+002, 6.694060e+002
3.620710e+002, 6.676751e+002
3.625531e+002, 6.666392e+002
3.630352e+002, 6.663181e+002
3.635173e+002, 6.661971e+002
3.639995e+002, 6.669958e+002
3.644816e+002, 6.672733e+002
3.649637e+002, 6.656693e+002
3.654458e+002, 6.629466e+002
3.659279e+002, 6.611362e+002
3.664100e+002, 6.613799e+002
3.668922e+002, 6.630406e+002
3.673743e+002, 6.640634e+002
3.678564e+002, 6.639442e+002
3.683385e+002, 6.639457e+002
3.688206e+002, 6.644952e+002
3.693027e+002, 6.651305e+002
3.697849e+002, 6.650983e+002
3.702670e+002, 6.642355e+002
3.707491e+002, 6.633742e+002
3.712312e+002, 6.637181e+002
3.717133e+002, 6.657870e+002
3.721954e+002, 6.675565e+002
3.726776e+002, 6.692109e+002
3.731597e+002, 6.704415e+002
3.736418e+002, 6.706880e+002
3.741239e+002, 6.702260e+002
3.746060e+002, 6.700881e+002
3.750881e+002, 6.711689e+002
3.755703e+002, 6.734185e+002
3.760524e+002, 6.751335e+002
3.765345e+002, 6.752050e+002
3.770166e+002, 6.760302e+002
3.774987e+002, 6.787327e+002
3.779808e+002, 6.823855e+002
3.784630e+002, 6.856358e+002
3.789451e+002, 6.878600e+002
3.794272e+002, 6.894397e+002
3.799093e+002, 6.912667e+002
3.803914e+002, 6.935042e+002
3.808735e+002, 6.957509e+002
3.813557e+002, 6.978888e+002
3.818378e+002, 7.000940e+002
3.823199e+002, 7.024636e+002
3.828020e+002, 7.050395e+002
3.832841e+002, 7.078379e+002
3.837662e+002, 7.108380e+002
3.842484e+002, 7.140188e+002
3.847305e+002, 7.176145e+002
3.852126e+002, 7.220612e+002
3.856947e+002, 7.265323e+002
3.861768e+002, 7.308322e+002
3.866589e+002, 7.349517e+002
3.871411e+002, 7.389281e+002
3.876232e+002, 7.427842e+002
3.881053e+002, 7.465476e+002
3.885874e+002, 7.502834e+002
3.890695e+002, 7.539733e+002
3.895516e+002, 7.576588e+002
3.900338e+002, 7.615975e+002
3.905159e+002, 7.654290e+002
3.909980e+002, 7.688040e+002
3.914801e+002, 7.716351e+002
3.919622e+002, 7.740809e+002
3.924443e+002, 7.764720e+002
3.929265e+002, 7.788861e+002
3.934086e+002, 7.805082e+002
3.938907e+002, 7.811732e+002
3.943728e+002, 7.809816e+002
3.948549e+002, 7.797811e+002
3.953370e+002, 7.777463e+002
3.958192e+002, 7.754852e+002
3.963013e+002, 7.736832e+002
3.967834e+002, 7.719406e+002
3.972655e+002, 7.688896e+002
3.977476e+002, 7.642922e+002
3.982297e+002, 7.590133e+002
3.987119e+002, 7.527668e+002
3.991940e+002, 7.463241e+002
3.996761e+002, 7.408162e+002
4.001582e+002, 7.367618e+002
4.006403e+002, 7.331711e+002
4.011224e+002, 7.291239e+002
4.016046e+002, 7.246061e+002
4.020867e+002, 7.199198e+002
4.025688e+002, 7.149337e+002
4.030509e+002, 7.100645e+002
4.035330e+002, 7.057034e+002
4.040151e+002, 7.018377e+002
4.044973e+002, 6.984592e+002
4.049794e+002, 6.961151e+002
4.054615e+002, 6.941019e+002
4.059436e+002, 6.909844e+002
4.064257e+002, 6.864915e+002
4.069078e+002, 6.819229e+002
4.073900e+002, 6.783020e+002
4.078721e+002, 6.755614e+002
4.083542e+002, 6.730734e+002
4.088363e+002, 6.709178e+002
4.093184e+002, 6.689131e+002
4.098005e+002, 6.669460e+002
4.102827e+002, 6.650436e+002
4.107648e+002, 6.633306e+002
4.112469e+002, 6.618660e+002
4.117290e+002, 6.606144e+002
4.122111e+002, 6.595540e+002
4.126932e+002, 6.588162e+002
4.131754e+002, 6.579147e+002
4.136575e+002, 6.566638e+002
4.141396e+002, 6.552628e+002
4.146217e+002, 6.538398e+002
4.151038e+002, 6.524433e+002
4.155859e+002, 6.511869e+002
4.160681e+002, 6.501724e+002
4.165502e+002, 6.494018e+002
4.170323e+002, 6.489234e+002
4.175144e+002, 6.491050e+002
