##NAMES=Cubanite
##RRUFFID=R061068
##IDEAL CHEMISTRY=Cu^1+^Fe^2+^Fe^3+^S^2-^_3_
##LOCALITY=Henderson #2 mine, Chibougamau, Quebec, Canada
##OWNER=RRUFF
##SOURCE=Lloyd Twaites
##DESCRIPTION=Bronze metallic prismatic crystals
##STATUS=The identification of this mineral is confirmed by single-crystal X-ray diffraction and chemical analysis.
##URL=rruff.info/R061068
##MEASURED CHEMISTRY=Cu_1.00_Fe_2.00_S_3.00_
116.2618, 800.5157
116.7439, 829.7860
117.2261, 858.3448
117.7082, 892.0687
118.1903, 938.2250
118.6724, 984.8932
119.1545, 1025.156
119.6366, 1059.604
120.1188, 1094.636
120.6009, 1125.440
121.0830, 1160.949
121.5651, 1212.333
122.0472, 1311.625
122.5293, 1414.280
123.0115, 1475.904
123.4936, 1491.060
123.9757, 1490.447
124.4578, 1490.748
124.9399, 1493.956
125.4220, 1487.469
125.9042, 1492.490
126.3863, 1511.985
126.8684, 1521.690
127.3505, 1518.546
127.8326, 1507.183
128.3147, 1490.128
128.7969, 1468.007
129.2790, 1447.326
129.7611, 1437.147
130.2432, 1433.160
130.7253, 1418.267
131.2074, 1385.622
131.6895, 1341.891
132.1717, 1299.995
132.6538, 1258.912
133.1359, 1224.655
133.6180, 1205.625
134.1001, 1201.588
134.5822, 1198.512
135.0644, 1191.661
135.5465, 1181.532
136.0286, 1147.408
136.5107, 1173.921
136.9928, 1186.548
137.4749, 1186.035
137.9571, 1133.026
138.4392, 1147.804
138.9213, 1135.417
139.4034, 1121.916
139.8855, 1146.235
140.3676, 1100.863
140.8498, 1124.581
141.3319, 1120.720
141.8140, 1129.481
142.2961, 1110.910
142.7782, 1100.781
143.2603, 1117.994
143.7425, 1120.066
144.2246, 1098.348
144.7067, 1107.912
145.1888, 1089.636
145.6709, 1083.048
146.1530, 1072.256
146.6352, 1067.213
147.1173, 1075.136
147.5994, 1078.470
148.0815, 1073.348
148.5636, 1058.221
149.0457, 1044.903
149.5279, 1030.684
150.0100, 1019.044
150.4921, 1014.271
150.9742, 1026.960
151.4563, 1036.129
151.9384, 1034.720
152.4206, 1015.044
152.9027, 1005.507
153.3848, 1018.047
153.8669, 1040.604
154.3490, 1052.919
154.8311, 1046.764
155.3133, 1033.977
155.7954, 1018.032
156.2775, 992.0450
156.7596, 974.9498
157.2417, 976.3425
157.7238, 990.6452
158.2060, 1000.817
158.6881, 997.2256
159.1702, 991.0920
159.6523, 989.1842
160.1344, 997.7054
160.6165, 1006.050
161.0986, 1011.601
161.5808, 1014.370
162.0629, 1014.258
162.5450, 1005.783
163.0271, 996.6154
163.5092, 993.8465
163.9913, 1010.520
164.4735, 1025.566
164.9556, 1024.804
165.4377, 1007.421
165.9198, 992.7629
166.4019, 992.3041
166.8840, 1001.015
167.3662, 1011.755
167.8483, 1021.655
168.3304, 1032.334
168.8125, 1047.368
169.2946, 1068.778
169.7767, 1084.747
170.2589, 1083.771
170.7410, 1070.932
171.2231, 1057.375
171.7052, 1047.870
172.1873, 1041.010
172.6694, 1034.154
173.1516, 1024.883
173.6337, 1020.749
174.1158, 1033.816
174.5979, 1059.957
175.0800, 1083.416
175.5621, 1094.531
176.0443, 1096.879
176.5264, 1095.202
177.0085, 1088.131
177.4906, 1080.864
177.9727, 1082.361
178.4548, 1091.510
178.9370, 1098.588
179.4191, 1093.151
179.9012, 1079.947
180.3833, 1070.353
180.8654, 1069.678
181.3475, 1072.961
181.8297, 1071.544
182.3118, 1065.374
182.7939, 1057.716
183.2760, 1052.108
183.7581, 1047.777
184.2402, 1041.364
184.7224, 1033.623
185.2045, 1022.703
185.6866, 1000.053
186.1687, 963.4888
186.6508, 928.7015
187.1329, 914.4266
187.6151, 919.2125
188.0972, 929.1569
188.5793, 942.1461
189.0614, 956.4491
189.5435, 963.0592
190.0257, 960.5016
190.5078, 954.4200
190.9899, 954.5146
191.4720, 960.7231
191.9541, 963.1175
192.4362, 953.9316
192.9183, 934.5879
193.4005, 920.4020
193.8826, 912.5012
194.3647, 909.0670
194.8468, 907.2608
195.3289, 907.2017
195.8110, 907.3689
196.2932, 906.8985
196.7753, 905.7731
197.2574, 904.2952
197.7395, 902.1241
198.2216, 899.9114
198.7037, 899.2440
199.1859, 900.1484
199.6680, 902.4977
200.1501, 907.2339
200.6322, 914.7758
201.1143, 920.0885
201.5964, 923.3516
202.0786, 923.6965
202.5607, 914.9818
203.0428, 893.5930
203.5249, 874.1948
204.0070, 871.6460
204.4891, 889.4833
204.9713, 901.6185
205.4534, 902.0585
205.9355, 892.5460
206.4176, 885.0300
206.8997, 879.0721
207.3818, 876.0093
207.8640, 877.8556
208.3461, 885.7692
208.8282, 894.2080
209.3103, 903.7247
209.7924, 914.1124
210.2745, 913.8817
210.7567, 898.1685
211.2388, 879.2182
211.7209, 872.2853
212.2030, 881.4244
212.6851, 890.2093
213.1672, 894.2368
213.6494, 893.2415
214.1315, 891.1944
214.6136, 886.5229
215.0957, 882.5125
215.5778, 885.2075
216.0599, 899.5640
216.5421, 908.4813
217.0242, 904.2228
217.5063, 882.7639
217.9884, 872.3849
218.4705, 878.0407
218.9526, 890.6505
219.4348, 894.1514
219.9169, 883.6818
220.3990, 874.2778
220.8811, 872.1842
221.3632, 880.5583
221.8453, 883.8173
222.3274, 878.8787
222.8096, 870.6243
223.2917, 869.4052
223.7738, 879.5725
224.2559, 889.2073
224.7380, 892.5853
225.2201, 885.1889
225.7023, 884.5943
226.1844, 894.7155
226.6665, 910.2415
227.1486, 917.5500
227.6307, 911.0365
228.1128, 904.7955
228.5950, 905.7768
229.0771, 918.9639
229.5592, 927.2297
230.0413, 927.4124
230.5234, 922.9255
231.0055, 924.9093
231.4877, 939.3730
231.9698, 951.8535
232.4519, 954.0665
232.9340, 938.7102
233.4161, 929.1157
233.8982, 927.2833
234.3804, 931.8830
234.8625, 938.2898
235.3446, 949.8198
235.8267, 958.8438
236.3088, 960.4251
236.7909, 949.6623
237.2731, 941.5799
237.7552, 936.5588
238.2373, 934.8316
238.7194, 938.1985
239.2015, 950.3449
239.6836, 962.9319
240.1658, 970.0812
240.6479, 967.4375
241.1300, 968.3911
241.6121, 975.4029
242.0942, 987.3616
242.5763, 996.5073
243.0585, 999.3329
243.5406, 1003.497
244.0227, 1015.788
244.5048, 1045.163
244.9869, 1063.507
245.4690, 1064.115
245.9512, 1049.482
246.4333, 1041.024
246.9154, 1041.248
247.3975, 1044.709
247.8796, 1047.484
248.3617, 1048.167
248.8439, 1051.493
249.3260, 1060.220
249.8081, 1073.261
250.2902, 1077.969
250.7723, 1067.583
251.2544, 1057.074
251.7366, 1058.696
252.2187, 1078.215
252.7008, 1097.323
253.1829, 1113.705
253.6650, 1127.560
254.1471, 1140.931
254.6292, 1153.900
255.1114, 1166.374
255.5935, 1178.244
256.0756, 1189.973
256.5577, 1200.081
257.0398, 1207.369
257.5219, 1212.301
258.0041, 1220.632
258.4862, 1233.515
258.9683, 1248.083
259.4504, 1261.965
259.9325, 1274.598
260.4146, 1287.857
260.8968, 1301.709
261.3789, 1316.332
261.8610, 1334.491
262.3431, 1360.446
262.8252, 1383.235
263.3073, 1389.767
263.7895, 1370.815
264.2716, 1363.263
264.7537, 1375.828
265.2358, 1406.564
265.7179, 1436.166
266.2000, 1466.029
266.6822, 1492.720
267.1643, 1513.038
267.6464, 1525.339
268.1285, 1536.414
268.6106, 1547.029
269.0927, 1557.216
269.5749, 1566.877
270.0570, 1575.030
270.5391, 1584.488
271.0212, 1596.995
271.5033, 1611.736
271.9854, 1633.900
272.4676, 1669.106
272.9497, 1713.359
273.4318, 1740.459
273.9139, 1745.350
274.3960, 1746.342
274.8781, 1759.597
275.3603, 1786.425
275.8424, 1816.511
276.3245, 1848.178
276.8066, 1881.512
277.2887, 1919.737
277.7708, 1965.948
278.2530, 2006.466
278.7351, 2024.059
279.2172, 2016.555
279.6993, 2019.496
280.1814, 2043.323
280.6635, 2081.440
281.1457, 2110.087
281.6278, 2128.809
282.1099, 2141.825
282.5920, 2151.457
283.0741, 2157.723
283.5562, 2164.428
284.0384, 2173.055
284.5205, 2182.231
285.0026, 2188.556
285.4847, 2192.259
285.9668, 2190.667
286.4489, 2181.656
286.9311, 2165.275
287.4132, 2142.281
287.8953, 2112.028
288.3774, 2075.676
288.8595, 2036.411
289.3416, 1993.879
289.8238, 1948.699
290.3059, 1906.578
290.7880, 1864.000
291.2701, 1799.271
291.7522, 1698.608
292.2343, 1585.957
292.7165, 1506.456
293.1986, 1459.662
293.6807, 1421.623
294.1628, 1375.025
294.6449, 1323.679
295.1270, 1280.078
295.6092, 1247.054
296.0913, 1221.443
296.5734, 1199.841
297.0555, 1181.865
297.5376, 1163.711
298.0197, 1138.423
298.5019, 1111.449
298.9839, 1095.018
299.4661, 1093.741
299.9482, 1097.747
300.4303, 1094.991
300.9124, 1086.744
301.3945, 1078.345
301.8766, 1071.929
302.3588, 1067.796
302.8409, 1067.177
303.3230, 1071.203
303.8051, 1075.901
304.2872, 1077.482
304.7693, 1076.523
305.2515, 1074.858
305.7336, 1069.018
306.2157, 1064.963
306.6978, 1071.652
307.1799, 1092.989
307.6620, 1114.254
308.1442, 1123.765
308.6263, 1124.224
309.1084, 1121.768
309.5905, 1116.229
310.0726, 1110.940
310.5547, 1108.879
311.0369, 1110.826
311.5190, 1113.733
312.0011, 1117.972
312.4832, 1121.714
312.9653, 1121.839
313.4474, 1115.281
313.9296, 1106.046
314.4117, 1095.476
314.8938, 1083.218
315.3759, 1073.373
315.8580, 1068.932
316.3401, 1067.639
316.8223, 1066.729
317.3044, 1065.068
317.7865, 1063.726
318.2686, 1062.843
318.7507, 1062.366
319.2328, 1063.433
319.7150, 1068.714
320.1971, 1074.781
320.6792, 1078.235
321.1613, 1070.493
321.6434, 1067.676
322.1255, 1076.480
322.6077, 1097.066
323.0898, 1115.985
323.5719, 1129.453
324.0540, 1141.227
324.5361, 1154.193
325.0182, 1173.093
325.5004, 1188.222
325.9825, 1194.755
326.4646, 1193.590
326.9467, 1199.389
327.4288, 1221.070
327.9109, 1244.347
328.3931, 1260.645
328.8752, 1262.418
329.3573, 1267.465
329.8394, 1279.692
330.3215, 1296.830
330.8036, 1307.032
331.2858, 1304.174
331.7679, 1300.983
332.2500, 1304.913
332.7321, 1325.248
333.2142, 1334.170
333.6964, 1327.425
334.1785, 1309.773
334.6606, 1295.201
335.1427, 1285.881
335.6248, 1275.376
336.1069, 1259.546
336.5891, 1234.800
337.0712, 1217.532
337.5533, 1209.554
338.0354, 1207.315
338.5175, 1204.569
338.9996, 1201.000
339.4818, 1198.139
339.9639, 1198.578
340.4460, 1202.833
340.9281, 1197.319
341.4102, 1179.686
341.8923, 1157.684
342.3745, 1141.465
342.8566, 1131.396
343.3387, 1122.321
343.8208, 1112.041
344.3029, 1101.112
344.7850, 1093.469
345.2672, 1089.464
345.7493, 1086.986
346.2314, 1083.366
346.7135, 1079.003
347.1956, 1076.909
347.6777, 1078.445
348.1599, 1082.546
348.6420, 1088.982
349.1241, 1097.555
349.6062, 1102.174
350.0883, 1091.794
350.5704, 1073.392
351.0526, 1039.098
351.5347, 1077.583
352.0168, 1102.182
352.4989, 1113.641
352.9810, 1072.606
353.4631, 1099.356
353.9453, 1098.943
354.4274, 1097.414
354.9095, 1133.705
355.3916, 1100.305
355.8737, 1135.996
356.3558, 1144.108
356.8380, 1164.843
357.3201, 1158.244
357.8022, 1160.087
358.2843, 1189.272
358.7664, 1203.317
359.2485, 1193.572
359.7307, 1215.110
360.2128, 1180.755
360.6949, 1195.445
361.1770, 1231.297
361.6591, 1222.925
362.1412, 1244.961
362.6233, 1242.286
363.1054, 1264.027
363.5876, 1284.300
364.0697, 1300.264
364.5518, 1315.554
365.0339, 1333.625
365.5160, 1357.905
365.9981, 1382.389
366.4803, 1404.950
366.9624, 1425.664
367.4445, 1448.256
367.9266, 1472.890
368.4087, 1499.545
368.8908, 1528.658
369.3730, 1565.043
369.8551, 1596.289
370.3372, 1620.196
370.8193, 1638.115
371.3014, 1656.253
371.7835, 1677.918
372.2657, 1695.802
372.7478, 1708.330
373.2299, 1721.688
373.7120, 1712.174
374.1941, 1675.270
374.6762, 1617.987
375.1584, 1551.433
375.6405, 1471.141
376.1226, 1394.155
376.6047, 1323.495
377.0868, 1259.708
377.5689, 1216.070
378.0511, 1196.688
378.5332, 1188.226
379.0153, 1172.413
379.4974, 1149.141
379.9795, 1128.088
380.4616, 1112.194
380.9438, 1101.114
381.4259, 1095.379
381.9080, 1095.201
382.3901, 1096.750
382.8722, 1097.267
383.3543, 1096.631
383.8365, 1094.237
384.3186, 1088.974
384.8007, 1082.932
385.2828, 1079.710
385.7649, 1078.881
386.2470, 1077.373
386.7292, 1071.470
387.2113, 1064.020
387.6934, 1060.657
388.1755, 1065.136
388.6576, 1066.318
389.1397, 1049.758
389.6219, 1022.350
390.1040, 999.5956
390.5861, 992.7643
391.0682, 991.4127
391.5503, 988.8605
392.0324, 984.6217
392.5146, 977.7377
392.9967, 965.9050
393.4788, 951.7697
393.9609, 912.9753
394.4430, 943.1835
394.9251, 959.5057
395.4073, 962.6880
395.8894, 913.3760
396.3715, 931.8499
396.8536, 923.1581
397.3357, 913.3526
397.8178, 941.3669
398.3000, 899.6899
398.7821, 927.1046
399.2642, 926.9392
399.7463, 939.3965
400.2284, 924.5206
400.7105, 918.0870
401.1927, 938.9952
401.6748, 944.7640
402.1569, 926.7417
402.6390, 940.0013
403.1211, 897.3698
403.6032, 903.7836
404.0854, 931.3580
404.5675, 902.1544
405.0496, 924.6069
405.5317, 931.9199
406.0138, 915.4415
406.4959, 930.2452
406.9781, 889.1577
407.4602, 897.1155
407.9423, 926.2342
408.4244, 911.1301
408.9065, 926.4336
409.3886, 930.1562
409.8708, 881.2486
410.3529, 923.8702
410.8350, 926.9084
411.3171, 889.3031
411.7992, 928.7885
412.2813, 896.7864
412.7635, 890.3010
413.2456, 903.0185
413.7277, 895.7176
414.2098, 919.9780
414.6919, 913.8332
415.1740, 904.9718
415.6562, 907.9656
416.1383, 877.3653
416.6204, 901.4543
417.1025, 897.2825
417.5846, 892.7314
418.0667, 886.9181
418.5489, 882.6202
419.0310, 883.3894
419.5131, 896.9219
419.9952, 909.6147
420.4773, 915.3346
420.9594, 914.5022
421.4416, 913.4965
421.9237, 913.7593
422.4058, 914.5059
422.8879, 915.2313
423.3700, 914.8415
423.8521, 915.7271
424.3342, 920.9269
424.8163, 927.4503
425.2985, 927.6828
425.7806, 911.7292
426.2627, 901.4828
426.7448, 906.7365
427.2269, 933.5320
427.7090, 947.3357
428.1912, 942.4741
428.6733, 930.9456
429.1554, 928.5061
429.6375, 938.2831
430.1196, 944.5444
430.6017, 942.6559
431.0839, 934.3842
431.5660, 928.5156
432.0481, 924.9285
432.5302, 924.4655
433.0123, 928.7668
433.4944, 937.3290
433.9766, 946.5573
434.4587, 956.8919
434.9408, 965.6516
435.4229, 968.3434
435.9050, 965.4982
436.3871, 959.9711
436.8693, 946.6119
437.3514, 933.9641
437.8335, 938.7111
438.3156, 962.8274
438.7977, 986.6111
439.2798, 991.6625
439.7620, 986.7372
440.2441, 984.7058
440.7262, 992.6321
441.2083, 1002.734
441.6904, 1012.094
442.1725, 1020.324
442.6547, 1025.499
443.1368, 1019.265
443.6189, 1014.659
444.1010, 1021.408
444.5831, 1051.254
445.0652, 1073.478
445.5474, 1076.920
446.0295, 1069.998
446.5116, 1068.475
446.9937, 1075.320
447.4758, 1085.789
447.9579, 1100.242
448.4401, 1119.464
448.9222, 1134.603
449.4043, 1142.296
449.8864, 1149.873
450.3685, 1164.817
450.8506, 1190.569
451.3328, 1212.575
451.8149, 1227.733
452.2970, 1238.561
452.7791, 1253.095
453.2612, 1271.931
453.7433, 1291.288
454.2255, 1305.928
454.7076, 1317.560
455.1897, 1341.372
455.6718, 1380.766
456.1539, 1422.053
456.6360, 1444.685
457.1182, 1453.651
457.6003, 1469.560
458.0824, 1506.121
458.5645, 1550.549
459.0466, 1584.606
459.5287, 1609.482
460.0109, 1633.570
460.4930, 1658.767
460.9751, 1673.970
461.4572, 1716.091
461.9393, 1752.045
462.4214, 1782.166
462.9036, 1788.988
463.3857, 1825.899
463.8678, 1850.749
464.3499, 1875.105
464.8320, 1916.250
465.3141, 1926.455
465.7963, 1967.341
466.2784, 1995.978
466.7605, 2017.708
467.2426, 2042.892
467.7247, 2061.347
468.2068, 2072.385
468.6890, 2077.928
469.1711, 2078.171
469.6532, 2073.127
470.1353, 2062.150
470.6174, 2043.129
471.0995, 2022.664
471.5817, 2004.830
472.0638, 1990.357
472.5459, 1970.727
473.0280, 1945.441
473.5101, 1916.139
473.9922, 1884.996
474.4744, 1851.903
474.9565, 1815.567
475.4386, 1775.579
475.9207, 1732.047
476.4028, 1682.290
476.8849, 1627.474
477.3671, 1575.881
477.8492, 1537.891
478.3313, 1505.556
478.8134, 1466.222
479.2955, 1415.399
479.7776, 1364.892
480.2598, 1323.983
480.7419, 1289.826
481.2240, 1257.799
481.7061, 1224.984
482.1882, 1194.833
482.6703, 1170.197
483.1525, 1151.100
483.6346, 1130.125
484.1167, 1102.133
484.5988, 1074.020
485.0809, 1050.152
485.5630, 1029.932
486.0451, 1015.494
486.5273, 1009.760
487.0094, 1009.283
487.4915, 1006.717
487.9736, 1003.402
488.4557, 995.1631
488.9378, 977.6857
489.4200, 925.4843
489.9021, 953.9373
490.3842, 968.5044
490.8663, 969.9316
491.3484, 918.8644
491.8305, 935.5829
492.3127, 925.1353
492.7948, 913.5745
493.2769, 939.8337
493.7590, 896.4016
494.2411, 922.0611
494.7232, 920.1403
495.2054, 930.8417
495.6875, 914.2106
496.1696, 906.0218
496.6517, 925.1749
497.1338, 929.1887
497.6159, 909.4108
498.0981, 920.9146
498.5802, 876.5278
499.0623, 881.1864
499.5444, 907.0057
500.0265, 888.6024
500.5086, 900.6064
500.9908, 901.0290
501.4729, 848.8222
501.9550, 888.1446
502.4371, 887.8834
502.9192, 846.9789
503.4013, 883.1649
503.8835, 847.8627
504.3656, 845.4292
504.8477, 840.1102
505.3298, 835.1259
505.8119, 835.8594
506.2940, 845.6784
506.7762, 861.2697
507.2583, 869.9398
507.7404, 871.2067
508.2225, 868.5576
508.7046, 860.0584
509.1867, 847.9611
509.6689, 848.2448
510.1510, 863.3849
510.6331, 880.5181
511.1152, 885.2190
511.5973, 880.4963
512.0795, 873.9202
512.5616, 865.8018
513.0437, 859.2892
513.5258, 860.6904
514.0079, 867.3946
514.4901, 868.8796
514.9722, 849.1644
515.4542, 829.3717
515.9363, 826.8102
516.4185, 849.0336
516.9006, 866.6837
517.3827, 868.0310
517.8648, 862.3055
518.3469, 859.6512
518.8290, 864.5079
519.3112, 868.6108
519.7933, 870.5534
520.2754, 870.8564
520.7575, 872.7338
521.2396, 878.9281
521.7217, 881.5750
522.2039, 874.8261
522.6860, 856.9097
523.1681, 845.0916
523.6502, 839.5837
524.1323, 839.5580
524.6144, 848.6566
525.0966, 864.9090
525.5787, 870.1248
526.0608, 852.9029
526.5429, 829.5344
527.0250, 830.2662
527.5071, 850.8060
527.9893, 868.6755
528.4714, 868.4985
528.9535, 860.0067
529.4356, 851.1263
529.9177, 842.0054
530.3998, 838.6725
530.8820, 853.5293
531.3641, 871.8897
531.8462, 878.6844
532.3283, 857.8378
532.8104, 838.6190
533.2925, 826.9518
533.7747, 821.7816
534.2568, 819.3402
534.7389, 820.6239
535.2210, 823.1531
535.7031, 826.2996
536.1852, 830.1646
536.6674, 833.7192
537.1495, 837.0720
537.6316, 839.8144
538.1137, 840.2238
538.5958, 837.9528
539.0779, 842.1240
539.5601, 858.0261
540.0422, 875.1719
540.5243, 867.5457
541.0064, 839.3917
541.4885, 819.5416
541.9706, 833.1273
542.4528, 859.7051
542.9349, 869.6445
543.4170, 862.1764
543.8991, 852.4081
544.3812, 848.3618
544.8633, 848.0118
545.3455, 849.7934
545.8276, 855.5035
546.3097, 859.3986
546.7918, 856.7872
547.2739, 851.3514
547.7560, 850.0721
548.2382, 859.1321
548.7203, 866.9429
549.2024, 870.9211
549.6845, 871.1025
550.1666, 869.3818
550.6487, 864.4720
551.1309, 859.7648
551.6130, 857.6531
552.0951, 858.4920
552.5772, 858.8691
553.0593, 858.2190
553.5414, 858.0474
554.0236, 862.8341
554.5057, 871.3855
554.9878, 874.2567
555.4699, 864.4266
555.9520, 850.3918
556.4341, 844.5555
556.9163, 846.0317
557.3984, 850.1525
557.8805, 858.7967
558.3626, 865.9591
558.8447, 864.3330
559.3268, 851.3392
559.8090, 840.4177
560.2911, 837.0789
560.7732, 838.4598
561.2553, 841.6382
561.7374, 849.7292
562.2195, 855.1797
562.7017, 853.8859
563.1838, 849.3525
563.6659, 853.5686
564.1480, 875.5305
564.6301, 888.8590
565.1122, 879.6545
565.5944, 848.0869
566.0765, 832.0823
566.5586, 833.9368
567.0407, 841.3240
567.5228, 842.7119
568.0049, 839.7334
568.4871, 841.5561
568.9692, 851.1846
569.4513, 861.5183
569.9334, 863.2928
570.4155, 859.0597
570.8976, 855.1843
571.3798, 858.2135
571.8619, 859.6541
572.3440, 848.1420
572.8261, 826.5933
573.3082, 816.7010
573.7903, 843.2520
574.2725, 871.2578
574.7546, 878.5151
575.2367, 850.5701
575.7188, 833.4833
576.2009, 833.4679
576.6830, 841.1487
577.1652, 847.1180
577.6473, 851.5479
578.1294, 853.2827
578.6115, 850.5085
579.0936, 846.0358
579.5757, 849.7657
580.0579, 862.2869
580.5400, 870.8277
581.0221, 865.9409
581.5042, 852.4945
581.9863, 841.6346
582.4684, 833.6030
582.9506, 830.6694
583.4327, 839.8410
583.9148, 853.1711
584.3969, 860.4137
584.8790, 858.2128
585.3611, 853.0676
585.8433, 842.9290
586.3254, 833.3349
586.8075, 832.4987
587.2896, 855.9526
587.7717, 873.7182
588.2538, 874.3089
588.7360, 861.3717
589.2181, 857.3766
589.7002, 868.7493
590.1823, 878.8018
590.6644, 878.8216
591.1465, 867.8050
591.6287, 857.8192
592.1108, 847.6633
592.5929, 842.5461
593.0750, 854.2516
593.5571, 878.1987
594.0392, 888.2062
594.5214, 875.1783
595.0035, 855.5088
595.4856, 847.7646
595.9677, 848.9946
596.4498, 851.8198
596.9319, 853.9349
597.4141, 855.5154
597.8962, 858.3141
598.3783, 861.7147
598.8604, 859.7979
599.3425, 843.1159
599.8246, 826.6911
600.3068, 818.7345
600.7889, 821.8398
601.2710, 827.3001
601.7531, 837.2126
602.2352, 847.4449
602.7173, 853.9976
603.1995, 856.5473
603.6816, 856.4681
604.1637, 852.5533
604.6458, 847.9866
605.1279, 852.5156
605.6100, 864.9738
606.0922, 871.9348
606.5743, 861.4959
607.0564, 844.2965
607.5385, 836.1861
608.0206, 836.6498
608.5027, 839.8792
608.9849, 844.4046
609.4670, 848.7507
609.9491, 851.5246
610.4312, 852.3503
610.9133, 852.3564
611.3954, 849.9458
611.8776, 847.7357
612.3597, 848.8093
612.8418, 857.5427
