##NAMES=Cumengeite
##RRUFFID=R060079
##IDEAL CHEMISTRY=Pb^2+^_21_Cu^2+^_20_Cl_42_(OH)_40_&#183;6H_2_O
##LOCALITY=Amelia mine, Santa Rosalia, Baja California, Mexico
##OWNER=RRUFF
##SOURCE=Marcus Origlieri
##DESCRIPTION=Blue pseudocubo-octahedral crystal
##STATUS=The identification of this mineral has been confirmed by single-crystal X-ray diffraction.
##URL=rruff.info/R060079
94.71033, 240.8176
95.19244, 259.7245
95.67456, 283.7909
96.15668, 310.3864
96.63879, 339.6547
97.12091, 372.2185
97.60303, 408.2104
98.08514, 447.7528
98.56726, 490.0666
99.04938, 535.2759
99.53149, 584.9912
100.0136, 640.5244
100.4957, 701.6810
100.9778, 764.3331
101.4600, 827.5267
101.9421, 892.3835
102.4242, 960.3293
102.9063, 1032.821
103.3884, 1105.833
103.8705, 1176.510
104.3527, 1245.991
104.8348, 1312.131
105.3169, 1375.780
105.7990, 1436.364
106.2811, 1493.566
106.7632, 1543.373
107.2454, 1593.448
107.7275, 1648.609
108.2096, 1709.675
108.6917, 1775.745
109.1738, 1846.140
109.6559, 1921.154
110.1381, 2003.653
110.6202, 2095.571
111.1023, 2194.913
111.5844, 2299.779
112.0665, 2415.760
112.5486, 2533.249
113.0308, 2650.651
113.5129, 2768.942
113.9950, 2887.502
114.4771, 3008.907
114.9592, 3129.591
115.4413, 3246.169
115.9235, 3354.915
116.4056, 3460.898
116.8877, 3564.808
117.3698, 3668.644
117.8519, 3770.547
118.3340, 3869.599
118.8162, 3966.311
119.2983, 4061.490
119.7804, 4156.169
120.2625, 4250.485
120.7446, 4343.738
121.2267, 4436.364
121.7089, 4528.335
122.1910, 4616.995
122.6731, 4703.809
123.1552, 4795.626
123.6373, 4899.958
124.1194, 5010.368
124.6016, 5120.682
125.0837, 5224.572
125.5658, 5328.247
126.0479, 5437.679
126.5300, 5552.749
127.0121, 5670.768
127.4943, 5792.502
127.9764, 5915.155
128.4585, 6035.675
128.9406, 6150.062
129.4227, 6261.074
129.9048, 6372.542
130.3869, 6484.465
130.8691, 6596.842
131.3512, 6710.016
131.8333, 6801.526
132.3154, 6857.198
132.7975, 6901.636
133.2796, 6945.401
133.7618, 6993.053
134.2439, 7046.234
134.7260, 7100.760
135.2081, 7147.778
135.6902, 7187.489
136.1723, 7229.171
136.6545, 7278.895
137.1366, 7336.500
137.6187, 7393.039
138.1008, 7447.874
138.5829, 7502.012
139.0650, 7559.015
139.5472, 7619.016
140.0293, 7680.923
140.5114, 7743.932
140.9935, 7807.544
141.4756, 7875.227
141.9577, 7949.121
142.4399, 8027.703
142.9220, 8102.111
143.4041, 8170.966
143.8862, 8238.634
144.3683, 8310.667
144.8504, 8392.412
145.3326, 8465.353
145.8147, 8525.020
146.2968, 8572.827
146.7789, 8617.095
147.2610, 8661.914
147.7431, 8700.676
148.2253, 8728.819
148.7074, 8749.576
149.1895, 8755.688
149.6716, 8745.403
150.1537, 8718.493
150.6358, 8680.158
151.1180, 8629.513
151.6001, 8567.849
152.0822, 8497.219
152.5643, 8418.681
153.0464, 8329.995
153.5285, 8230.601
154.0107, 8121.098
154.4928, 8002.401
154.9749, 7873.830
155.4570, 7735.553
155.9391, 7587.850
156.4212, 7426.173
156.9034, 7257.527
157.3855, 7082.889
157.8676, 6903.452
158.3497, 6721.566
158.8318, 6532.242
159.3139, 6340.594
159.7961, 6153.862
160.2782, 5976.184
160.7603, 5802.156
161.2424, 5628.239
161.7245, 5450.447
162.2066, 5280.432
162.6888, 5121.878
163.1709, 4973.658
163.6530, 4833.444
164.1351, 4699.612
164.6172, 4573.599
165.0993, 4456.802
165.5815, 4351.226
166.0636, 4251.057
166.5457, 4151.738
167.0278, 4054.354
167.5099, 3962.488
167.9921, 3879.314
168.4742, 3801.720
168.9563, 3726.938
169.4384, 3653.576
169.9205, 3583.420
170.4026, 3518.315
170.8848, 3457.520
171.3669, 3399.083
171.8490, 3340.206
172.3311, 3283.615
172.8132, 3232.774
173.2953, 3190.728
173.7775, 3152.587
174.2596, 3113.323
174.7417, 3073.286
175.2238, 3036.059
175.7059, 3005.310
176.1880, 2979.198
176.6702, 2955.035
177.1523, 2931.764
177.6344, 2910.047
178.1165, 2890.470
178.5986, 2872.843
179.0807, 2857.535
179.5629, 2844.955
180.0450, 2834.674
180.5271, 2825.932
181.0092, 2818.341
181.4913, 2811.972
181.9734, 2807.469
182.4556, 2804.842
182.9377, 2802.589
183.4198, 2797.707
183.9019, 2791.510
184.3840, 2788.888
184.8661, 2794.977
185.3483, 2805.270
185.8304, 2808.581
186.3125, 2804.327
186.7946, 2797.770
187.2767, 2794.821
187.7588, 2794.849
188.2409, 2794.246
188.7231, 2791.344
189.2052, 2786.693
189.6873, 2782.504
190.1694, 2779.040
190.6515, 2774.868
191.1336, 2767.437
191.6158, 2757.023
192.0979, 2747.201
192.5800, 2740.841
193.0621, 2736.978
193.5442, 2729.084
194.0263, 2716.915
194.5085, 2701.156
194.9906, 2682.304
195.4727, 2660.354
195.9548, 2637.161
196.4369, 2613.665
196.9190, 2589.805
197.4012, 2564.854
197.8833, 2538.786
198.3654, 2511.621
198.8475, 2484.317
199.3296, 2456.782
199.8117, 2428.562
200.2939, 2399.671
200.7760, 2370.253
201.2581, 2338.934
201.7402, 2305.450
202.2223, 2270.838
202.7044, 2236.747
203.1866, 2203.604
203.6687, 2170.477
204.1508, 2136.985
204.6329, 2103.101
205.1150, 2069.242
205.5971, 2035.166
206.0793, 2001.449
206.5614, 1969.116
207.0435, 1938.618
207.5256, 1908.966
208.0077, 1879.959
208.4898, 1851.718
208.9720, 1823.102
209.4541, 1793.574
209.9362, 1764.110
210.4183, 1736.848
210.9004, 1712.429
211.3825, 1688.829
211.8647, 1664.467
212.3468, 1638.433
212.8289, 1616.068
213.3110, 1598.685
213.7931, 1584.011
214.2752, 1566.984
214.7574, 1546.375
215.2395, 1526.042
215.7216, 1507.458
216.2037, 1491.061
216.6858, 1475.589
217.1679, 1461.441
217.6501, 1447.943
218.1322, 1433.516
218.6143, 1417.228
219.0964, 1401.671
219.5785, 1388.768
220.0606, 1379.843
220.5428, 1368.676
221.0249, 1354.390
221.5070, 1338.295
221.9891, 1324.074
222.4712, 1312.708
222.9533, 1301.081
223.4355, 1287.853
223.9176, 1271.790
224.3997, 1257.090
224.8818, 1243.773
225.3639, 1231.735
225.8460, 1220.459
226.3282, 1210.246
226.8103, 1200.408
227.2924, 1190.817
227.7745, 1181.086
228.2566, 1172.329
228.7387, 1165.087
229.2209, 1158.586
229.7030, 1151.045
230.1851, 1141.271
230.6672, 1132.282
231.1493, 1125.487
231.6314, 1121.886
232.1136, 1117.822
232.5957, 1113.305
233.0778, 1108.316
233.5599, 1102.861
234.0420, 1096.697
234.5241, 1090.454
235.0063, 1084.278
235.4884, 1077.928
235.9705, 1072.605
236.4526, 1068.989
236.9347, 1066.036
237.4168, 1061.372
237.8990, 1053.678
238.3811, 1046.367
238.8632, 1040.993
239.3453, 1038.561
239.8274, 1034.985
240.3095, 1030.171
240.7917, 1024.250
241.2738, 1017.258
241.7559, 1008.220
242.2380, 999.7638
242.7201, 993.1130
243.2022, 989.0623
243.6844, 984.0623
244.1665, 977.6317
244.6486, 970.5236
245.1307, 964.0758
245.6128, 958.7424
246.0949, 953.3049
246.5771, 947.2250
247.0592, 940.1249
247.5413, 933.8868
248.0234, 928.9172
248.5055, 924.5534
248.9876, 919.9207
249.4697, 914.9880
249.9519, 909.7750
250.4340, 904.3220
250.9161, 898.6800
251.3982, 892.5374
251.8803, 886.0692
252.3624, 879.0101
252.8446, 871.0074
253.3267, 861.4661
253.8088, 852.0993
254.2909, 843.5380
254.7730, 835.9493
255.2551, 827.5836
255.7373, 818.3588
256.2194, 808.4427
256.7015, 798.0886
257.1836, 786.8633
257.6657, 775.9658
258.1479, 765.5453
258.6300, 755.6620
259.1121, 746.5715
259.5942, 738.2543
260.0763, 730.7243
260.5584, 723.9377
261.0406, 718.4418
261.5227, 712.4620
262.0048, 705.5338
262.4869, 697.7362
262.9690, 689.5209
263.4511, 680.2423
263.9333, 671.6087
264.4154, 665.5891
264.8975, 663.1673
265.3796, 660.2443
265.8617, 655.8785
266.3438, 650.2773
266.8260, 645.1638
267.3081, 640.7941
267.7902, 636.5225
268.2723, 631.8708
268.7544, 626.6183
269.2365, 621.5623
269.7187, 616.8076
270.2008, 612.3200
270.6829, 608.2380
271.1650, 604.7312
271.6471, 601.2133
272.1292, 597.2060
272.6114, 592.5373
273.0935, 588.2463
273.5756, 584.4779
274.0577, 581.1943
274.5398, 578.3715
275.0219, 576.2223
275.5041, 573.8630
275.9862, 570.6301
276.4683, 566.4169
276.9504, 562.2019
277.4325, 558.1031
277.9146, 554.0272
278.3968, 549.5153
278.8788, 544.3917
279.3610, 539.8355
279.8431, 537.0598
280.3252, 536.2006
280.8073, 534.0638
281.2894, 530.2384
281.7715, 525.4578
282.2537, 520.9178
282.7358, 516.6016
283.2179, 512.7676
283.7000, 509.7741
284.1821, 507.5583
284.6642, 504.8828
285.1464, 501.5284
285.6285, 498.1165
286.1106, 495.7444
286.5927, 494.4083
287.0748, 493.0370
287.5569, 491.1815
288.0391, 488.8650
288.5212, 486.1799
289.0033, 482.9668
289.4854, 479.9869
289.9675, 478.5354
290.4496, 478.4591
290.9318, 478.0215
291.4139, 476.4008
291.8960, 473.9434
292.3781, 471.8223
292.8602, 470.0453
293.3423, 468.3959
293.8245, 466.6447
294.3066, 464.8131
294.7887, 462.9540
295.2708, 460.8863
295.7529, 458.9342
296.2350, 458.0223
296.7172, 458.1444
297.1993, 458.2999
297.6814, 457.4330
298.1635, 455.9074
298.6456, 454.8089
299.1277, 454.5401
299.6099, 454.6469
300.0920, 454.5714
300.5741, 454.3078
301.0562, 453.7805
301.5383, 452.8940
302.0204, 451.7137
302.5026, 450.3839
302.9847, 448.9438
303.4668, 447.3189
303.9489, 445.2123
304.4310, 442.7864
304.9131, 440.4918
305.3953, 438.7209
305.8774, 437.2057
306.3595, 435.8183
306.8416, 434.7284
307.3237, 433.0089
307.8058, 429.4427
308.2880, 424.6119
308.7701, 419.8517
309.2522, 416.0150
309.7343, 412.3862
310.2164, 408.2786
310.6985, 403.5687
311.1807, 398.7303
311.6628, 394.1628
312.1449, 389.6278
312.6270, 384.9078
313.1091, 379.5134
313.5912, 374.1855
314.0734, 369.4577
314.5555, 365.3651
315.0376, 361.1900
315.5197, 356.3781
316.0018, 351.3279
316.4839, 346.5767
316.9661, 342.3903
317.4482, 338.3777
317.9303, 334.4027
318.4124, 330.4776
318.8945, 326.5757
319.3766, 322.6206
319.8588, 318.7354
320.3409, 315.0368
320.8230, 311.2807
321.3051, 308.0103
321.7872, 305.6718
322.2693, 303.9826
322.7515, 302.0802
323.2336, 299.6147
323.7157, 296.9975
324.1978, 294.3280
324.6799, 291.2384
325.1620, 288.9139
325.6442, 288.0704
326.1263, 288.0222
326.6084, 287.5527
327.0905, 286.2684
327.5726, 284.7983
328.0547, 283.2202
328.5369, 281.3750
329.0190, 280.0207
329.5011, 279.5814
329.9832, 279.4648
330.4653, 278.9930
330.9474, 277.5496
331.4296, 276.5249
331.9117, 276.3174
332.3938, 276.9804
332.8759, 277.4137
333.3580, 277.5847
333.8401, 277.5667
334.3223, 277.3297
334.8044, 276.4142
335.2865, 276.2289
335.7686, 277.1621
336.2507, 279.0043
336.7328, 280.6067
337.2150, 282.0494
337.6971, 283.1203
338.1792, 283.5146
338.6613, 282.8741
339.1434, 282.9950
339.6255, 284.1703
340.1077, 286.0015
340.5898, 287.6768
341.0719, 289.1620
341.5540, 290.5090
342.0361, 291.6753
342.5182, 292.6592
343.0004, 293.6992
343.4825, 294.7650
343.9646, 295.9524
344.4467, 297.4061
344.9288, 299.1110
345.4109, 300.9727
345.8931, 303.2461
346.3752, 305.6494
346.8573, 306.5117
347.3394, 305.6439
347.8215, 304.9003
348.3036, 306.5472
348.7858, 310.0767
349.2679, 313.0722
349.7500, 314.9457
350.2321, 315.9172
350.7142, 316.1606
351.1964, 315.7189
351.6785, 315.0146
352.1606, 314.2636
352.6427, 313.4851
353.1248, 312.7682
353.6069, 312.2165
354.0891, 311.4633
354.5712, 309.9952
355.0533, 307.9896
355.5354, 305.9099
356.0175, 304.1212
356.4996, 302.3592
356.9818, 300.1020
357.4639, 297.2100
357.9460, 294.7924
358.4281, 294.0561
358.9102, 294.2006
359.3923, 294.0746
359.8745, 293.1338
360.3566, 291.8404
360.8387, 290.2027
361.3208, 288.2828
361.8029, 286.8941
362.2850, 286.7162
362.7672, 287.0692
363.2493, 287.4061
363.7314, 287.8185
364.2135, 287.9217
364.6956, 287.1932
365.1777, 285.9877
365.6599, 285.4178
366.1420, 286.1828
366.6241, 287.3224
367.1062, 288.3896
367.5883, 289.3143
368.0704, 290.2376
368.5526, 291.2707
369.0347, 292.2838
369.5168, 293.0925
369.9989, 293.3112
370.4810, 293.7165
370.9631, 294.6883
371.4453, 296.4046
371.9274, 297.2285
372.4095, 296.5739
372.8916, 295.5098
373.3737, 294.9446
373.8558, 295.0987
374.3380, 295.3408
374.8201, 295.7689
375.3022, 296.2503
375.7843, 295.9816
376.2664, 294.7428
376.7485, 293.2224
377.2307, 291.8254
377.7128, 290.5836
378.1949, 289.3015
378.6770, 288.0904
379.1591, 286.7007
379.6412, 284.6357
380.1234, 281.8354
380.6055, 278.7895
381.0876, 275.5010
381.5697, 272.0851
382.0518, 269.3354
382.5339, 267.3647
383.0161, 265.5439
383.4982, 263.1523
383.9803, 260.2795
384.4624, 257.5293
384.9445, 255.0518
385.4266, 252.8108
385.9088, 250.8256
386.3909, 249.0691
386.8730, 247.2187
387.3551, 244.7531
387.8372, 242.0806
388.3193, 239.9116
388.8015, 238.4227
389.2836, 237.2837
389.7657, 236.6252
390.2478, 236.1048
390.7299, 234.9372
391.2120, 232.0287
391.6942, 228.7786
392.1763, 226.3247
392.6584, 224.7893
393.1405, 223.6279
393.6226, 222.8787
394.1047, 222.2294
394.5869, 221.3559
395.0690, 219.9296
395.5511, 218.4881
396.0332, 217.2569
396.5153, 216.1933
396.9974, 215.0589
397.4796, 213.5525
397.9617, 212.1317
398.4438, 211.0827
398.9259, 210.8137
399.4080, 210.2468
399.8901, 208.8838
400.3723, 207.2214
400.8544, 206.2130
401.3365, 206.7961
401.8186, 206.9065
402.3007, 205.6117
402.7828, 202.5542
403.2649, 201.3913
403.7470, 203.2449
404.2292, 205.7915
404.7113, 206.8774
405.1934, 206.0235
405.6755, 205.0917
406.1576, 204.2256
406.6397, 203.5032
407.1219, 203.2768
407.6040, 203.6264
408.0861, 204.1510
408.5682, 204.7625
409.0503, 205.4414
409.5324, 205.5387
410.0146, 204.8494
410.4967, 204.0785
410.9788, 204.3733
411.4609, 205.6265
411.9430, 206.8289
412.4251, 207.5699
412.9073, 208.0028
413.3894, 208.4634
413.8715, 208.9554
414.3536, 209.4882
414.8357, 209.8881
415.3178, 210.3704
415.8000, 211.3818
416.2821, 213.2048
416.7642, 215.2485
417.2463, 217.1086
417.7284, 218.7714
418.2105, 220.1413
418.6927, 220.7454
419.1748, 221.3413
419.6569, 222.6472
420.1390, 223.4321
420.6211, 226.6972
421.1032, 229.3631
421.5854, 231.4624
422.0675, 231.2963
422.5496, 234.0550
423.0317, 235.6417
423.5138, 237.1801
423.9959, 240.3507
424.4781, 240.5143
424.9602, 243.6589
425.4423, 245.6134
425.9244, 248.1126
426.4065, 249.4323
426.8886, 253.4890
427.3708, 256.5843
427.8529, 259.2274
428.3350, 262.1324
428.8171, 265.3338
429.2992, 268.7151
429.7813, 272.1544
430.2635, 275.6503
430.7456, 279.8560
431.2277, 284.8606
431.7098, 290.3296
432.1919, 296.2783
432.6740, 302.8161
433.1562, 308.2907
433.6383, 312.1115
434.1204, 315.3417
434.6025, 320.2608
435.0846, 326.8340
435.5667, 333.5993
436.0489, 339.7042
436.5310, 345.4733
437.0131, 351.9834
437.4952, 359.3254
437.9773, 366.7941
438.4594, 373.4966
438.9416, 379.8365
439.4237, 386.7114
439.9058, 394.7841
440.3879, 403.0365
440.8700, 410.6042
441.3521, 417.6130
441.8343, 424.4954
442.3164, 431.2884
442.7985, 438.1798
443.2806, 445.3051
443.7627, 452.5878
444.2448, 460.2555
444.7270, 468.7330
445.2091, 477.4533
445.6912, 485.7033
446.1733, 492.7403
446.6554, 499.8923
447.1375, 507.4517
447.6197, 515.4189
448.1018, 523.4537
448.5839, 531.3481
449.0660, 539.4064
449.5481, 547.6347
450.0302, 555.8346
450.5124, 564.7912
450.9945, 574.6534
451.4766, 585.0931
451.9587, 595.4879
452.4408, 605.7902
452.9229, 616.3675
453.4051, 627.5054
453.8872, 639.0997
454.3693, 651.1572
454.8514, 663.8105
455.3335, 676.5470
455.8156, 689.5638
456.2978, 702.6475
456.7799, 714.2275
457.2620, 724.0797
457.7441, 732.6518
458.2262, 741.2263
458.7083, 749.3782
459.1905, 755.5937
459.6726, 759.2240
460.1547, 760.3262
460.6368, 758.9451
461.1189, 755.0760
461.6010, 748.8544
462.0832, 740.6219
462.5653, 729.9882
463.0474, 716.4621
463.5295, 698.7276
464.0116, 679.8623
464.4937, 661.7805
464.9759, 643.7497
465.4580, 624.7807
465.9401, 603.2357
466.4222, 581.8506
466.9043, 561.7422
467.3864, 542.9810
467.8686, 525.5225
468.3507, 509.3398
468.8328, 494.4829
469.3149, 481.0238
469.7970, 469.4651
470.2791, 458.4611
470.7613, 447.7799
471.2434, 437.6930
471.7255, 428.9995
472.2076, 421.8842
472.6897, 415.6616
473.1718, 409.8863
473.6540, 404.5854
474.1361, 400.5791
474.6182, 398.0671
475.1003, 396.1338
475.5824, 393.5778
476.0645, 390.5688
476.5467, 388.7836
477.0288, 388.7960
477.5109, 389.7393
477.9930, 390.3687
478.4751, 390.7307
478.9572, 391.0381
479.4394, 391.1227
479.9215, 391.3564
480.4036, 392.2358
480.8857, 393.7894
481.3678, 395.6945
481.8499, 398.1324
482.3321, 400.6456
482.8142, 402.6545
483.2963, 403.3514
483.7784, 404.3931
484.2605, 406.9149
484.7426, 410.2805
485.2248, 412.8993
485.7069, 413.2985
486.1890, 413.8644
486.6711, 415.6328
487.1532, 419.0297
487.6353, 421.7908
488.1175, 423.6633
488.5996, 425.0698
489.0817, 426.2826
489.5638, 427.1561
490.0459, 428.1616
490.5280, 429.3282
491.0102, 430.6570
491.4923, 432.2415
491.9744, 434.1522
492.4565, 436.0055
492.9386, 437.8328
493.4207, 439.5424
493.9029, 440.3264
494.3850, 440.1212
494.8671, 439.6902
495.3492, 439.9372
495.8313, 440.5426
496.3134, 440.5114
496.7956, 439.4324
497.2777, 438.1459
497.7598, 437.7773
498.2419, 437.9545
498.7240, 437.7473
499.2061, 436.6794
499.6883, 435.0763
500.1704, 433.0876
500.6525, 430.7291
501.1346, 428.2095
501.6167, 425.9799
502.0988, 423.3629
502.5810, 419.7959
503.0631, 414.0305
503.5452, 409.0080
504.0273, 405.6286
504.5094, 403.1152
504.9915, 400.2848
505.4737, 397.4479
505.9558, 393.7979
506.4379, 388.8627
506.9200, 382.7415
507.4021, 377.4284
507.8842, 373.2118
508.3664, 368.9711
508.8485, 363.8027
509.3306, 357.6871
509.8127, 351.4787
510.2948, 345.1650
510.7769, 339.0215
511.2591, 333.6395
511.7412, 328.9012
512.2233, 324.3158
512.7054, 319.7960
513.1875, 315.2035
513.6696, 310.2794
514.1517, 305.0714
514.6339, 299.8329
515.1160, 294.6380
515.5981, 289.5512
516.0802, 284.5091
516.5623, 279.4518
517.0444, 274.7506
517.5266, 270.9595
518.0087, 267.4628
518.4908, 263.5886
518.9729, 258.7267
519.4550, 253.9664
519.9371, 249.7835
520.4193, 245.9409
520.9014, 241.5650
521.3835, 235.9932
521.8656, 230.7033
522.3477, 226.2430
522.8298, 222.6858
523.3120, 219.3918
523.7941, 216.5390
524.2762, 213.7214
524.7583, 210.4727
525.2404, 206.7530
525.7225, 203.4180
526.2047, 200.6905
526.6868, 198.1696
527.1689, 195.0118
527.6510, 191.3409
528.1331, 187.8771
528.6152, 185.0807
529.0974, 182.6218
529.5795, 179.9558
530.0616, 177.0925
530.5437, 174.3359
531.0258, 171.8008
531.5079, 169.4935
531.9901, 167.3894
532.4722, 165.5515
532.9543, 163.7275
533.4364, 161.6731
533.9185, 159.6109
534.4006, 157.8024
534.8828, 156.7578
535.3649, 155.4751
535.8470, 153.5446
536.3291, 151.1297
536.8112, 149.3546
537.2933, 148.7390
537.7755, 147.9487
538.2576, 146.2805
538.7397, 143.5601
539.2218, 141.2198
539.7039, 139.3080
540.1860, 137.7110
540.6682, 136.4821
541.1503, 135.5808
541.6324, 134.4530
542.1145, 132.9068
542.5966, 131.2580
543.0787, 129.9345
543.5609, 128.9203
544.0430, 128.1545
544.5251, 127.9045
545.0072, 127.6981
545.4893, 127.0750
545.9714, 126.0382
546.4536, 124.7874
546.9357, 123.0791
547.4178, 121.4185
547.8999, 120.2162
548.3820, 119.7123
548.8641, 119.2642
549.3463, 118.9068
549.8284, 118.4750
550.3105, 117.7408
550.7926, 116.4181
551.2747, 115.2133
551.7568, 114.1485
552.2390, 113.2666
552.7211, 112.7893
553.2032, 112.8419
553.6853, 112.9177
554.1674, 112.8522
554.6495, 112.6345
555.1317, 111.9994
555.6138, 110.9264
556.0959, 109.7012
556.5780, 108.3864
557.0601, 107.1349
557.5422, 106.4873
558.0244, 106.7805
558.5065, 107.0623
558.9886, 106.0588
559.4707, 104.3530
559.9528, 103.1342
560.4349, 103.3760
560.9171, 103.7949
561.3992, 103.7263
561.8813, 103.2104
562.3634, 102.6528
562.8455, 102.1871
563.3276, 101.6763
563.8098, 101.0107
564.2919, 100.0968
564.7740, 99.34875
565.2561, 98.71441
565.7382, 98.29696
566.2203, 98.26350
566.7025, 98.75711
567.1846, 99.06381
567.6667, 99.12387
568.1488, 98.91831
568.6309, 98.23347
569.1130, 97.09621
569.5952, 96.24026
570.0773, 96.15425
570.5594, 96.46795
571.0415, 96.57650
571.5236, 96.47117
572.0057, 96.07166
572.4879, 94.87996
572.9700, 93.60342
573.4521, 93.07278
573.9342, 93.53433
574.4163, 93.96397
574.8984, 93.75658
575.3806, 93.34248
575.8627, 93.15626
576.3448, 93.90022
576.8269, 94.12256
577.3090, 93.25643
577.7911, 91.81979
578.2733, 91.00162
578.7554, 91.10238
579.2375, 91.24942
579.7196, 91.18311
580.2017, 90.93012
580.6838, 90.74533
581.1660, 90.63660
581.6481, 90.55013
582.1302, 90.41357
582.6123, 90.26159
583.0944, 90.29250
583.5765, 90.54604
584.0587, 90.75779
584.5408, 90.31145
585.0229, 89.71021
585.5050, 89.87330
585.9871, 91.51334
586.4692, 93.29004
586.9514, 94.91404
587.4335, 96.07412
587.9156, 96.08260
588.3977, 93.40823
588.8798, 90.85738
589.3619, 89.39830
589.8441, 89.06006
590.3262, 88.89365
590.8083, 89.10998
591.2904, 89.22111
591.7725, 88.85659
