##NAMES=Cuprite
##RRUFFID=R050384
##IDEAL CHEMISTRY=Cu^1+^_2_O
##LOCALITY=Lavender Pit, Bisbee, Warren District, Cochise County, Arizona, USA
##OWNER=RRUFF
##SOURCE=University of Arizona Mineral Museum
##DESCRIPTION=Deep red to nearly black cubes
##STATUS=The identification of this mineral has been confirmed by X-ray diffraction and chemical analysis
##URL=rruff.info/R050384
##MEASURED CHEMISTRY=Cu_2.00_O
92.35352, 38.70729
92.83563, 38.87368
93.31775, 38.94573
93.79987, 38.77428
94.28198, 38.48882
94.76410, 38.48724
95.24622, 38.91597
95.72833, 39.59783
96.21045, 40.12185
96.69257, 40.47663
97.17468, 40.89208
97.65680, 41.53950
98.13892, 42.41990
98.62103, 43.53426
99.10315, 44.94453
99.58527, 46.60040
100.0674, 47.97421
100.5495, 48.87461
101.0316, 49.88888
101.5137, 51.86086
101.9958, 55.11386
102.4780, 58.21629
102.9601, 60.52590
103.4422, 61.79664
103.9243, 63.95560
104.4064, 67.39788
104.8885, 71.48711
105.3707, 75.13161
105.8528, 77.95949
106.3349, 80.81998
106.8170, 84.02091
107.2991, 87.79581
107.7813, 91.46586
108.2634, 94.90895
108.7455, 98.24717
109.2276, 101.7604
109.7097, 105.7189
110.1918, 109.6899
110.6740, 113.5003
111.1561, 116.7065
111.6382, 120.2453
112.1203, 124.4773
112.6024, 129.2714
113.0845, 133.5866
113.5667, 136.4630
114.0488, 139.2307
114.5309, 142.8228
115.0130, 147.9821
115.4951, 153.4481
115.9772, 158.9295
116.4594, 164.4651
116.9415, 170.0511
117.4236, 175.4675
117.9057, 181.0111
118.3878, 186.9738
118.8699, 194.0611
119.3521, 201.2195
119.8342, 207.7462
120.3163, 213.5120
120.7984, 219.5899
121.2805, 227.2963
121.7626, 235.7164
122.2448, 243.2864
122.7269, 249.0866
123.2090, 253.7725
123.6911, 257.6518
124.1732, 260.4888
124.6553, 263.6419
125.1375, 268.9199
125.6196, 275.7082
126.1017, 282.0622
126.5838, 286.3398
127.0659, 289.4878
127.5480, 293.3775
128.0302, 298.6114
128.5123, 304.0197
128.9944, 307.2609
129.4765, 308.6376
129.9586, 310.9769
130.4407, 317.3376
130.9229, 326.6739
131.4050, 334.6795
131.8871, 340.0012
132.3692, 343.7965
132.8513, 348.4186
133.3334, 353.3440
133.8156, 357.1284
134.2977, 359.7094
134.7798, 362.3426
135.2619, 365.6326
135.7440, 369.9784
136.2261, 375.0414
136.7083, 379.5738
137.1904, 383.5386
137.6725, 387.2191
138.1546, 391.1697
138.6367, 395.6443
139.1188, 399.1529
139.6010, 401.2004
140.0831, 401.7880
140.5652, 402.3427
141.0473, 402.8230
141.5294, 403.3284
142.0115, 403.9319
142.4937, 404.5184
142.9758, 405.4533
143.4579, 406.9719
143.9400, 409.2720
144.4221, 411.0885
144.9042, 412.3157
145.3864, 413.1144
145.8685, 413.7179
146.3506, 414.0189
146.8327, 414.2654
147.3148, 414.5921
147.7969, 415.2714
148.2791, 415.4120
148.7612, 414.8405
149.2433, 413.7646
149.7254, 412.6456
150.2075, 412.0989
150.6896, 411.0007
151.1718, 408.8588
151.6539, 403.7906
152.1360, 400.4265
152.6181, 399.8962
153.1002, 401.2800
153.5823, 401.8334
154.0645, 400.4787
154.5466, 398.9009
155.0287, 397.8908
155.5108, 398.2752
155.9929, 398.3041
156.4750, 397.3938
156.9572, 395.8083
157.4393, 394.6559
157.9214, 394.6268
158.4035, 394.8096
158.8856, 394.6363
159.3677, 393.4463
159.8499, 392.4249
160.3320, 392.1472
160.8141, 392.4585
161.2962, 392.4053
161.7783, 391.1617
162.2604, 389.6465
162.7426, 388.6179
163.2247, 388.5144
163.7068, 388.7540
164.1889, 389.1479
164.6710, 389.6846
165.1531, 390.2995
165.6353, 390.8720
166.1174, 391.5310
166.5995, 392.4152
167.0816, 393.6935
167.5637, 395.1162
168.0458, 396.4674
168.5280, 397.7313
169.0101, 399.2151
169.4922, 401.1237
169.9743, 403.3519
170.4564, 405.7454
170.9385, 408.3878
171.4207, 411.0797
171.9028, 413.6390
172.3849, 416.0424
172.8670, 418.4238
173.3491, 420.5713
173.8312, 422.7918
174.3134, 425.6876
174.7955, 430.3104
175.2776, 435.3860
175.7597, 439.2423
176.2418, 441.7228
176.7239, 443.8762
177.2061, 446.7650
177.6882, 450.1867
178.1703, 453.5264
178.6524, 456.6823
179.1345, 459.5626
179.6166, 461.8005
180.0988, 463.2848
180.5809, 464.7354
181.0630, 467.1019
181.5451, 470.2077
182.0272, 473.2450
182.5093, 475.5592
182.9915, 477.5383
183.4736, 480.2072
183.9557, 483.7996
184.4378, 487.5566
184.9199, 490.1590
185.4020, 491.7840
185.8842, 494.0639
186.3663, 497.6472
186.8484, 502.5634
187.3305, 509.6147
187.8126, 519.8834
188.2947, 529.8146
188.7769, 532.7614
189.2590, 529.0344
189.7411, 524.9818
190.2232, 524.7281
190.7053, 527.5810
191.1874, 528.8814
191.6696, 527.9313
192.1517, 525.9468
192.6338, 524.7662
193.1159, 524.3669
193.5980, 525.2988
194.0801, 528.3632
194.5623, 533.3887
195.0444, 538.1979
195.5265, 542.4728
196.0086, 546.5610
196.4907, 551.1989
196.9728, 556.4151
197.4550, 561.9028
197.9371, 567.6361
198.4192, 573.6240
198.9013, 579.3921
199.3834, 585.2062
199.8655, 590.4507
200.3477, 593.5275
200.8298, 594.1752
201.3119, 593.7618
201.7940, 592.5103
202.2761, 590.1921
202.7582, 589.7973
203.2404, 592.0889
203.7225, 596.0965
204.2046, 598.9893
204.6867, 600.4003
205.1688, 601.9846
205.6509, 604.7446
206.1331, 608.7939
206.6152, 613.3823
207.0973, 618.5646
207.5794, 624.1872
208.0615, 629.6698
208.5436, 634.7884
209.0258, 640.3830
209.5079, 647.0378
209.9900, 654.9251
210.4721, 663.0139
210.9542, 671.5848
211.4363, 680.1710
211.9185, 687.0436
212.4006, 691.7004
212.8827, 695.7537
213.3648, 699.9864
213.8469, 704.4015
214.3290, 709.1761
214.8112, 714.5656
215.2933, 720.2469
215.7754, 725.4148
216.2575, 730.4180
216.7396, 734.2507
217.2217, 736.3122
217.7038, 736.5376
218.1860, 735.2586
218.6681, 732.7294
219.1502, 728.7001
219.6323, 722.3666
220.1144, 714.2261
220.5965, 703.0502
221.0787, 687.7397
221.5608, 666.7523
222.0429, 645.9048
222.5250, 625.3666
223.0071, 605.2567
223.4892, 586.8132
223.9714, 570.0547
224.4535, 554.6807
224.9356, 540.3348
225.4177, 527.0635
225.8998, 514.9111
226.3819, 503.8318
226.8641, 493.8281
227.3462, 485.3809
227.8283, 479.0095
228.3104, 473.3989
228.7925, 467.9918
229.2746, 462.7141
229.7568, 457.5923
230.2389, 452.3488
230.7210, 447.2506
231.2031, 443.4040
231.6852, 441.4012
232.1673, 439.7696
232.6495, 437.8394
233.1316, 435.5251
233.6137, 433.0718
234.0958, 430.3210
234.5779, 427.4968
235.0600, 425.3997
235.5422, 424.8008
236.0243, 423.7814
236.5064, 421.2169
236.9885, 415.5041
237.4706, 411.9342
237.9527, 411.6418
238.4349, 413.2331
238.9170, 413.1691
239.3991, 410.5013
239.8812, 407.5941
240.3633, 405.4457
240.8454, 404.4059
241.3276, 403.2824
241.8097, 402.1756
242.2918, 400.9627
242.7739, 399.3052
243.2560, 396.7474
243.7381, 394.4547
244.2203, 392.9627
244.7024, 392.7066
245.1845, 392.0212
245.6666, 390.7746
246.1487, 389.1655
246.6308, 387.4800
247.1130, 385.4370
247.5951, 383.7762
248.0772, 382.8647
248.5593, 382.9696
249.0414, 382.7733
249.5235, 381.9503
250.0057, 381.0281
250.4878, 380.9763
250.9699, 382.4455
251.4520, 383.6199
251.9341, 383.8444
252.4162, 382.9074
252.8984, 382.0585
253.3805, 381.2509
253.8626, 380.5620
254.3447, 380.1541
254.8268, 380.1644
255.3089, 380.1656
255.7911, 380.0508
256.2732, 379.8182
256.7553, 379.4632
257.2374, 378.8585
257.7195, 378.2574
258.2017, 378.0033
258.6838, 378.2599
259.1659, 378.4882
259.6480, 378.5530
260.1301, 378.4488
260.6122, 378.3417
261.0944, 378.2237
261.5765, 378.1145
262.0586, 378.0483
262.5407, 378.0624
263.0228, 378.0055
263.5049, 377.7354
263.9871, 377.2796
264.4692, 377.3875
264.9513, 378.2173
265.4334, 379.3605
265.9155, 380.5274
266.3976, 381.7704
266.8798, 382.7944
267.3619, 383.5500
267.8440, 384.0411
268.3261, 384.1674
268.8082, 383.7458
269.2903, 383.3414
269.7725, 383.4469
270.2546, 384.1622
270.7367, 384.8917
271.2188, 385.4869
271.7009, 386.0353
272.1830, 387.0589
272.6652, 388.7771
273.1473, 390.3425
273.6294, 391.0421
274.1115, 390.6759
274.5936, 390.6722
275.0757, 391.2507
275.5579, 392.2214
276.0400, 393.0797
276.5221, 393.8451
277.0042, 394.4064
277.4863, 394.5319
277.9684, 394.1540
278.4506, 394.2916
278.9327, 395.1161
279.4148, 396.3608
279.8969, 397.5982
280.3790, 398.8824
280.8611, 399.8004
281.3433, 399.7637
281.8254, 398.7911
282.3075, 399.1442
282.7896, 401.2923
283.2717, 403.8969
283.7538, 404.5877
284.2360, 403.2907
284.7181, 402.0565
285.2002, 401.6954
285.6823, 402.1667
286.1644, 403.2236
286.6465, 404.9474
287.1287, 406.9136
287.6108, 408.7339
288.0929, 410.3902
288.5750, 411.5795
289.0571, 412.0284
289.5392, 411.9140
290.0214, 411.8207
290.5035, 411.7162
290.9856, 411.8837
291.4677, 412.9390
291.9498, 414.6941
292.4319, 415.9041
292.9141, 415.8975
293.3962, 415.2802
293.8783, 415.5050
294.3604, 416.5842
294.8425, 417.9276
295.3246, 419.3660
295.8068, 420.7318
296.2889, 421.3627
296.7710, 420.8483
297.2531, 419.8459
297.7352, 419.3532
298.2173, 419.3499
298.6995, 419.6623
299.1816, 420.2248
299.6637, 421.0065
300.1458, 422.0161
300.6279, 423.4147
301.1100, 424.6927
301.5922, 424.6407
302.0743, 423.6913
302.5564, 423.6094
303.0385, 426.5146
303.5206, 430.5681
304.0027, 433.1895
304.4849, 433.9280
304.9670, 433.6028
305.4491, 432.4581
305.9312, 430.7984
306.4133, 429.3543
306.8954, 428.1486
307.3776, 427.5260
307.8597, 428.0554
308.3418, 429.8566
308.8239, 431.9094
309.3060, 434.2141
309.7881, 436.1835
310.2703, 436.8217
310.7524, 434.1882
311.2345, 431.2372
311.7166, 429.9496
312.1987, 430.3499
312.6808, 431.8073
313.1630, 435.4878
313.6451, 439.4759
314.1272, 441.7267
314.6093, 439.8793
315.0914, 437.7012
315.5735, 437.0786
316.0557, 437.7609
316.5378, 438.4324
317.0199, 438.2164
317.5020, 437.9564
317.9841, 438.3420
318.4662, 440.2303
318.9484, 441.7151
319.4305, 441.8843
319.9126, 441.1489
320.3947, 440.5867
320.8768, 440.2941
321.3589, 440.4193
321.8411, 441.0883
322.3232, 442.4817
322.8053, 443.9950
323.2874, 446.1368
323.7695, 448.2162
324.2516, 449.1388
324.7338, 447.0294
325.2159, 445.3079
325.6980, 445.4200
326.1801, 448.1201
326.6622, 449.5125
327.1443, 447.7667
327.6265, 445.2790
328.1086, 444.4688
328.5907, 447.3333
329.0728, 449.6902
329.5549, 450.7774
330.0370, 450.5847
330.5192, 450.5188
331.0013, 450.8521
331.4834, 451.0850
331.9655, 450.8341
332.4476, 449.6220
332.9297, 448.7342
333.4119, 448.2677
333.8940, 448.2035
334.3761, 448.5116
334.8582, 449.2889
335.3403, 450.2596
335.8224, 451.3757
336.3046, 452.8770
336.7867, 453.7607
337.2688, 453.8507
337.7509, 453.4346
338.2330, 453.0026
338.7151, 452.4462
339.1973, 452.2273
339.6794, 452.5346
340.1615, 453.3764
340.6436, 454.7896
341.1257, 457.1462
341.6078, 459.2604
342.0899, 459.1205
342.5721, 456.5156
343.0542, 454.6771
343.5363, 454.7580
344.0184, 456.3595
344.5005, 457.8403
344.9826, 459.1870
345.4648, 460.4420
345.9469, 461.7709
346.4290, 463.1145
346.9111, 463.7650
347.3932, 463.2581
347.8753, 462.4337
348.3575, 463.1489
348.8396, 465.2671
349.3217, 467.3661
349.8038, 468.0427
350.2859, 467.9817
350.7680, 469.1591
351.2502, 472.1327
351.7323, 475.0714
352.2144, 475.5082
352.6965, 474.1033
353.1786, 472.8393
353.6607, 472.6876
354.1429, 473.2481
354.6250, 474.2451
355.1071, 475.6909
355.5892, 476.9408
356.0713, 477.3744
356.5534, 477.3286
357.0356, 477.2897
357.5177, 477.0643
357.9998, 477.2285
358.4819, 478.4496
358.9640, 480.5570
359.4461, 482.5744
359.9283, 483.9572
360.4104, 485.0438
360.8925, 486.1308
361.3746, 487.4054
361.8567, 488.4636
362.3388, 489.1120
362.8210, 489.4115
363.3031, 489.5228
363.7852, 488.7405
364.2673, 488.3801
364.7494, 489.2961
365.2315, 492.0705
365.7137, 494.2954
366.1958, 494.7270
366.6779, 494.6137
367.1600, 495.4280
367.6421, 498.7214
368.1242, 501.5212
368.6064, 503.0555
369.0885, 503.2528
369.5706, 503.5797
370.0527, 504.1056
370.5348, 504.7148
371.0169, 505.3300
371.4991, 505.8240
371.9812, 506.5274
372.4633, 507.3805
372.9454, 508.4714
373.4275, 510.1962
373.9096, 513.1295
374.3918, 515.7359
374.8739, 517.1078
375.3560, 516.8604
375.8381, 517.3104
376.3202, 518.8307
376.8023, 520.5536
377.2845, 520.8081
377.7666, 519.1727
378.2487, 518.3749
378.7308, 519.5735
379.2129, 522.4475
379.6950, 524.7677
380.1772, 526.4976
380.6593, 527.9455
381.1414, 529.3262
381.6235, 530.6471
382.1056, 532.0988
382.5877, 533.7081
383.0699, 535.4682
383.5520, 537.5634
384.0341, 539.9484
384.5162, 541.9590
384.9983, 543.1066
385.4804, 543.6038
385.9626, 543.7080
386.4447, 543.3036
386.9268, 543.2648
387.4089, 544.7811
387.8910, 547.3559
388.3731, 549.8417
388.8553, 551.4901
389.3374, 552.9644
389.8195, 555.0181
390.3016, 557.5863
390.7837, 559.9555
391.2658, 561.8243
391.7480, 563.1763
392.2301, 563.9056
392.7122, 563.1418
393.1943, 562.9230
393.6764, 564.9454
394.1585, 568.3906
394.6407, 570.8851
395.1228, 570.7438
395.6049, 570.1715
396.0870, 570.2354
396.5691, 571.1736
397.0512, 572.3937
397.5334, 573.4537
398.0155, 574.8480
398.4976, 577.1739
398.9797, 582.4158
399.4618, 586.5359
399.9439, 588.3837
400.4261, 587.9659
400.9082, 587.9526
401.3903, 588.2881
401.8724, 589.0634
402.3545, 590.3812
402.8366, 592.4455
403.3188, 594.5800
403.8009, 596.8104
404.2830, 599.0605
404.7651, 601.2102
405.2472, 603.3585
405.7293, 605.0697
406.2115, 606.0467
406.6936, 606.2596
407.1757, 606.5654
407.6578, 606.9226
408.1399, 607.5016
408.6220, 608.5958
409.1042, 610.1959
409.5863, 611.8537
410.0684, 613.6406
410.5505, 615.2584
411.0326, 615.8132
411.5147, 615.3436
411.9969, 614.9827
412.4790, 615.7822
412.9611, 617.2822
413.4432, 618.3049
413.9253, 618.6131
414.4074, 618.8062
414.8896, 619.7158
415.3717, 621.0251
415.8538, 621.9777
416.3359, 621.8124
416.8180, 621.3773
417.3001, 621.7645
417.7823, 622.9372
418.2644, 623.3187
418.7465, 620.9276
419.2286, 617.7983
419.7107, 615.9572
420.1928, 616.6757
420.6750, 617.7018
421.1571, 617.9500
421.6392, 617.8304
422.1213, 618.4103
422.6034, 621.7127
423.0855, 624.2796
423.5677, 624.2219
424.0498, 620.2399
424.5319, 617.8423
425.0140, 619.1042
425.4961, 621.3593
425.9782, 621.8669
426.4604, 618.9040
426.9425, 616.7337
427.4246, 616.0358
427.9067, 616.6661
428.3888, 617.7632
428.8709, 619.7748
429.3531, 621.4659
429.8352, 621.9094
430.3173, 620.6697
430.7994, 620.5828
431.2815, 622.2549
431.7636, 624.2240
432.2458, 623.5693
432.7279, 620.0746
433.2100, 617.4970
433.6921, 617.4920
434.1742, 619.3633
434.6563, 620.6873
435.1385, 621.4739
435.6206, 621.8964
436.1027, 621.9165
436.5848, 621.6887
437.0669, 621.6514
437.5490, 621.9369
438.0312, 622.3307
438.5133, 622.4730
438.9954, 622.5181
439.4775, 622.8818
439.9596, 624.4308
440.4417, 625.9965
440.9239, 626.1939
441.4060, 624.9486
441.8881, 624.1241
442.3702, 625.3213
442.8523, 627.2174
443.3344, 628.5421
443.8166, 628.4554
444.2987, 628.3297
444.7808, 628.5057
445.2629, 628.9430
445.7450, 629.5381
446.2271, 629.7859
446.7093, 630.5830
447.1914, 632.5828
447.6735, 636.5892
448.1556, 639.1255
448.6377, 639.2503
449.1198, 638.5143
449.6020, 638.5038
450.0841, 639.6985
450.5662, 640.5925
451.0483, 640.7930
451.5304, 640.5334
452.0125, 640.7781
452.4947, 641.4926
452.9768, 642.8236
453.4589, 645.2949
453.9410, 648.9736
454.4231, 651.2131
454.9052, 651.7653
455.3874, 651.5867
455.8695, 651.7723
456.3516, 652.2960
456.8337, 652.9696
457.3158, 653.7256
457.7979, 654.6102
458.2801, 655.9700
458.7622, 657.6897
459.2443, 658.9786
459.7264, 658.7482
460.2085, 657.9761
460.6906, 657.9567
461.1728, 658.9487
461.6549, 660.3849
462.1370, 662.2768
462.6191, 664.2579
463.1012, 665.7408
463.5833, 665.7858
464.0655, 665.9612
464.5476, 667.2620
465.0297, 669.5077
465.5118, 671.1713
465.9939, 670.8339
466.4760, 670.4940
466.9582, 671.3368
467.4403, 674.7125
467.9224, 676.9864
468.4045, 677.2122
468.8866, 676.6639
469.3687, 677.2514
469.8509, 679.8134
470.3330, 681.9570
470.8151, 682.9554
471.2972, 682.9705
471.7793, 683.7112
472.2614, 685.3835
472.7436, 687.2606
473.2257, 688.9426
473.7078, 690.4391
474.1899, 691.3937
474.6720, 691.5649
475.1541, 691.7927
475.6363, 693.9108
476.1184, 697.5182
476.6005, 700.0141
477.0826, 699.6230
477.5647, 697.9280
478.0468, 697.4363
478.5290, 698.0836
479.0111, 699.2906
479.4932, 701.3275
479.9753, 703.4045
480.4574, 704.3209
480.9395, 703.3752
481.4217, 702.9097
481.9038, 704.8589
482.3859, 708.0881
482.8680, 710.9144
483.3501, 712.6935
483.8322, 714.0541
484.3144, 715.2180
484.7965, 716.1652
485.2786, 716.7396
485.7607, 716.0635
486.2428, 715.6632
486.7249, 716.3944
487.2071, 719.1593
487.6892, 721.1171
488.1713, 722.2485
488.6534, 722.5959
489.1355, 721.9116
489.6176, 719.4260
490.0998, 718.3554
490.5819, 720.1014
491.0640, 723.8458
491.5461, 725.0338
492.0282, 723.3730
492.5103, 721.4830
492.9925, 721.2479
493.4746, 722.3829
493.9567, 723.2939
494.4388, 723.7706
494.9209, 724.5519
495.4030, 727.2354
495.8852, 730.9069
496.3673, 733.3018
496.8494, 732.6797
497.3315, 731.2137
497.8136, 730.6343
498.2957, 730.8973
498.7779, 731.8766
499.2600, 733.9819
499.7421, 736.4537
500.2242, 738.9156
500.7063, 741.4869
501.1884, 743.4120
501.6706, 743.8685
502.1527, 743.8422
502.6348, 744.3182
503.1169, 746.1678
503.5990, 747.6697
504.0811, 748.8785
504.5633, 749.6395
505.0454, 749.1444
505.5275, 746.2572
506.0096, 744.1030
506.4917, 744.2174
506.9738, 746.8527
507.4560, 748.4997
507.9381, 748.8116
508.4202, 749.0593
508.9023, 750.9280
509.3844, 754.2802
509.8665, 756.6470
510.3487, 757.3569
510.8308, 757.2797
511.3129, 757.7853
511.7950, 758.7808
512.2772, 759.8197
512.7593, 760.8648
513.2414, 761.7202
513.7235, 761.8124
514.2056, 761.2015
514.6877, 761.2245
515.1699, 763.1974
515.6520, 765.9483
516.1341, 768.4548
516.6162, 770.6431
517.0983, 772.2612
517.5804, 772.7908
518.0626, 772.7885
518.5447, 773.1716
519.0268, 774.2219
519.5089, 775.5336
519.9910, 777.3085
520.4731, 779.4679
520.9553, 780.5165
521.4374, 779.4977
521.9195, 778.7866
522.4016, 780.0012
522.8837, 783.7042
523.3658, 786.3314
523.8480, 787.7374
524.3301, 788.3432
524.8122, 788.5356
525.2943, 788.3451
525.7764, 788.1476
526.2585, 788.0710
526.7407, 788.0275
527.2228, 787.5519
527.7049, 786.8110
528.1870, 786.7662
528.6691, 788.4990
529.1512, 790.9837
529.6334, 793.1909
530.1155, 795.0671
530.5976, 796.3495
531.0797, 795.8763
531.5618, 795.2092
532.0439, 795.9755
532.5261, 800.0871
533.0082, 803.4800
533.4903, 804.5328
533.9724, 804.2332
534.4545, 804.7356
534.9366, 807.0372
535.4188, 809.2262
535.9009, 810.8091
536.3830, 811.8101
536.8651, 813.0751
537.3472, 814.8626
537.8293, 816.4371
538.3115, 817.2347
538.7936, 817.2112
539.2757, 817.0562
539.7578, 816.6642
540.2399, 816.5602
540.7220, 817.7180
541.2042, 819.9070
541.6863, 821.8470
542.1684, 822.9432
542.6505, 823.8486
543.1326, 825.6641
543.6147, 828.1478
544.0969, 830.4452
544.5790, 831.8219
545.0611, 832.8922
545.5432, 834.2394
546.0253, 835.9294
546.5074, 837.2983
546.9896, 837.5380
547.4717, 837.6234
547.9538, 838.3563
548.4359, 840.6188
548.9180, 842.5241
549.4001, 843.8620
549.8823, 844.8029
550.3644, 845.5613
550.8465, 845.8457
551.3286, 846.5648
551.8107, 848.1788
552.2928, 850.4911
552.7750, 851.8229
553.2571, 851.9756
553.7392, 852.1752
554.2213, 853.3844
554.7034, 855.3890
555.1855, 856.9330
555.6677, 857.8942
556.1498, 858.8348
556.6319, 860.6595
557.1140, 862.8589
557.5961, 864.3029
558.0782, 864.3091
558.5604, 864.0604
559.0425, 864.1340
559.5246, 864.6735
560.0067, 866.0182
560.4888, 869.3370
560.9709, 872.5464
561.4531, 874.5675
561.9352, 875.3763
562.4173, 876.1870
562.8994, 877.1906
563.3815, 878.2179
563.8636, 879.1384
564.3458, 879.6883
564.8279, 880.9549
565.3100, 883.3981
565.7921, 886.0079
566.2742, 887.4624
566.7563, 887.7074
567.2385, 887.2699
567.7206, 885.7289
568.2027, 884.2426
568.6848, 885.8895
569.1669, 890.3043
569.6490, 894.6092
570.1312, 897.3844
570.6133, 899.1105
571.0954, 900.1412
571.5775, 900.5560
572.0596, 901.1819
572.5417, 902.5305
573.0239, 904.3442
573.5060, 906.1209
573.9881, 907.0764
574.4702, 909.9728
574.9523, 919.2998
575.4344, 929.7402
575.9166, 934.4285
576.3987, 927.3296
576.8808, 922.0084
577.3629, 919.9987
577.8450, 920.7582
578.3271, 922.7711
578.8093, 926.5661
579.2914, 929.9979
579.7735, 932.0843
580.2556, 932.9460
580.7377, 933.5005
581.2198, 933.6578
581.7020, 934.3381
582.1841, 936.6823
582.6662, 940.0695
583.1483, 943.1129
583.6304, 945.5719
584.1125, 947.7262
584.5947, 950.4891
585.0768, 952.9371
585.5589, 953.6686
586.0410, 949.8307
586.5231, 946.8989
587.0052, 947.8758
587.4873, 951.5884
587.9694, 954.8312
588.4515, 957.1627
588.9337, 958.8084
