##NAMES=Cuprostibite
##RRUFFID=R060838
##IDEAL CHEMISTRY=Cu_2_(Sb,Tl)
##LOCALITY=Mount Nakalak, Ilimaussaq, Greenland
##OWNER=RRUFF
##SOURCE=Michael Scott
##DESCRIPTION=Gray metallic with purple-red tint, massive
##STATUS=The identification of this mineral is confirmed by single-crystal X-ray diffraction and chemical analysis.
##URL=rruff.info/R060838
##MEASURED CHEMISTRY=Cu_2.00_Sb_1.00_; trace amounts of S
142.7361, 1784.354
143.2183, 1785.115
143.7004, 1792.282
144.1825, 1809.289
144.6646, 1829.898
145.1467, 1845.126
145.6288, 1848.450
146.1110, 1856.060
146.5931, 1874.851
147.0752, 1914.514
147.5573, 1938.223
148.0394, 1937.151
148.5215, 1921.511
149.0037, 1912.093
149.4858, 1911.538
149.9679, 1914.906
150.4500, 1920.851
150.9321, 1934.668
151.4142, 1943.825
151.8964, 1943.285
152.3785, 1936.846
152.8606, 1938.385
153.3427, 1957.786
153.8248, 1979.439
154.3069, 1995.380
154.7890, 2005.319
155.2712, 2009.454
155.7533, 2001.807
156.2354, 1984.262
156.7175, 1977.908
157.1996, 1996.286
157.6817, 2022.841
158.1639, 2044.395
158.6460, 2049.063
159.1281, 2056.260
159.6102, 2072.455
160.0923, 2098.179
160.5744, 2126.846
161.0566, 2157.099
161.5387, 2188.652
162.0208, 2221.189
162.5029, 2251.335
162.9850, 2284.685
163.4671, 2325.576
163.9493, 2375.507
164.4314, 2425.264
164.9135, 2465.399
165.3956, 2502.569
165.8777, 2548.469
166.3598, 2614.396
166.8420, 2687.534
167.3241, 2759.239
167.8062, 2829.215
168.2883, 2895.628
168.7704, 2954.791
169.2525, 3009.553
169.7346, 3067.867
170.2168, 3137.112
170.6989, 3210.535
171.1810, 3280.451
171.6631, 3343.648
172.1452, 3405.549
172.6273, 3474.750
173.1095, 3548.692
173.5916, 3617.680
174.0737, 3678.952
174.5558, 3730.462
175.0379, 3768.500
175.5201, 3793.739
176.0022, 3804.100
176.4843, 3798.679
176.9664, 3777.309
177.4485, 3735.781
177.9306, 3667.576
178.4128, 3576.640
178.8949, 3470.162
179.3770, 3343.188
179.8591, 3204.926
180.3412, 3066.597
180.8233, 2926.454
181.3055, 2794.840
181.7876, 2679.414
182.2697, 2580.100
182.7518, 2492.063
183.2339, 2416.965
183.7160, 2351.904
184.1982, 2290.621
184.6803, 2232.229
185.1624, 2181.599
185.6445, 2148.076
186.1266, 2129.945
186.6087, 2112.197
187.0908, 2084.610
187.5730, 2050.456
188.0551, 2024.462
188.5372, 2007.753
189.0193, 1997.803
189.5014, 1993.231
189.9835, 1993.828
190.4657, 1991.311
190.9478, 1978.289
191.4299, 1956.294
191.9120, 1939.124
192.3941, 1929.438
192.8762, 1923.200
193.3584, 1910.551
193.8405, 1890.947
194.3226, 1873.207
194.8047, 1863.703
195.2868, 1862.305
195.7689, 1864.636
196.2511, 1872.293
196.7332, 1881.876
197.2153, 1883.552
197.6974, 1877.090
198.1795, 1864.485
198.6616, 1842.212
199.1438, 1808.620
199.6259, 1789.262
200.1080, 1792.167
200.5901, 1812.170
201.0722, 1825.668
201.5543, 1831.683
202.0364, 1834.642
202.5186, 1838.818
203.0007, 1844.752
203.4828, 1847.664
203.9649, 1845.670
204.4470, 1839.332
204.9291, 1833.301
205.4113, 1826.056
205.8934, 1822.207
206.3755, 1829.372
206.8576, 1851.473
207.3397, 1867.043
207.8218, 1868.858
208.3040, 1857.073
208.7861, 1848.632
209.2682, 1843.876
209.7503, 1842.184
210.2324, 1843.792
210.7145, 1850.263
211.1967, 1855.266
211.6788, 1857.529
212.1609, 1857.223
212.6430, 1852.121
213.1251, 1839.999
213.6072, 1825.813
214.0894, 1817.033
214.5715, 1816.006
215.0536, 1814.342
215.5357, 1807.974
216.0178, 1794.748
216.4999, 1789.649
216.9820, 1797.128
217.4642, 1808.939
217.9463, 1809.536
218.4284, 1791.360
218.9105, 1777.956
219.3926, 1780.886
219.8747, 1807.862
220.3569, 1820.866
220.8390, 1814.057
221.3211, 1796.656
221.8032, 1786.768
222.2853, 1788.092
222.7674, 1790.442
223.2496, 1790.044
223.7317, 1786.759
224.2138, 1780.541
224.6959, 1767.326
225.1780, 1752.874
225.6601, 1751.927
226.1423, 1773.847
226.6244, 1793.988
227.1065, 1799.918
227.5886, 1782.052
228.0707, 1773.142
228.5528, 1777.870
229.0350, 1790.739
229.5171, 1795.730
229.9992, 1790.243
230.4813, 1780.766
230.9634, 1769.734
231.4455, 1754.484
231.9276, 1743.139
232.4098, 1735.612
232.8919, 1732.151
233.3740, 1734.552
233.8561, 1746.553
234.3382, 1759.139
234.8203, 1767.515
235.3025, 1768.752
235.7846, 1772.109
236.2667, 1779.934
236.7488, 1790.392
237.2309, 1795.232
237.7130, 1792.599
238.1952, 1786.803
238.6773, 1779.344
239.1594, 1766.452
239.6415, 1760.160
240.1236, 1764.163
240.6057, 1775.890
241.0879, 1782.633
241.5700, 1783.058
242.0521, 1780.141
242.5342, 1774.302
243.0163, 1759.375
243.4984, 1754.793
243.9806, 1767.196
244.4627, 1792.419
244.9448, 1806.358
245.4269, 1803.120
245.9090, 1795.727
246.3911, 1792.410
246.8732, 1795.810
247.3554, 1797.884
247.8375, 1799.457
248.3196, 1799.574
248.8017, 1790.225
249.2838, 1761.815
249.7659, 1736.560
250.2481, 1730.282
250.7302, 1753.512
251.2123, 1773.043
251.6944, 1786.539
252.1765, 1794.002
252.6586, 1794.796
253.1408, 1784.757
253.6229, 1773.862
254.1050, 1769.780
254.5871, 1777.866
255.0692, 1779.775
255.5513, 1769.797
256.0334, 1751.064
256.5156, 1743.530
256.9977, 1750.766
257.4798, 1764.173
257.9619, 1779.671
258.4440, 1802.423
258.9261, 1813.549
259.4083, 1807.073
259.8904, 1786.054
260.3725, 1771.279
260.8546, 1762.567
261.3367, 1760.086
261.8188, 1765.922
262.3010, 1785.333
262.7831, 1797.623
263.2652, 1798.667
263.7473, 1790.353
264.2294, 1783.128
264.7115, 1776.316
265.1937, 1771.927
265.6758, 1771.565
266.1579, 1775.622
266.6400, 1782.683
267.1221, 1794.266
267.6042, 1808.771
268.0864, 1817.370
268.5685, 1818.663
269.0506, 1817.331
269.5327, 1818.237
270.0148, 1823.932
270.4969, 1819.476
270.9791, 1798.656
271.4612, 1767.246
271.9433, 1750.219
272.4254, 1750.073
272.9075, 1757.448
273.3896, 1767.673
273.8718, 1781.638
274.3539, 1792.047
274.8360, 1797.632
275.3181, 1799.319
275.8002, 1799.973
276.2823, 1799.213
276.7645, 1798.689
277.2466, 1799.113
277.7287, 1800.359
278.2108, 1804.584
278.6929, 1814.058
279.1750, 1825.116
279.6572, 1825.160
280.1393, 1811.891
280.6214, 1799.641
281.1035, 1799.705
281.5856, 1812.260
282.0677, 1822.362
282.5499, 1828.612
283.0320, 1831.241
283.5141, 1830.190
283.9962, 1825.242
284.4783, 1818.789
284.9604, 1810.993
285.4425, 1802.121
285.9247, 1797.047
286.4068, 1796.791
286.8889, 1799.720
287.3710, 1803.407
287.8531, 1807.885
288.3352, 1811.868
288.8174, 1815.260
289.2995, 1817.765
289.7816, 1816.838
290.2637, 1811.296
290.7458, 1804.415
291.2279, 1801.156
291.7101, 1801.409
292.1922, 1803.890
292.6743, 1809.872
293.1564, 1817.768
293.6385, 1822.126
294.1206, 1822.400
294.6028, 1819.322
295.0849, 1811.362
295.5670, 1799.699
296.0491, 1791.028
296.5312, 1791.081
297.0133, 1796.658
297.4955, 1801.056
297.9776, 1804.033
298.4597, 1804.818
298.9418, 1800.044
299.4239, 1791.610
299.9060, 1786.040
300.3882, 1789.509
300.8703, 1797.126
301.3524, 1800.319
301.8345, 1798.139
302.3166, 1795.243
302.7987, 1794.486
303.2809, 1796.242
303.7630, 1801.471
304.2451, 1813.735
304.7272, 1828.137
305.2093, 1839.816
305.6914, 1848.795
306.1736, 1852.940
306.6557, 1847.709
307.1378, 1836.946
307.6199, 1827.326
308.1020, 1819.798
308.5841, 1815.698
309.0663, 1816.803
309.5484, 1823.164
310.0305, 1831.849
310.5126, 1844.891
310.9947, 1858.161
311.4768, 1866.310
311.9590, 1865.513
312.4411, 1860.583
312.9232, 1852.257
313.4053, 1841.004
313.8874, 1832.485
314.3695, 1829.776
314.8517, 1830.904
315.3337, 1834.018
315.8159, 1843.372
316.2980, 1849.869
316.7801, 1846.808
317.2622, 1836.186
317.7443, 1829.242
318.2264, 1835.496
318.7086, 1844.162
319.1907, 1847.361
319.6728, 1835.350
320.1549, 1827.814
320.6370, 1834.372
321.1191, 1850.749
321.6013, 1861.915
322.0834, 1859.530
322.5655, 1854.043
323.0476, 1850.844
323.5297, 1852.614
324.0118, 1853.528
324.4940, 1851.725
324.9761, 1848.400
325.4582, 1846.566
325.9403, 1844.855
326.4224, 1846.089
326.9045, 1852.140
327.3867, 1868.230
327.8688, 1878.821
328.3509, 1880.345
328.8330, 1876.765
329.3151, 1874.789
329.7972, 1874.340
330.2794, 1875.678
330.7615, 1880.200
331.2436, 1890.734
331.7257, 1893.766
332.2078, 1883.999
332.6899, 1870.035
333.1721, 1863.104
333.6542, 1865.128
334.1363, 1871.294
334.6184, 1882.886
335.1005, 1900.717
335.5826, 1909.443
336.0648, 1906.144
336.5469, 1897.423
337.0290, 1889.496
337.5111, 1882.314
337.9932, 1875.768
338.4753, 1869.200
338.9575, 1863.011
339.4396, 1861.175
339.9217, 1865.038
340.4038, 1869.661
340.8859, 1869.342
341.3680, 1863.038
341.8502, 1863.546
342.3323, 1876.123
342.8144, 1894.943
343.2965, 1900.424
343.7786, 1891.296
344.2607, 1880.092
344.7429, 1874.641
345.2250, 1874.764
345.7071, 1878.686
346.1892, 1887.749
346.6713, 1897.840
347.1534, 1901.019
347.6355, 1897.732
348.1176, 1894.587
348.5998, 1897.661
349.0819, 1903.817
349.5640, 1902.484
350.0461, 1891.009
350.5282, 1879.175
351.0103, 1881.327
351.4925, 1893.393
351.9746, 1902.229
352.4567, 1893.430
352.9388, 1880.503
353.4209, 1886.655
353.9030, 1913.960
354.3852, 1939.982
354.8673, 1943.060
355.3494, 1932.329
355.8315, 1923.410
356.3136, 1927.527
356.7957, 1932.563
357.2779, 1923.014
357.7600, 1900.613
358.2421, 1889.363
358.7242, 1919.303
359.2063, 1960.741
359.6884, 1982.942
360.1706, 1962.548
360.6527, 1937.266
361.1348, 1921.662
361.6169, 1914.969
362.0990, 1914.238
362.5811, 1927.484
363.0633, 1940.222
363.5454, 1942.097
364.0275, 1921.047
364.5096, 1906.523
364.9917, 1910.590
365.4738, 1925.955
365.9560, 1936.560
366.4381, 1936.323
366.9202, 1933.472
367.4023, 1930.392
367.8844, 1925.948
368.3665, 1924.754
368.8487, 1929.615
369.3308, 1937.087
369.8129, 1942.570
370.2950, 1944.983
370.7771, 1946.823
371.2592, 1949.256
371.7414, 1952.638
372.2235, 1951.673
372.7056, 1941.930
373.1877, 1932.190
373.6698, 1932.489
374.1519, 1950.067
374.6341, 1957.832
375.1162, 1945.516
375.5983, 1918.942
376.0804, 1916.523
376.5625, 1947.603
377.0446, 1978.700
377.5267, 1980.698
378.0089, 1949.431
378.4910, 1934.450
378.9731, 1945.200
379.4552, 1969.517
379.9373, 1980.163
380.4194, 1976.691
380.9016, 1970.706
381.3837, 1968.397
381.8658, 1969.085
382.3479, 1968.180
382.8300, 1964.944
383.3121, 1962.559
383.7943, 1967.021
384.2764, 1976.579
384.7585, 1983.822
385.2406, 1982.843
385.7227, 1978.132
386.2048, 1978.051
386.6870, 1982.498
387.1691, 1987.465
387.6512, 1988.592
388.1333, 1988.018
388.6154, 1989.609
389.0975, 1997.849
389.5797, 2005.162
390.0618, 2001.721
390.5439, 1990.319
391.0260, 1983.496
391.5081, 1994.572
391.9902, 2009.718
392.4724, 2016.632
392.9545, 2008.139
393.4366, 2001.091
393.9187, 2005.401
394.4008, 2016.281
394.8829, 2024.187
395.3651, 2026.938
395.8472, 2025.399
396.3293, 2018.561
396.8114, 2004.411
397.2935, 1993.035
397.7756, 1983.321
398.2578, 1978.198
398.7399, 1980.764
399.2220, 2000.557
399.7041, 2017.872
400.1862, 2030.688
400.6683, 2038.963
401.1505, 2040.598
401.6326, 2031.062
402.1147, 2019.442
402.5968, 2011.203
403.0789, 2005.328
403.5610, 2005.979
404.0432, 2016.836
404.5253, 2033.412
405.0074, 2040.850
405.4895, 2036.191
405.9716, 2030.821
406.4537, 2030.803
406.9359, 2036.524
407.4180, 2040.914
407.9001, 2043.459
408.3822, 2045.557
408.8643, 2049.852
409.3464, 2056.255
409.8285, 2061.377
410.3106, 2063.031
410.7928, 2062.585
411.2749, 2065.293
411.7570, 2071.371
412.2391, 2075.328
412.7212, 2065.839
413.2033, 2050.310
413.6855, 2049.171
414.1676, 2074.995
414.6497, 2106.313
415.1318, 2118.385
415.6139, 2114.185
416.0960, 2105.239
416.5782, 2093.782
417.0603, 2083.213
417.5424, 2077.914
418.0245, 2079.947
418.5066, 2081.621
418.9887, 2076.350
419.4709, 2068.285
419.9530, 2063.848
420.4351, 2067.660
420.9172, 2073.668
421.3993, 2079.517
421.8814, 2085.079
422.3636, 2091.225
422.8457, 2103.834
423.3278, 2114.019
423.8099, 2114.912
424.2920, 2088.890
424.7741, 2073.556
425.2563, 2077.865
425.7384, 2096.803
426.2205, 2109.123
426.7026, 2111.633
427.1847, 2111.602
427.6668, 2112.030
428.1490, 2113.434
428.6311, 2113.468
429.1132, 2111.647
429.5953, 2108.832
430.0774, 2105.835
430.5595, 2102.023
431.0417, 2100.819
431.5238, 2104.637
432.0059, 2112.371
432.4880, 2114.951
432.9701, 2111.431
433.4522, 2107.999
433.9344, 2110.594
434.4165, 2118.516
434.8986, 2127.950
435.3807, 2139.909
435.8628, 2150.206
436.3449, 2149.794
436.8271, 2140.420
437.3092, 2131.702
437.7913, 2131.593
438.2734, 2134.911
438.7555, 2132.317
439.2376, 2121.619
439.7197, 2115.282
440.2018, 2130.806
440.6840, 2155.653
441.1661, 2170.494
441.6482, 2160.483
442.1303, 2144.331
442.6124, 2128.782
443.0945, 2114.559
443.5767, 2106.770
444.0588, 2107.338
444.5409, 2114.797
445.0230, 2129.140
445.5051, 2162.722
445.9872, 2184.835
446.4694, 2185.158
446.9515, 2171.486
447.4336, 2160.595
447.9157, 2153.870
448.3978, 2148.897
448.8799, 2144.423
449.3621, 2139.624
449.8442, 2141.215
450.3263, 2153.442
450.8084, 2166.892
451.2905, 2171.323
451.7726, 2163.914
452.2548, 2158.035
452.7369, 2155.490
453.2190, 2156.185
453.7011, 2161.322
454.1832, 2171.680
454.6653, 2180.233
455.1475, 2179.457
455.6296, 2171.906
456.1117, 2174.628
456.5938, 2191.126
457.0759, 2208.269
457.5580, 2207.117
458.0402, 2192.198
458.5223, 2178.303
459.0044, 2171.701
459.4865, 2169.184
459.9686, 2166.840
460.4507, 2164.851
460.9329, 2164.674
461.4150, 2167.113
461.8971, 2171.935
462.3792, 2179.490
462.8613, 2192.066
463.3434, 2203.095
463.8256, 2210.917
464.3077, 2214.895
464.7898, 2213.803
465.2719, 2195.510
465.7540, 2182.592
466.2361, 2188.008
466.7183, 2217.359
467.2004, 2233.743
467.6825, 2222.622
468.1646, 2205.240
468.6467, 2197.992
469.1288, 2208.094
469.6110, 2216.256
470.0930, 2221.431
470.5752, 2223.233
471.0573, 2218.225
471.5394, 2201.705
472.0215, 2190.731
472.5036, 2197.639
472.9857, 2223.774
473.4679, 2238.015
473.9500, 2238.558
474.4321, 2232.585
474.9142, 2227.863
475.3963, 2224.253
475.8784, 2220.253
476.3606, 2213.928
476.8427, 2208.365
477.3248, 2210.785
477.8069, 2220.184
478.2890, 2229.142
478.7711, 2233.749
479.2533, 2234.613
479.7354, 2231.381
480.2175, 2222.692
480.6996, 2215.074
481.1817, 2211.879
481.6638, 2212.811
482.1460, 2217.513
482.6281, 2230.063
483.1102, 2242.225
483.5923, 2250.648
484.0744, 2255.237
484.5565, 2258.227
485.0387, 2259.071
485.5208, 2258.928
486.0029, 2258.437
486.4850, 2257.492
486.9671, 2256.439
487.4492, 2256.463
487.9314, 2255.952
488.4135, 2250.124
488.8956, 2232.891
489.3777, 2225.545
489.8598, 2240.807
490.3419, 2275.854
490.8241, 2283.957
491.3062, 2259.664
491.7883, 2229.172
492.2704, 2214.491
492.7525, 2214.393
493.2346, 2216.824
493.7168, 2220.343
494.1989, 2224.594
494.6810, 2230.772
495.1631, 2237.719
495.6452, 2240.957
496.1273, 2232.197
496.6095, 2221.327
497.0916, 2222.025
497.5737, 2234.456
498.0558, 2247.835
498.5379, 2256.070
499.0201, 2261.336
499.5022, 2265.625
499.9843, 2269.181
500.4664, 2272.402
500.9485, 2278.010
501.4306, 2283.490
501.9127, 2282.629
502.3948, 2259.213
502.8770, 2243.529
503.3591, 2250.106
503.8412, 2283.820
504.3233, 2305.128
504.8054, 2307.676
505.2875, 2303.781
505.7697, 2303.773
506.2518, 2309.341
506.7339, 2313.295
507.2160, 2315.308
507.6981, 2314.767
508.1802, 2308.011
508.6624, 2294.265
509.1445, 2284.189
509.6266, 2284.420
510.1087, 2292.832
510.5908, 2303.198
511.0729, 2315.931
511.5551, 2324.146
512.0372, 2315.625
512.5193, 2298.670
513.0014, 2290.527
513.4835, 2299.767
513.9656, 2311.816
514.4478, 2314.455
514.9299, 2310.466
515.4120, 2306.836
515.8941, 2304.351
516.3762, 2304.901
516.8583, 2312.596
517.3405, 2329.080
517.8226, 2336.871
518.3047, 2319.339
518.7868, 2298.954
519.2689, 2293.870
519.7510, 2321.635
520.2332, 2340.350
520.7153, 2345.153
521.1974, 2340.515
521.6795, 2336.341
522.1616, 2332.122
522.6437, 2329.920
523.1259, 2332.449
523.6080, 2339.075
524.0901, 2335.585
524.5722, 2319.592
525.0543, 2304.541
525.5364, 2304.530
526.0186, 2316.531
526.5007, 2326.097
526.9828, 2329.622
527.4649, 2331.909
527.9470, 2342.685
528.4291, 2357.726
528.9113, 2365.384
529.3934, 2350.969
529.8755, 2332.906
530.3576, 2326.315
530.8397, 2331.423
531.3218, 2339.320
531.8040, 2351.256
532.2861, 2361.163
532.7682, 2363.764
533.2503, 2352.641
533.7324, 2343.652
534.2145, 2339.632
534.6967, 2338.928
535.1788, 2338.692
535.6609, 2339.762
536.1430, 2340.021
536.6251, 2338.322
537.1072, 2334.986
537.5894, 2334.781
538.0715, 2338.520
538.5536, 2343.018
539.0357, 2345.992
539.5178, 2347.495
539.9999, 2349.081
540.4821, 2350.803
540.9642, 2352.628
541.4463, 2354.681
541.9284, 2356.805
542.4105, 2358.511
542.8926, 2358.730
543.3748, 2359.141
543.8569, 2362.878
544.3390, 2368.964
544.8211, 2372.893
545.3032, 2369.011
545.7853, 2364.195
546.2675, 2363.989
546.7495, 2370.372
547.2316, 2376.195
547.7137, 2379.201
548.1959, 2380.817
548.6780, 2382.636
549.1601, 2387.456
549.6422, 2389.000
550.1243, 2385.640
550.6064, 2378.649
551.0886, 2371.797
551.5707, 2363.771
552.0528, 2359.142
552.5349, 2361.135
553.0170, 2369.479
553.4991, 2375.201
553.9813, 2377.948
554.4634, 2379.882
554.9455, 2383.792
555.4276, 2388.847
555.9097, 2391.730
556.3918, 2391.583
556.8740, 2389.637
557.3561, 2385.340
557.8382, 2380.241
558.3203, 2378.105
558.8024, 2382.615
559.2845, 2389.217
559.7667, 2396.177
560.2488, 2403.150
560.7309, 2407.553
561.2130, 2403.775
561.6951, 2400.477
562.1772, 2403.799
562.6594, 2423.186
563.1415, 2432.054
563.6236, 2424.458
564.1057, 2409.586
564.5878, 2398.942
565.0699, 2393.345
565.5521, 2389.678
566.0342, 2386.798
566.5163, 2385.573
566.9984, 2389.121
567.4805, 2397.515
567.9626, 2409.757
568.4448, 2432.403
568.9269, 2458.258
569.4090, 2463.051
569.8911, 2444.674
570.3732, 2424.300
570.8553, 2424.240
571.3375, 2433.615
571.8196, 2434.573
572.3017, 2412.566
572.7838, 2398.274
573.2659, 2421.016
573.7480, 2462.431
574.2302, 2485.766
574.7123, 2462.164
575.1944, 2436.595
575.6765, 2422.209
576.1586, 2419.462
576.6407, 2423.783
577.1229, 2441.729
577.6050, 2458.782
578.0871, 2466.787
578.5692, 2464.616
579.0513, 2457.346
579.5334, 2442.436
580.0156, 2428.058
580.4977, 2426.988
580.9798, 2438.097
581.4619, 2448.625
581.9440, 2455.369
582.4261, 2459.252
582.9083, 2460.511
583.3904, 2459.698
583.8725, 2459.263
584.3546, 2460.798
584.8367, 2463.097
585.3188, 2466.008
585.8010, 2469.516
586.2831, 2470.370
586.7652, 2459.295
587.2473, 2449.772
587.7294, 2452.545
588.2115, 2485.764
588.6937, 2506.179
589.1758, 2506.259
589.6579, 2495.416
590.1400, 2488.261
590.6221, 2487.534
591.1042, 2483.212
591.5864, 2470.765
592.0685, 2453.524
592.5506, 2445.156
593.0327, 2445.930
593.5148, 2452.327
593.9969, 2467.309
594.4791, 2485.959
594.9612, 2493.569
595.4433, 2489.224
595.9254, 2481.169
596.4075, 2473.581
596.8896, 2467.576
597.3718, 2464.877
597.8539, 2466.727
598.3360, 2470.382
598.8181, 2477.147
599.3002, 2484.470
599.7823, 2487.724
600.2645, 2481.135
600.7466, 2475.490
601.2287, 2472.289
601.7108, 2471.731
602.1929, 2477.724
602.6750, 2495.761
603.1572, 2510.285
603.6393, 2511.589
604.1214, 2498.630
604.6035, 2487.634
605.0856, 2477.609
605.5677, 2473.504
606.0499, 2486.186
606.5320, 2510.241
607.0141, 2525.780
607.4962, 2527.462
607.9783, 2521.355
608.4604, 2509.564
608.9425, 2494.865
609.4246, 2483.635
609.9067, 2478.738
610.3889, 2477.794
610.8710, 2481.457
611.3531, 2488.956
611.8352, 2494.316
612.3173, 2492.507
612.7994, 2491.827
613.2816, 2496.837
613.7637, 2510.137
614.2458, 2518.870
614.7279, 2523.707
615.2100, 2523.069
615.6921, 2511.032
616.1743, 2486.213
616.6564, 2476.863
617.1385, 2491.266
617.6206, 2513.221
618.1027, 2514.287
618.5848, 2499.556
619.0670, 2489.759
619.5491, 2498.558
620.0312, 2512.838
620.5133, 2520.310
620.9954, 2521.859
621.4775, 2522.061
621.9597, 2519.819
622.4418, 2519.405
622.9239, 2525.956
623.4060, 2543.182
623.8881, 2549.344
624.3702, 2532.462
624.8524, 2511.147
625.3345, 2498.380
625.8166, 2496.444
626.2987, 2497.558
626.7808, 2503.133
627.2629, 2509.009
627.7451, 2507.256
628.2272, 2498.081
628.7093, 2489.696
629.1914, 2483.581
629.6735, 2480.851
630.1556, 2485.790
630.6378, 2496.696
631.1199, 2506.272
631.6020, 2510.976
632.0841, 2512.175
632.5662, 2509.966
633.0483, 2504.416
633.5305, 2499.336
634.0126, 2492.448
634.4947, 2489.198
634.9768, 2494.468
635.4589, 2518.790
635.9410, 2530.253
636.4232, 2523.888
636.9053, 2509.326
637.3874, 2496.357
637.8695, 2484.299
638.3516, 2477.921
638.8337, 2478.462
