##NAMES=Cuprosklodowskite
##RRUFFID=R060570
##IDEAL CHEMISTRY=Cu^2+^(U^6+^O_2_)_2_(SiO_3_OH)_2_&#183;6H_2_O
##LOCALITY=Musonoi Extension mine, near Kolwezi, Shaba Province, Zaire
##OWNER=RRUFF
##SOURCE=Michael Scott
##DESCRIPTION=Green colored acicular crystals
##STATUS=The identification of this mineral has been confirmed by single-crystal X-ray diffraction.
##URL=rruff.info/R060570
115.737, 24569.160
116.219, 25988.090
116.701, 27595.051
117.183, 29229.340
117.665, 30938.779
118.147, 32814.789
118.629, 34272.852
119.112, 34746.570
119.594, 34594.750
120.076, 34477.039
120.558, 34755.090
121.040, 35173.512
121.522, 35527.910
122.004, 35782.891
122.486, 35963.020
122.968, 36077.148
123.451, 36128.289
123.933, 36130.809
124.415, 36043.461
124.897, 35921.602
125.379, 35845.789
125.861, 35817.980
126.343, 35865.000
126.825, 36024.512
127.307, 36296.391
127.790, 36660.551
128.272, 37151.531
128.754, 37731.148
129.236, 38289.891
129.718, 38803.430
130.200, 39266.039
130.682, 39676.148
131.164, 40037.680
131.646, 40309.430
132.129, 40431.090
132.611, 40404.289
133.093, 40278.238
133.575, 40056.391
134.057, 39745.129
134.539, 39386.090
135.021, 38967.320
135.503, 38518.469
135.986, 38102.691
136.468, 37717.191
136.950, 37355.141
137.432, 36993.461
137.914, 36618.500
138.396, 36357.430
138.878, 36268.270
139.360, 36294.988
139.842, 36195.031
140.325, 35925.480
140.807, 35618.789
141.289, 35373.781
141.771, 35184.859
142.253, 35065.180
142.735, 35017.070
143.217, 35040.859
143.699, 35146.230
144.182, 35363.148
144.664, 35636.160
145.146, 35903.250
145.628, 36116.980
146.110, 36397.109
146.592, 36773.512
147.074, 37266.531
147.556, 37776.680
148.038, 38292.750
148.521, 38832.910
149.003, 39417.352
149.485, 40054.441
149.967, 40736.660
150.449, 41461.750
150.931, 42249.141
151.413, 43053.449
151.895, 43858.691
152.378, 44683.840
152.860, 45557.129
153.342, 46476.539
153.824, 47442.270
154.306, 48450.262
154.788, 49562.102
155.270, 50638.828
155.752, 51498.738
156.234, 52261.051
156.717, 53431.301
157.199, 55727.871
157.681, 58097.840
158.163, 59872.070
158.645, 60222.781
159.127, 60639.320
159.609, 61540.738
160.091, 62897.238
160.574, 64340.840
161.056, 65847.500
161.538, 67337.781
162.020, 68738.133
162.502, 69985.258
162.984, 71161.453
163.466, 72310.227
163.948, 73432.031
164.430, 74465.797
164.913, 75409.008
165.395, 76233.422
165.877, 76918.047
166.359, 77419.617
166.841, 77799.492
167.323, 78093.688
167.805, 78305.188
168.287, 78444.422
168.770, 78484.117
169.252, 78459.438
169.734, 78435.227
170.216, 78475.406
170.698, 78519.469
171.180, 78485.938
171.662, 78326.094
172.144, 78207.938
172.626, 78293.656
173.109, 78543.297
173.591, 78827.789
174.073, 79059.953
174.555, 79286.828
175.037, 79569.891
175.519, 79911.750
176.001, 80329.867
176.483, 80834.141
176.965, 81428.406
177.448, 82110.977
177.930, 82908.180
178.412, 83789.953
178.894, 84695.211
179.376, 85587.211
179.858, 86504.273
180.340, 87512.047
180.822, 88599.008
181.305, 89726.922
181.787, 90810.367
182.269, 91886.156
182.751, 93042.359
183.233, 94313.039
183.715, 95670.852
184.197, 97039.758
184.679, 98432.477
185.161, 99811.438
185.644, 101133.602
186.126, 102397.203
186.608, 103736.602
187.090, 105252.898
187.572, 106859.500
188.054, 108287.500
188.536, 109497.398
189.018, 110671.297
189.501, 112019.500
189.983, 113513.398
190.465, 115042.602
190.947, 116499.703
191.429, 117929.102
191.911, 119540.500
192.393, 121357.203
192.875, 123280.203
193.357, 125146.297
193.840, 126948.398
194.322, 128925.398
194.804, 131260.297
195.286, 133932.000
195.768, 136659.500
196.250, 139397.500
196.732, 142249.000
197.214, 145452.906
197.697, 149029.797
198.179, 152817.797
198.661, 156768.703
199.143, 160883.703
199.625, 165207.500
200.107, 169838.500
200.589, 174643.797
201.071, 179372.500
201.553, 184041.203
202.036, 188640.703
202.518, 193272.203
203.000, 197973.594
203.482, 202386.000
203.964, 206536.000
204.446, 210337.500
204.928, 213589.000
205.410, 216341.000
205.893, 218367.500
206.375, 219564.594
206.857, 219987.906
207.339, 219275.297
207.821, 217310.094
208.303, 214181.297
208.785, 210252.703
209.267, 205454.094
209.749, 199962.797
210.232, 193797.500
210.714, 186755.500
211.196, 179741.000
211.678, 172852.203
212.160, 166069.000
212.642, 159432.203
213.124, 152820.297
213.606, 146477.797
214.089, 140681.297
214.571, 135431.000
215.053, 130581.898
215.535, 126101.102
216.017, 121964.398
216.499, 118123.000
216.981, 114562.398
217.463, 111264.102
217.945, 108210.297
218.428, 105512.602
218.910, 102902.500
219.392, 100352.398
219.874, 97849.156
220.356, 95465.133
220.838, 93273.383
221.320, 91135.523
221.802, 88933.133
222.285, 86626.406
222.767, 84361.156
223.249, 82199.031
223.731, 80127.539
224.213, 78078.562
224.695, 76011.547
225.177, 73995.406
225.659, 72071.047
226.141, 70264.359
226.624, 68527.703
227.106, 66843.930
227.588, 65214.879
228.070, 63683.141
228.552, 62262.012
229.034, 60936.430
229.516, 59722.789
229.998, 58685.371
230.480, 57635.891
230.963, 56503.020
231.445, 55260.809
231.927, 54138.289
232.409, 53154.641
232.891, 52288.039
233.373, 51507.020
233.855, 50848.340
234.337, 50220.039
234.820, 49583.930
235.302, 48914.461
235.784, 48353.270
236.266, 47931.699
236.748, 47597.211
237.230, 47281.691
237.712, 46989.129
238.194, 46702.891
238.676, 46413.969
239.159, 46109.590
239.641, 45859.852
240.123, 45676.680
240.605, 45540.930
241.087, 45424.000
241.569, 45314.801
242.051, 45242.051
242.533, 45223.719
243.016, 45277.078
243.498, 45305.410
243.980, 45279.500
244.462, 45246.480
244.944, 45286.172
245.426, 45449.148
245.908, 45598.738
246.390, 45678.031
246.872, 45651.711
247.355, 45697.949
247.837, 45840.211
248.319, 46036.141
248.801, 46216.801
249.283, 46361.969
249.765, 46523.789
250.247, 46726.379
250.729, 46983.949
251.212, 47211.410
251.694, 47387.488
252.176, 47547.922
252.658, 47746.641
253.140, 47988.090
253.622, 48266.551
254.104, 48588.320
254.586, 48958.328
255.068, 49342.461
255.551, 49716.891
256.033, 50122.809
256.515, 50631.801
256.997, 51289.398
257.479, 51965.719
257.961, 52611.480
258.443, 53206.289
258.925, 53895.500
259.408, 54704.000
259.890, 55593.129
260.372, 56515.828
260.854, 57464.199
261.336, 58464.160
261.818, 59538.379
262.300, 60687.078
262.782, 61870.898
263.264, 63088.551
263.746, 64339.281
264.229, 65589.094
264.711, 66829.031
265.193, 68115.391
265.675, 69497.602
266.157, 70985.188
266.639, 72421.062
267.121, 73775.547
267.603, 75107.727
268.086, 76518.688
268.568, 77999.672
269.050, 79552.109
269.532, 81173.250
270.014, 82858.977
270.496, 84607.820
270.978, 86435.977
271.460, 88250.961
271.943, 90032.883
272.425, 91876.953
272.907, 93253.523
273.389, 93936.492
273.871, 93916.602
274.353, 93810.102
274.835, 93656.391
275.317, 93346.727
275.799, 92792.203
276.282, 92026.891
276.764, 90805.867
277.246, 88959.391
277.728, 86532.219
278.210, 84055.180
278.692, 81555.406
279.174, 79031.383
279.656, 76454.648
280.138, 73809.648
280.621, 71276.992
281.103, 68891.922
281.585, 66659.312
282.067, 64610.609
282.549, 62734.039
283.031, 61064.840
283.513, 59626.270
283.995, 58418.559
284.478, 57391.430
284.960, 56558.398
285.442, 55893.852
285.924, 55260.211
286.406, 54635.941
286.888, 54163.199
287.370, 54006.199
287.852, 54148.969
288.335, 54390.988
288.817, 54664.559
289.299, 55006.219
289.781, 55536.660
290.263, 56259.871
290.745, 57120.801
291.227, 58058.391
291.709, 59086.531
292.191, 60230.879
292.674, 61509.070
293.156, 62906.730
293.638, 64403.949
294.120, 65987.469
294.602, 67669.688
295.084, 69454.523
295.566, 71341.328
296.048, 73274.633
296.530, 75284.453
297.013, 77316.727
297.495, 79257.703
297.977, 81136.773
298.459, 82954.789
298.941, 84869.977
299.423, 86761.398
299.905, 88336.320
300.387, 89544.633
300.870, 90443.211
301.352, 91147.953
301.834, 91637.008
302.316, 91791.156
302.798, 91537.219
303.280, 90897.031
303.762, 89884.523
304.244, 88491.383
304.727, 86755.812
305.209, 84665.883
305.691, 82270.281
306.173, 79664.820
306.655, 76873.523
307.137, 73959.352
307.619, 71022.773
308.101, 68073.203
308.583, 65152.230
309.065, 62284.281
309.548, 59485.031
310.030, 56851.250
310.512, 54423.578
310.994, 52183.359
311.476, 50122.609
311.958, 48245.922
312.440, 46531.051
312.922, 44990.551
313.405, 43587.051
313.887, 42248.910
314.369, 40899.172
314.851, 39641.988
315.333, 38563.270
315.815, 37682.000
316.297, 36838.160
316.779, 35931.699
317.262, 35037.371
317.744, 34230.711
318.226, 33596.949
318.708, 33011.609
319.190, 32414.801
319.672, 31803.641
320.154, 31238.840
320.636, 30756.580
321.118, 30320.439
321.601, 29898.400
322.083, 29453.840
322.565, 29051.240
323.047, 28718.750
323.529, 28451.340
324.011, 28202.980
324.493, 27971.961
324.975, 27753.160
325.457, 27543.150
325.940, 27343.000
326.422, 27148.350
326.904, 26959.461
327.386, 26775.061
327.868, 26599.930
328.350, 26433.400
328.832, 26274.529
329.314, 26123.330
329.797, 25993.189
330.279, 25847.141
330.761, 25638.449
331.243, 25416.410
331.725, 25341.900
332.207, 25581.141
332.689, 25760.820
333.171, 25709.561
333.654, 25299.670
334.136, 24989.311
334.618, 24806.221
335.100, 24709.789
335.582, 24625.320
336.064, 24549.551
336.546, 24496.090
337.028, 24475.660
337.510, 24493.770
337.992, 24503.000
338.475, 24505.109
338.957, 24495.170
339.439, 24455.801
339.921, 24375.250
340.403, 24323.551
340.885, 24331.061
341.367, 24390.631
341.849, 24426.670
342.332, 24433.561
342.814, 24436.260
343.296, 24461.750
343.778, 24509.779
344.260, 24561.660
344.742, 24615.711
345.224, 24669.750
345.706, 24713.250
346.189, 24746.770
346.671, 24778.471
347.153, 24818.311
347.635, 24863.910
348.117, 24897.750
348.599, 24909.650
349.081, 24919.020
349.563, 24952.990
350.045, 25011.109
350.528, 25092.779
351.010, 25223.080
351.492, 25371.381
351.974, 25469.670
352.456, 25495.420
352.938, 25513.311
353.420, 25603.289
353.902, 25743.279
354.384, 25875.301
354.867, 25972.160
355.349, 26040.660
355.831, 26071.369
356.313, 26057.061
356.795, 26068.811
357.277, 26185.039
357.759, 26357.330
358.241, 26509.000
358.724, 26596.711
359.206, 26662.730
359.688, 26711.141
360.170, 26744.109
360.652, 26828.680
361.134, 27041.820
361.616, 27301.199
362.098, 27530.600
362.581, 27713.881
363.063, 27854.609
363.545, 27914.711
364.027, 27914.131
364.509, 27972.320
364.991, 28146.391
365.473, 28370.420
365.955, 28603.910
366.437, 28835.850
366.919, 29087.270
367.402, 29373.680
367.884, 29683.471
368.366, 29985.131
368.848, 30243.619
369.330, 30525.020
369.812, 30853.430
370.294, 31240.520
370.776, 31652.090
371.259, 32097.820
371.741, 32562.359
372.223, 33017.949
372.705, 33445.570
373.187, 33897.930
373.669, 34387.039
374.151, 34914.262
374.633, 35495.180
375.116, 36141.180
375.598, 36819.641
376.080, 37488.648
376.562, 38148.359
377.044, 38802.422
377.526, 39410.141
378.008, 40016.809
378.490, 40873.141
378.973, 42043.551
379.455, 43130.578
379.937, 43817.891
380.419, 44122.578
380.901, 44386.109
381.383, 44634.711
381.865, 44887.512
382.347, 45197.051
382.829, 45557.160
383.311, 45878.051
383.794, 46108.340
384.276, 46264.539
384.758, 46398.699
385.240, 46517.770
385.722, 46587.488
386.204, 46594.191
386.686, 46523.660
387.168, 46342.898
387.651, 45976.551
388.133, 45521.172
388.615, 45087.180
389.097, 44668.449
389.579, 44211.172
390.061, 43648.781
390.543, 43037.879
391.025, 42432.219
391.508, 41887.871
391.990, 41314.289
392.472, 40632.328
392.954, 39867.879
393.436, 39140.590
393.918, 38534.250
394.400, 37961.430
394.882, 37358.922
395.364, 36697.020
395.847, 36055.109
396.329, 35436.719
396.811, 34849.789
397.293, 34302.840
397.775, 33827.012
398.257, 33361.449
398.739, 32895.500
399.221, 32428.131
399.703, 31947.830
400.186, 31423.270
400.668, 30903.500
401.150, 30434.221
401.632, 30028.820
402.114, 29650.051
402.596, 29297.150
403.078, 28968.461
403.560, 28665.301
404.043, 28394.609
404.525, 28137.359
405.007, 27874.391
405.489, 27598.400
405.971, 27357.770
406.453, 27164.410
406.935, 26999.801
407.417, 26816.510
407.900, 26613.250
408.382, 26418.359
408.864, 26246.779
409.346, 26095.949
409.828, 25947.949
410.310, 25797.789
410.792, 25667.650
411.274, 25600.939
411.756, 25581.680
412.238, 25536.590
412.721, 25418.891
413.203, 25276.100
413.685, 25175.449
414.167, 25116.881
414.649, 25091.689
415.131, 25113.910
415.613, 25158.971
416.095, 25192.529
416.578, 25206.350
417.060, 25208.490
417.542, 25190.631
418.024, 25164.381
418.506, 25158.369
418.988, 25193.260
419.470, 25246.500
419.952, 25306.711
420.435, 25374.580
420.917, 25439.779
421.399, 25449.500
421.881, 25474.010
422.363, 25591.490
422.845, 25972.311
423.327, 26287.760
423.809, 26438.119
424.291, 26428.510
424.774, 26427.650
425.256, 26453.891
425.738, 26482.770
426.220, 26498.359
426.702, 26465.891
427.184, 26485.150
427.666, 26581.570
428.148, 26722.760
428.630, 26834.119
429.113, 26906.420
429.595, 26968.789
430.077, 27024.580
430.559, 27071.400
431.041, 27156.510
431.523, 27296.609
432.005, 27434.131
432.487, 27496.119
432.970, 27482.721
433.452, 27461.039
433.934, 27442.551
434.416, 27431.131
434.898, 27444.240
435.380, 27480.949
435.862, 27508.869
436.344, 27517.141
436.827, 27498.449
437.309, 27428.439
437.791, 27293.289
438.273, 27142.070
438.755, 27023.320
439.237, 26925.859
439.719, 26823.520
440.201, 26703.631
440.683, 26573.600
441.165, 26437.311
441.648, 26294.160
442.130, 26148.900
442.612, 26007.680
443.094, 25863.141
443.576, 25708.891
444.058, 25517.119
444.540, 25343.900
445.022, 25208.699
445.505, 25103.750
445.987, 25006.289
446.469, 24918.570
446.951, 24831.160
447.433, 24738.721
447.915, 24637.301
448.397, 24546.391
448.879, 24474.840
449.362, 24408.730
449.844, 24326.449
450.326, 24207.840
450.808, 24119.789
451.290, 24083.090
451.772, 24091.680
452.254, 24094.670
452.736, 24082.939
453.218, 24093.029
453.701, 24161.971
454.183, 24287.369
454.665, 24402.619
455.147, 24489.789
455.629, 24584.279
456.111, 24751.180
456.593, 24982.770
457.075, 25232.580
457.557, 25467.250
458.040, 25705.949
458.522, 25984.699
459.004, 26306.609
459.486, 26653.971
459.968, 27005.369
460.450, 27376.910
460.932, 27786.051
461.414, 28257.410
461.897, 28750.100
462.379, 29238.391
462.861, 29733.020
463.343, 30249.029
463.825, 30793.020
464.307, 31367.250
464.789, 31973.801
465.271, 32624.801
465.754, 33293.289
466.236, 33991.410
466.718, 34699.398
467.200, 35404.672
467.682, 36135.090
468.164, 36821.840
468.646, 37441.461
469.128, 38006.078
469.610, 38579.730
470.093, 39177.750
470.575, 39750.070
471.057, 40279.020
471.539, 40776.789
472.021, 41164.570
472.503, 41433.789
472.985, 41606.691
473.467, 41714.930
473.949, 41756.930
474.432, 41745.180
474.914, 41679.078
475.396, 41563.852
475.878, 41414.340
476.360, 41231.051
476.842, 41011.539
477.324, 40773.449
477.806, 40498.250
478.289, 40142.148
478.771, 39679.910
479.253, 39184.000
479.735, 38724.129
480.217, 38282.121
480.699, 37816.559
481.181, 37244.738
481.663, 36694.121
482.146, 36243.629
482.628, 35898.320
483.110, 35564.488
483.592, 35217.410
484.074, 34860.641
484.556, 34500.539
485.038, 34132.789
485.520, 33760.340
486.002, 33355.801
486.484, 32944.609
486.967, 32585.570
487.449, 32308.240
487.931, 32039.199
488.413, 31751.811
488.895, 31439.150
489.377, 31169.010
489.859, 30964.760
490.341, 30771.660
490.824, 30529.391
491.306, 30237.199
491.788, 29959.840
492.270, 29711.641
492.752, 29488.260
493.234, 29282.500
493.716, 29097.830
494.198, 28928.320
494.681, 28776.869
495.163, 28638.150
495.645, 28507.330
496.127, 28382.881
496.609, 28260.170
497.091, 28119.510
497.573, 27981.730
498.055, 27876.561
498.537, 27847.580
499.020, 27815.641
499.502, 27728.711
499.984, 27602.520
500.466, 27485.100
500.948, 27410.211
501.430, 27336.270
501.912, 27232.199
502.394, 27071.840
502.876, 26967.830
503.359, 26960.891
503.841, 26994.789
504.323, 27019.051
504.805, 27031.971
505.287, 27038.180
505.769, 27036.520
506.251, 27028.119
506.733, 27014.570
507.216, 26989.869
507.698, 26977.869
508.180, 26982.020
508.662, 27003.699
509.144, 27089.650
509.626, 27250.840
510.108, 27421.801
510.590, 27515.631
511.073, 27552.391
511.555, 27600.570
512.037, 27667.369
512.519, 27772.570
513.001, 27967.770
513.483, 28230.631
513.965, 28474.000
514.447, 28580.471
514.929, 28691.619
515.412, 28952.779
515.894, 29407.631
516.376, 29812.990
516.858, 29980.789
517.340, 30085.779
517.822, 30299.211
518.304, 30731.721
518.786, 31184.650
519.268, 31633.789
519.751, 32078.539
520.233, 32528.391
520.715, 32957.238
521.197, 33428.801
521.679, 33971.520
522.161, 34591.801
522.643, 35251.102
523.125, 35956.488
523.607, 36693.629
524.090, 37454.672
524.572, 38236.750
525.054, 39020.410
525.536, 39789.609
526.018, 40590.648
526.500, 41523.641
526.982, 42571.070
527.464, 43618.109
527.947, 44540.199
528.429, 45439.879
528.911, 46484.641
529.393, 47673.051
529.875, 48871.949
530.357, 49999.922
530.839, 51079.988
531.321, 52114.391
531.804, 53085.441
532.286, 54060.449
532.768, 55087.730
533.250, 56126.922
533.732, 57054.121
534.214, 57860.691
534.696, 58554.000
535.178, 59172.211
535.661, 59721.910
536.143, 60031.730
536.625, 60069.559
537.107, 59919.922
537.589, 59665.250
538.071, 59335.051
538.553, 58701.621
539.035, 57700.270
539.517, 56459.801
540.000, 55149.070
540.482, 53773.191
540.964, 52398.660
541.446, 51077.629
541.928, 49756.820
542.410, 48337.930
542.892, 46832.219
543.374, 45357.699
543.856, 43963.590
544.339, 42645.898
544.821, 41374.539
545.303, 40142.691
545.785, 38971.301
546.267, 37840.109
546.749, 36774.980
547.231, 35802.871
547.713, 35010.859
548.195, 34225.852
548.678, 33364.629
549.160, 32456.980
549.642, 31682.770
550.124, 31113.131
550.606, 30584.461
551.088, 30014.100
551.570, 29385.381
552.052, 28841.510
552.534, 28405.971
553.017, 28014.311
553.499, 27581.289
553.981, 27115.609
554.463, 26729.689
554.945, 26469.461
555.427, 26260.580
555.909, 25990.199
556.391, 25665.900
556.874, 25322.949
557.356, 24940.359
557.838, 24572.430
558.320, 24283.279
558.802, 24076.311
559.284, 23891.131
559.766, 23707.820
560.248, 23528.070
560.731, 23353.990
561.213, 23194.230
561.695, 23029.471
562.177, 22839.029
562.659, 22645.029
563.141, 22487.410
563.623, 22392.650
564.105, 22291.279
564.588, 22163.910
565.070, 22015.750
565.552, 21891.131
566.034, 21794.721
566.516, 21708.641
566.998, 21627.830
567.480, 21550.971
567.962, 21446.850
568.444, 21306.510
568.927, 21185.680
569.409, 21192.039
569.891, 21269.080
570.373, 21267.301
570.855, 21103.711
571.337, 20905.529
571.819, 20777.080
572.301, 20702.141
572.783, 20634.510
573.266, 20563.311
573.748, 20486.980
574.230, 20401.391
574.712, 20304.609
575.194, 20218.279
575.676, 20151.260
576.158, 20092.869
576.640, 20038.711
577.122, 19995.160
577.605, 19942.949
578.087, 19879.699
578.569, 19811.221
579.051, 19743.930
579.533, 19678.461
580.015, 19616.920
580.497, 19553.900
580.979, 19500.039
581.461, 19472.381
581.944, 19473.420
582.426, 19533.439
582.908, 19752.971
583.390, 20011.600
583.872, 20141.529
584.354, 20128.520
584.836, 20015.660
585.318, 19735.881
585.801, 19415.711
586.283, 19181.619
586.765, 19115.990
587.247, 19070.660
587.729, 19008.320
588.211, 18940.189
588.693, 18890.211
589.175, 18873.490
589.657, 18855.279
590.140, 18828.180
590.622, 18792.711
591.104, 18754.150
591.586, 18710.260
592.068, 18670.020
592.550, 18644.760
593.032, 18632.061
593.515, 18600.270
593.997, 18546.119
594.479, 18485.520
594.961, 18430.150
595.443, 18382.359
595.925, 18350.789
596.407, 18350.430
596.889, 18345.920
597.371, 18301.051
597.854, 18230.189
598.336, 18165.369
598.818, 18125.600
599.300, 18089.561
599.782, 18046.020
600.264, 17994.400
600.746, 17952.461
601.228, 17917.961
601.710, 17895.881
602.193, 17894.330
602.675, 17928.301
603.157, 17926.381
603.639, 17879.859
604.121, 17813.760
604.603, 17748.609
605.085, 17685.680
605.567, 17656.340
606.049, 17682.260
606.532, 17720.230
607.014, 17689.020
607.496, 17605.580
607.978, 17530.109
608.460, 17494.539
608.942, 17481.141
609.424, 17483.150
609.906, 17497.971
610.388, 17502.221
610.871, 17467.420
