##NAMES=Cuprostibite
##RRUFFID=R060838
##IDEAL CHEMISTRY=Cu_2_(Sb,Tl)
##LOCALITY=Mount Nakalak, Ilimaussaq, Greenland
##OWNER=RRUFF
##SOURCE=Michael Scott
##DESCRIPTION=Gray metallic with purple-red tint, massive
##STATUS=The identification of this mineral is confirmed by single-crystal X-ray diffraction and chemical analysis.
##URL=rruff.info/R060838
##MEASURED CHEMISTRY=Cu_2.00_Sb_1.00_; trace amounts of S
157.2041, 3068.100
157.6862, 3085.843
158.1683, 3101.302
158.6504, 3109.455
159.1325, 3105.439
159.6146, 3093.404
160.0968, 3084.936
160.5789, 3077.645
161.0610, 3076.773
161.5431, 3090.782
162.0252, 3117.459
162.5073, 3138.904
162.9895, 3144.994
163.4716, 3139.762
163.9537, 3133.679
164.4358, 3119.553
164.9179, 3113.779
165.4000, 3133.999
165.8822, 3179.339
166.3643, 3224.432
166.8464, 3250.407
167.3285, 3271.236
167.8106, 3313.085
168.2927, 3388.814
168.7749, 3473.332
169.2570, 3543.113
169.7391, 3597.463
170.2212, 3654.372
170.7033, 3725.133
171.1854, 3803.763
171.6676, 3881.470
172.1497, 3957.568
172.6318, 4031.241
173.1139, 4105.255
173.5960, 4181.377
174.0781, 4243.092
174.5603, 4278.186
175.0424, 4294.165
175.5245, 4301.984
176.0066, 4312.648
176.4887, 4304.585
176.9708, 4249.509
177.4530, 4143.477
177.9351, 4015.155
178.4172, 3870.349
178.8993, 3712.046
179.3814, 3541.302
179.8635, 3347.367
180.3457, 3155.653
180.8278, 3001.171
181.3099, 2890.548
181.7920, 2785.009
182.2741, 2658.540
182.7562, 2530.328
183.2384, 2423.148
183.7205, 2347.736
184.2026, 2288.585
184.6847, 2224.961
185.1668, 2155.719
185.6489, 2089.277
186.1311, 2028.349
186.6132, 1972.749
187.0953, 1923.320
187.5774, 1880.692
188.0595, 1843.602
188.5416, 1809.932
189.0238, 1778.751
189.5059, 1754.636
189.9880, 1752.998
190.4701, 1754.280
190.9522, 1735.736
191.4343, 1683.739
191.9165, 1624.174
192.3986, 1595.949
192.8807, 1606.135
193.3628, 1616.151
193.8449, 1608.467
194.3270, 1594.210
194.8092, 1582.586
195.2913, 1575.853
195.7734, 1573.003
196.2555, 1575.044
196.7376, 1584.285
197.2197, 1587.561
197.7019, 1571.575
198.1840, 1550.915
198.6661, 1538.057
199.1482, 1536.731
199.6303, 1542.055
200.1124, 1549.878
200.5946, 1561.541
201.0767, 1568.653
201.5588, 1565.273
202.0409, 1557.204
202.5230, 1548.527
203.0051, 1540.365
203.4873, 1531.085
203.9694, 1517.102
204.4515, 1497.083
204.9336, 1481.085
205.4157, 1473.065
205.8978, 1470.228
206.3800, 1474.083
206.8621, 1486.565
207.3442, 1495.013
207.8263, 1481.451
208.3084, 1443.257
208.7905, 1409.832
209.2727, 1391.994
209.7548, 1380.882
210.2369, 1370.422
210.7190, 1359.792
211.2011, 1349.677
211.6832, 1339.332
212.1654, 1328.506
212.6475, 1323.992
213.1296, 1334.204
213.6117, 1346.421
214.0938, 1350.305
214.5760, 1344.605
215.0581, 1336.377
215.5402, 1332.968
216.0223, 1334.239
216.5044, 1330.192
216.9865, 1313.644
217.4687, 1295.726
217.9508, 1285.145
218.4329, 1282.340
218.9150, 1282.095
219.3971, 1282.023
219.8792, 1281.851
220.3614, 1278.042
220.8435, 1266.364
221.3256, 1254.981
221.8077, 1250.938
222.2898, 1253.762
222.7719, 1256.976
223.2541, 1255.853
223.7362, 1251.293
224.2183, 1248.307
224.7004, 1249.400
225.1825, 1249.366
225.6646, 1243.809
226.1468, 1233.445
226.6289, 1222.281
227.1110, 1211.709
227.5931, 1201.919
228.0752, 1193.087
228.5573, 1184.026
229.0395, 1178.513
229.5216, 1182.544
230.0037, 1193.098
230.4858, 1199.962
230.9679, 1196.191
231.4500, 1186.095
231.9322, 1178.805
232.4143, 1175.500
232.8964, 1172.974
233.3785, 1167.910
233.8606, 1161.647
234.3427, 1157.631
234.8249, 1158.704
235.3070, 1161.952
235.7891, 1163.595
236.2712, 1163.705
236.7533, 1161.432
237.2354, 1153.420
237.7176, 1142.664
238.1997, 1135.975
238.6818, 1134.246
239.1639, 1137.406
239.6460, 1148.912
240.1281, 1169.261
240.6103, 1184.422
241.0924, 1185.448
241.5745, 1175.204
242.0566, 1161.667
242.5387, 1138.038
243.0208, 1119.116
243.5030, 1122.134
243.9851, 1143.922
244.4672, 1158.611
244.9493, 1151.481
245.4314, 1129.819
245.9135, 1113.014
246.3957, 1100.183
246.8778, 1093.269
247.3599, 1096.293
247.8420, 1106.815
248.3241, 1116.952
248.8062, 1124.093
249.2884, 1128.575
249.7705, 1131.447
250.2526, 1133.851
250.7347, 1132.558
251.2168, 1124.254
251.6989, 1111.724
252.1811, 1099.109
252.6632, 1086.971
253.1453, 1077.870
253.6274, 1077.656
254.1095, 1088.832
254.5916, 1098.263
255.0738, 1104.322
255.5559, 1107.002
256.0380, 1105.066
256.5201, 1098.163
257.0022, 1090.057
257.4843, 1084.733
257.9665, 1082.004
258.4486, 1084.709
258.9307, 1101.633
259.4128, 1118.413
259.8949, 1120.135
260.3770, 1106.511
260.8592, 1092.602
261.3413, 1094.476
261.8234, 1116.137
262.3055, 1121.006
262.7876, 1092.595
263.2697, 1063.960
263.7519, 1053.847
264.2340, 1060.289
264.7161, 1071.489
265.1982, 1079.124
265.6803, 1083.289
266.1624, 1086.705
266.6446, 1092.255
267.1267, 1094.177
267.6088, 1088.233
268.0909, 1077.582
268.5730, 1067.881
269.0551, 1062.333
269.5373, 1060.292
270.0194, 1058.840
270.5015, 1057.554
270.9836, 1057.477
271.4657, 1060.184
271.9478, 1063.628
272.4300, 1065.884
272.9121, 1066.157
273.3942, 1064.074
273.8763, 1058.258
274.3584, 1044.234
274.8405, 1034.351
275.3227, 1031.437
275.8048, 1031.001
276.2869, 1027.939
276.7690, 1021.759
277.2511, 1018.165
277.7332, 1027.653
278.2154, 1057.913
278.6975, 1075.512
279.1796, 1071.466
279.6617, 1061.551
280.1438, 1049.786
280.6259, 1038.413
281.1081, 1031.559
281.5902, 1035.081
282.0723, 1049.318
282.5544, 1058.155
283.0365, 1058.833
283.5186, 1056.623
284.0008, 1051.839
284.4829, 1045.978
284.9650, 1042.378
285.4471, 1045.370
285.9292, 1051.520
286.4113, 1048.212
286.8935, 1031.423
287.3756, 1013.428
287.8577, 996.1872
288.3398, 981.9501
288.8219, 974.6452
289.3040, 977.4773
289.7862, 984.8874
290.2683, 988.5734
290.7504, 987.6780
291.2325, 989.8109
291.7146, 1004.679
292.1967, 1020.175
292.6789, 1019.854
293.1610, 996.9078
293.6431, 975.2390
294.1252, 977.0561
294.6073, 998.0290
295.0894, 1013.328
295.5716, 1014.802
296.0537, 1009.646
296.5358, 1007.239
297.0179, 1007.803
297.5000, 1007.501
297.9821, 1002.639
298.4643, 996.4486
298.9464, 995.2094
299.4285, 1000.554
299.9106, 1007.588
300.3927, 1012.620
300.8748, 1015.573
301.3570, 1013.181
301.8391, 994.7756
302.3212, 978.0964
302.8033, 982.2197
303.2854, 1005.732
303.7675, 1027.969
304.2497, 1034.307
304.7318, 1025.429
305.2139, 1015.273
305.6960, 995.2471
306.1781, 982.9827
306.6602, 991.2557
307.1424, 1011.974
307.6245, 1029.489
308.1066, 1036.283
308.5887, 1033.935
309.0708, 1027.106
309.5529, 1006.274
310.0351, 992.7344
310.5172, 994.8450
310.9993, 1001.060
311.4814, 997.8171
311.9635, 982.0232
312.4456, 963.9360
312.9278, 959.8518
313.4099, 979.1960
313.8920, 988.7347
314.3741, 980.8112
314.8562, 971.1025
315.3383, 969.3431
315.8205, 974.6284
316.3026, 978.8933
316.7847, 973.4122
317.2668, 958.2258
317.7489, 952.7415
318.2310, 966.5771
318.7132, 979.2529
319.1953, 984.9549
319.6774, 984.9639
320.1595, 981.5977
320.6416, 975.2776
321.1237, 967.4447
321.6059, 961.3438
322.0880, 956.8781
322.5701, 954.2924
323.0522, 955.8379
323.5343, 958.1996
324.0164, 956.3785
324.4986, 947.8619
324.9807, 943.3975
325.4628, 960.8292
325.9449, 997.6877
326.4270, 1016.423
326.9091, 998.8560
327.3913, 971.2727
327.8734, 962.0449
328.3555, 970.7967
328.8376, 980.5405
329.3197, 984.3242
329.8018, 984.1755
330.2840, 982.9418
330.7661, 980.7000
331.2482, 979.3435
331.7303, 981.3521
332.2124, 986.2132
332.6945, 988.5561
333.1767, 986.6355
333.6588, 983.2738
334.1409, 980.6911
334.6230, 978.4828
335.1051, 973.8782
335.5873, 964.0512
336.0694, 951.8955
336.5515, 949.4058
337.0336, 970.3199
337.5157, 982.4708
337.9979, 973.6703
338.4800, 955.7095
338.9621, 943.3326
339.4442, 941.1706
339.9263, 944.0126
340.4084, 943.4625
340.8906, 935.6169
341.3727, 934.0037
341.8548, 943.9280
342.3369, 954.6793
342.8190, 960.7919
343.3011, 961.8114
343.7833, 959.2249
344.2654, 953.2314
344.7475, 944.1247
345.2296, 940.5461
345.7117, 948.3687
346.1938, 954.6218
346.6760, 954.1922
347.1581, 950.4348
347.6402, 948.3968
348.1223, 950.6041
348.6044, 954.5349
349.0865, 955.0385
349.5687, 950.9153
350.0508, 948.6390
350.5329, 951.6744
351.0150, 956.2281
351.4971, 959.9771
351.9792, 962.6562
352.4614, 963.3660
352.9435, 961.0314
353.4256, 956.1288
353.9077, 949.4253
354.3898, 939.3842
354.8719, 931.4611
355.3541, 933.3421
355.8362, 942.5409
356.3183, 949.4340
356.8004, 952.6821
357.2825, 952.0696
357.7646, 944.4565
358.2468, 930.9769
358.7289, 921.3534
359.2110, 922.1321
359.6931, 930.6853
360.1752, 935.7228
360.6573, 933.4349
361.1395, 932.9167
361.6216, 938.2164
362.1037, 946.0797
362.5858, 952.1758
363.0679, 955.1254
363.5500, 955.9937
364.0322, 956.6220
364.5143, 958.7467
364.9964, 955.6638
365.4785, 938.3585
365.9606, 924.3038
366.4427, 926.2109
366.9249, 941.0976
367.4070, 956.6875
367.8891, 963.3906
368.3712, 962.2268
368.8533, 962.0909
369.3354, 965.8979
369.8176, 966.2791
370.2997, 957.8278
370.7818, 946.7542
371.2639, 941.3262
371.7460, 944.9681
372.2281, 950.4970
372.7103, 946.7396
373.1924, 932.6190
373.6745, 922.8245
374.1566, 921.1104
374.6387, 924.2873
375.1208, 930.4420
375.6030, 939.2986
376.0851, 947.6642
376.5672, 954.9142
377.0493, 960.3864
377.5314, 963.3958
378.0135, 964.0773
378.4957, 960.1324
378.9778, 946.7092
379.4599, 926.8257
379.9420, 915.6090
380.4241, 916.8176
380.9063, 923.0971
381.3884, 935.7039
381.8705, 950.4153
382.3526, 956.7632
382.8347, 949.9586
383.3168, 937.4008
383.7990, 932.9632
384.2811, 942.2825
384.7632, 949.8271
385.2453, 956.0026
385.7274, 960.1734
386.2095, 960.7602
386.6917, 958.4648
387.1738, 956.4572
387.6559, 958.0549
388.1380, 962.9293
388.6201, 962.2806
389.1022, 947.1115
389.5844, 937.7390
390.0665, 947.9534
390.5486, 963.0834
391.0307, 961.1724
391.5128, 932.2963
391.9949, 897.8483
392.4771, 890.5544
392.9592, 913.1154
393.4413, 935.4599
393.9234, 956.3657
394.4055, 970.3954
394.8876, 971.0314
395.3698, 959.6317
395.8519, 949.3071
396.3340, 947.2520
396.8161, 950.0494
397.2982, 952.6412
397.7803, 954.7735
398.2625, 955.7758
398.7446, 954.3794
399.2267, 951.5654
399.7088, 951.6041
400.1909, 963.9272
400.6730, 967.9558
401.1552, 945.7875
401.6373, 912.4393
402.1194, 894.7930
402.6015, 901.6455
403.0836, 918.4282
403.5657, 922.8786
404.0479, 906.3374
404.5300, 903.0037
405.0121, 928.7349
405.4942, 951.4541
405.9763, 949.1081
406.4584, 928.7723
406.9406, 912.8290
407.4227, 917.3528
407.9048, 936.2867
408.3869, 944.6656
408.8690, 935.8472
409.3511, 929.6654
409.8333, 930.1843
410.3154, 935.4814
410.7975, 946.3663
411.2796, 962.9281
411.7617, 976.9969
412.2438, 979.7252
412.7260, 972.9850
413.2081, 966.5422
413.6902, 960.4285
414.1723, 957.1653
414.6544, 960.0079
415.1365, 967.6053
415.6187, 976.4902
416.1008, 991.3965
416.5829, 1002.816
417.0650, 1002.320
417.5471, 991.8884
418.0292, 977.6769
418.5114, 961.1814
418.9935, 945.6755
419.4756, 938.2459
419.9577, 942.2029
420.4398, 948.6940
420.9219, 961.2603
421.4041, 973.5335
421.8862, 981.0731
422.3683, 983.4526
422.8504, 981.8713
423.3325, 976.7286
423.8146, 968.4652
424.2968, 962.3046
424.7789, 958.3230
425.2610, 956.6037
425.7431, 958.0458
426.2252, 961.1118
426.7073, 964.3533
427.1895, 967.3525
427.6716, 969.9429
428.1537, 972.6201
428.6358, 975.2154
429.1179, 973.8228
429.6000, 964.5952
430.0822, 956.6769
430.5643, 960.5280
431.0464, 972.8290
431.5285, 980.5284
432.0106, 977.7243
432.4927, 970.7429
432.9749, 963.0472
433.4570, 955.5668
433.9391, 952.0401
434.4212, 954.5166
434.9033, 961.2994
435.3854, 969.0942
435.8676, 982.7228
436.3497, 988.2662
436.8318, 978.5871
437.3139, 965.1149
437.7960, 956.0255
438.2781, 952.2252
438.7603, 950.5551
439.2424, 948.1462
439.7245, 945.4623
440.2066, 947.7825
440.6887, 961.4084
441.1708, 970.5067
441.6530, 969.7936
442.1351, 964.0413
442.6172, 956.3483
443.0993, 947.3582
443.5814, 942.2549
444.0635, 948.9081
444.5457, 965.3703
445.0278, 977.8872
445.5099, 984.1523
445.9920, 987.4431
446.4741, 991.6657
446.9562, 995.4006
447.4384, 992.5943
447.9205, 976.0613
448.4026, 958.3093
448.8847, 947.3623
449.3668, 942.0506
449.8489, 939.5620
450.3311, 938.9776
450.8132, 939.5433
451.2953, 940.0394
451.7774, 940.8817
452.2595, 940.6301
452.7416, 933.7211
453.2238, 930.7065
453.7059, 943.4182
454.1880, 965.8307
454.6701, 979.4246
455.1522, 969.7886
455.6343, 947.0916
456.1165, 946.9946
456.5986, 982.1468
457.0807, 1007.074
457.5628, 1003.179
458.0449, 989.1390
458.5270, 974.5458
459.0092, 960.9520
459.4913, 954.9129
459.9734, 968.9521
460.4555, 991.3884
460.9376, 994.9319
461.4197, 976.2531
461.9019, 958.8980
462.3840, 959.3381
462.8661, 973.1590
463.3482, 980.7574
463.8303, 977.1365
464.3124, 974.3958
464.7946, 976.1313
465.2767, 980.4933
465.7588, 986.8459
466.2409, 994.4032
466.7230, 998.8069
467.2051, 993.5758
467.6873, 977.1189
468.1694, 973.0933
468.6515, 1000.463
469.1336, 1018.936
469.6157, 1013.393
470.0978, 994.8519
470.5800, 976.8014
471.0621, 963.4302
471.5442, 956.1012
472.0263, 958.7635
472.5084, 970.6351
472.9905, 980.1103
473.4727, 984.3118
473.9548, 987.6970
474.4369, 997.9238
474.9190, 1011.916
475.4011, 1015.518
475.8832, 993.1311
476.3654, 971.5521
476.8475, 972.8124
477.3296, 989.3643
477.8117, 1000.814
478.2938, 999.0819
478.7759, 991.1171
479.2581, 988.9300
479.7402, 997.7858
480.2223, 998.1268
480.7044, 981.6389
481.1865, 965.8583
481.6686, 958.4578
482.1508, 958.6691
482.6329, 964.4197
483.1150, 976.1426
483.5971, 988.0706
484.0792, 986.6679
484.5613, 969.4861
485.0435, 954.0538
485.5256, 939.9438
486.0077, 933.7529
486.4898, 946.0997
486.9719, 974.8110
487.4540, 993.7362
487.9362, 982.4927
488.4183, 963.8019
488.9004, 965.3364
489.3825, 983.8121
489.8646, 995.5984
490.3467, 987.9376
490.8289, 969.0531
491.3110, 958.4753
491.7931, 960.7705
492.2752, 964.5886
492.7573, 973.9948
493.2394, 981.6212
493.7216, 980.9064
494.2037, 973.5200
494.6858, 965.6346
495.1679, 960.4999
495.6500, 959.1512
496.1321, 967.1388
496.6143, 989.2335
497.0964, 1004.192
497.5785, 1003.036
498.0606, 994.3691
498.5427, 982.4222
499.0248, 967.7647
499.5070, 959.7889
499.9891, 972.7026
500.4712, 989.4458
500.9533, 981.5682
501.4355, 951.1760
501.9176, 930.1538
502.3997, 937.5999
502.8818, 964.1353
503.3639, 983.5685
503.8460, 994.3977
504.3282, 999.7438
504.8103, 995.9095
505.2924, 989.4907
505.7745, 982.9152
506.2566, 977.9593
506.7387, 978.9055
507.2209, 991.3741
507.7030, 1009.264
508.1851, 1009.102
508.6672, 983.2581
509.1493, 964.4963
509.6314, 967.9009
510.1136, 978.3853
510.5957, 981.4978
511.0778, 976.5688
511.5599, 974.1282
512.0420, 982.0772
512.5241, 993.2010
513.0062, 999.2452
513.4883, 999.9449
513.9705, 996.8427
514.4526, 990.0818
514.9347, 981.4173
515.4168, 975.5880
515.8989, 973.2296
516.3810, 973.0998
516.8632, 978.0570
517.3453, 982.8533
517.8274, 982.3256
518.3095, 978.1494
518.7916, 976.9783
519.2737, 984.4636
519.7559, 996.0606
520.2380, 999.8709
520.7201, 994.6799
521.2022, 988.1057
521.6843, 980.7925
522.1664, 974.2844
522.6486, 968.9641
523.1307, 964.8604
523.6128, 965.7705
524.0949, 981.4196
524.5770, 996.1454
525.0591, 991.4172
525.5413, 971.9971
526.0234, 957.2395
526.5055, 956.5034
526.9876, 964.2662
527.4697, 968.8895
527.9518, 966.7542
528.4340, 969.5702
528.9161, 981.9539
529.3982, 994.2942
529.8803, 1004.594
530.3624, 1010.863
530.8445, 1008.823
531.3267, 994.3336
531.8088, 975.6619
532.2909, 966.8538
532.7730, 967.4771
533.2551, 963.9653
533.7372, 951.0204
534.2194, 937.4132
534.7015, 932.8934
535.1836, 936.7693
535.6657, 940.8649
536.1478, 943.7950
536.6299, 947.3005
537.1121, 954.4177
537.5942, 962.2772
538.0763, 963.9341
538.5584, 957.4280
539.0405, 950.5322
539.5226, 955.1820
540.0048, 973.9720
540.4869, 986.6308
540.9690, 990.7124
541.4511, 991.4119
541.9332, 989.1224
542.4153, 985.4154
542.8975, 982.1925
543.3796, 979.7388
543.8617, 978.9449
544.3438, 981.8531
544.8259, 986.8597
545.3080, 989.9819
545.7902, 990.6445
546.2723, 989.4542
546.7544, 986.4626
547.2365, 981.9584
547.7186, 978.5168
548.2007, 978.8122
548.6829, 976.5626
549.1650, 965.4293
549.6471, 954.8136
550.1292, 954.8484
550.6113, 965.5586
551.0934, 978.3452
551.5756, 986.7334
552.0577, 991.2750
552.5398, 993.9915
553.0219, 994.5081
553.5040, 994.3648
553.9861, 991.4418
554.4683, 990.3243
554.9504, 999.9326
555.4325, 1022.124
555.9146, 1032.975
556.3967, 1013.169
556.8788, 988.3072
557.3610, 982.9765
557.8431, 993.1303
558.3252, 1000.731
558.8073, 996.8151
559.2894, 986.7747
559.7715, 982.0236
560.2537, 986.2374
560.7358, 985.9753
561.2179, 974.0372
561.7000, 964.4214
562.1821, 964.6894
562.6642, 971.2261
563.1464, 976.2803
563.6285, 976.4768
564.1106, 975.4440
564.5927, 977.7188
565.0748, 981.9106
565.5569, 982.2875
566.0391, 977.2270
566.5212, 972.5175
567.0033, 974.3019
567.4854, 982.1547
567.9675, 983.5056
568.4496, 975.0510
568.9318, 965.2283
569.4139, 946.7554
569.8960, 933.0903
570.3781, 944.2700
570.8602, 978.9879
571.3423, 1010.509
571.8245, 1011.941
572.3066, 992.4228
572.7887, 988.4148
573.2708, 1003.676
573.7529, 1015.199
574.2350, 1012.269
574.7172, 1003.144
575.1993, 1000.874
575.6814, 1006.870
576.1635, 1007.428
576.6456, 989.2820
577.1277, 973.4843
577.6099, 981.9523
578.0920, 1005.473
578.5741, 1017.448
579.0562, 1005.664
579.5383, 984.6360
580.0204, 980.9922
580.5026, 999.9481
580.9847, 1010.578
581.4668, 1007.786
581.9489, 1002.043
582.4310, 995.5668
582.9132, 990.4515
583.3953, 991.5568
583.8774, 1002.949
584.3596, 1012.451
584.8417, 1008.632
585.3238, 998.8331
585.8059, 996.2607
586.2880, 1002.437
586.7701, 1011.122
587.2523, 1018.685
587.7344, 1023.901
588.2165, 1019.669
588.6986, 991.8313
589.1807, 977.6293
589.6628, 987.8185
590.1450, 1004.832
590.6271, 1019.042
591.1092, 1029.371
591.5913, 1037.853
592.0734, 1049.430
592.5555, 1055.328
593.0377, 1036.480
593.5198, 998.0630
594.0019, 972.7205
594.4840, 970.6120
594.9661, 980.0801
595.4482, 989.6269
595.9304, 999.5331
596.4125, 1006.605
596.8946, 1010.329
597.3767, 1012.248
597.8588, 1009.934
598.3409, 1007.554
598.8231, 1010.285
599.3052, 1018.856
599.7873, 1029.133
600.2694, 1040.300
600.7515, 1050.094
601.2336, 1048.704
601.7158, 1034.698
602.1979, 1021.945
602.6800, 1015.781
603.1621, 1014.226
603.6442, 1015.013
604.1263, 1019.214
604.6085, 1020.390
605.0906, 1014.729
605.5727, 1008.957
606.0548, 1007.580
606.5369, 1008.822
607.0190, 1008.532
607.5012, 1005.125
607.9833, 1001.398
608.4654, 1002.110
608.9475, 1007.056
609.4296, 1007.958
609.9117, 1002.662
610.3939, 997.9272
610.8760, 995.9689
611.3581, 997.6628
611.8402, 1006.055
612.3223, 1027.071
612.8044, 1038.354
613.2866, 1026.512
613.7687, 1007.538
614.2508, 992.4523
614.7329, 983.3118
615.2150, 981.9477
615.6971, 989.8558
616.1793, 1002.195
616.6614, 1009.602
617.1435, 1011.787
617.6256, 1010.240
618.1077, 1001.148
618.5898, 994.1695
619.0720, 998.6262
619.5541, 1009.300
620.0362, 1015.109
620.5183, 1013.129
621.0004, 1008.606
621.4825, 1001.013
621.9647, 993.8208
622.4468, 992.3323
622.9289, 996.1806
623.4110, 1000.478
623.8931, 1002.039
624.3752, 1001.159
624.8574, 998.0084
625.3395, 990.8342
625.8216, 987.6949
626.3037, 994.4578
626.7858, 1000.334
627.2679, 996.5516
627.7501, 986.1235
628.2322, 978.5018
628.7143, 976.9510
629.1964, 977.2993
629.6785, 977.7302
630.1606, 978.1613
630.6428, 977.4482
631.1249, 975.9539
631.6070, 978.1043
632.0891, 989.1351
632.5712, 1004.780
633.0533, 1002.510
633.5355, 970.0062
634.0176, 951.5717
634.4997, 969.8475
634.9818, 991.4326
635.4639, 991.6227
635.9460, 974.7452
636.4282, 961.4012
636.9103, 957.9227
637.3924, 959.9229
637.8745, 969.7125
638.3566, 981.2882
638.8387, 982.3103
639.3209, 971.1407
639.8030, 958.1382
640.2851, 952.7645
640.7672, 953.6056
641.2493, 951.2419
641.7314, 942.2059
642.2136, 938.0899
642.6957, 947.0134
643.1778, 956.8093
643.6599, 958.6017
644.1420, 953.2628
644.6241, 947.0535
645.1063, 938.9499
645.5884, 933.7259
646.0705, 939.2639
646.5526, 948.6860
647.0347, 946.7564
647.5168, 931.4893
647.9990, 917.6760
648.4811, 919.7744
648.9632, 935.0272
649.4453, 944.1260
649.9274, 944.9174
650.4095, 944.9988
650.8917, 943.8063
651.3738, 944.4246
651.8559, 951.8560
652.3380, 964.3157
652.8201, 971.0536
653.3022, 963.6046
