##NAMES=Cuprite
##RRUFFID=R050384
##IDEAL CHEMISTRY=Cu^1+^_2_O
##LOCALITY=Lavender Pit, Bisbee, Warren District, Cochise County, Arizona, USA
##OWNER=RRUFF
##SOURCE=University of Arizona Mineral Museum
##DESCRIPTION=Deep red to nearly black cubes
##STATUS=The identification of this mineral has been confirmed by X-ray diffraction and chemical analysis
##URL=rruff.info/R050384
##MEASURED CHEMISTRY=Cu_2.00_O
92.52344, 781.4342
93.00555, 774.8865
93.48767, 776.0784
93.96979, 802.2175
94.45190, 829.1806
94.93402, 854.4323
95.41614, 866.2809
95.89825, 868.2675
96.38037, 867.3015
96.86249, 863.7722
97.34460, 859.1889
97.82672, 854.0070
98.30884, 849.2017
98.79095, 845.5926
99.27307, 841.4879
99.75519, 835.0941
100.2373, 827.7734
100.7194, 820.5422
101.2015, 814.9876
101.6837, 811.8583
102.1658, 809.2230
102.6479, 805.1635
103.1300, 799.3790
103.6121, 794.4142
104.0942, 793.1859
104.5764, 793.9041
105.0585, 794.0169
105.5406, 792.6066
106.0227, 789.8761
106.5048, 786.5026
106.9869, 782.5453
107.4691, 777.1993
107.9512, 769.5580
108.4333, 760.2838
108.9154, 751.0578
109.3975, 743.3926
109.8796, 737.5634
110.3618, 731.2723
110.8439, 724.1701
111.3260, 716.8457
111.8081, 709.2090
112.2902, 701.4558
112.7723, 694.0992
113.2544, 687.9269
113.7366, 683.6656
114.2187, 679.3891
114.7008, 675.0931
115.1829, 670.7664
115.6650, 666.4207
116.1471, 662.0430
116.6293, 657.6288
117.1114, 653.0482
117.5935, 647.4508
118.0756, 643.1735
118.5577, 641.2324
119.0398, 641.0536
119.5220, 641.1939
120.0041, 640.8323
120.4862, 640.6498
120.9683, 641.8729
121.4504, 644.7892
121.9325, 648.5352
122.4147, 652.4221
122.8968, 656.4145
123.3789, 660.9324
123.8610, 666.6916
124.3431, 672.9362
124.8252, 678.8207
125.3074, 683.7197
125.7895, 688.5610
126.2716, 695.4226
126.7537, 705.1986
127.2358, 715.4891
127.7179, 725.6568
128.2001, 735.7304
128.6822, 745.9557
129.1643, 756.5286
129.6464, 767.3915
130.1285, 777.2100
130.6107, 784.0184
131.0928, 791.6852
131.5749, 801.5879
132.0570, 813.1500
132.5391, 824.9954
133.0212, 835.8112
133.5034, 845.4118
133.9855, 855.5668
134.4676, 866.6888
134.9497, 877.9152
135.4318, 888.7177
135.9139, 899.0491
136.3960, 909.3669
136.8782, 920.2685
137.3603, 932.0208
137.8424, 942.7041
138.3245, 951.5919
138.8066, 959.5672
139.2887, 967.3585
139.7709, 974.9447
140.2530, 982.8907
140.7351, 992.0502
141.2172, 1002.218
141.6993, 1012.805
142.1814, 1024.188
142.6636, 1035.880
143.1457, 1046.253
143.6278, 1055.083
144.1099, 1061.983
144.5920, 1066.880
145.0741, 1069.777
145.5563, 1071.591
146.0384, 1073.487
146.5205, 1075.737
147.0026, 1075.755
147.4847, 1071.778
147.9668, 1066.178
148.4490, 1060.266
148.9311, 1054.288
149.4132, 1047.301
149.8953, 1037.840
150.3774, 1025.135
150.8595, 1011.057
151.3417, 995.5598
151.8238, 979.2457
152.3059, 962.1733
152.7880, 944.5504
153.2701, 926.9102
153.7522, 910.8746
154.2344, 897.0209
154.7165, 884.5386
155.1986, 873.6998
155.6807, 864.1010
156.1628, 855.2820
156.6449, 847.0566
157.1271, 839.4261
157.6092, 832.5095
158.0913, 826.6931
158.5734, 820.9531
159.0555, 815.1594
159.5376, 809.2635
160.0198, 803.1064
160.5019, 796.5332
160.9840, 789.6593
161.4661, 782.9978
161.9482, 776.1111
162.4303, 769.8379
162.9125, 764.5045
163.3946, 760.1215
163.8767, 757.2057
164.3588, 756.3962
164.8409, 757.3328
165.3230, 759.4016
165.8052, 762.8159
166.2873, 767.0509
166.7694, 770.8653
167.2515, 773.5051
167.7336, 778.4783
168.2157, 789.2244
168.6979, 802.6921
169.1800, 815.4746
169.6621, 825.8143
170.1442, 834.7840
170.6263, 845.4661
171.1084, 858.4666
171.5906, 872.4129
172.0727, 887.3348
172.5548, 902.6933
173.0369, 917.6537
173.5190, 931.4864
174.0011, 944.5012
174.4833, 959.3113
174.9654, 978.1381
175.4475, 996.8008
175.9296, 1015.530
176.4117, 1033.388
176.8938, 1049.364
177.3760, 1062.865
177.8581, 1073.948
178.3402, 1079.948
178.8223, 1079.231
179.3044, 1075.774
179.7865, 1069.472
180.2687, 1061.288
180.7508, 1053.305
181.2329, 1047.448
181.7150, 1043.972
182.1971, 1039.238
182.6792, 1032.365
183.1614, 1025.187
183.6435, 1018.713
184.1256, 1013.004
184.6077, 1007.574
185.0898, 1002.136
185.5719, 996.6571
186.0541, 990.5549
186.5362, 983.0642
187.0183, 975.3754
187.5004, 968.6838
187.9825, 963.1243
188.4646, 957.9945
188.9468, 953.1074
189.4289, 948.2561
189.9110, 942.2679
190.3931, 934.6111
190.8752, 925.7498
191.3573, 916.2927
191.8395, 906.2646
192.3216, 895.6439
192.8037, 883.8225
193.2858, 871.4062
193.7679, 859.7761
194.2500, 849.6208
194.7322, 840.7673
195.2143, 832.3364
195.6964, 823.6328
196.1785, 816.7066
196.6606, 812.4869
197.1427, 810.5079
197.6249, 809.8845
198.1070, 810.7835
198.5891, 812.9123
199.0712, 813.3184
199.5533, 811.5339
200.0354, 808.2393
200.5176, 803.8342
200.9997, 798.2388
201.4818, 791.1434
201.9639, 781.9854
202.4460, 770.6896
202.9281, 760.3293
203.4103, 751.4578
203.8924, 743.1757
204.3745, 734.7809
204.8566, 726.6882
205.3387, 720.0965
205.8208, 716.1019
206.3030, 714.8920
206.7851, 714.5583
207.2672, 715.3853
207.7493, 716.7069
208.2314, 718.3314
208.7135, 720.2341
209.1957, 722.5723
209.6778, 725.6669
210.1599, 729.8255
210.6420, 731.9696
211.1241, 731.0956
211.6062, 729.5119
212.0884, 728.5397
212.5705, 728.0922
213.0526, 727.1473
213.5347, 724.7617
214.0168, 720.7335
214.4989, 716.3377
214.9811, 711.9029
215.4632, 706.8865
215.9453, 700.9670
216.4274, 694.1057
216.9095, 686.4250
217.3916, 678.0294
217.8737, 668.7639
218.3559, 658.7586
218.8380, 648.0157
219.3201, 636.4506
219.8022, 624.0473
220.2843, 610.8068
220.7664, 596.4548
221.2486, 580.3815
221.7307, 562.7984
222.2128, 545.3569
222.6949, 528.1978
223.1770, 511.2846
223.6591, 494.5371
224.1413, 477.8720
224.6234, 461.8200
225.1055, 446.6898
225.5876, 432.5340
226.0697, 419.7253
226.5518, 408.6947
227.0340, 398.9508
227.5161, 389.8248
227.9982, 381.2706
228.4803, 373.5079
228.9624, 367.2373
229.4445, 361.7369
229.9267, 356.0283
230.4088, 349.7686
230.8909, 343.1657
231.3730, 336.6539
231.8551, 330.2483
232.3372, 323.9323
232.8194, 317.4682
233.3015, 311.0981
233.7836, 305.0996
234.2657, 299.6132
234.7478, 294.5225
235.2299, 289.5913
235.7121, 284.8232
236.1942, 280.1811
236.6763, 275.4382
237.1584, 270.8695
237.6405, 266.8217
238.1227, 263.4769
238.6048, 260.5379
239.0869, 257.1888
239.5690, 252.8564
240.0511, 249.1346
240.5332, 246.8711
241.0154, 245.0266
241.4975, 242.5318
241.9796, 238.9230
242.4617, 234.6742
242.9438, 230.9991
243.4259, 228.0732
243.9081, 225.5063
244.3902, 223.4411
244.8723, 221.5856
245.3544, 219.7222
245.8365, 217.7508
246.3186, 215.6521
246.8008, 213.3255
247.2829, 210.3359
247.7650, 207.7851
248.2471, 206.0701
248.7292, 204.6038
249.2113, 202.8550
249.6935, 200.6409
250.1756, 198.1366
250.6577, 195.6624
251.1398, 192.9997
251.6219, 190.7473
252.1040, 189.3105
252.5862, 188.0636
253.0683, 186.4655
253.5504, 184.3650
254.0325, 181.9361
254.5146, 179.4409
254.9967, 176.7294
255.4789, 174.2842
255.9610, 172.1012
256.4431, 170.1931
256.9252, 168.6687
257.4073, 167.5265
257.8894, 166.4906
258.3716, 165.1745
258.8537, 163.4075
259.3358, 161.8050
259.8179, 160.4311
260.3000, 159.1771
260.7821, 157.9494
261.2643, 156.7291
261.7464, 155.5513
262.2285, 154.4263
262.7106, 153.3339
263.1927, 152.4832
263.6748, 151.8911
264.1570, 151.5346
264.6391, 151.5751
265.1212, 151.9872
265.6033, 152.2417
266.0854, 151.7439
266.5675, 150.4519
267.0497, 149.5443
267.5318, 149.4179
268.0139, 149.4297
268.4960, 148.9715
268.9781, 148.0390
269.4602, 147.2048
269.9424, 146.8905
270.4245, 147.0916
270.9066, 147.4216
271.3887, 148.3995
271.8708, 149.1072
272.3529, 148.5322
272.8351, 146.7861
273.3172, 145.2677
273.7993, 144.8706
274.2814, 145.3636
274.7635, 145.7673
275.2456, 146.1169
275.7278, 146.3157
276.2099, 146.2699
276.6920, 145.9945
277.1741, 145.5983
277.6562, 145.0743
278.1383, 144.4941
278.6205, 143.9775
279.1026, 143.4512
279.5847, 143.1331
280.0668, 143.3233
280.5489, 143.9232
281.0310, 144.3547
281.5132, 144.4419
281.9953, 144.2126
282.4774, 143.6898
282.9595, 142.8037
283.4416, 142.0338
283.9237, 141.7187
284.4059, 141.7747
284.8880, 141.8584
285.3701, 141.9086
285.8522, 141.9346
286.3343, 142.0083
286.8164, 142.1240
287.2986, 142.0646
287.7807, 141.6043
288.2628, 140.8629
288.7449, 140.1946
289.2270, 139.5544
289.7091, 139.1780
290.1913, 139.4386
290.6734, 140.1538
291.1555, 140.6633
291.6376, 140.5228
292.1197, 139.9712
292.6018, 139.5826
293.0840, 139.4496
293.5661, 139.3228
294.0482, 139.0417
294.5303, 138.6534
295.0124, 138.2255
295.4945, 137.7758
295.9767, 137.3095
296.4588, 136.7728
296.9409, 136.0780
297.4230, 135.6185
297.9051, 135.8954
298.3872, 136.4353
298.8694, 136.6691
299.3515, 136.3642
299.8336, 135.8162
300.3157, 135.4155
300.7978, 135.1917
301.2799, 134.9186
301.7621, 134.3814
302.2442, 133.8214
302.7263, 133.5017
303.2084, 133.5068
303.6905, 133.5248
304.1726, 133.1972
304.6548, 132.5084
305.1369, 131.8400
305.6190, 131.0396
306.1011, 130.5159
306.5832, 130.8228
307.0653, 131.9498
307.5475, 132.8732
308.0296, 132.5932
308.5117, 131.2210
308.9938, 130.0828
309.4759, 129.4217
309.9580, 128.9577
310.4402, 128.4648
310.9223, 127.9767
311.4044, 127.6340
311.8865, 127.7042
312.3686, 128.0374
312.8507, 127.9270
313.3329, 127.1168
313.8150, 126.2789
314.2971, 125.8379
314.7792, 125.6167
315.2613, 125.2668
315.7434, 124.4937
316.2256, 123.5807
316.7077, 123.2588
317.1898, 123.8351
317.6719, 124.1320
318.1540, 123.3196
318.6361, 122.0785
319.1183, 121.1423
319.6004, 120.7728
320.0825, 120.6370
320.5646, 120.3214
321.0467, 119.8181
321.5288, 119.1814
322.0110, 118.1913
322.4931, 117.2206
322.9752, 116.6088
323.4573, 116.4164
323.9394, 116.3409
324.4215, 116.1021
324.9037, 115.7056
325.3858, 115.3556
325.8679, 115.1342
326.3500, 114.9222
326.8321, 114.6646
327.3142, 114.3521
327.7964, 113.9519
328.2785, 113.3973
328.7606, 112.7235
329.2427, 112.0736
329.7248, 111.3853
330.2069, 110.8557
330.6891, 110.6772
331.1712, 110.7242
331.6533, 110.7445
332.1354, 110.7063
332.6175, 110.5297
333.0996, 109.9717
333.5818, 108.8878
334.0639, 107.8804
334.5460, 107.2241
335.0281, 106.8257
335.5102, 106.6863
335.9923, 106.9297
336.4745, 107.1427
336.9566, 106.6711
337.4387, 105.4553
337.9208, 104.6094
338.4029, 104.7391
338.8850, 105.2463
339.3671, 105.5832
339.8492, 105.7069
340.3314, 105.6966
340.8135, 105.5431
341.2956, 105.2770
341.7777, 105.0979
342.2598, 105.0491
342.7419, 105.0910
343.2241, 105.2317
343.7062, 105.4447
344.1883, 105.5871
344.6704, 105.5129
345.1525, 105.3333
345.6346, 105.2855
346.1168, 105.3889
346.5989, 105.5988
347.0810, 106.0581
347.5631, 106.5893
348.0452, 106.8361
348.5273, 106.4491
349.0095, 105.9724
349.4916, 106.1173
349.9737, 106.8987
350.4558, 107.5923
350.9379, 107.8109
351.4200, 107.7658
351.9022, 107.7924
352.3843, 107.8836
352.8664, 108.1077
353.3485, 108.7392
353.8306, 109.6010
354.3127, 109.8765
354.7949, 109.0585
355.2770, 108.0515
355.7591, 108.0586
356.2412, 109.0383
356.7233, 110.1235
357.2054, 111.1510
357.6876, 112.0460
358.1697, 112.6206
358.6518, 112.8117
359.1339, 112.9680
359.6160, 113.4836
360.0981, 114.2564
360.5803, 114.7135
361.0624, 114.4512
361.5445, 114.0996
362.0266, 114.2155
362.5087, 114.7559
362.9908, 115.3121
363.4730, 115.6586
363.9551, 115.8621
364.4372, 116.1408
364.9193, 116.4985
365.4014, 116.9119
365.8835, 117.3974
366.3657, 117.9273
366.8478, 118.4549
367.3299, 118.9656
367.8120, 119.4546
368.2941, 119.8992
368.7762, 120.2686
369.2584, 120.7260
369.7405, 121.3558
370.2226, 122.0449
370.7047, 122.6171
371.1868, 123.0741
371.6689, 123.6921
372.1511, 124.8222
372.6332, 126.4923
373.1153, 127.5186
373.5974, 127.4524
374.0795, 127.2641
374.5616, 127.4158
375.0438, 127.8253
375.5259, 128.2035
376.0080, 128.3754
376.4901, 128.4402
376.9722, 128.7549
377.4543, 129.3248
377.9365, 130.1265
378.4186, 131.4997
378.9007, 132.9509
379.3828, 133.8329
379.8649, 133.9966
380.3470, 133.9209
380.8292, 134.2655
381.3113, 135.1476
381.7934, 136.1577
382.2755, 137.5347
382.7576, 138.8190
383.2397, 139.5598
383.7219, 139.9248
384.2040, 140.5647
384.6861, 142.0933
385.1682, 144.3971
385.6503, 145.5829
386.1324, 144.0133
386.6146, 143.1061
387.0967, 143.8098
387.5788, 145.3897
388.0609, 146.9468
388.5430, 148.0919
389.0251, 148.9529
389.5073, 149.7634
389.9894, 150.4231
390.4715, 151.2541
390.9536, 152.5137
391.4357, 153.7378
391.9178, 154.5513
392.4000, 154.9770
392.8821, 155.3838
393.3642, 156.1517
393.8463, 157.2953
394.3284, 158.3445
394.8105, 159.2879
395.2927, 160.1470
395.7748, 160.7639
396.2569, 161.3332
396.7390, 162.2092
397.2211, 163.6277
397.7032, 165.3270
398.1854, 166.7753
398.6675, 168.0415
399.1496, 168.8560
399.6317, 168.4777
400.1138, 168.0304
400.5959, 168.4725
401.0781, 169.9520
401.5602, 171.6796
402.0423, 172.9619
402.5244, 173.8310
403.0065, 174.6292
403.4886, 175.2314
403.9708, 176.0148
404.4529, 177.4011
404.9350, 179.1746
405.4171, 180.7413
405.8992, 181.8910
406.3813, 182.6569
406.8635, 182.9326
407.3456, 182.6416
407.8277, 182.5766
408.3098, 183.2427
408.7919, 184.3401
409.2740, 185.3164
409.7562, 186.0656
410.2383, 186.9000
410.7204, 188.2254
411.2025, 189.8064
411.6846, 190.9433
412.1667, 191.4186
412.6489, 191.5400
413.1310, 191.5603
413.6131, 191.4786
414.0952, 191.6161
414.5773, 192.1054
415.0594, 192.7856
415.5416, 193.6862
416.0237, 194.7326
416.5058, 195.4064
416.9879, 195.2503
417.4700, 194.4743
417.9521, 194.2387
418.4343, 195.0291
418.9164, 195.6790
419.3985, 195.7297
419.8806, 195.4892
420.3627, 195.4894
420.8448, 195.8962
421.3270, 196.3028
421.8091, 196.0634
422.2912, 194.8200
422.7733, 193.9461
423.2554, 193.9715
423.7375, 193.8809
424.2197, 192.8869
424.7018, 191.1979
425.1839, 189.6231
425.6660, 188.7647
426.1481, 188.5066
426.6302, 188.0261
427.1124, 187.0255
427.5945, 186.1678
428.0766, 185.6699
428.5587, 185.2847
429.0408, 184.7765
429.5229, 184.0705
430.0051, 183.2100
430.4872, 182.2297
430.9693, 181.1033
431.4514, 179.9909
431.9335, 178.8773
432.4156, 177.7905
432.8978, 176.7598
433.3799, 175.7651
433.8620, 174.7485
434.3441, 173.6907
434.8262, 172.5818
435.3083, 171.3821
435.7905, 170.0576
436.2726, 168.7462
436.7547, 167.5234
437.2368, 166.3132
437.7189, 165.1015
438.2010, 163.8975
438.6832, 162.5163
439.1653, 160.5509
439.6474, 158.1835
440.1295, 156.4472
440.6116, 155.7041
441.0938, 155.2344
441.5759, 154.5126
442.0580, 153.5798
442.5401, 152.5075
443.0222, 151.2339
443.5043, 149.8901
443.9865, 148.3879
444.4686, 146.8073
444.9507, 145.8948
445.4328, 146.2709
445.9149, 147.2571
446.3970, 147.2053
446.8792, 145.7222
447.3613, 144.5389
447.8434, 144.3712
448.3255, 144.6436
448.8076, 144.6305
449.2897, 144.2165
449.7719, 143.7666
450.2540, 143.6480
450.7361, 143.8851
451.2182, 143.9092
451.7003, 143.3095
452.1824, 142.9760
452.6646, 143.5280
453.1467, 144.5017
453.6288, 145.0349
454.1109, 144.7493
454.5930, 144.1127
455.0751, 144.0589
455.5573, 144.8308
456.0394, 145.7502
456.5215, 147.1964
457.0036, 148.4443
457.4857, 148.9016
457.9678, 148.7284
458.4500, 148.5706
458.9321, 148.9178
459.4142, 149.6973
459.8963, 150.4818
460.3784, 151.2242
460.8605, 152.0578
461.3427, 153.0071
461.8248, 154.0638
462.3069, 155.3057
462.7890, 156.7507
463.2711, 158.1014
463.7532, 158.9309
464.2354, 159.2930
464.7175, 159.9142
465.1996, 161.0570
465.6817, 162.1789
466.1638, 162.7469
466.6459, 162.9914
467.1281, 163.5046
467.6102, 164.5664
468.0923, 165.9003
468.5744, 167.2448
469.0565, 168.6075
469.5386, 169.9757
470.0208, 171.3758
470.5029, 172.7391
470.9850, 173.8424
471.4671, 174.5824
471.9492, 175.6551
472.4313, 177.6958
472.9135, 179.8935
473.3956, 181.1654
473.8777, 181.5235
474.3598, 182.0956
474.8419, 183.8411
475.3240, 186.5814
475.8062, 188.4892
476.2883, 188.9948
476.7704, 189.5041
477.2525, 190.3150
477.7346, 191.2705
478.2167, 192.1953
478.6989, 193.0368
479.1810, 193.7953
479.6631, 194.4695
480.1452, 195.0298
480.6273, 195.6350
481.1094, 196.2318
481.5916, 196.9255
482.0737, 198.2166
482.5558, 199.5392
483.0379, 199.8044
483.5200, 198.3767
484.0021, 196.2254
484.4843, 195.3932
484.9664, 196.3208
485.4485, 196.5022
485.9306, 194.7581
486.4127, 192.7009
486.8948, 191.4670
487.3770, 190.9543
487.8591, 190.3281
488.3412, 189.0558
488.8233, 187.3744
489.3054, 185.7428
489.7875, 184.1884
490.2697, 182.5311
490.7518, 180.5799
491.2339, 178.5383
491.7160, 176.7683
492.1981, 175.3139
492.6802, 174.0278
493.1624, 173.0169
493.6445, 172.0873
494.1266, 170.8950
494.6087, 169.3845
495.0908, 167.8750
495.5729, 166.6471
496.0551, 165.7016
496.5372, 164.7112
497.0193, 163.5611
497.5014, 162.5082
497.9835, 161.6168
498.4656, 160.8714
498.9478, 160.2848
499.4299, 159.8496
499.9120, 159.4475
500.3941, 158.8765
500.8762, 158.0125
501.3583, 157.4604
501.8405, 157.4880
502.3226, 157.5567
502.8047, 157.5404
503.2868, 157.4169
503.7689, 157.1736
504.2510, 156.7981
504.7331, 156.3233
505.2152, 155.7259
505.6974, 154.9312
506.1795, 154.4910
506.6616, 154.8831
507.1437, 155.3215
507.6258, 155.2042
508.1079, 154.5950
508.5901, 153.9184
509.0722, 153.2289
509.5543, 152.6663
510.0364, 152.5384
510.5185, 152.8378
511.0006, 153.0449
511.4828, 152.9195
511.9649, 152.5497
512.4470, 152.1006
512.9291, 151.5366
513.4113, 151.0238
513.8934, 150.7504
514.3755, 150.4633
514.8576, 149.8674
515.3397, 148.9604
515.8218, 147.9598
516.3040, 147.0025
516.7861, 146.0973
517.2682, 145.3241
517.7503, 144.7292
518.2324, 144.2166
518.7145, 143.8208
519.1967, 143.4733
519.6788, 143.1465
520.1609, 142.8144
520.6430, 142.3978
521.1251, 141.7638
521.6072, 140.9224
522.0894, 140.3696
522.5715, 140.3234
523.0536, 140.2197
523.5357, 139.8896
524.0178, 139.3949
524.4999, 138.7926
524.9821, 138.0928
525.4642, 137.3228
525.9463, 136.4198
526.4284, 135.4479
526.9105, 134.6882
527.3926, 134.2187
527.8748, 133.8598
528.3569, 133.4570
528.8390, 133.0528
529.3211, 132.7966
529.8032, 132.9734
530.2853, 132.9950
530.7675, 132.2533
531.2496, 131.1790
531.7317, 130.7530
532.2138, 131.2686
532.6959, 131.9424
533.1780, 131.7644
533.6602, 130.5324
534.1423, 129.7010
534.6244, 129.3590
535.1065, 129.2432
535.5886, 129.4150
536.0707, 129.7015
536.5529, 129.8645
537.0350, 129.8090
537.5171, 129.6180
537.9992, 129.4396
538.4813, 129.3104
538.9634, 128.9961
539.4456, 128.1918
539.9277, 127.5336
540.4098, 127.3349
540.8919, 127.4887
541.3740, 127.7987
541.8561, 128.2608
542.3383, 128.6940
542.8204, 128.8599
543.3025, 128.7781
543.7846, 128.6274
544.2667, 128.4331
544.7488, 128.2177
545.2310, 127.9400
545.7131, 127.6192
546.1952, 127.5156
546.6773, 127.9401
547.1594, 128.3415
547.6415, 128.3007
548.1237, 127.9505
548.6058, 127.5907
549.0879, 127.3335
549.5700, 127.2729
550.0521, 127.6424
550.5342, 128.8327
551.0164, 129.2231
551.4985, 128.0496
551.9806, 126.9820
552.4627, 126.8815
552.9448, 127.4014
553.4269, 127.8208
553.9091, 127.8004
554.3912, 127.5003
554.8733, 127.1417
555.3554, 126.6920
555.8375, 126.3887
556.3196, 126.2111
556.8018, 126.2628
557.2839, 126.7653
557.7660, 127.5357
558.2481, 128.0584
558.7302, 128.1018
559.2123, 127.8782
559.6945, 127.4317
560.1766, 126.8573
560.6587, 126.6536
561.1408, 127.0540
561.6229, 127.5966
562.1050, 127.6772
562.5872, 127.1980
563.0693, 126.9333
563.5514, 126.9058
564.0335, 127.0815
564.5156, 127.6121
564.9977, 128.2979
565.4799, 128.7946
565.9620, 128.9643
566.4441, 128.9380
566.9262, 128.8896
567.4083, 128.7694
567.8904, 128.8286
568.3726, 129.2286
568.8547, 129.6488
569.3368, 130.0176
569.8189, 130.3244
570.3010, 130.5310
570.7831, 130.6014
571.2653, 130.6961
571.7474, 131.1327
572.2295, 131.8336
572.7116, 132.0668
573.1937, 131.4741
573.6758, 131.0053
574.1580, 131.6758
574.6401, 133.1734
575.1222, 134.2706
575.6043, 134.6202
576.0864, 134.8124
576.5685, 135.0566
577.0507, 135.3530
577.5328, 135.7214
578.0149, 136.1617
578.4970, 136.5946
578.9791, 136.8966
579.4612, 137.0480
579.9434, 137.5739
580.4255, 139.1181
580.9076, 140.2786
581.3897, 140.5875
581.8718, 140.5018
582.3539, 140.4651
582.8361, 140.6012
583.3182, 140.8659
583.8003, 141.1473
584.2824, 141.4899
584.7645, 142.3432
585.2466, 144.0061
585.7288, 145.3268
586.2108, 145.4569
586.6929, 145.0288
587.1750, 144.9517
587.6572, 145.3613
588.1393, 145.7973
588.6214, 146.0159
589.1035, 146.1574
