##NAMES=Cuprite
##RRUFFID=R050374
##IDEAL CHEMISTRY=Cu^1+^_2_O
##LOCALITY=unknown
##OWNER=RRUFF
##SOURCE=Eugene Schlepp
##DESCRIPTION=Aggregate of deep red cubes
##STATUS=The identification of this mineral has been confirmed by X-ray diffraction and chemical analysis
##URL=rruff.info/R050374
##MEASURED CHEMISTRY=Cu_2.00_O
91.87140, 0.0000000E+00
92.35352, 10.73356
92.83563, 10.32859
93.31775, 10.15633
93.79987, 10.35858
94.28198, 10.81234
94.76410, 11.15985
95.24622, 11.30808
95.72833, 11.33611
96.21045, 11.32610
96.69257, 11.26438
97.17468, 11.36769
97.65680, 11.94990
98.13892, 13.00120
98.62103, 13.90769
99.10315, 14.45118
99.58527, 14.69675
100.0674, 15.07265
100.5495, 15.62780
101.0316, 16.19848
101.5137, 16.47683
101.9958, 16.29125
102.4780, 16.42723
102.9601, 17.19235
103.4422, 18.68500
103.9243, 20.14569
104.4064, 21.53076
104.8885, 22.91926
105.3707, 24.52382
105.8528, 26.56212
106.3349, 28.49073
106.8170, 30.06517
107.2991, 31.00689
107.7813, 32.12513
108.2634, 33.52768
108.7455, 35.12870
109.2276, 36.58821
109.7097, 37.85030
110.1918, 39.02346
110.6740, 40.15433
111.1561, 41.13771
111.6382, 42.19824
112.1203, 43.20869
112.6024, 44.24503
113.0845, 45.71700
113.5667, 48.02877
114.0488, 50.60164
114.5309, 53.07274
115.0130, 55.42131
115.4951, 57.57861
115.9772, 59.45288
116.4594, 61.06934
116.9415, 62.72229
117.4236, 64.81200
117.9057, 66.90303
118.3878, 68.52273
118.8699, 68.77077
119.3521, 69.05840
119.8342, 70.34331
120.3163, 72.76747
120.7984, 75.26188
121.2805, 76.84629
121.7626, 78.08035
122.2448, 79.92086
122.7269, 84.09628
123.2090, 88.47629
123.6911, 90.68434
124.1732, 90.10073
124.6553, 88.89310
125.1375, 88.78497
125.6196, 89.63986
126.1017, 91.02572
126.5838, 93.07800
127.0659, 95.43401
127.5480, 97.36430
128.0302, 98.60867
128.5123, 99.75468
128.9944, 101.7140
129.4765, 104.4152
129.9586, 107.1924
130.4407, 109.5557
130.9229, 111.5894
131.4050, 113.6520
131.8871, 115.7728
132.3692, 117.9424
132.8513, 120.1229
133.3334, 122.1279
133.8156, 123.5246
134.2977, 124.1953
134.7798, 124.5922
135.2619, 125.5450
135.7440, 127.4904
136.2261, 130.1056
136.7083, 131.9265
137.1904, 132.7979
137.6725, 133.4337
138.1546, 134.7238
138.6367, 136.8788
139.1188, 138.5606
139.6010, 139.3994
140.0831, 139.3980
140.5652, 139.2015
141.0473, 138.6910
141.5294, 138.1445
142.0115, 137.9551
142.4937, 138.2554
142.9758, 138.5694
143.4579, 138.6609
143.9400, 138.3504
144.4221, 138.7212
144.9042, 140.1927
145.3864, 142.0911
145.8685, 143.2309
146.3506, 143.3190
146.8327, 143.0729
147.3148, 142.6888
147.7969, 142.0786
148.2791, 141.5464
148.7612, 141.3476
149.2433, 141.2114
149.7254, 140.4912
150.2075, 138.7172
150.6896, 136.7832
151.1718, 135.0330
151.6539, 133.7200
152.1360, 132.2213
152.6181, 130.2184
153.1002, 127.9733
153.5823, 126.2790
154.0645, 125.8776
154.5466, 125.5161
155.0287, 124.6032
155.5108, 122.2662
155.9929, 120.3295
156.4750, 119.2444
156.9572, 118.8319
157.4393, 118.4037
157.9214, 117.6629
158.4035, 116.9437
158.8856, 116.4518
159.3677, 116.4655
159.8499, 116.4750
160.3320, 116.4618
160.8141, 116.3873
161.2962, 115.9885
161.7783, 114.8754
162.2604, 113.5421
162.7426, 112.3961
163.2247, 111.6164
163.7068, 110.9963
164.1889, 110.3733
164.6710, 109.7716
165.1531, 109.4690
165.6353, 109.9932
166.1174, 110.7568
166.5995, 111.1272
167.0816, 110.1058
167.5637, 109.1882
168.0458, 109.4854
168.5280, 111.0045
169.0101, 112.6918
169.4922, 113.8751
169.9743, 114.7969
170.4564, 115.7884
170.9385, 117.0103
171.4207, 118.3437
171.9028, 119.6591
172.3849, 120.9398
172.8670, 122.3388
173.3491, 124.1369
173.8312, 126.1435
174.3134, 128.0006
174.7955, 129.1951
175.2776, 130.2885
175.7597, 132.1854
176.2418, 135.0705
176.7239, 137.7020
177.2061, 138.6684
177.6882, 138.4626
178.1703, 138.4076
178.6524, 139.1946
179.1345, 140.5338
179.6166, 141.9548
180.0988, 143.4484
180.5809, 145.0036
181.0630, 146.6919
181.5451, 148.4745
182.0272, 150.1239
182.5093, 151.3342
182.9915, 152.3508
183.4736, 153.7785
183.9557, 155.7199
184.4378, 157.8888
184.9199, 160.0722
185.4020, 162.2085
185.8842, 164.1524
186.3663, 165.5621
186.8484, 166.6563
187.3305, 168.2508
187.8126, 170.5326
188.2947, 173.0435
188.7769, 175.2036
189.2590, 177.0107
189.7411, 178.3723
190.2232, 179.0203
190.7053, 179.0828
191.1874, 179.4298
191.6696, 180.1983
192.1517, 181.1584
192.6338, 181.7555
193.1159, 181.9648
193.5980, 182.4757
194.0801, 183.8747
194.5623, 186.0827
195.0444, 188.0025
195.5265, 189.3548
196.0086, 190.6078
196.4907, 192.8397
196.9728, 196.1322
197.4550, 199.6992
197.9371, 203.3090
198.4192, 206.9746
198.9013, 209.8911
199.3834, 211.9639
199.8655, 213.2747
200.3477, 213.8666
200.8298, 213.5949
201.3119, 213.2503
201.7940, 213.3608
202.2761, 213.9802
202.7582, 214.4171
203.2404, 214.4992
203.7225, 214.4473
204.2046, 214.8632
204.6867, 215.7797
205.1688, 217.0585
205.6509, 218.5462
206.1331, 220.1920
206.6152, 222.4291
207.0973, 225.3587
207.5794, 228.8690
208.0615, 232.7314
208.5436, 237.1209
209.0258, 241.4201
209.5079, 245.1435
209.9900, 248.1240
210.4721, 251.2380
210.9542, 254.5484
211.4363, 258.0376
211.9185, 261.7164
212.4006, 265.7296
212.8827, 269.6437
213.3648, 273.0121
213.8469, 275.6292
214.3290, 278.6520
214.8112, 282.4673
215.2933, 286.6707
215.7754, 289.9392
216.2575, 292.1224
216.7396, 293.6571
217.2217, 294.8759
217.7039, 296.0474
218.1860, 296.1496
218.6681, 295.3601
219.1502, 293.4285
219.6323, 289.3209
220.1144, 282.7502
220.5966, 274.5691
221.0787, 265.1728
221.5608, 254.2737
222.0429, 243.0080
222.5250, 231.4161
223.0071, 219.5224
223.4893, 207.7658
223.9714, 195.6545
224.4535, 184.2922
224.9356, 174.1133
225.4177, 165.2451
225.8998, 157.4453
226.3820, 150.9180
226.8641, 145.3945
227.3462, 140.1311
227.8283, 134.8904
228.3104, 130.2717
228.7925, 126.7725
229.2747, 125.0491
229.7568, 122.8260
230.2389, 119.7494
230.7210, 116.1427
231.2031, 113.1340
231.6852, 110.9009
232.1674, 109.0035
232.6495, 107.3120
233.1316, 106.0720
233.6137, 104.4595
234.0958, 102.2540
234.5779, 99.72526
235.0601, 97.68220
235.5422, 96.31570
236.0243, 95.12685
236.5064, 93.90088
236.9885, 92.61897
237.4706, 91.33545
237.9528, 90.02086
238.4349, 88.72817
238.9170, 87.64387
239.3991, 87.00221
239.8812, 86.21777
240.3633, 84.99354
240.8455, 83.04896
241.3276, 81.37440
241.8097, 80.11516
242.2918, 79.09404
242.7739, 77.93553
243.2560, 76.57212
243.7382, 75.17496
244.2203, 73.78545
244.7024, 72.34505
245.1845, 71.07529
245.6666, 69.96828
246.1487, 69.03846
246.6309, 68.34500
247.1130, 68.15694
247.5951, 67.75565
248.0772, 66.78960
248.5593, 64.95877
249.0414, 63.67915
249.5236, 63.24600
250.0057, 63.17889
250.4878, 62.62938
250.9699, 61.24468
251.4520, 60.00100
251.9341, 59.23382
252.4163, 59.01953
252.8984, 58.91240
253.3805, 59.07515
253.8626, 59.21746
254.3447, 58.86882
254.8268, 57.76569
255.3090, 56.69709
255.7911, 55.87428
256.2732, 55.29990
256.7553, 54.93551
257.2374, 54.91037
257.7195, 54.96708
258.2017, 54.75028
258.6838, 54.07391
259.1659, 53.55126
259.6480, 53.38968
260.1301, 53.61061
260.6122, 53.64347
261.0944, 53.42808
261.5765, 53.09818
262.0586, 52.73954
262.5407, 52.23664
263.0228, 52.04773
263.5049, 52.41270
263.9871, 53.29752
264.4692, 53.72792
264.9513, 53.60204
265.4334, 53.19338
265.9155, 52.70524
266.3976, 52.10320
266.8798, 51.56145
267.3619, 51.09389
267.8440, 50.70710
268.3261, 50.50059
268.8082, 50.50651
269.2903, 50.62406
269.7725, 50.79416
270.2546, 51.03112
270.7367, 51.24440
271.2188, 51.42089
271.7009, 51.56201
272.1830, 51.70139
272.6652, 51.87630
273.1473, 51.94293
273.6294, 51.70426
274.1115, 51.05989
274.5936, 50.75747
275.0757, 50.93726
275.5579, 51.45449
276.0400, 51.95515
276.5221, 52.48219
277.0042, 52.81731
277.4863, 52.70816
277.9684, 52.10106
278.4506, 51.82166
278.9327, 52.00728
279.4148, 52.44445
279.8969, 52.70338
280.3790, 52.77354
280.8611, 52.74310
281.3433, 52.65624
281.8254, 52.51226
282.3075, 52.21746
282.7896, 51.67620
283.2717, 51.18642
283.7538, 51.35639
284.2360, 52.21572
284.7181, 52.97207
285.2002, 53.20501
285.6823, 52.97935
286.1644, 52.87604
286.6465, 52.90555
287.1287, 53.02077
287.6108, 53.10825
288.0929, 53.17992
288.5750, 53.48463
289.0571, 54.36997
289.5392, 55.57175
290.0214, 55.93584
290.5035, 55.39991
290.9856, 54.55423
291.4677, 53.81551
291.9498, 53.22546
292.4319, 53.09330
292.9141, 53.75184
293.3962, 54.79415
293.8783, 55.22202
294.3604, 55.02596
294.8425, 54.68391
295.3246, 54.60427
295.8068, 54.71367
296.2889, 54.74341
296.7710, 54.54438
297.2531, 54.33741
297.7352, 54.65426
298.2173, 55.41991
298.6995, 55.99942
299.1816, 55.63904
299.6637, 54.77906
300.1458, 54.42561
300.6279, 54.92445
301.1100, 55.60939
301.5922, 55.48535
302.0743, 54.75862
302.5564, 54.26696
303.0385, 54.92639
303.5206, 55.98594
304.0027, 56.23759
304.4849, 55.34963
304.9670, 54.37312
305.4491, 54.41128
305.9312, 55.15150
306.4133, 55.84431
306.8954, 56.15331
307.3776, 56.21482
307.8597, 56.09076
308.3418, 55.76701
308.8239, 55.48958
309.3060, 55.56005
309.7881, 55.77882
310.2703, 55.82859
310.7524, 55.38698
311.2345, 54.87431
311.7166, 54.61906
312.1987, 54.61814
312.6808, 54.62087
313.1630, 54.40529
313.6451, 54.14803
314.1272, 54.03930
314.6093, 54.36773
315.0914, 54.64519
315.5735, 54.54852
316.0557, 54.15144
316.5378, 53.84727
317.0199, 53.94577
317.5020, 54.11870
317.9841, 54.12915
318.4662, 53.89363
318.9484, 53.53385
319.4305, 52.95363
319.9126, 52.26527
320.3947, 51.76358
320.8768, 51.62040
321.3589, 51.62008
321.8411, 51.67716
322.3232, 51.82560
322.8053, 51.91823
323.2874, 51.88432
323.7695, 51.78518
324.2516, 51.71786
324.7338, 51.63312
325.2159, 51.64082
325.6980, 51.89784
326.1801, 52.57622
326.6622, 52.74500
327.1443, 51.81117
327.6265, 50.57073
328.1086, 49.82439
328.5907, 50.17302
329.0728, 50.36403
329.5549, 50.11062
330.0370, 49.40522
330.5192, 48.96553
331.0013, 48.99820
331.4834, 49.11810
331.9655, 49.04585
332.4476, 48.56989
332.9297, 48.27393
333.4119, 48.30987
333.8940, 48.57502
334.3761, 48.58790
334.8582, 48.16796
335.3403, 47.78101
335.8224, 47.72358
336.3046, 48.22181
336.7867, 48.32821
337.2688, 47.83479
337.7509, 47.08502
338.2330, 46.82769
338.7151, 47.23679
339.1973, 47.59781
339.6794, 47.60051
340.1615, 47.22517
340.6436, 46.93380
341.1257, 46.73410
341.6078, 46.60944
342.0900, 46.55879
342.5721, 46.58912
343.0542, 46.62627
343.5363, 46.68436
344.0184, 46.73071
344.5005, 46.56910
344.9827, 46.17315
345.4648, 45.77392
345.9469, 45.55747
346.4290, 45.51733
346.9111, 45.65353
347.3932, 46.04494
347.8754, 46.50182
348.3575, 46.54988
348.8396, 46.23005
349.3217, 46.02340
349.8038, 46.51273
350.2859, 47.34513
350.7681, 47.56037
351.2502, 46.92403
351.7323, 46.13308
352.2144, 45.99980
352.6965, 46.37537
353.1786, 46.81455
353.6608, 47.17541
354.1429, 47.43910
354.6250, 47.55034
355.1071, 47.50404
355.5892, 47.43176
356.0714, 47.41138
356.5535, 47.43638
357.0356, 47.49747
357.5177, 47.63291
357.9998, 47.76937
358.4819, 47.78576
358.9641, 47.72146
359.4462, 47.79940
359.9283, 48.42027
360.4104, 49.08094
360.8925, 49.32317
361.3746, 48.77911
361.8568, 48.26408
362.3389, 48.08681
362.8210, 48.18240
363.3031, 48.39820
363.7852, 48.86480
364.2673, 49.29738
364.7495, 49.51906
365.2316, 49.41809
365.7137, 49.45227
366.1958, 49.98750
366.6779, 50.60733
367.1600, 50.82668
367.6422, 49.94845
368.1243, 49.33091
368.6064, 49.33954
369.0885, 50.01310
369.5706, 50.61600
370.0527, 51.18838
370.5349, 51.66375
371.0170, 51.98763
371.4991, 51.96898
371.9812, 52.13212
372.4633, 52.65223
372.9454, 53.37560
373.4276, 53.71144
373.9097, 53.42178
374.3918, 53.16674
374.8739, 53.30925
375.3560, 54.00285
375.8381, 54.37132
376.3203, 54.28385
376.8024, 54.03585
377.2845, 54.11696
377.7666, 54.59627
378.2487, 55.01254
378.7308, 55.13725
379.2130, 55.04733
379.6951, 55.32531
380.1772, 56.04097
380.6593, 56.77476
381.1414, 57.04889
381.6235, 56.92458
382.1057, 57.00621
382.5878, 57.44596
383.0699, 58.11412
383.5520, 58.84827
384.0341, 59.63829
384.5162, 60.31189
384.9984, 60.63036
385.4805, 60.77705
385.9626, 61.20658
386.4447, 62.01304
386.9268, 62.83565
387.4089, 63.25296
387.8911, 63.40514
388.3732, 63.59785
388.8553, 63.81225
389.3374, 64.22726
389.8195, 65.29835
390.3016, 66.94710
390.7838, 68.15682
391.2659, 67.81043
391.7480, 66.88485
392.2301, 66.39661
392.7122, 66.77129
393.1943, 67.42787
393.6765, 68.27810
394.1586, 69.22444
394.6407, 69.97292
395.1228, 70.10445
395.6049, 70.27169
396.0870, 70.87115
396.5692, 72.13340
397.0513, 73.21081
397.5334, 73.91600
398.0155, 74.36102
398.4976, 74.67818
398.9797, 74.69012
399.4619, 74.78209
399.9440, 75.04800
400.4261, 75.48598
400.9082, 75.91228
401.3903, 76.31789
401.8724, 76.71811
402.3546, 77.11439
402.8367, 77.45374
403.3188, 77.90454
403.8009, 78.53591
404.2830, 79.25791
404.7651, 79.86694
405.2473, 80.38380
405.7294, 80.70995
406.2115, 80.71977
406.6936, 80.39838
407.1757, 80.29830
407.6578, 80.42802
408.1400, 80.75928
408.6221, 81.42136
409.1042, 82.40028
409.5863, 83.00077
410.0684, 82.89141
410.5505, 82.40226
411.0327, 82.35745
411.5148, 82.74390
411.9969, 83.14736
412.4790, 83.22778
412.9611, 83.11061
413.4432, 83.16101
413.9254, 83.50346
414.4075, 83.72140
414.8896, 83.06963
415.3717, 81.93079
415.8538, 81.21143
416.3359, 81.84399
416.8181, 82.77352
417.3002, 82.97250
417.7823, 82.44231
418.2644, 81.90327
418.7465, 81.94284
419.2286, 82.08920
419.7108, 81.87012
420.1929, 80.87331
420.6750, 79.87929
421.1571, 79.30427
421.6392, 78.96278
422.1213, 78.38882
422.6035, 76.88905
423.0856, 75.62151
423.5677, 75.17761
424.0498, 75.92415
424.5319, 76.34624
425.0140, 76.10658
425.4962, 75.59926
425.9783, 75.23116
426.4604, 75.26328
426.9425, 75.04649
427.4246, 74.38294
427.9067, 73.35292
428.3889, 72.55901
428.8710, 72.05877
429.3531, 71.69404
429.8352, 71.39742
430.3173, 71.19466
430.7994, 70.93655
431.2816, 70.59509
431.7637, 70.23428
432.2458, 69.99271
432.7279, 69.88033
433.2100, 69.70259
433.6921, 69.36736
434.1743, 68.91478
434.6564, 68.54236
435.1385, 68.25145
435.6206, 67.86266
436.1027, 67.09301
436.5848, 66.10059
437.0670, 65.33717
437.5491, 64.93477
438.0312, 64.66517
438.5133, 64.17403
438.9954, 63.58583
439.4775, 63.24544
439.9597, 63.66468
440.4418, 64.20028
440.9239, 64.16852
441.4060, 63.53035
441.8881, 62.99356
442.3702, 63.06783
442.8524, 63.39588
443.3345, 63.63570
443.8166, 63.66514
444.2987, 63.62931
444.7808, 63.53207
445.2629, 63.39708
445.7451, 63.29389
446.2272, 63.46100
446.7093, 63.46743
447.1914, 63.03782
447.6735, 61.87652
448.1556, 61.25056
448.6378, 61.52906
449.1199, 62.09911
449.6020, 62.32472
450.0841, 61.96471
450.5662, 61.76262
451.0483, 61.87225
451.5305, 62.22355
452.0126, 62.51180
452.4947, 62.74381
452.9768, 62.89940
453.4589, 62.93621
453.9410, 62.84996
454.4232, 62.83161
454.9053, 62.89206
455.3874, 62.99591
455.8695, 63.14278
456.3516, 63.31539
456.8337, 63.37109
457.3159, 63.16740
457.7980, 62.90170
458.2801, 63.00060
458.7622, 63.41280
459.2443, 63.78047
459.7264, 63.72126
460.2086, 63.52347
460.6907, 63.63978
461.1728, 64.22451
461.6549, 64.70242
462.1370, 64.51381
462.6191, 63.98202
463.1013, 63.58317
463.5834, 63.45856
464.0655, 63.53674
464.5476, 63.89751
465.0297, 64.49437
465.5118, 64.97762
465.9940, 65.09200
466.4761, 65.17484
466.9582, 65.42616
467.4403, 66.08043
467.9224, 66.51138
468.4045, 66.64738
468.8867, 66.58038
469.3688, 66.40446
469.8509, 65.93346
470.3330, 65.70509
470.8151, 65.89698
471.2972, 66.46743
471.7794, 67.00503
472.2615, 67.54992
472.7436, 67.96847
473.2257, 68.04760
473.7078, 67.77734
474.1899, 67.93176
474.6721, 68.66804
475.1542, 69.56911
475.6363, 70.00053
476.1184, 70.02119
476.6005, 70.01050
477.0826, 70.15482
477.5648, 70.33749
478.0469, 70.30285
478.5290, 70.08077
479.0111, 69.94309
479.4932, 70.20213
479.9753, 70.60139
480.4575, 70.79345
480.9396, 70.62533
481.4217, 70.55431
481.9038, 71.06520
482.3859, 71.80589
482.8680, 72.25186
483.3502, 71.93053
483.8323, 71.57598
484.3144, 71.37827
484.7965, 71.35349
485.2786, 71.57172
485.7607, 72.49297
486.2429, 73.30075
486.7250, 73.57001
487.2071, 73.01500
487.6892, 72.51868
488.1713, 72.04900
488.6534, 71.66219
489.1356, 71.47598
489.6177, 71.60474
490.0998, 71.57122
490.5819, 71.12955
491.0640, 70.44311
491.5461, 70.47279
492.0283, 71.31839
492.5104, 72.14773
492.9925, 72.34982
493.4746, 72.02459
493.9567, 71.62164
494.4388, 71.13626
494.9210, 70.74571
495.4031, 70.79316
495.8852, 71.09544
496.3673, 71.17612
496.8494, 70.58278
497.3315, 69.95216
497.8137, 69.97118
498.2958, 70.50957
498.7779, 71.03391
499.2600, 71.39392
499.7421, 71.55452
500.2242, 71.41270
500.7064, 70.85403
501.1885, 70.46432
501.6706, 70.57987
502.1527, 70.88254
502.6348, 71.05027
503.1169, 70.84834
503.5991, 70.74473
504.0812, 70.81585
504.5633, 71.02438
505.0454, 71.25171
505.5275, 71.56166
506.0096, 71.77321
506.4918, 71.79405
506.9739, 71.60770
507.4560, 71.44053
507.9381, 71.31579
508.4202, 71.14665
508.9023, 70.73055
509.3845, 70.09776
509.8666, 69.83240
510.3487, 70.15535
510.8308, 70.68601
511.3129, 70.71473
511.7950, 70.35162
512.2772, 70.10947
512.7593, 70.28122
513.2414, 70.71107
513.7235, 71.39687
514.2056, 72.30385
514.6877, 72.85210
515.1699, 72.31015
515.6520, 71.42624
516.1341, 70.91958
516.6162, 71.17384
517.0983, 71.36644
517.5804, 71.15806
518.0626, 70.72849
518.5447, 70.37317
519.0268, 70.23672
519.5089, 70.07039
519.9910, 69.74958
520.4731, 69.29663
520.9553, 69.11035
521.4374, 69.32188
521.9195, 69.60713
522.4016, 69.81017
522.8837, 69.93755
523.3658, 69.90746
523.8480, 69.65252
524.3301, 69.38477
524.8122, 69.42473
525.2943, 69.75399
525.7764, 70.08220
526.2585, 70.34962
526.7407, 70.55174
527.2228, 70.69531
527.7049, 70.77581
528.1870, 70.76431
528.6691, 70.60352
529.1512, 70.36136
529.6334, 70.07352
530.1155, 69.73514
530.5976, 69.50350
531.0797, 69.55982
531.5618, 69.72316
532.0439, 69.80891
532.5261, 69.66440
533.0082, 69.59157
533.4903, 69.72408
533.9724, 69.97395
534.4545, 70.15738
534.9366, 70.27636
535.4188, 70.30395
535.9009, 70.20524
536.3830, 69.98461
536.8651, 69.79533
537.3472, 69.61126
537.8293, 69.51264
538.3115, 69.65239
538.7936, 70.07449
539.2757, 70.04018
539.7578, 69.38621
540.2399, 68.63853
540.7220, 68.65066
541.2042, 69.26894
541.6863, 69.58693
542.1684, 69.16905
542.6505, 68.50085
543.1326, 68.22789
543.6147, 68.29798
544.0969, 68.51315
544.5790, 68.99770
545.0611, 69.41518
545.5432, 69.40309
546.0253, 68.91064
546.5074, 68.48466
546.9896, 68.39407
547.4717, 68.44740
547.9538, 68.49152
548.4359, 68.50785
548.9180, 68.50529
549.4001, 68.48947
549.8823, 68.45525
550.3644, 68.38261
550.8465, 68.20750
551.3286, 68.11162
551.8107, 68.12615
552.2928, 68.25604
552.7750, 68.60892
553.2571, 69.26299
553.7392, 69.76853
554.2213, 69.76934
554.7034, 69.34209
555.1855, 68.84457
555.6677, 68.25618
556.1498, 67.87544
556.6319, 68.20272
557.1140, 68.95383
557.5961, 69.54543
558.0782, 69.78615
558.5604, 69.85726
559.0425, 69.83541
559.5246, 69.75428
560.0067, 69.68893
560.4888, 69.51918
560.9709, 69.50974
561.4531, 69.95695
561.9352, 70.86210
562.4173, 71.34203
562.8994, 70.94070
563.3815, 70.35461
563.8636, 69.87206
564.3458, 69.35650
564.8279, 69.38715
565.3100, 70.22530
565.7921, 71.28146
566.2742, 71.76954
566.7563, 71.64242
567.2385, 71.42717
567.7206, 71.18584
568.2027, 70.98252
568.6848, 70.99751
569.1669, 71.20722
569.6490, 71.43633
570.1312, 71.59114
570.6133, 71.71077
571.0954, 71.80016
571.5775, 71.87167
572.0596, 72.07746
572.5417, 72.66399
573.0239, 73.34314
573.5060, 73.86599
573.9881, 74.18903
574.4702, 74.36846
574.9523, 74.24931
575.4344, 74.06123
575.9166, 74.09805
576.3987, 74.66496
576.8808, 75.07545
577.3629, 75.20303
577.8450, 75.12984
578.3271, 75.12173
578.8093, 75.18379
579.2914, 75.29227
579.7735, 75.42899
580.2556, 75.59756
580.7377, 75.84871
581.2198, 76.18111
581.7020, 76.59142
582.1841, 77.26637
582.6662, 77.99741
583.1483, 78.13759
583.6304, 77.46784
584.1125, 76.93639
584.5947, 77.67528
585.0768, 79.01470
585.5589, 79.97353
586.0410, 80.03457
586.5231, 79.85960
587.0052, 79.51438
587.4874, 79.12888
587.9695, 79.05378
588.4516, 79.66890
588.9337, 80.28325
589.4158, 80.71017
589.8979, 80.94935
590.3801, 81.08885
