##NAMES=Cuprite
##RRUFFID=R140763
##IDEAL CHEMISTRY=Cu^1+^_2_O
##LOCALITY=Milpillas mine, Municipio de Santa Cruz, Sonora, Mexico
##OWNER=RRUFF
##SOURCE=Marcus Origlieri
##DESCRIPTION=Semimetallic deep red, massive
##STATUS=The identification of this mineral has been confirmed by X-ray diffraction.
##URL=rruff.info/R140763
89.78320, 156.5642
90.26532, 155.4487
90.74744, 155.4807
91.22955, 157.1877
91.71167, 159.4616
92.19379, 160.9151
92.67590, 161.7033
93.15802, 162.0994
93.64014, 162.0522
94.12225, 161.7695
94.60437, 161.8139
95.08649, 162.5655
95.56860, 163.5465
96.05072, 163.6115
96.53284, 162.8230
97.01495, 162.0824
97.49707, 162.1662
97.97919, 163.0372
98.46130, 164.4287
98.94342, 166.5355
99.42554, 169.2652
99.90765, 171.0718
100.3898, 171.7111
100.8719, 172.0130
101.3540, 173.2149
101.8361, 175.4922
102.3182, 177.9334
102.8004, 180.2127
103.2825, 182.2284
103.7646, 184.4277
104.2467, 186.6509
104.7288, 189.1037
105.2109, 192.3602
105.6931, 197.0051
106.1752, 201.6317
106.6573, 205.7420
107.1394, 209.6467
107.6215, 212.5688
108.1036, 213.9922
108.5858, 214.2748
109.0679, 215.2820
109.5500, 217.5970
110.0321, 220.2023
110.5142, 222.5411
110.9963, 224.7438
111.4785, 226.5706
111.9606, 227.7969
112.4427, 228.4586
112.9248, 229.3694
113.4069, 230.9821
113.8890, 232.7139
114.3712, 234.1153
114.8533, 234.7216
115.3354, 235.3208
115.8175, 236.3409
116.2996, 237.8857
116.7817, 238.9341
117.2639, 238.6955
117.7460, 237.8786
118.2281, 237.3809
118.7102, 237.8523
119.1923, 238.5107
119.6744, 238.8022
120.1566, 238.5525
120.6387, 238.4588
121.1208, 238.8945
121.6029, 239.7871
122.0850, 240.9983
122.5671, 242.8190
123.0493, 244.7555
123.5314, 246.2791
124.0135, 247.2260
124.4956, 247.9288
124.9777, 248.3583
125.4598, 248.6787
125.9420, 249.5305
126.4241, 251.5457
126.9062, 254.3462
127.3883, 257.2956
127.8704, 260.3779
128.3525, 263.3922
128.8347, 265.9410
129.3168, 268.0567
129.7989, 270.1346
130.2810, 272.5377
130.7631, 275.1874
131.2452, 277.8483
131.7274, 280.4148
132.2095, 282.9767
132.6916, 285.8207
133.1737, 289.0057
133.6558, 292.2380
134.1379, 295.3566
134.6201, 298.3635
135.1022, 301.2399
135.5843, 304.0350
136.0664, 306.7128
136.5485, 308.7527
137.0306, 309.9717
137.5128, 311.0117
137.9949, 312.7263
138.4770, 315.2303
138.9591, 317.8900
139.4412, 320.6505
139.9233, 323.5279
140.4055, 325.8849
140.8876, 327.6290
141.3697, 328.9390
141.8518, 330.0243
142.3339, 330.6512
142.8160, 331.5623
143.2982, 333.1919
143.7803, 335.9984
144.2624, 338.0138
144.7445, 339.1881
145.2266, 339.5758
145.7087, 339.2159
146.1909, 337.6213
146.6730, 335.9025
147.1551, 334.5157
147.6372, 333.9864
148.1193, 332.9272
148.6014, 331.0902
149.0836, 328.6975
149.5657, 326.4288
150.0478, 324.4960
150.5299, 322.5689
151.0120, 320.4875
151.4941, 317.9552
151.9763, 315.6373
152.4584, 313.6115
152.9405, 311.8307
153.4226, 310.0178
153.9047, 307.4783
154.3868, 305.3346
154.8690, 304.1974
155.3511, 305.3317
155.8332, 306.1982
156.3153, 306.3897
156.7974, 305.9482
157.2795, 305.2473
157.7617, 303.9333
158.2438, 302.6223
158.7259, 301.7599
159.2080, 302.1473
159.6901, 302.3345
160.1722, 301.8408
160.6544, 300.6855
161.1365, 299.3721
161.6186, 297.7443
162.1007, 296.1858
162.5828, 295.0113
163.0649, 295.1522
163.5471, 295.0206
164.0292, 293.4946
164.5113, 290.5345
164.9934, 288.0720
165.4755, 287.2534
165.9576, 287.4301
166.4398, 287.8053
166.9219, 287.9350
167.4040, 288.2557
167.8861, 289.0955
168.3682, 290.4871
168.8503, 292.0992
169.3325, 293.6721
169.8146, 295.3398
170.2967, 297.2914
170.7788, 299.7559
171.2609, 302.4913
171.7430, 305.2630
172.2252, 308.0685
172.7073, 310.9369
173.1894, 313.7544
173.6715, 316.6700
174.1536, 319.9034
174.6357, 323.8416
175.1179, 328.0990
175.6000, 332.2061
176.0821, 336.0581
176.5642, 339.9144
177.0463, 344.4011
177.5284, 349.1979
178.0106, 353.2509
178.4927, 355.5410
178.9748, 356.8466
179.4569, 358.2860
179.9390, 359.8969
180.4211, 361.9659
180.9033, 365.0389
181.3854, 368.9921
181.8675, 373.1265
182.3496, 376.9193
182.8317, 380.6031
183.3138, 385.0196
183.7960, 390.3270
184.2781, 396.0605
184.7602, 401.6061
185.2423, 406.9978
185.7244, 412.0857
186.2065, 416.7578
186.6887, 421.0721
187.1708, 425.3788
187.6529, 429.7658
188.1350, 434.0214
188.6171, 437.8177
189.0992, 441.1782
189.5814, 443.8477
190.0635, 445.5641
190.5456, 446.4146
191.0277, 446.7640
191.5098, 446.5169
191.9919, 446.0178
192.4741, 445.9090
192.9562, 446.1919
193.4383, 446.8150
193.9204, 447.4280
194.4025, 448.1053
194.8846, 450.1917
195.3668, 453.9718
195.8489, 459.1000
196.3310, 464.9215
196.8131, 471.4835
197.2952, 478.3395
197.7773, 485.5614
198.2595, 493.1470
198.7416, 499.9648
199.2237, 505.8931
199.7058, 510.8930
200.1879, 514.7139
200.6700, 517.3408
201.1522, 519.0284
201.6343, 519.6136
202.1164, 518.9385
202.5985, 518.6727
203.0806, 518.6715
203.5627, 519.3889
204.0449, 522.5311
204.5270, 528.4849
205.0091, 535.5806
205.4912, 542.7275
205.9733, 549.8546
206.4554, 557.4398
206.9376, 565.5711
207.4197, 574.1647
207.9018, 583.1633
208.3839, 592.4941
208.8660, 602.4683
209.3481, 613.4207
209.8303, 625.7458
210.3124, 637.5502
210.7945, 648.6010
211.2766, 658.9562
211.7587, 669.2452
212.2408, 679.5198
212.7230, 689.6819
213.2051, 699.7763
213.6872, 709.8168
214.1693, 719.8387
214.6514, 730.0505
215.1335, 740.2169
215.6157, 748.8064
216.0978, 755.7277
216.5799, 761.3274
217.0620, 766.2439
217.5441, 771.4060
218.0262, 773.1035
218.5084, 770.8171
218.9905, 764.7318
219.4726, 756.2928
219.9547, 745.8038
220.4368, 732.2795
220.9189, 714.9994
221.4011, 692.8624
221.8832, 669.4236
222.3653, 644.2581
222.8474, 618.0025
223.3295, 592.0970
223.8116, 566.7386
224.2938, 542.3224
224.7759, 518.9612
225.2580, 496.2659
225.7401, 476.0379
226.2222, 458.4739
226.7043, 443.4464
227.1865, 429.7044
227.6686, 417.6087
228.1507, 406.6542
228.6328, 396.7596
229.1149, 388.1599
229.5970, 380.1209
230.0792, 372.6947
230.5613, 365.8095
231.0434, 359.4893
231.5255, 354.0980
232.0076, 348.8638
232.4897, 343.3507
232.9719, 337.0659
233.4540, 331.6782
233.9361, 327.4806
234.4182, 324.1888
234.9003, 320.7265
235.3824, 316.9151
235.8646, 313.1872
236.3467, 309.7708
236.8288, 306.8082
237.3109, 303.8224
237.7930, 300.7497
238.2751, 297.6354
238.7573, 294.7325
239.2394, 292.1441
239.7215, 289.6002
240.2036, 286.9252
240.6857, 283.9286
241.1678, 281.2344
241.6500, 278.9501
242.1321, 276.9456
242.6142, 274.8689
243.0963, 272.7767
243.5784, 270.5385
244.0605, 268.0672
244.5427, 265.1190
245.0248, 262.5326
245.5069, 260.3605
245.9890, 258.5259
246.4711, 256.9628
246.9532, 255.9923
247.4354, 254.7424
247.9175, 252.7639
248.3996, 249.6066
248.8817, 247.1840
249.3638, 245.7366
249.8459, 244.8918
250.3281, 243.9979
250.8102, 243.1105
251.2923, 242.0746
251.7744, 240.7293
252.2565, 238.8975
252.7386, 237.6239
253.2208, 237.2690
253.7029, 237.2077
254.1850, 236.3296
254.6671, 234.0019
255.1492, 232.0891
255.6313, 231.2830
256.1135, 231.7782
256.5956, 232.0557
257.0777, 232.0661
257.5598, 231.8950
258.0419, 231.6077
258.5240, 231.0728
259.0062, 230.7316
259.4883, 230.8347
259.9704, 231.4427
260.4525, 231.4497
260.9346, 230.5301
261.4167, 229.4152
261.8989, 229.0275
262.3810, 229.7093
262.8631, 230.2150
263.3452, 230.1877
263.8273, 229.6334
264.3094, 229.3287
264.7916, 229.3515
265.2737, 229.5005
265.7558, 229.6167
266.2379, 229.7424
266.7200, 229.6733
267.2021, 229.2283
267.6843, 228.4935
268.1664, 228.3365
268.6485, 228.8889
269.1306, 229.7381
269.6127, 230.6258
270.0948, 231.6294
270.5770, 232.2695
271.0591, 232.3431
271.5412, 231.9891
272.0233, 231.9222
272.5054, 232.2375
272.9875, 232.5736
273.4697, 232.5544
273.9518, 232.0570
274.4339, 232.0516
274.9160, 232.7808
275.3981, 233.9969
275.8802, 235.0187
276.3624, 235.8395
276.8445, 236.4367
277.3266, 236.6646
277.8087, 236.4796
278.2908, 236.6438
278.7729, 237.3168
279.2551, 238.2600
279.7372, 238.9221
280.2193, 239.2800
280.7014, 239.5246
281.1835, 239.7009
281.6656, 239.8122
282.1478, 240.0869
282.6299, 240.5684
283.1120, 241.1475
283.5941, 241.6246
284.0762, 241.9944
284.5583, 242.4093
285.0405, 242.9689
285.5226, 243.6554
286.0047, 244.2925
286.4868, 244.8621
286.9689, 245.4374
287.4510, 246.1767
287.9332, 247.0658
288.4153, 247.8371
288.8974, 248.3744
289.3795, 248.7018
289.8616, 248.7940
290.3438, 248.6069
290.8259, 248.4850
291.3080, 248.8557
291.7901, 249.6538
292.2722, 250.5269
292.7543, 251.4420
293.2365, 252.3122
293.7186, 252.7886
294.2007, 252.8585
294.6828, 253.0534
295.1649, 254.0800
295.6470, 255.6569
296.1292, 256.8764
296.6113, 257.4074
297.0934, 257.5536
297.5755, 257.7356
298.0576, 257.9558
298.5397, 258.2201
299.0219, 258.6780
299.5040, 259.1792
299.9861, 259.3172
300.4682, 258.8461
300.9503, 258.3416
301.4324, 258.5328
301.9146, 259.3142
302.3967, 260.2461
302.8788, 261.2310
303.3609, 262.1425
303.8430, 262.7428
304.3251, 262.9513
304.8073, 263.0325
305.2894, 263.3543
305.7715, 263.7497
306.2536, 263.8227
306.7357, 262.9979
307.2178, 261.9317
307.7000, 261.2083
308.1821, 260.8539
308.6642, 260.9956
309.1463, 262.2492
309.6284, 263.9708
310.1105, 265.1749
310.5927, 264.8365
311.0748, 264.2510
311.5569, 264.4096
312.0390, 265.3322
312.5211, 266.2401
313.0032, 266.7240
313.4854, 266.9654
313.9675, 267.1505
314.4496, 267.4833
314.9317, 267.6545
315.4138, 267.2461
315.8959, 266.4132
316.3781, 266.0713
316.8602, 267.4423
317.3423, 268.9890
317.8244, 269.5296
318.3065, 268.0045
318.7886, 266.5920
319.2708, 266.0533
319.7529, 266.1819
320.2350, 266.3987
320.7171, 266.5520
321.1992, 266.7308
321.6813, 266.9994
322.1635, 267.4538
322.6456, 267.7862
323.1277, 267.9432
323.6098, 267.9370
324.0919, 267.7893
324.5740, 267.2830
325.0562, 266.8354
325.5383, 266.5701
326.0204, 266.5101
326.5025, 266.5650
326.9846, 266.9311
327.4667, 267.3310
327.9489, 267.4756
328.4310, 267.3561
328.9131, 266.9914
329.3952, 266.1415
329.8773, 264.7792
330.3594, 264.2042
330.8416, 265.1656
331.3237, 266.2872
331.8058, 266.5265
332.2879, 264.9571
332.7700, 264.1114
333.2521, 264.5289
333.7343, 265.8777
334.2164, 266.4863
334.6985, 265.8725
335.1806, 265.2535
335.6627, 265.3538
336.1448, 266.5276
336.6270, 267.2934
337.1091, 267.4593
337.5912, 267.3069
338.0733, 267.4851
338.5554, 268.1610
339.0375, 268.6165
339.5197, 268.3596
340.0018, 267.3141
340.4839, 267.1435
340.9660, 268.0663
341.4481, 269.3927
341.9302, 270.2649
342.4124, 270.6703
342.8945, 270.8497
343.3766, 270.7394
343.8587, 270.4649
344.3408, 270.7008
344.8229, 271.5130
345.3051, 272.3755
345.7872, 272.7103
346.2693, 272.6118
346.7514, 272.7770
347.2335, 273.4956
347.7156, 274.3607
348.1978, 274.2941
348.6799, 273.3948
349.1620, 272.8788
349.6441, 274.0558
350.1262, 276.1949
350.6083, 277.4712
351.0905, 277.5437
351.5726, 277.2373
352.0547, 277.4684
352.5368, 278.1084
353.0189, 278.7675
353.5010, 279.1079
353.9832, 279.4242
354.4653, 280.1947
354.9474, 281.4651
355.4295, 282.6187
355.9116, 283.0367
356.3937, 283.0561
356.8759, 283.1769
357.3580, 283.5495
357.8401, 284.1124
358.3222, 284.9209
358.8043, 285.9363
359.2864, 286.8817
359.7686, 287.7028
360.2507, 288.3466
360.7328, 288.7027
361.2149, 288.4075
361.6970, 288.4010
362.1791, 289.3068
362.6613, 290.7806
363.1434, 292.0331
363.6255, 292.6494
364.1076, 293.1140
364.5897, 293.6249
365.0718, 294.1731
365.5540, 294.8354
366.0361, 295.7587
366.5182, 296.7580
367.0003, 297.6123
367.4824, 298.2104
367.9645, 298.7563
368.4467, 299.1661
368.9288, 299.4149
369.4109, 300.1430
369.8930, 301.8279
370.3751, 303.6346
370.8572, 304.9937
371.3394, 305.5430
371.8215, 306.2520
372.3036, 307.3211
372.7857, 308.5949
373.2678, 309.4715
373.7499, 309.6417
374.2321, 309.9690
374.7142, 310.9547
375.1963, 312.8657
375.6784, 314.2381
376.1605, 314.8185
376.6426, 315.1666
377.1248, 316.2598
377.6069, 318.2846
378.0890, 319.9664
378.5711, 320.6665
379.0532, 320.5948
379.5353, 321.3283
380.0175, 322.9924
380.4996, 324.8739
380.9817, 326.2025
381.4638, 327.0644
381.9459, 328.3113
382.4280, 330.3030
382.9102, 332.4973
383.3923, 333.5952
383.8744, 333.7148
384.3565, 333.9925
384.8386, 335.4021
385.3207, 337.4483
385.8029, 339.0058
386.2850, 339.8996
386.7671, 340.7257
387.2492, 342.1999
387.7313, 344.0887
388.2134, 345.8330
388.6956, 346.8125
389.1777, 347.7535
389.6598, 349.6088
390.1419, 352.3085
390.6240, 354.5869
391.1061, 355.2333
391.5883, 355.2706
392.0704, 355.7961
392.5525, 357.4687
393.0346, 359.1922
393.5167, 360.3806
393.9988, 361.2350
394.4810, 362.3311
394.9631, 364.0493
395.4452, 365.9193
395.9273, 367.7303
396.4094, 369.4710
396.8915, 371.1076
397.3737, 372.4188
397.8558, 373.6881
398.3379, 375.2653
398.8200, 377.5762
399.3021, 379.7702
399.7842, 381.6632
400.2664, 383.2517
400.7485, 384.8297
401.2306, 386.5538
401.7127, 388.0862
402.1948, 389.1325
402.6769, 389.2335
403.1591, 389.8635
403.6412, 391.2988
404.1233, 393.2187
404.6054, 394.8211
405.0875, 395.9310
405.5696, 397.2073
406.0518, 399.1306
406.5339, 401.7462
407.0160, 403.4549
407.4981, 404.1356
407.9802, 404.2317
408.4623, 404.1068
408.9445, 403.7709
409.4266, 403.5190
409.9087, 403.3347
410.3908, 403.3668
410.8729, 404.1458
411.3550, 405.6559
411.8372, 407.1494
412.3193, 408.2471
412.8014, 408.9307
413.2835, 409.0961
413.7656, 408.6555
414.2477, 407.9924
414.7299, 407.3691
415.2120, 406.8282
415.6941, 406.4957
416.1762, 406.4312
416.6583, 406.5815
417.1404, 407.1423
417.6226, 408.0728
418.1047, 408.4938
418.5868, 407.4605
419.0689, 405.8740
419.5510, 404.5704
420.0331, 403.8196
420.5153, 403.3329
420.9974, 403.2248
421.4795, 403.3272
421.9616, 403.2148
422.4437, 402.7795
422.9258, 402.1182
423.4080, 401.2069
423.8901, 399.9205
424.3722, 398.8458
424.8543, 398.1840
425.3364, 397.6926
425.8185, 397.1207
426.3007, 396.1286
426.7828, 395.5831
427.2649, 395.9571
427.7470, 396.9955
428.2291, 396.8609
428.7112, 394.8186
429.1934, 392.8764
429.6755, 392.3490
430.1576, 393.7020
430.6397, 393.9357
431.1218, 392.5873
431.6039, 390.7132
432.0861, 390.0450
432.5682, 390.6612
433.0503, 391.3990
433.5324, 392.0805
434.0145, 392.5404
434.4966, 391.9251
434.9788, 390.2017
435.4609, 388.5304
435.9430, 388.0492
436.4251, 388.3886
436.9072, 388.4938
437.3893, 388.1177
437.8715, 387.6095
438.3536, 387.1303
438.8357, 386.8075
439.3178, 386.9951
439.7999, 388.7472
440.2820, 390.5417
440.7642, 390.6416
441.2463, 388.9459
441.7284, 387.5175
442.2105, 387.7168
442.6926, 388.6061
443.1747, 389.2845
443.6569, 389.3189
444.1390, 389.3323
444.6211, 389.4717
445.1032, 389.7294
445.5853, 390.0811
446.0674, 390.6097
446.5496, 391.1647
447.0317, 391.6939
447.5138, 392.1926
447.9959, 392.7291
448.4780, 393.6153
448.9601, 394.3456
449.4423, 394.3651
449.9244, 393.2253
450.4065, 392.3035
450.8886, 391.6869
451.3707, 391.4552
451.8528, 392.1266
452.3350, 394.0653
452.8171, 395.8000
453.2992, 396.2826
453.7813, 395.4836
454.2634, 395.6049
454.7455, 396.8754
455.2277, 398.4504
455.7098, 399.0633
456.1919, 398.8857
456.6740, 399.2011
457.1561, 400.6701
457.6382, 402.6579
458.1204, 404.0137
458.6025, 404.8207
459.0846, 405.5783
459.5667, 406.8695
460.0488, 408.2341
460.5309, 408.8992
461.0131, 408.5553
461.4952, 408.4754
461.9773, 410.1370
462.4594, 412.4960
462.9415, 414.0439
463.4236, 413.3698
463.9058, 412.5309
464.3879, 412.3810
464.8700, 412.8893
465.3521, 413.5257
465.8342, 413.8503
466.3163, 414.4963
466.7985, 415.9146
467.2806, 419.0580
467.7627, 421.2459
468.2448, 421.7544
468.7269, 421.5575
469.2090, 422.0793
469.6912, 423.8644
470.1733, 425.3798
470.6554, 426.2146
471.1375, 426.4425
471.6196, 426.7099
472.1017, 426.9233
472.5839, 427.4360
473.0660, 428.8679
473.5481, 431.2299
474.0302, 432.2255
474.5123, 431.3432
474.9944, 429.9801
475.4766, 430.3739
475.9587, 432.2733
476.4408, 434.0672
476.9229, 435.1945
477.4050, 435.7747
477.8871, 435.6684
478.3693, 434.9823
478.8514, 434.6541
479.3335, 435.6344
479.8156, 437.2279
480.2977, 438.6203
480.7798, 439.6472
481.2620, 440.5131
481.7441, 441.4136
482.2262, 442.1999
482.7083, 442.6542
483.1904, 442.4027
483.6725, 442.0836
484.1547, 441.7977
484.6368, 441.5732
485.1189, 441.7142
485.6010, 442.2879
486.0831, 443.2258
486.5652, 444.5571
487.0474, 446.8202
487.5295, 448.3213
488.0116, 448.8443
488.4937, 448.7479
488.9758, 448.4757
489.4579, 447.9494
489.9401, 447.4540
490.4222, 446.9176
490.9043, 446.4801
491.3864, 447.0335
491.8685, 448.7552
492.3506, 450.2562
492.8328, 450.1415
493.3149, 448.8853
493.7970, 448.8726
494.2791, 450.4760
494.7612, 452.3510
495.2433, 453.0012
495.7255, 452.7303
496.2076, 452.2912
496.6897, 451.6010
497.1718, 451.2156
497.6539, 451.9391
498.1360, 453.5133
498.6182, 454.9543
499.1003, 455.8175
499.5824, 456.3068
500.0645, 456.3926
500.5466, 455.9034
501.0287, 455.8230
501.5109, 456.7599
501.9930, 458.0926
502.4751, 459.1901
502.9572, 459.9867
503.4393, 460.5148
503.9214, 460.7394
504.4036, 460.6920
504.8857, 460.4061
505.3678, 459.4599
505.8499, 459.0190
506.3320, 459.8001
506.8141, 461.9440
507.2963, 463.1135
507.7784, 463.0697
508.2605, 462.7254
508.7426, 463.0278
509.2247, 463.9370
509.7068, 464.8647
510.1890, 465.7201
510.6711, 466.5053
511.1532, 467.2296
511.6353, 467.8809
512.1174, 468.3947
512.5995, 468.6247
513.0817, 468.7621
513.5638, 469.1415
514.0459, 469.7455
514.5280, 470.1072
515.0101, 469.3080
515.4922, 468.4529
515.9744, 468.6954
516.4565, 470.9761
516.9386, 472.9838
517.4207, 473.7846
517.9028, 473.8766
518.3849, 474.0741
518.8671, 474.7361
519.3492, 475.2648
519.8313, 475.4281
520.3134, 475.2639
520.7955, 475.4080
521.2776, 476.0334
521.7598, 476.7038
522.2419, 477.1437
522.7240, 477.2876
523.2061, 477.5507
523.6882, 477.9630
524.1703, 478.4411
524.6525, 478.7330
525.1346, 478.8798
525.6167, 479.6324
526.0988, 481.5824
526.5809, 483.7949
527.0630, 484.3267
527.5452, 483.4263
528.0273, 482.5244
528.5094, 482.1667
528.9915, 482.4294
529.4736, 483.7880
529.9557, 486.3332
530.4379, 488.3083
530.9200, 488.0961
531.4021, 487.0778
531.8842, 486.6250
532.3663, 487.4586
532.8484, 488.3101
533.3306, 488.8070
533.8127, 489.1067
534.2948, 489.5373
534.7769, 490.5430
535.2590, 491.1931
535.7411, 491.0774
536.2233, 490.2380
536.7054, 490.0137
537.1875, 490.4471
537.6696, 491.4366
538.1517, 493.2583
538.6339, 496.0394
539.1160, 497.6253
539.5981, 497.6171
540.0802, 497.1957
540.5623, 498.0534
541.0444, 499.9687
541.5266, 501.7111
542.0087, 502.9160
542.4908, 503.7271
542.9729, 504.1303
543.4550, 504.2329
543.9371, 504.4862
544.4193, 505.3150
544.9014, 506.2870
545.3835, 507.0042
545.8656, 507.4150
546.3477, 507.9052
546.8298, 508.3742
547.3120, 509.1411
547.7941, 510.4856
548.2762, 513.5675
548.7583, 515.6891
549.2404, 516.0219
549.7225, 515.4669
550.2047, 515.6187
550.6868, 517.1199
551.1689, 518.0248
551.6510, 517.4684
552.1331, 515.8393
552.6152, 515.7850
553.0974, 517.4887
553.5795, 519.8879
554.0616, 522.7806
554.5437, 525.9379
555.0258, 527.8951
555.5079, 528.5100
555.9901, 528.4730
556.4722, 528.2819
556.9543, 528.0096
557.4364, 527.7616
557.9185, 527.3878
558.4006, 527.3405
558.8828, 528.2719
559.3649, 529.7936
559.8470, 531.0322
560.3291, 531.1630
560.8112, 531.3386
561.2933, 532.1315
561.7755, 533.5621
562.2576, 534.9327
562.7397, 536.2279
563.2218, 537.3409
563.7039, 538.2180
564.1860, 538.8210
564.6682, 539.2646
565.1503, 539.4470
565.6324, 539.6183
566.1145, 540.0989
566.5966, 540.9203
567.0787, 541.9376
567.5609, 543.2499
568.0430, 544.6032
568.5251, 545.1808
569.0072, 545.1176
569.4893, 545.4088
569.9714, 546.8235
570.4536, 548.8212
570.9357, 550.7803
571.4178, 552.6573
571.8999, 554.2414
572.3820, 555.1942
572.8641, 555.8799
573.3463, 556.5507
573.8284, 557.1516
574.3105, 558.0209
574.7926, 559.4372
575.2747, 561.1063
575.7568, 562.6528
576.2390, 564.0084
576.7211, 565.3133
577.2032, 566.6349
577.6853, 567.9172
578.1674, 568.7766
578.6495, 568.8730
579.1317, 569.5869
579.6138, 571.9003
580.0959, 575.4991
580.5780, 577.5506
581.0601, 577.9622
581.5422, 578.0715
582.0244, 579.1593
582.5065, 580.8089
582.9886, 581.8251
583.4707, 581.9349
583.9528, 582.1389
584.4349, 583.5283
584.9171, 585.5445
585.3992, 587.3539
585.8813, 588.3091
586.3634, 589.3860
586.8455, 591.3589
587.3276, 593.7871
587.8098, 595.3937
588.2919, 594.6115
