##NAMES=Curienite
##RRUFFID=R050548
##IDEAL CHEMISTRY=Pb^2+^(U^6+^O_2_)_2_(V^5+^O_4_)_2_&#183;5H_2_O
##LOCALITY=Mounana mine, Franceville, Haut-Ogooué, Gabon
##OWNER=RRUFF
##SOURCE=University of Arizona Mineral Museum
##DESCRIPTION=Groups of heavily striated orange bladed crystals
##STATUS=The identification of this mineral has been confirmed by X-ray diffraction and chemical analysis
##URL=rruff.info/R050548
##MEASURED CHEMISTRY=(Pb_0.83_Ba_0.17_)_Σ=1_(U_1.00_O_2_)_2_(V_1.00_O_4_)_2_·5.1H_2_O
92.37695, 6639.620
92.85907, 6628.825
93.34119, 6636.417
93.82330, 6603.177
94.30542, 6543.463
94.78754, 6475.175
95.26965, 6410.284
95.75177, 6353.821
96.23389, 6314.830
96.71600, 6284.837
97.19812, 6262.511
97.68024, 6251.059
98.16235, 6240.987
98.64447, 6223.763
99.12659, 6208.458
99.60870, 6148.311
100.0908, 6053.484
100.5729, 5933.636
101.0551, 5791.251
101.5372, 5624.544
102.0193, 5437.199
102.5014, 5255.412
102.9835, 5068.086
103.4656, 4893.737
103.9478, 4732.284
104.4299, 4584.500
104.9120, 4453.152
105.3941, 4340.792
105.8762, 4247.376
106.3583, 4166.672
106.8405, 4098.937
107.3226, 4038.927
107.8047, 3984.689
108.2868, 3935.730
108.7689, 3890.784
109.2510, 3849.107
109.7332, 3810.616
110.2153, 3775.514
110.6974, 3745.618
111.1795, 3718.673
111.6616, 3690.865
112.1437, 3661.055
112.6259, 3631.564
113.1080, 3605.515
113.5901, 3582.771
114.0722, 3559.346
114.5543, 3534.062
115.0364, 3506.709
115.5185, 3475.208
116.0007, 3434.129
116.4828, 3392.140
116.9649, 3355.036
117.4470, 3323.692
117.9291, 3293.302
118.4112, 3256.330
118.8934, 3208.462
119.3755, 3164.818
119.8576, 3126.918
120.3397, 3092.985
120.8218, 3062.503
121.3039, 3035.173
121.7861, 3009.761
122.2682, 2982.433
122.7503, 2946.937
123.2324, 2916.575
123.7145, 2895.340
124.1966, 2879.288
124.6788, 2862.387
125.1609, 2840.526
125.6430, 2814.986
126.1251, 2797.181
126.6072, 2791.366
127.0893, 2786.867
127.5715, 2778.747
128.0536, 2767.669
128.5357, 2757.926
129.0178, 2753.119
129.4999, 2752.603
129.9821, 2750.720
130.4642, 2745.775
130.9463, 2740.150
131.4284, 2736.157
131.9105, 2733.947
132.3926, 2733.082
132.8748, 2733.989
133.3569, 2735.988
133.8390, 2737.943
134.3211, 2738.087
134.8032, 2737.618
135.2853, 2741.034
135.7674, 2750.869
136.2496, 2761.480
136.7317, 2769.906
137.2138, 2776.716
137.6959, 2783.418
138.1780, 2791.568
138.6601, 2801.453
139.1423, 2809.818
139.6244, 2813.753
140.1065, 2818.572
140.5886, 2826.803
141.0707, 2838.221
141.5528, 2850.823
142.0350, 2862.115
142.5171, 2870.948
142.9992, 2881.598
143.4813, 2895.185
143.9634, 2909.375
144.4455, 2923.337
144.9277, 2936.594
145.4098, 2948.470
145.8919, 2957.594
146.3740, 2960.886
146.8561, 2967.142
147.3382, 2978.500
147.8204, 2992.443
148.3025, 3006.074
148.7846, 3018.446
149.2667, 3029.920
149.7488, 3040.934
150.2309, 3050.804
150.7131, 3062.281
151.1952, 3077.368
151.6773, 3095.104
152.1594, 3112.132
152.6415, 3126.963
153.1236, 3140.778
153.6058, 3155.408
154.0879, 3170.742
154.5700, 3187.026
155.0521, 3204.537
155.5342, 3223.229
156.0163, 3242.509
156.4985, 3262.694
156.9806, 3282.937
157.4627, 3302.189
157.9448, 3319.951
158.4269, 3337.686
158.9090, 3357.723
159.3912, 3380.486
159.8733, 3404.490
160.3554, 3431.968
160.8375, 3459.130
161.3196, 3482.374
161.8017, 3499.884
162.2839, 3513.436
162.7660, 3528.251
163.2481, 3546.791
163.7302, 3563.255
164.2123, 3576.120
164.6944, 3586.805
165.1766, 3597.022
165.6587, 3607.847
166.1408, 3618.971
166.6229, 3628.560
167.1050, 3639.494
167.5871, 3645.885
168.0693, 3643.347
168.5514, 3635.335
169.0335, 3628.675
169.5156, 3628.145
169.9977, 3633.187
170.4798, 3634.564
170.9620, 3628.939
171.4441, 3623.651
171.9262, 3622.714
172.4083, 3625.426
172.8904, 3628.005
173.3725, 3627.633
173.8547, 3624.484
174.3368, 3621.961
174.8189, 3617.553
175.3010, 3615.443
175.7831, 3619.798
176.2652, 3630.892
176.7474, 3644.131
177.2295, 3655.493
177.7116, 3666.543
178.1937, 3681.010
178.6758, 3701.311
179.1579, 3724.915
179.6401, 3748.396
180.1222, 3771.456
180.6043, 3794.995
181.0864, 3821.361
181.5685, 3848.432
182.0506, 3872.123
182.5328, 3889.116
183.0149, 3901.519
183.4970, 3916.630
183.9791, 3938.010
184.4612, 3956.247
184.9433, 3969.798
185.4255, 3977.877
185.9076, 3979.047
186.3897, 3971.545
186.8718, 3955.882
187.3539, 3938.047
187.8360, 3918.841
188.3182, 3896.017
188.8003, 3870.428
189.2824, 3840.883
189.7645, 3804.778
190.2466, 3759.358
190.7287, 3703.950
191.2109, 3651.138
191.6930, 3602.529
192.1751, 3554.559
192.6572, 3506.328
193.1393, 3457.988
193.6214, 3409.967
194.1036, 3363.150
194.5857, 3317.683
195.0678, 3270.486
195.5499, 3217.088
196.0320, 3166.225
196.5141, 3121.698
196.9963, 3083.659
197.4784, 3050.208
197.9605, 3019.933
198.4426, 2993.162
198.9247, 2969.906
199.4068, 2953.580
199.8890, 2937.826
200.3711, 2916.302
200.8532, 2889.210
201.3353, 2864.809
201.8174, 2851.099
202.2995, 2849.104
202.7817, 2847.941
203.2638, 2847.402
203.7459, 2847.472
204.2280, 2847.618
204.7101, 2847.703
205.1922, 2849.611
205.6744, 2856.599
206.1565, 2867.496
206.6386, 2876.505
207.1207, 2880.149
207.6028, 2882.197
208.0849, 2888.101
208.5671, 2898.940
209.0492, 2911.133
209.5313, 2921.569
210.0134, 2931.163
210.4955, 2942.016
210.9776, 2955.028
211.4598, 2969.844
211.9419, 2985.841
212.4240, 3003.103
212.9061, 3021.278
213.3882, 3038.255
213.8703, 3055.840
214.3525, 3077.998
214.8346, 3109.034
215.3167, 3146.171
215.7988, 3178.223
216.2809, 3201.341
216.7630, 3225.341
217.2451, 3253.270
217.7273, 3284.865
218.2094, 3319.720
218.6915, 3357.640
219.1736, 3398.598
219.6557, 3442.405
220.1378, 3491.885
220.6200, 3540.648
221.1021, 3585.512
221.5842, 3628.390
222.0663, 3672.756
222.5484, 3720.767
223.0305, 3772.121
223.5127, 3824.039
223.9948, 3877.772
224.4769, 3930.306
224.9590, 3978.626
225.4411, 4025.727
225.9232, 4077.200
226.4054, 4137.951
226.8875, 4206.248
227.3696, 4265.839
227.8517, 4311.449
228.3338, 4353.077
228.8159, 4388.937
229.2981, 4422.437
229.7802, 4458.844
230.2623, 4502.067
230.7444, 4551.341
231.2265, 4596.808
231.7086, 4638.262
232.1908, 4676.539
232.6729, 4712.650
233.1550, 4745.759
233.6371, 4774.295
234.1192, 4797.165
234.6013, 4814.764
235.0835, 4829.554
235.5656, 4842.614
236.0477, 4852.499
236.5298, 4857.440
237.0119, 4858.800
237.4940, 4860.261
237.9762, 4864.659
238.4583, 4869.836
238.9404, 4865.459
239.4225, 4845.750
239.9046, 4825.044
240.3867, 4811.519
240.8689, 4801.043
241.3510, 4783.236
241.8331, 4752.353
242.3152, 4711.042
242.7973, 4668.222
243.2794, 4628.668
243.7616, 4581.093
244.2437, 4519.167
244.7258, 4445.351
245.2079, 4367.069
245.6900, 4287.637
246.1721, 4204.896
246.6543, 4113.455
247.1364, 4010.584
247.6185, 3908.298
248.1006, 3811.490
248.5827, 3720.167
249.0648, 3632.831
249.5470, 3548.161
250.0291, 3468.130
250.5112, 3394.664
250.9933, 3327.498
251.4754, 3265.291
251.9576, 3206.895
252.4397, 3152.590
252.9218, 3102.242
253.4039, 3057.401
253.8860, 3015.177
254.3681, 2971.749
254.8503, 2927.015
255.3324, 2884.558
255.8145, 2847.884
256.2966, 2815.935
256.7787, 2783.578
257.2608, 2750.809
257.7430, 2716.153
258.2251, 2678.394
258.7072, 2637.916
259.1893, 2597.108
259.6714, 2557.403
260.1535, 2518.727
260.6357, 2480.018
261.1178, 2440.998
261.5999, 2402.432
262.0820, 2363.724
262.5641, 2325.450
263.0462, 2289.353
263.5284, 2257.022
264.0105, 2228.103
264.4926, 2199.428
264.9747, 2169.739
265.4568, 2142.606
265.9389, 2119.187
266.4211, 2099.131
266.9032, 2081.987
267.3853, 2068.269
267.8674, 2057.192
268.3495, 2044.940
268.8316, 2029.440
269.3138, 2016.045
269.7959, 2005.916
270.2780, 1998.929
270.7601, 1994.838
271.2422, 1993.460
271.7243, 1994.936
272.2065, 2000.205
272.6886, 2011.722
273.1707, 2023.009
273.6528, 2030.693
274.1349, 2037.765
274.6170, 2047.134
275.0992, 2059.972
275.5813, 2076.586
276.0634, 2098.126
276.5455, 2127.621
277.0276, 2156.688
277.5097, 2182.370
277.9919, 2207.675
278.4740, 2235.250
278.9561, 2266.179
279.4382, 2299.654
279.9203, 2334.544
280.4024, 2370.552
280.8846, 2408.539
281.3667, 2450.406
281.8488, 2492.709
282.3309, 2532.786
282.8130, 2569.986
283.2951, 2605.336
283.7773, 2640.158
284.2594, 2674.124
284.7415, 2708.374
285.2236, 2741.576
285.7057, 2776.056
286.1878, 2814.986
286.6700, 2857.583
287.1521, 2899.147
287.6342, 2933.290
288.1163, 2956.024
288.5984, 2986.356
289.0805, 3028.724
289.5627, 3073.838
290.0448, 3118.115
290.5269, 3161.401
291.0090, 3204.727
291.4911, 3248.633
291.9732, 3292.671
292.4554, 3341.884
292.9375, 3402.174
293.4196, 3461.811
293.9017, 3515.947
294.3838, 3566.396
294.8659, 3617.603
295.3481, 3672.624
295.8302, 3731.436
296.3123, 3790.750
296.7944, 3850.675
297.2765, 3911.241
297.7586, 3974.872
298.2408, 4038.617
298.7229, 4097.767
299.2050, 4149.492
299.6871, 4194.807
300.1692, 4237.203
300.6513, 4276.031
301.1335, 4311.999
301.6156, 4348.519
302.0977, 4380.622
302.5798, 4404.309
303.0619, 4417.744
303.5440, 4419.932
304.0262, 4408.606
304.5083, 4381.470
304.9904, 4341.762
305.4725, 4286.448
305.9546, 4221.884
306.4367, 4152.430
306.9189, 4079.427
307.4010, 4001.575
307.8831, 3916.713
308.3652, 3822.496
308.8473, 3726.866
309.3294, 3628.407
309.8116, 3529.315
310.2937, 3430.999
310.7758, 3333.488
311.2579, 3236.241
311.7400, 3138.941
312.2221, 3039.835
312.7043, 2948.248
313.1864, 2863.121
313.6685, 2784.771
314.1506, 2713.821
314.6327, 2649.598
315.1148, 2590.814
315.5970, 2537.006
316.0791, 2487.964
316.5612, 2440.967
317.0433, 2394.366
317.5254, 2351.341
318.0075, 2310.039
318.4897, 2273.447
318.9718, 2247.132
319.4539, 2234.256
319.9360, 2230.761
320.4181, 2223.492
320.9002, 2207.293
321.3824, 2193.734
321.8645, 2185.509
322.3466, 2179.148
322.8287, 2171.467
323.3108, 2161.396
323.7929, 2149.398
324.2751, 2136.418
324.7572, 2122.892
325.2393, 2107.167
325.7214, 2081.935
326.2035, 2059.958
326.6856, 2050.906
327.1678, 2055.222
327.6499, 2065.701
328.1320, 2074.461
328.6141, 2080.242
329.0962, 2090.943
329.5783, 2109.331
330.0605, 2129.273
330.5426, 2147.677
331.0247, 2165.399
331.5068, 2185.202
331.9889, 2209.433
332.4710, 2237.769
332.9532, 2264.945
333.4353, 2289.319
333.9174, 2314.523
334.3995, 2340.484
334.8816, 2367.825
335.3637, 2397.359
335.8459, 2429.305
336.3280, 2463.582
336.8101, 2499.092
337.2922, 2536.735
337.7743, 2574.615
338.2564, 2610.809
338.7386, 2648.291
339.2206, 2690.463
339.7028, 2738.091
340.1849, 2787.521
340.6670, 2833.009
341.1491, 2871.756
341.6312, 2913.308
342.1133, 2958.065
342.5955, 3004.629
343.0776, 3053.195
343.5597, 3103.145
344.0418, 3152.628
344.5239, 3199.154
345.0060, 3242.253
345.4882, 3290.689
345.9703, 3347.245
346.4524, 3407.058
346.9345, 3468.635
347.4166, 3532.669
347.8987, 3601.167
348.3809, 3675.486
348.8630, 3754.313
349.3451, 3830.968
349.8272, 3907.167
350.3093, 3979.165
350.7914, 4040.676
351.2736, 4100.891
351.7557, 4168.430
352.2378, 4246.481
352.7199, 4331.884
353.2020, 4418.248
353.6841, 4502.954
354.1663, 4596.864
354.6484, 4706.977
355.1305, 4821.988
355.6126, 4934.451
356.0947, 5044.265
356.5768, 5156.886
357.0590, 5278.729
357.5411, 5409.439
358.0232, 5540.211
358.5053, 5667.307
358.9874, 5798.802
359.4695, 5937.300
359.9517, 6082.069
360.4338, 6231.312
360.9159, 6385.768
361.3980, 6542.702
361.8801, 6694.980
362.3622, 6837.842
362.8444, 6985.099
363.3265, 7149.710
363.8086, 7317.463
364.2907, 7473.396
364.7728, 7613.199
365.2549, 7743.392
365.7371, 7873.844
366.2192, 8006.291
366.7013, 8128.193
367.1834, 8244.908
367.6655, 8341.370
368.1476, 8407.073
368.6298, 8442.016
369.1119, 8452.863
369.5940, 8445.488
370.0761, 8418.555
370.5582, 8365.368
371.0403, 8285.393
371.5225, 8177.245
372.0046, 8038.993
372.4867, 7874.957
372.9688, 7689.752
373.4509, 7482.415
373.9330, 7257.530
374.4152, 7018.050
374.8973, 6763.229
375.3794, 6507.358
375.8615, 6256.093
376.3436, 6010.503
376.8257, 5770.672
377.3079, 5535.840
377.7900, 5307.724
378.2721, 5085.050
378.7542, 4869.188
379.2363, 4666.298
379.7184, 4476.852
380.2006, 4301.833
380.6827, 4142.996
381.1648, 3999.986
381.6469, 3865.236
382.1290, 3733.565
382.6111, 3609.221
383.0933, 3499.760
383.5754, 3405.878
384.0575, 3320.951
384.5396, 3238.689
385.0217, 3160.849
385.5038, 3091.877
385.9860, 3034.367
386.4681, 2983.946
386.9502, 2938.357
387.4323, 2897.865
387.9144, 2862.807
388.3965, 2833.529
388.8787, 2809.861
389.3608, 2792.391
389.8429, 2782.538
390.3250, 2774.160
390.8071, 2764.940
391.2892, 2756.990
391.7714, 2752.280
392.2535, 2751.344
392.7356, 2755.001
393.2177, 2764.641
393.6998, 2781.598
394.1819, 2799.143
394.6641, 2818.244
395.1462, 2837.087
395.6283, 2852.251
396.1104, 2865.858
396.5925, 2884.198
397.0746, 2912.030
397.5568, 2947.174
398.0389, 2978.480
398.5210, 3002.165
399.0031, 3026.177
399.4852, 3050.538
399.9673, 3076.080
400.4495, 3104.950
400.9316, 3137.398
401.4137, 3170.111
401.8958, 3198.067
402.3779, 3220.371
402.8600, 3239.960
403.3422, 3258.609
403.8243, 3273.523
404.3064, 3283.631
404.7885, 3288.741
405.2706, 3289.096
405.7527, 3285.207
406.2349, 3276.682
406.7170, 3260.186
407.1991, 3232.057
407.6812, 3200.608
408.1633, 3170.759
408.6454, 3137.864
409.1276, 3095.722
409.6097, 3042.080
410.0918, 2982.356
410.5739, 2924.355
411.0560, 2869.250
411.5381, 2810.772
412.0203, 2745.392
412.5024, 2678.632
412.9845, 2613.534
413.4666, 2550.305
413.9487, 2487.786
414.4308, 2426.489
414.9130, 2365.639
415.3951, 2301.213
415.8772, 2230.510
416.3593, 2162.922
416.8414, 2105.244
417.3235, 2053.271
417.8057, 2001.412
418.2878, 1946.907
418.7699, 1894.935
419.2520, 1851.145
419.7341, 1814.884
420.2162, 1779.912
420.6984, 1744.851
421.1805, 1709.985
421.6626, 1675.885
422.1447, 1642.255
422.6268, 1609.360
423.1089, 1575.851
423.5911, 1543.763
424.0732, 1516.576
424.5553, 1494.809
425.0374, 1473.755
425.5195, 1449.239
426.0016, 1422.405
426.4838, 1400.381
426.9659, 1386.954
427.4480, 1374.186
427.9301, 1357.347
428.4122, 1338.682
428.8943, 1323.497
429.3765, 1313.953
429.8586, 1307.226
430.3407, 1298.436
430.8228, 1286.389
431.3049, 1274.700
431.7870, 1263.532
432.2692, 1252.690
432.7513, 1241.593
433.2334, 1230.566
433.7155, 1220.656
434.1976, 1212.713
434.6797, 1206.726
435.1619, 1202.472
435.6440, 1201.472
436.1261, 1200.497
436.6082, 1199.231
437.0903, 1197.627
437.5724, 1195.327
438.0546, 1192.289
438.5367, 1189.472
439.0188, 1188.558
439.5009, 1190.207
439.9830, 1191.616
440.4651, 1192.777
440.9473, 1193.630
441.4294, 1193.668
441.9115, 1193.318
442.3936, 1193.618
442.8757, 1195.182
443.3578, 1197.958
443.8400, 1201.643
444.3221, 1206.047
444.8042, 1211.939
445.2863, 1220.862
445.7684, 1230.741
446.2505, 1239.332
446.7327, 1246.062
447.2148, 1253.207
447.6969, 1263.263
448.1790, 1275.633
448.6611, 1286.807
449.1432, 1295.360
449.6254, 1304.345
450.1075, 1316.937
450.5896, 1332.151
451.0717, 1347.345
451.5538, 1361.094
452.0359, 1375.019
452.5181, 1390.297
453.0002, 1406.990
453.4823, 1425.616
453.9644, 1447.125
454.4465, 1469.848
454.9286, 1489.831
455.4108, 1506.234
455.8929, 1522.835
456.3750, 1540.032
456.8571, 1558.066
457.3392, 1577.553
457.8214, 1598.448
458.3035, 1619.839
458.7856, 1640.846
459.2677, 1661.487
459.7498, 1684.219
460.2319, 1708.583
460.7141, 1735.192
461.1962, 1766.268
461.6783, 1799.089
462.1604, 1829.713
462.6425, 1856.665
463.1246, 1881.307
463.6068, 1905.932
464.0889, 1930.597
464.5710, 1954.704
465.0531, 1979.436
465.5352, 2002.517
466.0173, 2023.136
466.4995, 2041.256
466.9816, 2056.988
467.4637, 2070.186
467.9458, 2081.325
468.4279, 2091.943
468.9100, 2102.125
469.3922, 2111.655
469.8743, 2123.271
470.3564, 2132.545
470.8385, 2134.654
471.3206, 2128.992
471.8027, 2121.300
472.2849, 2116.762
472.7670, 2113.944
473.2491, 2106.548
473.7312, 2092.244
474.2133, 2078.464
474.6954, 2071.715
475.1776, 2069.442
475.6597, 2065.988
476.1418, 2059.654
476.6239, 2052.944
477.1060, 2048.305
477.5881, 2044.791
478.0703, 2038.716
478.5524, 2028.248
479.0345, 2017.376
479.5166, 2012.507
479.9987, 2015.437
480.4808, 2016.024
480.9630, 2011.557
481.4451, 2006.440
481.9272, 2003.927
482.4093, 2003.518
482.8914, 2003.003
483.3735, 2001.129
483.8557, 1997.946
484.3378, 1993.606
484.8199, 1987.364
485.3020, 1980.935
485.7841, 1975.646
486.2662, 1969.294
486.7484, 1959.537
487.2305, 1946.545
487.7126, 1932.861
488.1947, 1920.600
488.6768, 1909.674
489.1589, 1898.797
489.6411, 1888.273
490.1232, 1877.226
490.6053, 1864.717
491.0874, 1851.890
491.5695, 1839.998
492.0516, 1829.392
492.5338, 1819.864
493.0159, 1810.957
493.4980, 1802.800
493.9801, 1796.732
494.4622, 1792.780
494.9443, 1791.321
495.4265, 1794.425
495.9086, 1800.448
496.3907, 1804.708
496.8728, 1804.118
497.3549, 1803.108
497.8370, 1803.584
498.3192, 1806.340
498.8013, 1815.161
499.2834, 1832.276
499.7655, 1853.808
500.2476, 1873.371
500.7297, 1889.373
501.2119, 1909.373
501.6940, 1935.312
502.1761, 1964.162
502.6582, 1994.472
503.1403, 2025.868
503.6224, 2058.327
504.1045, 2091.838
504.5866, 2126.472
505.0688, 2162.558
505.5509, 2199.244
506.0330, 2239.264
506.5151, 2284.528
506.9972, 2331.699
507.4793, 2378.328
507.9615, 2424.339
508.4436, 2471.250
508.9257, 2520.312
509.4078, 2571.560
509.8899, 2623.151
510.3720, 2674.867
510.8542, 2727.723
511.3363, 2782.644
511.8184, 2838.624
512.3005, 2895.664
512.7827, 2954.184
513.2648, 3009.975
513.7469, 3057.391
514.2290, 3099.729
514.7111, 3148.597
515.1932, 3207.010
515.6754, 3264.843
516.1575, 3314.279
516.6396, 3356.490
517.1217, 3398.077
517.6038, 3440.093
518.0859, 3480.341
518.5681, 3518.291
519.0502, 3553.716
519.5323, 3586.044
520.0144, 3615.269
520.4965, 3642.130
520.9786, 3668.298
521.4608, 3695.305
521.9429, 3711.784
522.4250, 3714.709
522.9071, 3712.409
523.3892, 3707.657
523.8713, 3699.646
524.3535, 3686.463
524.8356, 3667.448
525.3177, 3644.029
525.7998, 3619.735
526.2819, 3596.091
526.7640, 3564.122
527.2462, 3521.068
527.7283, 3471.436
528.2104, 3415.194
528.6925, 3354.438
529.1746, 3293.677
529.6567, 3236.304
530.1389, 3177.512
530.6210, 3110.394
531.1031, 3035.357
531.5852, 2959.323
532.0673, 2883.917
532.5494, 2808.953
533.0316, 2732.821
533.5137, 2656.030
533.9958, 2581.889
534.4779, 2512.469
534.9600, 2444.967
535.4421, 2375.042
535.9243, 2304.503
536.4064, 2238.646
536.8885, 2180.729
537.3706, 2127.030
537.8527, 2070.242
538.3348, 2005.461
538.8170, 1946.652
539.2991, 1896.486
539.7812, 1849.632
540.2633, 1802.517
540.7454, 1755.766
541.2275, 1711.452
541.7097, 1670.889
542.1918, 1633.404
542.6739, 1597.373
543.1560, 1562.623
543.6381, 1529.318
544.1202, 1497.141
544.6024, 1467.011
545.0845, 1440.545
545.5666, 1417.013
546.0487, 1393.551
546.5308, 1367.477
547.0129, 1340.964
547.4951, 1317.227
547.9772, 1296.215
548.4593, 1278.372
548.9414, 1265.197
549.4235, 1253.844
549.9056, 1238.474
550.3878, 1218.021
550.8699, 1200.686
551.3520, 1188.880
551.8341, 1180.234
552.3162, 1173.927
552.7983, 1169.164
553.2805, 1163.901
553.7626, 1156.791
554.2447, 1148.898
554.7268, 1143.488
555.2089, 1143.531
555.6910, 1140.722
556.1732, 1131.012
556.6553, 1122.023
557.1374, 1118.654
557.6195, 1120.250
558.1016, 1123.445
558.5837, 1126.468
559.0659, 1129.235
559.5480, 1131.115
560.0301, 1131.663
560.5122, 1133.999
560.9943, 1140.020
561.4764, 1147.230
561.9586, 1153.083
562.4407, 1157.653
562.9228, 1162.443
563.4049, 1167.629
563.8870, 1173.568
564.3691, 1180.296
564.8513, 1187.987
565.3334, 1197.704
565.8155, 1210.198
566.2976, 1224.156
566.7797, 1237.150
567.2618, 1248.324
567.7440, 1260.494
568.2261, 1275.126
568.7082, 1289.309
569.1903, 1300.053
569.6724, 1309.041
570.1545, 1320.584
570.6367, 1336.988
571.1188, 1356.473
571.6009, 1375.077
572.0830, 1392.552
572.5651, 1410.706
573.0472, 1430.811
573.5294, 1450.510
574.0115, 1468.792
574.4936, 1485.726
574.9757, 1501.528
575.4578, 1516.251
575.9399, 1529.947
576.4221, 1543.241
576.9042, 1555.767
577.3863, 1565.454
577.8684, 1571.510
578.3505, 1575.009
578.8326, 1576.626
579.3148, 1576.191
579.7969, 1576.500
580.2790, 1580.162
580.7611, 1581.946
581.2432, 1579.024
581.7253, 1572.628
582.2075, 1564.221
582.6896, 1554.526
583.1717, 1544.903
583.6538, 1537.820
584.1359, 1534.141
584.6180, 1526.799
585.1002, 1512.909
585.5823, 1498.503
586.0643, 1486.655
586.5464, 1474.945
