##NAMES=Curite
##RRUFFID=R070328
##IDEAL CHEMISTRY=Pb^2+^_3+x_[(U^6+^O_2_)_4_O_4+x_(OH)_3-x_]_2_&#183;2H_2_O
##LOCALITY=Kasolo mine, Shinkolobwe, Shaba Zaire
##OWNER=RRUFF
##SOURCE=James Shigley
##DESCRIPTION=Orange acicular crystals on a quartz matrix and associated with torbernite
##STATUS=The identification of this mineral has been confirmed by single-crystal X-ray diffraction.
##URL=rruff.info/R070328
137.6089, 2092.649
138.0910, 2194.908
138.5731, 2284.437
139.0553, 2359.221
139.5374, 2437.022
140.0195, 2523.067
140.5016, 2612.060
140.9837, 2678.540
141.4658, 2715.282
141.9480, 2741.904
142.4301, 2771.949
142.9122, 2811.022
143.3943, 2841.486
143.8764, 2860.858
144.3585, 2869.112
144.8407, 2871.888
145.3228, 2868.093
145.8049, 2859.604
146.2870, 2847.749
146.7691, 2828.135
147.2512, 2811.084
147.7334, 2798.427
148.2155, 2790.240
148.6976, 2785.661
149.1797, 2785.723
149.6618, 2789.115
150.1439, 2794.065
150.6261, 2799.173
151.1082, 2807.043
151.5903, 2818.153
152.0724, 2832.104
152.5545, 2850.146
153.0366, 2878.840
153.5188, 2911.390
154.0009, 2934.342
154.4830, 2937.947
154.9651, 2937.621
155.4472, 2940.252
155.9293, 2949.030
156.4115, 2957.390
156.8936, 2963.779
157.3757, 2968.694
157.8578, 2973.958
158.3399, 2986.397
158.8221, 2995.713
159.3042, 2995.212
159.7863, 2962.475
160.2684, 2940.054
160.7505, 2949.664
161.2326, 2987.031
161.7148, 3018.531
162.1969, 3027.380
162.6790, 3024.605
163.1611, 3020.811
163.6432, 3016.442
164.1253, 3014.372
164.6075, 3016.589
165.0896, 3023.183
165.5717, 3031.451
166.0538, 3038.748
166.5359, 3046.994
167.0180, 3058.894
167.5002, 3078.779
167.9823, 3100.818
168.4644, 3118.773
168.9465, 3130.962
169.4286, 3147.590
169.9107, 3179.974
170.3929, 3222.353
170.8750, 3263.460
171.3571, 3294.612
171.8392, 3322.370
172.3213, 3353.784
172.8034, 3389.885
173.2856, 3428.072
173.7677, 3464.654
174.2498, 3501.002
174.7319, 3541.079
175.2140, 3590.061
175.6961, 3643.669
176.1783, 3694.999
176.6604, 3741.351
177.1425, 3786.596
177.6246, 3838.133
178.1067, 3894.061
178.5888, 3945.501
179.0710, 3983.319
179.5531, 4011.191
180.0352, 4036.990
180.5173, 4064.605
180.9994, 4088.625
181.4815, 4096.037
181.9637, 4087.386
182.4458, 4077.693
182.9279, 4086.042
183.4100, 4105.775
183.8921, 4111.747
184.3742, 4093.732
184.8564, 4058.690
185.3385, 4021.468
185.8206, 3981.604
186.3027, 3941.277
186.7848, 3900.071
187.2669, 3858.841
187.7491, 3822.729
188.2312, 3795.605
188.7133, 3775.186
189.1954, 3752.522
189.6775, 3727.477
190.1596, 3701.406
190.6418, 3676.589
191.1239, 3653.012
191.6060, 3626.202
192.0881, 3589.403
192.5702, 3545.031
193.0524, 3514.738
193.5345, 3499.699
194.0166, 3495.741
194.4987, 3500.199
194.9808, 3513.759
195.4629, 3525.406
195.9451, 3530.242
196.4272, 3528.399
196.9093, 3520.653
197.3914, 3503.808
197.8735, 3486.118
198.3556, 3485.457
198.8378, 3504.210
199.3199, 3524.683
199.8020, 3535.631
200.2841, 3535.899
200.7662, 3543.335
201.2483, 3561.173
201.7305, 3584.705
202.2126, 3601.527
202.6947, 3609.823
203.1768, 3618.187
203.6589, 3632.252
204.1410, 3652.700
204.6232, 3674.218
205.1053, 3699.496
205.5874, 3724.174
206.0695, 3729.008
206.5516, 3704.994
207.0337, 3684.782
207.5159, 3695.511
207.9980, 3745.689
208.4801, 3785.191
208.9622, 3806.663
209.4443, 3812.807
209.9264, 3815.943
210.4086, 3814.925
210.8907, 3813.197
211.3728, 3815.131
211.8549, 3824.375
212.3370, 3823.920
212.8191, 3806.675
213.3013, 3775.981
213.7834, 3761.559
214.2655, 3772.935
214.7476, 3785.248
215.2297, 3773.138
215.7118, 3722.719
216.1940, 3686.833
216.6761, 3679.567
217.1582, 3699.162
217.6403, 3706.142
218.1224, 3693.795
218.6045, 3677.705
219.0867, 3674.002
219.5688, 3689.238
220.0509, 3701.315
220.5330, 3704.243
221.0151, 3697.785
221.4972, 3695.998
221.9794, 3702.222
222.4615, 3709.371
222.9436, 3709.506
223.4257, 3699.452
223.9078, 3688.459
224.3899, 3676.308
224.8721, 3661.779
225.3542, 3662.447
225.8363, 3691.841
226.3184, 3723.637
226.8005, 3722.774
227.2827, 3665.552
227.7648, 3621.313
228.2469, 3612.238
228.7290, 3644.844
229.2111, 3660.603
229.6932, 3648.386
230.1754, 3628.158
230.6575, 3627.888
231.1396, 3662.011
231.6217, 3690.422
232.1038, 3699.850
232.5859, 3685.220
233.0681, 3678.786
233.5502, 3681.768
234.0323, 3692.017
234.5144, 3707.979
234.9965, 3735.925
235.4786, 3758.760
235.9608, 3770.812
236.4429, 3770.049
236.9250, 3766.663
237.4071, 3756.263
237.8892, 3746.017
238.3713, 3747.881
238.8535, 3767.102
239.3356, 3789.726
239.8177, 3811.997
240.2998, 3834.362
240.7819, 3854.400
241.2640, 3869.853
241.7462, 3884.610
242.2283, 3906.330
242.7104, 3940.591
243.1925, 3972.618
243.6746, 3996.981
244.1567, 4011.167
244.6389, 4026.404
245.1210, 4042.525
245.6031, 4059.742
246.0852, 4079.291
246.5673, 4105.655
247.0494, 4126.656
247.5316, 4136.729
248.0137, 4131.647
248.4958, 4129.630
248.9779, 4129.967
249.4600, 4133.810
249.9421, 4145.261
250.4243, 4173.180
250.9064, 4192.897
251.3885, 4191.812
251.8706, 4158.745
252.3527, 4143.605
252.8348, 4155.144
253.3170, 4179.151
253.7991, 4187.276
254.2812, 4170.500
254.7633, 4154.974
255.2454, 4151.109
255.7275, 4162.439
256.2097, 4172.427
256.6918, 4180.290
257.1739, 4187.240
257.6560, 4195.169
258.1381, 4203.015
258.6202, 4214.177
259.1024, 4231.921
259.5845, 4259.657
260.0666, 4278.203
260.5487, 4283.151
261.0308, 4282.216
261.5129, 4290.369
261.9951, 4310.644
262.4772, 4332.608
262.9593, 4351.868
263.4414, 4367.718
263.9235, 4385.463
264.4056, 4406.937
264.8878, 4428.804
265.3699, 4443.636
265.8520, 4446.978
266.3341, 4456.542
266.8162, 4484.924
267.2983, 4538.425
267.7805, 4566.016
268.2626, 4558.373
268.7447, 4534.850
269.2268, 4530.982
269.7089, 4553.344
270.1910, 4571.667
270.6732, 4570.862
271.1553, 4547.740
271.6374, 4539.405
272.1195, 4552.332
272.6016, 4570.540
273.0837, 4565.294
273.5659, 4532.014
274.0480, 4498.805
274.5301, 4476.931
275.0122, 4466.964
275.4943, 4456.196
275.9764, 4446.239
276.4586, 4432.445
276.9407, 4405.652
277.4228, 4364.801
277.9049, 4323.301
278.3870, 4287.011
278.8691, 4255.640
279.3513, 4221.215
279.8334, 4181.931
280.3155, 4144.241
280.7976, 4119.147
281.2798, 4107.480
281.7619, 4093.943
282.2440, 4070.251
282.7261, 4038.563
283.2082, 4015.417
283.6903, 4001.415
284.1725, 3993.747
284.6546, 3992.356
285.1367, 3996.847
285.6188, 3996.240
286.1009, 3984.593
286.5830, 3964.505
287.0652, 3945.085
287.5473, 3925.705
288.0294, 3911.777
288.5115, 3911.635
288.9936, 3923.969
289.4757, 3938.031
289.9579, 3953.124
290.4400, 3966.716
290.9221, 3971.864
291.4042, 3968.342
291.8863, 3959.158
292.3684, 3945.112
292.8506, 3927.264
293.3327, 3909.488
293.8148, 3888.746
294.2969, 3871.129
294.7790, 3873.511
295.2611, 3895.955
295.7433, 3916.623
296.2254, 3910.344
296.7075, 3886.567
297.1896, 3872.618
297.6717, 3881.217
298.1538, 3899.124
298.6360, 3904.942
299.1181, 3899.778
299.6002, 3896.075
300.0823, 3910.211
300.5644, 3931.826
301.0465, 3940.544
301.5287, 3925.666
302.0108, 3902.513
302.4929, 3885.296
302.9750, 3873.941
303.4571, 3868.982
303.9392, 3875.192
304.4214, 3886.589
304.9035, 3895.053
305.3856, 3897.205
305.8677, 3897.978
306.3498, 3901.161
306.8319, 3906.394
307.3141, 3912.519
307.7962, 3920.340
308.2783, 3927.948
308.7604, 3933.531
309.2425, 3936.359
309.7246, 3937.646
310.2068, 3940.053
310.6889, 3941.752
311.1710, 3938.092
311.6531, 3917.840
312.1352, 3896.841
312.6173, 3886.883
313.0995, 3891.128
313.5816, 3902.994
314.0637, 3926.982
314.5458, 3956.084
315.0279, 3977.326
315.5100, 3981.719
315.9922, 3979.970
316.4743, 3974.374
316.9564, 3961.433
317.4385, 3960.353
317.9206, 3991.643
318.4027, 4035.379
318.8849, 4063.716
319.3670, 4053.595
319.8491, 4040.522
320.3312, 4037.135
320.8133, 4045.434
321.2954, 4057.195
321.7776, 4074.745
322.2597, 4093.530
322.7418, 4108.699
323.2239, 4117.390
323.7060, 4124.563
324.1881, 4129.632
324.6703, 4132.047
325.1524, 4139.701
325.6345, 4158.288
326.1166, 4179.514
326.5987, 4196.854
327.0808, 4206.284
327.5630, 4216.555
328.0451, 4230.683
328.5272, 4248.210
329.0093, 4258.781
329.4914, 4255.514
329.9735, 4251.305
330.4557, 4255.138
330.9378, 4275.184
331.4199, 4288.635
331.9020, 4289.752
332.3841, 4282.299
332.8662, 4285.438
333.3484, 4304.435
333.8305, 4325.991
334.3126, 4343.498
334.7947, 4356.525
335.2768, 4365.504
335.7589, 4367.336
336.2411, 4366.834
336.7232, 4378.435
337.2053, 4406.993
337.6874, 4433.215
338.1695, 4446.926
338.6516, 4446.382
339.1338, 4447.479
339.6159, 4450.663
340.0980, 4455.237
340.5801, 4461.990
341.0622, 4471.876
341.5443, 4475.375
342.0265, 4462.683
342.5086, 4437.018
342.9907, 4431.026
343.4728, 4448.376
343.9549, 4471.216
344.4370, 4477.602
344.9192, 4468.784
345.4013, 4455.879
345.8834, 4436.622
346.3655, 4417.862
346.8476, 4423.203
347.3297, 4453.313
347.8119, 4486.647
348.2940, 4503.202
348.7761, 4506.630
349.2582, 4506.982
349.7403, 4504.099
350.2225, 4502.611
350.7046, 4512.003
351.1867, 4530.863
351.6688, 4547.638
352.1509, 4551.509
352.6331, 4548.655
353.1152, 4547.819
353.5973, 4549.911
354.0794, 4556.427
354.5615, 4572.631
355.0436, 4595.203
355.5258, 4614.042
356.0079, 4621.668
356.4900, 4624.201
356.9721, 4626.109
357.4542, 4627.197
357.9363, 4630.659
358.4185, 4641.306
358.9006, 4655.224
359.3827, 4665.645
359.8648, 4665.809
360.3469, 4665.060
360.8290, 4668.734
361.3112, 4677.985
361.7933, 4686.640
362.2754, 4678.458
362.7575, 4654.506
363.2396, 4683.629
363.7217, 4699.850
364.2039, 4703.862
364.6860, 4659.101
365.1681, 4677.321
365.6502, 4670.301
366.1323, 4662.247
366.6144, 4689.331
367.0966, 4651.664
367.5787, 4678.191
368.0608, 4679.093
368.5429, 4691.724
369.0250, 4678.958
369.5071, 4674.036
369.9893, 4668.912
370.4714, 4671.958
370.9535, 4670.855
371.4356, 4659.757
371.9177, 4659.189
372.3998, 4677.169
372.8820, 4701.888
373.3641, 4703.698
373.8462, 4671.932
374.3283, 4645.016
374.8104, 4640.301
375.2925, 4659.951
375.7747, 4677.288
376.2568, 4693.949
376.7389, 4705.370
377.2210, 4699.980
377.7031, 4675.888
378.1852, 4663.032
378.6674, 4676.081
379.1495, 4707.373
379.6316, 4724.015
380.1137, 4724.934
380.5958, 4719.653
381.0779, 4713.448
381.5601, 4707.417
382.0422, 4707.794
382.5243, 4717.717
383.0064, 4732.412
383.4885, 4745.933
383.9706, 4758.047
384.4528, 4766.124
384.9349, 4763.955
385.4170, 4757.768
385.8991, 4759.787
386.3812, 4774.917
386.8633, 4788.330
387.3455, 4782.117
387.8276, 4763.437
388.3097, 4748.548
388.7918, 4746.589
389.2739, 4751.276
389.7560, 4758.143
390.2382, 4766.868
390.7203, 4777.441
391.2024, 4798.188
391.6845, 4817.937
392.1666, 4823.990
392.6487, 4788.841
393.1309, 4760.894
393.6130, 4768.345
394.0951, 4807.386
394.5772, 4831.521
395.0593, 4817.359
395.5414, 4791.912
396.0236, 4772.140
396.5057, 4761.930
396.9878, 4755.590
397.4699, 4752.690
397.9520, 4753.393
398.4341, 4758.514
398.9163, 4779.498
399.3984, 4792.915
399.8805, 4787.251
400.3626, 4750.367
400.8447, 4731.156
401.3268, 4736.884
401.8090, 4754.951
402.2911, 4769.135
402.7732, 4780.670
403.2553, 4784.459
403.7374, 4776.991
404.2195, 4759.040
404.7017, 4744.691
405.1838, 4734.393
405.6659, 4726.391
406.1480, 4717.226
406.6301, 4706.691
407.1122, 4705.345
407.5944, 4717.221
408.0765, 4737.220
408.5586, 4754.567
409.0407, 4769.334
409.5228, 4780.519
410.0049, 4784.974
410.4871, 4785.179
410.9692, 4789.583
411.4513, 4800.513
411.9334, 4809.687
412.4155, 4804.433
412.8976, 4789.226
413.3798, 4777.229
413.8619, 4771.589
414.3440, 4773.580
414.8261, 4789.718
415.3082, 4819.954
415.7903, 4844.112
416.2725, 4840.555
416.7546, 4826.978
417.2367, 4823.723
417.7188, 4850.918
418.2009, 4874.609
418.6830, 4874.473
419.1652, 4856.665
419.6473, 4843.762
420.1294, 4840.954
420.6115, 4846.672
421.0937, 4861.292
421.5758, 4889.628
422.0579, 4916.044
422.5400, 4944.625
423.0221, 4968.915
423.5042, 4978.581
423.9864, 4957.240
424.4685, 4939.279
424.9506, 4932.588
425.4327, 4938.036
425.9148, 4944.531
426.3969, 4949.714
426.8791, 4958.614
427.3612, 4977.130
427.8433, 5009.796
428.3254, 5037.524
428.8075, 5056.725
429.2896, 5069.459
429.7718, 5081.487
430.2539, 5092.369
430.7360, 5104.889
431.2181, 5121.902
431.7002, 5142.932
432.1823, 5160.616
432.6645, 5174.088
433.1466, 5185.934
433.6287, 5200.111
434.1108, 5215.903
434.5929, 5229.678
435.0750, 5236.435
435.5572, 5241.625
436.0393, 5257.234
436.5214, 5282.720
437.0035, 5306.664
437.4856, 5316.726
437.9677, 5320.500
438.4499, 5328.717
438.9320, 5345.999
439.4141, 5365.119
439.8962, 5381.229
440.3783, 5395.122
440.8604, 5409.321
441.3426, 5423.917
441.8247, 5439.702
442.3068, 5458.355
442.7889, 5481.527
443.2710, 5500.410
443.7531, 5509.881
444.2353, 5514.906
444.7174, 5521.135
445.1995, 5527.639
445.6816, 5537.184
446.1637, 5552.006
446.6458, 5571.293
447.1280, 5587.771
447.6101, 5599.471
448.0922, 5610.583
448.5743, 5624.335
449.0564, 5645.373
449.5385, 5655.256
450.0207, 5646.915
450.5028, 5633.215
450.9849, 5642.161
451.4670, 5679.073
451.9491, 5710.869
452.4312, 5720.314
452.9134, 5711.724
453.3955, 5721.707
453.8776, 5752.237
454.3597, 5786.768
454.8418, 5810.724
455.3239, 5825.207
455.8061, 5832.671
456.2882, 5830.528
456.7703, 5826.736
457.2524, 5836.702
457.7345, 5856.411
458.2166, 5869.629
458.6988, 5859.105
459.1809, 5840.713
459.6630, 5832.868
460.1451, 5838.769
460.6272, 5844.796
461.1093, 5837.424
461.5915, 5826.640
462.0736, 5825.052
462.5557, 5848.391
463.0378, 5870.284
463.5199, 5875.716
464.0020, 5867.882
464.4842, 5871.781
464.9663, 5917.822
465.4484, 5958.174
465.9305, 5965.500
466.4126, 5905.754
466.8947, 5871.542
467.3769, 5871.954
467.8590, 5893.864
468.3411, 5918.083
468.8232, 5949.964
469.3053, 5972.580
469.7874, 5977.424
470.2696, 5966.100
470.7517, 5970.743
471.2338, 5995.898
471.7159, 6022.949
472.1980, 6034.585
472.6801, 6031.188
473.1623, 6029.217
473.6444, 6032.262
474.1265, 6035.254
474.6086, 6026.659
475.0907, 6008.470
475.5728, 5993.570
476.0550, 5988.477
476.5371, 5991.124
477.0192, 5999.476
477.5013, 6013.527
477.9834, 6029.370
478.4655, 6045.984
478.9477, 6062.020
479.4298, 6075.467
479.9119, 6085.098
480.3940, 6093.049
480.8761, 6099.297
481.3582, 6104.545
481.8404, 6110.753
482.3225, 6118.491
482.8046, 6127.383
483.2867, 6137.025
483.7688, 6146.786
484.2509, 6159.367
484.7331, 6183.918
485.2152, 6206.675
485.6973, 6213.812
486.1794, 6190.262
486.6615, 6177.190
487.1436, 6183.374
487.6258, 6204.508
488.1079, 6219.474
488.5900, 6225.322
489.0721, 6232.935
489.5542, 6250.080
490.0363, 6276.941
490.5185, 6300.171
491.0006, 6320.273
491.4827, 6333.260
491.9648, 6326.536
492.4470, 6304.766
492.9291, 6294.318
493.4112, 6309.640
493.8933, 6336.588
494.3754, 6356.345
494.8575, 6369.059
495.3397, 6374.502
495.8218, 6363.025
496.3039, 6348.899
496.7860, 6348.241
497.2681, 6365.224
497.7502, 6388.273
498.2324, 6419.395
498.7145, 6450.662
499.1966, 6471.887
499.6787, 6469.047
500.1608, 6466.515
500.6429, 6476.997
501.1251, 6498.867
501.6072, 6504.205
502.0893, 6471.817
502.5714, 6439.626
503.0535, 6425.269
503.5356, 6434.169
504.0178, 6449.726
504.4999, 6479.673
504.9820, 6509.018
505.4641, 6510.863
505.9462, 6478.590
506.4283, 6453.730
506.9105, 6450.995
507.3926, 6464.246
507.8747, 6471.114
508.3568, 6471.647
508.8389, 6464.500
509.3210, 6441.232
509.8032, 6409.454
510.2853, 6389.942
510.7674, 6385.882
511.2495, 6391.595
511.7316, 6406.592
512.2137, 6426.860
512.6959, 6443.997
513.1780, 6455.221
513.6601, 6461.745
514.1422, 6465.467
514.6243, 6465.790
515.1064, 6458.671
515.5886, 6429.756
516.0707, 6401.798
516.5528, 6389.724
517.0349, 6403.021
517.5170, 6416.008
517.9991, 6432.476
518.4813, 6444.863
518.9634, 6441.812
519.4455, 6409.613
519.9276, 6385.639
520.4097, 6378.901
520.8918, 6387.087
521.3740, 6396.174
521.8561, 6408.133
522.3382, 6414.462
522.8203, 6403.190
523.3024, 6376.337
523.7845, 6369.644
524.2667, 6388.015
524.7488, 6415.489
525.2309, 6439.163
525.7130, 6457.087
526.1951, 6461.241
526.6772, 6438.473
527.1594, 6410.631
527.6415, 6405.441
528.1236, 6418.728
528.6057, 6432.126
529.0878, 6443.313
529.5699, 6445.152
530.0521, 6425.723
530.5342, 6374.836
531.0163, 6341.870
531.4984, 6354.990
531.9805, 6388.415
532.4626, 6414.712
532.9448, 6427.041
533.4269, 6435.804
533.9090, 6440.769
534.3911, 6442.858
534.8732, 6445.633
535.3553, 6450.130
535.8375, 6453.333
536.3196, 6452.206
536.8017, 6446.151
537.2838, 6449.117
537.7659, 6462.866
538.2480, 6479.944
538.7302, 6494.592
539.2123, 6506.425
539.6944, 6510.096
540.1765, 6500.042
540.6586, 6489.448
541.1407, 6502.883
541.6229, 6533.234
542.1050, 6555.157
542.5871, 6545.892
543.0692, 6528.119
543.5513, 6522.267
544.0334, 6529.425
544.5156, 6538.243
544.9977, 6547.708
545.4798, 6554.180
545.9619, 6553.944
546.4440, 6534.532
546.9261, 6525.945
547.4083, 6541.334
547.8904, 6568.397
548.3725, 6585.168
548.8546, 6590.694
549.3367, 6587.043
549.8188, 6569.615
550.3010, 6540.817
550.7831, 6529.637
551.2652, 6538.358
551.7473, 6557.158
552.2294, 6584.739
552.7115, 6619.245
553.1937, 6639.296
553.6758, 6641.607
554.1579, 6636.075
554.6400, 6633.880
555.1221, 6633.665
555.6042, 6631.257
556.0864, 6620.400
556.5685, 6611.499
557.0506, 6623.399
557.5327, 6648.303
558.0148, 6656.836
558.4969, 6614.264
558.9791, 6566.210
559.4612, 6541.631
559.9433, 6547.518
560.4254, 6556.350
560.9075, 6566.623
561.3896, 6575.791
561.8718, 6582.034
562.3539, 6586.849
562.8360, 6585.542
563.3181, 6573.981
563.8002, 6557.913
564.2823, 6552.354
564.7645, 6559.873
565.2466, 6566.473
565.7287, 6565.364
566.2108, 6558.700
566.6929, 6559.668
567.1750, 6568.782
567.6572, 6573.628
568.1393, 6557.191
568.6214, 6530.049
569.1035, 6514.818
569.5856, 6516.740
570.0677, 6523.145
570.5499, 6525.946
571.0320, 6525.775
571.5141, 6523.679
571.9962, 6520.663
572.4783, 6515.182
572.9604, 6503.565
573.4426, 6487.843
573.9247, 6478.083
574.4068, 6487.455
574.8889, 6492.433
575.3710, 6481.546
575.8531, 6449.820
576.3353, 6429.850
576.8174, 6426.316
577.2995, 6427.879
577.7816, 6423.144
578.2637, 6411.268
578.7458, 6402.195
579.2280, 6397.207
579.7101, 6395.909
580.1922, 6398.381
580.6743, 6404.251
581.1564, 6411.435
581.6385, 6419.813
582.1207, 6428.518
582.6028, 6441.989
583.0849, 6457.846
583.5670, 6458.506
584.0491, 6410.629
584.5313, 6358.045
585.0134, 6339.700
585.4955, 6375.705
585.9776, 6399.069
586.4597, 6378.977
586.9418, 6343.254
587.4240, 6323.844
587.9061, 6333.066
588.3882, 6340.397
588.8703, 6340.219
589.3524, 6336.711
589.8345, 6343.630
590.3167, 6363.962
590.7988, 6383.596
591.2809, 6398.745
591.7630, 6408.363
592.2451, 6400.576
592.7272, 6374.497
593.2094, 6352.657
593.6915, 6362.120
594.1736, 6387.475
594.6557, 6397.968
595.1378, 6385.882
595.6199, 6369.835
596.1021, 6359.925
596.5842, 6355.837
597.0663, 6357.130
597.5485, 6372.841
598.0306, 6384.188
598.5127, 6378.253
598.9948, 6361.112
599.4769, 6359.544
599.9590, 6389.666
600.4412, 6417.869
600.9233, 6433.464
601.4054, 6436.031
601.8875, 6432.453
602.3696, 6419.572
602.8517, 6408.375
603.3339, 6412.176
603.8160, 6429.263
604.2981, 6434.170
604.7802, 6421.067
605.2623, 6405.817
605.7444, 6415.299
606.2266, 6439.626
606.7087, 6451.359
607.1908, 6427.065
607.6729, 6400.475
608.1550, 6402.872
608.6371, 6425.947
609.1193, 6442.771
609.6014, 6428.319
610.0835, 6417.272
610.5656, 6430.274
611.0477, 6473.012
611.5298, 6504.481
612.0120, 6522.107
612.4941, 6529.220
612.9762, 6524.757
613.4583, 6501.823
613.9404, 6493.530
614.4225, 6504.884
614.9047, 6524.792
615.3868, 6535.550
615.8689, 6538.430
616.3510, 6550.663
616.8331, 6584.129
617.3152, 6620.503
617.7974, 6628.238
618.2795, 6613.212
618.7616, 6598.837
619.2437, 6599.919
619.7258, 6605.137
620.2079, 6603.901
620.6901, 6595.839
621.1722, 6595.068
621.6543, 6614.481
622.1364, 6637.225
622.6185, 6651.617
623.1006, 6651.104
623.5828, 6656.009
624.0649, 6670.141
624.5470, 6686.194
625.0291, 6694.877
625.5112, 6694.757
625.9933, 6694.958
626.4755, 6697.251
626.9576, 6700.553
627.4397, 6702.067
627.9218, 6702.159
628.4039, 6703.622
628.8860, 6710.030
629.3682, 6717.464
629.8503, 6716.091
630.3324, 6708.124
630.8145, 6710.375
631.2966, 6749.306
631.7787, 6790.298
632.2609, 6804.949
632.7430, 6780.469
633.2251, 6766.098
633.7072, 6776.481
634.1893, 6797.822
