##NAMES=Curienite
##RRUFFID=R050548
##IDEAL CHEMISTRY=Pb^2+^(U^6+^O_2_)_2_(V^5+^O_4_)_2_&#183;5H_2_O
##LOCALITY=Mounana mine, Franceville, Haut-Ogooué, Gabon
##OWNER=RRUFF
##SOURCE=University of Arizona Mineral Museum
##DESCRIPTION=Groups of heavily striated orange bladed crystals
##STATUS=The identification of this mineral has been confirmed by X-ray diffraction and chemical analysis
##URL=rruff.info/R050548
##MEASURED CHEMISTRY=(Pb_0.83_Ba_0.17_)_Σ=1_(U_1.00_O_2_)_2_(V_1.00_O_4_)_2_·5.1H_2_O
90.92609, 0.0000000E+00
91.40820, 437.1087
91.89032, 436.1102
92.37244, 435.6721
92.85455, 435.9811
93.33667, 438.1436
93.81879, 444.6527
94.30090, 453.8887
94.78302, 460.9835
95.26514, 464.1020
95.74725, 465.0322
96.22937, 468.5012
96.71149, 474.8120
97.19360, 479.8839
97.67572, 477.7781
98.15784, 468.6946
98.63995, 463.2844
99.12207, 466.0020
99.60419, 475.6366
100.0863, 480.7904
100.5684, 479.7176
101.0505, 477.6749
101.5327, 482.3516
102.0148, 495.9990
102.4969, 508.6598
102.9790, 516.4341
103.4611, 517.7949
103.9432, 522.1637
104.4253, 529.2534
104.9075, 539.5107
105.3896, 553.8120
105.8717, 574.0060
106.3538, 595.9232
106.8359, 617.8343
107.3180, 634.3931
107.8002, 659.8368
108.2823, 694.4421
108.7644, 737.8602
109.2465, 790.4827
109.7286, 855.6097
110.2107, 926.8983
110.6929, 1002.832
111.1750, 1074.045
111.6571, 1159.303
112.1392, 1261.767
112.6213, 1380.539
113.1034, 1510.566
113.5856, 1650.972
114.0677, 1804.300
114.5498, 1970.962
115.0319, 2142.220
115.5140, 2336.564
115.9961, 2555.149
116.4783, 2798.265
116.9604, 3072.755
117.4425, 3379.433
117.9246, 3723.169
118.4067, 4105.923
118.8888, 4539.829
119.3710, 5007.933
119.8531, 5510.886
120.3352, 6049.813
120.8173, 6590.302
121.2994, 7107.889
121.7815, 7608.147
122.2637, 8102.879
122.7458, 8608.684
123.2279, 9101.207
123.7100, 9552.208
124.1921, 9955.299
124.6742, 10331.16
125.1564, 10684.35
125.6385, 11022.18
126.1206, 11369.35
126.6027, 11720.33
127.0848, 12090.81
127.5669, 12505.03
128.0491, 12966.34
128.5312, 13473.05
129.0133, 14028.85
129.4954, 14627.97
129.9775, 15263.74
130.4596, 15945.23
130.9418, 16658.64
131.4239, 17377.48
131.9060, 18100.11
132.3881, 18824.67
132.8702, 19539.69
133.3523, 20249.65
133.8345, 20936.46
134.3166, 21584.89
134.7987, 22200.15
135.2808, 22781.17
135.7629, 23333.90
136.2450, 23861.59
136.7272, 24365.50
137.2093, 24848.81
137.6914, 25307.91
138.1735, 25736.39
138.6556, 26127.70
139.1377, 26508.70
139.6199, 26889.63
140.1020, 27267.21
140.5841, 27634.40
141.0662, 27978.68
141.5483, 28323.48
142.0304, 28698.93
142.5126, 29108.78
142.9947, 29520.59
143.4768, 29824.14
143.9589, 29942.25
144.4410, 30104.94
144.9231, 30324.11
145.4053, 30579.05
145.8874, 30845.62
146.3695, 31132.60
146.8516, 31418.09
147.3337, 31688.32
147.8158, 31938.09
148.2980, 32200.00
148.7801, 32483.35
149.2622, 32778.75
149.7443, 33059.73
150.2264, 33332.82
150.7085, 33591.58
151.1907, 33829.35
151.6728, 34036.46
152.1549, 34247.26
152.6370, 34473.07
153.1191, 34704.20
153.6012, 34910.99
154.0834, 35093.34
154.5655, 35248.18
155.0476, 35375.43
155.5297, 35456.48
156.0118, 35530.45
156.4939, 35594.45
156.9761, 35653.43
157.4582, 35722.81
157.9403, 35809.77
158.4224, 35905.40
158.9045, 36005.41
159.3866, 36117.42
159.8688, 36222.98
160.3509, 36314.90
160.8330, 36395.34
161.3151, 36473.00
161.7972, 36546.18
162.2793, 36620.90
162.7615, 36701.93
163.2436, 36803.44
163.7257, 36899.51
164.2078, 36978.99
164.6899, 37043.15
165.1720, 37101.38
165.6541, 37169.88
166.1363, 37229.77
166.6184, 37262.30
167.1005, 37250.94
167.5826, 37218.02
168.0647, 37171.15
168.5468, 37111.16
169.0290, 37049.81
169.5111, 36996.45
169.9932, 36945.54
170.4753, 36889.66
170.9574, 36825.95
171.4395, 36757.14
171.9217, 36686.32
172.4038, 36613.71
172.8859, 36534.43
173.3680, 36434.54
173.8501, 36326.96
174.3322, 36232.29
174.8144, 36159.33
175.2965, 36103.38
175.7786, 36062.93
176.2607, 36037.55
176.7428, 36019.57
177.2249, 35996.49
177.7071, 35974.54
178.1892, 35968.87
178.6713, 35995.47
179.1534, 36039.59
179.6355, 36075.98
180.1176, 36102.91
180.5998, 36130.66
181.0819, 36170.09
181.5640, 36219.17
182.0461, 36273.17
182.5282, 36334.63
183.0103, 36398.24
183.4925, 36452.51
183.9746, 36496.86
184.4567, 36531.07
184.9388, 36556.85
185.4209, 36573.76
185.9030, 36576.24
186.3852, 36563.16
186.8673, 36534.49
187.3494, 36487.57
187.8315, 36421.73
188.3136, 36341.82
188.7957, 36250.87
189.2779, 36150.08
189.7600, 36040.26
190.2421, 35921.02
190.7242, 35793.90
191.2063, 35663.21
191.6884, 35529.23
192.1706, 35392.28
192.6527, 35247.41
193.1348, 35094.68
193.6169, 34938.93
194.0990, 34772.34
194.5811, 34597.31
195.0633, 34448.55
195.5454, 34331.80
196.0275, 34232.23
196.5096, 34125.41
196.9917, 34009.34
197.4738, 33902.80
197.9560, 33820.82
198.4381, 33764.12
198.9202, 33695.11
199.4023, 33604.88
199.8844, 33514.32
200.3665, 33469.20
200.8487, 33474.89
201.3308, 33494.91
201.8129, 33510.85
202.2950, 33521.87
202.7771, 33542.79
203.2592, 33574.16
203.7414, 33615.90
204.2235, 33669.97
204.7056, 33737.55
205.1877, 33808.96
205.6698, 33876.51
206.1519, 33936.99
206.6341, 34012.22
207.1162, 34104.79
207.5983, 34208.85
208.0804, 34310.92
208.5625, 34407.94
209.0446, 34508.54
209.5268, 34618.65
210.0089, 34741.52
210.4910, 34857.63
210.9731, 34961.68
211.4552, 35063.10
211.9373, 35183.26
212.4195, 35325.85
212.9016, 35477.49
213.3837, 35631.04
213.8658, 35784.76
214.3479, 35949.70
214.8300, 36127.72
215.3121, 36317.14
215.7943, 36514.22
216.2764, 36716.35
216.7585, 36927.10
217.2406, 37151.71
217.7227, 37392.29
218.2048, 37630.65
218.6870, 37867.13
219.1691, 38099.54
219.6512, 38326.39
220.1333, 38539.95
220.6154, 38762.99
221.0975, 39011.44
221.5797, 39290.75
222.0618, 39573.23
222.5439, 39862.82
223.0260, 40153.98
223.5081, 40442.81
223.9902, 40730.26
224.4724, 41013.07
224.9545, 41284.92
225.4366, 41551.53
225.9187, 41804.54
226.4008, 42043.07
226.8829, 42271.44
227.3651, 42501.85
227.8472, 42748.32
228.3293, 42977.70
228.8114, 43177.66
229.2935, 43344.68
229.7757, 43490.18
230.2578, 43612.64
230.7399, 43711.81
231.2220, 43789.88
231.7041, 43850.32
232.1862, 43880.75
232.6684, 43871.20
233.1505, 43806.14
233.6326, 43751.68
234.1147, 43723.99
234.5968, 43697.79
235.0789, 43624.70
235.5611, 43478.90
236.0432, 43329.44
236.5253, 43200.85
237.0074, 43108.41
237.4895, 42988.07
237.9716, 42827.07
238.4538, 42646.48
238.9359, 42482.47
239.4180, 42349.62
239.9001, 42207.10
240.3822, 42040.68
240.8643, 41847.91
241.3465, 41651.63
241.8286, 41459.43
242.3107, 41258.18
242.7928, 41030.35
243.2749, 40778.24
243.7570, 40494.69
244.2392, 40174.31
244.7213, 39811.20
245.2034, 39438.84
245.6855, 39057.88
246.1676, 38664.74
246.6497, 38252.56
247.1319, 37808.84
247.6140, 37369.65
248.0961, 36941.09
248.5782, 36520.64
249.0603, 36122.27
249.5424, 35736.67
250.0246, 35379.18
250.5067, 35063.55
250.9888, 34801.83
251.4709, 34558.42
251.9530, 34326.03
252.4351, 34102.39
252.9173, 33896.21
253.3994, 33706.32
253.8815, 33529.52
254.3636, 33365.09
254.8457, 33224.97
255.3278, 33072.23
255.8100, 32898.19
256.2921, 32702.19
256.7742, 32503.24
257.2563, 32306.38
257.7384, 32100.08
258.2205, 31878.47
258.7026, 31640.64
259.1848, 31386.00
259.6669, 31112.48
260.1490, 30820.91
260.6311, 30537.27
261.1132, 30265.70
261.5953, 29997.30
262.0775, 29726.99
262.5596, 29445.29
263.0417, 29183.86
263.5238, 28946.70
264.0059, 28732.07
264.4880, 28519.67
264.9702, 28306.27
265.4523, 28103.01
265.9344, 27919.82
266.4165, 27760.40
266.8986, 27599.88
267.3807, 27430.58
267.8629, 27259.54
268.3450, 27109.54
268.8271, 26983.96
269.3092, 26867.90
269.7913, 26747.90
270.2734, 26620.11
270.7556, 26515.25
271.2377, 26439.52
271.7198, 26383.68
272.2019, 26322.60
272.6840, 26251.61
273.1661, 26193.30
273.6483, 26158.99
274.1304, 26150.09
274.6125, 26155.15
275.0946, 26176.74
275.5767, 26207.88
276.0588, 26234.62
276.5410, 26253.76
277.0231, 26280.79
277.5052, 26321.35
277.9873, 26375.08
278.4694, 26436.32
278.9515, 26505.85
279.4337, 26579.19
279.9158, 26652.93
280.3979, 26727.41
280.8800, 26793.59
281.3621, 26844.65
281.8442, 26882.64
282.3264, 26923.41
282.8085, 26967.81
283.2906, 27014.10
283.7727, 27062.99
284.2548, 27114.96
284.7369, 27159.13
285.2191, 27188.18
285.7012, 27207.77
286.1833, 27240.29
286.6654, 27285.96
287.1475, 27343.85
287.6296, 27417.33
288.1118, 27504.84
288.5939, 27587.83
289.0760, 27660.46
289.5581, 27726.44
290.0402, 27792.48
290.5223, 27858.34
291.0045, 27936.21
291.4866, 28042.18
291.9687, 28170.95
292.4508, 28296.61
292.9329, 28413.18
293.4150, 28527.87
293.8972, 28658.56
294.3793, 28804.66
294.8614, 28957.20
295.3435, 29107.52
295.8256, 29259.01
296.3077, 29420.12
296.7899, 29591.40
297.2720, 29770.66
297.7541, 29953.29
298.2362, 30138.49
298.7183, 30326.74
299.2004, 30529.80
299.6826, 30732.44
300.1647, 30909.92
300.6468, 31057.87
301.1289, 31187.17
301.6110, 31316.59
302.0931, 31437.16
302.5753, 31529.55
303.0574, 31582.87
303.5395, 31602.59
304.0216, 31596.33
304.5037, 31564.44
304.9858, 31500.39
305.4680, 31403.45
305.9501, 31270.53
306.4322, 31096.57
306.9143, 30860.88
307.3964, 30596.95
307.8785, 30330.20
308.3607, 30061.07
308.8428, 29781.18
309.3249, 29478.95
309.8070, 29165.06
310.2891, 28853.03
310.7712, 28543.13
311.2534, 28234.71
311.7355, 27919.68
312.2176, 27600.65
312.6997, 27298.51
313.1818, 27031.27
313.6639, 26784.87
314.1461, 26545.87
314.6282, 26311.26
315.1103, 26088.59
315.5924, 25880.33
316.0745, 25687.56
316.5566, 25509.18
317.0388, 25345.93
317.5209, 25198.81
318.0030, 25069.53
318.4851, 24961.79
318.9672, 24858.36
319.4493, 24746.92
319.9315, 24638.71
320.4136, 24547.15
320.8957, 24473.63
321.3778, 24420.91
321.8599, 24396.77
322.3420, 24404.24
322.8242, 24404.97
323.3063, 24383.46
323.7884, 24355.23
324.2705, 24333.84
324.7526, 24323.46
325.2347, 24317.75
325.7169, 24311.63
326.1990, 24306.17
326.6811, 24317.46
327.1632, 24358.38
327.6453, 24408.28
328.1274, 24455.68
328.6096, 24487.30
329.0917, 24532.96
329.5738, 24596.49
330.0559, 24674.40
330.5380, 24756.75
331.0201, 24839.87
331.5023, 24931.50
331.9844, 25036.63
332.4665, 25161.54
332.9486, 25282.04
333.4307, 25394.48
333.9128, 25503.75
334.3950, 25614.95
334.8771, 25726.65
335.3592, 25844.45
335.8413, 25967.78
336.3234, 26096.48
336.8055, 26239.68
337.2877, 26404.40
337.7698, 26571.62
338.2519, 26720.10
338.7340, 26842.52
339.2161, 26971.24
339.6982, 27118.39
340.1803, 27278.33
340.6624, 27404.00
341.1446, 27490.47
341.6267, 27563.86
342.1088, 27649.53
342.5909, 27747.73
343.0730, 27829.14
343.5551, 27886.73
344.0373, 27927.85
344.5194, 27966.62
345.0015, 28003.33
345.4836, 28036.70
345.9657, 28060.63
346.4478, 28078.66
346.9300, 28112.20
347.4121, 28165.13
347.8942, 28225.49
348.3763, 28274.93
348.8584, 28316.53
349.3405, 28368.34
349.8227, 28440.35
350.3048, 28518.26
350.7869, 28620.87
351.2690, 28717.46
351.7511, 28830.00
352.2332, 28963.45
352.7154, 29120.34
353.1975, 29306.10
353.6796, 29524.43
354.1617, 29769.98
354.6438, 30036.77
355.1259, 30324.85
355.6081, 30634.73
356.0902, 30978.13
356.5723, 31341.04
357.0544, 31707.99
357.5365, 32065.09
358.0186, 32439.94
358.5008, 32859.43
358.9829, 33309.55
359.4650, 33760.67
359.9471, 34190.55
360.4292, 34623.26
360.9113, 35077.09
361.3935, 35551.65
361.8756, 36034.03
362.3577, 36516.38
362.8398, 37004.86
363.3219, 37506.47
363.8040, 38050.29
364.2862, 38582.42
364.7683, 39087.31
365.2504, 39567.29
365.7325, 40026.88
366.2146, 40489.17
366.6967, 40922.05
367.1789, 41305.63
367.6610, 41657.00
368.1431, 41936.66
368.6252, 42151.58
369.1073, 42295.21
369.5894, 42349.85
370.0716, 42316.76
370.5537, 42193.84
371.0358, 41978.11
371.5179, 41663.63
372.0000, 41271.61
372.4821, 40807.04
372.9643, 40265.21
373.4464, 39633.41
373.9285, 38890.37
374.4106, 38110.03
374.8927, 37295.44
375.3748, 36444.35
375.8570, 35605.41
376.3391, 34768.82
376.8212, 33949.17
377.3033, 33143.06
377.7854, 32352.34
378.2675, 31594.19
378.7497, 30863.79
379.2318, 30167.61
379.7139, 29498.35
380.1960, 28861.02
380.6781, 28260.57
381.1602, 27708.02
381.6424, 27201.60
382.1245, 26731.99
382.6066, 26295.65
383.0887, 25893.25
383.5708, 25516.36
384.0529, 25169.38
384.5351, 24855.54
385.0172, 24583.51
385.4993, 24347.01
385.9814, 24127.72
386.4635, 23927.41
386.9456, 23744.68
387.4278, 23578.18
387.9099, 23431.20
388.3920, 23307.83
388.8741, 23212.80
389.3562, 23136.81
389.8383, 23069.15
390.3205, 23012.04
390.8026, 22974.02
391.2847, 22975.51
391.7668, 22987.25
392.2489, 22983.48
392.7310, 22956.62
393.2132, 22938.68
393.6953, 22943.53
394.1774, 22966.68
394.6595, 23003.13
395.1416, 23051.82
395.6237, 23113.14
396.1059, 23193.54
396.5880, 23291.54
397.0701, 23383.99
397.5522, 23449.34
398.0343, 23518.33
398.5164, 23609.21
398.9986, 23747.89
399.4807, 23877.19
399.9628, 23991.26
400.4449, 24095.45
400.9270, 24202.40
401.4091, 24313.00
401.8913, 24424.13
402.3734, 24537.89
402.8555, 24658.32
403.3376, 24757.99
403.8197, 24832.55
404.3018, 24891.18
404.7840, 24946.13
405.2661, 25003.25
405.7482, 25035.21
406.2303, 25035.01
406.7124, 25005.97
407.1945, 24963.35
407.6767, 24907.98
408.1588, 24833.26
408.6409, 24735.53
409.1230, 24614.72
409.6051, 24466.32
410.0872, 24286.25
410.5694, 24086.17
411.0515, 23886.73
411.5336, 23685.66
412.0157, 23472.71
412.4978, 23237.52
412.9799, 22989.23
413.4621, 22746.09
413.9442, 22506.14
414.4263, 22263.13
414.9084, 21998.84
415.3905, 21729.38
415.8727, 21476.71
416.3548, 21250.18
416.8369, 21035.20
417.3190, 20818.58
417.8011, 20603.82
418.2832, 20396.27
418.7654, 20199.17
419.2475, 20011.55
419.7296, 19835.63
420.2117, 19670.05
420.6938, 19513.48
421.1759, 19364.08
421.6581, 19223.92
422.1402, 19093.42
422.6223, 18986.72
423.1044, 18876.18
423.5865, 18748.46
424.0686, 18607.99
424.5508, 18484.82
425.0329, 18395.19
425.5150, 18313.82
425.9971, 18229.15
426.4792, 18135.36
426.9613, 18051.46
427.4435, 17981.52
427.9256, 17920.14
428.4077, 17859.26
428.8898, 17798.10
429.3719, 17737.46
429.8540, 17675.21
430.3362, 17612.34
430.8183, 17561.86
431.3004, 17528.09
431.7825, 17495.21
432.2646, 17445.85
432.7467, 17380.10
433.2289, 17327.32
433.7110, 17294.04
434.1931, 17272.43
434.6752, 17250.51
435.1573, 17228.20
435.6394, 17205.29
436.1216, 17182.48
436.6036, 17158.62
437.0858, 17128.17
437.5679, 17090.49
438.0500, 17059.31
438.5321, 17054.77
439.0142, 17063.47
439.4963, 17061.72
439.9785, 17034.89
440.4606, 17006.17
440.9427, 16996.15
441.4248, 17000.16
441.9069, 17004.39
442.3890, 16999.51
442.8712, 16994.94
443.3533, 16997.51
443.8354, 17009.35
444.3175, 17021.90
444.7996, 17030.25
445.2817, 17038.51
445.7639, 17051.01
446.2460, 17060.57
446.7281, 17082.78
447.2102, 17127.74
447.6923, 17191.27
448.1744, 17242.89
448.6566, 17269.71
449.1387, 17297.65
449.6208, 17339.02
450.1029, 17400.31
450.5850, 17455.16
451.0671, 17499.76
451.5493, 17541.08
452.0314, 17589.22
452.5135, 17645.06
452.9956, 17702.58
453.4777, 17759.48
453.9598, 17816.54
454.4420, 17878.91
454.9241, 17946.42
455.4062, 18016.88
455.8883, 18085.98
456.3704, 18155.63
456.8525, 18236.20
457.3347, 18329.92
457.8168, 18424.83
458.2989, 18500.93
458.7810, 18564.38
459.2631, 18630.70
459.7452, 18708.82
460.2274, 18793.35
460.7095, 18877.77
461.1916, 18963.29
461.6737, 19050.42
462.1558, 19142.55
462.6379, 19235.92
463.1201, 19326.58
463.6022, 19412.81
464.0843, 19500.54
464.5664, 19602.10
465.0485, 19704.68
465.5306, 19787.98
466.0128, 19838.43
466.4949, 19877.53
466.9770, 19910.41
467.4591, 19937.26
467.9412, 19955.93
468.4233, 19968.75
468.9055, 19971.88
469.3876, 19963.65
469.8697, 19945.32
470.3518, 19913.05
470.8339, 19863.22
471.3160, 19802.15
471.7982, 19742.78
472.2803, 19688.46
472.7624, 19621.50
473.2445, 19529.82
473.7266, 19419.78
474.2087, 19333.89
474.6909, 19274.22
475.1730, 19221.56
475.6551, 19162.14
476.1372, 19096.67
476.6193, 19026.47
477.1014, 18949.71
477.5836, 18876.08
478.0657, 18819.01
478.5478, 18775.10
479.0299, 18735.70
479.5120, 18700.85
479.9941, 18665.32
480.4763, 18620.87
480.9584, 18568.94
481.4405, 18524.67
481.9226, 18505.04
482.4047, 18491.73
482.8868, 18469.13
483.3690, 18428.93
483.8511, 18391.03
484.3332, 18362.81
484.8153, 18340.28
485.2974, 18316.27
485.7795, 18292.64
486.2617, 18264.74
486.7438, 18228.66
487.2259, 18184.55
487.7080, 18149.08
488.1901, 18127.11
488.6722, 18107.20
489.1544, 18081.11
489.6365, 18045.68
490.1186, 18018.20
490.6007, 18001.32
491.0828, 17989.46
491.5649, 17972.38
492.0471, 17949.75
492.5292, 17930.53
493.0113, 17915.55
493.4934, 17907.02
493.9755, 17915.83
494.4576, 17940.89
494.9398, 17963.98
495.4219, 17963.11
495.9040, 17952.69
496.3861, 17959.65
496.8682, 17988.60
497.3503, 18026.77
497.8325, 18065.86
498.3146, 18106.94
498.7967, 18152.50
499.2788, 18197.02
499.7609, 18252.32
500.2430, 18328.60
500.7252, 18422.13
501.2073, 18517.82
501.6894, 18606.42
502.1715, 18699.36
502.6536, 18803.22
503.1357, 18919.74
503.6179, 19042.94
504.1000, 19170.07
504.5821, 19305.21
505.0642, 19452.48
505.5463, 19612.65
506.0284, 19782.56
506.5106, 19964.04
506.9927, 20152.58
507.4748, 20330.57
507.9569, 20493.68
508.4390, 20665.66
508.9211, 20861.27
509.4033, 21077.64
509.8854, 21293.24
510.3675, 21508.05
510.8496, 21721.16
511.3317, 21927.58
511.8138, 22132.35
512.2960, 22346.55
512.7781, 22582.45
513.2602, 22816.84
513.7423, 23022.54
514.2244, 23208.32
514.7065, 23395.46
515.1887, 23610.43
515.6708, 23818.38
516.1529, 23986.72
516.6350, 24116.80
517.1171, 24254.57
517.5992, 24431.49
518.0814, 24609.78
518.5635, 24764.14
519.0456, 24881.34
519.5277, 24991.79
520.0098, 25101.03
520.4919, 25202.25
520.9741, 25284.79
521.4562, 25344.90
521.9383, 25392.12
522.4204, 25429.34
522.9025, 25455.28
523.3846, 25463.80
523.8668, 25455.74
524.3489, 25425.06
524.8310, 25362.68
525.3131, 25270.92
525.7952, 25177.36
526.2773, 25085.09
526.7595, 24977.00
527.2416, 24834.98
527.7237, 24663.46
528.2058, 24469.81
528.6879, 24255.69
529.1700, 24025.51
529.6522, 23778.87
530.1343, 23520.95
530.6164, 23258.32
531.0985, 23000.59
531.5806, 22737.35
532.0627, 22460.14
532.5449, 22168.30
533.0270, 21885.34
533.5091, 21630.66
533.9912, 21380.94
534.4733, 21123.28
534.9554, 20839.54
535.4376, 20565.05
535.9197, 20300.88
536.4018, 20046.55
536.8839, 19810.41
537.3660, 19594.78
537.8481, 19385.61
538.3303, 19178.48
538.8124, 18973.39
539.2945, 18761.59
539.7766, 18540.91
540.2587, 18332.51
540.7408, 18155.15
541.2230, 18001.85
541.7051, 17854.72
542.1872, 17713.29
542.6693, 17573.67
543.1514, 17426.24
543.6335, 17278.23
544.1157, 17139.03
544.5978, 17014.82
545.0799, 16896.29
545.5620, 16774.20
546.0441, 16653.71
546.5262, 16547.55
547.0084, 16465.38
547.4905, 16394.37
547.9726, 16329.04
548.4547, 16269.52
548.9368, 16212.36
549.4189, 16155.76
549.9011, 16102.13
550.3832, 16052.96
550.8653, 16009.32
551.3474, 15966.72
551.8295, 15924.86
552.3116, 15884.55
552.7938, 15846.38
553.2759, 15809.83
553.7580, 15780.37
554.2401, 15762.15
554.7222, 15749.68
555.2043, 15726.55
555.6865, 15694.28
556.1686, 15666.74
556.6507, 15655.67
557.1328, 15653.74
557.6149, 15648.30
558.0970, 15638.77
558.5792, 15634.79
559.0613, 15645.87
559.5434, 15664.93
560.0255, 15684.84
560.5076, 15702.52
560.9897, 15723.34
561.4719, 15746.67
561.9540, 15774.82
562.4361, 15811.17
562.9182, 15867.40
563.4003, 15918.99
563.8824, 15957.06
564.3646, 15984.68
564.8467, 16028.43
565.3288, 16095.03
565.8109, 16163.43
566.2930, 16221.49
566.7751, 16268.10
567.2573, 16324.43
567.7394, 16391.72
568.2215, 16464.36
568.7036, 16540.28
569.1857, 16617.51
569.6678, 16690.78
570.1500, 16756.35
570.6321, 16822.51
571.1142, 16897.90
571.5963, 16980.51
572.0784, 17065.30
572.5605, 17158.51
573.0427, 17246.93
573.5248, 17320.46
574.0069, 17380.99
574.4890, 17445.54
574.9711, 17526.10
575.4532, 17605.36
575.9354, 17673.41
576.4175, 17726.64
576.8996, 17780.20
577.3817, 17838.46
577.8638, 17892.17
578.3459, 17933.34
578.8281, 17959.60
579.3102, 17979.50
579.7923, 17992.86
580.2744, 18001.46
580.7565, 18012.21
581.2386, 18024.09
581.7208, 18020.39
582.2029, 17986.65
582.6850, 17938.82
583.1671, 17907.88
583.6492, 17890.54
584.1313, 17867.06
584.6134, 17822.89
585.0955, 17767.97
