##NAMES=Cuspidine
##RRUFFID=R060049
##IDEAL CHEMISTRY=Ca_4_(Si_2_O_7_)F_2_
##LOCALITY=Ariccia, Rome, Italy
##OWNER=RRUFF
##SOURCE=University of Arizona Mineral Museum
##DESCRIPTION=White and colorless spear-shaped single crystal
##STATUS=The identification of this mineral is confirmed by single-crystal X-ray diffraction and chemical analysis.
##URL=rruff.info/R060049
##MEASURED CHEMISTRY=Ca_4.00_Si_2.00_O_7_F_2.00_
108.4348, 1765.536
108.9169, 1751.448
109.3990, 1736.762
109.8811, 1714.824
110.3632, 1704.525
110.8453, 1710.533
111.3275, 1724.591
111.8096, 1739.678
112.2917, 1752.621
112.7738, 1769.628
113.2559, 1780.272
113.7380, 1804.192
114.2202, 1825.956
114.7023, 1845.719
115.1844, 1861.919
115.6665, 1870.904
116.1486, 1868.883
116.6307, 1856.742
117.1129, 1846.979
117.5950, 1839.944
118.0771, 1834.781
118.5592, 1829.746
119.0413, 1824.507
119.5234, 1823.459
120.0056, 1834.690
120.4877, 1854.082
120.9698, 1869.994
121.4519, 1877.990
121.9340, 1880.105
122.4161, 1880.294
122.8982, 1876.506
123.3804, 1874.676
123.8625, 1881.773
124.3446, 1895.687
124.8267, 1905.952
125.3088, 1899.231
125.7909, 1873.284
126.2731, 1861.494
126.7552, 1886.134
127.2373, 1914.242
127.7194, 1930.458
128.2015, 1932.030
128.6837, 1925.737
129.1658, 1921.184
129.6479, 1918.806
130.1300, 1917.572
130.6121, 1916.047
131.0942, 1915.969
131.5764, 1919.597
132.0585, 1927.905
132.5406, 1939.148
133.0227, 1947.061
133.5048, 1953.841
133.9869, 1954.430
134.4691, 1938.367
134.9512, 1916.219
135.4333, 1907.299
135.9154, 1926.188
136.3975, 1970.432
136.8796, 1994.218
137.3618, 1984.658
137.8439, 1971.054
138.3260, 1968.800
138.8081, 1977.119
139.2902, 1984.086
139.7723, 1978.494
140.2545, 1960.263
140.7366, 1946.432
141.2187, 1940.651
141.7008, 1938.459
142.1829, 1934.692
142.6650, 1928.295
143.1472, 1922.219
143.6293, 1922.073
144.1114, 1926.254
144.5935, 1925.375
145.0756, 1912.064
145.5577, 1890.047
146.0399, 1871.092
146.5220, 1855.315
147.0041, 1846.012
147.4862, 1847.634
147.9683, 1859.446
148.4504, 1870.187
148.9326, 1871.527
149.4147, 1863.330
149.8968, 1847.444
150.3789, 1811.378
150.8610, 1775.409
151.3431, 1750.569
151.8252, 1739.339
152.3074, 1736.894
152.7895, 1736.735
153.2716, 1740.359
153.7537, 1743.091
154.2358, 1746.006
154.7179, 1747.236
155.2001, 1744.677
155.6822, 1737.393
156.1643, 1726.867
156.6464, 1717.410
157.1285, 1700.128
157.6106, 1695.266
158.0928, 1716.493
158.5749, 1748.986
159.0570, 1773.352
159.5391, 1777.985
160.0212, 1764.142
160.5033, 1744.347
160.9855, 1699.859
161.4676, 1668.915
161.9497, 1673.285
162.4318, 1703.488
162.9139, 1731.310
163.3960, 1733.745
163.8782, 1709.722
164.3603, 1700.995
164.8424, 1720.099
165.3245, 1743.093
165.8066, 1755.218
166.2887, 1755.370
166.7709, 1748.968
167.2530, 1736.873
167.7351, 1719.666
168.2172, 1715.316
168.6993, 1737.597
169.1814, 1769.151
169.6636, 1787.001
170.1457, 1785.482
170.6278, 1780.010
171.1099, 1788.621
171.5920, 1808.531
172.0741, 1825.873
172.5563, 1837.201
173.0384, 1842.095
173.5205, 1837.593
174.0026, 1817.009
174.4847, 1795.529
174.9668, 1784.169
175.4490, 1782.669
175.9311, 1789.524
176.4132, 1809.167
176.8953, 1841.123
177.3774, 1863.485
177.8595, 1866.163
178.3417, 1862.503
178.8238, 1858.755
179.3059, 1855.899
179.7880, 1855.900
180.2701, 1861.849
180.7522, 1875.334
181.2344, 1888.269
181.7165, 1902.918
182.1986, 1914.492
182.6807, 1918.615
183.1628, 1914.282
183.6449, 1905.734
184.1271, 1899.080
184.6092, 1891.458
185.0913, 1892.448
185.5734, 1908.616
186.0555, 1929.234
186.5376, 1945.910
187.0198, 1955.226
187.5019, 1958.404
187.9840, 1958.274
188.4661, 1945.338
188.9482, 1941.672
189.4303, 1953.695
189.9125, 1974.108
190.3946, 1995.631
190.8767, 2015.016
191.3588, 2031.339
191.8409, 2040.486
192.3230, 2031.299
192.8052, 2027.288
193.2873, 2034.665
193.7694, 2049.908
194.2515, 2067.596
194.7336, 2085.320
195.2157, 2102.354
195.6979, 2111.231
196.1800, 2100.064
196.6621, 2094.669
197.1442, 2108.284
197.6263, 2136.454
198.1084, 2165.486
198.5906, 2187.325
199.0727, 2201.348
199.5548, 2209.041
200.0369, 2205.312
200.5190, 2200.237
201.0011, 2198.906
201.4833, 2201.483
201.9654, 2206.310
202.4475, 2211.237
202.9296, 2217.482
203.4117, 2230.848
203.8938, 2261.338
204.3760, 2292.983
204.8581, 2310.123
205.3402, 2311.470
205.8223, 2308.739
206.3044, 2308.491
206.7865, 2311.277
207.2687, 2319.651
207.7508, 2339.952
208.2329, 2363.865
208.7150, 2380.238
209.1971, 2387.696
209.6792, 2390.525
210.1614, 2386.055
210.6435, 2378.630
211.1256, 2380.109
211.6077, 2402.845
212.0898, 2436.542
212.5719, 2457.490
213.0541, 2459.664
213.5362, 2458.954
214.0183, 2465.684
214.5004, 2478.045
214.9825, 2492.140
215.4646, 2507.699
215.9468, 2523.755
216.4289, 2535.672
216.9110, 2541.512
217.3931, 2545.509
217.8752, 2551.060
218.3573, 2557.260
218.8395, 2561.425
219.3216, 2559.581
219.8037, 2552.540
220.2858, 2550.435
220.7679, 2553.306
221.2500, 2562.179
221.7322, 2580.709
222.2143, 2606.099
222.6964, 2630.264
223.1785, 2645.758
223.6606, 2652.127
224.1427, 2660.133
224.6249, 2672.309
225.1070, 2683.942
225.5891, 2693.107
226.0712, 2699.996
226.5533, 2705.842
227.0354, 2711.120
227.5176, 2715.294
227.9997, 2722.434
228.4818, 2739.432
228.9639, 2753.568
229.4460, 2756.837
229.9281, 2751.057
230.4103, 2744.913
230.8924, 2748.009
231.3745, 2763.185
231.8566, 2774.830
232.3387, 2781.226
232.8208, 2785.917
233.3030, 2787.622
233.7851, 2788.065
234.2672, 2792.375
234.7493, 2806.744
235.2314, 2834.048
235.7135, 2861.493
236.1957, 2901.602
236.6778, 2932.215
237.1599, 2934.210
237.6420, 2910.447
238.1241, 2882.635
238.6062, 2877.256
239.0884, 2905.674
239.5705, 2919.042
240.0526, 2902.552
240.5347, 2885.330
241.0168, 2888.011
241.4989, 2910.746
241.9811, 2936.598
242.4632, 2945.192
242.9453, 2927.737
243.4274, 2919.791
243.9095, 2928.390
244.3916, 2939.769
244.8738, 2944.040
245.3559, 2940.536
245.8380, 2936.780
246.3201, 2942.072
246.8022, 2961.126
247.2843, 2974.188
247.7665, 2974.073
248.2486, 2973.637
248.7307, 2984.643
249.2128, 3007.439
249.6949, 3030.637
250.1770, 3040.583
250.6592, 3031.328
251.1413, 3028.848
251.6234, 3034.365
252.1055, 3045.332
252.5876, 3063.095
253.0697, 3086.593
253.5519, 3108.658
254.0340, 3120.659
254.5161, 3119.156
254.9982, 3119.819
255.4803, 3119.265
255.9624, 3122.961
256.4445, 3139.149
256.9267, 3167.738
257.4088, 3195.523
257.8909, 3207.450
258.3730, 3198.410
258.8551, 3198.749
259.3372, 3211.117
259.8194, 3231.101
260.3015, 3260.700
260.7836, 3298.805
261.2657, 3330.695
261.7478, 3338.557
262.2299, 3317.213
262.7121, 3312.516
263.1942, 3336.559
263.6763, 3369.863
264.1584, 3398.526
264.6405, 3420.877
265.1227, 3439.203
265.6048, 3454.457
266.0869, 3466.446
266.5690, 3480.379
267.0511, 3499.524
267.5332, 3518.622
268.0154, 3532.939
268.4975, 3542.249
268.9796, 3550.035
269.4617, 3559.702
269.9438, 3570.958
270.4259, 3577.547
270.9081, 3569.353
271.3902, 3563.378
271.8723, 3580.103
272.3544, 3618.793
272.8365, 3649.251
273.3186, 3644.010
273.8008, 3606.380
274.2829, 3586.318
274.7650, 3592.727
275.2471, 3610.792
275.7292, 3637.419
276.2113, 3670.443
276.6935, 3690.413
277.1756, 3676.300
277.6577, 3635.784
278.1398, 3621.873
278.6219, 3657.978
279.1040, 3701.821
279.5862, 3726.223
280.0683, 3732.160
280.5504, 3729.365
281.0325, 3719.240
281.5146, 3705.835
281.9967, 3703.884
282.4789, 3719.230
282.9610, 3740.319
283.4431, 3764.584
283.9252, 3790.449
284.4073, 3808.061
284.8894, 3810.093
285.3716, 3800.817
285.8537, 3795.493
286.3358, 3797.349
286.8179, 3798.931
287.3000, 3794.478
287.7821, 3785.698
288.2643, 3779.408
288.7464, 3778.412
289.2285, 3782.348
289.7106, 3789.806
290.1927, 3803.089
290.6748, 3815.447
291.1570, 3824.548
291.6391, 3830.363
292.1212, 3832.805
292.6033, 3831.994
293.0854, 3827.440
293.5675, 3816.826
294.0497, 3795.868
294.5318, 3780.569
295.0139, 3780.758
295.4960, 3791.251
295.9781, 3799.938
296.4602, 3802.304
296.9424, 3802.651
297.4245, 3810.366
297.9066, 3828.387
298.3887, 3839.467
298.8708, 3833.298
299.3529, 3817.555
299.8351, 3806.420
300.3172, 3804.507
300.7993, 3804.426
301.2814, 3792.638
301.7635, 3767.075
302.2456, 3750.882
302.7278, 3756.700
303.2099, 3772.306
303.6920, 3782.022
304.1741, 3782.803
304.6562, 3777.779
305.1383, 3767.588
305.6205, 3751.591
306.1026, 3742.807
306.5847, 3747.226
307.0668, 3757.396
307.5489, 3767.069
308.0310, 3775.445
308.5132, 3781.204
308.9953, 3782.365
309.4774, 3778.686
309.9595, 3776.263
310.4416, 3776.530
310.9237, 3777.299
311.4059, 3776.086
311.8880, 3773.090
312.3701, 3770.827
312.8522, 3769.153
313.3343, 3769.624
313.8164, 3783.481
314.2986, 3828.470
314.7807, 3870.397
315.2628, 3885.455
315.7449, 3878.359
316.2270, 3871.181
316.7091, 3877.080
317.1913, 3894.308
317.6734, 3911.448
318.1555, 3934.425
318.6376, 3951.266
319.1197, 3952.301
319.6018, 3943.614
320.0840, 3939.169
320.5661, 3945.710
321.0482, 3961.056
321.5303, 3978.660
322.0124, 4003.787
322.4945, 4023.896
322.9767, 4032.688
323.4588, 4035.745
323.9409, 4039.875
324.4230, 4047.278
324.9051, 4059.957
325.3872, 4083.392
325.8694, 4131.657
326.3515, 4165.303
326.8336, 4173.438
327.3157, 4169.250
327.7978, 4161.891
328.2799, 4154.538
328.7621, 4154.032
329.2442, 4171.392
329.7263, 4218.589
330.2084, 4253.870
330.6905, 4270.314
331.1726, 4280.401
331.6548, 4292.437
332.1369, 4307.579
332.6190, 4322.705
333.1011, 4333.985
333.5832, 4339.556
334.0653, 4352.388
334.5475, 4372.392
335.0296, 4398.097
335.5117, 4434.119
335.9938, 4476.159
336.4759, 4514.394
336.9580, 4542.087
337.4402, 4559.188
337.9223, 4560.195
338.4044, 4524.733
338.8865, 4495.849
339.3686, 4485.200
339.8507, 4488.719
340.3329, 4498.565
340.8150, 4510.454
341.2971, 4524.716
341.7792, 4543.505
342.2613, 4586.803
342.7434, 4608.076
343.2256, 4582.962
343.7077, 4541.928
344.1898, 4520.215
344.6719, 4531.417
345.1540, 4558.165
345.6361, 4564.678
346.1183, 4537.938
346.6004, 4515.376
347.0825, 4498.631
347.5646, 4486.984
348.0467, 4480.663
348.5288, 4479.439
349.0110, 4481.559
349.4931, 4486.053
349.9752, 4494.688
350.4573, 4498.630
350.9394, 4491.949
351.4215, 4485.272
351.9037, 4485.001
352.3858, 4489.867
352.8679, 4493.208
353.3500, 4486.510
353.8321, 4470.382
354.3142, 4466.563
354.7964, 4487.092
355.2785, 4505.767
355.7606, 4509.479
356.2427, 4504.008
356.7248, 4500.862
357.2069, 4505.725
357.6891, 4517.827
358.1712, 4537.461
358.6533, 4571.552
359.1354, 4597.426
359.6175, 4601.521
360.0996, 4594.732
360.5818, 4588.369
361.0639, 4585.744
361.5460, 4585.408
362.0281, 4583.742
362.5102, 4579.751
362.9923, 4583.362
363.4745, 4599.243
363.9566, 4623.950
364.4387, 4657.744
364.9208, 4702.781
365.4029, 4741.122
365.8850, 4754.621
366.3672, 4747.855
366.8493, 4745.088
367.3314, 4749.028
367.8135, 4762.572
368.2956, 4792.035
368.7777, 4835.997
369.2599, 4877.183
369.7420, 4904.766
370.2241, 4925.912
370.7062, 4953.310
371.1883, 4989.232
371.6704, 5026.429
372.1526, 5058.480
372.6347, 5086.549
373.1168, 5117.160
373.5989, 5148.616
374.0810, 5184.830
374.5631, 5235.486
375.0453, 5297.964
375.5274, 5349.525
376.0095, 5372.784
376.4916, 5376.058
376.9737, 5396.434
377.4558, 5440.336
377.9380, 5491.630
378.4201, 5548.110
378.9022, 5607.648
379.3843, 5666.292
379.8664, 5722.702
380.3485, 5776.229
380.8307, 5823.637
381.3128, 5855.502
381.7949, 5899.369
382.2770, 5974.446
382.7591, 6052.820
383.2412, 6101.369
383.7234, 6116.542
384.2055, 6126.482
384.6876, 6165.164
385.1697, 6242.516
385.6518, 6306.843
386.1339, 6347.471
386.6161, 6387.412
387.0982, 6440.204
387.5803, 6502.665
388.0624, 6561.473
388.5445, 6605.661
389.0266, 6637.928
389.5088, 6686.520
389.9909, 6766.796
390.4730, 6847.014
390.9551, 6928.147
391.4372, 7003.813
391.9193, 7061.193
392.4015, 7093.896
392.8836, 7120.749
393.3657, 7187.297
393.8478, 7321.586
394.3299, 7424.582
394.8120, 7453.519
395.2942, 7469.224
395.7763, 7515.733
396.2584, 7598.215
396.7405, 7684.998
397.2226, 7742.118
397.7047, 7769.105
398.1869, 7804.004
398.6690, 7852.562
399.1511, 7905.975
399.6332, 7954.447
400.1153, 8002.276
400.5974, 8062.860
401.0796, 8159.817
401.5617, 8269.591
402.0438, 8331.748
402.5259, 8332.757
403.0080, 8339.937
403.4901, 8401.519
403.9723, 8489.447
404.4544, 8560.604
404.9365, 8599.819
405.4186, 8634.250
405.9007, 8689.652
406.3828, 8761.479
406.8650, 8823.895
407.3471, 8864.243
407.8292, 8895.125
408.3113, 8939.711
408.7934, 9001.345
409.2755, 9056.251
409.7577, 9092.757
410.2398, 9119.566
410.7219, 9145.894
411.2040, 9173.338
411.6861, 9206.187
412.1682, 9252.680
412.6504, 9315.955
413.1325, 9355.175
413.6146, 9360.145
414.0967, 9351.806
414.5788, 9332.736
415.0609, 9309.245
415.5431, 9295.368
416.0252, 9299.921
416.5073, 9320.592
416.9894, 9346.630
417.4715, 9384.588
417.9536, 9420.592
418.4358, 9461.688
418.9179, 9496.403
419.4000, 9508.392
419.8821, 9494.108
420.3642, 9470.560
420.8463, 9464.395
421.3285, 9483.651
421.8106, 9498.440
422.2927, 9501.771
422.7748, 9506.913
423.2569, 9519.188
423.7390, 9539.023
424.2212, 9565.084
424.7033, 9596.683
425.1854, 9633.439
425.6675, 9674.826
426.1496, 9722.456
426.6317, 9771.610
427.1139, 9826.076
427.5960, 9878.914
428.0781, 9920.758
428.5602, 9946.666
429.0423, 9964.438
429.5244, 9977.462
430.0066, 9985.242
430.4887, 10011.97
430.9708, 10072.46
431.4529, 10148.48
431.9350, 10221.50
432.4171, 10292.12
432.8993, 10351.89
433.3814, 10387.18
433.8635, 10411.30
434.3456, 10449.37
434.8277, 10505.35
435.3098, 10569.53
435.7920, 10640.40
436.2741, 10715.38
436.7562, 10768.55
437.2383, 10771.55
437.7204, 10777.73
438.2025, 10826.41
438.6847, 10905.11
439.1668, 10975.46
439.6489, 11017.97
440.1310, 11042.33
440.6131, 11074.70
441.0952, 11138.24
441.5774, 11177.03
442.0595, 11156.81
442.5416, 11129.53
443.0237, 11150.37
443.5058, 11224.36
443.9879, 11308.62
444.4701, 11354.29
444.9522, 11354.52
445.4343, 11363.63
445.9164, 11406.25
446.3985, 11432.67
446.8806, 11413.19
447.3628, 11367.34
447.8449, 11331.38
448.3270, 11325.37
448.8091, 11339.74
449.2912, 11356.51
449.7733, 11386.84
450.2555, 11387.62
450.7376, 11318.12
451.2197, 11233.16
451.7018, 11174.54
452.1839, 11149.21
452.6660, 11128.92
453.1482, 11086.29
453.6303, 11028.06
454.1124, 10990.13
454.5945, 10986.60
455.0766, 10981.08
455.5587, 10939.56
456.0409, 10871.18
456.5230, 10799.39
457.0051, 10730.62
457.4872, 10658.96
457.9693, 10573.71
458.4514, 10478.05
458.9336, 10393.60
459.4156, 10334.28
459.8978, 10288.12
460.3799, 10221.58
460.8620, 10120.00
461.3441, 10029.40
461.8262, 9961.000
462.3083, 9905.516
462.7905, 9857.254
463.2726, 9813.553
463.7547, 9768.031
464.2368, 9712.254
464.7189, 9643.648
465.2010, 9587.932
465.6832, 9562.170
466.1653, 9530.676
466.6474, 9468.294
467.1295, 9395.344
467.6116, 9349.380
468.0938, 9352.015
468.5759, 9376.438
469.0580, 9355.721
469.5401, 9262.372
470.0222, 9202.206
470.5043, 9228.908
470.9865, 9268.979
471.4686, 9275.556
471.9507, 9246.091
472.4328, 9210.063
472.9149, 9182.395
473.3970, 9165.136
473.8792, 9169.881
474.3613, 9204.322
474.8434, 9239.190
475.3255, 9255.336
475.8076, 9258.319
476.2897, 9258.756
476.7719, 9255.493
477.2540, 9253.530
477.7361, 9249.489
478.2182, 9248.771
478.7003, 9273.349
479.1824, 9335.595
479.6646, 9408.099
480.1467, 9445.720
480.6288, 9434.103
481.1109, 9433.224
481.5930, 9442.161
482.0751, 9465.619
482.5573, 9516.062
483.0394, 9586.818
483.5215, 9653.610
484.0036, 9698.729
484.4857, 9725.106
484.9678, 9752.254
485.4500, 9780.679
485.9321, 9809.077
486.4142, 9831.457
486.8963, 9856.665
487.3784, 9895.995
487.8605, 9951.154
488.3427, 10009.70
488.8248, 10056.57
489.3069, 10091.14
489.7890, 10128.78
490.2711, 10171.13
490.7532, 10215.86
491.2354, 10264.87
491.7175, 10315.22
492.1996, 10360.73
492.6817, 10397.36
493.1638, 10429.57
493.6459, 10459.45
494.1281, 10487.78
494.6102, 10526.07
495.0923, 10583.55
495.5744, 10647.32
496.0565, 10692.82
496.5386, 10716.60
497.0208, 10743.05
497.5029, 10778.07
497.9850, 10818.18
498.4671, 10858.32
498.9492, 10898.79
499.4313, 10948.40
499.9135, 11018.11
500.3956, 11103.96
500.8777, 11155.52
501.3598, 11151.82
501.8419, 11138.52
502.3240, 11112.45
502.8062, 11085.16
503.2883, 11069.58
503.7704, 11069.31
504.2525, 11076.31
504.7346, 11084.62
505.2167, 11097.14
505.6989, 11089.18
506.1810, 11047.46
506.6631, 10998.96
507.1452, 10962.46
507.6273, 10929.22
508.1094, 10876.89
508.5916, 10783.05
509.0737, 10681.83
509.5558, 10635.59
510.0379, 10641.47
510.5200, 10606.37
511.0021, 10481.84
511.4843, 10320.47
511.9664, 10203.13
512.4485, 10133.90
512.9306, 10064.58
513.4127, 9979.928
513.8948, 9891.913
514.3770, 9817.168
514.8591, 9753.542
515.3412, 9679.614
515.8233, 9577.832
516.3054, 9454.286
516.7875, 9350.948
517.2697, 9289.522
517.7518, 9221.454
518.2339, 9139.100
518.7160, 9049.448
519.1981, 8958.187
519.6802, 8866.713
520.1624, 8775.656
520.6445, 8686.196
521.1266, 8598.446
521.6087, 8505.532
522.0908, 8393.007
522.5729, 8298.540
523.0551, 8249.083
523.5372, 8223.575
524.0193, 8190.564
524.5014, 8141.484
524.9835, 8079.816
525.4656, 8002.865
525.9478, 7914.367
526.4299, 7832.548
526.9120, 7763.363
527.3941, 7699.647
527.8762, 7630.607
528.3583, 7555.458
528.8405, 7495.814
529.3226, 7467.743
529.8047, 7443.109
530.2868, 7398.549
530.7689, 7341.563
531.2510, 7299.038
531.7332, 7286.520
532.2153, 7284.349
532.6974, 7240.617
533.1795, 7109.686
533.6616, 7021.092
534.1437, 7004.948
534.6259, 7002.862
535.1080, 6980.491
535.5901, 6938.326
536.0722, 6894.088
536.5543, 6858.696
537.0364, 6831.595
537.5186, 6816.501
538.0007, 6820.904
538.4828, 6808.293
538.9649, 6750.730
539.4470, 6677.417
539.9291, 6622.941
540.4113, 6591.825
540.8934, 6562.948
541.3755, 6526.602
541.8576, 6485.818
542.3397, 6446.199
542.8218, 6408.238
543.3040, 6367.771
543.7861, 6321.998
544.2682, 6270.995
544.7503, 6215.125
545.2324, 6141.769
545.7145, 6079.732
546.1967, 6047.349
546.6788, 6022.921
547.1609, 5977.568
547.6430, 5908.124
548.1251, 5841.560
548.6072, 5813.037
549.0894, 5824.567
549.5715, 5810.424
550.0536, 5753.300
550.5357, 5694.509
551.0178, 5650.339
551.4999, 5613.523
551.9821, 5573.270
552.4642, 5525.745
552.9463, 5477.999
553.4284, 5436.599
553.9105, 5400.358
554.3926, 5367.267
554.8748, 5338.994
555.3569, 5305.237
555.8390, 5250.330
556.3211, 5175.145
556.8032, 5123.758
557.2853, 5126.249
557.7675, 5121.658
558.2496, 5074.440
558.7317, 5002.458
559.2138, 4936.221
559.6959, 4887.085
560.1780, 4848.339
560.6602, 4811.215
561.1423, 4776.890
561.6244, 4740.039
562.1065, 4698.912
562.5886, 4657.256
563.0707, 4616.653
563.5529, 4576.352
564.0350, 4533.204
564.5171, 4484.171
564.9992, 4437.418
565.4813, 4404.689
565.9634, 4385.375
566.4456, 4370.472
566.9277, 4360.126
567.4098, 4349.771
567.8919, 4336.145
568.3740, 4319.263
568.8561, 4294.148
569.3383, 4247.245
569.8204, 4203.513
570.3025, 4184.122
570.7846, 4180.405
571.2667, 4168.903
571.7488, 4139.652
572.2310, 4105.228
572.7131, 4090.445
573.1952, 4109.033
573.6773, 4109.818
574.1594, 4080.408
574.6415, 4046.612
575.1237, 4015.921
575.6058, 3989.701
576.0879, 3968.527
576.5700, 3953.091
577.0521, 3941.749
577.5342, 3934.342
578.0164, 3930.941
578.4985, 3920.093
578.9806, 3895.741
579.4627, 3868.367
579.9448, 3849.563
580.4269, 3838.263
580.9091, 3825.820
581.3912, 3811.922
581.8733, 3795.154
582.3554, 3769.724
582.8375, 3740.645
583.3196, 3721.687
583.8018, 3719.033
584.2839, 3722.336
584.7660, 3712.092
585.2481, 3678.100
585.7302, 3660.010
586.2123, 3672.279
586.6945, 3684.956
587.1766, 3688.563
587.6587, 3682.842
588.1408, 3666.982
588.6229, 3637.299
589.1050, 3608.073
589.5872, 3603.614
590.0693, 3622.853
590.5514, 3637.254
591.0335, 3641.885
591.5156, 3638.552
591.9977, 3626.029
592.4799, 3605.621
592.9620, 3586.517
593.4441, 3564.738
593.9262, 3549.757
594.4083, 3557.169
594.8904, 3573.818
595.3726, 3569.069
595.8547, 3532.626
596.3368, 3489.302
596.8189, 3477.356
597.3010, 3505.845
597.7831, 3522.145
598.2653, 3519.034
598.7474, 3510.419
599.2295, 3495.924
599.7116, 3480.027
600.1937, 3469.339
600.6758, 3466.813
601.1580, 3467.204
601.6401, 3467.424
602.1222, 3466.416
602.6043, 3457.226
603.0864, 3436.640
603.5685, 3416.014
604.0507, 3405.537
604.5328, 3404.293
