##NAMES=Cuspidine
##RRUFFID=R060049
##IDEAL CHEMISTRY=Ca_4_(Si_2_O_7_)F_2_
##LOCALITY=Ariccia, Rome, Italy
##OWNER=RRUFF
##SOURCE=University of Arizona Mineral Museum
##DESCRIPTION=White and colorless spear-shaped single crystal
##STATUS=The identification of this mineral is confirmed by single-crystal X-ray diffraction and chemical analysis.
##URL=rruff.info/R060049
##MEASURED CHEMISTRY=Ca_4.00_Si_2.00_O_7_F_2.00_
101.8069, 1316.734
102.2890, 1396.954
102.7711, 1477.920
103.2532, 1558.883
103.7353, 1656.392
104.2175, 1778.588
104.6996, 1913.021
105.1817, 2038.607
105.6638, 2135.838
106.1459, 2249.196
106.6280, 2396.573
107.1102, 2604.344
107.5923, 2803.883
108.0744, 2974.252
108.5565, 3126.739
109.0386, 3330.576
109.5207, 3624.495
110.0029, 3949.827
110.4850, 4269.086
110.9671, 4551.191
111.4492, 4861.340
111.9313, 5225.419
112.4134, 5660.620
112.8956, 6068.667
113.3777, 6432.635
113.8598, 6760.876
114.3419, 7069.390
114.8240, 7315.891
115.3061, 7575.009
115.7883, 7879.171
116.2704, 8256.021
116.7525, 8646.100
117.2346, 9022.182
117.7167, 9393.146
118.1988, 9786.788
118.6810, 10244.97
119.1631, 10724.96
119.6452, 11183.79
120.1273, 11574.50
120.6094, 11969.25
121.0915, 12435.23
121.5737, 12973.41
122.0558, 13482.34
122.5379, 13889.72
123.0200, 14220.01
123.5021, 14517.40
123.9842, 14812.53
124.4664, 15082.19
124.9485, 15288.38
125.4306, 15413.23
125.9127, 15517.15
126.3948, 15667.84
126.8769, 15857.54
127.3591, 16049.57
127.8412, 16215.34
128.3233, 16363.86
128.8054, 16514.46
129.2875, 16671.53
129.7696, 16813.67
130.2518, 16890.27
130.7339, 16916.09
131.2160, 16960.93
131.6981, 17046.08
132.1802, 17168.24
132.6623, 17312.82
133.1445, 17479.63
133.6266, 17666.39
134.1087, 17847.52
134.5908, 18014.51
135.0729, 18195.45
135.5550, 18459.67
136.0372, 18819.42
136.5193, 19151.46
137.0014, 19404.61
137.4835, 19577.32
137.9656, 19664.09
138.4477, 19635.54
138.9299, 19532.14
139.4120, 19503.13
139.8941, 19573.18
140.3762, 19663.87
140.8583, 19716.67
141.3404, 19722.58
141.8225, 19720.65
142.3047, 19720.08
142.7868, 19721.90
143.2689, 19702.38
143.7510, 19643.81
144.2331, 19580.14
144.7152, 19558.71
145.1974, 19612.88
145.6795, 19657.45
146.1616, 19668.86
146.6437, 19641.43
147.1258, 19594.30
147.6079, 19508.26
148.0901, 19402.46
148.5722, 19332.67
149.0543, 19322.66
149.5364, 19325.87
150.0185, 19321.96
150.5006, 19279.79
150.9828, 19266.59
151.4649, 19297.02
151.9470, 19366.59
152.4291, 19426.13
152.9112, 19466.41
153.3933, 19499.29
153.8755, 19533.49
154.3576, 19569.92
154.8397, 19606.61
155.3218, 19637.63
155.8039, 19659.09
156.2860, 19700.11
156.7682, 19789.42
157.2503, 19893.97
157.7324, 19973.28
158.2145, 20004.80
158.6966, 20018.91
159.1787, 20028.11
159.6609, 20036.12
160.1430, 20035.25
160.6251, 20022.34
161.1072, 19999.52
161.5893, 19970.87
162.0714, 19920.66
162.5536, 19875.96
163.0357, 19856.34
163.5178, 19889.48
163.9999, 19923.57
164.4820, 19929.13
164.9641, 19911.29
165.4463, 19901.66
165.9284, 19930.72
166.4105, 19971.22
166.8926, 19993.68
167.3747, 19965.83
167.8568, 19931.08
168.3390, 19921.92
168.8211, 19940.85
169.3032, 19957.77
169.7853, 19946.83
170.2674, 19920.52
170.7495, 19900.86
171.2317, 19904.17
171.7138, 19916.21
172.1959, 19918.93
172.6780, 19905.08
173.1601, 19901.46
173.6422, 19938.55
174.1244, 20007.78
174.6065, 20079.59
175.0886, 20151.18
175.5707, 20211.99
176.0528, 20241.67
176.5349, 20219.69
177.0171, 20188.28
177.4992, 20206.37
177.9813, 20267.60
178.4634, 20320.63
178.9455, 20308.24
179.4276, 20256.69
179.9098, 20226.96
180.3919, 20246.39
180.8740, 20293.32
181.3561, 20336.10
181.8382, 20374.21
182.3203, 20406.58
182.8025, 20430.27
183.2846, 20446.71
183.7667, 20462.19
184.2488, 20483.80
184.7309, 20507.54
185.2130, 20517.09
185.6951, 20509.97
186.1773, 20501.48
186.6594, 20516.12
187.1415, 20551.99
187.6236, 20585.29
188.1057, 20602.13
188.5878, 20605.15
189.0700, 20605.07
189.5521, 20598.53
190.0342, 20595.22
190.5163, 20620.10
190.9984, 20673.39
191.4805, 20723.65
191.9627, 20739.35
192.4448, 20723.73
192.9269, 20725.58
193.4090, 20759.97
193.8911, 20812.41
194.3732, 20838.07
194.8554, 20834.12
195.3375, 20821.76
195.8196, 20821.73
196.3017, 20834.86
196.7838, 20844.44
197.2659, 20845.74
197.7481, 20840.69
198.2302, 20837.27
198.7123, 20834.51
199.1944, 20838.36
199.6765, 20860.34
200.1586, 20903.98
200.6408, 20942.52
201.1229, 20967.32
201.6050, 20978.06
202.0871, 20976.40
202.5692, 20953.93
203.0513, 20931.06
203.5335, 20945.14
204.0156, 21002.29
204.4977, 21068.33
204.9798, 21134.95
205.4619, 21205.06
205.9440, 21241.70
206.4262, 21227.96
206.9083, 21190.69
207.3904, 21206.68
207.8725, 21295.94
208.3546, 21382.18
208.8367, 21418.09
209.3189, 21392.66
209.8010, 21359.51
210.2831, 21313.78
210.7652, 21264.67
211.2473, 21259.56
211.7294, 21317.76
212.2116, 21383.28
212.6937, 21412.61
213.1758, 21397.56
213.6579, 21376.48
214.1400, 21353.45
214.6221, 21329.42
215.1043, 21312.93
215.5864, 21309.12
216.0685, 21306.80
216.5506, 21288.72
217.0327, 21236.53
217.5148, 21217.05
217.9970, 21256.59
218.4791, 21359.79
218.9612, 21428.61
219.4433, 21443.94
219.9254, 21442.18
220.4075, 21475.22
220.8897, 21565.31
221.3718, 21641.29
221.8539, 21674.84
222.3360, 21653.46
222.8181, 21650.00
223.3002, 21671.36
223.7824, 21705.90
224.2645, 21730.57
224.7466, 21734.88
225.2287, 21748.44
225.7108, 21787.24
226.1929, 21868.87
226.6750, 21926.72
227.1572, 21951.80
227.6393, 21955.88
228.1214, 21969.81
228.6035, 22000.43
229.0856, 22030.89
229.5677, 22051.07
230.0499, 22050.45
230.5320, 22063.32
231.0141, 22096.32
231.4962, 22143.58
231.9783, 22183.34
232.4604, 22217.39
232.9426, 22240.57
233.4247, 22247.50
233.9068, 22225.36
234.3889, 22213.22
234.8710, 22216.68
235.3531, 22234.41
235.8353, 22252.97
236.3174, 22271.63
236.7995, 22292.61
237.2816, 22317.74
237.7637, 22348.34
238.2458, 22381.92
238.7280, 22423.41
239.2101, 22472.47
239.6922, 22498.61
240.1743, 22487.71
240.6564, 22467.73
241.1385, 22465.39
241.6207, 22492.03
242.1028, 22514.66
242.5849, 22519.02
243.0670, 22500.48
243.5491, 22524.90
244.0313, 22623.63
244.5134, 22739.11
244.9955, 22800.45
245.4776, 22770.55
245.9597, 22751.45
246.4418, 22772.83
246.9240, 22844.82
247.4061, 22900.05
247.8882, 22936.90
248.3703, 22958.07
248.8524, 22961.78
249.3345, 22923.84
249.8167, 22910.84
250.2988, 22950.37
250.7809, 23062.42
251.2630, 23147.83
251.7451, 23202.47
252.2272, 23231.78
252.7094, 23239.07
253.1915, 23199.83
253.6736, 23180.03
254.1557, 23207.36
254.6378, 23298.98
255.1199, 23385.85
255.6021, 23472.11
256.0842, 23550.99
256.5663, 23605.67
257.0484, 23629.89
257.5305, 23641.26
258.0126, 23643.62
258.4948, 23627.01
258.9769, 23632.07
259.4590, 23667.99
259.9411, 23723.26
260.4232, 23766.58
260.9053, 23793.58
261.3875, 23817.52
261.8696, 23843.00
262.3517, 23864.73
262.8338, 23905.84
263.3159, 23976.59
263.7980, 24065.13
264.2802, 24125.83
264.7623, 24146.80
265.2444, 24163.86
265.7265, 24199.37
266.2086, 24257.18
266.6907, 24318.29
267.1729, 24392.69
267.6550, 24465.63
268.1371, 24471.80
268.6192, 24384.05
269.1013, 24288.69
269.5834, 24252.30
270.0656, 24292.26
270.5477, 24309.73
271.0298, 24284.29
271.5119, 24228.98
271.9940, 24198.09
272.4761, 24194.45
272.9583, 24209.65
273.4404, 24246.62
273.9225, 24313.66
274.4046, 24357.03
274.8867, 24365.59
275.3688, 24345.66
275.8510, 24318.65
276.3331, 24278.34
276.8152, 24250.88
277.2973, 24265.33
277.7794, 24326.84
278.2615, 24382.48
278.7437, 24426.51
279.2258, 24456.62
279.7079, 24456.45
280.1900, 24420.30
280.6721, 24376.45
281.1542, 24348.43
281.6364, 24336.61
282.1185, 24331.94
282.6006, 24324.93
283.0827, 24325.10
283.5648, 24385.55
284.0469, 24517.99
284.5291, 24650.84
285.0112, 24704.45
285.4933, 24681.46
285.9754, 24670.76
286.4575, 24698.02
286.9396, 24752.50
287.4217, 24798.45
287.9038, 24834.62
288.3860, 24867.29
288.8681, 24902.53
289.3502, 24939.21
289.8323, 24973.13
290.3144, 24997.34
290.7965, 25018.93
291.2787, 25064.78
291.7608, 25137.49
292.2429, 25206.49
292.7250, 25236.73
293.2071, 25235.84
293.6892, 25241.56
294.1714, 25275.32
294.6535, 25320.42
295.1356, 25337.74
295.6177, 25327.03
296.0998, 25308.36
296.5819, 25286.65
297.0641, 25269.90
297.5462, 25285.57
298.0283, 25368.87
298.5104, 25476.48
298.9925, 25533.52
299.4746, 25539.78
299.9568, 25529.76
300.4389, 25523.34
300.9210, 25522.93
301.4031, 25534.55
301.8852, 25561.74
302.3673, 25600.09
302.8495, 25657.68
303.3316, 25732.68
303.8137, 25783.85
304.2958, 25752.33
304.7779, 25674.73
305.2600, 25617.13
305.7422, 25609.72
306.2243, 25629.42
306.7064, 25657.15
307.1885, 25693.04
307.6706, 25734.84
308.1527, 25801.50
308.6349, 25869.18
309.1170, 25903.56
309.5991, 25850.88
310.0812, 25791.46
310.5633, 25793.19
311.0454, 25852.84
311.5276, 25909.98
312.0097, 25920.15
312.4918, 25911.16
312.9739, 25914.17
313.4560, 25959.40
313.9381, 26003.85
314.4203, 26020.12
314.9024, 26010.35
315.3845, 26000.04
315.8666, 25999.02
316.3487, 26003.78
316.8308, 26010.95
317.3130, 26017.71
317.7951, 26027.90
318.2772, 26035.87
318.7593, 26043.55
319.2414, 26073.45
319.7235, 26171.41
320.2057, 26275.08
320.6878, 26335.09
321.1699, 26299.60
321.6520, 26261.13
322.1341, 26243.56
322.6162, 26245.33
323.0984, 26246.94
323.5805, 26231.01
324.0626, 26222.39
324.5447, 26237.89
325.0268, 26292.51
325.5089, 26357.66
325.9911, 26446.77
326.4732, 26553.37
326.9553, 26619.85
327.4374, 26579.04
327.9195, 26538.60
328.4016, 26560.71
328.8838, 26723.05
329.3659, 26848.83
329.8480, 26911.80
330.3301, 26922.23
330.8122, 26948.25
331.2943, 26990.73
331.7765, 27047.33
332.2586, 27122.01
332.7407, 27254.36
333.2228, 27330.24
333.7049, 27313.81
334.1870, 27235.41
334.6692, 27223.53
335.1513, 27309.74
335.6334, 27412.81
336.1155, 27490.23
336.5976, 27540.54
337.0797, 27569.63
337.5619, 27566.25
338.0440, 27546.71
338.5261, 27562.95
339.0082, 27626.20
339.4903, 27689.96
339.9724, 27723.31
340.4546, 27721.24
340.9367, 27734.65
341.4188, 27770.80
341.9009, 27818.40
342.3830, 27855.18
342.8651, 27880.98
343.3473, 27901.52
343.8294, 27919.23
344.3115, 27935.00
344.7936, 27947.79
345.2757, 27955.36
345.7578, 27968.07
346.2400, 28003.89
346.7221, 28061.92
347.2042, 28128.88
347.6863, 28211.22
348.1684, 28298.25
348.6505, 28350.24
349.1327, 28359.75
349.6148, 28358.78
350.0969, 28387.01
350.5790, 28437.60
351.0611, 28486.47
351.5432, 28519.46
352.0254, 28542.97
352.5075, 28569.96
352.9896, 28601.30
353.4717, 28625.86
353.9538, 28629.69
354.4359, 28619.76
354.9181, 28609.49
355.4002, 28604.84
355.8823, 28603.50
356.3644, 28595.89
356.8465, 28582.42
357.3286, 28592.49
357.8108, 28683.25
358.2929, 28799.48
358.7750, 28870.60
359.2571, 28834.49
359.7392, 28777.18
360.2213, 28731.86
360.7035, 28700.50
361.1856, 28702.12
361.6677, 28791.10
362.1498, 28894.09
362.6319, 28948.47
363.1140, 28888.54
363.5962, 28826.84
364.0783, 28795.88
364.5604, 28792.14
365.0425, 28790.29
365.5246, 28781.96
366.0067, 28775.27
366.4889, 28775.24
366.9710, 28795.33
367.4531, 28807.48
367.9352, 28811.00
368.4173, 28805.58
368.8994, 28788.38
369.3815, 28722.71
369.8636, 28677.73
370.3458, 28687.97
370.8279, 28818.16
371.3100, 28891.43
371.7921, 28883.00
372.2742, 28823.37
372.7563, 28785.54
373.2385, 28769.40
373.7206, 28775.39
374.2027, 28811.08
374.6848, 28889.98
375.1669, 28937.29
375.6490, 28937.67
376.1312, 28922.26
376.6133, 28951.57
377.0954, 29041.66
377.5775, 29111.93
378.0596, 29123.27
378.5417, 29078.00
379.0239, 29055.16
379.5060, 29057.58
379.9881, 29075.28
380.4702, 29102.41
380.9523, 29138.54
381.4344, 29163.85
381.9166, 29166.11
382.3987, 29153.56
382.8808, 29148.91
383.3629, 29151.60
383.8450, 29165.49
384.3271, 29209.22
384.8093, 29269.16
385.2914, 29301.28
385.7735, 29280.10
386.2556, 29235.86
386.7377, 29207.55
387.2198, 29193.96
387.7020, 29185.27
388.1841, 29178.84
388.6662, 29172.63
389.1483, 29162.08
389.6304, 29139.27
390.1125, 29125.13
390.5947, 29131.02
391.0768, 29158.14
391.5589, 29209.01
392.0410, 29309.76
392.5231, 29419.78
393.0052, 29518.06
393.4874, 29616.64
393.9695, 29661.76
394.4516, 29591.95
394.9337, 29458.47
395.4158, 29355.36
395.8979, 29315.15
396.3801, 29303.21
396.8622, 29309.84
397.3443, 29338.25
397.8264, 29367.55
398.3085, 29389.49
398.7906, 29411.86
399.2728, 29444.54
399.7549, 29512.87
400.2370, 29563.20
400.7191, 29576.63
401.2012, 29549.35
401.6833, 29549.51
402.1655, 29594.89
402.6476, 29651.30
403.1297, 29688.98
403.6118, 29700.75
404.0939, 29711.48
404.5760, 29718.73
405.0582, 29727.44
405.5403, 29770.35
406.0224, 29858.02
406.5045, 29947.47
406.9866, 30003.40
407.4688, 30023.12
407.9509, 30059.17
408.4330, 30125.20
408.9151, 30198.50
409.3972, 30217.56
409.8793, 30182.08
410.3615, 30166.02
410.8436, 30241.18
411.3257, 30373.16
411.8078, 30432.61
412.2899, 30400.12
412.7720, 30348.69
413.2542, 30367.23
413.7363, 30438.80
414.2184, 30513.42
414.7005, 30592.49
415.1826, 30649.38
415.6647, 30635.42
416.1469, 30548.31
416.6290, 30463.21
417.1111, 30438.89
417.5932, 30447.38
418.0753, 30452.87
418.5574, 30432.53
419.0396, 30414.25
419.5217, 30416.42
420.0038, 30435.45
420.4859, 30448.60
420.9680, 30436.65
421.4501, 30422.30
421.9323, 30422.33
422.4144, 30460.22
422.8965, 30486.14
423.3786, 30484.55
423.8607, 30465.59
424.3428, 30456.86
424.8250, 30460.70
425.3071, 30477.56
425.7892, 30509.88
426.2713, 30567.49
426.7534, 30615.94
427.2355, 30643.62
427.7177, 30668.95
428.1998, 30723.04
428.6819, 30826.05
429.1640, 30908.55
429.6461, 30944.28
430.1282, 30933.07
430.6104, 30937.66
431.0925, 30959.36
431.5746, 30989.62
432.0567, 31018.68
432.5388, 31045.81
433.0209, 31083.63
433.5031, 31143.95
433.9852, 31209.26
434.4673, 31234.19
434.9494, 31219.89
435.4315, 31193.88
435.9136, 31174.55
436.3958, 31159.81
436.8779, 31140.81
437.3600, 31113.61
437.8421, 31093.08
438.3242, 31096.30
438.8063, 31120.05
439.2885, 31154.61
439.7706, 31218.49
440.2527, 31276.80
440.7348, 31284.11
441.2169, 31230.28
441.6990, 31194.40
442.1812, 31253.43
442.6633, 31343.48
443.1454, 31389.27
443.6275, 31312.76
444.1096, 31239.76
444.5917, 31217.25
445.0739, 31242.61
445.5560, 31269.62
446.0381, 31299.44
446.5202, 31320.99
447.0023, 31327.61
447.4844, 31290.38
447.9666, 31275.96
448.4487, 31297.73
448.9308, 31342.20
449.4129, 31372.00
449.8950, 31378.58
450.3771, 31384.81
450.8592, 31404.07
451.3413, 31443.17
451.8235, 31452.27
452.3056, 31419.73
452.7877, 31376.04
453.2698, 31362.72
453.7519, 31381.96
454.2340, 31407.81
454.7162, 31437.05
455.1983, 31465.96
455.6804, 31480.19
456.1625, 31478.95
456.6446, 31474.14
457.1267, 31472.61
457.6089, 31475.15
458.0910, 31486.05
458.5731, 31511.06
459.0552, 31535.68
459.5373, 31537.38
460.0194, 31522.80
460.5016, 31513.71
460.9837, 31520.48
461.4658, 31539.74
461.9479, 31571.19
462.4300, 31616.88
462.9121, 31663.07
463.3943, 31718.04
463.8764, 31765.05
464.3585, 31781.45
464.8406, 31695.75
465.3227, 31641.81
465.8048, 31686.97
466.2870, 31831.51
466.7691, 31932.95
467.2512, 31954.16
467.7333, 31942.49
468.2154, 31925.83
468.6975, 31893.52
469.1797, 31871.96
469.6618, 31856.42
470.1439, 31853.66
470.6260, 31888.66
471.1081, 31980.26
471.5902, 32063.02
472.0724, 32107.31
472.5545, 32111.24
473.0366, 32106.55
473.5187, 32087.88
474.0008, 32075.62
474.4829, 32107.39
474.9651, 32178.35
475.4472, 32227.31
475.9293, 32229.12
476.4114, 32202.89
476.8935, 32174.15
477.3756, 32145.86
477.8578, 32145.91
478.3399, 32218.66
478.8220, 32326.58
479.3041, 32414.87
479.7862, 32472.37
480.2683, 32511.35
480.7505, 32538.12
481.2326, 32552.92
481.7147, 32556.65
482.1968, 32521.45
482.6789, 32497.24
483.1610, 32505.92
483.6432, 32548.55
484.1253, 32624.52
484.6074, 32795.46
485.0895, 32966.06
485.5716, 33054.78
486.0537, 32952.24
486.5359, 32887.39
487.0180, 32885.84
487.5001, 32937.42
487.9822, 32997.56
488.4643, 33070.68
488.9464, 33144.81
489.4286, 33221.34
489.9107, 33307.39
490.3928, 33353.59
490.8749, 33351.19
491.3570, 33326.16
491.8391, 33327.20
492.3213, 33354.63
492.8034, 33341.45
493.2855, 33230.24
493.7676, 33076.70
494.2497, 33030.36
494.7318, 33090.17
495.2140, 33174.88
495.6961, 33221.65
496.1782, 33248.03
496.6603, 33283.23
497.1424, 33337.50
497.6245, 33393.34
498.1067, 33441.18
498.5888, 33479.64
499.0709, 33506.72
499.5530, 33489.19
500.0351, 33484.12
500.5172, 33533.42
500.9994, 33648.38
501.4815, 33741.30
501.9636, 33783.56
502.4457, 33798.80
502.9278, 33808.44
503.4099, 33804.83
503.8921, 33809.18
504.3742, 33843.48
504.8563, 33890.88
505.3384, 33869.38
505.8205, 33739.11
506.3026, 33620.16
506.7848, 33572.16
507.2669, 33603.06
507.7490, 33665.41
508.2311, 33779.16
508.7132, 33880.85
509.1953, 33862.39
509.6775, 33735.77
510.1596, 33636.96
510.6417, 33621.48
511.1238, 33653.08
511.6059, 33663.78
512.0880, 33654.26
512.5701, 33642.03
513.0522, 33637.14
513.5344, 33636.22
514.0165, 33634.87
514.4986, 33630.78
514.9807, 33629.04
515.4628, 33630.54
515.9449, 33637.25
516.4271, 33652.41
516.9092, 33702.55
517.3913, 33739.09
517.8734, 33740.82
518.3555, 33706.57
518.8376, 33669.37
519.3198, 33597.73
519.8019, 33551.00
520.2840, 33572.69
520.7661, 33731.23
521.2482, 33820.32
521.7303, 33806.70
522.2125, 33732.25
522.6946, 33686.63
523.1767, 33670.23
523.6588, 33677.77
524.1409, 33712.54
524.6230, 33770.81
525.1052, 33835.14
525.5873, 33907.29
526.0694, 33972.10
526.5515, 34005.14
527.0336, 34018.09
527.5157, 34046.21
527.9979, 34105.49
528.4800, 34168.71
528.9621, 34195.59
529.4442, 34200.19
529.9263, 34224.96
530.4084, 34315.84
530.8906, 34416.99
531.3727, 34483.28
531.8548, 34505.89
532.3369, 34538.46
532.8190, 34599.54
533.3011, 34677.45
533.7833, 34760.61
534.2654, 34867.80
534.7475, 34954.78
535.2296, 35003.72
535.7117, 35029.12
536.1938, 35084.36
536.6760, 35189.60
537.1581, 35288.33
537.6402, 35355.88
538.1223, 35389.61
538.6044, 35427.97
539.0865, 35476.31
539.5687, 35516.47
540.0508, 35527.20
540.5329, 35510.92
541.0150, 35476.40
541.4971, 35411.46
541.9792, 35348.99
542.4614, 35365.80
542.9435, 35442.22
543.4256, 35485.96
543.9077, 35407.96
544.3898, 35290.04
544.8719, 35211.28
545.3541, 35183.42
545.8362, 35166.34
546.3183, 35139.98
546.8004, 35113.93
547.2825, 35098.34
547.7646, 35105.52
548.2468, 35111.84
548.7289, 35105.36
549.2110, 35092.17
549.6931, 35102.13
550.1752, 35166.48
550.6573, 35210.71
551.1395, 35191.54
551.6216, 35088.25
552.1037, 35051.88
552.5858, 35096.75
553.0679, 35176.96
553.5500, 35258.09
554.0322, 35337.86
554.5143, 35361.94
554.9964, 35294.85
555.4785, 35194.27
555.9606, 35175.53
556.4427, 35224.76
556.9249, 35266.61
557.4070, 35234.66
557.8891, 35181.19
558.3712, 35166.16
558.8533, 35197.58
559.3354, 35240.22
559.8176, 35296.54
560.2997, 35343.87
560.7818, 35359.03
561.2639, 35282.32
561.7460, 35231.81
562.2281, 35253.58
562.7103, 35324.03
563.1924, 35352.85
563.6745, 35305.60
564.1566, 35261.21
564.6387, 35247.41
565.1208, 35266.61
565.6030, 35300.77
566.0851, 35361.05
566.5672, 35411.95
567.0493, 35410.05
567.5314, 35358.44
568.0135, 35310.83
568.4957, 35276.61
568.9778, 35253.68
569.4599, 35245.24
569.9420, 35247.66
570.4241, 35245.34
570.9063, 35207.27
571.3884, 35173.94
571.8705, 35194.05
572.3526, 35268.93
572.8347, 35344.96
573.3168, 35398.51
573.7990, 35437.58
574.2811, 35468.34
574.7632, 35497.88
575.2453, 35511.24
575.7274, 35492.04
576.2095, 35457.25
576.6917, 35438.07
577.1738, 35419.54
577.6559, 35443.18
578.1380, 35540.37
578.6201, 35702.91
579.1022, 35789.62
579.5844, 35783.66
580.0665, 35763.35
580.5486, 35802.78
581.0307, 35888.91
581.5128, 35919.03
581.9949, 35870.32
582.4771, 35804.18
582.9592, 35802.06
583.4413, 35842.40
583.9234, 35871.71
584.4055, 35854.97
584.8876, 35828.93
585.3698, 35814.77
585.8519, 35813.69
586.3340, 35830.32
586.8161, 35878.35
587.2982, 35936.29
587.7803, 35995.60
588.2625, 36064.95
588.7446, 36109.66
589.2267, 36107.69
589.7088, 36094.66
590.1909, 36113.48
590.6730, 36185.12
591.1552, 36227.14
591.6373, 36212.79
592.1194, 36167.68
592.6015, 36170.36
593.0836, 36222.86
593.5657, 36286.54
594.0479, 36352.70
594.5300, 36413.08
595.0121, 36434.10
595.4942, 36413.50
595.9763, 36400.17
596.4584, 36459.07
596.9406, 36540.90
597.4227, 36580.20
597.9048, 36543.34
