##NAMES=Dachiardite-Ca
##RRUFFID=R061125
##IDEAL CHEMISTRY=Ca_2_(Si_20_Al_4_)O_48_&#183;13H_2_O
##LOCALITY=San Piero in Campo, Isle of Elba, Livorno, Toscana, Italy
##OWNER=RRUFF
##SOURCE=Michael Scott
##DESCRIPTION=Colorless cyclical eightling twinned crystals with quartz, tourmaline, and eucryptite
##STATUS=The identification of this mineral is confirmed by single-crystal X-ray diffraction and chemical analysis.
##URL=rruff.info/R061125
##MEASURED CHEMISTRY=(Ca_2.80_Na_0.55_K_0.08_)_Σ=3.43_(Si_17.77_Al_6.23_)O_48_·12H_2_O; H_2_O estimated by difference
206.4819, 21039.46
206.9640, 20998.65
207.4461, 20952.11
207.9282, 20901.46
208.4104, 20846.62
208.8925, 20783.31
209.3746, 20735.43
209.8567, 20731.26
210.3388, 20721.68
210.8209, 20656.25
211.3031, 20537.04
211.7852, 20423.31
212.2673, 20375.95
212.7494, 20411.52
213.2315, 20413.33
213.7136, 20358.21
214.1958, 20292.04
214.6779, 20237.35
215.1600, 20197.75
215.6421, 20173.54
216.1242, 20169.35
216.6063, 20187.80
217.0885, 20182.21
217.5706, 20128.27
218.0527, 20076.63
218.5348, 20062.28
219.0169, 20077.31
219.4990, 20086.34
219.9812, 20062.88
220.4633, 20007.48
220.9454, 19953.04
221.4275, 19880.55
221.9096, 19827.08
222.3917, 19825.14
222.8739, 19856.43
223.3560, 19873.71
223.8381, 19846.00
224.3202, 19778.27
224.8023, 19711.83
225.2844, 19635.45
225.7666, 19571.36
226.2487, 19527.06
226.7308, 19499.69
227.2129, 19484.78
227.6950, 19480.76
228.1771, 19485.39
228.6593, 19490.38
229.1414, 19523.33
229.6235, 19523.76
230.1056, 19441.36
230.5877, 19329.98
231.0698, 19273.52
231.5520, 19310.45
232.0341, 19401.62
232.5162, 19445.25
232.9983, 19394.05
233.4804, 19351.65
233.9625, 19325.72
234.4447, 19309.21
234.9268, 19296.50
235.4089, 19285.58
235.8910, 19273.81
236.3731, 19255.91
236.8552, 19223.44
237.3374, 19199.06
237.8195, 19187.80
238.3016, 19181.71
238.7837, 19174.79
239.2658, 19165.62
239.7479, 19155.67
240.2301, 19147.41
240.7122, 19144.13
241.1943, 19133.79
241.6764, 19115.83
242.1585, 19092.49
242.6406, 19057.43
243.1227, 19014.66
243.6049, 18982.55
244.0870, 18984.48
244.5691, 19033.31
245.0512, 19050.39
245.5333, 19017.15
246.0154, 18974.24
246.4976, 18934.02
246.9797, 18899.56
247.4618, 18870.22
247.9439, 18842.44
248.4260, 18815.20
248.9081, 18827.40
249.3903, 18924.90
249.8724, 19014.50
250.3545, 19079.32
250.8366, 19116.46
251.3187, 19124.10
251.8008, 19098.46
252.2830, 19044.84
252.7651, 18995.44
253.2472, 18948.46
253.7293, 18908.87
254.2114, 18873.72
254.6935, 18847.49
255.1757, 18841.30
255.6578, 18862.38
256.1399, 18893.64
256.6220, 18883.92
257.1041, 18788.60
257.5862, 18730.73
258.0684, 18730.06
258.5505, 18765.80
259.0326, 18837.85
259.5147, 18943.30
259.9968, 19037.93
260.4789, 19036.16
260.9611, 18888.39
261.4432, 18788.27
261.9253, 18792.88
262.4074, 18822.63
262.8895, 18833.84
263.3716, 18818.70
263.8538, 18790.78
264.3359, 18759.08
264.8180, 18721.35
265.3001, 18700.28
265.7822, 18713.53
266.2643, 18730.10
266.7465, 18731.51
267.2286, 18721.23
267.7107, 18716.75
268.1928, 18741.12
268.6749, 18788.71
269.1570, 18804.14
269.6392, 18760.07
270.1213, 18721.29
270.6034, 18715.05
271.0855, 18736.27
271.5676, 18777.04
272.0497, 18848.96
272.5319, 18930.55
273.0140, 18966.43
273.4961, 18945.08
273.9782, 18909.32
274.4603, 18857.61
274.9424, 18810.25
275.4246, 18798.71
275.9067, 18845.26
276.3888, 18909.13
276.8709, 18942.75
277.3530, 18945.24
277.8351, 18935.00
278.3173, 18911.98
278.7994, 18884.02
279.2815, 18861.33
279.7636, 18845.51
280.2457, 18832.41
280.7278, 18813.50
281.2100, 18792.88
281.6921, 18793.15
282.1742, 18830.44
282.6563, 18877.12
283.1384, 18899.50
283.6205, 18898.30
284.1027, 18884.51
284.5848, 18854.28
285.0669, 18816.38
285.5490, 18783.32
286.0311, 18756.50
286.5132, 18740.01
286.9954, 18742.22
287.4775, 18762.24
287.9596, 18780.56
288.4417, 18796.76
288.9238, 18808.50
289.4059, 18811.93
289.8881, 18807.29
290.3702, 18800.05
290.8523, 18792.24
291.3344, 18784.77
291.8165, 18785.79
292.2986, 18808.17
292.7808, 18824.93
293.2629, 18814.33
293.7450, 18787.53
294.2271, 18775.81
294.7092, 18797.70
295.1913, 18839.95
295.6735, 18858.31
296.1556, 18827.85
296.6377, 18806.03
297.1198, 18810.48
297.6019, 18823.13
298.0840, 18818.84
298.5662, 18790.18
299.0483, 18755.81
299.5304, 18746.65
300.0125, 18779.76
300.4946, 18803.95
300.9767, 18825.84
301.4589, 18835.69
301.9410, 18817.08
302.4231, 18775.45
302.9052, 18738.47
303.3873, 18734.87
303.8694, 18768.91
304.3515, 18798.37
304.8336, 18832.21
305.3158, 18853.03
305.7979, 18849.50
306.2800, 18829.05
306.7621, 18804.84
307.2442, 18783.57
307.7263, 18766.94
308.2085, 18763.52
308.6906, 18787.40
309.1727, 18801.38
309.6548, 18795.50
310.1369, 18777.45
310.6190, 18750.18
311.1012, 18713.31
311.5833, 18682.24
312.0654, 18687.97
312.5475, 18742.00
313.0296, 18775.52
313.5117, 18751.30
313.9939, 18717.47
314.4760, 18703.94
314.9581, 18712.99
315.4402, 18728.11
315.9223, 18738.09
316.4044, 18743.33
316.8866, 18746.51
317.3687, 18747.78
317.8508, 18747.00
318.3329, 18745.82
318.8150, 18743.17
319.2971, 18735.00
319.7793, 18711.48
320.2614, 18685.36
320.7435, 18679.82
321.2256, 18697.39
321.7077, 18707.77
322.1898, 18683.21
322.6720, 18641.62
323.1541, 18630.36
323.6362, 18673.84
324.1183, 18718.54
324.6004, 18727.55
325.0826, 18711.64
325.5647, 18703.18
326.0468, 18714.32
326.5289, 18738.80
327.0110, 18767.44
327.4931, 18804.86
327.9753, 18833.14
328.4574, 18847.32
328.9395, 18851.81
329.4216, 18847.30
329.9037, 18835.18
330.3858, 18826.31
330.8680, 18834.46
331.3501, 18865.25
331.8322, 18876.78
332.3143, 18847.56
332.7964, 18822.15
333.2785, 18825.49
333.7607, 18850.60
334.2428, 18875.66
334.7249, 18886.16
335.2070, 18886.11
335.6891, 18897.21
336.1712, 18933.70
336.6534, 18963.42
337.1355, 18971.14
337.6176, 18975.39
338.0997, 18998.26
338.5818, 19046.08
339.0639, 19102.82
339.5461, 19143.31
340.0282, 19164.07
340.5103, 19179.87
340.9924, 19187.58
341.4745, 19193.57
341.9566, 19199.60
342.4388, 19206.51
342.9209, 19216.04
343.4030, 19233.37
343.8851, 19255.86
344.3672, 19264.89
344.8493, 19253.32
345.3315, 19242.52
345.8136, 19227.91
346.2957, 19224.21
346.7778, 19262.15
347.2599, 19376.82
347.7420, 19501.15
348.2242, 19545.25
348.7063, 19511.25
349.1884, 19488.64
349.6705, 19515.45
350.1526, 19566.60
350.6347, 19601.18
351.1169, 19614.98
351.5990, 19631.65
352.0811, 19668.84
352.5632, 19713.64
353.0453, 19740.40
353.5274, 19742.77
354.0096, 19742.05
354.4917, 19761.41
354.9738, 19804.31
355.4559, 19837.42
355.9380, 19848.13
356.4201, 19859.85
356.9023, 19887.60
357.3844, 19929.10
357.8665, 19975.69
358.3486, 20023.52
358.8307, 20070.47
359.3128, 20107.67
359.7950, 20120.99
360.2771, 20141.59
360.7592, 20171.92
361.2413, 20210.50
361.7234, 20258.10
362.2055, 20313.76
362.6877, 20371.72
363.1698, 20423.32
363.6519, 20466.10
364.1340, 20510.79
364.6161, 20557.20
365.0982, 20605.32
365.5804, 20657.26
366.0625, 20711.11
366.5446, 20762.30
367.0267, 20809.34
367.5088, 20851.13
367.9909, 20883.38
368.4731, 20902.20
368.9552, 20921.27
369.4373, 20938.16
369.9194, 20961.78
370.4015, 21007.54
370.8836, 21084.43
371.3658, 21159.08
371.8479, 21197.29
372.3300, 21204.98
372.8121, 21215.33
373.2942, 21234.21
373.7763, 21260.91
374.2585, 21293.95
374.7406, 21332.90
375.2227, 21382.48
375.7048, 21445.20
376.1869, 21518.56
376.6690, 21606.42
377.1512, 21706.73
377.6333, 21800.15
378.1154, 21874.61
378.5975, 21931.70
379.0796, 21979.92
379.5617, 22010.21
380.0439, 22043.79
380.5260, 22074.92
381.0081, 22116.10
381.4902, 22190.09
381.9723, 22303.21
382.4544, 22430.65
382.9366, 22534.55
383.4187, 22604.26
383.9008, 22678.84
384.3829, 22761.16
384.8650, 22844.98
385.3471, 22921.07
385.8292, 22995.54
386.3113, 23084.57
386.7935, 23201.40
387.2756, 23339.62
387.7577, 23472.14
388.2398, 23598.76
388.7219, 23719.99
389.2040, 23824.36
389.6862, 23929.23
390.1683, 24056.90
390.6504, 24213.80
391.1325, 24369.97
391.6146, 24485.53
392.0967, 24568.67
392.5789, 24679.43
393.0610, 24842.08
393.5431, 25008.00
394.0252, 25122.05
394.5073, 25195.94
394.9894, 25286.54
395.4716, 25423.78
395.9537, 25573.69
396.4358, 25711.81
396.9179, 25836.16
397.4000, 25936.48
397.8821, 26003.20
398.3643, 26046.41
398.8464, 26097.12
399.3285, 26148.52
399.8106, 26216.51
400.2927, 26308.91
400.7748, 26416.24
401.2570, 26540.91
401.7391, 26677.63
402.2212, 26793.84
402.7033, 26848.98
403.1854, 26833.20
403.6675, 26835.61
404.1497, 26882.25
404.6318, 26919.64
405.1139, 26916.68
405.5960, 26896.77
406.0781, 26903.16
406.5602, 26959.89
407.0424, 27035.38
407.5245, 27066.58
408.0066, 27042.97
408.4887, 27020.77
408.9708, 27010.45
409.4529, 27006.79
409.9351, 27005.79
410.4172, 27007.49
410.8993, 27014.73
411.3814, 27035.40
411.8635, 27061.34
412.3456, 27077.19
412.8278, 27082.33
413.3099, 27076.36
413.7920, 27060.12
414.2741, 27031.23
414.7562, 26985.64
415.2383, 26895.13
415.7205, 26824.02
416.2026, 26821.64
416.6847, 26852.15
417.1668, 26855.75
417.6489, 26814.77
418.1310, 26745.53
418.6132, 26667.85
419.0953, 26576.82
419.5774, 26496.47
420.0595, 26436.13
420.5416, 26376.01
421.0237, 26295.83
421.5059, 26209.30
421.9880, 26151.77
422.4701, 26148.24
422.9522, 26171.33
423.4343, 26140.07
423.9164, 26030.30
424.3986, 25924.69
424.8807, 25848.09
425.3628, 25774.45
425.8449, 25684.76
426.3270, 25577.53
426.8091, 25466.73
427.2913, 25359.07
427.7734, 25255.12
428.2555, 25155.85
428.7376, 25059.59
429.2197, 24971.55
429.7018, 24902.85
430.1840, 24843.60
430.6661, 24767.91
431.1482, 24676.02
431.6303, 24564.58
432.1124, 24410.59
432.5945, 24239.67
433.0767, 24095.07
433.5588, 23988.30
434.0409, 23924.28
434.5230, 23922.08
435.0051, 24019.44
435.4872, 24012.35
435.9694, 23838.85
436.4515, 23636.30
436.9336, 23454.53
437.4157, 23294.71
437.8978, 23151.09
438.3799, 23021.30
438.8621, 22897.07
439.3442, 22754.47
439.8263, 22575.78
440.3084, 22425.88
440.7905, 22343.21
441.2726, 22270.79
441.7548, 22177.14
442.2369, 22060.87
442.7190, 21935.07
443.2011, 21795.52
443.6832, 21655.19
444.1653, 21552.46
444.6475, 21495.18
445.1296, 21422.98
445.6117, 21296.29
446.0938, 21135.20
446.5759, 20990.54
447.0580, 20870.80
447.5402, 20752.45
448.0223, 20607.55
448.5044, 20466.66
448.9865, 20384.34
449.4686, 20367.00
449.9507, 20354.51
450.4329, 20285.80
450.9150, 20157.35
451.3971, 20038.69
451.8792, 19928.60
452.3613, 19828.28
452.8434, 19746.49
453.3256, 19671.27
453.8077, 19585.56
454.2898, 19482.88
454.7719, 19377.37
455.2540, 19291.68
455.7361, 19228.58
456.2183, 19159.81
456.7004, 19083.03
457.1825, 18999.65
457.6646, 18897.99
458.1467, 18790.36
458.6288, 18712.86
459.1110, 18704.47
459.5931, 18706.99
460.0752, 18646.28
460.5573, 18532.24
461.0394, 18435.20
461.5215, 18386.31
462.0037, 18354.67
462.4858, 18287.55
462.9679, 18173.62
463.4500, 18070.27
463.9321, 17993.33
464.4142, 17920.24
464.8964, 17832.70
465.3785, 17733.78
465.8606, 17638.16
466.3427, 17555.71
466.8248, 17481.04
467.3069, 17394.07
467.7890, 17280.74
468.2711, 17180.98
468.7533, 17089.72
469.2354, 17018.53
469.7175, 16990.09
470.1996, 16997.00
470.6817, 16994.53
471.1638, 16940.20
471.6460, 16851.55
472.1281, 16783.52
472.6102, 16740.04
473.0923, 16693.69
473.5744, 16624.58
474.0565, 16547.42
474.5387, 16494.02
475.0208, 16475.37
475.5029, 16450.75
475.9850, 16400.06
476.4671, 16336.64
476.9492, 16274.61
477.4314, 16217.16
477.9135, 16166.92
478.3956, 16127.86
478.8777, 16099.07
479.3598, 16063.94
479.8419, 16014.99
480.3241, 15969.15
480.8062, 15921.50
481.2883, 15882.36
481.7704, 15867.35
482.2525, 15877.77
482.7346, 15892.64
483.2168, 15891.73
483.6989, 15875.58
484.1810, 15848.56
484.6631, 15800.26
485.1452, 15762.76
485.6273, 15768.13
486.1095, 15792.64
486.5916, 15798.81
487.0737, 15773.90
487.5558, 15743.73
488.0379, 15720.00
488.5201, 15703.01
489.0022, 15694.04
489.4843, 15693.35
489.9664, 15698.59
490.4485, 15709.25
490.9306, 15726.22
491.4128, 15732.28
491.8949, 15728.17
492.3770, 15714.30
492.8591, 15676.33
493.3412, 15634.69
493.8233, 15615.90
494.3055, 15627.95
494.7876, 15656.29
495.2697, 15691.70
495.7518, 15736.16
496.2339, 15741.46
496.7160, 15673.19
497.1982, 15616.90
497.6803, 15636.89
498.1624, 15695.76
498.6445, 15724.89
499.1266, 15688.94
499.6087, 15656.55
500.0909, 15687.51
500.5730, 15761.66
501.0551, 15830.55
501.5372, 15883.50
502.0193, 15925.79
502.5014, 15961.69
502.9836, 15990.46
503.4657, 16022.84
503.9478, 16054.15
504.4299, 16093.87
504.9120, 16159.48
505.3941, 16229.82
505.8763, 16272.35
506.3584, 16278.11
506.8405, 16274.68
507.3226, 16300.20
507.8047, 16356.56
508.2868, 16405.47
508.7690, 16446.39
509.2511, 16478.68
509.7332, 16500.71
510.2153, 16514.77
510.6974, 16524.26
511.1795, 16529.32
511.6617, 16531.15
512.1437, 16530.28
512.6259, 16526.75
513.1080, 16521.83
513.5901, 16515.91
514.0722, 16504.33
514.5543, 16481.31
515.0364, 16446.34
515.5186, 16415.37
516.0007, 16398.10
516.4828, 16372.51
516.9649, 16328.62
517.4470, 16275.46
517.9291, 16223.87
518.4113, 16176.47
518.8934, 16129.24
519.3755, 16078.99
519.8576, 16025.45
520.3397, 15961.85
520.8218, 15880.71
521.3040, 15805.40
521.7861, 15744.50
522.2682, 15698.18
522.7503, 15671.88
523.2324, 15675.34
523.7145, 15673.54
524.1967, 15650.33
524.6788, 15609.24
525.1609, 15548.99
525.6430, 15471.37
526.1251, 15397.02
526.6072, 15341.41
527.0894, 15303.53
527.5715, 15276.80
528.0536, 15284.33
528.5357, 15273.18
529.0178, 15219.09
529.4999, 15157.29
529.9821, 15121.83
530.4642, 15114.36
530.9463, 15107.64
531.4284, 15078.42
531.9105, 15032.87
532.3926, 14986.85
532.8748, 14937.52
533.3569, 14906.53
533.8390, 14916.21
534.3211, 14940.01
534.8032, 14930.97
535.2853, 14881.21
535.7675, 14836.71
536.2496, 14816.77
536.7317, 14802.36
537.2138, 14773.72
537.6959, 14733.67
538.1780, 14697.82
538.6602, 14675.46
539.1423, 14663.06
539.6244, 14652.23
540.1065, 14648.80
540.5886, 14633.42
541.0707, 14588.32
541.5529, 14545.71
542.0350, 14525.17
542.5171, 14522.10
542.9992, 14519.01
543.4813, 14506.02
543.9634, 14490.74
544.4456, 14486.03
544.9277, 14489.26
545.4098, 14482.78
545.8919, 14459.36
546.3740, 14430.73
546.8561, 14410.78
547.3383, 14401.00
547.8204, 14390.10
548.3025, 14373.16
548.7846, 14360.26
549.2667, 14366.59
549.7488, 14375.84
550.2310, 14358.50
550.7131, 14306.50
551.1952, 14249.29
551.6773, 14227.95
552.1594, 14242.98
552.6415, 14251.85
553.1237, 14256.44
553.6058, 14250.76
554.0879, 14219.03
554.5700, 14179.02
555.0521, 14159.27
555.5342, 14171.98
556.0164, 14180.33
556.4985, 14157.21
556.9806, 14123.08
557.4627, 14108.01
557.9448, 14113.76
558.4269, 14121.98
558.9091, 14119.71
559.3912, 14108.18
559.8733, 14092.54
560.3554, 14058.15
560.8375, 14044.61
561.3196, 14084.15
561.8018, 14120.17
562.2839, 14104.42
562.7660, 14045.01
563.2481, 13991.47
563.7302, 13974.41
564.2123, 13978.23
564.6945, 13980.98
565.1766, 13982.83
565.6587, 13985.75
566.1408, 13991.59
566.6229, 13995.87
567.1050, 13991.62
567.5872, 13976.35
568.0693, 13967.39
568.5514, 13976.16
569.0335, 13979.20
569.5156, 13961.53
569.9977, 13933.07
570.4799, 13909.53
570.9620, 13895.98
571.4441, 13884.23
571.9262, 13859.25
572.4083, 13821.81
572.8904, 13806.93
573.3726, 13823.01
573.8547, 13842.97
574.3368, 13852.88
574.8189, 13857.75
575.3010, 13869.20
575.7831, 13896.63
576.2653, 13904.39
576.7474, 13856.27
577.2295, 13795.45
577.7116, 13774.97
578.1937, 13791.99
578.6758, 13807.47
579.1580, 13796.28
579.6401, 13767.69
580.1222, 13750.61
580.6043, 13755.13
581.0864, 13746.13
581.5685, 13695.78
582.0507, 13652.75
582.5328, 13648.52
583.0149, 13672.76
583.4970, 13692.68
583.9791, 13692.06
584.4612, 13687.31
584.9434, 13699.11
585.4255, 13719.32
585.9076, 13722.90
586.3897, 13703.46
586.8718, 13674.95
587.3539, 13649.46
587.8361, 13627.06
588.3182, 13612.67
588.8003, 13617.86
589.2824, 13616.67
589.7645, 13600.25
590.2466, 13579.11
590.7288, 13562.29
591.2109, 13551.27
591.6930, 13543.71
592.1751, 13541.27
592.6572, 13539.66
593.1393, 13527.22
593.6215, 13504.07
594.1036, 13482.70
594.5857, 13467.15
595.0678, 13456.49
595.5499, 13447.16
596.0320, 13435.28
596.5142, 13444.58
596.9963, 13511.53
597.4784, 13561.81
597.9605, 13549.52
598.4426, 13501.08
598.9247, 13456.00
599.4069, 13428.45
599.8890, 13413.95
600.3711, 13415.38
600.8532, 13429.46
601.3353, 13417.24
601.8174, 13367.92
602.2996, 13325.74
602.7817, 13318.64
603.2638, 13330.45
603.7459, 13326.44
604.2280, 13300.22
604.7101, 13279.12
605.1923, 13274.05
605.6744, 13273.01
606.1565, 13267.01
606.6386, 13256.32
607.1207, 13242.61
607.6028, 13226.15
608.0850, 13213.19
608.5671, 13219.30
609.0492, 13248.60
609.5313, 13264.32
610.0134, 13262.59
610.4955, 13248.73
610.9777, 13215.50
611.4598, 13174.30
611.9419, 13149.08
612.4240, 13152.06
612.9061, 13152.03
613.3882, 13128.64
613.8704, 13098.09
614.3525, 13078.04
614.8346, 13070.82
615.3167, 13075.74
615.7988, 13094.64
616.2809, 13117.99
616.7631, 13114.64
617.2452, 13074.66
617.7273, 13038.53
618.2094, 13006.12
618.6915, 12983.97
619.1736, 12982.54
619.6558, 12994.10
620.1379, 12994.95
620.6200, 12967.51
621.1021, 12945.04
621.5842, 12963.46
622.0663, 12996.79
622.5485, 12994.34
623.0306, 12951.00
623.5127, 12906.64
623.9948, 12893.91
624.4769, 12907.66
624.9590, 12921.91
625.4412, 12944.88
625.9233, 12951.37
626.4054, 12924.88
626.8875, 12891.24
627.3696, 12864.15
627.8517, 12843.81
628.3339, 12826.95
628.8160, 12809.39
629.2981, 12798.42
629.7802, 12808.25
630.2623, 12827.88
630.7444, 12830.47
631.2266, 12810.55
631.7087, 12788.19
632.1908, 12784.85
632.6729, 12796.23
633.1550, 12774.06
633.6371, 12679.24
634.1193, 12619.84
634.6014, 12643.52
635.0835, 12684.07
635.5656, 12694.76
636.0477, 12676.36
636.5298, 12654.06
637.0120, 12632.04
637.4941, 12616.94
637.9762, 12625.54
638.4583, 12645.13
638.9404, 12637.78
639.4225, 12594.44
639.9047, 12546.91
640.3868, 12527.03
640.8689, 12533.77
641.3510, 12548.68
641.8331, 12587.81
642.3152, 12607.71
642.7974, 12581.74
643.2795, 12548.72
643.7616, 12543.78
644.2437, 12563.75
644.7258, 12572.95
645.2079, 12545.89
645.6901, 12508.77
646.1722, 12479.27
646.6543, 12459.87
647.1364, 12462.78
647.6185, 12490.43
648.1006, 12517.99
648.5828, 12518.79
649.0649, 12494.61
649.5470, 12475.33
650.0291, 12460.35
650.5112, 12451.94
650.9933, 12459.02
651.4755, 12466.35
651.9576, 12461.51
652.4397, 12445.25
652.9218, 12427.79
653.4039, 12407.90
653.8860, 12393.71
654.3682, 12399.84
654.8503, 12415.70
655.3324, 12417.54
655.8145, 12399.61
656.2966, 12369.02
656.7787, 12328.18
657.2609, 12281.15
657.7430, 12274.10
658.2251, 12335.62
658.7072, 12375.51
659.1893, 12358.05
659.6714, 12324.25
660.1536, 12300.57
660.6357, 12286.82
661.1178, 12274.68
661.5999, 12258.71
662.0820, 12245.94
662.5641, 12239.81
663.0463, 12240.45
663.5284, 12251.09
664.0105, 12270.82
664.4926, 12289.42
664.9747, 12298.07
665.4568, 12297.96
665.9390, 12295.66
666.4211, 12292.71
666.9032, 12280.90
667.3853, 12242.47
667.8674, 12211.85
668.3495, 12226.91
668.8317, 12276.31
669.3138, 12308.32
669.7959, 12312.11
670.2780, 12297.79
670.7601, 12260.08
671.2422, 12212.46
671.7244, 12167.61
672.2065, 12129.43
672.6885, 12100.95
673.1707, 12083.04
673.6528, 12079.23
674.1349, 12110.12
674.6170, 12182.95
675.0991, 12216.16
675.5812, 12179.49
676.0634, 12129.05
676.5455, 12104.88
677.0276, 12104.25
677.5097, 12111.82
677.9918, 12145.08
678.4739, 12161.08
678.9561, 12138.89
679.4382, 12102.96
679.9203, 12066.85
680.4024, 12036.51
680.8845, 12022.32
681.3666, 12032.68
681.8488, 12049.39
682.3309, 12039.82
682.8130, 12007.69
683.2951, 11988.63
683.7772, 11989.65
684.2593, 11989.80
684.7415, 11973.61
685.2236, 11947.07
685.7057, 11930.33
686.1878, 11926.24
686.6699, 11927.83
687.1520, 11939.09
687.6342, 11952.35
688.1163, 11969.68
688.5984, 11984.37
689.0805, 11982.46
689.5626, 11957.45
690.0447, 11929.09
690.5269, 11913.77
691.0090, 11909.31
691.4911, 11917.34
691.9732, 11935.74
692.4553, 11936.46
692.9374, 11901.71
693.4196, 11853.98
693.9017, 11838.23
694.3838, 11866.23
694.8659, 11882.30
695.3480, 11875.14
695.8301, 11869.14
696.3123, 11873.33
696.7944, 11882.19
697.2765, 11890.47
697.7586, 11897.44
698.2407, 11898.69
698.7228, 11889.38
699.2050, 11875.47
