##NAMES=Dachiardite-Ca
##RRUFFID=R061125
##IDEAL CHEMISTRY=Ca_2_(Si_20_Al_4_)O_48_&#183;13H_2_O
##LOCALITY=San Piero in Campo, Isle of Elba, Livorno, Toscana, Italy
##OWNER=RRUFF
##SOURCE=Michael Scott
##DESCRIPTION=Colorless cyclical eightling twinned crystals with quartz, tourmaline, and eucryptite
##STATUS=The identification of this mineral is confirmed by single-crystal X-ray diffraction and chemical analysis.
##URL=rruff.info/R061125
##MEASURED CHEMISTRY=(Ca_2.80_Na_0.55_K_0.08_)_Σ=3.43_(Si_17.77_Al_6.23_)O_48_·12H_2_O; H_2_O estimated by difference
175.2517, 37072.26
175.7339, 37123.57
176.2160, 37202.21
176.6981, 37288.96
177.1802, 37374.26
177.6623, 37455.99
178.1444, 37526.90
178.6266, 37572.02
179.1087, 37607.49
179.5908, 37669.50
180.0729, 37765.02
180.5550, 37857.28
181.0371, 37885.22
181.5193, 37863.52
182.0014, 37859.95
182.4835, 37921.39
182.9656, 38028.65
183.4477, 38135.73
183.9298, 38240.18
184.4120, 38337.24
184.8941, 38417.16
185.3762, 38481.48
185.8583, 38540.00
186.3404, 38592.28
186.8225, 38642.02
187.3047, 38711.66
187.7868, 38811.44
188.2689, 38923.11
188.7510, 39015.31
189.2331, 39087.94
189.7152, 39136.04
190.1974, 39129.53
190.6795, 39078.13
191.1616, 39081.26
191.6437, 39181.57
192.1258, 39338.32
192.6080, 39416.87
193.0901, 39409.13
193.5722, 39386.25
194.0543, 39413.32
194.5364, 39489.75
195.0185, 39577.24
195.5007, 39670.75
195.9828, 39767.89
196.4649, 39854.20
196.9470, 39931.57
197.4291, 39996.29
197.9112, 40043.10
198.3934, 40071.20
198.8755, 40089.06
199.3576, 40089.41
199.8397, 40075.14
200.3218, 40103.23
200.8039, 40187.02
201.2861, 40285.13
201.7682, 40339.98
202.2503, 40345.13
202.7324, 40341.20
203.2145, 40333.42
203.6966, 40319.30
204.1788, 40347.89
204.6609, 40433.70
205.1430, 40541.83
205.6251, 40613.13
206.1072, 40640.45
206.5893, 40656.28
207.0715, 40662.81
207.5536, 40649.67
208.0357, 40695.34
208.5178, 40829.18
208.9999, 40997.47
209.4820, 41080.53
209.9642, 41051.06
210.4463, 41008.00
210.9284, 41000.14
211.4105, 41037.55
211.8926, 41069.90
212.3747, 41094.56
212.8569, 41113.43
213.3390, 41129.86
213.8211, 41137.48
214.3032, 41155.60
214.7853, 41196.40
215.2674, 41264.58
215.7496, 41341.95
216.2317, 41439.82
216.7138, 41545.02
217.1959, 41599.19
217.6780, 41577.45
218.1601, 41548.29
218.6423, 41559.02
219.1244, 41631.67
219.6065, 41683.81
220.0886, 41694.36
220.5707, 41674.63
221.0528, 41703.93
221.5350, 41811.75
222.0171, 41926.27
222.4992, 41992.82
222.9813, 41984.73
223.4634, 41990.20
223.9455, 42024.67
224.4277, 42085.81
224.9098, 42135.78
225.3919, 42168.93
225.8740, 42198.96
226.3561, 42236.86
226.8382, 42281.48
227.3204, 42337.06
227.8025, 42413.70
228.2846, 42510.29
228.7667, 42568.18
229.2488, 42565.29
229.7310, 42546.21
230.2131, 42551.16
230.6952, 42589.06
231.1773, 42634.18
231.6594, 42685.72
232.1415, 42744.16
232.6237, 42792.50
233.1058, 42826.02
233.5879, 42853.95
234.0700, 42882.77
234.5521, 42899.84
235.0342, 42942.26
235.5164, 43030.57
235.9985, 43173.52
236.4806, 43269.14
236.9627, 43295.98
237.4448, 43293.25
237.9269, 43302.10
238.4091, 43315.15
238.8912, 43354.06
239.3733, 43435.82
239.8554, 43572.03
240.3375, 43664.85
240.8196, 43701.82
241.3018, 43705.02
241.7839, 43695.19
242.2660, 43642.23
242.7481, 43630.78
243.2302, 43697.82
243.7123, 43865.02
244.1945, 43981.46
244.6766, 44028.18
245.1587, 44038.01
245.6408, 44053.18
246.1229, 44066.53
246.6050, 44098.68
247.0872, 44164.63
247.5693, 44279.25
248.0514, 44350.37
248.5335, 44350.77
249.0156, 44326.79
249.4977, 44354.52
249.9799, 44475.65
250.4620, 44570.27
250.9441, 44590.21
251.4262, 44508.64
251.9083, 44477.63
252.3904, 44517.85
252.8726, 44594.34
253.3547, 44649.58
253.8368, 44671.39
254.3189, 44696.25
254.8010, 44739.63
255.2831, 44809.92
255.7653, 44858.75
256.2474, 44872.94
256.7295, 44875.13
257.2116, 44901.46
257.6937, 44954.46
258.1758, 45026.94
258.6580, 45130.97
259.1401, 45289.94
259.6222, 45359.55
260.1043, 45292.46
260.5864, 45173.54
261.0685, 45157.08
261.5507, 45283.42
262.0328, 45417.61
262.5149, 45511.03
262.9970, 45553.82
263.4791, 45610.54
263.9612, 45691.63
264.4434, 45777.63
264.9255, 45832.96
265.4076, 45846.61
265.8897, 45859.19
266.3718, 45884.22
266.8539, 45921.68
267.3361, 45973.09
267.8182, 46046.32
268.3003, 46124.16
268.7824, 46175.12
269.2645, 46189.42
269.7466, 46206.69
270.2288, 46238.48
270.7109, 46283.68
271.1930, 46361.73
271.6751, 46494.09
272.1572, 46631.78
272.6393, 46680.18
273.1215, 46614.02
273.6036, 46567.19
274.0857, 46604.91
274.5678, 46733.76
275.0499, 46823.86
275.5320, 46871.34
276.0142, 46887.97
276.4963, 46881.88
276.9784, 46846.38
277.4605, 46829.18
277.9426, 46855.86
278.4247, 46925.70
278.9069, 46983.89
279.3890, 47026.40
279.8711, 47065.07
280.3532, 47116.74
280.8354, 47182.01
281.3175, 47253.66
281.7996, 47335.54
282.2817, 47425.45
282.7638, 47488.89
283.2459, 47521.25
283.7281, 47540.68
284.2102, 47569.05
284.6923, 47606.37
285.1744, 47649.12
285.6565, 47694.50
286.1386, 47743.57
286.6208, 47807.58
287.1029, 47891.83
287.5850, 47970.13
288.0671, 47996.05
288.5492, 47975.58
289.0313, 47980.55
289.5135, 48066.39
289.9956, 48200.85
290.4777, 48250.13
290.9598, 48203.57
291.4419, 48151.29
291.9240, 48216.08
292.4062, 48376.13
292.8883, 48504.55
293.3704, 48533.48
293.8525, 48503.85
294.3346, 48520.34
294.8167, 48585.65
295.2989, 48655.97
295.7810, 48674.69
296.2631, 48659.25
296.7452, 48668.58
297.2273, 48735.70
297.7094, 48833.93
298.1916, 48932.76
298.6737, 49031.18
299.1558, 49100.75
299.6379, 49084.40
300.1200, 49019.60
300.6021, 48991.85
301.0843, 49052.47
301.5664, 49148.00
302.0485, 49208.87
302.5306, 49238.03
303.0127, 49266.73
303.4948, 49336.65
303.9770, 49419.07
304.4591, 49466.26
304.9412, 49434.71
305.4233, 49389.76
305.9054, 49397.28
306.3875, 49451.13
306.8697, 49513.13
307.3518, 49559.14
307.8339, 49598.35
308.3160, 49640.34
308.7981, 49683.71
309.2802, 49736.03
309.7624, 49817.22
310.2445, 49917.24
310.7266, 49992.38
311.2087, 49990.32
311.6908, 49966.90
312.1729, 49975.83
312.6551, 50049.77
313.1372, 50126.43
313.6193, 50172.93
314.1014, 50194.96
314.5835, 50208.56
315.0656, 50191.16
315.5478, 50186.23
316.0299, 50230.39
316.5120, 50364.60
316.9941, 50482.14
317.4762, 50530.14
317.9583, 50531.95
318.4405, 50538.09
318.9226, 50561.45
319.4047, 50595.36
319.8868, 50636.55
320.3689, 50684.12
320.8510, 50740.12
321.3332, 50820.28
321.8153, 50907.07
322.2974, 50971.34
322.7795, 50997.11
323.2616, 51008.53
323.7437, 51003.21
324.2259, 50958.00
324.7080, 50966.27
325.1901, 51093.32
325.6722, 51264.79
326.1543, 51377.46
326.6364, 51375.77
327.1186, 51365.58
327.6007, 51363.05
328.0828, 51362.71
328.5649, 51396.75
329.0470, 51495.54
329.5291, 51612.89
330.0113, 51700.04
330.4934, 51738.85
330.9755, 51774.72
331.4576, 51823.35
331.9397, 51886.38
332.4218, 51906.65
332.9040, 51844.07
333.3861, 51779.31
333.8682, 51785.07
334.3503, 51882.82
334.8324, 52006.51
335.3145, 52173.03
335.7967, 52367.46
336.2788, 52444.30
336.7609, 52354.17
337.2430, 52243.59
337.7251, 52228.70
338.2072, 52327.27
338.6894, 52432.07
339.1715, 52536.50
339.6536, 52636.11
340.1357, 52710.86
340.6178, 52757.44
341.0999, 52796.40
341.5821, 52845.25
342.0642, 52903.22
342.5463, 52941.08
343.0284, 52948.46
343.5105, 52945.94
343.9926, 52976.78
344.4748, 53040.99
344.9569, 53109.83
345.4390, 53156.78
345.9211, 53191.29
346.4032, 53268.45
346.8853, 53402.11
347.3675, 53538.84
347.8496, 53594.91
348.3317, 53582.96
348.8138, 53568.45
349.2959, 53568.06
349.7780, 53589.69
350.2602, 53667.93
350.7423, 53810.02
351.2244, 53939.62
351.7065, 53949.52
352.1887, 53889.72
352.6708, 53872.99
353.1529, 53994.48
353.6350, 54154.35
354.1171, 54236.05
354.5992, 54244.27
355.0814, 54254.84
355.5635, 54338.40
356.0456, 54451.69
356.5277, 54537.19
357.0098, 54540.38
357.4919, 54546.51
357.9741, 54631.50
358.4562, 54776.70
358.9383, 54892.69
359.4204, 54903.78
359.9025, 54882.75
360.3846, 54886.63
360.8668, 54929.32
361.3489, 54997.14
361.8310, 55109.77
362.3131, 55245.77
362.7952, 55349.27
363.2773, 55362.91
363.7595, 55370.08
364.2416, 55413.25
364.7237, 55516.27
365.2058, 55611.56
365.6879, 55684.36
366.1700, 55743.13
366.6522, 55801.00
367.1343, 55860.63
367.6164, 55918.07
368.0985, 55969.16
368.5806, 56008.41
369.0627, 56065.91
369.5449, 56167.25
370.0270, 56271.73
370.5091, 56335.47
370.9912, 56316.25
371.4733, 56324.13
371.9554, 56382.11
372.4376, 56489.28
372.9197, 56614.47
373.4018, 56778.66
373.8839, 56928.33
374.3660, 57013.59
374.8481, 57012.55
375.3303, 57026.16
375.8124, 57064.96
376.2945, 57128.47
376.7766, 57228.61
377.2587, 57377.11
377.7408, 57510.46
378.2230, 57571.32
378.7051, 57560.74
379.1872, 57600.15
379.6693, 57707.42
380.1514, 57850.89
380.6335, 57980.96
381.1157, 58098.68
381.5978, 58203.02
382.0799, 58286.23
382.5620, 58355.58
383.0441, 58430.21
383.5262, 58510.40
384.0084, 58602.34
384.4905, 58730.30
384.9726, 58879.50
385.4547, 59004.46
385.9368, 59069.01
386.4189, 59112.61
386.9011, 59182.79
387.3832, 59279.36
387.8653, 59390.35
388.3474, 59510.88
388.8295, 59639.97
389.3116, 59776.99
389.7938, 59936.09
390.2759, 60082.04
390.7580, 60183.95
391.2401, 60251.54
391.7222, 60322.39
392.2043, 60407.05
392.6865, 60505.19
393.1686, 60618.75
393.6507, 60748.70
394.1328, 60888.43
394.6149, 61051.71
395.0970, 61221.35
395.5792, 61367.15
396.0613, 61460.20
396.5434, 61548.15
397.0255, 61652.65
397.5076, 61782.29
397.9897, 61890.15
398.4719, 61961.37
398.9540, 62015.01
399.4361, 62067.44
399.9182, 62093.59
400.4003, 62153.59
400.8824, 62271.89
401.3646, 62444.50
401.8467, 62583.87
402.3288, 62683.38
402.8109, 62758.78
403.2930, 62813.98
403.7751, 62837.26
404.2573, 62881.68
404.7394, 62954.72
405.2215, 63050.20
405.7036, 63157.09
406.1857, 63279.68
406.6678, 63388.68
407.1500, 63479.80
407.6321, 63551.22
408.1142, 63548.98
408.5963, 63455.07
409.0784, 63341.92
409.5605, 63302.32
410.0427, 63331.71
410.5248, 63393.07
411.0069, 63488.87
411.4890, 63601.75
411.9711, 63692.77
412.4532, 63762.66
412.9354, 63826.36
413.4175, 63910.56
413.8996, 63993.99
414.3817, 64034.52
414.8638, 63998.18
415.3459, 63946.23
415.8281, 63942.49
416.3102, 63972.32
416.7923, 63985.80
417.2744, 63921.67
417.7565, 63850.13
418.2386, 63832.02
418.7208, 63891.48
419.2029, 63955.12
419.6850, 63991.25
420.1671, 64012.39
420.6492, 64038.01
421.1313, 64094.59
421.6135, 64136.36
422.0956, 64144.42
422.5777, 64115.09
423.0598, 64083.91
423.5420, 64057.79
424.0241, 64029.85
424.5062, 63993.26
424.9883, 63915.40
425.4704, 63876.20
425.9525, 63905.30
426.4347, 63981.04
426.9168, 64004.61
427.3989, 63950.13
427.8810, 63885.25
428.3631, 63840.74
428.8452, 63817.56
429.3274, 63817.71
429.8095, 63858.11
430.2916, 63898.64
430.7737, 63859.11
431.2558, 63730.21
431.7379, 63620.63
432.2201, 63576.49
432.7022, 63585.50
433.1843, 63596.90
433.6664, 63612.73
434.1485, 63609.62
434.6306, 63543.59
435.1128, 63436.70
435.5949, 63367.07
436.0770, 63368.32
436.5591, 63392.39
437.0412, 63372.24
437.5233, 63316.44
438.0055, 63261.11
438.4876, 63231.14
438.9697, 63211.63
439.4518, 63187.66
439.9339, 63157.35
440.4160, 63122.17
440.8982, 63084.63
441.3803, 63042.60
441.8624, 62992.32
442.3445, 62890.50
442.8266, 62818.41
443.3087, 62839.88
443.7909, 62952.84
444.2730, 63011.38
444.7551, 62940.55
445.2372, 62829.90
445.7193, 62738.02
446.2014, 62687.63
446.6836, 62634.58
447.1657, 62561.80
447.6478, 62485.54
448.1299, 62451.64
448.6120, 62483.75
449.0941, 62524.76
449.5763, 62561.38
450.0584, 62600.05
450.5405, 62586.95
451.0226, 62499.49
451.5047, 62396.19
451.9868, 62350.12
452.4690, 62368.89
452.9511, 62382.82
453.4332, 62374.64
453.9153, 62350.08
454.3974, 62324.96
454.8795, 62298.89
455.3617, 62277.73
455.8438, 62274.70
456.3259, 62280.37
456.8080, 62258.81
457.2901, 62196.72
457.7722, 62138.07
458.2544, 62157.09
458.7365, 62222.54
459.2186, 62253.44
459.7007, 62167.05
460.1828, 62058.00
460.6649, 62014.38
461.1471, 62037.86
461.6292, 62074.04
462.1113, 62120.18
462.5934, 62152.50
463.0755, 62147.65
463.5576, 62050.72
464.0398, 61976.85
464.5219, 61980.41
465.0040, 62034.58
465.4861, 62061.16
465.9682, 62022.29
466.4503, 61976.54
466.9325, 61947.60
467.4146, 61947.36
467.8967, 61922.03
468.3788, 61842.29
468.8609, 61760.14
469.3430, 61739.64
469.8252, 61812.36
470.3073, 61864.83
470.7894, 61870.96
471.2715, 61840.86
471.7536, 61823.36
472.2357, 61821.39
472.7179, 61818.68
473.2000, 61792.01
473.6821, 61747.13
474.1642, 61754.73
474.6463, 61833.09
475.1284, 61921.42
475.6106, 61921.94
476.0927, 61855.46
476.5748, 61808.68
477.0569, 61825.23
477.5390, 61878.14
478.0211, 61946.67
478.5033, 62027.87
478.9854, 62087.38
479.4675, 62072.19
479.9496, 62036.35
480.4317, 62041.96
480.9138, 62137.13
481.3960, 62208.44
481.8781, 62169.04
482.3602, 62072.07
482.8423, 62024.20
483.3244, 62113.93
483.8065, 62201.75
484.2887, 62229.91
484.7708, 62182.54
485.2529, 62163.04
485.7350, 62196.55
486.2171, 62242.28
486.6992, 62267.29
487.1814, 62249.87
487.6635, 62256.76
488.1456, 62300.77
488.6277, 62370.34
489.1098, 62435.30
489.5919, 62498.00
490.0741, 62549.09
490.5562, 62585.07
491.0383, 62606.10
491.5204, 62607.32
492.0026, 62584.03
492.4847, 62564.86
492.9668, 62585.38
493.4489, 62637.42
493.9310, 62693.03
494.4131, 62748.64
494.8953, 62798.06
495.3774, 62816.22
495.8595, 62814.80
496.3416, 62841.44
496.8237, 62959.95
497.3058, 63097.43
497.7880, 63191.40
498.2701, 63230.60
498.7522, 63245.29
499.2343, 63217.69
499.7164, 63185.13
500.1985, 63189.05
500.6807, 63305.21
501.1628, 63388.45
501.6449, 63362.05
502.1270, 63253.20
502.6091, 63252.09
503.0912, 63477.06
503.5734, 63689.46
504.0555, 63776.50
504.5376, 63683.91
505.0197, 63660.21
505.5018, 63733.61
505.9839, 63840.87
506.4661, 63897.05
506.9482, 63895.65
507.4303, 63892.55
507.9124, 63898.47
508.3945, 63914.14
508.8766, 63947.11
509.3588, 63997.15
509.8409, 64043.02
510.3230, 64052.92
510.8051, 64050.36
511.2872, 64099.84
511.7693, 64218.49
512.2515, 64328.56
512.7336, 64342.64
513.2157, 64303.30
513.6978, 64282.15
514.1799, 64335.36
514.6620, 64389.86
515.1442, 64391.29
515.6263, 64351.74
516.1084, 64338.27
516.5905, 64390.39
517.0726, 64461.53
517.5547, 64528.16
518.0369, 64590.42
518.5190, 64643.98
519.0011, 64705.92
519.4832, 64750.54
519.9653, 64736.72
520.4474, 64604.50
520.9296, 64541.10
521.4117, 64605.52
521.8938, 64766.07
522.3759, 64855.52
522.8580, 64858.59
523.3401, 64855.79
523.8223, 64910.24
524.3044, 65010.77
524.7865, 65062.43
525.2686, 65053.45
525.7507, 65027.79
526.2328, 65048.41
526.7150, 65094.88
527.1971, 65107.05
527.6792, 65024.94
528.1613, 64939.06
528.6434, 64951.60
529.1255, 65042.16
529.6077, 65128.29
530.0898, 65169.36
530.5719, 65189.16
531.0540, 65198.30
531.5361, 65191.24
532.0182, 65202.63
532.5004, 65253.94
532.9825, 65322.64
533.4646, 65384.38
533.9467, 65433.13
534.4288, 65480.98
534.9109, 65529.16
535.3931, 65577.46
535.8752, 65624.05
536.3573, 65663.15
536.8394, 65712.74
537.3215, 65644.54
537.8036, 65822.77
538.2858, 65928.27
538.7679, 65964.95
539.2500, 65726.68
539.7321, 65843.45
540.2142, 65817.95
540.6964, 65786.60
541.1785, 65953.34
541.6606, 65755.08
542.1427, 65918.68
542.6248, 65937.83
543.1069, 65771.35
543.5891, 65836.94
544.0712, 65966.88
544.5533, 66069.63
545.0354, 66138.71
545.5175, 66197.19
545.9996, 66253.44
546.4818, 66303.73
546.9639, 66344.83
547.4460, 66392.38
547.9281, 66408.45
548.4102, 66354.90
548.8923, 66276.82
549.3745, 66260.49
549.8566, 66330.30
550.3387, 66418.36
550.8208, 66515.70
551.3029, 66619.70
551.7850, 66689.27
552.2672, 66723.40
552.7493, 66729.55
553.2314, 66695.67
553.7135, 66631.38
554.1956, 66599.44
554.6777, 66607.20
555.1599, 66645.55
555.6420, 66723.91
556.1241, 66824.69
556.6062, 66903.75
557.0883, 66922.13
557.5704, 66928.17
558.0526, 66967.04
558.5347, 67030.27
559.0168, 67079.22
559.4989, 67075.25
559.9810, 67066.59
560.4631, 67080.55
560.9453, 67124.37
561.4274, 67176.89
561.9095, 67247.27
562.3916, 67318.36
562.8737, 67375.10
563.3558, 67416.85
563.8380, 67440.55
564.3201, 67431.30
564.8022, 67410.00
565.2843, 67450.26
565.7664, 67566.83
566.2485, 67663.57
566.7307, 67686.92
567.2128, 67651.76
567.6949, 67631.05
568.1770, 67625.09
568.6591, 67623.55
569.1412, 67604.74
569.6234, 67586.51
570.1055, 67605.12
570.5876, 67678.69
571.0697, 67762.55
571.5518, 67833.55
572.0339, 67890.50
572.5161, 67930.01
572.9982, 67941.64
573.4803, 67944.78
573.9624, 67932.26
574.4445, 67907.98
574.9266, 67924.00
575.4088, 68020.66
575.8909, 68122.73
576.3730, 68198.45
576.8551, 68246.03
577.3372, 68268.11
577.8193, 68248.87
578.3015, 68228.58
578.7836, 68267.02
579.2657, 68366.84
579.7478, 68436.70
580.2299, 68450.37
580.7120, 68434.72
581.1942, 68441.36
581.6763, 68465.74
582.1584, 68482.99
582.6405, 68455.10
583.1226, 68426.29
583.6047, 68460.33
584.0869, 68556.56
584.5690, 68642.45
585.0511, 68656.09
585.5332, 68654.57
586.0153, 68687.35
586.4974, 68791.62
586.9796, 68876.54
587.4617, 68922.41
587.9438, 68941.03
588.4259, 68947.61
588.9080, 68919.02
589.3901, 68918.23
589.8723, 68965.43
590.3544, 69049.37
590.8365, 69113.82
591.3186, 69155.47
591.8007, 69196.27
592.2828, 69251.79
592.7650, 69318.02
593.2471, 69375.07
593.7292, 69423.09
594.2113, 69457.58
594.6934, 69464.98
595.1755, 69458.33
595.6577, 69461.16
596.1398, 69482.17
596.6219, 69507.07
597.1040, 69515.23
597.5862, 69521.87
598.0683, 69554.97
598.5504, 69662.09
599.0325, 69758.41
599.5146, 69810.27
599.9968, 69819.60
600.4789, 69834.70
600.9610, 69879.34
601.4431, 69900.22
601.9252, 69853.20
602.4073, 69712.73
602.8895, 69679.48
603.3716, 69781.68
603.8537, 69920.90
604.3358, 69988.97
604.8179, 69993.45
605.3000, 70004.77
605.7822, 70041.26
606.2643, 70081.22
606.7464, 70075.41
607.2285, 70047.07
607.7106, 70061.54
608.1927, 70210.89
608.6749, 70366.91
609.1570, 70424.95
609.6391, 70394.55
610.1212, 70368.01
610.6033, 70379.84
611.0854, 70402.69
611.5676, 70421.86
612.0497, 70433.61
612.5318, 70449.88
613.0139, 70468.34
613.4960, 70493.66
613.9781, 70525.21
614.4603, 70556.61
614.9424, 70635.13
615.4245, 70793.17
615.9066, 70962.49
616.3887, 70988.92
616.8708, 70885.71
617.3530, 70796.37
617.8351, 70790.83
618.3172, 70833.22
618.7993, 70880.84
619.2814, 70932.62
619.7635, 70982.58
620.2457, 71030.14
620.7278, 71072.41
621.2099, 71102.27
621.6920, 71113.36
622.1741, 71140.77
622.6563, 71216.77
623.1384, 71300.09
623.6205, 71353.48
624.1026, 71361.39
624.5847, 71365.80
625.0668, 71369.40
625.5490, 71370.38
626.0311, 71356.91
626.5132, 71322.76
626.9953, 71320.52
627.4774, 71371.55
627.9595, 71463.70
628.4417, 71595.37
628.9238, 71758.39
629.4059, 71859.09
629.8880, 71762.02
630.3701, 71607.88
630.8522, 71582.95
631.3344, 71706.66
631.8165, 71831.80
632.2986, 71873.98
632.7807, 71885.78
633.2628, 71911.83
633.7449, 71967.21
634.2271, 72026.52
634.7092, 72109.47
635.1913, 72185.26
635.6734, 72206.65
636.1555, 72150.50
636.6376, 72095.68
637.1198, 72047.67
637.6019, 72017.41
638.0840, 72052.09
638.5661, 72153.07
639.0482, 72238.98
639.5303, 72231.19
640.0125, 72186.07
640.4946, 72249.80
640.9767, 72415.38
641.4588, 72544.15
641.9409, 72480.51
642.4230, 72364.15
642.9052, 72339.10
643.3873, 72463.36
643.8694, 72559.84
644.3515, 72523.69
644.8336, 72455.46
645.3157, 72470.05
645.7979, 72661.73
646.2800, 72780.49
646.7621, 72769.16
647.2442, 72695.19
647.7263, 72726.16
648.2084, 72886.23
648.6906, 72995.78
649.1727, 72963.84
649.6548, 72853.18
650.1369, 72836.63
650.6190, 72906.43
651.1011, 72992.91
651.5833, 73060.84
652.0654, 73114.16
652.5475, 73152.01
653.0296, 73173.80
653.5117, 73201.80
653.9938, 73266.67
654.4760, 73330.17
654.9581, 73359.83
655.4402, 73322.72
655.9223, 73301.91
656.4044, 73313.98
656.8865, 73335.06
657.3687, 73328.58
657.8508, 73277.80
658.3329, 73266.59
658.8150, 73325.41
659.2971, 73414.52
659.7792, 73433.95
660.2614, 73390.27
660.7435, 73356.45
661.2256, 73377.77
661.7077, 73423.07
662.1898, 73448.76
662.6719, 73457.96
663.1541, 73469.69
663.6362, 73490.79
664.1183, 73521.04
664.6004, 73566.18
665.0825, 73633.11
665.5646, 73679.00
666.0468, 73694.05
666.5289, 73687.38
667.0110, 73654.41
667.4931, 73559.74
667.9752, 73552.02
