##NAMES=Dalyite
##RRUFFID=R070415
##IDEAL CHEMISTRY=K_2_Zr^4+^Si_6_O_15_
##LOCALITY=Murunskyi Massif, Chara River (Charo River), Davan, Torgo River Basin, Aldan Shield, Saha Republic (Sakha Republic; Yakutia), Eastern-Siberian Region, Russia
##OWNER=RRUFF
##SOURCE=Michael Scott
##DESCRIPTION=Lavender grains in quartz
##STATUS=The identification of this mineral has been confirmed only by single crystal X-ray diffraction.
##URL=rruff.info/R070415
150.6261, 4226.395
151.1082, 4317.082
151.5903, 4418.595
152.0724, 4534.861
152.5545, 4651.511
153.0366, 4768.999
153.5188, 4885.597
154.0009, 4997.426
154.4830, 5094.112
154.9651, 5194.349
155.4472, 5308.611
155.9293, 5453.204
156.4115, 5589.074
156.8936, 5714.497
157.3757, 5827.047
157.8578, 5920.652
158.3399, 5985.698
158.8221, 6035.561
159.3042, 6079.708
159.7863, 6130.391
160.2684, 6165.812
160.7505, 6178.720
161.2326, 6169.937
161.7148, 6144.476
162.1969, 6102.340
162.6790, 6045.129
163.1611, 5975.083
163.6432, 5877.917
164.1253, 5779.450
164.6075, 5694.829
165.0896, 5624.650
165.5717, 5554.853
166.0538, 5475.395
166.5359, 5391.708
167.0180, 5311.419
167.5002, 5231.841
167.9823, 5159.741
168.4644, 5103.141
168.9465, 5064.482
169.4286, 5028.418
169.9107, 4980.976
170.3929, 4927.936
170.8750, 4880.229
171.3571, 4848.264
171.8392, 4822.948
172.3213, 4794.860
172.8034, 4762.854
173.2856, 4728.939
173.7677, 4691.176
174.2498, 4651.817
174.7319, 4619.209
175.2140, 4608.260
175.6961, 4604.948
176.1783, 4584.732
176.6604, 4535.390
177.1425, 4482.350
177.6246, 4461.599
178.1067, 4468.984
178.5888, 4476.155
179.0710, 4460.146
179.5531, 4428.892
180.0352, 4399.962
180.5173, 4378.599
180.9994, 4360.711
181.4815, 4337.545
181.9637, 4309.240
182.4458, 4286.508
182.9279, 4285.080
183.4100, 4298.555
183.8921, 4302.077
184.3742, 4282.702
184.8564, 4251.380
185.3385, 4235.506
185.8206, 4235.889
186.3027, 4240.236
186.7848, 4235.020
187.2669, 4221.662
187.7491, 4210.823
188.2312, 4206.197
188.7133, 4206.970
189.1954, 4212.444
189.6775, 4224.076
190.1596, 4233.671
190.6418, 4229.062
191.1239, 4210.585
191.6060, 4192.084
192.0881, 4178.363
192.5702, 4169.235
193.0524, 4162.666
193.5345, 4158.156
194.0166, 4157.484
194.4987, 4166.877
194.9808, 4187.311
195.4629, 4203.104
195.9451, 4202.911
196.4272, 4187.191
196.9093, 4181.346
197.3914, 4188.473
197.8735, 4201.863
198.3556, 4209.588
198.8378, 4211.332
199.3199, 4209.424
199.8020, 4201.843
200.2841, 4187.625
200.7662, 4184.305
201.2483, 4196.083
201.7305, 4216.386
202.2126, 4228.965
202.6947, 4232.495
203.1768, 4233.251
203.6589, 4234.786
204.1410, 4237.279
204.6232, 4238.108
205.1053, 4233.862
205.5874, 4229.182
206.0695, 4243.267
206.5516, 4283.550
207.0337, 4323.083
207.5159, 4339.438
207.9980, 4324.839
208.4801, 4323.473
208.9622, 4344.633
209.4443, 4383.054
209.9264, 4413.084
210.4086, 4433.242
210.8907, 4448.034
211.3728, 4458.232
211.8549, 4459.776
212.3370, 4471.410
212.8191, 4498.539
213.3013, 4538.973
213.7834, 4577.084
214.2655, 4613.771
214.7476, 4646.810
215.2297, 4672.168
215.7118, 4685.346
216.1940, 4704.223
216.6761, 4732.988
217.1582, 4771.287
217.6403, 4809.234
218.1224, 4846.622
218.6045, 4883.348
219.0867, 4919.867
219.5688, 4957.516
220.0509, 4990.734
220.5330, 5014.861
221.0151, 5029.791
221.4972, 5057.665
221.9794, 5109.316
222.4615, 5162.097
222.9436, 5189.966
223.4257, 5178.807
223.9078, 5172.146
224.3899, 5182.514
224.8721, 5212.191
225.3542, 5230.151
225.8363, 5231.898
226.3184, 5226.361
226.8005, 5223.744
227.2827, 5224.449
227.7648, 5227.563
228.2469, 5234.579
228.7290, 5246.955
229.2111, 5251.234
229.6932, 5243.311
230.1754, 5230.575
230.6575, 5223.633
231.1396, 5229.439
231.6217, 5228.713
232.1038, 5215.230
232.5859, 5186.766
233.0681, 5156.876
233.5502, 5122.861
234.0323, 5089.467
234.5144, 5064.686
234.9965, 5057.559
235.4786, 5043.831
235.9608, 5013.331
236.4429, 4960.614
236.9250, 4918.701
237.4071, 4892.081
237.8892, 4873.810
238.3713, 4853.533
238.8535, 4832.289
239.3356, 4807.157
239.8177, 4775.247
240.2998, 4732.177
240.7819, 4699.329
241.2640, 4679.470
241.7462, 4667.686
242.2283, 4655.912
242.7104, 4645.511
243.1925, 4632.739
243.6746, 4614.097
244.1567, 4583.700
244.6389, 4568.897
245.1210, 4578.708
245.6031, 4598.728
246.0852, 4601.319
246.5673, 4572.110
247.0494, 4550.088
247.5316, 4551.979
248.0137, 4588.648
248.4958, 4611.963
248.9779, 4616.515
249.4600, 4610.601
249.9421, 4608.629
250.4243, 4609.388
250.9064, 4616.251
251.3885, 4632.373
251.8706, 4662.916
252.3527, 4684.699
252.8348, 4692.038
253.3170, 4694.099
253.7991, 4709.272
254.2812, 4743.544
254.7633, 4779.081
255.2454, 4808.068
255.7275, 4826.151
256.2097, 4853.457
256.6918, 4892.952
257.1739, 4939.310
257.6560, 4983.414
258.1381, 5024.855
258.6202, 5065.025
259.1024, 5104.024
259.5845, 5140.023
260.0666, 5181.532
260.5487, 5231.854
261.0308, 5285.091
261.5129, 5332.095
261.9951, 5370.183
262.4772, 5407.513
262.9593, 5447.559
263.4414, 5492.322
263.9235, 5532.585
264.4056, 5570.730
264.8878, 5602.557
265.3699, 5620.121
265.8520, 5619.823
266.3341, 5615.981
266.8162, 5615.104
267.2983, 5618.911
267.7805, 5614.005
268.2626, 5598.032
268.7447, 5575.961
269.2268, 5556.243
269.7089, 5539.607
270.1910, 5522.816
270.6732, 5505.290
271.1553, 5487.500
271.6374, 5465.217
272.1195, 5438.903
272.6016, 5407.348
273.0837, 5369.689
273.5659, 5325.751
274.0480, 5275.907
274.5301, 5216.928
275.0122, 5148.524
275.4943, 5088.974
275.9764, 5041.828
276.4586, 4996.857
276.9407, 4933.398
277.4228, 4848.818
277.9049, 4775.285
278.3870, 4728.764
278.8691, 4708.127
279.3513, 4689.081
279.8334, 4673.093
280.3155, 4654.920
280.7976, 4624.301
281.2798, 4580.796
281.7619, 4541.373
282.2440, 4514.141
282.7261, 4497.374
283.2082, 4476.498
283.6903, 4449.856
284.1725, 4425.205
284.6546, 4417.358
285.1367, 4425.431
285.6188, 4423.561
286.1009, 4393.963
286.5830, 4346.188
287.0652, 4324.805
287.5473, 4333.096
288.0294, 4349.311
288.5115, 4347.734
288.9936, 4330.782
289.4757, 4318.827
289.9579, 4322.893
290.4400, 4335.756
290.9221, 4336.284
291.4042, 4323.762
291.8863, 4307.812
292.3684, 4296.136
292.8506, 4288.739
293.3327, 4285.647
293.8148, 4289.303
294.2969, 4295.835
294.7790, 4296.227
295.2611, 4290.467
295.7433, 4286.102
296.2254, 4292.175
296.7075, 4305.169
297.1896, 4314.806
297.6717, 4316.752
298.1538, 4315.256
298.6360, 4315.058
299.1181, 4316.350
299.6002, 4321.402
300.0823, 4331.042
300.5644, 4345.825
301.0465, 4368.041
301.5287, 4403.927
302.0108, 4440.363
302.4929, 4462.175
302.9750, 4470.785
303.4571, 4473.125
303.9392, 4468.612
304.4214, 4462.320
304.9035, 4461.058
305.3856, 4467.045
305.8677, 4477.583
306.3498, 4487.977
306.8319, 4500.125
307.3141, 4521.172
307.7962, 4564.146
308.2783, 4613.662
308.7604, 4655.643
309.2425, 4686.239
309.7246, 4709.217
310.2068, 4719.670
310.6889, 4723.520
311.1710, 4736.195
311.6531, 4766.708
312.1352, 4807.955
312.6173, 4855.604
313.0995, 4909.844
313.5816, 4966.223
314.0637, 5028.452
314.5458, 5091.297
315.0279, 5145.468
315.5100, 5174.539
315.9922, 5203.692
316.4743, 5247.041
316.9564, 5308.669
317.4385, 5374.297
317.9206, 5437.967
318.4027, 5503.102
318.8849, 5574.487
319.3670, 5661.922
319.8491, 5748.336
320.3312, 5826.143
320.8133, 5893.350
321.2954, 5962.412
321.7776, 6035.561
322.2597, 6112.304
322.7418, 6192.116
323.2239, 6275.182
323.7060, 6361.049
324.1881, 6452.152
324.6703, 6549.457
325.1524, 6640.286
325.6345, 6724.663
326.1166, 6800.706
326.5987, 6867.581
327.0808, 6917.200
327.5630, 6967.159
328.0451, 7021.095
328.5272, 7078.576
329.0093, 7131.366
329.4914, 7187.741
329.9735, 7230.855
330.4557, 7248.374
330.9378, 7227.599
331.4199, 7203.166
331.9020, 7178.142
332.3841, 7151.529
332.8662, 7118.751
333.3484, 7081.422
333.8305, 7035.958
334.3126, 6978.181
334.7947, 6903.839
335.2768, 6832.156
335.7589, 6764.612
336.2411, 6700.095
336.7232, 6633.424
337.2053, 6563.831
337.6874, 6495.708
338.1695, 6429.933
338.6516, 6366.892
339.1338, 6308.340
339.6159, 6256.180
340.0980, 6206.350
340.5801, 6151.100
341.0622, 6088.479
341.5443, 6032.521
342.0265, 5988.903
342.5086, 5957.042
342.9907, 5928.979
343.4728, 5905.741
343.9549, 5883.206
344.4370, 5858.745
344.9192, 5832.036
345.4013, 5797.763
345.8834, 5749.900
346.3655, 5694.701
346.8476, 5652.321
347.3297, 5623.307
347.8119, 5595.764
348.2940, 5559.530
348.7761, 5516.073
349.2582, 5470.079
349.7403, 5418.427
350.2225, 5368.220
350.7046, 5328.079
351.1867, 5297.614
351.6688, 5276.642
352.1509, 5272.162
352.6331, 5275.162
353.1152, 5272.171
353.5973, 5259.586
354.0794, 5241.471
354.5615, 5217.664
355.0436, 5190.495
355.5258, 5167.063
356.0079, 5155.557
356.4900, 5147.116
356.9721, 5133.100
357.4542, 5110.123
357.9363, 5088.573
358.4185, 5072.515
358.9006, 5062.011
359.3827, 5057.161
359.8648, 5062.156
360.3469, 5069.529
360.8290, 5074.329
361.3112, 5075.190
361.7933, 5080.741
362.2754, 5100.709
362.7575, 5124.202
363.2396, 5139.438
363.7217, 5127.075
364.2039, 5122.673
364.6860, 5138.878
365.1681, 5176.190
365.6502, 5211.031
366.1323, 5236.631
366.6144, 5261.627
367.0966, 5292.101
367.5787, 5331.176
368.0608, 5371.684
368.5429, 5411.354
369.0250, 5451.725
369.5071, 5500.298
369.9893, 5566.009
370.4714, 5629.301
370.9535, 5677.745
371.4356, 5692.819
371.9177, 5736.071
372.3998, 5821.030
372.8820, 5928.413
373.3641, 6012.140
373.8462, 6061.927
374.3283, 6114.145
374.8104, 6181.413
375.2925, 6264.813
375.7747, 6360.694
376.2568, 6475.068
376.7389, 6591.622
377.2210, 6687.564
377.7031, 6762.169
378.1852, 6825.639
378.6674, 6876.812
379.1495, 6919.700
379.6316, 6979.237
380.1137, 7057.442
380.5958, 7129.491
381.0779, 7171.432
381.5601, 7186.595
382.0422, 7189.352
382.5243, 7184.541
383.0064, 7167.185
383.4885, 7122.750
383.9706, 7053.989
384.4528, 6984.336
384.9349, 6927.272
385.4170, 6879.856
385.8991, 6835.150
386.3812, 6790.529
386.8633, 6752.375
387.3455, 6728.874
387.8276, 6716.444
388.3097, 6706.570
388.7918, 6690.378
389.2739, 6678.154
389.7560, 6678.613
390.2382, 6692.860
390.7203, 6714.452
391.2024, 6754.258
391.6845, 6794.570
392.1666, 6815.368
392.6487, 6801.149
393.1309, 6774.050
393.6130, 6742.373
394.0951, 6705.848
394.5772, 6659.979
395.0593, 6598.294
395.5414, 6530.215
396.0236, 6462.184
396.5057, 6396.162
396.9878, 6328.614
397.4699, 6259.262
397.9520, 6188.406
398.4341, 6117.508
398.9163, 6040.839
399.3984, 5970.131
399.8805, 5909.526
400.3626, 5860.015
400.8447, 5818.007
401.3268, 5785.323
401.8090, 5758.854
402.2911, 5733.785
402.7732, 5710.125
403.2553, 5688.921
403.7374, 5673.381
404.2195, 5662.540
404.7017, 5636.552
405.1838, 5591.097
405.6659, 5541.744
406.1480, 5507.109
406.6301, 5487.508
407.1122, 5451.553
407.5944, 5389.560
408.0765, 5311.903
408.5586, 5241.134
409.0407, 5176.951
409.5228, 5121.217
410.0049, 5080.288
410.4871, 5049.416
410.9692, 5013.352
411.4513, 4968.904
411.9334, 4925.587
412.4155, 4894.954
412.8976, 4873.796
413.3798, 4853.940
413.8619, 4831.866
414.3440, 4808.619
414.8261, 4782.560
415.3082, 4753.688
415.7903, 4730.827
416.2725, 4720.332
416.7546, 4718.579
417.2367, 4721.678
417.7188, 4736.435
418.2009, 4746.936
418.6830, 4742.767
419.1652, 4727.423
419.6473, 4713.876
420.1294, 4702.851
420.6115, 4697.316
421.0937, 4699.374
421.5758, 4712.227
422.0579, 4726.357
422.5400, 4744.628
423.0221, 4762.637
423.5042, 4773.344
423.9864, 4765.630
424.4685, 4762.759
424.9506, 4770.958
425.4327, 4790.989
425.9148, 4810.151
426.3969, 4822.856
426.8791, 4841.024
427.3612, 4878.437
427.8433, 4945.415
428.3254, 4997.397
428.8075, 5021.648
429.2896, 5029.086
429.7718, 5059.330
430.2539, 5116.797
430.7360, 5173.715
431.2181, 5207.339
431.7002, 5220.309
432.1823, 5255.020
432.6645, 5318.082
433.1466, 5388.041
433.6287, 5431.577
434.1108, 5453.756
434.5929, 5479.831
435.0750, 5515.918
435.5572, 5563.995
436.0393, 5635.566
436.5214, 5729.315
437.0035, 5817.593
437.4856, 5873.040
437.9677, 5910.504
438.4499, 5950.284
438.9320, 5999.354
439.4141, 6048.817
439.8962, 6092.162
440.3783, 6130.746
440.8604, 6169.350
441.3426, 6218.335
441.8247, 6261.128
442.3068, 6290.651
442.7889, 6307.843
443.2710, 6303.310
443.7531, 6264.677
444.2353, 6206.889
444.7174, 6145.782
445.1995, 6083.774
445.6816, 6019.144
446.1637, 5950.060
446.6458, 5877.618
447.1280, 5806.722
447.6101, 5738.707
448.0922, 5670.474
448.5743, 5598.686
449.0564, 5513.575
449.5385, 5450.203
450.0207, 5414.395
450.5028, 5396.262
450.9849, 5379.167
451.4670, 5363.572
451.9491, 5347.337
452.4312, 5328.146
452.9134, 5307.084
453.3955, 5292.846
453.8776, 5286.104
454.3597, 5281.624
454.8418, 5273.704
455.3239, 5263.533
455.8061, 5256.560
456.2882, 5254.652
456.7703, 5255.347
457.2524, 5253.854
457.7345, 5251.399
458.2166, 5253.039
458.6988, 5266.801
459.1809, 5283.726
459.6630, 5293.681
460.1451, 5295.166
460.6272, 5293.887
461.1093, 5296.628
461.5915, 5297.770
462.0736, 5290.203
462.5557, 5257.638
463.0378, 5229.634
463.5199, 5220.116
464.0020, 5226.855
464.4842, 5231.823
464.9663, 5243.971
465.4484, 5243.952
465.9305, 5219.729
466.4126, 5146.904
466.8947, 5091.823
467.3769, 5060.976
467.8590, 5045.122
468.3411, 5029.260
468.8232, 5012.639
469.3053, 4998.016
469.7874, 4988.378
470.2696, 4982.925
470.7517, 4961.962
471.2338, 4918.235
471.7159, 4881.408
472.1980, 4887.318
472.6801, 4934.544
473.1623, 4958.190
473.6444, 4945.071
474.1265, 4912.867
474.6086, 4886.275
475.0907, 4865.706
475.5728, 4853.782
476.0550, 4857.542
476.5371, 4868.893
477.0192, 4874.821
477.5013, 4874.883
477.9834, 4873.091
478.4655, 4875.545
478.9477, 4877.047
479.4298, 4869.745
479.9119, 4836.888
480.3940, 4812.818
480.8761, 4823.093
481.3582, 4857.405
481.8404, 4886.110
482.3225, 4899.713
482.8046, 4905.367
483.2867, 4905.058
483.7688, 4896.694
484.2509, 4890.251
484.7331, 4886.912
485.2152, 4885.718
485.6973, 4885.732
486.1794, 4886.523
486.6615, 4889.158
487.1436, 4893.100
487.6258, 4898.963
488.1079, 4910.460
488.5900, 4929.182
489.0721, 4948.993
489.5542, 4968.999
490.0363, 4989.403
490.5185, 4997.375
491.0006, 4990.314
491.4827, 4978.158
491.9648, 4972.140
492.4470, 4971.900
492.9291, 4975.760
493.4112, 4982.725
493.8933, 4993.785
494.3754, 5011.851
494.8575, 5036.229
495.3397, 5061.453
495.8218, 5086.129
496.3039, 5109.109
496.7860, 5128.047
497.2681, 5141.649
497.7502, 5156.237
498.2324, 5175.279
498.7145, 5197.389
499.1966, 5221.063
499.6787, 5240.846
500.1608, 5266.970
500.6429, 5309.627
501.1251, 5366.852
501.6072, 5407.125
502.0893, 5397.888
502.5714, 5398.668
503.0535, 5440.848
503.5356, 5550.777
504.0178, 5637.736
504.4999, 5692.541
504.9820, 5731.927
505.4641, 5781.835
505.9462, 5843.654
506.4283, 5906.652
506.9105, 5961.872
507.3926, 6016.842
507.8747, 6105.772
508.3568, 6230.425
508.8389, 6363.944
509.3210, 6484.906
509.8032, 6601.172
510.2853, 6735.641
510.7674, 6891.685
511.2495, 7063.777
511.7316, 7255.266
512.2137, 7458.971
512.6959, 7657.095
513.1780, 7822.063
513.6601, 7997.958
514.1422, 8217.137
514.6243, 8475.599
515.1064, 8743.955
515.5886, 9010.976
516.0707, 9285.310
516.5528, 9571.719
517.0349, 9886.138
517.5170, 10185.77
517.9991, 10449.98
518.4813, 10701.68
518.9634, 10968.13
519.4455, 11254.12
519.9276, 11547.38
520.4097, 11852.38
520.8918, 12161.21
521.3740, 12461.10
521.8561, 12757.12
522.3382, 13027.35
522.8203, 13260.62
523.3024, 13455.09
523.7845, 13616.76
524.2667, 13750.68
524.7488, 13835.09
525.2309, 13855.67
525.7130, 13808.94
526.1951, 13682.24
526.6772, 13447.48
527.1594, 13151.64
527.6415, 12854.57
528.1236, 12549.60
528.6057, 12198.45
529.0878, 11740.77
529.5699, 11257.06
530.0521, 10811.12
530.5342, 10409.18
531.0163, 10035.08
531.4984, 9680.313
531.9805, 9348.282
532.4626, 9040.867
532.9448, 8764.690
533.4269, 8506.427
533.9090, 8266.302
534.3911, 8043.229
534.8732, 7842.220
535.3553, 7662.162
535.8375, 7502.257
536.3196, 7370.013
536.8017, 7265.633
537.2838, 7146.872
537.7659, 7009.223
538.2480, 6868.321
538.7302, 6735.650
539.2123, 6611.487
539.6944, 6507.152
540.1765, 6428.096
540.6586, 6364.193
541.1407, 6305.821
541.6229, 6250.312
542.1050, 6187.313
542.5871, 6103.135
543.0692, 6014.209
543.5513, 5933.884
544.0334, 5863.612
544.5156, 5802.893
544.9977, 5757.801
545.4798, 5718.576
545.9619, 5677.671
546.4440, 5626.227
546.9261, 5584.090
547.4083, 5559.747
547.8904, 5545.226
548.3725, 5526.750
548.8546, 5503.193
549.3367, 5477.262
549.8188, 5448.978
550.3010, 5418.588
550.7831, 5388.776
551.2652, 5359.397
551.7473, 5330.973
552.2294, 5302.563
552.7115, 5274.678
553.1937, 5255.288
553.6758, 5246.408
554.1579, 5240.259
554.6400, 5226.579
555.1221, 5207.677
555.6042, 5190.662
556.0864, 5181.146
556.5685, 5171.222
557.0506, 5151.020
557.5327, 5123.342
558.0148, 5098.921
558.4969, 5084.216
558.9791, 5073.402
559.4612, 5062.573
559.9433, 5050.479
560.4254, 5042.917
560.9075, 5047.139
561.3896, 5052.863
561.8718, 5051.502
562.3539, 5044.125
562.8360, 5026.239
563.3181, 4988.614
563.8002, 4944.689
564.2823, 4931.662
564.7645, 4958.096
565.2466, 4976.980
565.7287, 4964.502
566.2108, 4928.843
566.6929, 4912.949
567.1750, 4917.767
567.6572, 4923.823
568.1393, 4910.635
568.6214, 4887.669
569.1035, 4876.131
569.5856, 4882.024
570.0677, 4887.972
570.5499, 4877.688
571.0320, 4858.308
571.5141, 4841.093
571.9962, 4829.388
572.4783, 4821.391
572.9604, 4817.177
573.4426, 4816.412
573.9247, 4817.407
574.4068, 4824.057
574.8889, 4828.555
575.3710, 4827.126
575.8531, 4818.165
576.3353, 4811.660
576.8174, 4807.440
577.2995, 4806.021
577.7816, 4810.349
578.2637, 4821.683
578.7458, 4822.233
579.2280, 4804.177
579.7101, 4783.876
580.1922, 4798.891
580.6743, 4842.114
581.1564, 4873.397
581.6385, 4862.880
582.1207, 4835.980
582.6028, 4827.772
583.0849, 4835.753
583.5670, 4839.692
584.0491, 4817.518
584.5313, 4793.030
585.0134, 4786.938
585.4955, 4809.183
585.9776, 4827.343
586.4597, 4823.875
586.9418, 4816.043
587.4240, 4824.200
587.9061, 4867.036
588.3882, 4896.998
588.8703, 4903.375
589.3524, 4895.163
589.8345, 4899.894
590.3167, 4920.939
590.7988, 4942.105
591.2809, 4955.919
591.7630, 4963.835
592.2451, 4972.522
592.7272, 4982.023
593.2094, 4991.176
593.6915, 4994.861
594.1736, 4998.346
594.6557, 5013.759
595.1378, 5045.284
595.6199, 5077.900
596.1021, 5097.858
596.5842, 5112.364
597.0663, 5131.771
597.5485, 5157.962
598.0306, 5190.994
598.5127, 5238.495
598.9948, 5294.893
599.4769, 5336.471
599.9590, 5348.839
600.4412, 5362.677
600.9233, 5387.312
601.4054, 5423.255
601.8875, 5463.839
602.3696, 5509.547
602.8517, 5558.090
603.3339, 5607.008
603.8160, 5656.580
604.2981, 5703.442
604.7802, 5744.724
605.2623, 5790.685
605.7444, 5862.284
606.2266, 5949.755
606.7087, 6023.077
607.1908, 6061.230
607.6729, 6093.263
608.1550, 6144.967
608.6371, 6210.319
609.1193, 6271.536
609.6014, 6316.009
610.0835, 6358.991
610.5656, 6410.994
611.0477, 6476.223
611.5298, 6520.999
612.0120, 6528.822
612.4941, 6531.203
612.9762, 6553.271
613.4583, 6609.345
613.9404, 6632.374
614.4225, 6615.823
614.9047, 6571.918
615.3868, 6512.108
615.8689, 6437.060
616.3510, 6362.142
616.8331, 6291.438
617.3152, 6223.835
617.7974, 6157.211
618.2795, 6092.046
618.7616, 6026.755
619.2437, 5956.739
619.7258, 5889.466
620.2079, 5829.583
620.6901, 5777.662
621.1722, 5731.349
621.6543, 5691.507
622.1364, 5655.682
622.6185, 5622.405
623.1006, 5588.620
623.5828, 5564.152
624.0649, 5556.671
624.5470, 5551.474
625.0291, 5526.090
625.5112, 5473.225
625.9933, 5441.819
626.4755, 5447.878
626.9576, 5470.748
627.4397, 5465.640
627.9218, 5435.924
628.4039, 5407.299
628.8860, 5399.748
629.3682, 5396.650
629.8503, 5371.467
630.3324, 5327.152
630.8145, 5287.002
631.2966, 5274.315
631.7787, 5264.323
632.2609, 5237.077
632.7430, 5183.897
633.2251, 5137.698
633.7072, 5108.268
634.1893, 5086.813
634.6714, 5066.605
635.1536, 5050.415
635.6357, 5028.779
636.1178, 4999.288
636.5999, 4966.167
637.0820, 4936.386
637.5641, 4910.065
638.0463, 4887.916
638.5284, 4870.741
639.0105, 4857.153
639.4926, 4844.978
639.9747, 4833.879
640.4568, 4822.302
640.9390, 4807.636
641.4211, 4792.965
641.9032, 4781.350
642.3853, 4773.042
642.8674, 4765.368
643.3495, 4756.109
643.8317, 4747.915
644.3138, 4742.944
644.7959, 4745.686
645.2780, 4743.402
645.7601, 4734.777
646.2422, 4722.330
