##NAMES=Danalite
##RRUFFID=R060057
##IDEAL CHEMISTRY=Be_3_Fe^2+^_4_(SiO_4_)_3_S^2-^
##LOCALITY=Iron Mountain, Winston, New Mexico, USA
##OWNER=RRUFF
##SOURCE=University of Arizona Mineral Museum
##DESCRIPTION=Orange irregular gemmy blebs
##STATUS=The identification of this mineral has been confirmed only by single crystal X-ray diffraction.
##URL=rruff.info/R060057
101.8138, 316.0760
102.2959, 316.5693
102.7780, 317.4703
103.2601, 319.6310
103.7422, 323.6448
104.2244, 326.8360
104.7065, 328.3700
105.1886, 329.8679
105.6707, 332.4105
106.1528, 336.2260
106.6349, 340.7181
107.1171, 344.8891
107.5992, 348.8237
108.0813, 352.2560
108.5634, 354.7137
109.0455, 356.6874
109.5276, 358.9045
110.0098, 361.6904
110.4919, 364.8603
110.9740, 367.8827
111.4561, 370.6293
111.9382, 373.4512
112.4203, 376.5900
112.9025, 380.0177
113.3846, 383.4270
113.8667, 386.5775
114.3488, 389.6647
114.8309, 392.9456
115.3130, 396.5649
115.7952, 400.2959
116.2773, 403.8902
116.7594, 407.3352
117.2415, 410.5826
117.7236, 413.5136
118.2057, 416.2891
118.6879, 419.0704
119.1700, 421.9757
119.6521, 424.9722
120.1342, 427.7444
120.6163, 430.3153
121.0984, 432.5755
121.5805, 434.2791
122.0627, 435.6169
122.5448, 436.9936
123.0269, 438.8161
123.5090, 441.2492
123.9911, 443.0298
124.4732, 443.4098
124.9554, 443.8902
125.4375, 445.9253
125.9196, 449.3387
126.4017, 452.2084
126.8838, 452.1142
127.3659, 447.7643
127.8481, 443.7344
128.3302, 441.3104
128.8123, 438.7573
129.2944, 433.9795
129.7765, 426.2730
130.2586, 416.8994
130.7408, 407.3314
131.2229, 397.4654
131.7050, 388.3403
132.1871, 380.3418
132.6692, 373.4232
133.1513, 367.3630
133.6335, 362.2335
134.1156, 357.9590
134.5977, 354.3859
135.0798, 351.5551
135.5619, 348.9800
136.0440, 346.2213
136.5262, 343.2325
137.0083, 340.3288
137.4904, 337.8263
137.9725, 335.3004
138.4546, 332.4770
138.9367, 329.2828
139.4189, 325.8026
139.9010, 322.1116
140.3831, 317.8130
140.8652, 314.0977
141.3473, 311.1438
141.8294, 308.7642
142.3116, 306.8197
142.7937, 305.2311
143.2758, 304.0003
143.7579, 303.1063
144.2400, 302.5620
144.7221, 302.3880
145.2043, 302.5777
145.6864, 303.1471
146.1685, 304.2112
146.6506, 305.9292
147.1327, 308.2155
147.6148, 309.8365
148.0969, 310.2599
148.5791, 310.6847
149.0612, 311.6045
149.5433, 313.0027
150.0254, 314.6628
150.5075, 316.4879
150.9896, 318.4613
151.4718, 320.3035
151.9539, 322.1964
152.4360, 323.8537
152.9181, 324.9302
153.4002, 325.3469
153.8823, 325.5929
154.3645, 326.3539
154.8466, 327.2755
155.3287, 327.4580
155.8108, 326.0453
156.2929, 323.7295
156.7750, 322.2216
157.2572, 322.1383
157.7393, 321.8277
158.2214, 320.2332
158.7035, 317.6902
159.1856, 314.9312
159.6677, 312.2762
160.1499, 309.7435
160.6320, 307.5821
161.1141, 306.0007
161.5962, 304.6545
162.0783, 303.4926
162.5604, 302.4631
163.0426, 301.4697
163.5247, 300.3414
164.0068, 298.9519
164.4889, 298.1484
164.9710, 298.2968
165.4531, 298.6779
165.9353, 299.1293
166.4174, 299.5505
166.8995, 299.7996
167.3816, 299.6637
167.8637, 298.8861
168.3458, 298.4043
168.8279, 298.2586
169.3101, 298.3321
169.7922, 298.8458
170.2743, 299.7542
170.7564, 300.3824
171.2385, 299.6878
171.7206, 297.0977
172.2028, 294.3026
172.6849, 291.4826
173.1670, 288.4482
173.6491, 285.0921
174.1312, 281.4081
174.6133, 277.1453
175.0955, 271.6482
175.5776, 264.8428
176.0597, 257.8535
176.5418, 250.7757
177.0239, 243.7442
177.5060, 236.8972
177.9882, 230.1514
178.4703, 223.8518
178.9524, 218.3188
179.4345, 213.5408
179.9166, 209.2654
180.3987, 205.4931
180.8809, 202.1698
181.3630, 198.9261
181.8451, 195.2879
182.3272, 192.0966
182.8093, 190.2562
183.2914, 189.8962
183.7736, 189.8093
184.2557, 188.7387
184.7378, 186.5302
185.2199, 184.5823
185.7020, 183.2809
186.1841, 182.3177
186.6663, 181.5976
187.1484, 181.0915
187.6305, 180.7232
188.1126, 180.3645
188.5947, 179.9431
189.0768, 179.7486
189.5589, 180.1606
190.0411, 180.5691
190.5232, 180.4237
191.0053, 179.5868
191.4874, 178.5115
191.9695, 178.0931
192.4516, 178.9849
192.9338, 179.4782
193.4159, 179.1792
193.8980, 178.6509
194.3801, 178.4561
194.8622, 178.7925
195.3443, 179.3644
195.8265, 179.4897
196.3086, 178.5703
196.7907, 177.8671
197.2728, 177.6218
197.7549, 177.5217
198.2370, 177.1334
198.7192, 176.2641
199.2013, 175.1830
199.6834, 174.6523
200.1655, 174.8931
200.6476, 175.3102
201.1297, 176.1118
201.6119, 176.9895
202.0940, 177.3465
202.5761, 176.8405
203.0582, 175.8670
203.5403, 175.5148
204.0224, 176.0520
204.5046, 176.5125
204.9867, 176.5095
205.4688, 176.1620
205.9509, 175.7377
206.4330, 175.2581
206.9151, 174.8777
207.3973, 174.8731
207.8794, 175.3167
208.3615, 175.8912
208.8436, 176.5197
209.3257, 177.1687
209.8078, 177.6526
210.2899, 177.9058
210.7721, 177.9260
211.2542, 177.6729
211.7363, 177.0459
212.2184, 176.5401
212.7005, 176.6822
213.1826, 177.4758
213.6648, 178.1312
214.1469, 178.2694
214.6290, 178.2583
215.1111, 178.3882
215.5932, 178.6996
216.0753, 179.1267
216.5575, 179.6929
217.0396, 180.4544
217.5217, 180.9607
218.0038, 180.7453
218.4859, 180.4478
218.9680, 180.4560
219.4502, 180.8491
219.9323, 181.4444
220.4144, 182.0351
220.8965, 182.6279
221.3786, 183.1944
221.8607, 183.5921
222.3429, 184.0563
222.8250, 184.8656
223.3071, 186.0417
223.7892, 187.2062
224.2713, 187.7017
224.7534, 187.0274
225.2356, 186.8791
225.7177, 187.5902
226.1998, 188.5921
226.6819, 189.5692
227.1640, 190.4225
227.6461, 191.1977
228.1283, 191.9970
228.6104, 193.0988
229.0925, 193.6410
229.5746, 193.2019
230.0567, 192.5775
230.5388, 192.2155
231.0210, 192.2666
231.5031, 192.7500
231.9852, 193.7534
232.4673, 195.7505
232.9494, 197.3162
233.4315, 198.5691
233.9137, 199.3657
234.3958, 199.4271
234.8779, 198.7488
235.3600, 197.7946
235.8421, 197.2163
236.3242, 197.2575
236.8064, 197.1339
237.2885, 196.6274
237.7706, 196.0871
238.2527, 196.0717
238.7348, 196.6347
239.2169, 196.9236
239.6991, 195.7230
240.1812, 192.3567
240.6633, 189.7894
241.1454, 188.5691
241.6275, 187.9239
242.1096, 187.2008
242.5918, 186.2835
243.0739, 185.2487
243.5560, 184.1647
244.0381, 183.0224
244.5202, 181.9421
245.0023, 180.8430
245.4845, 179.8521
245.9666, 179.2909
246.4487, 179.2363
246.9308, 178.9646
247.4129, 177.4737
247.8950, 174.9243
248.3772, 172.9981
248.8593, 172.2738
249.3414, 172.1431
249.8235, 171.9542
250.3056, 171.6471
250.7877, 171.3390
251.2698, 171.1186
251.7520, 170.9766
252.2341, 170.8943
252.7162, 170.8254
253.1983, 170.8348
253.6804, 171.1183
254.1625, 171.7618
254.6447, 172.2053
255.1268, 171.7481
255.6089, 170.8522
256.0910, 170.3338
256.5731, 170.5321
257.0552, 171.1115
257.5374, 171.7046
258.0195, 172.3466
258.5016, 172.8243
258.9837, 172.7384
259.4658, 172.4922
259.9479, 172.6006
260.4301, 173.3231
260.9122, 174.2807
261.3943, 174.8864
261.8764, 175.0185
262.3585, 175.3869
262.8406, 176.6347
263.3228, 178.1352
263.8049, 179.2875
264.2870, 179.8623
264.7691, 180.2893
265.2512, 181.1123
265.7333, 182.3750
266.2155, 183.8354
266.6976, 185.8512
267.1797, 187.8063
267.6618, 189.0930
268.1439, 189.5341
268.6260, 189.8418
269.1082, 190.9404
269.5903, 192.9841
270.0724, 195.0290
270.5545, 197.1588
271.0366, 199.0335
271.5187, 200.2461
272.0009, 200.7838
272.4830, 201.2670
272.9651, 202.4644
273.4472, 204.5274
273.9293, 206.4402
274.4114, 208.0948
274.8936, 209.5674
275.3757, 210.7069
275.8578, 211.5962
276.3399, 212.6619
276.8220, 214.5617
277.3041, 217.5057
277.7863, 219.6831
278.2684, 220.0331
278.7505, 220.4410
279.2326, 221.7035
279.7147, 223.6939
280.1968, 225.8098
280.6789, 227.5356
281.1610, 228.8673
281.6432, 230.1891
282.1253, 231.6648
282.6074, 232.9674
283.0895, 233.9818
283.5716, 234.7455
284.0537, 235.3085
284.5359, 235.6473
285.0180, 235.8070
285.5001, 236.3358
285.9822, 237.9598
286.4643, 239.1184
286.9464, 239.3058
287.4286, 238.8226
287.9107, 238.1356
288.3928, 237.5074
288.8749, 236.8897
289.3570, 236.0658
289.8391, 234.8838
290.3213, 233.6706
290.8034, 232.3199
291.2855, 231.0208
291.7676, 230.0646
292.2497, 229.5940
292.7318, 229.3392
293.2140, 228.6095
293.6961, 227.1991
294.1782, 225.5710
294.6603, 223.5101
295.1424, 221.4178
295.6245, 219.7111
296.1067, 218.5003
296.5888, 217.4926
297.0709, 216.1821
297.5530, 214.4749
298.0351, 212.6163
298.5172, 210.4777
298.9994, 208.3172
299.4815, 206.1695
299.9636, 204.1060
300.4457, 202.3455
300.9278, 201.2334
301.4099, 201.1280
301.8921, 200.4922
302.3742, 199.0081
302.8563, 197.3572
303.3384, 195.7682
303.8205, 194.3129
304.3026, 193.0592
304.7848, 192.0902
305.2669, 191.4277
305.7490, 190.7494
306.2311, 190.6026
306.7132, 189.9008
307.1953, 187.7233
307.6775, 184.6730
308.1596, 182.0857
308.6417, 180.9442
309.1238, 181.0899
309.6059, 180.8400
310.0880, 179.9101
310.5702, 178.8698
311.0523, 177.7349
311.5344, 176.5703
312.0165, 175.4509
312.4986, 174.4157
312.9807, 173.4372
313.4629, 172.4063
313.9450, 171.4951
314.4271, 170.2869
314.9092, 168.2839
315.3913, 166.2106
315.8734, 164.8240
316.3556, 164.3674
316.8377, 164.4675
317.3198, 164.4630
317.8019, 164.2946
318.2840, 164.1191
318.7661, 164.1083
319.2483, 163.9731
319.7304, 163.4674
320.2125, 162.5802
320.6946, 161.4981
321.1767, 160.3930
321.6588, 159.1449
322.1409, 158.3594
322.6230, 158.1942
323.1052, 158.2586
323.5873, 158.5722
324.0694, 158.9906
324.5515, 159.1600
325.0336, 158.7231
325.5157, 157.6817
325.9979, 157.1994
326.4800, 158.2029
326.9621, 158.7864
327.4442, 158.1661
327.9263, 156.8427
328.4084, 155.6637
328.8906, 155.1138
329.3727, 155.0701
329.8548, 155.0481
330.3369, 155.1056
330.8190, 155.1089
331.3011, 154.9119
331.7833, 154.7162
332.2654, 154.7820
332.7475, 155.1931
333.2296, 155.7379
333.7117, 156.0244
334.1938, 155.9790
334.6760, 155.7856
335.1581, 155.1999
335.6402, 154.6706
336.1223, 154.5825
336.6044, 154.9391
337.0865, 155.3848
337.5687, 155.4912
338.0508, 155.1438
338.5329, 155.0019
339.0150, 155.2058
339.4971, 155.4736
339.9792, 155.8176
340.4614, 156.1427
340.9435, 156.2555
341.4256, 155.9767
341.9077, 155.3439
342.3898, 154.8180
342.8719, 154.3993
343.3541, 154.1007
343.8362, 153.9968
344.3183, 153.9921
344.8004, 153.9233
345.2825, 153.6982
345.7646, 153.4584
346.2468, 153.6152
346.7289, 154.5019
347.2110, 155.1618
347.6931, 155.3902
348.1752, 155.4308
348.6573, 155.4686
349.1395, 155.5521
349.6216, 155.6237
350.1037, 155.5669
350.5858, 155.3016
351.0679, 155.2240
351.5500, 155.5253
352.0322, 155.8764
352.5143, 156.1875
352.9964, 156.4226
353.4785, 156.5287
353.9606, 156.3841
354.4427, 156.0143
354.9249, 155.9632
355.4070, 156.5835
355.8891, 157.0782
356.3712, 157.0814
356.8533, 156.8056
357.3354, 156.6334
357.8176, 156.8188
358.2997, 157.1138
358.7818, 156.8264
359.2639, 155.6247
359.7460, 154.6604
360.2281, 154.4004
360.7103, 154.4224
361.1924, 154.4273
361.6745, 154.3418
362.1566, 154.1318
362.6387, 153.7668
363.1208, 153.2461
363.6029, 152.5426
364.0851, 151.4327
364.5672, 150.3285
365.0493, 149.5203
365.5314, 148.9825
366.0135, 148.4835
366.4956, 147.8215
366.9778, 147.0560
367.4599, 146.4786
367.9420, 146.1989
368.4241, 145.9209
368.9062, 145.4647
369.3883, 144.8966
369.8705, 144.3128
370.3526, 143.7052
370.8347, 143.1482
371.3168, 142.7729
371.7989, 142.6003
372.2810, 142.4473
372.7632, 142.3166
373.2453, 142.1156
373.7274, 141.6762
374.2095, 140.9066
374.6916, 140.2281
375.1737, 140.0169
375.6559, 140.1902
376.1380, 140.3563
376.6201, 140.4706
377.1022, 140.4787
377.5843, 140.2549
378.0664, 139.8317
378.5486, 139.5043
379.0307, 139.5030
379.5128, 139.6141
379.9949, 139.5011
380.4770, 139.1207
380.9591, 138.6756
381.4413, 138.2741
381.9234, 137.9257
382.4055, 137.6531
382.8876, 137.4380
383.3697, 137.3149
383.8518, 137.3704
384.3340, 137.5562
384.8161, 137.6835
385.2982, 137.6711
385.7803, 137.5536
386.2624, 137.4091
386.7445, 137.2655
387.2267, 137.0333
387.7088, 136.6143
388.1909, 136.1206
388.6730, 135.6580
389.1551, 135.2476
389.6372, 135.0001
390.1194, 135.0945
390.6015, 135.6175
391.0836, 135.8458
391.5657, 135.6488
392.0478, 135.2761
392.5299, 134.7096
393.0121, 134.0666
393.4942, 133.7104
393.9763, 133.9179
394.4584, 134.5427
394.9405, 134.8014
395.4226, 134.2016
395.9048, 133.8713
396.3869, 134.2311
396.8690, 134.8508
397.3511, 135.1957
397.8332, 135.1004
398.3153, 134.8106
398.7975, 134.7236
399.2796, 135.0444
399.7617, 135.0177
400.2438, 134.1420
400.7259, 133.4037
401.2080, 133.6272
401.6902, 134.5669
402.1723, 135.2302
402.6544, 134.7359
403.1365, 133.2342
403.6186, 132.6157
404.1007, 133.9246
404.5828, 134.9098
405.0649, 135.0308
405.5471, 134.6694
406.0292, 134.2815
406.5113, 134.0451
406.9934, 133.8499
407.4755, 133.4337
407.9576, 132.5988
408.4398, 132.1545
408.9219, 132.7000
409.4040, 133.2285
409.8861, 133.1027
410.3682, 132.3843
410.8503, 131.6196
411.3325, 131.1632
411.8146, 131.0194
412.2967, 131.3209
412.7788, 132.4893
413.2609, 133.3732
413.7430, 133.2827
414.2252, 132.6995
414.7073, 132.2995
415.1894, 132.3572
415.6715, 132.5638
416.1536, 132.4506
416.6357, 131.9925
417.1179, 131.7362
417.6000, 131.9326
418.0821, 132.3172
418.5642, 132.6467
419.0463, 132.9155
419.5284, 133.1262
420.0106, 133.3444
420.4927, 133.4955
420.9748, 133.3877
421.4569, 132.9719
421.9390, 132.4342
422.4211, 131.7238
422.9033, 130.9979
423.3854, 130.7687
423.8675, 131.5593
424.3496, 132.4193
424.8317, 132.6159
425.3138, 132.3129
425.7960, 132.1027
426.2781, 132.2412
426.7602, 132.5617
427.2423, 132.7521
427.7244, 132.8071
428.2065, 132.7880
428.6887, 132.4999
429.1708, 132.2597
429.6529, 132.5040
430.1350, 133.2322
430.6171, 133.9393
431.0992, 134.1510
431.5814, 133.8573
432.0635, 133.8738
432.5456, 134.5751
433.0277, 135.1031
433.5098, 135.0461
433.9919, 134.6712
434.4741, 134.4654
434.9562, 134.6337
435.4383, 134.9136
435.9204, 134.7132
436.4025, 133.2874
436.8846, 132.8285
437.3668, 134.0994
437.8489, 135.5562
438.3310, 136.2061
438.8131, 136.1068
439.2952, 135.9356
439.7773, 136.2804
440.2595, 137.0655
440.7416, 137.5119
441.2237, 137.3737
441.7058, 137.2408
442.1879, 137.2687
442.6700, 137.3808
443.1522, 137.4645
443.6343, 137.4803
444.1164, 137.5524
444.5985, 138.1209
445.0806, 139.2991
445.5627, 139.3534
446.0448, 137.1803
446.5269, 134.7288
447.0091, 133.2167
447.4912, 132.5225
447.9733, 132.0506
448.4554, 131.6534
448.9375, 131.2284
449.4196, 130.5021
449.9018, 129.4169
450.3839, 128.4940
450.8660, 128.0279
451.3481, 127.8737
451.8302, 127.7841
452.3123, 127.8230
452.7945, 127.7141
453.2766, 127.1692
453.7587, 126.3984
454.2408, 125.8141
454.7229, 125.5051
455.2050, 125.3718
455.6872, 125.3607
456.1693, 125.4811
456.6514, 125.4926
457.1335, 125.4513
457.6156, 125.2461
458.0977, 124.6034
458.5799, 123.7382
459.0620, 123.2749
459.5441, 123.5591
460.0262, 124.1860
460.5083, 124.1514
460.9904, 122.5719
461.4726, 121.7020
461.9547, 122.1332
462.4368, 122.8215
462.9189, 122.9978
463.4010, 122.6310
463.8831, 122.1190
464.3653, 121.7641
464.8474, 121.5748
465.3295, 121.7190
465.8116, 122.7712
466.2937, 123.4022
466.7758, 123.1104
467.2580, 122.3934
467.7401, 121.7204
468.2222, 121.2518
468.7043, 120.9816
469.1864, 120.9959
469.6685, 121.3316
470.1507, 121.4388
470.6328, 121.0204
471.1149, 120.6568
471.5970, 120.7832
472.0791, 121.2212
472.5612, 121.4969
473.0434, 121.3582
473.5255, 120.9887
474.0076, 120.5498
474.4897, 120.0316
474.9718, 119.8515
475.4539, 120.3853
475.9361, 121.1439
476.4182, 121.3910
476.9003, 121.0771
477.3824, 120.6708
477.8645, 120.2837
478.3466, 119.9353
478.8288, 119.6553
479.3109, 119.4465
479.7930, 119.3179
480.2751, 119.3214
480.7572, 119.4160
481.2393, 119.2729
481.7215, 118.6367
482.2036, 118.1043
482.6857, 117.8405
483.1678, 117.7769
483.6499, 117.8247
484.1320, 117.9564
484.6142, 118.1957
485.0963, 118.6166
485.5784, 119.3373
486.0605, 119.6681
486.5426, 119.4052
487.0247, 119.0021
487.5068, 118.4756
487.9890, 117.9522
488.4711, 117.6062
488.9532, 117.5250
489.4353, 117.6660
489.9174, 118.0600
490.3995, 118.9289
490.8817, 119.2754
491.3638, 118.2605
491.8459, 117.2159
492.3280, 116.8665
492.8101, 117.1766
493.2922, 117.7203
493.7744, 118.5591
494.2565, 119.3463
494.7386, 119.0520
495.2207, 117.4453
495.7028, 116.2546
496.1849, 116.5223
496.6671, 117.5262
497.1492, 118.1308
497.6313, 118.2645
498.1134, 118.1678
498.5955, 117.8318
499.0776, 117.3783
499.5598, 116.9621
500.0419, 116.6076
500.5240, 116.4006
501.0061, 116.4516
501.4882, 116.7355
501.9703, 116.8949
502.4525, 116.7402
502.9346, 116.6962
503.4167, 117.0848
503.8988, 117.5880
504.3809, 117.6930
504.8630, 117.2735
505.3452, 116.7521
505.8273, 116.7291
506.3094, 117.3667
506.7915, 117.6491
507.2736, 117.2468
507.7557, 116.8420
508.2379, 116.5645
508.7200, 116.4556
509.2021, 116.5887
509.6842, 117.0125
510.1663, 117.5515
510.6484, 117.9283
511.1306, 118.1352
511.6127, 118.2182
512.0948, 118.0772
512.5769, 117.9222
513.0590, 117.8606
513.5411, 117.8963
514.0233, 118.0374
514.5054, 118.4072
514.9875, 118.7987
515.4696, 118.8637
515.9517, 118.6221
516.4338, 118.4416
516.9160, 118.4378
517.3981, 118.6083
517.8802, 119.0418
518.3623, 119.8152
518.8444, 120.3439
519.3265, 120.3503
519.8087, 120.1624
520.2908, 120.0592
520.7729, 120.0519
521.2550, 119.9973
521.7371, 119.7632
522.2192, 119.4785
522.7014, 119.6613
523.1835, 120.9996
523.6656, 121.9015
524.1477, 122.0508
524.6298, 121.9390
525.1119, 121.9172
525.5941, 122.0333
526.0762, 122.1602
526.5583, 122.1559
527.0404, 122.0714
527.5225, 122.3261
528.0046, 123.2842
528.4868, 123.8595
528.9689, 123.5207
529.4510, 122.7938
529.9331, 122.0468
530.4152, 121.3517
530.8973, 120.8781
531.3795, 120.8711
531.8616, 121.1880
532.3437, 121.4146
532.8258, 121.5119
533.3079, 121.5672
533.7900, 121.7481
534.2722, 121.8934
534.7543, 121.5380
535.2364, 120.2667
535.7185, 119.1922
536.2006, 118.8054
536.6827, 118.8784
537.1649, 119.2444
537.6470, 119.8246
538.1291, 120.1898
538.6112, 119.8735
539.0933, 118.8639
539.5754, 118.1730
540.0576, 118.0869
540.5397, 117.9626
541.0218, 117.6430
541.5039, 117.2257
541.9860, 116.7427
542.4681, 116.2398
542.9503, 115.9337
543.4324, 116.2084
543.9145, 117.1005
544.3966, 117.5497
544.8787, 117.2892
545.3608, 116.9800
545.8430, 116.8346
546.3251, 116.8371
546.8072, 116.9925
547.2892, 117.3228
547.7714, 117.7075
548.2535, 118.0218
548.7356, 118.3013
549.2177, 118.7014
549.6998, 119.2712
550.1819, 119.8507
550.6641, 120.3229
551.1462, 120.6829
551.6283, 120.9801
552.1104, 121.0066
552.5925, 121.2048
553.0746, 121.9275
553.5568, 122.8722
554.0389, 123.5920
554.5210, 123.9738
555.0031, 124.1724
555.4852, 124.3465
555.9673, 124.4875
556.4495, 124.7070
556.9316, 124.8951
557.4137, 125.2985
557.8958, 126.0844
558.3779, 127.0673
558.8600, 128.0643
559.3422, 129.0138
559.8243, 129.8795
560.3064, 130.5939
560.7885, 131.1682
561.2706, 131.7124
561.7527, 132.1822
562.2349, 132.7298
562.7170, 133.7180
563.1991, 134.7818
563.6812, 135.2660
564.1633, 134.8778
564.6454, 134.3416
565.1276, 134.0838
565.6097, 133.9977
566.0918, 133.9667
566.5739, 133.9677
567.0560, 133.6947
567.5381, 132.7847
568.0203, 131.2824
568.5024, 130.2285
568.9845, 130.1915
569.4666, 129.8226
569.9487, 128.6887
570.4308, 127.1544
570.9130, 125.4471
571.3951, 123.7053
571.8772, 122.2821
572.3593, 121.6179
572.8414, 121.6483
573.3235, 121.3386
573.8057, 120.5723
574.2878, 119.6673
574.7699, 118.5154
575.2520, 117.4008
575.7341, 116.6685
576.2162, 116.3779
576.6984, 116.1607
577.1805, 115.8082
577.6626, 115.3414
578.1447, 114.7096
578.6268, 113.8947
579.1089, 113.2983
579.5911, 113.1816
580.0732, 113.4358
580.5553, 113.7757
581.0374, 114.3521
581.5195, 114.6877
582.0016, 114.5486
582.4838, 114.2282
582.9659, 114.0020
583.4480, 113.8616
583.9301, 113.6088
584.4122, 113.0837
584.8943, 112.3947
585.3765, 111.9508
585.8586, 111.8931
586.3407, 111.7916
586.8228, 111.5616
587.3049, 111.3049
587.7870, 111.1176
588.2692, 110.9694
588.7513, 110.7309
589.2334, 110.3299
589.7155, 109.7967
590.1976, 109.0790
590.6797, 108.1838
591.1619, 107.5531
591.6440, 107.3489
592.1261, 107.4369
592.6082, 107.8370
593.0903, 108.5660
593.5724, 108.7478
594.0546, 107.7543
594.5367, 106.6682
595.0188, 106.1305
595.5009, 106.0183
595.9830, 106.0354
596.4651, 106.0636
596.9473, 106.1031
597.4294, 106.1688
597.9115, 106.2911
598.3936, 106.2899
598.8757, 106.1018
599.3578, 105.8477
