##NAMES=Danburite
##RRUFFID=R040013
##IDEAL CHEMISTRY=CaB_2_Si_2_O_8_
##LOCALITY=Charcas, San Luis Potosi, Mexico
##OWNER=RRUFF
##SOURCE=Marcus Origlieri
##DESCRIPTION=Colorless prismatic single crystal
##STATUS=The identification of this mineral has been confirmed by X-ray diffraction and chemical analysis
##URL=rruff.info/R040013
##MEASURED CHEMISTRY=Ca_1.00_B_2.00_Si_2.00_O_8_
113.1730, 278.4106
113.6551, 294.4266
114.1373, 312.6145
114.6194, 331.6687
115.1015, 350.7573
115.5836, 366.0069
116.0657, 384.4755
116.5478, 407.9849
117.0300, 436.9637
117.5121, 470.4342
117.9942, 508.4144
118.4763, 550.6281
118.9584, 596.5158
119.4405, 639.4094
119.9227, 691.0754
120.4048, 756.1577
120.8869, 833.8949
121.3690, 931.7928
121.8511, 1067.560
122.3332, 1227.563
122.8154, 1383.107
123.2975, 1572.064
123.7796, 1726.173
124.2617, 1767.303
124.7438, 1656.464
125.2259, 1484.414
125.7081, 1302.696
126.1902, 1120.553
126.6723, 974.9122
127.1544, 910.5526
127.6365, 905.2313
128.1186, 915.1183
128.6008, 946.8341
129.0829, 970.0697
129.5650, 931.5269
130.0471, 834.4899
130.5292, 723.2772
131.0113, 622.8187
131.4935, 535.1086
131.9756, 470.2008
132.4577, 433.6332
132.9398, 420.2580
133.4219, 418.6554
133.9040, 428.7302
134.3862, 448.9743
134.8683, 475.3311
135.3504, 507.8219
135.8325, 556.0519
136.3146, 626.6240
136.7967, 717.2538
137.2789, 817.6543
137.7610, 940.9269
138.2431, 1046.498
138.7252, 1080.763
139.2073, 1038.823
139.6894, 952.3044
140.1716, 817.0027
140.6537, 619.9811
141.1358, 464.8509
141.6179, 354.0436
142.1000, 277.9247
142.5821, 221.8142
143.0643, 188.1525
143.5464, 167.5033
144.0285, 156.9315
144.5106, 159.6302
144.9927, 164.5323
145.4748, 173.5535
145.9570, 184.4069
146.4391, 189.7944
146.9212, 186.4403
147.4033, 181.7092
147.8854, 178.8988
148.3675, 178.6361
148.8497, 179.3134
149.3318, 180.7547
149.8139, 183.0260
150.2960, 186.6284
150.7781, 193.3576
151.2602, 200.0814
151.7424, 205.0479
152.2245, 205.8309
152.7066, 207.6482
153.1887, 211.2975
153.6708, 216.5831
154.1529, 221.4391
154.6351, 224.1790
155.1172, 227.3809
155.5993, 232.7489
156.0814, 241.0157
156.5635, 250.9461
157.0456, 262.2345
157.5278, 274.7758
158.0099, 289.1864
158.4920, 304.3069
158.9741, 321.9996
159.4562, 343.9530
159.9383, 368.6200
160.4205, 399.3017
160.9026, 434.0998
161.3847, 472.3093
161.8668, 526.2135
162.3489, 587.4044
162.8310, 670.0524
163.3132, 790.6984
163.7953, 995.7494
164.2774, 1208.477
164.7595, 1425.747
165.2416, 1665.665
165.7237, 1775.411
166.2059, 1604.085
166.6880, 1268.090
167.1701, 944.3688
167.6522, 678.4994
168.1343, 470.7175
168.6164, 328.7909
169.0985, 260.0334
169.5807, 224.0906
170.0628, 205.9670
170.5449, 200.8581
171.0270, 199.6505
171.5091, 199.8198
171.9912, 200.7499
172.4734, 201.6555
172.9555, 202.1632
173.4376, 203.5748
173.9197, 207.5551
174.4018, 213.4299
174.8839, 219.3488
175.3661, 223.4593
175.8482, 227.1988
176.3303, 232.1185
176.8124, 238.1111
177.2945, 246.2660
177.7766, 257.6604
178.2588, 272.2669
178.7409, 289.4799
179.2230, 309.6052
179.7051, 332.1971
180.1872, 357.2759
180.6693, 387.3981
181.1515, 415.7652
181.6336, 433.0568
182.1157, 439.8085
182.5978, 439.7118
183.0799, 430.2732
183.5620, 415.5583
184.0442, 406.2510
184.5263, 403.4257
185.0084, 408.0528
185.4905, 421.6005
185.9726, 444.0368
186.4547, 475.3210
186.9369, 513.4758
187.4190, 560.0223
187.9011, 620.3061
188.3832, 698.1999
188.8653, 788.7129
189.3474, 894.4139
189.8296, 1017.776
190.3117, 1115.872
190.7938, 1154.740
191.2759, 1136.839
191.7580, 1076.682
192.2401, 962.8722
192.7223, 816.2570
193.2044, 693.4144
193.6865, 593.5521
194.1686, 514.1998
194.6507, 456.6977
195.1328, 420.3438
195.6150, 394.3626
196.0971, 377.9207
196.5792, 369.8827
197.0613, 366.2590
197.5434, 367.1546
198.0255, 371.8715
198.5077, 380.3896
198.9898, 392.8377
199.4719, 406.2353
199.9540, 419.5596
200.4361, 433.1603
200.9182, 449.2952
201.4004, 467.7924
201.8825, 489.1028
202.3646, 514.0121
202.8467, 542.4537
203.3288, 573.0308
203.8109, 605.1163
204.2931, 638.9196
204.7752, 675.0170
205.2573, 711.5923
205.7394, 754.7469
206.2215, 808.8455
206.7036, 871.7908
207.1858, 953.5533
207.6679, 1056.428
208.1500, 1180.227
208.6321, 1330.539
209.1142, 1523.175
209.5963, 1712.778
210.0785, 1866.543
210.5606, 2000.599
211.0427, 2031.150
211.5248, 1918.374
212.0069, 1665.683
212.4890, 1413.439
212.9712, 1149.664
213.4533, 903.7443
213.9354, 712.6082
214.4175, 582.9117
214.8996, 483.2232
215.3817, 409.0879
215.8639, 361.1096
216.3460, 322.2246
216.8281, 293.2974
217.3102, 272.2060
217.7923, 257.5671
218.2744, 250.8119
218.7565, 246.4507
219.2387, 243.0482
219.7208, 240.4837
220.2029, 241.6925
220.6850, 246.7661
221.1671, 255.4998
221.6492, 267.0334
222.1314, 279.7470
222.6135, 299.2574
223.0956, 326.5188
223.5777, 361.9417
224.0598, 403.5695
224.5419, 453.7769
225.0241, 507.9312
225.5062, 563.4645
225.9883, 624.4991
226.4704, 677.2399
226.9525, 716.4261
227.4346, 742.0950
227.9168, 765.9811
228.3989, 786.3551
228.8810, 806.7777
229.3631, 830.4551
229.8452, 857.9464
230.3273, 888.0865
230.8095, 920.4808
231.2916, 955.0804
231.7737, 993.1744
232.2558, 1034.243
232.7379, 1079.312
233.2200, 1128.704
233.7022, 1181.548
234.1843, 1240.125
234.6664, 1304.687
235.1485, 1374.654
235.6306, 1450.011
236.1127, 1528.426
236.5949, 1615.629
237.0770, 1716.529
237.5591, 1828.287
238.0412, 1958.248
238.5233, 2104.656
239.0054, 2268.310
239.4876, 2458.921
239.9697, 2670.451
240.4518, 2916.741
240.9339, 3209.405
241.4160, 3547.228
241.8981, 3933.906
242.3803, 4382.697
242.8624, 4893.372
243.3445, 5398.401
243.8266, 5984.237
244.3087, 6472.649
244.7908, 6725.075
245.2730, 6743.481
245.7551, 6512.297
246.2372, 5958.503
246.7193, 5108.589
247.2014, 4313.355
247.6835, 3557.483
248.1657, 2883.292
248.6478, 2335.847
249.1299, 1935.461
249.6120, 1610.889
250.0941, 1365.931
250.5762, 1194.405
251.0584, 1047.821
251.5405, 930.9575
252.0226, 834.3472
252.5047, 754.2094
252.9868, 693.7659
253.4689, 641.0474
253.9511, 595.6247
254.4332, 556.9587
254.9153, 523.2451
255.3974, 495.1380
255.8795, 470.9933
256.3616, 450.7307
256.8438, 435.9960
257.3259, 420.4614
257.8080, 403.2567
258.2901, 384.9889
258.7722, 367.2104
259.2543, 349.2873
259.7365, 332.8154
260.2186, 318.4887
260.7007, 307.0439
261.1828, 295.8384
261.6649, 284.2762
262.1470, 273.0368
262.6292, 263.8647
263.1113, 257.1672
263.5934, 251.8420
264.0755, 247.2244
264.5576, 242.9157
265.0397, 240.7254
265.5219, 241.1695
266.0040, 243.4268
266.4861, 245.5795
266.9682, 247.3109
267.4503, 249.7049
267.9324, 253.2456
268.4146, 258.1372
268.8967, 263.3326
269.3788, 268.3983
269.8609, 274.2061
270.3430, 282.0328
270.8251, 291.6009
271.3073, 304.0224
271.7894, 319.1023
272.2715, 336.5727
272.7536, 359.4279
273.2357, 388.2643
273.7178, 421.2771
274.2000, 455.9190
274.6821, 491.4870
275.1642, 531.3643
275.6463, 580.0209
276.1284, 637.4928
276.6105, 686.0391
277.0927, 729.5241
277.5748, 755.7064
278.0569, 746.6918
278.5390, 700.4126
279.0211, 636.6816
279.5032, 554.3502
279.9854, 457.5747
280.4675, 376.9807
280.9496, 313.4315
281.4317, 263.1070
281.9138, 223.4132
282.3959, 194.4954
282.8781, 172.3060
283.3602, 157.0600
283.8423, 147.5184
284.3244, 138.9711
284.8065, 131.3764
285.2886, 124.7213
285.7708, 118.7357
286.2529, 113.4718
286.7350, 110.1139
287.2171, 109.4095
287.6992, 110.4186
288.1813, 110.3087
288.6635, 108.9881
289.1456, 108.2004
289.6277, 109.7785
290.1098, 113.3521
290.5919, 116.2762
291.0740, 117.9209
291.5562, 119.0800
292.0383, 121.3297
292.5204, 124.6462
293.0025, 128.1137
293.4846, 131.5278
293.9667, 134.6958
294.4489, 137.0100
294.9310, 138.4446
295.4131, 138.8405
295.8952, 137.5661
296.3773, 134.8154
296.8594, 131.8182
297.3416, 128.9857
297.8237, 126.4030
298.3058, 124.1510
298.7879, 122.1205
299.2700, 120.9082
299.7521, 121.4407
300.2343, 123.4390
300.7164, 125.9970
301.1985, 128.7542
301.6806, 131.8060
302.1627, 135.1704
302.6448, 138.8585
303.1270, 143.1154
303.6091, 148.2446
304.0912, 154.1040
304.5733, 160.6456
305.0554, 168.4765
305.5375, 176.5819
306.0197, 182.8619
306.5018, 187.4711
306.9839, 193.7794
307.4660, 205.0044
307.9481, 219.2658
308.4302, 233.9349
308.9124, 249.1696
309.3945, 263.7303
309.8766, 277.6285
310.3587, 290.5419
310.8408, 300.0505
311.3229, 305.6421
311.8051, 306.7676
312.2872, 302.6324
312.7693, 292.3925
313.2514, 278.1114
313.7335, 258.8254
314.2156, 236.0186
314.6978, 213.8135
315.1799, 193.2141
315.6620, 174.3780
316.1441, 157.7542
316.6262, 143.0984
317.1083, 131.0806
317.5905, 123.0577
318.0726, 117.7780
318.5547, 112.9529
319.0368, 107.8542
319.5189, 103.0146
320.0010, 98.43388
320.4832, 93.81062
320.9653, 90.88957
321.4474, 91.45793
321.9295, 93.55800
322.4116, 94.89934
322.8937, 93.93324
323.3759, 93.15707
323.8580, 93.18700
324.3401, 94.05998
324.8222, 95.64851
325.3043, 98.11446
325.7864, 101.1915
326.2686, 104.6744
326.7507, 107.8271
327.2328, 112.1756
327.7149, 118.2922
328.1970, 125.9919
328.6791, 133.8331
329.1613, 141.9784
329.6434, 150.0388
330.1255, 157.8131
330.6076, 165.3917
331.0897, 172.5579
331.5718, 179.4242
332.0540, 185.8689
332.5361, 191.5516
333.0182, 195.9492
333.5003, 200.3539
333.9824, 205.3207
334.4645, 211.2742
334.9467, 216.5731
335.4288, 220.9571
335.9109, 224.8403
336.3930, 228.5922
336.8751, 231.7028
337.3572, 235.9105
337.8394, 241.5119
338.3215, 248.3974
338.8036, 258.1331
339.2857, 271.2885
339.7678, 286.3492
340.2499, 301.2280
340.7320, 314.8621
341.2141, 332.9095
341.6963, 356.0131
342.1784, 384.4215
342.6605, 419.4701
343.1426, 461.1458
343.6247, 508.1240
344.1068, 560.2159
344.5890, 616.5825
345.0711, 675.2463
345.5532, 737.4973
346.0353, 798.7670
346.5174, 853.8107
346.9995, 902.8338
347.4817, 929.2427
347.9638, 921.9122
348.4459, 883.7269
348.9280, 820.1198
349.4101, 728.0809
349.8922, 626.4447
350.3744, 535.2632
350.8565, 455.0651
351.3386, 386.0380
351.8207, 330.7457
352.3028, 286.8083
352.7849, 250.2509
353.2671, 220.7161
353.7492, 196.9389
354.2313, 179.4179
354.7134, 166.6217
355.1955, 155.6968
355.6776, 146.1361
356.1598, 137.7914
356.6419, 130.3329
357.1240, 123.8171
357.6061, 118.5538
358.0882, 115.7849
358.5703, 113.8554
359.0525, 111.0293
359.5346, 106.2778
360.0167, 101.8853
360.4988, 99.32425
360.9809, 98.12372
361.4630, 97.28687
361.9452, 97.30935
362.4273, 96.89729
362.9094, 94.95976
363.3915, 90.89616
363.8736, 87.58472
364.3557, 86.48418
364.8379, 86.49181
365.3200, 86.32936
365.8021, 85.36858
366.2842, 84.53812
366.7663, 84.27679
367.2484, 84.59828
367.7306, 84.52232
368.2127, 83.40286
368.6948, 82.18427
369.1769, 81.48616
369.6590, 82.29787
370.1411, 82.42626
370.6233, 81.28661
371.1054, 79.31263
371.5875, 78.17709
372.0696, 78.46955
372.5517, 78.89606
373.0338, 78.87648
373.5160, 78.11196
373.9981, 77.78688
374.4802, 78.10919
374.9623, 78.70088
375.4444, 78.87724
375.9265, 78.38253
376.4087, 78.20420
376.8908, 78.75954
377.3729, 80.01545
377.8550, 80.90787
378.3371, 81.41367
378.8192, 81.59732
379.3014, 81.32198
379.7835, 80.54527
380.2656, 80.27408
380.7477, 80.88728
381.2298, 81.94762
381.7119, 82.16077
382.1941, 81.50093
382.6762, 81.11561
383.1583, 81.95032
383.6404, 83.73766
384.1225, 85.44628
384.6046, 86.99269
385.0868, 88.38229
385.5689, 89.37068
386.0510, 90.14299
386.5331, 91.39723
387.0152, 93.80818
387.4973, 96.76758
387.9795, 99.54372
388.4616, 102.1235
388.9437, 104.3486
389.4258, 105.7730
389.9079, 106.8557
390.3900, 108.2279
390.8722, 110.1490
391.3543, 112.3466
391.8364, 114.6631
392.3185, 117.0792
392.8006, 119.6016
393.2827, 122.0882
393.7649, 124.7743
394.2470, 127.8700
394.7291, 131.5925
395.2112, 135.2047
395.6933, 138.4061
396.1754, 141.3415
396.6576, 144.2289
397.1397, 146.2912
397.6218, 149.0951
398.1039, 153.0569
398.5860, 158.1965
399.0681, 164.5126
399.5503, 172.4153
400.0324, 181.2917
400.5145, 190.5528
400.9966, 199.1105
401.4787, 209.6484
401.9608, 222.6685
402.4430, 237.8306
402.9251, 253.8807
403.4072, 271.0357
403.8893, 288.8445
404.3714, 307.4788
404.8535, 328.0444
405.3357, 345.7908
405.8178, 361.6595
406.2999, 373.2313
406.7820, 376.0458
407.2641, 369.0566
407.7462, 359.1037
408.2284, 346.6729
408.7105, 332.9979
409.1926, 323.0805
409.6747, 317.0035
410.1568, 314.0480
410.6389, 313.8055
411.1211, 316.2244
411.6032, 321.2450
412.0853, 329.3510
412.5674, 339.1349
413.0495, 348.5132
413.5316, 357.8320
414.0138, 368.5262
414.4959, 381.1628
414.9780, 395.9086
415.4601, 412.9393
415.9422, 432.4466
416.4243, 453.7224
416.9065, 475.8844
417.3886, 499.6242
417.8707, 525.4911
418.3528, 553.8966
418.8349, 584.5505
419.3170, 617.5718
419.7992, 653.2335
420.2813, 690.8414
420.7634, 733.4923
421.2455, 776.5602
421.7276, 817.6888
422.2097, 858.8817
422.6919, 893.2697
423.1740, 923.1041
423.6561, 944.4153
424.1382, 951.7684
424.6203, 942.3021
425.1024, 920.5162
425.5846, 885.3464
426.0667, 836.5409
426.5488, 782.7004
427.0309, 718.2963
427.5130, 653.1091
427.9951, 593.1081
428.4773, 536.8858
428.9594, 489.0140
429.4415, 450.4533
429.9236, 420.2271
430.4057, 395.5121
430.8878, 376.5450
431.3700, 362.8787
431.8521, 354.6255
432.3342, 351.7814
432.8163, 352.7491
433.2984, 357.5086
433.7805, 366.1356
434.2627, 378.3111
434.7448, 394.1773
435.2269, 415.2166
435.7090, 442.5007
436.1911, 474.9168
436.6732, 509.9391
437.1554, 547.7831
437.6375, 589.1929
438.1196, 637.7863
438.6017, 689.3696
439.0838, 738.5402
439.5659, 785.6716
440.0480, 825.5077
440.5302, 861.1221
441.0123, 885.8428
441.4944, 888.4733
441.9765, 857.4578
442.4586, 808.7840
442.9407, 745.7121
443.4229, 670.7713
443.9050, 597.9369
444.3871, 530.4255
444.8692, 469.4877
445.3513, 416.1932
445.8334, 371.2024
446.3156, 332.7957
446.7977, 302.4515
447.2798, 278.4462
447.7619, 258.0230
448.2440, 242.2377
448.7261, 228.8698
449.2083, 217.7076
449.6904, 208.7094
450.1725, 201.6054
450.6546, 196.9027
451.1367, 193.5516
451.6188, 190.7139
452.1010, 188.1019
452.5831, 186.9792
453.0652, 187.4877
453.5473, 189.4730
454.0294, 192.6369
454.5115, 197.0045
454.9937, 202.5091
455.4758, 209.4585
455.9579, 217.6324
456.4400, 226.0502
456.9221, 234.8211
457.4042, 243.4572
457.8864, 251.3195
458.3685, 258.6896
458.8506, 266.9912
459.3327, 277.5771
459.8148, 287.4055
460.2969, 293.3807
460.7791, 295.7103
461.2612, 294.8718
461.7433, 291.0318
462.2254, 284.2355
462.7075, 273.9346
463.1896, 259.7747
463.6718, 244.9017
464.1539, 230.3500
464.6360, 216.2448
465.1181, 202.9602
465.6002, 189.8879
466.0823, 178.3924
466.5645, 168.9759
467.0466, 161.5042
467.5287, 155.4609
468.0108, 151.1926
468.4929, 147.9982
468.9750, 145.6650
469.4572, 144.2422
469.9393, 143.4756
470.4214, 143.2099
470.9035, 143.7517
471.3856, 145.3576
471.8677, 147.9142
472.3499, 151.8990
472.8320, 157.4356
473.3141, 164.4980
473.7962, 173.0507
474.2783, 183.0912
474.7604, 194.6335
475.2426, 208.0034
475.7247, 223.0636
476.2068, 238.4911
476.6889, 254.2841
477.1710, 270.6439
477.6531, 289.3376
478.1353, 308.9139
478.6174, 325.7100
479.0995, 340.6740
479.5816, 349.9316
480.0637, 349.3848
480.5458, 339.4438
481.0280, 321.4445
481.5101, 290.3106
481.9922, 255.0160
482.4743, 222.1364
482.9564, 191.9765
483.4385, 165.8944
483.9207, 145.4620
484.4028, 129.2002
484.8849, 115.6199
485.3670, 105.4487
485.8491, 96.98586
486.3312, 90.27262
486.8134, 85.16883
487.2955, 80.79723
487.7776, 77.44640
488.2597, 74.60413
488.7418, 72.12745
489.2239, 70.09306
489.7061, 68.12145
490.1882, 66.07377
490.6703, 64.29091
491.1524, 63.29912
491.6345, 63.23555
492.1166, 62.82096
492.5988, 61.71576
493.0809, 60.18173
493.5630, 58.73106
494.0451, 57.36364
494.5272, 56.47513
495.0093, 56.64933
495.4915, 57.40876
495.9736, 57.56048
496.4557, 57.01596
496.9378, 56.49473
497.4199, 56.81861
497.9020, 57.53768
498.3842, 57.96507
498.8663, 57.88637
499.3484, 57.48375
499.8305, 56.62019
500.3126, 55.50701
500.7947, 54.68346
501.2769, 54.71154
501.7590, 54.75174
502.2411, 54.28301
502.7232, 53.13401
503.2053, 52.44484
503.6874, 52.58788
504.1696, 53.11434
504.6517, 53.74253
505.1338, 54.84290
505.6159, 55.36047
506.0980, 54.97147
506.5801, 54.07859
507.0623, 53.62026
507.5444, 53.69106
508.0265, 53.89016
508.5086, 54.15033
508.9907, 54.43634
509.4728, 54.43078
509.9550, 54.11565
510.4371, 53.66069
510.9192, 52.95625
511.4013, 52.18995
511.8834, 52.21844
512.3655, 53.35820
512.8477, 54.70085
513.3298, 55.16968
513.8119, 55.01619
514.2940, 54.83728
514.7761, 54.76637
515.2582, 54.88142
515.7404, 55.49512
516.2225, 56.48827
516.7046, 57.00513
517.1867, 56.09857
517.6688, 54.98124
518.1509, 54.43500
518.6331, 54.70920
519.1152, 55.21271
519.5973, 56.26698
520.0794, 57.34020
520.5615, 57.74819
521.0436, 57.06684
521.5258, 56.36746
522.0079, 55.72956
522.4900, 55.19341
522.9721, 54.95364
523.4542, 55.01659
523.9363, 55.36396
524.4185, 56.23147
524.9006, 57.61341
525.3827, 58.08862
525.8648, 57.54804
526.3469, 56.68064
526.8290, 56.12255
527.3112, 55.85398
527.7933, 55.80056
528.2754, 55.98793
528.7575, 56.30185
529.2396, 56.51897
529.7217, 56.73922
530.2039, 57.24631
530.6860, 58.76446
531.1681, 60.19094
531.6502, 60.54594
532.1323, 59.81299
532.6144, 59.29760
533.0966, 59.45094
533.5787, 60.04122
534.0608, 60.97039
534.5429, 62.91865
535.0250, 64.05376
535.5071, 63.56091
535.9893, 62.41768
536.4714, 62.04919
536.9535, 62.82432
537.4356, 63.66581
537.9177, 64.35284
538.3998, 64.91531
538.8820, 65.47182
539.3641, 65.99200
539.8462, 66.61301
540.3283, 67.62231
540.8104, 68.89191
541.2925, 69.28387
541.7747, 68.59619
542.2568, 68.04932
542.7389, 69.22184
543.2210, 71.53539
543.7031, 73.63163
544.1852, 75.06898
544.6674, 76.25310
545.1495, 77.56135
545.6316, 78.89333
546.1137, 79.99747
546.5958, 80.43334
547.0779, 80.89021
547.5601, 82.01050
548.0422, 83.85277
548.5243, 84.85420
549.0064, 83.94468
549.4885, 82.61395
549.9706, 81.77619
550.4528, 81.63475
550.9349, 81.59771
551.4170, 81.48161
551.8991, 81.61082
552.3812, 82.60820
552.8633, 84.75217
553.3455, 86.60503
553.8276, 87.72717
554.3097, 88.37316
554.7918, 89.26270
555.2739, 90.38082
555.7560, 91.89744
556.2382, 94.09491
556.7203, 96.72902
557.2024, 99.21371
557.6845, 101.5150
558.1666, 103.9905
558.6487, 106.9490
559.1309, 110.2394
559.6130, 113.6303
560.0951, 117.1398
560.5772, 120.6453
561.0593, 124.3918
561.5414, 128.0623
562.0236, 131.0443
562.5057, 133.9780
562.9878, 135.4294
563.4699, 134.5859
563.9520, 131.6613
564.4341, 128.5184
564.9163, 124.6197
565.3984, 121.2529
565.8805, 119.0240
566.3626, 118.0129
566.8447, 117.7424
567.3268, 118.3683
567.8090, 119.2822
568.2911, 119.6214
568.7732, 119.5066
569.2553, 120.0269
569.7374, 121.5232
570.2195, 123.5205
570.7017, 125.3594
571.1838, 127.1763
571.6659, 129.3577
572.1480, 132.6676
572.6301, 136.0332
573.1122, 138.1121
573.5944, 139.1437
574.0765, 141.1114
574.5586, 145.9176
575.0407, 151.1598
575.5228, 155.2222
576.0049, 157.0161
576.4871, 160.0924
576.9692, 165.3331
577.4513, 171.6035
577.9334, 178.0580
578.4155, 184.7644
578.8976, 191.2109
579.3798, 197.1329
579.8619, 202.9256
580.3440, 209.6863
580.8261, 217.5209
581.3082, 224.6565
581.7903, 229.8062
582.2725, 233.8293
582.7546, 239.3185
583.2367, 246.1632
583.7188, 252.9903
584.2009, 258.0693
584.6830, 262.7580
585.1652, 268.7432
585.6473, 276.2773
586.1294, 285.0462
586.6115, 293.9533
587.0936, 304.4804
587.5757, 318.0840
588.0578, 335.6236
588.5399, 355.6921
589.0220, 377.9240
589.5042, 402.6063
589.9863, 430.0606
590.4684, 458.7131
590.9505, 492.1825
591.4326, 531.6561
591.9147, 576.8344
592.3969, 625.5258
592.8790, 678.0634
593.3611, 732.6486
593.8432, 789.0941
594.3253, 846.2788
594.8074, 903.2396
595.2896, 959.7946
595.7717, 1017.460
596.2538, 1077.587
596.7359, 1139.915
597.2180, 1204.121
597.7001, 1267.744
598.1823, 1335.339
598.6644, 1408.181
599.1465, 1487.098
599.6286, 1573.865
600.1107, 1663.560
600.5928, 1765.676
601.0750, 1884.356
601.5571, 2018.924
602.0392, 2162.396
602.5213, 2308.610
603.0034, 2473.537
603.4855, 2662.357
603.9677, 2877.303
604.4498, 3108.050
604.9319, 3357.087
605.4140, 3619.820
605.8961, 3889.116
606.3782, 4166.902
606.8604, 4447.686
607.3425, 4737.541
607.8246, 5010.286
608.3067, 5253.382
608.7888, 5453.375
609.2709, 5576.547
609.7531, 5617.383
610.2352, 5570.711
