##NAMES=Danburite
##RRUFFID=R050602
##IDEAL CHEMISTRY=CaB_2_Si_2_O_8_
##LOCALITY=Mogok, Burma
##OWNER=RRUFF
##SOURCE=Bill Larson
##DESCRIPTION=Yellowish brown fragment
##STATUS=The identification of this mineral has been confirmed by X-ray diffraction and chemical analysis
##URL=rruff.info/R050602
##MEASURED CHEMISTRY=Ca_1.00_B_2.00_(Si_1.00_O_4_)_2_
91.11523, 48.95027
91.59735, 48.88344
92.07947, 48.90905
92.56158, 49.01468
93.04370, 49.16241
93.52582, 49.24129
94.00793, 49.34980
94.49006, 49.70161
94.97218, 50.32649
95.45429, 51.18620
95.93641, 52.43591
96.41853, 54.06028
96.90064, 55.43483
97.38276, 56.01880
97.86488, 55.87096
98.34699, 55.63134
98.82911, 55.34556
99.31123, 55.06239
99.79334, 54.92204
100.2755, 54.90863
100.7576, 55.09808
101.2397, 55.69889
101.7218, 56.88059
102.2039, 57.66784
102.6861, 57.73883
103.1682, 57.10341
103.6503, 56.75295
104.1324, 56.78776
104.6145, 56.99269
105.0966, 57.08153
105.5788, 56.86316
106.0609, 56.85256
106.5430, 57.10724
107.0251, 57.50883
107.5072, 58.65555
107.9893, 61.28040
108.4715, 64.47774
108.9536, 66.61613
109.4357, 66.11076
109.9178, 65.97869
110.3999, 67.18258
110.8820, 70.21400
111.3642, 73.74631
111.8463, 77.73897
112.3284, 82.21358
112.8105, 87.24292
113.2926, 93.65262
113.7747, 100.1464
114.2569, 106.0014
114.7390, 110.2582
115.2211, 114.9019
115.7032, 119.8709
116.1853, 125.3658
116.6674, 132.3721
117.1496, 141.1475
117.6317, 151.7199
118.1138, 164.0070
118.5959, 178.6260
119.0780, 194.5147
119.5602, 210.5699
120.0423, 227.0332
120.5244, 245.9019
121.0065, 268.6273
121.4886, 294.3878
121.9707, 322.2216
122.4529, 352.2142
122.9350, 383.5223
123.4171, 416.3058
123.8992, 450.8069
124.3813, 483.6979
124.8634, 515.4806
125.3456, 543.8815
125.8277, 563.8079
126.3098, 568.7969
126.7919, 564.7488
127.2740, 558.2490
127.7561, 548.5297
128.2383, 541.6486
128.7204, 545.5400
129.2025, 559.1080
129.6846, 576.5943
130.1667, 598.2020
130.6488, 621.2883
131.1310, 638.1943
131.6131, 646.4811
132.0952, 650.9865
132.5773, 659.6382
133.0594, 672.5190
133.5415, 688.2289
134.0237, 705.8320
134.5058, 725.4839
134.9879, 748.0847
135.4700, 774.3382
135.9521, 803.4293
136.4343, 833.8632
136.9164, 865.8800
137.3985, 898.6876
137.8806, 931.5711
138.3627, 964.5021
138.8448, 1001.122
139.3270, 1049.020
139.8091, 1104.317
140.2912, 1127.656
140.7733, 1113.747
141.2554, 1077.622
141.7375, 1030.356
142.2197, 962.7483
142.7018, 907.4470
143.1839, 872.6727
143.6660, 859.3967
144.1481, 852.9998
144.6302, 854.6376
145.1124, 862.2607
145.5945, 873.3451
146.0766, 888.1834
146.5587, 906.2742
147.0408, 927.6542
147.5230, 952.4775
148.0051, 979.3504
148.4872, 1003.007
148.9693, 1022.772
149.4514, 1045.945
149.9335, 1073.902
150.4157, 1103.837
150.8978, 1135.253
151.3799, 1172.687
151.8620, 1203.411
152.3441, 1236.781
152.8262, 1263.449
153.3084, 1264.491
153.7905, 1216.504
154.2726, 1162.639
154.7547, 1116.858
155.2368, 1080.142
155.7189, 1052.663
156.2011, 1036.663
156.6832, 1029.660
157.1653, 1026.241
157.6474, 1026.623
158.1295, 1029.241
158.6116, 1033.199
159.0938, 1037.126
159.5759, 1043.955
160.0580, 1053.611
160.5401, 1066.450
161.0222, 1083.857
161.5044, 1102.779
161.9865, 1128.259
162.4686, 1163.717
162.9507, 1211.607
163.4328, 1267.531
163.9149, 1325.788
164.3971, 1389.135
164.8792, 1469.297
165.3613, 1589.245
165.8434, 1720.857
166.3255, 1840.040
166.8076, 2001.945
167.2898, 2093.911
167.7719, 2016.879
168.2540, 1788.288
168.7361, 1557.764
169.2182, 1395.399
169.7003, 1285.206
170.1825, 1208.199
170.6646, 1171.516
171.1467, 1155.575
171.6288, 1147.073
172.1109, 1145.918
172.5931, 1150.044
173.0752, 1159.268
173.5573, 1172.594
174.0394, 1188.498
174.5215, 1205.267
175.0036, 1224.734
175.4858, 1248.659
175.9679, 1277.255
176.4500, 1309.304
176.9321, 1341.858
177.4142, 1377.326
177.8963, 1420.520
178.3785, 1475.057
178.8606, 1538.848
179.3427, 1605.957
179.8248, 1676.413
180.3069, 1754.747
180.7890, 1848.197
181.2712, 1953.617
181.7533, 2060.262
182.2354, 2186.840
182.7175, 2308.138
183.1996, 2367.810
183.6818, 2363.844
184.1639, 2305.180
184.6460, 2176.816
185.1281, 1992.013
185.6102, 1813.643
186.0923, 1664.732
186.5745, 1545.794
187.0566, 1466.771
187.5387, 1429.739
188.0208, 1422.550
188.5029, 1431.722
188.9850, 1456.847
189.4672, 1493.000
189.9493, 1541.361
190.4314, 1599.739
190.9135, 1662.730
191.3956, 1733.792
191.8777, 1799.230
192.3599, 1839.955
192.8420, 1855.713
193.3241, 1855.638
193.8062, 1847.652
194.2883, 1830.305
194.7704, 1783.839
195.2526, 1701.272
195.7347, 1600.520
196.2168, 1508.592
196.6989, 1424.795
197.1810, 1357.351
197.6632, 1313.068
198.1453, 1291.505
198.6274, 1278.974
199.1095, 1275.130
199.5916, 1279.438
200.0737, 1290.785
200.5559, 1309.154
201.0380, 1334.595
201.5201, 1367.886
202.0022, 1409.656
202.4843, 1454.847
202.9664, 1503.404
203.4486, 1555.052
203.9307, 1615.044
204.4128, 1688.986
204.8949, 1746.785
205.3770, 1770.646
205.8591, 1757.982
206.3413, 1727.121
206.8234, 1670.239
207.3055, 1602.217
207.7876, 1560.171
208.2697, 1546.048
208.7519, 1552.808
209.2340, 1579.001
209.7161, 1626.937
210.1982, 1684.990
210.6803, 1760.302
211.1624, 1840.955
211.6446, 1899.531
212.1267, 1943.265
212.6088, 1946.291
213.0909, 1885.731
213.5730, 1742.581
214.0551, 1607.986
214.5373, 1481.999
215.0194, 1369.508
215.5015, 1282.443
215.9836, 1225.054
216.4657, 1183.896
216.9478, 1152.230
217.4300, 1131.285
217.9121, 1115.959
218.3942, 1106.994
218.8763, 1103.238
219.3584, 1101.747
219.8405, 1102.829
220.3227, 1105.575
220.8048, 1109.312
221.2869, 1113.394
221.7690, 1120.181
222.2511, 1129.143
222.7333, 1141.017
223.2154, 1157.700
223.6975, 1180.011
224.1796, 1206.097
224.6617, 1234.520
225.1438, 1262.953
225.6260, 1300.040
226.1081, 1348.059
226.5902, 1404.289
227.0723, 1463.009
227.5544, 1539.750
228.0365, 1595.497
228.5187, 1608.553
229.0008, 1559.100
229.4829, 1514.693
229.9650, 1473.352
230.4471, 1438.055
230.9292, 1416.796
231.4114, 1413.350
231.8935, 1417.800
232.3756, 1425.776
232.8577, 1436.582
233.3398, 1452.883
233.8220, 1475.525
234.3041, 1503.397
234.7862, 1533.038
235.2683, 1563.108
235.7504, 1596.829
236.2325, 1636.021
236.7147, 1680.366
237.1968, 1729.227
237.6789, 1781.150
238.1610, 1838.220
238.6431, 1903.955
239.1252, 1975.866
239.6074, 2061.580
240.0895, 2164.199
240.5716, 2282.300
241.0537, 2418.285
241.5358, 2571.965
242.0179, 2743.675
242.5001, 2934.417
242.9822, 3146.157
243.4643, 3374.080
243.9464, 3621.925
244.4285, 3904.365
244.9106, 4168.162
245.3928, 4455.130
245.8749, 4700.510
246.3570, 4791.625
246.8391, 4708.153
247.3212, 4502.930
247.8034, 4167.327
248.2855, 3655.366
248.7676, 3198.866
249.2497, 2792.171
249.7318, 2441.365
250.2139, 2158.588
250.6961, 1958.118
251.1782, 1799.606
251.6603, 1674.616
252.1424, 1586.469
252.6245, 1510.807
253.1066, 1448.485
253.5888, 1397.215
254.0709, 1353.547
254.5530, 1318.573
255.0351, 1288.929
255.5172, 1264.931
255.9993, 1246.966
256.4815, 1228.795
256.9636, 1209.473
257.4457, 1191.171
257.9278, 1176.447
258.4099, 1166.465
258.8921, 1157.379
259.3742, 1148.495
259.8563, 1139.900
260.3384, 1130.359
260.8205, 1118.996
261.3026, 1107.992
261.7848, 1099.469
262.2669, 1094.040
262.7490, 1089.589
263.2311, 1085.678
263.7132, 1082.336
264.1953, 1080.550
264.6775, 1080.879
265.1596, 1081.881
265.6417, 1082.174
266.1238, 1081.338
266.6059, 1081.201
267.0880, 1081.969
267.5702, 1083.677
268.0523, 1086.794
268.5344, 1092.080
269.0165, 1097.295
269.4986, 1100.257
269.9807, 1100.047
270.4629, 1101.875
270.9450, 1106.742
271.4271, 1114.072
271.9092, 1121.152
272.3913, 1127.479
272.8734, 1134.973
273.3556, 1144.736
273.8377, 1156.742
274.3198, 1171.253
274.8019, 1188.920
275.2840, 1208.807
275.7661, 1228.199
276.2483, 1246.507
276.7304, 1266.559
277.2125, 1291.683
277.6946, 1322.812
278.1768, 1347.980
278.6589, 1368.044
279.1410, 1379.776
279.6231, 1374.981
280.1052, 1352.225
280.5873, 1322.237
281.0695, 1287.322
281.5516, 1247.477
282.0337, 1214.835
282.5158, 1189.923
282.9979, 1171.776
283.4800, 1159.702
283.9622, 1153.818
284.4443, 1151.315
284.9264, 1151.559
285.4085, 1154.370
285.8906, 1158.451
286.3727, 1163.899
286.8549, 1170.199
287.3370, 1176.082
287.8191, 1181.664
288.3012, 1189.610
288.7833, 1201.033
289.2654, 1215.472
289.7476, 1231.584
290.2297, 1249.362
290.7118, 1268.897
291.1939, 1290.514
291.6760, 1313.960
292.1581, 1338.868
292.6403, 1365.278
293.1224, 1392.944
293.6045, 1423.118
294.0866, 1455.584
294.5687, 1486.848
295.0508, 1518.465
295.5330, 1547.338
296.0151, 1562.300
296.4972, 1560.514
296.9793, 1544.058
297.4614, 1513.544
297.9435, 1469.840
298.4257, 1421.334
298.9078, 1370.153
299.3899, 1318.975
299.8720, 1274.606
300.3541, 1237.511
300.8362, 1208.025
301.3184, 1188.159
301.8005, 1176.598
302.2826, 1168.786
302.7647, 1162.173
303.2469, 1157.431
303.7290, 1155.240
304.2111, 1155.566
304.6932, 1159.076
305.1753, 1170.090
305.6574, 1185.133
306.1396, 1195.569
306.6217, 1198.219
307.1038, 1193.619
307.5859, 1180.169
308.0680, 1156.896
308.5501, 1133.325
309.0323, 1114.855
309.5144, 1101.066
309.9965, 1091.330
310.4786, 1086.228
310.9607, 1084.368
311.4428, 1086.196
311.9250, 1091.497
312.4071, 1095.557
312.8892, 1094.913
313.3713, 1091.771
313.8534, 1088.416
314.3355, 1085.912
314.8177, 1083.127
315.2998, 1079.270
315.7819, 1074.542
316.2640, 1069.896
316.7461, 1064.668
317.2282, 1060.342
317.7104, 1058.123
318.1925, 1059.675
318.6746, 1061.268
319.1567, 1061.805
319.6388, 1061.439
320.1209, 1060.568
320.6031, 1058.444
321.0852, 1056.494
321.5673, 1055.365
322.0494, 1055.059
322.5315, 1055.787
323.0136, 1058.093
323.4958, 1061.390
323.9779, 1064.722
324.4600, 1067.536
324.9421, 1070.756
325.4242, 1074.526
325.9064, 1078.749
326.3885, 1084.125
326.8706, 1091.385
327.3527, 1099.549
327.8348, 1107.672
328.3170, 1114.512
328.7991, 1122.651
329.2812, 1132.685
329.7633, 1144.689
330.2454, 1156.836
330.7275, 1169.898
331.2097, 1182.306
331.6918, 1192.854
332.1739, 1200.530
332.6560, 1207.956
333.1381, 1215.045
333.6202, 1221.937
334.1024, 1229.119
334.5845, 1236.540
335.0666, 1244.170
335.5487, 1251.979
336.0308, 1259.801
336.5129, 1268.019
336.9951, 1276.503
337.4772, 1285.509
337.9593, 1295.687
338.4414, 1306.731
338.9235, 1320.047
339.4056, 1336.122
339.8878, 1354.758
340.3699, 1377.076
340.8520, 1403.231
341.3341, 1433.064
341.8162, 1467.054
342.2983, 1504.806
342.7805, 1547.645
343.2626, 1594.781
343.7447, 1647.212
344.2268, 1708.221
344.7089, 1778.755
345.1910, 1855.696
345.6732, 1936.262
346.1553, 2021.118
346.6374, 2109.036
347.1195, 2205.803
347.6016, 2299.670
348.0837, 2377.546
348.5659, 2438.699
349.0480, 2458.814
349.5301, 2413.262
350.0122, 2314.388
350.4944, 2187.743
350.9765, 2030.668
351.4586, 1867.956
351.9407, 1725.523
352.4228, 1603.301
352.9049, 1501.120
353.3871, 1423.169
353.8692, 1363.318
354.3513, 1315.621
354.8334, 1280.001
355.3155, 1251.441
355.7976, 1227.551
356.2798, 1207.520
356.7619, 1189.794
357.2440, 1173.809
357.7261, 1160.067
358.2082, 1149.448
358.6903, 1141.705
359.1725, 1135.195
359.6546, 1129.305
360.1367, 1124.077
360.6188, 1119.673
361.1009, 1116.643
361.5830, 1113.710
362.0652, 1110.051
362.5473, 1106.073
363.0294, 1102.779
363.5115, 1101.247
363.9936, 1099.922
364.4757, 1098.023
364.9579, 1095.278
365.4400, 1092.561
365.9221, 1089.877
366.4042, 1087.376
366.8863, 1085.248
367.3684, 1083.729
367.8506, 1082.398
368.3327, 1081.295
368.8148, 1080.472
369.2969, 1079.304
369.7790, 1077.069
370.2611, 1074.988
370.7433, 1073.965
371.2254, 1075.121
371.7075, 1075.553
372.1896, 1074.758
372.6717, 1073.026
373.1538, 1071.556
373.6360, 1070.262
374.1181, 1069.341
374.6002, 1068.966
375.0823, 1069.311
375.5645, 1069.472
376.0466, 1069.226
376.5287, 1069.039
377.0108, 1069.866
377.4929, 1071.947
377.9750, 1073.847
378.4572, 1075.011
378.9393, 1075.535
379.4214, 1076.040
379.9035, 1076.425
380.3856, 1077.236
380.8677, 1079.439
381.3499, 1082.879
381.8320, 1085.471
382.3141, 1086.569
382.7962, 1086.805
383.2783, 1087.110
383.7604, 1087.530
384.2426, 1088.906
384.7247, 1092.712
385.2068, 1097.779
385.6889, 1101.486
386.1710, 1103.342
386.6531, 1104.496
387.1353, 1105.612
387.6174, 1106.963
388.0995, 1109.243
388.5816, 1113.421
389.0637, 1118.351
389.5458, 1122.887
390.0280, 1127.066
390.5101, 1131.437
390.9922, 1136.240
391.4743, 1141.481
391.9564, 1147.257
392.4385, 1153.886
392.9207, 1160.667
393.4028, 1167.335
393.8849, 1173.825
394.3670, 1179.998
394.8491, 1186.884
395.3312, 1192.554
395.8134, 1196.079
396.2955, 1197.527
396.7776, 1196.252
397.2597, 1190.473
397.7418, 1182.409
398.2239, 1174.898
398.7061, 1167.271
399.1882, 1161.351
399.6703, 1157.730
400.1524, 1156.444
400.6346, 1156.328
401.1167, 1157.769
401.5988, 1160.044
402.0809, 1162.582
402.5630, 1164.682
403.0451, 1168.420
403.5273, 1173.945
404.0094, 1181.137
404.4915, 1190.001
404.9736, 1201.447
405.4557, 1212.371
405.9378, 1221.836
406.4200, 1229.923
406.9021, 1235.525
407.3842, 1238.512
407.8663, 1239.221
408.3484, 1237.558
408.8305, 1233.488
409.3127, 1228.828
409.7948, 1223.238
410.2769, 1217.922
410.7590, 1216.713
411.2411, 1219.649
411.7232, 1223.976
412.2054, 1227.380
412.6875, 1230.608
413.1696, 1235.630
413.6517, 1242.929
414.1338, 1251.581
414.6159, 1260.780
415.0981, 1270.430
415.5802, 1280.224
416.0623, 1288.443
416.5444, 1297.579
417.0265, 1310.169
417.5086, 1326.333
417.9908, 1343.837
418.4729, 1361.505
418.9550, 1379.559
419.4371, 1397.875
419.9192, 1415.700
420.4013, 1434.971
420.8835, 1457.457
421.3656, 1482.111
421.8477, 1506.265
422.3298, 1529.715
422.8119, 1551.697
423.2940, 1572.537
423.7762, 1593.047
424.2583, 1609.419
424.7404, 1623.887
425.2225, 1632.653
425.7047, 1631.910
426.1868, 1619.292
426.6689, 1600.278
427.1510, 1574.696
427.6331, 1542.902
428.1152, 1507.372
428.5974, 1464.348
429.0795, 1422.536
429.5616, 1386.379
430.0437, 1356.292
430.5258, 1330.447
431.0079, 1309.026
431.4901, 1291.762
431.9722, 1278.208
432.4543, 1268.373
432.9364, 1262.355
433.4185, 1261.133
433.9006, 1263.893
434.3828, 1266.732
434.8649, 1269.507
435.3470, 1274.141
435.8291, 1282.008
436.3112, 1293.177
436.7933, 1307.697
437.2755, 1325.780
437.7576, 1346.898
438.2397, 1370.720
438.7218, 1396.944
439.2039, 1424.529
439.6860, 1454.240
440.1682, 1484.541
440.6503, 1515.553
441.1324, 1547.897
441.6145, 1572.019
442.0966, 1584.134
442.5787, 1584.189
443.0609, 1572.068
443.5430, 1541.675
444.0251, 1505.461
444.5072, 1463.742
444.9893, 1418.776
445.4714, 1378.270
445.9536, 1343.913
446.4357, 1314.046
446.9178, 1287.949
447.3999, 1265.317
447.8820, 1247.298
448.3641, 1235.343
448.8463, 1227.062
449.3284, 1219.724
449.8105, 1212.817
450.2926, 1208.027
450.7747, 1206.030
451.2569, 1206.473
451.7390, 1207.082
452.2211, 1207.529
452.7032, 1208.938
453.1853, 1211.917
453.6674, 1216.491
454.1496, 1222.397
454.6317, 1229.827
455.1138, 1238.077
455.5959, 1245.421
456.0780, 1252.157
456.5602, 1261.119
457.0423, 1274.219
457.5244, 1289.550
458.0065, 1303.173
458.4886, 1315.208
458.9707, 1328.222
459.4529, 1347.828
459.9350, 1368.478
460.4171, 1381.574
460.8992, 1386.057
461.3813, 1382.904
461.8634, 1369.507
462.3456, 1349.494
462.8277, 1329.281
463.3098, 1307.780
463.7919, 1289.656
464.2740, 1278.043
464.7561, 1272.669
465.2383, 1268.964
465.7204, 1264.953
466.2025, 1262.549
466.6846, 1263.048
467.1667, 1267.841
467.6488, 1273.469
468.1310, 1279.772
468.6131, 1286.783
469.0952, 1294.768
469.5773, 1304.041
470.0594, 1313.667
470.5415, 1322.941
471.0237, 1331.960
471.5058, 1344.257
471.9879, 1359.898
472.4700, 1378.770
472.9521, 1400.443
473.4342, 1424.958
473.9164, 1453.060
474.3985, 1485.244
474.8806, 1520.810
475.3627, 1558.270
475.8448, 1597.840
476.3270, 1641.929
476.8091, 1690.928
477.2912, 1744.955
477.7733, 1804.532
478.2554, 1869.521
478.7375, 1937.888
479.2197, 2018.708
479.7018, 2098.609
480.1839, 2162.304
480.6660, 2213.112
481.1481, 2229.288
481.6302, 2187.628
482.1124, 2102.869
482.5945, 1999.928
483.0766, 1865.246
483.5587, 1734.662
484.0408, 1622.265
484.5229, 1528.984
485.0051, 1451.031
485.4872, 1392.724
485.9693, 1345.905
486.4514, 1306.628
486.9335, 1275.250
487.4156, 1249.729
487.8978, 1231.277
488.3799, 1218.135
488.8620, 1207.274
489.3441, 1199.359
489.8262, 1192.010
490.3083, 1184.334
490.7905, 1176.568
491.2726, 1171.033
491.7547, 1168.065
492.2368, 1165.505
492.7189, 1161.613
493.2010, 1156.609
493.6832, 1152.191
494.1653, 1148.307
494.6474, 1145.642
495.1295, 1146.355
495.6116, 1149.164
496.0938, 1150.039
496.5759, 1145.227
497.0580, 1139.494
497.5401, 1138.990
498.0222, 1142.670
498.5044, 1145.246
498.9865, 1141.685
499.4686, 1137.084
499.9507, 1136.057
500.4328, 1140.504
500.9149, 1143.737
501.3971, 1142.334
501.8792, 1138.986
502.3613, 1136.815
502.8434, 1137.156
503.3255, 1137.741
503.8076, 1138.180
504.2898, 1138.545
504.7719, 1139.287
505.2540, 1141.063
505.7361, 1142.211
506.2182, 1141.774
506.7003, 1139.362
507.1825, 1137.911
507.6646, 1137.593
508.1467, 1137.879
508.6288, 1138.614
509.1109, 1139.804
509.5930, 1139.564
510.0752, 1136.938
510.5573, 1133.587
511.0394, 1132.678
511.5215, 1133.984
512.0037, 1136.024
512.4858, 1138.954
512.9679, 1141.707
513.4500, 1142.370
513.9321, 1140.911
514.4142, 1139.374
514.8964, 1139.043
515.3785, 1139.429
515.8606, 1140.049
516.3427, 1140.971
516.8248, 1141.763
517.3069, 1142.471
517.7891, 1142.900
518.2712, 1142.689
518.7533, 1140.371
519.2354, 1138.806
519.7175, 1139.276
520.1996, 1141.724
520.6818, 1143.201
521.1639, 1142.987
521.6460, 1142.697
522.1281, 1143.532
522.6102, 1146.228
523.0923, 1146.960
523.5745, 1144.925
524.0566, 1142.100
524.5387, 1141.583
525.0208, 1143.363
525.5029, 1144.822
525.9850, 1144.954
526.4672, 1144.505
526.9493, 1145.138
527.4314, 1146.776
527.9135, 1148.638
528.3956, 1150.365
528.8777, 1152.001
529.3599, 1153.904
529.8420, 1156.206
530.3241, 1157.448
530.8062, 1155.797
531.2883, 1152.925
531.7704, 1150.721
532.2526, 1149.443
532.7347, 1149.180
533.2168, 1150.628
533.6989, 1153.099
534.1810, 1155.010
534.6631, 1156.149
535.1453, 1156.646
535.6274, 1156.161
536.1095, 1154.633
536.5916, 1154.436
537.0737, 1156.307
537.5558, 1158.373
538.0380, 1158.949
538.5201, 1157.532
539.0022, 1158.457
539.4843, 1162.549
539.9664, 1167.625
540.4485, 1170.270
540.9307, 1170.727
541.4128, 1171.156
541.8949, 1172.289
542.3770, 1173.719
542.8591, 1174.702
543.3412, 1175.323
543.8234, 1176.150
544.3055, 1178.230
544.7876, 1180.247
545.2697, 1180.454
545.7518, 1178.500
546.2339, 1177.296
546.7161, 1179.046
547.1982, 1181.783
547.6803, 1183.808
548.1624, 1184.352
548.6445, 1184.714
549.1266, 1184.899
549.6088, 1185.084
550.0909, 1185.673
550.5730, 1187.408
551.0551, 1188.395
551.5372, 1187.766
552.0193, 1185.802
552.5015, 1185.219
552.9836, 1186.149
553.4657, 1188.012
553.9478, 1191.055
554.4299, 1195.031
554.9120, 1197.230
555.3942, 1197.277
555.8763, 1196.563
556.3584, 1196.677
556.8405, 1197.252
557.3226, 1197.254
557.8047, 1195.704
558.2869, 1194.437
558.7690, 1195.417
559.2511, 1198.038
559.7332, 1200.783
560.2154, 1203.353
560.6975, 1205.554
561.1796, 1207.298
561.6617, 1208.591
562.1439, 1209.594
562.6260, 1208.669
563.1081, 1208.781
563.5902, 1211.883
564.0723, 1220.729
564.5544, 1226.683
565.0366, 1229.027
565.5187, 1229.241
566.0008, 1228.804
566.4829, 1227.315
566.9650, 1227.366
567.4471, 1229.677
567.9293, 1233.673
568.4114, 1238.443
568.8935, 1243.886
569.3756, 1248.495
569.8577, 1250.236
570.3398, 1250.953
570.8220, 1254.339
571.3041, 1260.370
571.7862, 1265.961
572.2683, 1268.846
572.7504, 1270.330
573.2325, 1271.682
573.7147, 1273.063
574.1968, 1274.574
574.6789, 1276.681
575.1610, 1278.811
575.6431, 1280.244
576.1252, 1279.839
576.6074, 1279.945
577.0895, 1280.694
577.5716, 1282.186
578.0537, 1284.810
578.5358, 1288.669
579.0179, 1293.457
579.5001, 1299.405
579.9822, 1306.427
580.4643, 1312.178
580.9464, 1316.489
581.4285, 1320.618
581.9106, 1325.525
582.3928, 1331.162
582.8749, 1337.562
583.3570, 1344.961
583.8391, 1352.095
584.3212, 1357.006
584.8033, 1360.981
585.2855, 1366.263
585.7676, 1374.511
586.2497, 1383.361
586.7318, 1391.576
587.2139, 1399.508
587.6960, 1408.162
588.1782, 1415.579
588.6603, 1425.896
589.1424, 1441.772
