##NAMES=Danburite
##RRUFFID=R040013
##IDEAL CHEMISTRY=CaB_2_Si_2_O_8_
##LOCALITY=Charcas, San Luis Potosi, Mexico
##OWNER=RRUFF
##SOURCE=Marcus Origlieri
##DESCRIPTION=Colorless prismatic single crystal
##STATUS=The identification of this mineral has been confirmed by X-ray diffraction and chemical analysis
##URL=rruff.info/R040013
##MEASURED CHEMISTRY=Ca_1.00_B_2.00_Si_2.00_O_8_
115.7232, 126.7489
116.2053, 132.6909
116.6874, 139.3625
117.1695, 146.9459
117.6517, 155.6557
118.1338, 164.4815
118.6159, 172.3698
119.0980, 180.9303
119.5801, 190.8689
120.0622, 202.2159
120.5444, 216.4741
121.0265, 235.5894
121.5086, 258.7311
121.9907, 288.4296
122.4728, 331.3224
122.9549, 381.7035
123.4371, 427.3370
123.9192, 471.4590
124.4013, 499.2330
124.8834, 496.0760
125.3655, 460.9136
125.8476, 416.5537
126.3298, 375.4084
126.8119, 336.6683
127.2940, 313.3593
127.7761, 324.4781
128.2582, 344.3398
128.7403, 362.5307
129.2225, 376.3530
129.7046, 380.4008
130.1867, 363.1697
130.6688, 310.4025
131.1509, 262.1313
131.6330, 220.3706
132.1152, 186.2216
132.5973, 160.8050
133.0794, 144.8763
133.5615, 137.3926
134.0436, 134.4817
134.5257, 137.6272
135.0079, 144.2046
135.4900, 152.7024
135.9721, 164.5259
136.4542, 182.6559
136.9363, 209.6196
137.4184, 244.9084
137.9006, 278.1475
138.3827, 323.1904
138.8648, 354.9255
139.3469, 359.3374
139.8290, 337.9048
140.3111, 302.2267
140.7933, 255.8758
141.2754, 201.0283
141.7575, 156.4532
142.2396, 125.7190
142.7217, 104.5746
143.2038, 90.01958
143.6860, 82.49091
144.1681, 78.48905
144.6502, 76.75694
145.1323, 76.46720
145.6144, 75.87804
146.0965, 73.99458
146.5787, 71.24572
147.0608, 68.93467
147.5429, 67.12326
148.0250, 65.84164
148.5071, 64.88889
148.9892, 64.34434
149.4714, 64.42518
149.9535, 65.49909
150.4356, 67.64889
150.9177, 69.68620
151.3998, 72.03633
151.8819, 73.88420
152.3641, 74.66383
152.8462, 74.50000
153.3283, 74.05403
153.8104, 74.01180
154.2925, 74.30449
154.7746, 75.28648
155.2568, 77.16251
155.7389, 79.41618
156.2210, 81.65968
156.7031, 83.83821
157.1852, 86.23875
157.6673, 89.30600
158.1495, 93.24876
158.6316, 97.64922
159.1137, 102.2383
159.5958, 107.3926
160.0779, 113.1966
160.5600, 119.6667
161.0422, 127.3659
161.5243, 137.2856
162.0064, 147.3904
162.4885, 163.4004
162.9706, 183.1669
163.4527, 209.8617
163.9349, 253.7211
164.4170, 325.8500
164.8991, 406.1579
165.3812, 462.7197
165.8633, 502.1196
166.3454, 508.9896
166.8276, 458.7718
167.3097, 359.0472
167.7918, 264.9598
168.2739, 194.4316
168.7560, 144.0304
169.2381, 108.7112
169.7203, 90.13525
170.2024, 80.83449
170.6845, 74.60690
171.1666, 71.85859
171.6487, 69.95705
172.1308, 68.34913
172.6130, 67.06786
173.0951, 66.18600
173.5772, 65.72968
174.0593, 65.65541
174.5414, 65.88807
175.0235, 66.41432
175.5057, 67.33138
175.9878, 68.57165
176.4699, 70.15425
176.9520, 72.11409
177.4341, 74.46531
177.9162, 77.19800
178.3984, 80.30397
178.8805, 83.64341
179.3626, 87.64095
179.8447, 92.63182
180.3268, 98.20368
180.8089, 104.0831
181.2911, 110.1440
181.7732, 116.1820
182.2553, 121.0457
182.7374, 124.7716
183.2195, 127.3138
183.7016, 127.5653
184.1838, 126.6599
184.6659, 126.3746
185.1480, 127.6842
185.6301, 130.6463
186.1122, 135.8712
186.5943, 141.6184
187.0764, 150.6209
187.5586, 163.2464
188.0407, 179.7875
188.5228, 201.7473
189.0049, 231.4170
189.4870, 267.4656
189.9691, 300.4212
190.4513, 340.5247
190.9334, 369.6443
191.4155, 374.1564
191.8976, 354.7303
192.3797, 323.1595
192.8618, 281.1811
193.3440, 233.2108
193.8261, 191.9978
194.3082, 159.4640
194.7903, 133.9695
195.2724, 114.9463
195.7545, 102.8597
196.2367, 94.30447
196.7188, 88.71873
197.2009, 85.16342
197.6830, 82.77958
198.1651, 81.51873
198.6472, 81.14902
199.1294, 81.29923
199.6115, 81.98483
200.0936, 83.20863
200.5757, 84.86476
201.0578, 87.01242
201.5399, 89.79910
202.0221, 93.29590
202.5042, 97.46225
202.9863, 102.4069
203.4684, 108.9759
203.9505, 114.8468
204.4326, 119.3797
204.9148, 122.8755
205.3969, 125.4955
205.8790, 126.9807
206.3611, 127.9354
206.8432, 131.4086
207.3253, 137.1166
207.8075, 146.3073
208.2896, 159.1201
208.7717, 175.3593
209.2538, 196.1061
209.7359, 222.8563
210.2180, 254.1187
210.7002, 274.9198
211.1823, 285.4790
211.6644, 284.2253
212.1465, 265.3346
212.6286, 234.5708
213.1107, 200.2887
213.5929, 167.4367
214.0750, 136.2545
214.5571, 111.5959
215.0392, 95.22979
215.5213, 82.50752
216.0034, 73.42713
216.4856, 67.18333
216.9677, 62.56444
217.4498, 58.79214
217.9319, 55.90641
218.4140, 54.21247
218.8961, 53.97312
219.3783, 54.35202
219.8604, 55.04493
220.3425, 56.09125
220.8246, 57.60462
221.3067, 59.58239
221.7888, 62.16951
222.2710, 65.95164
222.7531, 71.17223
223.2352, 77.15417
223.7173, 83.87260
224.1994, 91.19007
224.6815, 98.70595
225.1637, 106.6292
225.6458, 114.3253
226.1279, 119.9954
226.6100, 123.0773
227.0921, 124.7651
227.5742, 125.4298
228.0564, 125.1515
228.5385, 124.7147
229.0206, 124.1400
229.5027, 123.9142
229.9848, 124.8700
230.4669, 127.2038
230.9491, 130.5422
231.4312, 134.7258
231.9133, 139.7639
232.3954, 145.2086
232.8775, 150.7509
233.3596, 156.6704
233.8418, 163.2911
234.3239, 170.7989
234.8060, 178.8673
235.2881, 186.9917
235.7702, 195.0668
236.2523, 204.1978
236.7345, 214.7704
237.2166, 226.6932
237.6987, 239.7824
238.1808, 253.9270
238.6629, 269.6608
239.1451, 286.9157
239.6272, 305.1702
240.1093, 327.7798
240.5914, 354.9478
241.0735, 387.4162
241.5556, 425.6375
242.0378, 469.8562
242.5199, 520.8405
243.0020, 583.0046
243.4841, 660.4288
243.9662, 732.5443
244.4483, 812.6369
244.9305, 875.6789
245.4126, 905.4561
245.8947, 898.0035
246.3768, 859.0846
246.8589, 790.2739
247.3410, 679.3541
247.8231, 576.6654
248.3053, 482.1589
248.7874, 399.2401
249.2695, 331.3765
249.7516, 278.7139
250.2337, 237.6999
250.7158, 204.4605
251.1980, 180.4349
251.6801, 160.9053
252.1622, 146.8481
252.6443, 135.7430
253.1264, 126.5240
253.6085, 118.8646
254.0907, 112.6819
254.5728, 108.0285
255.0549, 105.2807
255.5370, 102.9632
256.0191, 101.0789
256.5013, 99.52736
256.9834, 98.59611
257.4655, 98.10723
257.9476, 97.39865
258.4297, 95.75760
258.9118, 93.06998
259.3940, 89.79592
259.8761, 85.33117
260.3582, 80.93354
260.8403, 77.08660
261.3224, 73.90177
261.8045, 71.34225
262.2867, 69.39424
262.7688, 68.11531
263.2509, 67.17492
263.7330, 66.50481
264.2151, 66.15087
264.6972, 66.16766
265.1794, 66.53027
265.6615, 67.16767
266.1436, 68.03613
266.6257, 69.14784
267.1078, 70.32613
267.5899, 71.46259
268.0721, 72.76183
268.5542, 74.23952
269.0363, 75.93978
269.5184, 77.97572
270.0005, 80.41917
270.4826, 83.27246
270.9648, 86.41809
271.4469, 89.21042
271.9290, 92.86600
272.4111, 97.77614
272.8932, 103.8830
273.3753, 110.9499
273.8575, 118.7032
274.3396, 127.3886
274.8217, 138.4986
275.3038, 152.5186
275.7859, 167.7434
276.2680, 185.7583
276.7502, 204.5375
277.2323, 220.9868
277.7144, 234.4638
278.1965, 243.2200
278.6786, 240.4247
279.1607, 224.1078
279.6428, 203.6115
280.1249, 178.0497
280.6071, 150.3652
281.0892, 125.7881
281.5713, 105.9643
282.0534, 90.35428
282.5355, 78.61440
283.0176, 70.89591
283.4998, 64.92477
283.9819, 60.82869
284.4640, 58.00650
284.9461, 55.55756
285.4282, 53.23651
285.9103, 51.27683
286.3925, 50.14854
286.8746, 49.88237
287.3567, 49.71087
287.8388, 49.45418
288.3209, 49.21635
288.8030, 49.11834
289.2852, 49.17788
289.7673, 49.39517
290.2494, 49.74751
290.7315, 50.23928
291.2136, 51.03263
291.6957, 52.41725
292.1779, 53.98006
292.6600, 55.21391
293.1421, 56.05987
293.6242, 56.94314
294.1063, 58.34023
294.5884, 60.10506
295.0706, 61.42881
295.5527, 62.02348
296.0348, 62.29189
296.5169, 62.53083
296.9990, 62.74802
297.4811, 62.93312
297.9633, 63.05363
298.4454, 63.14143
298.9275, 63.28736
299.4096, 63.46971
299.8917, 63.73774
300.3738, 64.13059
300.8560, 64.64428
301.3381, 65.22707
301.8202, 65.80309
302.3023, 66.49586
302.7844, 67.55356
303.2665, 69.12681
303.7487, 70.67950
304.2308, 71.74611
304.7129, 72.50101
305.1950, 73.61420
305.6771, 75.42049
306.1592, 77.51565
306.6414, 79.19382
307.1235, 80.36880
307.6056, 81.93311
308.0877, 84.37994
308.5698, 87.49617
309.0519, 90.83519
309.5341, 94.34363
310.0162, 97.97431
310.4983, 102.1100
310.9804, 106.6407
311.4625, 109.9322
311.9446, 111.7087
312.4268, 111.8528
312.9089, 110.0073
313.3910, 105.9665
313.8731, 100.6992
314.3552, 94.30313
314.8373, 87.19476
315.3195, 80.66065
315.8016, 74.96230
316.2837, 69.94070
316.7658, 65.45922
317.2479, 61.51461
317.7300, 58.14619
318.2122, 55.45152
318.6943, 53.37405
319.1764, 51.69885
319.6585, 50.53307
320.1406, 49.61485
320.6227, 48.72498
321.1049, 47.89005
321.5870, 47.31389
322.0691, 47.16501
322.5512, 47.27537
323.0333, 47.25402
323.5154, 46.97239
323.9976, 46.95583
324.4797, 47.48732
324.9618, 48.50741
325.4439, 49.84295
325.9260, 51.48227
326.4081, 53.37249
326.8903, 55.52364
327.3724, 57.91199
327.8545, 60.35505
328.3366, 62.88402
328.8187, 65.38840
329.3008, 67.73891
329.7830, 69.94305
330.2651, 71.86870
330.7472, 73.21849
331.2293, 74.10445
331.7114, 75.14113
332.1935, 76.47710
332.6757, 77.99342
333.1578, 79.60303
333.6399, 81.30392
334.1220, 83.02208
334.6041, 84.71773
335.0862, 86.40298
335.5684, 88.09837
336.0505, 89.96196
336.5326, 91.67619
337.0147, 92.71235
337.4968, 93.30408
337.9789, 94.53862
338.4611, 96.98098
338.9432, 100.3081
339.4253, 103.7487
339.9074, 107.1108
340.3895, 110.9630
340.8716, 115.2543
341.3538, 120.2218
341.8359, 126.2757
342.3180, 133.5160
342.8001, 142.0139
343.2822, 151.8817
343.7643, 162.8566
344.2465, 176.1948
344.7286, 192.6326
345.2107, 211.3045
345.6928, 232.4997
346.1749, 256.2676
346.6570, 278.9901
347.1392, 298.7550
347.6213, 314.7373
348.1034, 321.2624
348.5855, 317.1298
349.0676, 304.5866
349.5497, 282.0130
350.0319, 251.1770
350.5140, 219.0703
350.9961, 188.8782
351.4782, 161.0531
351.9603, 137.8135
352.4424, 119.5143
352.9246, 104.2623
353.4067, 92.00802
353.8888, 82.24695
354.3709, 74.32876
354.8530, 68.06965
355.3351, 63.10750
355.8173, 58.84990
356.2994, 55.36862
356.7815, 52.38592
357.2636, 49.97611
357.7457, 48.00267
358.2278, 46.43007
358.7100, 45.22215
359.1921, 44.16385
359.6742, 43.03673
360.1563, 41.81141
360.6384, 40.70187
361.1205, 39.59347
361.6027, 38.68733
362.0848, 38.23043
362.5669, 38.09935
363.0490, 37.91171
363.5311, 37.40614
364.0132, 36.61930
364.4954, 35.84842
364.9775, 34.96895
365.4596, 34.25123
365.9417, 33.81003
366.4238, 33.54722
366.9059, 33.35527
367.3881, 33.18842
367.8702, 33.01795
368.3523, 32.77703
368.8344, 32.34108
369.3165, 32.04484
369.7986, 32.00514
370.2808, 32.01052
370.7629, 31.86060
371.2450, 31.55605
371.7271, 31.29087
372.2092, 31.30658
372.6913, 31.68391
373.1735, 31.81576
373.6556, 31.46106
374.1377, 31.11782
374.6198, 30.93276
375.1019, 30.89837
375.5840, 31.01723
376.0662, 31.33087
376.5483, 31.72376
377.0304, 31.60001
377.5125, 30.35443
377.9946, 29.46268
378.4767, 29.37788
378.9589, 29.62347
379.4410, 29.73638
379.9231, 29.56183
380.4052, 29.24022
380.8873, 28.94731
381.3694, 28.63255
381.8516, 28.52234
382.3337, 28.91011
382.8158, 29.27893
383.2979, 29.27700
383.7800, 28.96512
384.2621, 28.70961
384.7443, 28.86313
385.2264, 29.38461
385.7085, 29.75903
386.1906, 29.89429
386.6727, 30.00801
387.1548, 30.12449
387.6370, 30.29196
388.1191, 30.61264
388.6012, 31.18687
389.0833, 31.82113
389.5654, 32.09415
390.0475, 31.88648
390.5297, 31.86674
391.0118, 32.47764
391.4939, 33.23009
391.9760, 33.68123
392.4581, 33.76494
392.9402, 33.89647
393.4224, 34.50957
393.9045, 35.50969
394.3866, 36.29872
394.8687, 36.71975
395.3508, 37.03548
395.8329, 37.39869
396.3151, 37.82160
396.7972, 38.36522
397.2793, 39.15953
397.7614, 40.03798
398.2435, 40.68529
398.7256, 41.06407
399.2078, 41.63877
399.6899, 42.62303
400.1720, 44.02087
400.6541, 45.74717
401.1362, 47.78655
401.6183, 50.17000
402.1004, 52.90130
402.5826, 55.97747
403.0647, 59.43566
403.5468, 63.29674
404.0289, 67.48142
404.5110, 72.10339
404.9931, 77.24795
405.4753, 81.87639
405.9574, 86.46339
406.4395, 90.02381
406.9216, 91.56650
407.4037, 91.03860
407.8858, 88.85780
408.3680, 85.06860
408.8501, 79.79875
409.3322, 75.07504
409.8143, 70.47324
410.2964, 66.73620
410.7785, 64.24609
411.2607, 62.76231
411.7428, 61.88414
412.2249, 61.45885
412.7070, 61.47153
413.1891, 61.90226
413.6712, 62.83323
414.1534, 64.11324
414.6355, 65.70682
415.1176, 67.65684
415.5997, 70.09122
416.0818, 72.94896
416.5639, 75.94314
417.0461, 78.77226
417.5282, 81.41994
418.0103, 84.65343
418.4924, 88.70940
418.9745, 93.11938
419.4566, 97.84336
419.9388, 102.8503
420.4209, 108.1304
420.9030, 113.6348
421.3851, 119.4557
421.8672, 125.8727
422.3493, 133.4622
422.8315, 140.1964
423.3136, 146.4587
423.7957, 151.4882
424.2778, 155.2267
424.7599, 157.4259
425.2420, 157.2358
425.7242, 153.5912
426.2063, 146.7203
426.6884, 138.8462
427.1705, 129.5259
427.6526, 119.9243
428.1347, 110.0205
428.6169, 100.2956
429.0990, 91.31855
429.5811, 83.13159
430.0632, 76.13368
430.5453, 71.01211
431.0274, 67.78882
431.5096, 65.34406
431.9917, 63.48344
432.4738, 62.24455
432.9559, 61.57658
433.4380, 61.47652
433.9201, 61.72456
434.4023, 62.02197
434.8844, 62.65717
435.3665, 64.11793
435.8486, 66.45487
436.3307, 69.56625
436.8128, 73.40867
437.2950, 78.03433
437.7771, 83.31042
438.2592, 89.12522
438.7413, 95.73601
439.2234, 104.0483
439.7055, 113.2486
440.1877, 121.6446
440.6698, 128.7894
441.1519, 134.1693
441.6340, 137.0455
442.1161, 137.4116
442.5982, 134.8041
443.0804, 127.7849
443.5625, 118.8509
444.0446, 109.0298
444.5267, 98.86996
445.0088, 89.16843
445.4909, 80.44695
445.9731, 72.76145
446.4552, 66.53324
446.9373, 62.34415
447.4194, 58.87856
447.9015, 56.17116
448.3836, 53.99189
448.8658, 52.17767
449.3479, 50.66177
449.8300, 49.37764
450.3121, 48.20201
450.7942, 47.03435
451.2763, 46.35943
451.7585, 46.48073
452.2406, 46.82725
452.7227, 47.13581
453.2048, 47.50273
453.6869, 48.18118
454.1690, 49.34040
454.6512, 50.87782
455.1333, 52.57096
455.6154, 54.42808
456.0975, 56.41235
456.5796, 58.42378
457.0617, 60.62556
457.5439, 63.20567
458.0260, 66.17364
458.5081, 69.39750
458.9902, 72.96465
459.4723, 76.71460
459.9544, 80.18230
460.4366, 83.44749
460.9187, 86.09272
461.4008, 88.00034
461.8829, 89.04021
462.3650, 88.65726
462.8471, 86.32021
463.3293, 82.98711
463.8114, 79.01840
464.2935, 74.58199
464.7756, 70.23803
465.2577, 66.14865
465.7398, 62.35467
466.2220, 58.98552
466.7041, 55.99428
467.1862, 53.51816
467.6683, 51.59957
468.1504, 50.18228
468.6325, 49.35556
469.1147, 49.03455
469.5968, 48.88815
470.0789, 48.65554
470.5610, 48.41316
471.0431, 48.67800
471.5252, 49.81508
472.0074, 51.03066
472.4895, 52.08344
472.9716, 53.26294
473.4537, 54.78709
473.9358, 56.73321
474.4179, 59.15804
474.9001, 62.10058
475.3822, 65.52319
475.8643, 69.61140
476.3464, 74.31898
476.8285, 79.81911
477.3106, 86.60088
477.7928, 94.10229
478.2749, 101.6218
478.7570, 108.9990
479.2391, 115.7120
479.7212, 121.5291
480.2033, 126.8267
480.6855, 128.0816
481.1676, 123.2549
481.6497, 114.9927
482.1318, 104.8055
482.6139, 92.99322
483.0960, 81.65750
483.5782, 71.34383
484.0603, 62.26942
484.5424, 54.77825
485.0245, 48.91475
485.5066, 44.20420
485.9887, 40.60043
486.4709, 37.91644
486.9530, 35.56443
487.4351, 33.47483
487.9172, 31.82445
488.3993, 30.83525
488.8814, 30.24227
489.3636, 29.71901
489.8457, 29.19839
490.3278, 28.76724
490.8099, 28.53718
491.2920, 28.52596
491.7741, 28.30496
492.2563, 27.61948
492.7384, 27.05289
493.2205, 26.86292
493.7026, 26.87494
494.1847, 26.85885
494.6668, 26.72480
495.1490, 26.49764
495.6311, 26.18029
496.1132, 25.68759
496.5953, 25.38588
497.0774, 25.51647
497.5595, 25.61055
498.0417, 25.46379
498.5238, 25.13474
499.0059, 24.76199
499.4880, 24.39036
499.9701, 24.06629
500.4522, 23.91228
500.9344, 23.95963
501.4165, 23.97423
501.8986, 23.87321
502.3807, 23.72907
502.8628, 23.60560
503.3449, 23.50454
503.8271, 23.40895
504.3092, 23.34876
504.7913, 23.27301
505.2734, 23.08474
505.7555, 22.77970
506.2376, 22.45107
506.7198, 22.10147
507.2019, 21.79590
507.6840, 21.75031
508.1661, 22.14556
508.6482, 22.42175
509.1303, 22.37686
509.6125, 22.16599
510.0946, 21.93357
510.5767, 21.71650
511.0588, 21.53542
511.5409, 21.41544
512.0230, 21.35595
512.5051, 21.26882
512.9872, 21.06422
513.4694, 20.93861
513.9515, 21.02586
514.4336, 21.16724
514.9157, 21.14484
515.3978, 20.90994
515.8799, 20.65773
516.3621, 20.68701
516.8442, 21.04383
517.3263, 21.18153
517.8084, 20.93973
518.2905, 20.67425
518.7726, 20.58376
519.2548, 20.57073
519.7369, 20.45296
520.2190, 20.12925
520.7011, 19.78356
521.1832, 19.67555
521.6653, 19.76284
522.1475, 19.68031
522.6296, 19.26280
523.1117, 18.81321
523.5938, 18.70544
524.0759, 18.89090
524.5580, 19.04516
525.0402, 19.07682
525.5223, 19.09414
526.0044, 19.22790
526.4865, 19.41572
526.9686, 19.44267
527.4507, 19.19940
527.9329, 18.85907
528.4150, 18.76133
528.8971, 19.11025
529.3792, 19.22375
529.8613, 18.82643
530.3434, 18.46246
530.8256, 18.47091
531.3077, 18.76851
531.7898, 19.11259
532.2719, 19.37517
532.7540, 19.53047
533.2361, 19.46420
533.7183, 19.03454
534.2004, 18.78568
534.6825, 19.04553
535.1646, 19.32699
535.6467, 19.27021
536.1288, 18.94021
536.6110, 18.72349
537.0931, 18.91883
537.5752, 19.33673
538.0573, 19.65541
538.5394, 19.87628
539.0215, 19.97231
539.5037, 19.85656
539.9858, 19.67812
540.4679, 19.71153
540.9500, 19.99856
541.4321, 20.21872
541.9142, 20.14127
542.3964, 20.04839
542.8785, 20.26998
543.3606, 20.77731
543.8427, 21.29532
544.3248, 21.65126
544.8069, 21.87817
545.2891, 22.09513
545.7712, 22.17510
546.2533, 22.43072
546.7354, 23.17783
547.2175, 23.86595
547.6996, 23.99797
548.1818, 23.63354
548.6639, 23.22626
549.1460, 23.13189
549.6281, 23.27280
550.1102, 23.32085
550.5923, 23.22932
551.0745, 23.16628
551.5566, 23.17809
552.0387, 23.24314
552.5208, 23.35642
553.0029, 23.51580
553.4850, 23.69580
553.9672, 23.82867
554.4493, 23.99309
554.9314, 24.37828
555.4135, 24.99471
555.8956, 25.57987
556.3777, 25.96672
556.8599, 26.24268
557.3420, 26.63656
557.8241, 27.15982
558.3062, 27.74541
558.7883, 28.33596
559.2704, 29.01153
559.7526, 29.85008
560.2347, 30.84519
560.7168, 31.95722
561.1989, 33.16285
561.6810, 34.43678
562.1631, 35.69404
562.6453, 37.27311
563.1274, 38.20553
563.6095, 38.26649
564.0916, 37.82856
564.5737, 37.00069
565.0558, 35.88798
565.5380, 34.75871
566.0201, 33.74887
566.5022, 32.88323
566.9843, 32.23354
567.4664, 31.80581
567.9485, 31.54594
568.4307, 31.47421
568.9128, 31.53751
569.3949, 31.64924
569.8770, 31.80777
570.3591, 32.03543
570.8412, 32.36708
571.3234, 32.75449
571.8055, 33.18537
572.2876, 33.63639
572.7697, 33.98286
573.2518, 34.12519
573.7339, 34.20930
574.2161, 34.61388
574.6982, 35.61650
575.1803, 36.46807
575.6624, 36.84250
576.1445, 37.35744
576.6266, 38.52270
577.1088, 40.15190
577.5909, 41.69754
578.0730, 42.81229
578.5551, 43.70763
579.0372, 44.86211
579.5193, 46.32017
580.0015, 47.76740
580.4836, 49.01012
580.9657, 50.36737
581.4478, 52.23197
581.9299, 54.45757
582.4120, 56.40325
582.8942, 57.70634
583.3763, 58.74056
583.8584, 59.73216
584.3405, 60.73437
584.8226, 61.94996
585.3047, 63.44457
585.7869, 65.19198
586.2690, 67.13588
586.7511, 69.25723
587.2332, 71.74818
587.7153, 74.27351
588.1974, 77.49802
588.6796, 81.76485
589.1617, 86.91463
589.6438, 92.68165
590.1259, 98.93272
590.6080, 105.8299
591.0901, 113.5693
591.5723, 122.1790
592.0544, 131.4478
592.5365, 141.8489
593.0186, 152.1329
593.5007, 161.7685
593.9828, 170.8648
594.4650, 179.5562
594.9471, 187.6676
595.4292, 195.9648
595.9113, 205.1054
596.3934, 214.7867
596.8755, 223.9271
597.3577, 232.3018
597.8398, 241.3723
598.3219, 252.2238
598.8040, 264.7313
599.2861, 278.2525
599.7682, 292.3911
600.2504, 307.8783
600.7325, 324.9234
601.2146, 343.3777
601.6967, 362.5567
602.1788, 382.8227
602.6609, 405.8546
603.1431, 432.9135
603.6252, 463.6914
604.1073, 495.7176
604.5894, 527.4975
605.0715, 564.5779
605.5536, 610.8255
606.0358, 661.4308
606.5179, 713.0422
607.0000, 765.5557
607.4821, 821.4644
607.9642, 887.1170
608.4464, 953.2089
608.9285, 1012.031
609.4106, 1062.192
609.8927, 1095.713
610.3748, 1110.090
610.8569, 1104.768
611.3391, 1077.763
611.8212, 1025.222
612.3033, 962.5811
612.7854, 882.4428
