##NAMES=Datolite
##RRUFFID=R050033
##IDEAL CHEMISTRY=CaB(SiO_4_)(OH)
##LOCALITY=Westfield, Massachusetts, USA
##OWNER=RRUFF
##SOURCE=University of Arizona Mineral Museum
##DESCRIPTION=Group of pale green single crystals
##STATUS=The identification of this mineral has been confirmed by X-ray diffraction and chemical analysis
##URL=rruff.info/R050033
##MEASURED CHEMISTRY=Ca_1.00_B_1.00_Si_1.00_O_4_(OH) ; trace amounts of Al and Na; B measured and corrected according to stoichiometry;  OH estimated by stoichiometry end charge balance
89.19971, 36.58191
89.68182, 42.46951
90.16394, 38.59580
90.64606, 34.41835
91.12817, 32.64588
91.61029, 32.92919
92.09241, 34.75251
92.57452, 38.67549
93.05664, 44.77348
93.53876, 45.62691
94.02087, 34.74927
94.50299, 24.15913
94.98511, 16.68771
95.46722, 12.61342
95.94934, 11.28090
96.43146, 12.56124
96.91357, 17.65892
97.39569, 19.75603
97.87781, 15.71864
98.35992, 11.82203
98.84204, 11.58086
99.32416, 15.24570
99.80627, 20.65588
100.2884, 25.12738
100.7705, 28.01324
101.2526, 31.68775
101.7347, 37.68882
102.2169, 43.54834
102.6990, 47.52437
103.1811, 49.14574
103.6632, 48.38225
104.1453, 44.38474
104.6274, 34.18396
105.1096, 28.41593
105.5917, 31.64401
106.0738, 38.96067
106.5559, 43.75642
107.0380, 43.78510
107.5201, 40.97379
108.0023, 38.33688
108.4844, 35.26923
108.9665, 33.88507
109.4486, 36.39332
109.9307, 41.30373
110.4128, 44.30919
110.8950, 42.93939
111.3771, 40.14566
111.8592, 41.04514
112.3413, 46.52431
112.8234, 52.61594
113.3055, 56.71518
113.7877, 59.05270
114.2698, 61.71590
114.7519, 65.90527
115.2340, 70.51662
115.7161, 74.73223
116.1982, 79.01473
116.6804, 81.33492
117.1625, 77.63052
117.6446, 66.65686
118.1267, 59.58247
118.6088, 65.20737
119.0909, 74.85757
119.5731, 81.61664
120.0552, 83.20081
120.5373, 82.55315
121.0194, 84.08767
121.5015, 88.46651
121.9836, 93.21567
122.4658, 98.97474
122.9479, 104.1757
123.4300, 106.6820
123.9121, 105.1580
124.3942, 101.8781
124.8763, 102.3281
125.3585, 107.9668
125.8406, 115.2787
126.3227, 122.4395
126.8048, 130.7747
127.2869, 141.8069
127.7690, 156.2219
128.2512, 173.9195
128.7333, 193.6456
129.2154, 210.4942
129.6975, 236.5748
130.1796, 276.1717
130.6617, 325.3793
131.1439, 380.3966
131.6260, 440.0758
132.1081, 502.4667
132.5902, 552.1034
133.0723, 588.9019
133.5544, 611.5904
134.0366, 619.0517
134.5187, 611.8387
135.0008, 589.5611
135.4829, 551.0429
135.9650, 497.1187
136.4471, 444.4853
136.9293, 383.2316
137.4114, 333.1135
137.8935, 301.6965
138.3756, 286.4677
138.8577, 280.8481
139.3398, 280.7364
139.8220, 286.2145
140.3041, 294.0439
140.7862, 306.6071
141.2683, 318.7010
141.7504, 325.3627
142.2325, 328.6404
142.7147, 335.6691
143.1968, 351.9813
143.6789, 378.0594
144.1610, 407.9150
144.6431, 438.6057
145.1252, 474.7961
145.6074, 513.0023
146.0895, 555.9717
146.5716, 617.9897
147.0537, 711.2636
147.5358, 838.8528
148.0179, 979.0909
148.5001, 1135.472
148.9822, 1301.319
149.4643, 1481.162
149.9464, 1674.440
150.4285, 1854.875
150.9106, 1996.934
151.3928, 2103.078
151.8749, 2219.953
152.3570, 2361.115
152.8391, 2507.289
153.3212, 2639.917
153.8033, 2757.009
154.2855, 2873.143
154.7676, 2997.317
155.2497, 3130.608
155.7318, 3275.672
156.2139, 3424.189
156.6960, 3589.168
157.1782, 3777.504
157.6603, 3985.443
158.1424, 4240.563
158.6245, 4557.703
159.1066, 4937.800
159.5887, 5403.107
160.0709, 5916.500
160.5530, 6533.249
161.0351, 7299.820
161.5172, 8187.792
161.9993, 9326.361
162.4814, 10882.74
162.9636, 12743.40
163.4457, 14802.76
163.9278, 17411.46
164.4099, 20080.36
164.8920, 22017.90
165.3741, 23326.82
165.8563, 23560.94
166.3384, 22006.15
166.8205, 19285.39
167.3026, 16314.08
167.7847, 13149.03
168.2668, 10054.64
168.7490, 7613.088
169.2311, 5920.961
169.7132, 4680.756
170.1953, 3826.145
170.6774, 3255.049
171.1595, 2837.555
171.6417, 2542.757
172.1238, 2351.960
172.6059, 2222.731
173.0880, 2162.915
173.5701, 2154.959
174.0522, 2190.015
174.5344, 2264.038
175.0165, 2375.891
175.4986, 2534.633
175.9807, 2725.356
176.4628, 2919.206
176.9449, 3150.418
177.4271, 3315.336
177.9092, 3402.964
178.3913, 3406.226
178.8734, 3306.079
179.3555, 3076.057
179.8376, 2750.915
180.3197, 2422.895
180.8019, 2067.369
181.2840, 1757.152
181.7661, 1504.188
182.2482, 1302.788
182.7303, 1151.292
183.2124, 1052.550
183.6946, 996.7670
184.1767, 957.3383
184.6588, 937.0127
185.1409, 930.8473
185.6230, 938.8203
186.1051, 956.8611
186.5873, 978.7679
187.0694, 1000.450
187.5515, 1027.889
188.0336, 1078.079
188.5157, 1155.792
188.9978, 1250.571
189.4800, 1361.110
189.9621, 1482.883
190.4442, 1619.018
190.9263, 1772.251
191.4084, 1925.845
191.8905, 2045.360
192.3727, 2157.166
192.8548, 2177.475
193.3369, 2068.417
193.8190, 1890.432
194.3011, 1687.976
194.7832, 1477.770
195.2654, 1275.984
195.7475, 1118.775
196.2296, 1012.497
196.7117, 942.7260
197.1938, 908.7662
197.6759, 901.8773
198.1581, 919.2393
198.6402, 959.1949
199.1223, 1012.838
199.6044, 1066.154
200.0865, 1127.948
200.5686, 1170.110
201.0508, 1184.464
201.5329, 1186.081
202.0150, 1182.858
202.4971, 1178.000
202.9792, 1174.964
203.4613, 1178.537
203.9435, 1186.921
204.4256, 1207.147
204.9077, 1238.545
205.3898, 1280.219
205.8719, 1332.461
206.3540, 1394.998
206.8362, 1466.129
207.3183, 1543.315
207.8004, 1622.686
208.2825, 1717.935
208.7646, 1836.093
209.2467, 1962.578
209.7289, 2090.682
210.2110, 2218.254
210.6931, 2346.216
211.1752, 2475.319
211.6573, 2604.269
212.1395, 2736.738
212.6216, 2834.512
213.1037, 2966.342
213.5858, 3149.583
214.0679, 3394.411
214.5500, 3715.710
215.0322, 4126.647
215.5143, 4625.329
215.9964, 5226.479
216.4785, 6057.435
216.9606, 6874.249
217.4427, 7728.931
217.9249, 8513.699
218.4070, 9002.435
218.8891, 8995.178
219.3712, 8484.009
219.8533, 7756.906
220.3354, 6552.485
220.8176, 5374.303
221.2997, 4297.507
221.7818, 3352.634
222.2639, 2567.174
222.7460, 1971.520
223.2281, 1552.910
223.7103, 1225.351
224.1924, 1042.949
224.6745, 902.2789
225.1566, 793.7782
225.6387, 710.2312
226.1208, 646.1817
226.6030, 600.0518
227.0851, 568.3000
227.5672, 536.1424
228.0493, 501.0172
228.5314, 469.0161
229.0135, 440.1897
229.4957, 415.2254
229.9778, 395.3851
230.4599, 381.3358
230.9420, 371.4289
231.4241, 361.7420
231.9062, 353.0513
232.3884, 343.1979
232.8705, 329.6029
233.3526, 316.1674
233.8347, 306.8174
234.3168, 302.7669
234.7989, 300.9666
235.2811, 295.5520
235.7632, 282.9700
236.2453, 275.3812
236.7274, 280.5786
237.2095, 285.7613
237.6916, 280.1186
238.1738, 262.6135
238.6559, 243.0860
239.1380, 234.8605
239.6201, 242.1180
240.1022, 245.1542
240.5843, 238.0169
241.0665, 230.8402
241.5486, 228.0533
242.0307, 229.9859
242.5128, 234.8530
242.9949, 242.1422
243.4770, 252.3641
243.9592, 258.8993
244.4413, 258.5902
244.9234, 257.3401
245.4055, 256.3259
245.8876, 256.0715
246.3697, 257.5154
246.8519, 262.3987
247.3340, 269.9608
247.8161, 273.0064
248.2982, 269.2926
248.7803, 263.6347
249.2624, 255.6387
249.7446, 247.3481
250.2267, 242.0417
250.7088, 241.7337
251.1909, 245.2133
251.6730, 249.9782
252.1551, 259.3264
252.6373, 262.8975
253.1194, 252.5090
253.6015, 237.3303
254.0836, 227.2876
254.5657, 226.3004
255.0478, 230.3627
255.5300, 233.0386
256.0121, 233.4659
256.4942, 235.7937
256.9763, 242.8705
257.4584, 251.3800
257.9406, 259.1705
258.4227, 265.7823
258.9048, 271.8901
259.3869, 277.2564
259.8690, 281.7246
260.3511, 289.7197
260.8333, 305.3427
261.3154, 322.0847
261.7975, 334.9830
262.2796, 344.0369
262.7617, 352.9883
263.2438, 364.2481
263.7260, 377.6694
264.2081, 391.8356
264.6902, 405.0671
265.1723, 421.7118
265.6544, 446.0480
266.1365, 476.3223
266.6187, 506.5889
267.1008, 529.0654
267.5829, 550.5482
268.0650, 587.5136
268.5471, 644.0396
269.0292, 703.7294
269.5114, 757.4773
269.9935, 806.2729
270.4756, 851.5292
270.9577, 897.2875
271.4398, 936.6024
271.9219, 961.3949
272.4041, 971.5267
272.8862, 971.9149
273.3683, 963.5887
273.8504, 946.7130
274.3325, 923.8282
274.8146, 895.9523
275.2968, 860.2012
275.7789, 810.7455
276.2610, 750.6973
276.7431, 691.5701
277.2252, 635.7375
277.7073, 585.0742
278.1895, 541.9469
278.6716, 505.8199
279.1537, 476.5456
279.6358, 455.6760
280.1179, 441.3912
280.6000, 431.5029
281.0822, 425.8631
281.5643, 422.3528
282.0464, 419.3453
282.5285, 417.1289
283.0106, 411.9208
283.4927, 394.1964
283.9749, 379.0708
284.4570, 381.5050
284.9391, 402.0787
285.4212, 430.4259
285.9033, 459.3483
286.3854, 488.7279
286.8676, 517.1148
287.3497, 536.2999
287.8318, 562.4549
288.3139, 604.5116
288.7960, 660.1170
289.2781, 723.6402
289.7603, 793.4177
290.2424, 866.4026
290.7245, 928.1052
291.2066, 983.6102
291.6887, 1022.814
292.1708, 1044.375
292.6530, 1048.637
293.1351, 1035.565
293.6172, 1005.196
294.0993, 958.4208
294.5814, 896.0637
295.0635, 806.0604
295.5457, 722.2281
296.0278, 640.9763
296.5099, 568.3557
296.9920, 510.0554
297.4741, 465.8211
297.9562, 431.4954
298.4384, 403.0291
298.9205, 380.7425
299.4026, 362.1165
299.8847, 348.3539
300.3668, 336.9178
300.8489, 327.1363
301.3311, 318.9895
301.8131, 312.5109
302.2953, 307.5168
302.7774, 304.4023
303.2595, 305.8255
303.7416, 318.3720
304.2237, 325.5089
304.7058, 320.0525
305.1880, 309.7241
305.6701, 303.2746
306.1522, 304.0480
306.6343, 307.4590
307.1164, 304.8648
307.5985, 293.4182
308.0807, 286.6562
308.5628, 291.1378
309.0449, 298.2498
309.5270, 303.1167
310.0091, 305.3102
310.4912, 307.3746
310.9734, 311.0168
311.4555, 316.2677
311.9376, 323.7896
312.4197, 335.2635
312.9018, 346.6483
313.3839, 354.7927
313.8661, 360.8603
314.3482, 367.7456
314.8303, 375.6370
315.3124, 385.6342
315.7945, 400.0296
316.2766, 419.1640
316.7588, 440.4930
317.2409, 461.4217
317.7230, 484.1727
318.2051, 512.4887
318.6872, 547.9414
319.1693, 586.7534
319.6515, 626.4059
320.1336, 666.8924
320.6157, 709.5835
321.0978, 755.9886
321.5799, 802.6533
322.0620, 846.1138
322.5442, 887.7864
323.0263, 920.3323
323.5084, 941.2621
323.9905, 952.2131
324.4726, 951.0680
324.9547, 937.5974
325.4369, 925.3228
325.9190, 925.8962
326.4011, 940.6648
326.8832, 967.2111
327.3653, 1008.837
327.8474, 1058.727
328.3296, 1110.429
328.8117, 1166.926
329.2938, 1237.396
329.7759, 1328.050
330.2580, 1436.078
330.7401, 1545.918
331.2223, 1664.171
331.7044, 1776.687
332.1865, 1898.619
332.6686, 2006.893
333.1507, 2082.047
333.6328, 2116.476
334.1150, 2106.388
334.5971, 2042.962
335.0792, 1912.998
335.5613, 1763.119
336.0434, 1571.151
336.5255, 1381.571
337.0077, 1211.352
337.4898, 1064.227
337.9719, 939.8177
338.4540, 839.5792
338.9361, 762.6528
339.4182, 701.8437
339.9004, 662.3172
340.3825, 633.3873
340.8646, 611.8082
341.3467, 597.3375
341.8288, 590.6795
342.3109, 592.6985
342.7931, 599.4437
343.2752, 604.6062
343.7573, 607.4617
344.2394, 613.9106
344.7215, 624.4037
345.2036, 640.2975
345.6858, 663.1598
346.1679, 693.0071
346.6500, 726.3547
347.1321, 765.8365
347.6142, 807.0635
348.0963, 834.7833
348.5785, 842.3901
349.0606, 852.5726
349.5427, 886.0065
350.0248, 936.7910
350.5069, 988.5973
350.9890, 1037.432
351.4712, 1087.451
351.9533, 1141.081
352.4354, 1198.707
352.9175, 1261.691
353.3996, 1329.806
353.8817, 1404.653
354.3639, 1492.014
354.8460, 1591.845
355.3281, 1699.592
355.8102, 1811.930
356.2923, 1932.591
356.7744, 2064.853
357.2566, 2209.905
357.7387, 2364.365
358.2208, 2523.959
358.7029, 2687.663
359.1850, 2866.451
359.6671, 3093.968
360.1493, 3300.594
360.6314, 3465.539
361.1135, 3584.729
361.5956, 3656.393
362.0777, 3679.497
362.5598, 3655.386
363.0420, 3589.059
363.5241, 3475.006
364.0062, 3322.144
364.4883, 3113.916
364.9704, 2883.714
365.4525, 2652.014
365.9347, 2426.726
366.4168, 2213.443
366.8989, 2018.332
367.3810, 1839.553
367.8631, 1685.778
368.3452, 1563.712
368.8274, 1460.768
369.3095, 1368.470
369.7916, 1287.840
370.2737, 1222.596
370.7558, 1177.564
371.2379, 1146.217
371.7201, 1117.738
372.2022, 1091.607
372.6843, 1073.628
373.1664, 1066.916
373.6485, 1070.345
374.1306, 1079.571
374.6128, 1092.863
375.0949, 1117.769
375.5770, 1161.988
376.0591, 1219.812
376.5412, 1280.886
377.0233, 1343.451
377.5055, 1406.667
377.9876, 1469.927
378.4697, 1533.043
378.9518, 1595.856
379.4339, 1646.312
379.9160, 1707.108
380.3982, 1796.233
380.8803, 1907.171
381.3624, 2019.465
381.8445, 2121.846
382.3266, 2218.708
382.8087, 2325.127
383.2909, 2426.644
383.7730, 2558.897
384.2551, 2731.366
384.7372, 2928.102
385.2193, 3132.386
385.7014, 3344.034
386.1836, 3581.376
386.6657, 3864.509
387.1478, 4193.230
387.6299, 4549.433
388.1120, 4936.757
388.5941, 5354.140
389.0763, 5824.673
389.5584, 6317.632
390.0405, 6791.524
390.5226, 7244.563
391.0047, 7638.708
391.4868, 7938.734
391.9690, 8150.925
392.4511, 8197.036
392.9332, 8035.649
393.4153, 7701.424
393.8974, 7214.394
394.3795, 6576.311
394.8617, 5915.107
395.3438, 5261.144
395.8259, 4635.430
396.3080, 4065.178
396.7901, 3553.770
397.2722, 3105.375
397.7544, 2726.590
398.2365, 2419.340
398.7186, 2157.460
399.2007, 1959.956
399.6828, 1787.644
400.1649, 1626.722
400.6471, 1481.208
401.1292, 1358.837
401.6113, 1261.617
402.0934, 1181.501
402.5755, 1105.260
403.0576, 1029.952
403.5398, 970.1682
404.0219, 936.3594
404.5040, 905.5242
404.9861, 863.2338
405.4682, 813.6771
405.9503, 769.2623
406.4325, 737.4543
406.9146, 717.3307
407.3967, 707.7069
407.8788, 715.8001
408.3609, 719.5877
408.8430, 710.5425
409.3252, 698.7110
409.8073, 690.9435
410.2894, 688.5594
410.7715, 690.6458
411.2536, 698.2563
411.7357, 710.2310
412.2179, 719.2260
412.7000, 721.9108
413.1821, 728.4269
413.6642, 748.6050
414.1463, 777.5059
414.6284, 805.4439
415.1106, 827.9083
415.5927, 852.4786
416.0748, 883.6401
416.5569, 921.3106
417.0390, 964.1236
417.5211, 1010.595
418.0033, 1065.455
418.4854, 1136.454
418.9675, 1226.990
419.4496, 1323.865
419.9317, 1418.994
420.4138, 1526.133
420.8960, 1659.234
421.3781, 1813.806
421.8602, 1977.460
422.3423, 2145.548
422.8244, 2311.452
423.3065, 2449.063
423.7887, 2583.152
424.2708, 2644.382
424.7529, 2624.599
425.2350, 2538.236
425.7171, 2378.819
426.1992, 2154.483
426.6814, 1911.869
427.1635, 1685.497
427.6456, 1474.797
428.1277, 1294.855
428.6098, 1150.149
429.0919, 1028.779
429.5741, 923.9283
430.0562, 836.9413
430.5383, 774.0285
431.0204, 741.6525
431.5025, 722.6621
431.9846, 705.3941
432.4668, 690.1531
432.9489, 676.9472
433.4310, 664.6317
433.9131, 658.2466
434.3952, 663.9177
434.8773, 682.3743
435.3595, 708.8911
435.8416, 749.9861
436.3237, 792.9967
436.8058, 832.7072
437.2879, 868.0195
437.7701, 899.3892
438.2522, 927.4135
438.7343, 948.8916
439.2164, 955.0920
439.6985, 938.6581
440.1806, 919.1727
440.6628, 902.4108
441.1449, 878.8005
441.6270, 838.8526
442.1091, 785.3651
442.5912, 729.2005
443.0733, 675.5483
443.5555, 627.0175
444.0376, 596.0898
444.5197, 588.9783
445.0018, 582.0269
445.4839, 563.3398
445.9660, 541.8074
446.4482, 525.9685
446.9303, 517.2321
447.4124, 511.7581
447.8945, 508.0065
448.3766, 505.7130
448.8587, 502.7257
449.3409, 498.2881
449.8230, 499.8770
450.3051, 514.8312
450.7872, 541.9958
451.2693, 566.6506
451.7514, 583.5517
452.2336, 604.1763
452.7157, 632.5594
453.1978, 666.7795
453.6799, 704.9279
454.1620, 746.1559
454.6441, 788.4271
455.1263, 828.7954
455.6084, 866.3090
456.0905, 907.0248
456.5726, 963.8685
457.0547, 1010.008
457.5368, 1042.452
458.0190, 1057.319
458.5011, 1047.730
458.9832, 1009.124
459.4653, 952.8829
459.9474, 891.6693
460.4295, 825.6149
460.9117, 760.7712
461.3938, 696.0352
461.8759, 636.1172
462.3580, 582.6331
462.8401, 536.0359
463.3222, 500.5870
463.8044, 482.6561
464.2865, 472.0539
464.7686, 461.0074
465.2507, 449.6743
465.7328, 439.2062
466.2149, 429.8387
466.6971, 422.6262
467.1792, 420.2564
467.6613, 428.1816
468.1434, 429.1305
468.6255, 414.1581
469.1076, 400.0825
469.5898, 396.4958
470.0719, 403.1032
470.5540, 417.5141
471.0361, 439.9220
471.5182, 464.6184
472.0003, 472.9244
472.4825, 456.2446
472.9646, 446.4989
473.4467, 452.5734
473.9288, 466.5432
474.4109, 484.6547
474.8930, 506.4471
475.3752, 531.9213
475.8573, 565.4747
476.3394, 600.9265
476.8215, 624.1747
477.3036, 634.7413
477.7857, 652.9671
478.2679, 690.6585
478.7500, 741.0193
479.2321, 788.3105
479.7142, 830.6130
480.1963, 874.2892
480.6784, 917.3256
481.1606, 964.3901
481.6427, 1021.625
482.1248, 1088.106
482.6069, 1155.193
483.0890, 1215.449
483.5711, 1272.556
484.0533, 1348.883
484.5354, 1452.698
485.0175, 1563.606
485.4996, 1670.434
485.9817, 1787.741
486.4638, 1928.859
486.9460, 2094.311
487.4281, 2269.870
487.9102, 2449.039
488.3923, 2629.749
488.8744, 2812.323
489.3565, 3001.809
489.8387, 3164.567
490.3208, 3298.294
490.8029, 3382.281
491.2850, 3388.354
491.7671, 3314.154
492.2492, 3172.766
492.7314, 2934.982
493.2135, 2651.781
493.6956, 2368.967
494.1777, 2097.613
494.6598, 1843.335
495.1419, 1609.095
495.6241, 1397.305
496.1062, 1217.820
496.5883, 1083.781
497.0704, 967.5982
497.5525, 863.8587
498.0346, 777.0040
498.5168, 716.2040
498.9989, 679.2991
499.4810, 649.5554
499.9631, 613.2712
500.4452, 573.0507
500.9273, 539.6964
501.4095, 514.1942
501.8916, 491.1999
502.3737, 467.6841
502.8558, 445.8570
503.3379, 429.1675
503.8200, 418.5226
504.3022, 409.7194
504.7843, 402.8627
505.2664, 396.1058
505.7485, 385.8882
506.2306, 372.8461
506.7127, 362.8674
507.1949, 360.1379
507.6770, 363.1508
508.1591, 365.5259
508.6412, 370.8618
509.1233, 369.8760
509.6054, 355.3610
510.0876, 339.8480
510.5697, 332.5154
511.0518, 333.4456
511.5339, 337.1476
512.0161, 339.2285
512.4982, 341.5259
512.9803, 350.2657
513.4624, 366.6503
513.9445, 382.1141
514.4266, 395.2372
514.9088, 404.4666
515.3909, 406.6205
515.8730, 400.9299
516.3551, 398.3446
516.8372, 402.1087
517.3193, 410.4418
517.8015, 422.7832
518.2836, 438.4040
518.7657, 455.6511
519.2478, 473.7101
519.7299, 492.2902
520.2120, 510.3859
520.6942, 525.3175
521.1763, 545.2243
521.6584, 577.6058
522.1405, 607.3411
522.6226, 627.3030
523.1047, 637.9019
523.5869, 641.9474
524.0690, 641.1411
524.5511, 634.2428
525.0332, 618.8877
525.5153, 595.0914
525.9974, 564.5545
526.4796, 524.5933
526.9617, 482.9240
527.4438, 446.9027
527.9259, 416.0785
528.4080, 390.5999
528.8901, 374.2845
529.3723, 359.5558
529.8544, 341.4445
530.3365, 321.7249
530.8186, 303.4197
531.3007, 287.5910
531.7828, 275.7310
532.2650, 270.5049
532.7471, 273.1689
533.2292, 274.5913
533.7113, 275.7520
534.1934, 274.3517
534.6755, 266.6906
535.1577, 257.2623
535.6398, 252.9344
536.1219, 256.1576
536.6040, 259.7631
537.0861, 253.3997
537.5682, 241.9128
538.0504, 242.9295
538.5325, 259.8242
539.0146, 278.9003
539.4967, 290.6083
539.9788, 296.4381
540.4609, 303.8121
540.9431, 316.1739
541.4252, 325.3134
541.9073, 326.3344
542.3894, 325.4871
542.8715, 328.1185
543.3536, 335.0858
543.8358, 345.1458
544.3179, 357.5404
544.8000, 372.0080
545.2821, 387.4751
545.7642, 404.0204
546.2463, 421.2475
546.7285, 436.6530
547.2106, 454.5928
547.6927, 478.3995
548.1748, 508.0483
548.6569, 542.0073
549.1390, 583.2038
549.6211, 625.6127
550.1032, 661.2682
550.5853, 691.7505
551.0674, 724.0889
551.5496, 761.7458
552.0317, 801.0283
552.5138, 836.6445
552.9959, 869.8051
553.4780, 895.1044
553.9601, 914.5726
554.4423, 925.4006
554.9244, 922.8876
555.4065, 912.1138
555.8886, 898.8449
556.3707, 884.9294
556.8528, 875.2417
557.3350, 876.0911
557.8171, 886.7758
558.2992, 903.7480
558.7813, 930.2651
559.2634, 951.4483
559.7455, 953.4413
560.2277, 942.9246
560.7098, 942.8578
561.1919, 965.1667
561.6740, 977.3463
562.1561, 971.3170
562.6382, 948.8857
563.1204, 907.1740
563.6025, 849.3099
564.0846, 786.9337
564.5667, 727.1343
565.0488, 670.6096
565.5309, 619.1934
566.0131, 573.2073
566.4952, 531.5753
566.9773, 491.6614
567.4594, 458.2312
567.9415, 437.1541
568.4236, 426.2751
568.9058, 415.5078
569.3879, 397.6176
569.8700, 380.6027
570.3521, 373.0726
570.8342, 373.2391
571.3163, 375.4880
571.7985, 378.2234
572.2806, 381.4519
572.7627, 385.1613
573.2448, 389.3662
573.7269, 394.0620
574.2090, 399.3839
574.6912, 405.0722
575.1733, 412.6815
575.6554, 419.7734
576.1375, 421.5649
576.6196, 417.8722
577.1017, 417.3510
577.5839, 429.3190
578.0660, 450.7196
578.5481, 472.2111
579.0302, 493.8950
579.5123, 512.5220
579.9944, 523.1648
580.4766, 532.8342
580.9587, 556.7798
581.4408, 598.3604
581.9229, 637.0880
582.4050, 667.1588
