##NAMES=Datolite
##RRUFFID=R050033
##IDEAL CHEMISTRY=CaB(SiO_4_)(OH)
##LOCALITY=Westfield, Massachusetts, USA
##OWNER=RRUFF
##SOURCE=University of Arizona Mineral Museum
##DESCRIPTION=Group of pale green single crystals
##STATUS=The identification of this mineral has been confirmed by X-ray diffraction and chemical analysis
##URL=rruff.info/R050033
##MEASURED CHEMISTRY=Ca_1.00_B_1.00_Si_1.00_O_4_(OH) ; trace amounts of Al and Na; B measured and corrected according to stoichiometry;  OH estimated by stoichiometry end charge balance
123.1454, 199.0015
123.6275, 211.6925
124.1096, 224.0222
124.5917, 236.6662
125.0739, 252.3826
125.5560, 275.0133
126.0381, 301.7668
126.5202, 327.0451
127.0023, 347.4800
127.4844, 368.2477
127.9666, 395.8770
128.4487, 430.3962
128.9308, 474.1567
129.4129, 524.6684
129.8950, 584.4396
130.3772, 663.2438
130.8593, 762.9627
131.3414, 884.3809
131.8235, 1047.970
132.3056, 1264.261
132.7877, 1470.190
133.2699, 1599.507
133.7520, 1652.384
134.2341, 1623.005
134.7162, 1475.431
135.1983, 1208.914
135.6804, 991.8715
136.1626, 829.9172
136.6447, 713.0349
137.1268, 628.2691
137.6089, 580.3511
138.0910, 550.3568
138.5731, 532.2996
139.0553, 528.3151
139.5374, 524.8612
140.0195, 520.4487
140.5016, 516.1532
140.9837, 515.5153
141.4658, 516.4760
141.9480, 524.3219
142.4301, 543.8131
142.9122, 580.9123
143.3943, 616.5121
143.8764, 645.6933
144.3585, 668.5557
144.8407, 703.2379
145.3228, 746.1593
145.8049, 803.4933
146.2870, 880.3157
146.7691, 971.2600
147.2512, 1087.152
147.7334, 1230.428
148.2155, 1405.329
148.6976, 1595.270
149.1797, 1804.662
149.6618, 2028.465
150.1439, 2257.885
150.6261, 2470.081
151.1082, 2705.763
151.5903, 2983.095
152.0724, 3339.233
152.5545, 3652.328
153.0366, 3930.212
153.5188, 4156.964
154.0009, 4300.714
154.4830, 4278.642
154.9651, 4232.181
155.4472, 4218.050
155.9293, 4209.703
156.4115, 4284.311
156.8936, 4455.925
157.3757, 4722.418
157.8578, 5076.406
158.3399, 5475.121
158.8221, 5983.663
159.3042, 6647.954
159.7863, 7527.059
160.2684, 8516.086
160.7505, 9505.759
161.2326, 10535.14
161.7148, 11840.61
162.1969, 13363.20
162.6790, 15280.72
163.1611, 17739.98
163.6432, 21813.03
164.1253, 25649.16
164.6075, 28724.23
165.0896, 31035.41
165.5717, 31483.98
166.0538, 28311.65
166.5359, 23077.37
167.0180, 18020.59
167.5002, 13598.76
167.9823, 9951.569
168.4644, 7288.921
168.9465, 5689.041
169.4286, 4636.900
169.9107, 3928.808
170.3929, 3503.399
170.8750, 3213.409
171.3571, 3029.712
171.8392, 2927.866
172.3213, 2885.367
172.8034, 2901.272
173.2856, 2971.932
173.7677, 3087.861
174.2498, 3254.849
174.7319, 3489.367
175.2140, 3816.267
175.6961, 4212.985
176.1783, 4678.846
176.6604, 5282.797
177.1425, 5821.585
177.6246, 6071.086
178.1067, 6036.698
178.5888, 5766.656
179.0710, 5170.979
179.5531, 4368.429
180.0352, 3618.992
180.5173, 2970.690
180.9994, 2426.885
181.4815, 2020.001
181.9637, 1745.062
182.4458, 1557.545
182.9279, 1437.316
183.4100, 1376.142
183.8921, 1340.936
184.3742, 1325.850
184.8564, 1328.985
185.3385, 1346.453
185.8206, 1378.389
186.3027, 1424.820
186.7848, 1484.793
187.2669, 1558.832
187.7491, 1651.783
188.2312, 1762.048
188.7133, 1891.754
189.1954, 2047.489
189.6775, 2225.802
190.1596, 2442.204
190.6418, 2768.367
191.1239, 3197.965
191.6060, 3540.428
192.0881, 3745.963
192.5702, 3809.708
193.0524, 3653.826
193.5345, 3238.982
194.0166, 2709.030
194.4987, 2262.419
194.9808, 1899.227
195.4629, 1617.412
195.9451, 1431.735
196.4272, 1338.498
196.9093, 1282.629
197.3914, 1262.636
197.8735, 1279.629
198.3556, 1350.454
198.8378, 1484.244
199.3199, 1612.068
199.8020, 1704.952
200.2841, 1763.169
200.7662, 1765.314
201.2483, 1696.166
201.7305, 1583.003
202.2126, 1485.398
202.6947, 1399.964
203.1768, 1342.751
203.6589, 1329.243
204.1410, 1364.890
204.6232, 1405.277
205.1053, 1443.178
205.5874, 1484.785
206.0695, 1552.086
206.5516, 1649.018
207.0337, 1761.319
207.5159, 1875.855
207.9980, 1983.825
208.4801, 2126.938
208.9622, 2317.613
209.4443, 2547.102
209.9264, 2776.331
210.4086, 3010.778
210.8907, 3234.840
211.3728, 3428.054
211.8549, 3578.842
212.3370, 3741.336
212.8191, 3913.544
213.3013, 4100.064
213.7834, 4342.898
214.2655, 4615.112
214.7476, 4989.157
215.2297, 5511.633
215.7118, 6173.506
216.1940, 7050.714
216.6761, 8288.860
217.1582, 9857.629
217.6403, 10989.81
218.1224, 11772.81
218.6045, 11988.71
219.0867, 11300.50
219.5688, 9313.081
220.0509, 7350.649
220.5330, 5662.478
221.0151, 4225.185
221.4972, 3124.234
221.9794, 2424.553
222.4615, 1977.135
222.9436, 1628.935
223.4257, 1404.357
223.9078, 1227.649
224.3899, 1088.705
224.8721, 986.9630
225.3542, 906.7639
225.8363, 852.6002
226.3184, 815.0007
226.8005, 782.7438
227.2827, 757.3859
227.7648, 734.8680
228.2469, 714.2459
228.7290, 695.5171
229.2111, 679.5865
229.6932, 668.7313
230.1754, 659.0197
230.6575, 644.9460
231.1396, 624.6595
231.6217, 603.3984
232.1038, 582.4008
232.5859, 561.6668
233.0681, 540.7327
233.5502, 517.0540
234.0323, 495.0602
234.5144, 482.0205
234.9965, 484.6949
235.4786, 484.9237
235.9608, 475.2152
236.4429, 451.3921
236.9250, 438.1431
237.4071, 440.4618
237.8892, 450.3786
238.3713, 455.4796
238.8535, 454.3184
239.3356, 450.7165
239.8177, 445.3846
240.2998, 437.5439
240.7819, 430.7983
241.2640, 424.5265
241.7462, 419.6001
242.2283, 417.5250
242.7104, 418.9016
243.1925, 422.1874
243.6746, 427.5350
244.1567, 436.4458
244.6389, 442.1385
245.1210, 443.2119
245.6031, 441.9052
246.0852, 442.0619
246.5673, 443.9684
247.0494, 446.8614
247.5316, 450.6403
248.0137, 455.6507
248.4958, 460.6374
248.9779, 466.7383
249.4600, 472.1395
249.9421, 472.7144
250.4243, 465.1946
250.9064, 458.7338
251.3885, 457.3485
251.8706, 463.5380
252.3527, 466.1024
252.8348, 462.9237
253.3170, 457.4360
253.7991, 456.2886
254.2812, 460.8747
254.7633, 467.1203
255.2454, 473.0835
255.7275, 477.4164
256.2097, 486.7853
256.6918, 503.5684
257.1739, 523.6440
257.6560, 538.7346
258.1381, 545.2371
258.6202, 554.2958
259.1024, 571.3439
259.5845, 598.9847
260.0666, 622.3635
260.5487, 638.1298
261.0308, 652.1446
261.5129, 676.5540
261.9951, 713.9885
262.4772, 755.0653
262.9593, 795.8088
263.4414, 836.1095
263.9235, 877.7938
264.4056, 920.0292
264.8878, 964.9613
265.3699, 1015.522
265.8520, 1069.448
266.3341, 1136.763
266.8162, 1224.790
267.2983, 1335.936
267.7805, 1446.898
268.2626, 1554.735
268.7447, 1664.714
269.2268, 1789.505
269.7089, 1935.138
270.1910, 2073.470
270.6732, 2195.220
271.1553, 2299.030
271.6374, 2395.300
272.1195, 2488.185
272.6016, 2567.580
273.0837, 2621.811
273.5659, 2656.542
274.0480, 2639.860
274.5301, 2548.901
275.0122, 2381.532
275.4943, 2202.414
275.9764, 2004.356
276.4586, 1808.079
276.9407, 1641.399
277.4228, 1506.602
277.9049, 1397.970
278.3870, 1316.995
278.8691, 1263.221
279.3513, 1227.264
279.8334, 1210.318
280.3155, 1208.130
280.7976, 1213.877
281.2798, 1227.160
281.7619, 1256.241
282.2440, 1307.190
282.7261, 1377.935
283.2082, 1450.891
283.6903, 1523.984
284.1725, 1606.931
284.6546, 1711.592
285.1367, 1836.899
285.6188, 1978.798
286.1009, 2136.047
286.5830, 2308.648
287.0652, 2492.703
287.5473, 2684.026
288.0294, 2901.575
288.5115, 3161.206
288.9936, 3464.601
289.4757, 3815.058
289.9579, 4254.109
290.4400, 4732.606
290.9221, 5164.139
291.4042, 5556.182
291.8863, 5807.612
292.3684, 5805.313
292.8506, 5569.635
293.3327, 5185.156
293.8148, 4603.468
294.2969, 3930.602
294.7790, 3344.211
295.2611, 2842.354
295.7433, 2422.920
296.2254, 2094.521
296.7075, 1841.712
297.1896, 1633.263
297.6717, 1463.886
298.1538, 1324.431
298.6360, 1205.799
299.1181, 1106.775
299.6002, 1025.746
300.0823, 964.1663
300.5644, 918.4860
301.0465, 882.3923
301.5287, 858.7546
302.0108, 838.3630
302.4929, 809.1836
302.9750, 772.8781
303.4571, 740.6308
303.9392, 722.6556
304.4214, 712.2258
304.9035, 699.2498
305.3856, 678.7261
305.8677, 659.7868
306.3498, 650.9131
306.8319, 650.7014
307.3141, 654.1165
307.7962, 663.9024
308.2783, 673.2159
308.7604, 674.1923
309.2425, 661.4440
309.7246, 648.4879
310.2068, 643.1586
310.6889, 644.2567
311.1710, 648.5278
311.6531, 645.3370
312.1352, 650.2357
312.6173, 679.2731
313.0995, 744.5398
313.5816, 804.8953
314.0637, 845.4178
314.5458, 867.5928
315.0279, 874.7709
315.5100, 845.8613
315.9922, 819.1445
316.4743, 815.7996
316.9564, 841.6500
317.4385, 876.8595
317.9206, 916.8128
318.4027, 961.7800
318.8849, 1012.138
319.3670, 1070.125
319.8491, 1131.643
320.3312, 1195.406
320.8133, 1261.617
321.2954, 1329.643
321.7776, 1416.146
322.2597, 1498.537
322.7418, 1552.736
323.2239, 1550.518
323.7060, 1544.511
324.1881, 1541.902
324.6703, 1542.024
325.1524, 1558.771
325.6345, 1595.054
326.1166, 1647.185
326.5987, 1712.461
327.0808, 1786.812
327.5630, 1878.913
328.0451, 1990.751
328.5272, 2122.075
329.0093, 2268.665
329.4914, 2426.111
329.9735, 2599.150
330.4557, 2790.353
330.9378, 3003.700
331.4199, 3233.216
331.9020, 3512.112
332.3841, 3813.424
332.8662, 4012.332
333.3484, 4122.946
333.8305, 4106.742
334.3126, 3922.833
334.7947, 3519.784
335.2768, 3107.095
335.7589, 2673.080
336.2411, 2248.034
336.7232, 1896.319
337.2053, 1625.800
337.6874, 1413.454
338.1695, 1253.623
338.6516, 1151.453
339.1338, 1070.412
339.6159, 1013.563
340.0980, 973.1318
340.5801, 938.1477
341.0622, 908.0952
341.5443, 884.7036
342.0265, 866.8933
342.5086, 855.3494
342.9907, 856.2523
343.4728, 870.6528
343.9549, 893.3864
344.4370, 920.9070
344.9192, 952.4172
345.4013, 981.3377
345.8834, 1001.090
346.3655, 1017.401
346.8476, 1046.235
347.3297, 1087.762
347.8119, 1132.733
348.2940, 1168.669
348.7761, 1200.419
349.2582, 1241.675
349.7403, 1299.156
350.2225, 1366.064
350.7046, 1430.845
351.1867, 1495.277
351.6688, 1568.626
352.1509, 1658.011
352.6331, 1760.617
353.1152, 1872.260
353.5973, 1991.909
354.0794, 2120.585
354.5615, 2260.669
355.0436, 2410.851
355.5258, 2567.136
356.0079, 2722.973
356.4900, 2886.374
356.9721, 3065.058
357.4542, 3261.932
357.9363, 3468.256
358.4185, 3676.103
358.9006, 3890.405
359.3827, 4119.694
359.8648, 4420.624
360.3469, 4695.125
360.8290, 4902.305
361.3112, 5041.531
361.7933, 5092.688
362.2754, 5034.336
362.7575, 4891.714
363.2396, 4691.383
363.7217, 4403.378
364.2039, 4096.681
364.6860, 3774.011
365.1681, 3434.445
365.6502, 3131.570
366.1323, 2876.675
366.6144, 2654.559
367.0966, 2454.273
367.5787, 2276.942
368.0608, 2122.073
368.5429, 1991.707
369.0250, 1884.083
369.5071, 1793.596
369.9893, 1727.816
370.4714, 1670.636
370.9535, 1612.427
371.4356, 1542.336
371.9177, 1497.734
372.3998, 1483.504
372.8820, 1492.815
373.3641, 1512.235
373.8462, 1544.032
374.3283, 1579.728
374.8104, 1613.151
375.2925, 1643.036
375.7747, 1690.131
376.2568, 1757.073
376.7389, 1836.746
377.2210, 1925.218
377.7031, 2024.136
378.1852, 2106.725
378.6674, 2157.740
379.1495, 2186.396
379.6316, 2234.712
380.1137, 2303.258
380.5958, 2382.664
381.0779, 2455.984
381.5601, 2530.003
382.0422, 2631.756
382.5243, 2770.608
383.0064, 2938.746
383.4885, 3123.314
383.9706, 3326.479
384.4528, 3551.046
384.9349, 3801.630
385.4170, 4075.993
385.8991, 4373.703
386.3812, 4695.544
386.8633, 5047.595
387.3455, 5435.645
387.8276, 5857.214
388.3097, 6314.278
388.7918, 6814.658
389.2739, 7341.921
389.7560, 7916.340
390.2382, 8550.555
390.7203, 9095.975
391.2024, 9563.341
391.6845, 9866.406
392.1666, 9909.315
392.6487, 9570.072
393.1309, 9043.247
393.6130, 8344.422
394.0951, 7489.185
394.5772, 6652.108
395.0593, 5823.314
395.5414, 5059.661
396.0236, 4405.050
396.5057, 3908.204
396.9878, 3467.400
397.4699, 3082.586
397.9520, 2751.060
398.4341, 2466.938
398.9163, 2240.375
399.3984, 2051.197
399.8805, 1895.345
400.3626, 1780.706
400.8447, 1676.378
401.3268, 1582.768
401.8090, 1499.307
402.2911, 1423.446
402.7732, 1355.533
403.2553, 1296.605
403.7374, 1249.595
404.2195, 1213.645
404.7017, 1171.030
405.1838, 1117.835
405.6659, 1068.153
406.1480, 1035.520
406.6301, 1019.920
407.1122, 1009.496
407.5944, 1001.753
408.0765, 998.3629
408.5586, 1006.462
409.0407, 1025.834
409.5228, 1043.684
410.0049, 1048.210
410.4871, 1044.468
410.9692, 1045.927
411.4513, 1053.594
411.9334, 1068.075
412.4155, 1090.105
412.8976, 1119.857
413.3798, 1156.564
413.8619, 1201.676
414.3440, 1253.057
414.8261, 1308.528
415.3082, 1368.328
415.7903, 1434.627
416.2725, 1508.610
416.7546, 1590.416
417.2367, 1681.943
417.7188, 1782.026
418.2009, 1891.504
418.6830, 2005.721
419.1652, 2128.287
419.6473, 2268.027
420.1294, 2415.358
420.6115, 2590.878
421.0937, 2812.217
421.5758, 3096.498
422.0579, 3385.659
422.5400, 3729.766
423.0221, 4063.172
423.5042, 4285.726
423.9864, 4424.358
424.4685, 4416.477
424.9506, 4216.002
425.4327, 3810.573
425.9148, 3397.672
426.3969, 2952.299
426.8791, 2528.071
427.3612, 2175.587
427.8433, 1902.863
428.3254, 1680.692
428.8075, 1513.351
429.2896, 1392.184
429.7718, 1294.068
430.2539, 1220.455
430.7360, 1160.374
431.2181, 1108.307
431.7002, 1064.500
432.1823, 1033.352
432.6645, 1015.977
433.1466, 1008.252
433.6287, 1004.233
434.1108, 1004.669
434.5929, 1013.982
435.0750, 1039.706
435.5572, 1072.953
436.0393, 1097.710
436.5214, 1114.307
437.0035, 1129.848
437.4856, 1149.622
437.9677, 1171.707
438.4499, 1194.672
438.9320, 1223.716
439.4141, 1244.064
439.8962, 1245.759
440.3783, 1230.570
440.8604, 1203.086
441.3426, 1149.720
441.8247, 1096.773
442.3068, 1060.046
442.7889, 1043.798
443.2710, 1031.536
443.7531, 1018.257
444.2353, 1007.014
444.7174, 1000.956
445.1995, 999.0982
445.6816, 1004.163
446.1637, 1018.109
446.6458, 1040.177
447.1280, 1064.112
447.6101, 1085.975
448.0922, 1114.206
448.5743, 1153.237
449.0564, 1205.235
449.5385, 1263.924
450.0207, 1330.469
450.5028, 1402.138
450.9849, 1472.444
451.4670, 1539.228
451.9491, 1612.057
452.4312, 1692.561
452.9134, 1781.479
453.3955, 1884.318
453.8776, 1999.489
454.3597, 2136.419
454.8418, 2318.019
455.3239, 2532.991
455.8061, 2732.551
456.2882, 2922.718
456.7703, 3069.826
457.2524, 3131.933
457.7345, 3111.746
458.2166, 3019.584
458.6988, 2831.360
459.1809, 2589.448
459.6630, 2330.497
460.1451, 2050.715
460.6272, 1791.694
461.1093, 1577.933
461.5915, 1401.560
462.0736, 1257.507
462.5557, 1157.242
463.0378, 1075.651
463.5199, 1006.099
464.0020, 948.7581
464.4842, 904.0345
464.9663, 882.6876
465.4484, 866.7179
465.9305, 846.1447
466.4126, 812.9072
466.8947, 788.2792
467.3769, 776.4602
467.8590, 771.4586
468.3411, 762.9522
468.8232, 747.5055
469.3053, 735.5966
469.7874, 730.7643
470.2696, 732.5825
470.7517, 732.3874
471.2338, 728.8063
471.7159, 727.4035
472.1980, 734.4690
472.6801, 749.8125
473.1623, 762.8619
473.6444, 771.2635
474.1265, 778.6108
474.6086, 791.7087
475.0907, 809.7945
475.5728, 827.9327
476.0550, 838.9872
476.5371, 850.0870
477.0192, 872.9187
477.5013, 907.9908
477.9834, 949.7194
478.4655, 995.3380
478.9477, 1044.758
479.4298, 1097.130
479.9119, 1151.749
480.3940, 1210.704
480.8761, 1275.203
481.3582, 1344.651
481.8404, 1416.648
482.3225, 1487.848
482.8046, 1563.498
483.2867, 1645.317
483.7688, 1731.473
484.2509, 1830.645
484.7331, 1951.617
485.2152, 2081.480
485.6973, 2210.159
486.1794, 2327.746
486.6615, 2461.118
487.1436, 2612.586
487.6258, 2783.197
488.1079, 2986.530
488.5900, 3237.085
489.0721, 3476.985
489.5542, 3694.531
490.0363, 3891.688
490.5185, 3980.686
491.0006, 3955.284
491.4827, 3832.212
491.9648, 3604.786
492.4470, 3287.282
492.9291, 2956.698
493.4112, 2630.645
493.8933, 2320.241
494.3754, 2049.001
494.8575, 1814.202
495.3397, 1614.949
495.8218, 1453.345
496.3039, 1322.250
496.7860, 1218.226
497.2681, 1142.656
497.7502, 1078.922
498.2324, 1019.109
498.7145, 964.9780
499.1966, 917.7750
499.6787, 880.9711
500.1608, 848.6594
500.6429, 819.4567
501.1251, 793.3087
501.6072, 770.2905
502.0893, 748.8726
502.5714, 731.6069
503.0535, 720.2346
503.5356, 718.0729
504.0178, 713.9760
504.4999, 707.6794
504.9820, 699.7034
505.4641, 690.1127
505.9462, 678.3408
506.4283, 667.9128
506.9105, 659.3138
507.3926, 653.0304
507.8747, 651.9507
508.3568, 656.3052
508.8389, 661.7056
509.3210, 664.5533
509.8032, 665.9788
510.2853, 669.1873
510.7674, 674.7112
511.2495, 681.4548
511.7316, 688.9023
512.2137, 696.7395
512.6959, 704.2061
513.1780, 709.9454
513.6601, 716.1577
514.1422, 723.3495
514.6243, 731.8561
515.1064, 743.7646
515.5886, 760.3102
516.0707, 780.2982
516.5528, 803.1047
517.0349, 830.1532
517.5170, 857.2675
517.9991, 884.8642
518.4813, 911.8220
518.9634, 935.7471
519.4455, 950.0123
519.9276, 973.1331
520.4097, 1012.876
520.8918, 1065.173
521.3740, 1106.184
521.8561, 1132.444
522.3382, 1158.888
522.8203, 1203.615
523.3024, 1263.673
523.7845, 1293.755
524.2667, 1289.985
524.7488, 1261.191
525.2309, 1211.101
525.7130, 1143.406
526.1951, 1071.476
526.6772, 992.4579
527.1594, 917.5690
527.6415, 862.4324
528.1236, 824.5401
528.6057, 791.6537
529.0878, 756.0624
529.5699, 723.7508
530.0521, 699.7650
530.5342, 685.0552
531.0163, 676.1483
531.4984, 675.4753
531.9805, 678.4161
532.4626, 680.0401
532.9448, 677.3579
533.4269, 676.1373
533.9090, 676.8778
534.3911, 679.5298
534.8732, 683.4459
535.3553, 687.0394
535.8375, 695.1084
536.3196, 711.0496
536.8017, 735.5952
537.2838, 756.1535
537.7659, 772.0174
538.2480, 786.8657
538.7302, 804.0242
539.2123, 823.6234
539.6944, 845.0169
540.1765, 867.0266
540.6586, 892.6931
541.1407, 927.9258
541.6229, 971.3150
542.1050, 1018.203
542.5871, 1066.382
543.0692, 1116.809
543.5513, 1169.184
544.0334, 1223.110
544.5156, 1281.910
544.9977, 1343.961
545.4798, 1413.361
545.9619, 1493.352
546.4440, 1594.946
546.9261, 1691.721
547.4083, 1767.869
547.8904, 1839.923
548.3725, 1935.890
548.8546, 2062.796
549.3367, 2203.491
549.8188, 2357.424
550.3010, 2523.229
550.7831, 2686.391
551.2652, 2848.314
551.7473, 3003.504
552.2294, 3158.805
552.7115, 3310.098
553.1937, 3410.326
553.6758, 3457.062
554.1579, 3447.270
554.6400, 3356.981
555.1221, 3204.434
555.6042, 3042.753
556.0864, 2875.856
556.5685, 2720.870
557.0506, 2592.412
557.5327, 2489.925
558.0148, 2413.957
558.4969, 2373.566
558.9791, 2353.047
559.4612, 2348.207
559.9433, 2363.152
560.4254, 2369.391
560.9075, 2381.059
561.3896, 2370.191
561.8718, 2312.467
562.3539, 2180.674
562.8360, 2047.261
563.3181, 1917.332
563.8002, 1790.393
564.2823, 1660.372
564.7645, 1525.068
565.2466, 1401.253
565.7287, 1296.245
566.2108, 1208.878
566.6929, 1138.125
567.1750, 1084.930
567.6572, 1039.887
568.1393, 994.7150
568.6214, 952.9470
569.1035, 924.8151
569.5856, 913.8069
570.0677, 907.4913
570.5499, 895.4261
571.0320, 881.1097
571.5141, 869.9950
571.9962, 863.2378
572.4783, 860.8832
572.9604, 865.6656
573.4426, 875.9077
573.9247, 883.2427
574.4068, 879.7376
574.8889, 879.1448
575.3710, 887.2572
575.8531, 905.6251
576.3353, 923.7322
576.8174, 940.5388
577.2995, 958.3694
577.7816, 978.6895
578.2637, 1001.055
578.7458, 1030.952
579.2280, 1071.052
579.7101, 1115.574
580.1922, 1150.514
580.6743, 1178.783
581.1564, 1216.825
581.6385, 1277.043
582.1207, 1348.851
582.6028, 1417.976
583.0849, 1484.601
583.5670, 1554.846
584.0491, 1633.120
584.5313, 1715.781
585.0134, 1798.161
585.4955, 1875.072
585.9776, 1965.657
586.4597, 2083.440
586.9418, 2213.570
587.4240, 2336.335
587.9061, 2418.320
588.3882, 2546.813
588.8703, 2752.724
589.3524, 3005.253
589.8345, 3218.375
590.3167, 3392.493
590.7988, 3526.081
591.2809, 3611.108
591.7630, 3653.127
592.2451, 3675.057
592.7272, 3677.044
593.2094, 3655.222
593.6915, 3603.709
594.1736, 3526.631
594.6557, 3428.242
595.1378, 3308.133
595.6199, 3179.697
596.1021, 3033.340
596.5842, 2890.724
597.0663, 2782.322
597.5485, 2740.457
598.0306, 2712.589
598.5127, 2684.354
598.9948, 2657.140
599.4769, 2638.004
599.9590, 2642.831
600.4412, 2637.075
600.9233, 2611.649
601.4054, 2566.680
601.8875, 2497.709
602.3696, 2401.763
602.8517, 2290.003
603.3339, 2171.484
603.8160, 2045.814
604.2981, 1917.820
604.7802, 1787.157
605.2623, 1661.338
605.7444, 1546.837
606.2266, 1445.364
606.7087, 1367.527
607.1908, 1333.205
607.6729, 1304.907
608.1550, 1245.612
608.6371, 1166.197
609.1193, 1099.958
609.6014, 1069.597
610.0835, 1048.048
610.5656, 1023.017
611.0477, 992.4469
611.5298, 968.2104
612.0120, 954.8402
612.4941, 943.8857
612.9762, 928.8903
613.4583, 906.4739
613.9404, 893.3442
614.4225, 892.8329
614.9047, 897.2109
615.3868, 894.6669
615.8689, 885.8229
616.3510, 879.2205
