##NAMES=Datolite
##RRUFFID=R050136
##IDEAL CHEMISTRY=CaB(SiO_4_)(OH)
##LOCALITY=Charcas, San Luis Potosi, Mexico
##OWNER=RRUFF
##SOURCE=Dave Bunk Minerals
##DESCRIPTION=Pale green tabular crystals
##STATUS=The identification of this mineral has been confirmed by X-ray diffraction and chemical analysis
##URL=rruff.info/R050136
##MEASURED CHEMISTRY=Ca_1.00_BSi_1.00_O_4_(OH) ; trace amounts of Fe; B and OH estimated by stoichiometry end charge balance
93.08527, 0.0000000E+00
93.56738, 151.9524
94.04950, 157.2310
94.53162, 160.9731
95.01373, 160.7891
95.49585, 157.7682
95.97797, 153.8483
96.46008, 150.7442
96.94220, 149.0771
97.42432, 146.8946
97.90643, 143.4337
98.38855, 139.8788
98.87067, 137.0557
99.35278, 135.1766
99.83490, 133.7302
100.3170, 131.6064
100.7991, 128.2816
101.2813, 124.5808
101.7634, 119.8830
102.2455, 115.0332
102.7276, 110.9963
103.2097, 108.2921
103.6918, 106.7384
104.1740, 105.4059
104.6561, 104.0717
105.1382, 103.0757
105.6203, 102.8279
106.1024, 103.1505
106.5845, 103.2054
107.0667, 102.2062
107.5488, 100.3998
108.0309, 99.06664
108.5130, 98.18721
108.9951, 97.85258
109.4772, 98.19480
109.9594, 99.25820
110.4415, 100.8930
110.9236, 103.2431
111.4057, 106.0454
111.8878, 108.8275
112.3699, 111.5748
112.8521, 114.2204
113.3342, 116.1006
113.8163, 116.8839
114.2984, 117.1362
114.7805, 116.7060
115.2626, 115.8611
115.7448, 115.3148
116.2269, 115.9841
116.7090, 118.4692
117.1911, 120.0299
117.6732, 120.3511
118.1553, 120.1417
118.6375, 119.3889
119.1196, 118.2599
119.6017, 117.3378
120.0838, 117.6036
120.5659, 120.0759
121.0480, 122.3095
121.5302, 124.2658
122.0123, 125.9967
122.4944, 127.4987
122.9765, 128.7464
123.4586, 129.8732
123.9407, 131.2189
124.4228, 132.7491
124.9050, 134.4609
125.3871, 136.3270
125.8692, 138.3577
126.3513, 140.6270
126.8334, 143.1224
127.3155, 145.9543
127.7977, 149.1370
128.2798, 152.5352
128.7619, 156.4947
129.2440, 160.7090
129.7261, 164.7790
130.2083, 171.5924
130.6904, 182.6304
131.1725, 197.0522
131.6546, 215.6537
132.1367, 240.2918
132.6188, 267.2855
133.1010, 288.9749
133.5831, 309.6737
134.0652, 315.8456
134.5473, 300.4138
135.0294, 271.3272
135.5115, 238.1881
135.9937, 206.2596
136.4758, 175.7771
136.9579, 151.9513
137.4400, 137.8617
137.9221, 127.7223
138.4042, 121.1389
138.8864, 117.5602
139.3685, 116.1405
139.8506, 116.0985
140.3327, 117.3098
140.8148, 121.8728
141.2969, 129.4597
141.7791, 139.8326
142.2612, 153.0802
142.7433, 169.1220
143.2254, 187.6236
143.7075, 209.3772
144.1896, 235.4026
144.6718, 256.3356
145.1539, 271.7534
145.6360, 281.8624
146.1181, 285.4622
146.6002, 281.4811
147.0823, 274.5412
147.5645, 269.0828
148.0466, 264.8972
148.5287, 262.9010
149.0108, 263.4858
149.4929, 266.5602
149.9750, 271.9594
150.4572, 280.1195
150.9393, 290.2849
151.4214, 301.7276
151.9035, 314.3861
152.3856, 327.5282
152.8677, 341.2894
153.3499, 355.7732
153.8320, 368.4065
154.3141, 377.3774
154.7962, 385.1972
155.2783, 392.2896
155.7604, 398.9901
156.2425, 406.3039
156.7247, 415.5537
157.2068, 427.2202
157.6889, 440.0965
158.1710, 453.1374
158.6531, 467.6726
159.1352, 483.8247
159.6174, 501.8452
160.0995, 523.1534
160.5816, 550.0377
161.0637, 576.6161
161.5458, 619.0792
162.0279, 670.6864
162.5101, 739.8986
162.9922, 843.2981
163.4743, 989.2076
163.9564, 1157.570
164.4385, 1291.893
164.9206, 1434.993
165.4028, 1495.354
165.8849, 1424.177
166.3670, 1261.227
166.8491, 1068.448
167.3312, 865.8836
167.8133, 667.9273
168.2955, 516.2164
168.7776, 417.4152
169.2597, 345.5975
169.7418, 295.0504
170.2239, 263.8992
170.7060, 243.0042
171.1882, 230.7310
171.6703, 225.2587
172.1524, 221.3637
172.6345, 218.7288
173.1166, 217.7769
173.5987, 218.6033
174.0809, 221.1132
174.5630, 226.3469
175.0451, 235.2901
175.5272, 247.1933
176.0093, 262.9337
176.4914, 284.7885
176.9736, 306.9559
177.4557, 320.7555
177.9378, 326.1743
178.4199, 322.2025
178.9020, 305.1962
179.3841, 281.3058
179.8663, 255.4369
180.3484, 229.2492
180.8305, 203.9664
181.3126, 183.7792
181.7947, 170.3804
182.2768, 160.3617
182.7590, 153.4101
183.2411, 148.8282
183.7232, 145.9211
184.2053, 144.3488
184.6874, 144.0146
185.1695, 144.3730
185.6517, 145.4471
186.1338, 147.2980
186.6159, 149.8216
187.0980, 153.1574
187.5801, 157.3555
188.0622, 162.3742
188.5444, 168.3000
189.0265, 176.9093
189.5086, 186.9267
189.9907, 200.3745
190.4728, 221.0054
190.9549, 246.1216
191.4371, 269.7988
191.9192, 289.2480
192.4013, 303.3300
192.8834, 304.6497
193.3655, 288.3603
193.8476, 265.9915
194.3298, 239.7865
194.8119, 211.1370
195.2940, 186.1509
195.7761, 168.6905
196.2582, 159.3947
196.7403, 154.2479
197.2225, 155.0071
197.7046, 158.6558
198.1867, 163.8331
198.6688, 170.5524
199.1509, 176.5947
199.6330, 180.8683
200.1152, 183.2142
200.5973, 183.2496
201.0794, 179.7686
201.5615, 174.6518
202.0436, 169.8356
202.5257, 165.1889
203.0079, 161.5336
203.4900, 159.4492
203.9721, 158.6297
204.4542, 158.9772
204.9363, 160.6633
205.4184, 163.3406
205.9006, 166.3359
206.3827, 169.4705
206.8648, 173.3723
207.3469, 178.2060
207.8290, 183.8705
208.3111, 190.3594
208.7933, 197.7573
209.2754, 205.8743
209.7575, 214.4516
210.2396, 224.6552
210.7217, 233.2478
211.2038, 239.4247
211.6860, 243.7067
212.1681, 246.4164
212.6502, 247.4025
213.1323, 247.3922
213.6144, 249.4512
214.0965, 251.7445
214.5787, 259.1108
215.0608, 271.6111
215.5429, 289.6091
216.0250, 314.5772
216.5071, 348.0787
216.9892, 387.9245
217.4714, 422.2552
217.9535, 463.0385
218.4356, 484.0485
218.9177, 476.2935
219.3998, 446.7246
219.8819, 403.1996
220.3641, 349.0452
220.8462, 287.0675
221.3283, 236.8894
221.8104, 201.5396
222.2925, 173.6705
222.7746, 154.0733
223.2568, 140.8031
223.7389, 131.2653
224.2210, 124.1666
224.7031, 119.3136
225.1852, 115.9254
225.6673, 114.1117
226.1495, 113.2475
226.6316, 113.1854
227.1137, 113.9566
227.5958, 115.8016
228.0779, 119.0234
228.5600, 123.2136
229.0422, 126.6775
229.5243, 129.8209
230.0064, 131.9643
230.4885, 133.3049
230.9706, 133.5282
231.4527, 131.5525
231.9349, 126.4190
232.4170, 119.0601
232.8991, 111.9445
233.3812, 104.7417
233.8633, 98.30733
234.3454, 93.23129
234.8276, 89.36504
235.3097, 86.09592
235.7918, 83.20092
236.2739, 80.83751
236.7560, 79.17780
237.2381, 78.42422
237.7203, 77.75642
238.2024, 76.56553
238.6845, 74.94179
239.1666, 73.48843
239.6487, 72.28425
240.1308, 71.49735
240.6130, 71.36326
241.0951, 71.98011
241.5772, 72.59886
242.0593, 72.60078
242.5414, 72.02785
243.0235, 71.51774
243.5057, 71.23546
243.9878, 71.07238
244.4699, 70.88311
244.9520, 70.66224
245.4341, 70.59859
245.9162, 70.85296
246.3984, 71.42449
246.8805, 72.20191
247.3626, 73.51834
247.8447, 74.71572
248.3268, 75.28592
248.8089, 75.27055
249.2911, 75.16756
249.7732, 75.42268
250.2553, 76.04964
250.7374, 76.65780
251.2195, 77.36768
251.7016, 77.90282
252.1838, 78.12679
252.6659, 78.05383
253.1480, 77.77695
253.6301, 77.16979
254.1122, 76.15891
254.5943, 75.92876
255.0765, 77.66470
255.5586, 79.13320
256.0407, 79.32870
256.5228, 78.52009
257.0049, 77.58015
257.4870, 77.16674
257.9691, 77.28342
258.4513, 77.74344
258.9334, 79.08299
259.4155, 80.28843
259.8976, 80.98674
260.3797, 81.32483
260.8618, 81.63148
261.3440, 82.12214
261.8261, 82.80054
262.3082, 83.71813
262.7903, 85.25423
263.2724, 86.65654
263.7545, 87.52410
264.2367, 88.16017
264.7188, 89.08358
265.2009, 90.62959
265.6830, 92.75750
266.1651, 95.08079
266.6472, 97.65422
267.1294, 100.3994
267.6115, 103.0157
268.0936, 105.8569
268.5757, 109.5585
269.0578, 114.5040
269.5399, 120.3657
270.0221, 125.6733
270.5042, 130.4808
270.9863, 134.5788
271.4684, 137.8248
271.9505, 140.3802
272.4326, 142.5832
272.9148, 144.6106
273.3969, 146.0932
273.8790, 146.0072
274.3611, 143.4191
274.8432, 140.2063
275.3253, 135.9734
275.8075, 131.3166
276.2896, 126.7090
276.7717, 122.3264
277.2538, 118.3244
277.7359, 114.9473
278.2180, 112.0709
278.7002, 110.1986
279.1823, 109.8109
279.6644, 110.1917
280.1465, 110.6937
280.6286, 111.1453
281.1107, 111.7645
281.5929, 112.8928
282.0750, 114.8886
282.5571, 116.5340
283.0392, 117.2427
283.5213, 117.9797
284.0034, 119.5301
284.4856, 122.0136
284.9677, 125.0784
285.4498, 128.3537
285.9319, 131.8372
286.4140, 135.7790
286.8961, 139.7352
287.3783, 144.4594
287.8604, 150.2197
288.3425, 157.1212
288.8246, 165.6212
289.3067, 176.2828
289.7888, 189.2381
290.2710, 201.6587
290.7531, 215.2627
291.2352, 226.9368
291.7173, 236.2543
292.1994, 242.5000
292.6815, 243.2011
293.1637, 236.2387
293.6458, 222.2412
294.1279, 206.7434
294.6100, 187.9072
295.0921, 169.7367
295.5742, 153.3486
296.0564, 138.8774
296.5385, 126.7704
297.0206, 117.3886
297.5027, 110.2775
297.9848, 104.0146
298.4669, 98.29836
298.9491, 93.65489
299.4312, 90.48830
299.9133, 88.44986
300.3954, 86.93718
300.8775, 85.77966
301.3596, 84.90104
301.8418, 84.22447
302.3239, 83.77278
302.8060, 83.34376
303.2881, 82.86427
303.7702, 82.38767
304.2523, 81.99446
304.7345, 81.70600
305.2166, 81.48330
305.6987, 81.26324
306.1808, 81.03166
306.6629, 80.96436
307.1451, 81.23586
307.6272, 81.60236
308.1093, 81.72598
308.5914, 81.56714
309.0735, 81.50227
309.5556, 81.77095
310.0378, 82.43498
310.5199, 83.71445
311.0020, 86.32726
311.4841, 89.03136
311.9662, 90.77417
312.4483, 91.61291
312.9305, 92.41411
313.4126, 93.77042
313.8947, 95.54809
314.3768, 97.09007
314.8589, 98.36910
315.3410, 99.44656
315.8232, 100.0227
316.3053, 100.3396
316.7874, 101.3065
317.2695, 103.4800
317.7516, 106.3932
318.2337, 108.8685
318.7159, 110.6124
319.1980, 112.6511
319.6801, 115.2746
320.1622, 118.4648
320.6443, 122.4565
321.1264, 127.5468
321.6086, 132.7065
322.0907, 136.1988
322.5728, 138.0814
323.0549, 139.0759
323.5370, 138.9924
324.0191, 138.2421
324.5013, 137.1194
324.9834, 135.6376
325.4655, 134.3916
325.9476, 133.7669
326.4297, 133.8276
326.9118, 135.3936
327.3940, 139.2887
327.8761, 144.1987
328.3582, 149.3713
328.8403, 154.6665
329.3224, 159.6633
329.8045, 164.3208
330.2867, 168.3343
330.7688, 170.6398
331.2509, 171.3600
331.7330, 170.3790
332.2151, 167.1127
332.6972, 161.9884
333.1794, 156.1841
333.6615, 150.0403
334.1436, 143.8762
334.6257, 138.5570
335.1078, 134.2910
335.5899, 130.2455
336.0721, 125.6306
336.5542, 121.1710
337.0363, 118.0437
337.5184, 116.5727
338.0005, 116.5535
338.4826, 117.8917
338.9648, 120.7959
339.4469, 124.0526
339.9290, 127.5419
340.4111, 131.3178
340.8932, 135.3587
341.3753, 139.6770
341.8575, 144.5754
342.3396, 150.3902
342.8217, 157.2701
343.3038, 164.1732
343.7859, 171.5623
344.2680, 178.5698
344.7502, 184.1757
345.2323, 188.7927
345.7144, 194.2043
346.1965, 201.8555
346.6786, 211.0550
347.1607, 217.6059
347.6429, 220.5504
348.1250, 222.6373
348.6071, 223.8197
349.0892, 224.7834
349.5713, 226.5811
350.0534, 229.6342
350.5356, 233.7446
351.0177, 238.6150
351.4998, 244.1354
351.9819, 250.6757
352.4640, 258.4806
352.9461, 267.2025
353.4283, 276.5826
353.9104, 286.5832
354.3925, 297.2231
354.8746, 308.4540
355.3567, 320.1337
355.8388, 333.5528
356.3210, 348.9496
356.8031, 365.6654
357.2852, 383.0718
357.7673, 401.4344
358.2494, 421.9890
358.7315, 445.7903
359.2137, 472.4394
359.6958, 496.4213
360.1779, 519.5659
360.6600, 538.1492
361.1421, 552.6177
361.6242, 561.7717
362.1064, 563.8380
362.5885, 558.0586
363.0706, 545.4697
363.5527, 528.2922
364.0348, 504.4097
364.5169, 478.4662
364.9991, 448.3418
365.4812, 417.9117
365.9633, 389.0774
366.4454, 362.6803
366.9275, 339.4659
367.4096, 320.1960
367.8918, 305.1319
368.3739, 293.1534
368.8560, 284.2798
369.3381, 278.1639
369.8202, 275.2545
370.3023, 275.0340
370.7845, 276.4731
371.2666, 278.8860
371.7487, 282.3766
372.2308, 287.5628
372.7129, 294.9743
373.1950, 303.6175
373.6772, 313.5667
374.1593, 324.4419
374.6414, 336.0062
375.1235, 348.1787
375.6056, 360.4925
376.0877, 371.9865
376.5699, 382.3203
377.0520, 392.9415
377.5341, 405.4683
378.0162, 417.1002
378.4983, 427.0638
378.9804, 434.8135
379.4626, 439.2269
379.9447, 438.1815
380.4268, 431.8687
380.9089, 427.6071
381.3910, 425.7272
381.8731, 425.7911
382.3553, 427.3609
382.8374, 430.5808
383.3195, 435.6697
383.8016, 442.6665
384.2837, 451.7072
384.7658, 463.1402
385.2480, 476.8765
385.7301, 493.1125
386.2122, 511.2135
386.6943, 532.2477
387.1764, 557.4992
387.6585, 587.2685
388.1407, 620.0402
388.6228, 655.2752
389.1049, 692.8727
389.5870, 730.0108
390.0691, 768.9008
390.5512, 803.2455
391.0334, 832.8821
391.5155, 856.0142
391.9976, 865.6177
392.4797, 857.9631
392.9618, 834.8347
393.4439, 797.3572
393.9261, 743.7598
394.4082, 684.3544
394.8903, 620.4736
395.3724, 555.9426
395.8545, 496.5902
396.3366, 442.3732
396.8188, 394.1974
397.3009, 352.9392
397.7830, 318.2653
398.2651, 288.0793
398.7472, 262.3492
399.2293, 240.2369
399.7115, 221.1963
400.1936, 205.0377
400.6757, 191.0760
401.1578, 179.5886
401.6399, 170.0241
402.1220, 162.0981
402.6042, 155.7562
403.0863, 150.0780
403.5684, 144.1762
404.0505, 138.2708
404.5326, 133.9027
405.0147, 131.8017
405.4969, 130.4639
405.9790, 129.6148
406.4611, 128.9681
406.9432, 127.8469
407.4253, 125.8973
407.9074, 123.4740
408.3896, 121.3572
408.8717, 119.4095
409.3538, 118.0338
409.8359, 117.6504
410.3180, 117.6129
410.8001, 117.2647
411.2823, 116.5580
411.7644, 115.9607
412.2465, 115.9340
412.7286, 116.5062
413.2107, 117.3739
413.6928, 118.3970
414.1750, 119.8182
414.6571, 121.8678
415.1392, 124.3531
415.6213, 126.8246
416.1034, 129.0313
416.5855, 131.3505
417.0677, 134.8226
417.5498, 139.9875
418.0319, 145.4585
418.5140, 150.5816
418.9961, 156.3157
419.4782, 163.1967
419.9604, 171.3609
420.4425, 180.9182
420.9246, 192.2104
421.4067, 205.3416
421.8888, 218.4817
422.3709, 233.1003
422.8531, 245.8833
423.3352, 257.0944
423.8173, 265.6400
424.2994, 270.0414
424.7815, 269.6325
425.2636, 264.7295
425.7458, 255.0208
426.2279, 239.3243
426.7100, 223.7765
427.1921, 208.8631
427.6742, 195.5729
428.1563, 184.7354
428.6385, 176.3625
429.1206, 169.9725
429.6027, 165.4398
430.0848, 162.6369
430.5669, 161.1088
431.0490, 160.9373
431.5312, 161.7431
432.0133, 163.1982
432.4954, 165.4402
432.9775, 168.9954
433.4596, 174.2719
433.9417, 180.5913
434.4239, 187.3371
434.9060, 194.5787
435.3881, 202.6233
435.8702, 211.6829
436.3523, 221.4497
436.8344, 231.5876
437.3166, 242.2072
437.7987, 252.3823
438.2808, 263.9578
438.7629, 273.8868
439.2450, 278.7348
439.7271, 278.0950
440.2093, 273.0535
440.6914, 264.0938
441.1735, 251.2887
441.6556, 236.9719
442.1377, 219.5574
442.6198, 202.7005
443.1020, 187.0783
443.5841, 172.8673
444.0662, 160.4447
444.5483, 149.8304
445.0304, 140.7993
445.5125, 132.8051
445.9947, 125.7279
446.4768, 120.2502
446.9589, 116.7948
447.4410, 114.2761
447.9231, 112.2387
448.4052, 110.5686
448.8874, 109.2666
449.3695, 108.3484
449.8516, 107.7800
450.3337, 107.3540
450.8158, 106.8160
451.2979, 106.8704
451.7801, 107.6311
452.2622, 108.9686
452.7443, 110.8124
453.2264, 113.1358
453.7085, 115.8141
454.1906, 118.6789
454.6728, 121.7210
455.1549, 125.3214
455.6370, 130.0897
456.1191, 134.6706
456.6012, 139.1596
457.0833, 142.9063
457.5655, 144.4245
458.0476, 142.8165
458.5297, 138.9535
459.0118, 133.6192
459.4939, 126.7846
459.9760, 119.9445
460.4582, 113.5114
460.9403, 107.4741
461.4224, 101.5717
461.9045, 95.71669
462.3866, 90.73150
462.8687, 87.25684
463.3508, 84.72190
463.8329, 82.21038
464.3151, 79.60848
464.7972, 77.44553
465.2793, 76.18601
465.7614, 75.77271
466.2435, 75.50898
466.7256, 75.54512
467.2078, 75.55102
467.6899, 75.23878
468.1720, 74.86082
468.6541, 74.83245
469.1362, 75.29267
469.6183, 76.07201
470.1005, 76.91890
470.5826, 77.74179
471.0647, 78.96525
471.5468, 80.92799
472.0289, 82.91145
472.5110, 84.59425
472.9932, 86.00808
473.4753, 87.29464
473.9574, 88.53989
474.4395, 89.73662
474.9216, 90.89078
475.4037, 92.11448
475.8859, 93.05070
476.3680, 93.17394
476.8501, 93.38527
477.3322, 94.50187
477.8143, 96.47701
478.2964, 98.46127
478.7786, 99.69348
479.2607, 100.2903
479.7428, 100.7908
480.2249, 100.8135
480.7070, 101.5872
481.1891, 104.4230
481.6713, 108.0922
482.1534, 110.9843
482.6355, 112.5636
483.1176, 114.0338
483.5997, 116.3650
484.0818, 119.4230
484.5640, 122.6457
485.0461, 125.7966
485.5282, 129.3978
486.0103, 134.1475
486.4924, 139.9285
486.9745, 145.8824
487.4567, 151.9220
487.9388, 158.1638
488.4209, 164.5108
488.9030, 171.0675
489.3851, 177.6644
489.8672, 184.4959
490.3494, 190.3541
490.8315, 192.8637
491.3136, 191.3168
491.7957, 187.1341
492.2778, 179.5916
492.7599, 169.9810
493.2421, 158.1991
493.7242, 144.9854
494.2063, 132.2254
494.6884, 121.1513
495.1705, 111.6756
495.6526, 103.2159
496.1348, 95.62531
496.6169, 89.37835
497.0990, 84.76998
497.5811, 81.16797
498.0632, 78.18487
498.5453, 75.68517
499.0275, 73.51950
499.5096, 71.58587
499.9917, 69.86681
500.4738, 68.26213
500.9559, 66.78754
501.4380, 65.41376
501.9202, 63.92670
502.4023, 62.58957
502.8844, 61.87656
503.3665, 62.07644
503.8486, 62.37802
504.3307, 62.01362
504.8129, 61.18981
505.2950, 60.60955
505.7771, 60.41439
506.2592, 60.53930
506.7413, 61.15517
507.2234, 62.19556
507.7056, 62.55299
508.1877, 61.38776
508.6698, 60.24905
509.1519, 60.17420
509.6340, 60.81060
510.1161, 61.32085
510.5983, 61.36651
511.0804, 61.13276
511.5625, 60.92617
512.0446, 60.70691
512.5267, 60.63197
513.0089, 60.75835
513.4910, 60.95742
513.9731, 61.24094
514.4552, 61.53833
514.9373, 61.69056
515.4194, 61.58239
515.9016, 61.35815
516.3837, 61.39656
516.8658, 61.74123
517.3479, 62.23166
517.8300, 62.79971
518.3121, 63.54747
518.7943, 64.69267
519.2764, 66.14086
519.7585, 67.42597
520.2406, 68.07266
520.7227, 68.41916
521.2048, 69.32475
521.6870, 70.88438
522.1691, 72.21981
522.6512, 72.96371
523.1333, 73.21825
523.6154, 73.22871
524.0975, 72.98940
524.5797, 72.54102
525.0618, 71.99158
525.5439, 71.19292
526.0260, 69.90895
526.5081, 68.13083
526.9902, 66.08574
527.4724, 63.84830
527.9545, 61.50881
528.4366, 59.68888
528.9187, 58.62191
529.4008, 57.72014
529.8829, 56.98677
530.3651, 56.34464
530.8472, 55.70801
531.3293, 55.07166
531.8114, 54.50396
532.2935, 54.04385
532.7756, 53.69983
533.2578, 53.67126
533.7399, 54.14275
534.2220, 54.66301
534.7041, 55.10138
535.1862, 55.52433
535.6683, 56.02938
536.1505, 56.63253
536.6326, 57.19625
537.1147, 57.55682
537.5968, 57.75801
538.0789, 57.94328
538.5610, 58.04509
539.0432, 58.39500
539.5253, 59.55421
540.0074, 61.06602
540.4895, 61.82751
540.9716, 61.24434
541.4537, 60.78887
541.9359, 61.40769
542.4180, 62.61396
542.9001, 63.47557
543.3822, 63.80254
543.8643, 64.23734
544.3464, 65.46781
544.8286, 67.52561
545.3107, 69.27570
545.7928, 70.58488
546.2749, 71.79913
546.7570, 73.08028
547.2391, 74.28342
547.7213, 75.15926
548.2034, 75.67580
548.6855, 76.14202
549.1676, 76.86067
549.6497, 77.81945
550.1318, 79.30341
550.6140, 81.64172
551.0961, 84.06873
551.5782, 86.45524
552.0603, 88.68974
552.5424, 90.59420
553.0245, 92.11881
553.5067, 93.33524
553.9888, 94.39978
554.4709, 95.22389
554.9530, 95.36660
555.4351, 94.63481
555.9172, 93.73180
556.3994, 93.18649
556.8815, 92.95048
557.3636, 92.68095
557.8457, 91.91030
558.3278, 91.64926
558.8099, 92.56525
559.2921, 94.14127
559.7742, 95.79738
560.2563, 97.34284
560.7384, 98.57523
561.2205, 99.32945
561.7026, 99.62601
562.1848, 98.96845
562.6669, 96.87589
563.1490, 94.31680
563.6311, 91.01458
564.1132, 87.56277
564.5953, 84.65778
565.0775, 82.43430
565.5596, 80.39941
566.0417, 77.72066
566.5238, 74.56297
567.0059, 72.84895
567.4880, 73.18045
567.9702, 73.63831
568.4523, 72.89445
568.9344, 71.74950
569.4165, 71.30553
569.8986, 71.76692
570.3807, 72.68697
570.8629, 73.94404
571.3450, 75.44981
571.8271, 77.05160
572.3092, 78.73328
572.7913, 80.50355
573.2734, 82.37705
573.7556, 84.35914
574.2377, 86.54330
574.7198, 88.77161
575.2019, 91.38864
575.6840, 94.61720
576.1661, 98.14112
576.6483, 101.8412
577.1304, 105.5918
577.6125, 109.0938
578.0946, 112.0707
578.5767, 114.5987
579.0588, 116.9452
579.5410, 118.8089
580.0231, 121.1924
580.5052, 124.6820
580.9873, 128.6222
581.4694, 132.5061
581.9515, 136.2893
582.4337, 140.3143
582.9158, 144.5562
583.3979, 149.2486
583.8800, 154.8452
584.3621, 161.3430
584.8442, 167.9336
585.3264, 174.1454
585.8085, 180.3477
586.2906, 187.4536
586.7727, 195.6827
587.2548, 203.9936
587.7369, 211.9739
588.2191, 220.2703
