##NAMES=Datolite
##RRUFFID=R050136
##IDEAL CHEMISTRY=CaB(SiO_4_)(OH)
##LOCALITY=Charcas, San Luis Potosi, Mexico
##OWNER=RRUFF
##SOURCE=Dave Bunk Minerals
##DESCRIPTION=Pale green tabular crystals
##STATUS=The identification of this mineral has been confirmed by X-ray diffraction and chemical analysis
##URL=rruff.info/R050136
##MEASURED CHEMISTRY=Ca_1.00_BSi_1.00_O_4_(OH) ; trace amounts of Fe; B and OH estimated by stoichiometry end charge balance
93.88477, 32.80170
94.36688, 31.94942
94.84900, 32.19450
95.33112, 33.42421
95.81323, 35.10549
96.29535, 37.34105
96.77747, 39.88845
97.25958, 41.66759
97.74170, 42.34976
98.22382, 42.77198
98.70593, 44.53148
99.18805, 47.69510
99.67017, 51.37069
100.1523, 54.87747
100.6344, 58.17083
101.1165, 62.09086
101.5986, 66.83527
102.0807, 72.26774
102.5629, 77.51579
103.0450, 82.45527
103.5271, 87.57097
104.0092, 93.38493
104.4913, 100.4458
104.9734, 106.8618
105.4556, 112.2105
105.9377, 116.3796
106.4198, 120.9335
106.9019, 126.0869
107.3840, 131.4416
107.8661, 136.3717
108.3483, 140.3052
108.8304, 144.6169
109.3125, 149.7023
109.7946, 155.8826
110.2767, 162.0937
110.7588, 167.8583
111.2410, 173.7425
111.7231, 180.7659
112.2052, 189.4927
112.6873, 198.9921
113.1694, 208.9396
113.6515, 219.0772
114.1337, 230.2160
114.6158, 243.6841
115.0979, 258.4130
115.5800, 271.4713
116.0621, 281.0742
116.5442, 289.3740
117.0264, 297.5228
117.5085, 306.2689
117.9906, 314.5960
118.4727, 321.8107
118.9548, 328.1086
119.4369, 334.7650
119.9191, 342.9628
120.4012, 351.6675
120.8833, 359.7623
121.3654, 366.6554
121.8475, 373.0617
122.3296, 379.4803
122.8118, 385.9232
123.2939, 391.9731
123.7760, 396.8789
124.2581, 401.2219
124.7402, 406.0551
125.2223, 411.7466
125.7045, 418.1285
126.1866, 424.7619
126.6687, 431.4806
127.1508, 439.2971
127.6329, 448.9367
128.1150, 460.3864
128.5972, 473.9716
129.0793, 489.2610
129.5614, 506.7507
130.0435, 526.3290
130.5256, 546.7312
131.0077, 572.3408
131.4899, 610.4476
131.9720, 660.6329
132.4541, 717.1761
132.9362, 782.8889
133.4183, 851.6506
133.9004, 897.7517
134.3826, 919.2936
134.8647, 915.9504
135.3468, 878.2480
135.8289, 803.4350
136.3110, 723.0098
136.7931, 659.2695
137.2753, 612.3575
137.7574, 577.3418
138.2395, 554.3181
138.7216, 542.0156
139.2037, 533.6249
139.6858, 529.5471
140.1680, 528.0749
140.6501, 527.5140
141.1322, 527.7008
141.6143, 529.1812
142.0964, 531.2598
142.5785, 533.7589
143.0607, 541.5839
143.5428, 554.2839
144.0249, 572.6049
144.5070, 598.0729
144.9891, 631.3688
145.4712, 670.1843
145.9534, 715.2092
146.4355, 771.0165
146.9176, 816.9792
147.3997, 852.6891
147.8818, 879.2594
148.3639, 898.6018
148.8461, 903.7479
149.3282, 909.7094
149.8103, 921.1825
150.2924, 939.7840
150.7745, 960.5352
151.2566, 982.9208
151.7388, 1007.421
152.2209, 1034.670
152.7030, 1067.032
153.1851, 1100.216
153.6672, 1132.665
154.1493, 1166.572
154.6315, 1196.131
155.1136, 1218.811
155.5957, 1236.436
156.0778, 1255.984
156.5599, 1274.519
157.0420, 1297.854
157.5242, 1329.248
158.0063, 1367.131
158.4884, 1414.541
158.9705, 1468.995
159.4526, 1531.866
159.9347, 1612.839
160.4169, 1700.894
160.8990, 1814.854
161.3811, 1968.235
161.8632, 2130.371
162.3453, 2363.572
162.8274, 2684.073
163.3096, 3091.724
163.7917, 3586.501
164.2738, 4334.090
164.7559, 5105.904
165.2380, 5676.683
165.7201, 6107.459
166.2023, 6210.188
166.6844, 5765.004
167.1665, 4768.443
167.6486, 3757.132
168.1307, 2942.081
168.6128, 2301.640
169.0950, 1807.830
169.5771, 1504.578
170.0592, 1306.184
170.5413, 1161.408
171.0234, 1067.987
171.5055, 1002.782
171.9877, 956.1547
172.4698, 926.1522
172.9519, 909.3571
173.4340, 906.1629
173.9161, 914.4088
174.3982, 930.8821
174.8804, 954.7542
175.3625, 990.5944
175.8446, 1046.381
176.3267, 1117.503
176.8088, 1192.322
177.2909, 1285.861
177.7731, 1372.835
178.2552, 1418.908
178.7373, 1420.427
179.2194, 1384.380
179.7015, 1301.340
180.1836, 1180.889
180.6658, 1062.121
181.1479, 959.8995
181.6300, 874.5657
182.1121, 809.5540
182.5942, 767.2214
183.0763, 739.7694
183.5585, 719.0559
184.0406, 704.7879
184.5227, 695.5833
185.0048, 691.3494
185.4869, 691.4662
185.9690, 693.9883
186.4511, 698.5067
186.9333, 705.5508
187.4154, 714.9627
187.8975, 726.9641
188.3796, 744.1310
188.8617, 767.3014
189.3438, 796.8903
189.8260, 835.0803
190.3081, 882.5890
190.7902, 938.9793
191.2723, 1011.207
191.7544, 1100.075
192.2365, 1179.037
192.7187, 1239.357
193.2008, 1278.344
193.6829, 1267.920
194.1650, 1191.132
194.6471, 1070.717
195.1292, 964.5194
195.6114, 871.7510
196.0935, 796.8221
196.5756, 746.9879
197.0577, 722.0037
197.5398, 708.1210
198.0219, 703.7537
198.5041, 708.2979
198.9862, 721.3759
199.4683, 744.2719
199.9504, 769.5652
200.4325, 794.1655
200.9146, 818.6580
201.3968, 830.8964
201.8789, 825.4899
202.3610, 806.0135
202.8431, 788.7263
203.3252, 773.2575
203.8073, 761.6915
204.2895, 756.4247
204.7716, 757.9323
205.2537, 762.3488
205.7358, 769.1537
206.2179, 778.2768
206.7000, 789.0992
207.1822, 801.2800
207.6643, 815.7353
208.1464, 833.0017
208.6285, 852.8557
209.1106, 876.8162
209.5927, 906.3045
210.0749, 940.7599
210.5570, 974.1565
211.0391, 1007.133
211.5212, 1037.286
212.0033, 1062.033
212.4854, 1080.203
212.9676, 1096.266
213.4497, 1106.929
213.9318, 1113.308
214.4139, 1138.191
214.8960, 1179.497
215.3781, 1242.730
215.8603, 1335.245
216.3424, 1458.854
216.8245, 1605.437
217.3066, 1785.830
217.7887, 1999.957
218.2708, 2180.247
218.7530, 2357.473
219.2351, 2462.530
219.7172, 2407.159
220.1993, 2134.592
220.6814, 1845.052
221.1635, 1569.635
221.6457, 1305.580
222.1278, 1099.780
222.6099, 961.9598
223.0920, 867.4611
223.5741, 796.2274
224.0562, 752.5562
224.5384, 719.8077
225.0205, 695.6136
225.5026, 680.2642
225.9847, 668.7740
226.4668, 661.9518
226.9489, 658.2070
227.4311, 656.0637
227.9132, 655.3088
228.3953, 656.5872
228.8774, 660.5344
229.3595, 667.2914
229.8416, 673.6423
230.3238, 681.2218
230.8059, 686.7859
231.2880, 687.0118
231.7701, 680.5690
232.2522, 671.3734
232.7343, 659.4811
233.2165, 644.6621
233.6986, 630.7195
234.1807, 617.2637
234.6628, 605.0601
235.1449, 595.0573
235.6270, 587.8336
236.1092, 581.8854
236.5913, 576.9923
237.0734, 573.1827
237.5555, 570.1447
238.0376, 567.9999
238.5197, 566.4918
239.0019, 565.5110
239.4840, 565.5469
239.9661, 565.1671
240.4482, 564.0178
240.9303, 562.1076
241.4124, 560.2920
241.8946, 558.2884
242.3767, 556.6843
242.8588, 556.1073
243.3409, 557.1414
243.8230, 558.0688
244.3051, 558.4240
244.7873, 558.2448
245.2694, 559.0562
245.7515, 561.5964
246.2336, 564.2999
246.7157, 565.8357
247.1978, 565.6534
247.6800, 565.3681
248.1621, 564.9548
248.6442, 564.4943
249.1263, 565.2126
249.6084, 567.7764
250.0905, 570.7079
250.5726, 572.8761
251.0548, 574.0145
251.5369, 574.9884
252.0190, 576.0081
252.5011, 577.0089
252.9832, 577.2740
253.4653, 576.4679
253.9475, 575.3835
254.4296, 574.6003
254.9117, 574.3356
255.3938, 573.7616
255.8759, 572.3563
256.3581, 570.4578
256.8402, 570.3068
257.3223, 572.6458
257.8044, 575.5547
258.2865, 577.8077
258.7686, 579.1365
259.2508, 580.4662
259.7329, 581.9291
260.2150, 583.4510
260.6971, 584.7864
261.1792, 585.7968
261.6613, 586.8719
262.1435, 588.1260
262.6256, 589.2946
263.1077, 591.5478
263.5898, 595.3640
264.0719, 600.2000
264.5540, 604.1085
265.0362, 606.4614
265.5183, 609.3002
266.0004, 613.7266
266.4825, 619.8369
266.9646, 626.9133
267.4467, 634.5514
267.9289, 643.3496
268.4110, 654.8965
268.8931, 670.4479
269.3752, 685.8685
269.8573, 699.2281
270.3394, 710.4672
270.8216, 720.8115
271.3037, 731.2082
271.7858, 739.8663
272.2679, 742.0462
272.7500, 736.4595
273.2321, 729.2844
273.7143, 723.0956
274.1964, 718.0403
274.6785, 713.0588
275.1606, 708.3627
275.6427, 703.5261
276.1248, 697.7831
276.6070, 691.0355
277.0891, 683.8837
277.5712, 675.8425
278.0533, 666.8671
278.5354, 661.0937
279.0175, 659.0005
279.4996, 659.0703
279.9818, 659.3641
280.4639, 659.8369
280.9460, 660.8754
281.4281, 662.5862
281.9102, 664.9638
282.3923, 667.9446
282.8745, 671.4748
283.3566, 675.7675
283.8387, 681.0914
284.3208, 687.4796
284.8029, 694.5984
285.2850, 702.1379
285.7672, 710.3749
286.2493, 720.1051
286.7314, 731.1121
287.2135, 744.9039
287.6956, 762.2880
288.1777, 783.4804
288.6599, 810.0861
289.1420, 843.3260
289.6241, 881.9851
290.1062, 923.9410
290.5883, 969.6161
291.0704, 1014.877
291.5526, 1061.271
292.0347, 1106.711
292.5168, 1139.066
292.9989, 1158.164
293.4810, 1160.679
293.9631, 1135.711
294.4453, 1084.090
294.9274, 1023.660
295.4095, 962.6385
295.8916, 902.8542
296.3737, 850.7907
296.8558, 808.0715
297.3380, 773.1844
297.8201, 744.3890
298.3022, 721.3962
298.7843, 703.1365
299.2664, 690.3422
299.7485, 681.3730
300.2307, 673.1456
300.7128, 665.1658
301.1949, 657.9955
301.6770, 652.5179
302.1591, 648.3757
302.6412, 644.4534
303.1234, 639.1977
303.6055, 634.1354
304.0876, 631.7849
304.5697, 632.6082
305.0518, 634.0990
305.5339, 633.9867
306.0161, 632.8493
306.4982, 631.8943
306.9803, 632.0657
307.4624, 632.4374
307.9445, 631.8306
308.4266, 630.1983
308.9088, 628.7792
309.3909, 628.4901
309.8730, 628.9551
310.3551, 629.6283
310.8372, 630.0859
311.3193, 630.8428
311.8015, 632.2831
312.2836, 634.4017
312.7657, 636.9484
313.2478, 640.4329
313.7299, 644.0071
314.2120, 646.8123
314.6942, 647.6270
315.1763, 648.7534
315.6584, 651.7013
316.1405, 656.1072
316.6226, 660.3969
317.1047, 663.3736
317.5869, 666.3289
318.0690, 670.0853
318.5511, 674.5554
319.0332, 680.2718
319.5153, 687.9952
319.9974, 697.1290
320.4796, 706.1742
320.9617, 715.1478
321.4438, 723.6229
321.9259, 731.5681
322.4080, 739.3209
322.8901, 745.4958
323.3723, 750.0693
323.8544, 752.8271
324.3365, 753.4658
324.8186, 749.9777
325.3007, 746.1971
325.7828, 742.4050
326.2650, 738.0005
326.7471, 737.4151
327.2292, 742.2323
327.7113, 750.5399
328.1934, 760.5574
328.6755, 774.1683
329.1577, 787.2748
329.6398, 799.1782
330.1219, 809.9246
330.6040, 820.3214
331.0861, 833.7289
331.5682, 844.1404
332.0504, 847.4299
332.5325, 839.8517
333.0146, 830.9579
333.4967, 821.2792
333.9788, 810.6963
334.4609, 798.9102
334.9431, 785.3068
335.4252, 771.1967
335.9073, 757.0486
336.3894, 741.7041
336.8715, 729.1478
337.3536, 719.5657
337.8358, 712.6525
338.3179, 707.7043
338.8000, 705.0256
339.2821, 703.6490
339.7642, 703.3193
340.2463, 704.0800
340.7285, 705.3170
341.2106, 706.5751
341.6927, 709.1161
342.1748, 715.0271
342.6569, 724.6812
343.1390, 734.7097
343.6212, 743.8253
344.1033, 752.3752
344.5854, 762.1083
345.0675, 772.9433
345.5496, 784.5817
346.0317, 797.0876
346.5139, 810.3863
346.9960, 822.4510
347.4781, 832.9000
347.9602, 841.9556
348.4423, 850.2390
348.9244, 857.7463
349.4066, 864.2650
349.8887, 868.5280
350.3708, 871.6566
350.8529, 876.5286
351.3350, 883.3193
351.8171, 892.5684
352.2993, 905.4796
352.7814, 921.5018
353.2635, 938.8924
353.7456, 955.9884
354.2277, 974.3149
354.7098, 995.9200
355.1920, 1020.794
355.6741, 1049.270
356.1562, 1081.112
356.6383, 1116.425
357.1204, 1155.992
357.6025, 1200.989
358.0847, 1249.657
358.5668, 1301.752
359.0489, 1357.350
359.5310, 1412.408
360.0131, 1467.393
360.4952, 1519.736
360.9774, 1566.682
361.4595, 1613.215
361.9416, 1647.684
362.4237, 1666.273
362.9058, 1668.868
363.3879, 1655.037
363.8701, 1619.170
364.3522, 1570.600
364.8343, 1513.625
365.3164, 1444.516
365.7985, 1376.801
366.2806, 1310.399
366.7628, 1247.617
367.2449, 1193.074
367.7270, 1149.471
368.2091, 1111.675
368.6912, 1078.104
369.1733, 1048.840
369.6555, 1024.804
370.1376, 1006.252
370.6197, 992.8116
371.1018, 984.0560
371.5839, 980.9277
372.0660, 981.1322
372.5482, 984.0674
373.0303, 989.8983
373.5124, 1000.274
373.9945, 1015.302
374.4766, 1034.728
374.9587, 1059.073
375.4409, 1090.053
375.9230, 1121.401
376.4051, 1153.591
376.8872, 1185.813
377.3693, 1216.860
377.8514, 1247.319
378.3336, 1275.358
378.8157, 1301.181
379.2978, 1325.107
379.7799, 1339.912
380.2620, 1344.711
380.7441, 1343.348
381.2263, 1338.264
381.7084, 1329.693
382.1905, 1324.150
382.6726, 1322.546
383.1547, 1325.827
383.6368, 1335.995
384.1190, 1353.107
384.6011, 1378.568
385.0832, 1413.741
385.5653, 1457.965
386.0474, 1509.935
386.5295, 1568.392
387.0117, 1635.760
387.4938, 1716.807
387.9759, 1810.261
388.4580, 1912.472
388.9401, 2026.773
389.4222, 2146.197
389.9044, 2264.752
390.3865, 2383.791
390.8686, 2494.114
391.3507, 2600.803
391.8328, 2692.635
392.3149, 2751.619
392.7971, 2779.890
393.2792, 2765.091
393.7613, 2691.515
394.2434, 2562.973
394.7255, 2412.601
395.2076, 2234.161
395.6898, 2051.281
396.1719, 1880.257
396.6540, 1720.363
397.1361, 1578.700
397.6182, 1459.322
398.1003, 1359.334
398.5825, 1272.180
399.0646, 1199.698
399.5467, 1137.263
400.0288, 1084.082
400.5109, 1041.362
400.9930, 1003.646
401.4752, 971.5320
401.9573, 943.7520
402.4394, 919.1608
402.9215, 898.6404
403.4036, 879.8433
403.8857, 862.1053
404.3678, 845.5817
404.8499, 832.5268
405.3321, 823.7649
405.8142, 816.7440
406.2963, 809.7783
406.7784, 802.4727
407.2605, 797.3547
407.7426, 795.0290
408.2248, 794.3620
408.7069, 793.3107
409.1890, 791.8673
409.6711, 790.2689
410.1532, 788.4514
410.6353, 786.5090
411.1175, 784.9587
411.5996, 783.7953
412.0817, 783.0843
412.5638, 782.9049
413.0459, 783.2430
413.5280, 783.9611
414.0102, 784.7225
414.4923, 786.2432
414.9744, 789.9581
415.4565, 795.5944
415.9386, 801.5301
416.4207, 805.8360
416.9029, 810.3129
417.3850, 816.9799
417.8671, 826.0888
418.3492, 837.7697
418.8313, 852.3256
419.3134, 869.5211
419.7956, 889.2166
420.2777, 910.8915
420.7598, 935.4167
421.2419, 964.7535
421.7240, 998.5818
422.2061, 1032.445
422.6883, 1066.110
423.1704, 1098.664
423.6525, 1130.265
424.1346, 1168.803
424.6167, 1195.533
425.0988, 1209.137
425.5810, 1208.844
426.0631, 1191.889
426.5452, 1146.814
427.0273, 1097.383
427.5094, 1048.350
427.9915, 998.5235
428.4737, 956.4031
428.9558, 922.3010
429.4379, 895.6028
429.9200, 876.2825
430.4021, 865.7219
430.8842, 858.4437
431.3664, 853.6620
431.8485, 851.5238
432.3306, 852.7298
432.8127, 857.4318
433.2948, 864.7637
433.7769, 874.2867
434.2591, 885.9898
434.7412, 899.8156
435.2233, 915.7543
435.7054, 933.7003
436.1875, 954.5850
436.6696, 977.9743
437.1518, 1001.201
437.6339, 1023.870
438.1160, 1045.604
438.5981, 1067.317
439.0802, 1088.592
439.5623, 1104.772
440.0445, 1114.573
440.5266, 1116.432
441.0087, 1107.834
441.4908, 1086.725
441.9729, 1059.002
442.4550, 1024.772
442.9372, 987.1201
443.4193, 951.9416
443.9014, 921.7947
444.3835, 895.0125
444.8656, 871.1434
445.3477, 850.0041
445.8299, 831.9109
446.3120, 817.4978
446.7941, 805.7972
447.2762, 796.2009
447.7583, 788.9445
448.2404, 783.2561
448.7226, 779.8064
449.2047, 777.9197
449.6868, 775.6290
450.1689, 771.2131
450.6510, 768.6756
451.1331, 769.7986
451.6153, 775.2271
452.0974, 780.3072
452.5795, 784.5375
453.0616, 789.1889
453.5437, 796.0516
454.0258, 805.4001
454.5080, 814.5648
454.9901, 822.7728
455.4722, 830.5948
455.9543, 840.7123
456.4364, 853.2042
456.9185, 864.3912
457.4007, 872.6066
457.8828, 877.7539
458.3649, 880.1938
458.8470, 880.1418
459.3291, 875.8855
459.8112, 863.7395
460.2934, 845.9954
460.7755, 827.8150
461.2576, 809.6829
461.7397, 792.9647
462.2218, 778.9506
462.7039, 767.3757
463.1861, 757.6338
463.6682, 749.5587
464.1503, 742.9177
464.6324, 737.7021
465.1145, 734.0065
465.5966, 731.0820
466.0788, 728.6789
466.5609, 726.8812
467.0430, 725.8367
467.5251, 726.6136
468.0072, 727.0419
468.4893, 726.2363
468.9715, 724.3035
469.4536, 723.3337
469.9357, 723.8254
470.4178, 724.7311
470.8999, 725.4202
471.3820, 725.4346
471.8642, 726.4863
472.3463, 728.9016
472.8284, 732.0056
473.3105, 734.7659
473.7926, 737.0344
474.2747, 739.7412
474.7569, 743.2650
475.2390, 747.4248
475.7211, 751.5583
476.2032, 755.6889
476.6853, 759.6178
477.1674, 763.0519
477.6496, 766.1870
478.1317, 769.7237
478.6138, 773.8743
479.0959, 777.9501
479.5780, 780.6385
480.0602, 782.6559
480.5423, 785.6299
481.0244, 790.4902
481.5065, 796.4693
481.9886, 803.1288
482.4707, 810.4647
482.9529, 818.1873
483.4350, 825.1444
483.9171, 833.1902
484.3992, 843.7210
484.8813, 857.7986
485.3634, 872.7399
485.8456, 887.0226
486.3277, 901.9266
486.8098, 919.2916
487.2919, 941.5712
487.7740, 964.0036
488.2561, 985.2471
488.7383, 1005.551
489.2204, 1026.636
489.7025, 1049.611
490.1846, 1071.263
490.6667, 1090.960
491.1488, 1110.013
491.6310, 1119.685
492.1131, 1119.885
492.5952, 1110.141
493.0773, 1087.410
493.5594, 1051.644
494.0415, 1012.943
494.5237, 972.1542
495.0058, 931.9030
495.4879, 897.1135
495.9700, 867.8647
496.4521, 842.8953
496.9342, 821.8889
497.4164, 804.3185
497.8985, 790.2221
498.3806, 779.8093
498.8627, 771.0528
499.3448, 762.0134
499.8269, 753.6082
500.3091, 747.1425
500.7912, 744.4033
501.2733, 742.4416
501.7554, 740.3599
502.2375, 738.0836
502.7196, 735.3123
503.2018, 730.2950
503.6839, 726.0617
504.1660, 724.4220
504.6481, 726.7324
505.1302, 727.9202
505.6123, 727.3100
506.0945, 726.0674
506.5766, 725.5655
507.0587, 726.2877
507.5408, 726.4518
508.0229, 725.5330
508.5050, 723.9376
508.9872, 723.1031
509.4693, 723.1296
509.9514, 723.2712
510.4335, 723.0328
510.9156, 722.5328
511.3977, 722.3369
511.8799, 722.4363
512.3619, 723.0735
512.8441, 724.4436
513.3262, 726.5386
513.8083, 729.6102
514.2904, 734.7232
514.7725, 739.1061
515.2546, 739.3038
515.7368, 736.6293
516.2189, 734.4946
516.7010, 733.9630
517.1831, 734.8584
517.6652, 737.8385
518.1473, 743.0267
518.6295, 746.9192
519.1116, 746.6566
519.5937, 745.8994
520.0758, 747.2491
520.5579, 752.8846
521.0400, 758.1248
521.5222, 763.1411
522.0043, 767.7355
522.4864, 771.4448
522.9685, 773.8713
523.4506, 776.4631
523.9327, 780.0575
524.4149, 784.2801
524.8970, 786.1157
525.3791, 785.4849
525.8612, 782.8959
526.3433, 778.2024
526.8254, 771.6924
527.3076, 764.7687
527.7897, 757.4608
528.2718, 750.3754
528.7539, 743.5144
529.2360, 737.3769
529.7181, 733.0858
530.2003, 732.2769
530.6824, 732.2275
531.1645, 730.3610
531.6466, 727.1741
532.1287, 724.3777
532.6108, 722.8223
533.0930, 721.8735
533.5751, 721.1337
534.0572, 720.5307
534.5393, 720.3878
535.0214, 720.9750
535.5035, 721.9667
535.9857, 723.0785
536.4678, 724.6232
536.9499, 725.7996
537.4320, 726.3570
537.9141, 726.5977
538.3962, 727.3093
538.8784, 728.7159
539.3605, 729.8417
539.8426, 730.0026
540.3247, 729.4941
540.8068, 730.5472
541.2889, 733.2607
541.7711, 736.3685
542.2532, 738.8876
542.7353, 740.9528
543.2174, 742.8597
543.6995, 744.5710
544.1816, 746.5135
544.6638, 749.4055
545.1459, 752.8137
545.6280, 755.8870
546.1101, 757.2467
546.5922, 759.1191
547.0743, 763.4982
547.5565, 769.6559
548.0386, 774.8522
548.5207, 777.0179
549.0028, 778.9818
549.4849, 781.9194
549.9670, 785.9209
550.4492, 790.9568
550.9313, 797.7826
551.4134, 804.9362
551.8955, 811.4014
552.3776, 816.9090
552.8597, 822.3660
553.3419, 827.8240
553.8240, 833.3157
554.3061, 839.1302
554.7882, 845.3450
555.2703, 850.8536
555.7524, 855.1017
556.2346, 858.3216
556.7167, 860.7084
557.1988, 862.3184
557.6809, 863.9291
558.1630, 865.5370
558.6451, 867.7105
559.1273, 871.3030
559.6094, 876.5354
560.0915, 882.5567
560.5736, 890.3358
561.0557, 898.0653
561.5378, 903.6584
562.0200, 907.0515
562.5021, 907.6169
562.9842, 905.3055
563.4663, 900.0849
563.9484, 891.6594
564.4305, 878.8082
564.9127, 864.4437
565.3948, 848.3519
565.8769, 830.6080
566.3590, 816.5585
566.8411, 806.7829
567.3232, 799.3250
567.8054, 792.7272
568.2875, 786.9734
568.7696, 782.5530
569.2517, 779.5783
569.7338, 777.5242
570.2159, 775.6945
570.6981, 774.2064
571.1802, 773.3219
571.6623, 773.1472
572.1444, 773.6044
572.6265, 774.6149
573.1086, 776.1910
573.5908, 778.3593
574.0729, 781.6406
574.5550, 785.1328
575.0371, 788.0174
575.5192, 790.1796
576.0013, 793.3711
576.4835, 798.3519
576.9656, 804.1976
577.4477, 810.4523
577.9298, 817.6287
578.4119, 824.0256
578.8940, 829.0994
579.3762, 833.7429
579.8583, 839.0306
580.3404, 844.9803
580.8225, 851.6320
581.3046, 858.7143
581.7867, 866.7528
582.2689, 877.2888
582.7510, 890.2624
583.2331, 903.8119
583.7152, 916.8701
584.1973, 930.0101
584.6794, 943.3933
585.1616, 957.1122
585.6437, 972.9095
586.1258, 992.9930
586.6079, 1015.161
587.0900, 1037.353
587.5721, 1058.892
588.0543, 1081.841
588.5364, 1107.693
589.0185, 1135.078
