##NAMES=Davidite-(La)
##RRUFFID=R070698
##IDEAL CHEMISTRY=La^3+^(Y^3+^,U^4+^)Fe^3+^_2_(Ti^4+^,Fe^3+^,Cr^3+^,V^5+^)_18_(O,OH,F)_38_
##LOCALITY=Pandora prospect, Covered Wells, Quijotoa District, Quijotoa Mts, Pima County, Arizona, USA
##OWNER=RRUFF
##SOURCE=Michael Scott
##DESCRIPTION=Black submetallic massive
##STATUS=The identification of this mineral is confirmed by single-crystal X-ray diffraction and chemical analysis.
##URL=rruff.info/R070698
##MEASURED CHEMISTRY=(La_0.48_Ce_0.35_Nd_0.03_Pr_0.01_Ca_0.13_)_∑=1.00_(U_0.32_Y_0.23_Sc_0.07_Ca_0.07_Th_0.05_)_∑=0.74_Fe_2_(Ti_12.42_Fe_4.24_Mg_0.29_Cr_0.25_Al_0.18_Zr_0.07_Mn_0.05_)_∑=17.50_O_38_
129.6975, 1103.384
130.1796, 1157.958
130.6617, 1208.166
131.1439, 1257.673
131.6260, 1309.047
132.1081, 1361.409
132.5902, 1407.771
133.0723, 1452.236
133.5544, 1485.644
134.0366, 1503.319
134.5187, 1508.530
135.0008, 1507.312
135.4829, 1504.068
135.9650, 1498.420
136.4471, 1480.026
136.9293, 1440.184
137.4114, 1397.975
137.8935, 1353.616
138.3756, 1310.919
138.8577, 1276.580
139.3398, 1256.022
139.8220, 1249.424
140.3041, 1245.828
140.7862, 1240.942
141.2683, 1242.124
141.7504, 1252.480
142.2325, 1271.793
142.7147, 1298.252
143.1968, 1330.551
143.6789, 1369.112
144.1610, 1416.493
144.6431, 1479.993
145.1252, 1544.852
145.6074, 1604.095
146.0895, 1657.219
146.5716, 1705.161
147.0537, 1747.625
147.5358, 1784.370
148.0179, 1822.670
148.5001, 1871.810
148.9822, 1915.726
149.4643, 1943.457
149.9464, 1954.557
150.4285, 1953.436
150.9106, 1941.183
151.3928, 1917.935
151.8749, 1892.511
152.3570, 1866.271
152.8391, 1837.503
153.3212, 1804.103
153.8033, 1765.932
154.2855, 1724.760
154.7676, 1678.413
155.2497, 1629.225
155.7318, 1587.896
156.2139, 1558.802
156.6960, 1537.068
157.1782, 1517.574
157.6603, 1500.093
158.1424, 1484.984
158.6245, 1472.764
159.1066, 1463.248
159.5887, 1456.750
160.0709, 1453.996
160.5530, 1454.100
161.0351, 1455.570
161.5172, 1457.980
161.9993, 1463.244
162.4814, 1478.566
162.9636, 1497.726
163.4457, 1508.508
163.9278, 1502.441
164.4099, 1486.500
164.8920, 1472.640
165.3741, 1460.964
165.8563, 1451.243
166.3384, 1442.128
166.8205, 1434.787
167.3026, 1432.005
167.7847, 1438.239
168.2668, 1448.687
168.7490, 1452.789
169.2311, 1449.102
169.7132, 1442.039
170.1953, 1431.896
170.6774, 1420.502
171.1595, 1410.760
171.6417, 1404.081
172.1238, 1399.866
172.6059, 1396.873
173.0880, 1395.729
173.5701, 1394.577
174.0522, 1394.380
174.5344, 1393.361
175.0165, 1388.091
175.4986, 1374.199
175.9807, 1356.600
176.4628, 1349.987
176.9449, 1361.342
177.4271, 1371.037
177.9092, 1370.444
178.3913, 1364.143
178.8734, 1358.149
179.3555, 1355.297
179.8376, 1354.668
180.3197, 1353.508
180.8019, 1351.443
181.2840, 1349.501
181.7661, 1345.552
182.2482, 1342.537
182.7303, 1345.186
183.2124, 1357.222
183.6946, 1374.067
184.1767, 1382.126
184.6588, 1376.477
185.1409, 1370.066
185.6230, 1366.412
186.1051, 1364.082
186.5873, 1361.958
187.0694, 1359.907
187.5515, 1356.670
188.0336, 1347.562
188.5157, 1325.130
188.9978, 1310.286
189.4800, 1312.183
189.9621, 1320.749
190.4442, 1325.524
190.9263, 1321.738
191.4084, 1312.699
191.8905, 1306.352
192.3727, 1304.011
192.8548, 1302.200
193.3369, 1298.337
193.8190, 1295.470
194.3011, 1297.475
194.7832, 1305.970
195.2654, 1317.431
195.7475, 1324.108
196.2296, 1323.719
196.7117, 1322.566
197.1938, 1321.438
197.6759, 1320.097
198.1581, 1319.013
198.6402, 1318.249
199.1223, 1316.169
199.6044, 1308.186
200.0865, 1285.766
200.5686, 1275.245
201.0508, 1284.226
201.5329, 1300.251
202.0150, 1316.874
202.4971, 1331.452
202.9792, 1340.343
203.4613, 1335.451
203.9435, 1305.724
204.4256, 1287.379
204.9077, 1288.295
205.3898, 1294.849
205.8719, 1298.955
206.3540, 1298.564
206.8362, 1295.516
207.3183, 1291.859
207.8004, 1286.687
208.2825, 1283.398
208.7646, 1285.845
209.2467, 1287.040
209.7289, 1280.683
210.2110, 1267.362
210.6931, 1254.302
211.1752, 1251.030
211.6573, 1261.721
212.1395, 1266.866
212.6216, 1262.008
213.1037, 1255.826
213.5858, 1252.818
214.0679, 1252.761
214.5500, 1252.197
215.0322, 1246.427
215.5143, 1233.318
215.9964, 1229.651
216.4785, 1247.140
216.9606, 1263.071
217.4427, 1268.326
217.9249, 1264.298
218.4070, 1257.419
218.8891, 1252.807
219.3712, 1250.531
219.8533, 1248.056
220.3354, 1242.928
220.8176, 1240.060
221.2997, 1242.545
221.7818, 1248.354
222.2639, 1253.717
222.7460, 1256.255
223.2281, 1255.944
223.7103, 1252.236
224.1924, 1236.983
224.6745, 1227.385
225.1566, 1231.958
225.6387, 1243.426
226.1208, 1250.519
226.6030, 1246.284
227.0851, 1233.851
227.5672, 1226.339
228.0493, 1226.267
228.5314, 1228.273
229.0135, 1232.869
229.4957, 1238.359
229.9778, 1243.632
230.4599, 1248.305
230.9420, 1251.001
231.4241, 1247.759
231.9062, 1234.011
232.3884, 1221.977
232.8705, 1210.048
233.3526, 1201.889
233.8347, 1201.834
234.3168, 1211.113
234.7989, 1225.191
235.2811, 1236.608
235.7632, 1245.193
236.2453, 1251.347
236.7274, 1253.842
237.2095, 1255.196
237.6916, 1258.257
238.1738, 1263.043
238.6559, 1265.812
239.1380, 1260.660
239.6201, 1244.485
240.1022, 1231.865
240.5843, 1222.723
241.0665, 1217.709
241.5486, 1219.278
242.0307, 1226.303
242.5128, 1233.984
242.9949, 1237.561
243.4770, 1236.647
243.9592, 1236.336
244.4413, 1239.475
244.9234, 1240.370
245.4055, 1234.693
245.8876, 1224.738
246.3697, 1216.440
246.8519, 1214.240
247.3340, 1217.559
247.8161, 1221.560
248.2982, 1228.812
248.7803, 1233.067
249.2624, 1230.415
249.7446, 1223.956
250.2267, 1218.850
250.7088, 1218.270
251.1909, 1220.346
251.6730, 1219.116
252.1551, 1211.756
252.6373, 1206.919
253.1194, 1210.297
253.6015, 1216.159
254.0836, 1217.872
254.5657, 1212.500
255.0478, 1204.261
255.5300, 1199.809
256.0121, 1199.914
256.4942, 1200.969
256.9763, 1203.404
257.4584, 1205.578
257.9406, 1206.128
258.4227, 1204.737
258.9048, 1202.504
259.3869, 1199.820
259.8690, 1196.569
260.3511, 1195.680
260.8333, 1199.128
261.3154, 1204.014
261.7975, 1209.595
262.2796, 1215.464
262.7617, 1218.367
263.2438, 1213.649
263.7260, 1203.002
264.2081, 1196.677
264.6902, 1197.485
265.1723, 1200.158
265.6544, 1201.099
266.1365, 1200.648
266.6187, 1199.843
267.1008, 1198.566
267.5829, 1197.373
268.0650, 1197.924
268.5471, 1200.986
269.0292, 1203.405
269.5114, 1200.856
269.9935, 1196.325
270.4756, 1195.299
270.9577, 1201.922
271.4398, 1210.387
271.9219, 1214.096
272.4041, 1212.944
272.8862, 1210.561
273.3683, 1208.582
273.8504, 1206.467
274.3325, 1202.804
274.8146, 1195.391
275.2968, 1190.324
275.7789, 1193.969
276.2610, 1204.083
276.7431, 1211.354
277.2252, 1212.081
277.7073, 1208.995
278.1895, 1206.833
278.6716, 1206.101
279.1537, 1203.977
279.6358, 1197.840
280.1179, 1190.008
280.6000, 1184.614
281.0822, 1182.680
281.5643, 1182.392
282.0464, 1181.469
282.5285, 1179.710
283.0106, 1179.925
283.4927, 1186.366
283.9749, 1192.421
284.4570, 1190.495
284.9391, 1180.600
285.4212, 1170.363
285.9033, 1165.448
286.3854, 1166.133
286.8676, 1170.310
287.3497, 1184.243
287.8318, 1195.308
288.3139, 1193.625
288.7960, 1183.721
289.2781, 1178.954
289.7603, 1187.784
290.2424, 1205.580
290.7245, 1212.493
291.2066, 1201.107
291.6887, 1188.890
292.1708, 1174.201
292.6530, 1161.570
293.1351, 1158.357
293.6172, 1166.951
294.0993, 1180.599
294.5814, 1187.211
295.0635, 1181.830
295.5457, 1178.401
296.0278, 1178.727
296.5099, 1179.573
296.9920, 1177.970
297.4741, 1174.038
297.9562, 1170.855
298.4384, 1172.299
298.9205, 1179.840
299.4026, 1181.604
299.8847, 1168.744
300.3668, 1159.098
300.8489, 1161.435
301.3311, 1171.816
301.8131, 1181.167
302.2953, 1183.402
302.7774, 1179.927
303.2595, 1177.759
303.7416, 1176.230
304.2237, 1177.304
304.7058, 1186.004
305.1880, 1195.227
305.6701, 1195.579
306.1522, 1183.280
306.6343, 1167.198
307.1164, 1163.601
307.5985, 1177.307
308.0807, 1185.559
308.5628, 1177.019
309.0449, 1166.874
309.5270, 1164.809
310.0091, 1171.365
310.4912, 1179.402
310.9734, 1181.811
311.4555, 1179.366
311.9376, 1181.462
312.4197, 1193.528
312.9018, 1203.075
313.3839, 1201.227
313.8661, 1191.063
314.3482, 1180.432
314.8303, 1172.342
315.3124, 1166.169
315.7945, 1160.531
316.2766, 1155.155
316.7588, 1151.983
317.2409, 1153.175
317.7230, 1157.017
318.2051, 1160.819
318.6872, 1164.686
319.1693, 1167.713
319.6515, 1168.541
320.1336, 1167.705
320.6157, 1167.806
321.0978, 1170.122
321.5799, 1173.107
322.0620, 1173.575
322.5442, 1170.688
323.0263, 1170.474
323.5084, 1179.778
323.9905, 1190.532
324.4726, 1190.885
324.9547, 1178.891
325.4369, 1163.333
325.9190, 1151.316
326.4011, 1143.161
326.8832, 1141.639
327.3653, 1153.769
327.8474, 1165.831
328.3296, 1169.156
328.8117, 1165.748
329.2938, 1162.541
329.7759, 1163.555
330.2580, 1167.976
330.7401, 1172.096
331.2223, 1176.665
331.7044, 1180.010
332.1865, 1181.783
332.6686, 1182.337
333.1507, 1181.689
333.6328, 1179.955
334.1150, 1177.991
334.5971, 1177.327
335.0792, 1179.322
335.5613, 1178.839
336.0434, 1172.194
336.5255, 1166.607
337.0077, 1167.038
337.4898, 1172.191
337.9719, 1177.056
338.4540, 1177.604
338.9361, 1174.293
339.4182, 1171.291
339.9004, 1169.458
340.3825, 1166.615
340.8646, 1158.641
341.3467, 1150.609
341.8288, 1150.422
342.3109, 1162.267
342.7931, 1176.987
343.2752, 1180.016
343.7573, 1169.666
344.2394, 1159.416
344.7215, 1150.438
345.2036, 1144.465
345.6858, 1144.312
346.1679, 1149.852
346.6500, 1154.272
347.1321, 1150.586
347.6142, 1142.534
348.0963, 1141.627
348.5785, 1151.054
349.0606, 1161.240
349.5427, 1165.165
350.0248, 1163.869
350.5069, 1159.699
350.9890, 1148.102
351.4712, 1137.678
351.9533, 1136.678
352.4354, 1143.651
352.9175, 1151.127
353.3996, 1155.971
353.8817, 1158.718
354.3639, 1160.398
354.8460, 1160.029
355.3281, 1160.825
355.8102, 1167.930
356.2923, 1174.583
356.7744, 1169.335
357.2566, 1150.672
357.7387, 1132.234
358.2208, 1130.063
358.7029, 1148.097
359.1850, 1160.965
359.6671, 1169.803
360.1493, 1173.262
360.6314, 1168.080
361.1135, 1157.136
361.5956, 1145.934
362.0777, 1137.551
362.5598, 1131.683
363.0420, 1127.135
363.5241, 1123.566
364.0062, 1122.105
364.4883, 1125.289
364.9704, 1128.885
365.4525, 1128.286
365.9347, 1122.968
366.4168, 1117.711
366.8989, 1118.197
367.3810, 1124.758
367.8631, 1131.914
368.3452, 1142.301
368.8274, 1149.660
369.3095, 1149.458
369.7916, 1144.083
370.2737, 1139.312
370.7558, 1138.368
371.2379, 1139.141
371.7201, 1137.965
372.2022, 1134.638
372.6843, 1131.200
373.1664, 1127.286
373.6485, 1124.646
374.1306, 1126.005
374.6128, 1132.457
375.0949, 1139.259
375.5770, 1144.613
376.0591, 1148.441
376.5412, 1150.727
377.0233, 1151.542
377.5055, 1150.105
377.9876, 1144.661
378.4697, 1134.657
378.9518, 1127.982
379.4339, 1125.274
379.9160, 1125.447
380.3982, 1129.771
380.8803, 1136.644
381.3624, 1142.324
381.8445, 1144.924
382.3266, 1144.501
382.8087, 1141.112
383.2909, 1130.216
383.7730, 1122.323
384.2551, 1118.740
384.7372, 1117.498
385.2193, 1118.060
385.7014, 1119.722
386.1836, 1120.283
386.6657, 1116.406
387.1478, 1107.585
387.6299, 1104.578
388.1120, 1113.890
388.5941, 1121.638
389.0763, 1122.872
389.5584, 1119.747
390.0405, 1115.325
390.5226, 1110.310
391.0047, 1106.255
391.4868, 1106.338
391.9690, 1111.090
392.4511, 1115.025
392.9332, 1117.716
393.4153, 1117.931
393.8974, 1112.882
394.3795, 1102.701
394.8617, 1095.965
395.3438, 1100.270
395.8259, 1109.528
396.3080, 1112.604
396.7901, 1108.179
397.2722, 1104.329
397.7544, 1107.307
398.2365, 1115.675
398.7186, 1121.076
399.2007, 1123.669
399.6828, 1123.195
400.1649, 1117.419
400.6471, 1108.995
401.1292, 1101.935
401.6113, 1097.524
402.0934, 1095.571
402.5755, 1095.910
403.0576, 1099.300
403.5398, 1102.838
404.0219, 1109.958
404.5040, 1114.097
404.9861, 1110.564
405.4682, 1101.177
405.9503, 1089.645
406.4325, 1077.271
406.9146, 1066.843
407.3967, 1070.354
407.8788, 1098.420
408.3609, 1118.501
408.8430, 1121.682
409.3252, 1116.990
409.8073, 1108.341
410.2894, 1097.244
410.7715, 1089.891
411.2536, 1094.780
411.7357, 1108.983
412.2179, 1116.693
412.7000, 1114.882
413.1821, 1111.379
413.6642, 1112.816
414.1463, 1116.324
414.6284, 1115.702
415.1106, 1106.166
415.5927, 1096.646
416.0748, 1095.289
416.5569, 1099.477
417.0390, 1100.671
417.5211, 1095.528
418.0033, 1087.991
418.4854, 1083.963
418.9675, 1084.690
419.4496, 1084.923
419.9317, 1083.313
420.4138, 1082.145
420.8960, 1083.772
421.3781, 1087.359
421.8602, 1089.694
422.3423, 1088.413
422.8244, 1084.921
423.3065, 1085.519
423.7887, 1094.960
424.2708, 1101.056
424.7529, 1101.848
425.2350, 1099.621
425.7171, 1094.775
426.1992, 1088.108
426.6814, 1082.809
427.1635, 1083.550
427.6456, 1089.519
428.1277, 1090.349
428.6098, 1083.347
429.0919, 1076.359
429.5741, 1073.594
430.0562, 1073.345
430.5383, 1073.241
431.0204, 1072.555
431.5025, 1072.267
431.9846, 1073.901
432.4668, 1076.731
432.9489, 1077.466
433.4310, 1074.485
433.9131, 1071.942
434.3952, 1075.699
434.8773, 1086.639
435.3595, 1094.199
435.8416, 1097.310
436.3237, 1097.327
436.8058, 1094.688
437.2879, 1089.657
437.7701, 1081.765
438.2522, 1070.448
438.7343, 1058.278
439.2164, 1051.912
439.6985, 1053.932
440.1806, 1057.531
440.6628, 1065.974
441.1449, 1072.970
441.6270, 1073.283
442.1091, 1067.965
442.5912, 1062.266
443.0733, 1059.573
443.5555, 1059.806
444.0376, 1063.992
444.5197, 1075.143
445.0018, 1081.746
445.4839, 1072.304
445.9660, 1059.816
446.4482, 1058.900
446.9303, 1072.959
447.4124, 1085.634
447.8945, 1084.324
448.3766, 1075.044
448.8587, 1071.101
449.3409, 1074.614
449.8230, 1077.848
450.3051, 1073.945
450.7872, 1063.917
451.2693, 1058.473
451.7514, 1061.985
452.2336, 1064.620
452.7157, 1059.380
453.1978, 1052.692
453.6799, 1056.090
454.1620, 1072.090
454.6441, 1089.340
455.1263, 1091.938
455.6084, 1075.962
456.0905, 1067.573
456.5726, 1076.824
457.0547, 1083.646
457.5368, 1077.875
458.0190, 1066.645
458.5011, 1062.418
458.9832, 1071.242
459.4653, 1084.979
459.9474, 1092.911
460.4295, 1094.974
460.9117, 1093.462
461.3938, 1087.590
461.8759, 1079.794
462.3580, 1071.471
462.8401, 1062.878
463.3222, 1055.477
463.8044, 1046.622
464.2865, 1041.465
464.7686, 1048.292
465.2507, 1063.777
465.7328, 1074.511
466.2149, 1074.300
466.6971, 1067.641
467.1792, 1063.163
467.6613, 1062.140
468.1434, 1060.729
468.6255, 1058.614
469.1076, 1056.392
469.5898, 1054.210
470.0719, 1052.243
470.5540, 1050.810
471.0361, 1050.097
471.5182, 1050.057
472.0003, 1051.039
472.4825, 1054.407
472.9646, 1055.036
473.4467, 1046.021
473.9288, 1038.152
474.4109, 1040.111
474.8930, 1051.368
475.3752, 1062.534
475.8573, 1070.196
476.3394, 1073.579
476.8215, 1068.171
477.3036, 1053.806
477.7857, 1045.425
478.2679, 1053.471
478.7500, 1069.774
479.2321, 1073.679
479.7142, 1060.360
480.1963, 1048.955
480.6784, 1044.029
481.1606, 1041.932
481.6427, 1038.230
482.1248, 1033.506
482.6069, 1033.030
483.0890, 1041.442
483.5711, 1056.620
484.0533, 1067.060
484.5354, 1072.203
485.0175, 1073.083
485.4996, 1066.809
485.9817, 1059.066
486.4638, 1054.370
486.9460, 1053.139
487.4281, 1052.932
487.9102, 1053.063
488.3923, 1052.697
488.8744, 1048.022
489.3565, 1037.849
489.8387, 1030.160
490.3208, 1029.122
490.8029, 1033.284
491.2850, 1039.097
491.7671, 1047.000
492.2492, 1055.263
492.7314, 1068.100
493.2135, 1078.250
493.6956, 1074.244
494.1777, 1056.927
494.6598, 1039.377
495.1419, 1031.328
495.6241, 1031.768
496.1062, 1034.114
496.5883, 1041.442
497.0704, 1046.287
497.5525, 1047.391
498.0346, 1046.244
498.5168, 1043.187
498.9989, 1038.787
499.4810, 1034.909
499.9631, 1032.479
500.4452, 1031.816
500.9273, 1035.470
501.4095, 1045.207
501.8916, 1051.677
502.3737, 1049.228
502.8558, 1041.945
503.3379, 1036.107
503.8200, 1031.698
504.3022, 1029.368
504.7843, 1029.035
505.2664, 1031.114
505.7485, 1038.401
506.2306, 1049.788
506.7127, 1057.812
507.1949, 1057.239
507.6770, 1049.749
508.1591, 1042.463
508.6412, 1030.483
509.1233, 1026.330
509.6054, 1037.828
510.0876, 1051.456
510.5697, 1058.009
511.0518, 1056.918
511.5339, 1052.139
512.0161, 1046.007
512.4982, 1038.565
512.9803, 1028.170
513.4624, 1013.410
513.9445, 1004.988
514.4266, 1009.120
514.9088, 1019.510
515.3909, 1028.631
515.8730, 1036.649
516.3551, 1041.793
516.8372, 1042.061
517.3193, 1040.333
517.8015, 1039.596
518.2836, 1039.447
518.7657, 1036.925
519.2478, 1030.081
519.7299, 1021.708
520.2120, 1018.801
520.6942, 1026.050
521.1763, 1029.817
521.6584, 1026.360
522.1405, 1023.325
522.6226, 1023.494
523.1047, 1027.531
523.5869, 1037.082
524.0690, 1055.435
524.5511, 1074.395
525.0332, 1079.069
525.5153, 1069.548
525.9974, 1060.174
526.4796, 1054.561
526.9617, 1049.719
527.4438, 1042.108
527.9259, 1032.105
528.4080, 1023.144
528.8901, 1013.135
529.3723, 1006.826
529.8544, 1007.849
530.3365, 1014.428
530.8186, 1024.782
531.3007, 1038.091
531.7828, 1049.658
532.2650, 1052.372
532.7471, 1044.492
533.2292, 1038.566
533.7113, 1033.306
534.1934, 1031.739
534.6755, 1039.290
535.1577, 1049.273
535.6398, 1051.566
536.1219, 1042.583
536.6040, 1032.447
537.0861, 1032.165
537.5682, 1038.371
538.0504, 1039.347
538.5325, 1033.059
539.0146, 1026.731
539.4967, 1025.498
539.9788, 1028.477
540.4609, 1031.129
540.9431, 1035.041
541.4252, 1036.564
541.9073, 1031.730
542.3894, 1026.265
542.8715, 1027.721
543.3536, 1035.202
543.8358, 1039.310
544.3179, 1030.868
544.8000, 1014.670
545.2821, 1013.659
545.7642, 1035.158
546.2463, 1051.770
546.7285, 1054.386
547.2106, 1050.944
547.6927, 1046.369
548.1748, 1041.064
548.6569, 1035.567
549.1390, 1028.761
549.6211, 1022.876
550.1032, 1021.144
550.5853, 1022.765
551.0674, 1024.172
551.5496, 1023.929
552.0317, 1022.997
552.5138, 1023.197
552.9959, 1025.876
553.4780, 1024.990
553.9601, 1014.191
554.4423, 1007.110
554.9244, 1013.954
555.4065, 1026.657
555.8886, 1031.245
556.3707, 1022.390
556.8528, 1010.689
557.3350, 1009.762
557.8171, 1018.168
558.2992, 1023.973
558.7813, 1025.509
559.2634, 1026.348
559.7455, 1029.465
560.2277, 1033.535
560.7098, 1034.287
561.1919, 1028.660
561.6740, 1025.030
562.1561, 1028.428
562.6382, 1033.643
563.1204, 1033.696
563.6025, 1029.137
564.0846, 1027.253
564.5667, 1033.984
565.0488, 1046.435
565.5309, 1053.322
566.0131, 1053.526
566.4952, 1050.968
566.9773, 1041.814
567.4594, 1033.712
567.9415, 1033.725
568.4236, 1039.865
568.9058, 1042.241
569.3879, 1031.955
569.8700, 1020.345
570.3521, 1019.704
570.8342, 1027.513
571.3163, 1036.461
571.7985, 1044.696
572.2806, 1049.458
572.7627, 1046.396
573.2448, 1034.076
573.7269, 1027.466
574.2090, 1031.390
574.6912, 1034.882
575.1733, 1033.978
575.6554, 1031.875
576.1375, 1033.601
576.6196, 1039.711
577.1017, 1043.791
577.5839, 1036.840
578.0660, 1023.239
578.5481, 1020.038
579.0302, 1029.124
579.5123, 1033.060
579.9944, 1019.828
580.4766, 1000.417
580.9587, 997.5801
581.4408, 1014.780
581.9229, 1030.051
582.4050, 1044.954
582.8871, 1052.858
583.3693, 1043.160
583.8514, 1023.697
584.3335, 1011.778
584.8156, 1015.445
585.2977, 1026.067
585.7798, 1029.986
586.2620, 1026.540
586.7441, 1023.952
587.2262, 1022.652
587.7083, 1022.145
588.1904, 1020.905
588.6725, 1020.587
589.1547, 1025.041
589.6368, 1037.723
590.1189, 1047.381
590.6010, 1045.727
591.0831, 1039.570
591.5652, 1038.280
592.0474, 1041.871
592.5295, 1043.434
593.0116, 1037.782
593.4937, 1028.663
593.9758, 1028.513
594.4579, 1043.145
594.9401, 1052.911
595.4222, 1054.552
595.9043, 1052.297
596.3864, 1045.319
596.8685, 1036.104
597.3506, 1031.062
597.8328, 1035.668
598.3149, 1039.099
598.7970, 1026.182
599.2791, 1004.897
599.7612, 997.2608
600.2433, 1007.525
600.7255, 1023.343
601.2076, 1035.490
601.6897, 1043.789
602.1718, 1046.658
602.6539, 1034.288
603.1360, 1030.046
603.6182, 1046.444
604.1003, 1062.975
604.5824, 1061.352
605.0645, 1044.449
605.5466, 1029.896
606.0287, 1028.568
606.5109, 1033.946
606.9930, 1038.065
607.4751, 1040.608
607.9572, 1037.876
608.4393, 1027.578
608.9214, 1017.077
609.4036, 1013.702
609.8857, 1017.511
610.3678, 1022.558
610.8499, 1033.403
611.3320, 1039.607
611.8141, 1033.668
612.2963, 1025.135
612.7784, 1024.252
613.2605, 1031.514
613.7426, 1039.967
614.2247, 1045.007
614.7068, 1046.990
615.1890, 1046.054
615.6711, 1042.047
616.1532, 1038.571
616.6353, 1036.797
617.1174, 1035.629
617.5995, 1032.806
618.0817, 1028.286
618.5638, 1029.198
619.0459, 1041.688
619.5280, 1052.857
620.0101, 1059.010
