##NAMES=Davyne
##RRUFFID=R060305
##IDEAL CHEMISTRY=(Na,K)_6_Ca_2_(Si_6_Al_6_)O_24_Cl_3_(S^6+^O_4_)_0.5_
##LOCALITY=Bellerberg, Ettringen, Laacher See, Germany
##OWNER=RRUFF
##SOURCE=Michael Scott
##DESCRIPTION=Colorless hexagonal prisms
##STATUS=The identification of this mineral has been confirmed by single-crystal X-ray diffraction.
##URL=rruff.info/R060305
91.53320, 568.6809
92.01532, 567.9589
92.49744, 566.3913
92.97955, 572.7803
93.46167, 578.6547
93.94379, 576.7398
94.42590, 569.5433
94.90802, 560.3028
95.39014, 550.7535
95.87225, 540.5563
96.35437, 531.4396
96.83649, 525.3995
97.31860, 520.6489
97.80072, 515.1906
98.28284, 507.2310
98.76495, 496.9909
99.24707, 488.0382
99.72919, 480.8615
100.2113, 474.5953
100.6934, 469.1417
101.1755, 464.2689
101.6577, 459.6549
102.1398, 454.7996
102.6219, 449.2310
103.1040, 445.9097
103.5861, 446.3806
104.0682, 447.1063
104.5504, 446.1959
105.0325, 443.3477
105.5146, 439.3878
105.9967, 435.2528
106.4788, 430.4869
106.9609, 426.7049
107.4431, 424.7189
107.9252, 423.5317
108.4073, 421.7549
108.8894, 418.8255
109.3715, 415.3574
109.8536, 412.5242
110.3358, 410.4450
110.8179, 408.2403
111.3000, 405.1044
111.7821, 401.1789
112.2642, 397.9108
112.7463, 396.3983
113.2285, 395.5109
113.7106, 394.0810
114.1927, 391.8187
114.6748, 389.2725
115.1569, 387.1991
115.6390, 385.6740
116.1212, 384.4117
116.6033, 384.0148
117.0854, 383.5439
117.5675, 381.8027
118.0496, 377.9867
118.5317, 372.7578
119.0139, 369.3499
119.4960, 369.4715
119.9781, 369.8162
120.4602, 369.8102
120.9423, 369.5899
121.4244, 369.5592
121.9066, 370.0942
122.3887, 371.2918
122.8708, 371.5992
123.3529, 370.3197
123.8350, 368.9911
124.3171, 368.3858
124.7993, 368.5012
125.2814, 368.7645
125.7635, 368.5128
126.2456, 367.5460
126.7277, 367.3755
127.2098, 368.7989
127.6920, 370.6797
128.1741, 371.7086
128.6562, 371.5089
129.1383, 371.0101
129.6204, 371.6283
130.1025, 373.2368
130.5847, 374.3441
131.0668, 374.0568
131.5489, 372.7278
132.0310, 371.5659
132.5131, 370.7682
132.9952, 370.2947
133.4774, 369.9308
133.9595, 369.6827
134.4416, 369.8998
134.9237, 371.1523
135.4058, 373.6596
135.8879, 375.7321
136.3701, 376.6505
136.8522, 377.2926
137.3343, 378.1680
137.8164, 379.4055
138.2985, 380.7213
138.7806, 381.6685
139.2628, 382.2420
139.7449, 382.3772
140.2270, 381.6629
140.7091, 380.7774
141.1912, 380.3002
141.6733, 380.4937
142.1555, 381.2448
142.6376, 382.1768
143.1197, 384.1768
143.6018, 385.3490
144.0839, 384.8319
144.5660, 383.4169
145.0482, 382.3235
145.5303, 382.2593
146.0124, 383.1252
146.4945, 384.1801
146.9766, 385.6059
147.4587, 386.9908
147.9409, 388.2210
148.4230, 389.2822
148.9051, 390.1173
149.3872, 390.6028
149.8693, 390.8076
150.3514, 391.2137
150.8336, 391.6471
151.3157, 392.3966
151.7978, 394.0756
152.2799, 396.8910
152.7620, 399.2845
153.2441, 399.6373
153.7263, 398.7644
154.2084, 397.9008
154.6905, 397.4366
155.1726, 397.2587
155.6547, 397.0450
156.1368, 396.5467
156.6190, 396.5196
157.1011, 397.3558
157.5832, 398.8670
158.0653, 400.7651
158.5474, 403.2928
159.0295, 406.3068
159.5117, 407.8376
159.9938, 406.1390
160.4759, 404.5844
160.9580, 404.1566
161.4401, 404.8582
161.9222, 406.4486
162.4044, 408.9196
162.8865, 412.5725
163.3686, 415.3787
163.8507, 417.0269
164.3328, 418.1948
164.8149, 419.0186
165.2971, 419.5905
165.7792, 420.0013
166.2613, 420.3271
166.7434, 420.4166
167.2255, 420.9223
167.7076, 422.5213
168.1898, 424.0311
168.6719, 424.3814
169.1540, 423.4363
169.6361, 422.1421
170.1182, 421.7865
170.6003, 422.5876
171.0825, 424.0039
171.5646, 426.8819
172.0467, 430.0346
172.5288, 431.9407
173.0109, 432.0754
173.4930, 431.4707
173.9752, 431.9286
174.4573, 433.6197
174.9394, 434.9003
175.4215, 435.1933
175.9036, 434.7339
176.3857, 433.8658
176.8679, 432.2867
177.3500, 430.9777
177.8321, 431.2827
178.3142, 433.2740
178.7963, 435.5760
179.2784, 437.7122
179.7606, 439.6287
180.2427, 440.6551
180.7248, 439.8607
181.2069, 438.7335
181.6890, 438.6251
182.1711, 439.6609
182.6533, 441.0488
183.1354, 442.0339
183.6175, 442.5552
184.0996, 443.1672
184.5817, 444.3492
185.0638, 445.4406
185.5460, 445.9549
186.0281, 445.8011
186.5102, 445.3869
186.9923, 445.2376
187.4744, 445.3537
187.9565, 445.7650
188.4387, 447.4364
188.9208, 448.7985
189.4029, 448.3208
189.8850, 445.6269
190.3671, 442.0582
190.8492, 440.1918
191.3314, 441.3520
191.8135, 442.2101
192.2956, 442.9641
192.7777, 443.1765
193.2598, 442.2011
193.7419, 439.8243
194.2241, 436.7209
194.7062, 434.5219
195.1883, 434.4496
195.6704, 433.9218
196.1525, 432.9026
196.6346, 431.3972
197.1168, 429.2349
197.5989, 426.3078
198.0810, 423.0203
198.5631, 420.5786
199.0452, 419.5315
199.5273, 418.5271
200.0095, 417.3628
200.4916, 416.1083
200.9737, 414.9804
201.4558, 414.1684
201.9379, 413.3321
202.4200, 411.3387
202.9022, 407.6122
203.3843, 404.0316
203.8664, 401.4559
204.3485, 399.5600
204.8306, 397.3929
205.3127, 394.3674
205.7949, 391.0425
206.2770, 388.7604
206.7591, 388.1010
207.2412, 387.1353
207.7233, 384.4959
208.2054, 380.4214
208.6876, 376.4134
209.1697, 372.9088
209.6518, 369.9513
210.1339, 367.5968
210.6160, 366.0544
211.0981, 364.5537
211.5803, 362.5023
212.0624, 359.9050
212.5445, 357.0328
213.0266, 353.6852
213.5087, 350.3124
213.9908, 347.3871
214.4730, 345.0488
214.9551, 342.8673
215.4372, 340.1942
215.9193, 336.8122
216.4014, 334.2373
216.8836, 334.1515
217.3657, 334.3383
217.8478, 333.0963
218.3299, 330.0013
218.8120, 326.3517
219.2941, 324.0832
219.7763, 323.7666
220.2584, 322.9432
220.7405, 320.8417
221.2226, 318.3085
221.7047, 315.6505
222.1868, 312.9965
222.6690, 310.7591
223.1511, 309.7982
223.6332, 311.0150
224.1153, 311.4316
224.5974, 310.6346
225.0795, 309.1718
225.5617, 307.1288
226.0438, 304.6244
226.5259, 302.1851
227.0080, 300.8181
227.4901, 301.4302
227.9722, 301.5001
228.4544, 301.0922
228.9365, 300.1216
229.4186, 298.2289
229.9007, 295.4222
230.3828, 292.3763
230.8649, 290.2826
231.3471, 289.5565
231.8292, 289.2497
232.3113, 290.3124
232.7934, 291.2174
233.2755, 290.3727
233.7576, 287.4461
234.2398, 283.7163
234.7219, 281.3176
235.2040, 280.9135
235.6861, 280.8673
236.1682, 281.4650
236.6503, 282.2552
237.1325, 282.9638
237.6146, 283.4917
238.0967, 283.6453
238.5788, 283.0416
239.0609, 281.0735
239.5430, 279.7837
240.0252, 279.8579
240.5073, 280.3407
240.9894, 280.2504
241.4715, 279.3539
241.9536, 278.1366
242.4357, 277.1611
242.9179, 276.3961
243.4000, 276.0991
243.8821, 277.0604
244.3642, 278.1535
244.8463, 277.8394
245.3284, 275.7441
245.8106, 273.4385
246.2927, 273.0077
246.7748, 274.5404
247.2569, 275.4728
247.7390, 274.7715
248.2211, 273.5616
248.7033, 273.4379
249.1854, 274.7762
249.6675, 276.0899
250.1496, 275.5710
250.6317, 273.5131
251.1138, 271.8658
251.5960, 271.2862
252.0781, 271.2182
252.5602, 271.1200
253.0423, 271.0291
253.5244, 270.4281
254.0065, 268.1254
254.4887, 264.8346
254.9708, 262.6388
255.4529, 262.7049
255.9350, 263.9024
256.4171, 264.7742
256.8992, 265.2731
257.3813, 265.4690
257.8635, 265.2328
258.3456, 264.7350
258.8277, 264.2088
259.3098, 263.4308
259.7919, 262.8321
260.2740, 263.2829
260.7562, 265.0819
261.2383, 266.6310
261.7204, 266.8717
262.2025, 266.3434
262.6846, 265.5009
263.1667, 264.0764
263.6489, 262.8744
264.1310, 263.2939
264.6131, 265.7355
265.0952, 268.0565
265.5773, 269.4615
266.0594, 270.1823
266.5416, 270.1989
267.0237, 269.3091
267.5058, 268.2464
267.9879, 268.1513
268.4700, 269.3001
268.9521, 270.1476
269.4343, 269.8272
269.9164, 269.1691
270.3985, 268.7300
270.8806, 268.6372
271.3627, 268.8248
271.8448, 269.1956
272.3270, 269.7274
272.8091, 270.5651
273.2912, 272.2985
273.7733, 274.0006
274.2554, 275.1368
274.7375, 275.6125
275.2197, 275.5781
275.7018, 274.8635
276.1839, 273.2081
276.6660, 272.5788
277.1481, 274.4428
277.6302, 276.5800
278.1124, 277.9259
278.5945, 278.4111
279.0766, 278.5615
279.5587, 278.8589
280.0408, 279.3231
280.5229, 279.7702
281.0051, 280.1513
281.4872, 280.5531
281.9693, 281.2758
282.4514, 282.1242
282.9335, 282.4941
283.4156, 281.6781
283.8978, 279.6419
284.3799, 278.0365
284.8620, 276.8840
285.3441, 276.2096
285.8262, 276.4356
286.3083, 277.1541
286.7905, 277.5800
287.2726, 277.2224
287.7547, 276.0851
288.2368, 274.1167
288.7189, 270.0225
289.2010, 266.6422
289.6832, 264.9309
290.1653, 264.3684
290.6474, 264.2360
291.1295, 264.2200
291.6116, 264.1801
292.0938, 263.4957
292.5759, 261.6131
293.0580, 259.8532
293.5401, 258.9107
294.0222, 258.0602
294.5043, 256.2159
294.9865, 252.8407
295.4686, 248.9277
295.9507, 247.0144
296.4328, 248.4623
296.9149, 249.5728
297.3970, 249.9764
297.8792, 249.8565
298.3613, 249.2993
298.8434, 248.3510
299.3255, 247.1390
299.8076, 245.8402
300.2897, 244.3551
300.7719, 243.0103
301.2540, 241.5772
301.7361, 240.4299
302.2182, 239.8279
302.7003, 239.8010
303.1824, 240.1693
303.6646, 240.8872
304.1467, 242.3062
304.6288, 242.7455
305.1109, 241.0338
305.5930, 239.4240
306.0751, 239.3004
306.5573, 240.3793
307.0394, 241.2781
307.5215, 240.6049
308.0036, 238.1909
308.4857, 236.6277
308.9678, 236.6657
309.4500, 236.8542
309.9321, 236.8249
310.4142, 236.6289
310.8963, 236.4778
311.3784, 236.5388
311.8605, 236.7572
312.3427, 236.6958
312.8248, 236.0048
313.3069, 235.4279
313.7890, 235.0538
314.2711, 234.8833
314.7532, 234.9925
315.2354, 235.4408
315.7175, 236.0028
316.1996, 235.9750
316.6817, 234.7271
317.1638, 233.8868
317.6459, 233.8808
318.1281, 234.1787
318.6102, 234.2859
319.0923, 234.0530
319.5744, 233.7169
320.0565, 233.6771
320.5386, 234.0529
321.0208, 234.4622
321.5029, 235.3886
321.9850, 235.9714
322.4671, 235.3566
322.9492, 233.6329
323.4313, 231.8382
323.9135, 231.1517
324.3956, 231.8204
324.8777, 232.3640
325.3598, 232.5791
325.8419, 232.8569
326.3240, 233.5254
326.8062, 234.4135
327.2883, 235.0519
327.7704, 235.0318
328.2525, 234.3967
328.7346, 233.9353
329.2167, 234.0243
329.6989, 233.8510
330.1810, 232.9150
330.6631, 231.6645
331.1452, 230.8445
331.6273, 230.9129
332.1094, 231.4762
332.5916, 231.2136
333.0737, 229.2610
333.5558, 227.9800
334.0379, 228.0747
334.5200, 228.7578
335.0021, 229.3137
335.4843, 229.5091
335.9664, 229.5824
336.4485, 230.0012
336.9306, 231.0500
337.4127, 231.5810
337.8948, 231.2975
338.3770, 230.6344
338.8591, 229.5758
339.3412, 228.2557
339.8233, 227.1762
340.3055, 226.9795
340.7876, 227.7835
341.2697, 228.2889
341.7518, 228.5042
342.2339, 228.3624
342.7160, 227.4209
343.1982, 226.0796
343.6803, 225.2832
344.1624, 225.8934
344.6445, 227.5269
345.1266, 228.1821
345.6087, 227.1808
346.0909, 226.2795
346.5730, 226.1573
347.0551, 226.4217
347.5372, 226.5341
348.0193, 226.2244
348.5014, 225.8455
348.9836, 226.2179
349.4657, 227.7438
349.9478, 228.6568
350.4299, 228.1868
350.9120, 227.1157
351.3941, 225.7001
351.8763, 224.0249
352.3584, 222.7208
352.8405, 222.6977
353.3226, 224.0017
353.8047, 224.8647
354.2868, 224.5434
354.7690, 224.2676
355.2511, 224.9955
355.7332, 226.5175
356.2153, 227.8645
356.6974, 228.4961
357.1795, 228.4632
357.6617, 227.7882
358.1438, 225.9994
358.6259, 224.5717
359.1080, 224.7884
359.5901, 225.8140
360.0722, 226.2658
360.5544, 225.3311
361.0365, 223.9832
361.5186, 223.8201
362.0007, 225.0524
362.4828, 225.7789
362.9649, 224.6597
363.4471, 222.9460
363.9292, 222.0755
364.4113, 222.3001
364.8934, 222.8834
365.3755, 223.3311
365.8576, 223.6684
366.3398, 224.0992
366.8219, 224.8790
367.3040, 225.4365
367.7861, 224.7841
368.2682, 223.0772
368.7503, 222.1837
369.2325, 223.6836
369.7146, 226.2251
370.1967, 227.3722
370.6788, 226.7617
371.1609, 225.7286
371.6430, 225.1783
372.1252, 225.0197
372.6073, 224.9525
373.0894, 224.8983
373.5715, 224.9576
374.0536, 225.2789
374.5357, 225.8183
375.0179, 226.3455
375.5000, 226.8023
375.9821, 227.1155
376.4642, 227.1617
376.9463, 227.0272
377.4284, 226.5008
377.9106, 224.8298
378.3927, 222.8607
378.8748, 222.2633
379.3569, 223.5807
379.8390, 225.5423
380.3211, 226.4878
380.8033, 226.1707
381.2854, 226.2670
381.7675, 227.2838
382.2496, 228.4726
382.7317, 229.2291
383.2138, 229.5438
383.6960, 229.8268
384.1781, 230.4847
384.6602, 231.4288
385.1423, 231.4015
385.6244, 228.8418
386.1065, 227.2249
386.5887, 228.3080
387.0708, 230.9911
387.5529, 233.6088
388.0350, 235.4736
388.5171, 236.4483
388.9992, 236.1845
389.4814, 232.9588
389.9635, 231.1595
390.4456, 231.7472
390.9277, 233.0990
391.4098, 234.0889
391.8919, 234.4681
392.3741, 234.3848
392.8562, 233.8537
393.3383, 232.6698
393.8204, 232.6564
394.3025, 235.4903
394.7846, 237.6796
395.2668, 237.3266
395.7489, 235.5324
396.2310, 234.4748
396.7131, 235.4685
397.1952, 237.9238
397.6773, 239.7944
398.1595, 240.7397
398.6416, 241.6348
399.1237, 242.6035
399.6058, 243.5726
400.0879, 244.3399
400.5700, 244.9126
401.0522, 245.7023
401.5343, 247.3225
402.0164, 249.9223
402.4985, 252.4414
402.9806, 255.1354
403.4627, 257.4350
403.9449, 258.7316
404.4270, 259.4032
404.9091, 260.4201
405.3912, 262.5022
405.8733, 265.3068
406.3554, 267.7097
406.8376, 269.5409
407.3197, 271.4385
407.8018, 273.5698
408.2839, 275.9302
408.7660, 278.7811
409.2481, 282.4044
409.7303, 285.4643
410.2124, 285.8443
410.6945, 283.8080
411.1766, 283.6445
411.6587, 287.2091
412.1408, 291.7409
412.6230, 294.8064
413.1051, 296.5255
413.5872, 297.6259
414.0693, 297.8153
414.5514, 297.7974
415.0335, 298.7852
415.5157, 300.9100
415.9978, 303.3224
416.4799, 305.4909
416.9620, 307.5461
417.4441, 309.9308
417.9262, 313.4123
418.4084, 316.2264
418.8905, 317.0695
419.3726, 316.4561
419.8547, 315.6034
420.3368, 314.8524
420.8189, 314.2813
421.3011, 314.2725
421.7832, 315.3081
422.2653, 314.8538
422.7474, 311.3075
423.2295, 307.0608
423.7116, 304.3990
424.1938, 303.3102
424.6759, 301.9781
425.1580, 298.8288
425.6401, 294.0253
426.1222, 290.5328
426.6043, 288.1099
427.0865, 287.0414
427.5686, 288.6417
428.0507, 291.2496
428.5328, 292.4875
429.0149, 291.4623
429.4970, 289.2543
429.9792, 287.7119
430.4613, 286.9625
430.9434, 286.6487
431.4255, 286.6982
431.9076, 287.1530
432.3897, 288.1211
432.8719, 289.5319
433.3540, 291.1985
433.8361, 292.9941
434.3182, 294.9056
434.8003, 296.8488
435.2824, 298.6743
435.7646, 300.7765
436.2467, 303.2531
436.7288, 306.0083
437.2109, 309.0034
437.6930, 312.2317
438.1751, 315.4581
438.6573, 318.2489
439.1394, 320.5343
439.6215, 323.4098
440.1036, 327.5165
440.5857, 331.7155
441.0678, 335.1777
441.5500, 338.0808
442.0321, 341.1287
442.5142, 344.9126
442.9963, 348.9833
443.4784, 352.4097
443.9605, 355.0751
444.4427, 358.0186
444.9248, 361.8575
445.4069, 366.2565
445.8890, 370.5865
446.3711, 374.8732
446.8532, 378.9915
447.3354, 382.9810
447.8175, 386.7285
448.2996, 389.8368
448.7817, 392.1261
449.2638, 394.3556
449.7459, 397.5868
450.2281, 401.9017
450.7102, 404.8640
451.1923, 404.9922
451.6744, 404.9797
452.1565, 407.1607
452.6386, 410.7110
453.1208, 412.8211
453.6029, 411.8970
454.0850, 409.0681
454.5671, 407.4718
455.0492, 409.1121
455.5313, 409.2376
456.0135, 407.0245
456.4956, 403.8007
456.9777, 400.2977
457.4598, 396.8053
457.9419, 393.6918
458.4240, 391.5308
458.9062, 390.3659
459.3883, 387.2485
459.8704, 380.0358
460.3525, 373.1647
460.8346, 368.0584
461.3167, 363.6655
461.7989, 358.5525
462.2810, 352.1398
462.7631, 345.1776
463.2452, 338.5838
463.7273, 332.2357
464.2094, 327.0115
464.6916, 323.8951
465.1737, 321.1522
465.6558, 317.8310
466.1379, 314.0169
466.6200, 310.1270
467.1021, 306.0630
467.5843, 302.2123
468.0664, 299.6318
468.5485, 298.5144
469.0306, 297.2055
469.5127, 295.0134
469.9948, 292.1318
470.4770, 288.8417
470.9591, 284.9619
471.4412, 281.4037
471.9233, 279.0030
472.4054, 277.1380
472.8875, 274.5631
473.3697, 271.0175
473.8518, 267.4169
474.3339, 264.5947
474.8160, 262.5736
475.2981, 260.5022
475.7802, 258.4972
476.2624, 256.3302
476.7445, 253.5874
477.2266, 250.6439
477.7087, 248.3510
478.1908, 247.0387
478.6729, 246.0723
479.1551, 244.2714
479.6372, 241.0230
480.1193, 238.3551
480.6014, 236.4670
481.0835, 234.8829
481.5656, 233.5034
482.0478, 232.2124
482.5299, 230.8222
483.0120, 229.2113
483.4941, 227.4119
483.9762, 225.5967
484.4583, 223.7937
484.9405, 221.9176
485.4226, 219.6729
485.9047, 217.5365
486.3868, 215.9084
486.8689, 214.8298
487.3510, 214.0750
487.8332, 213.7258
488.3153, 213.6126
488.7974, 212.8300
489.2795, 211.1826
489.7616, 209.2664
490.2437, 207.1586
490.7259, 205.0781
491.2080, 203.3766
491.6901, 202.2128
492.1722, 201.2733
492.6543, 200.3658
493.1364, 199.5093
493.6186, 198.8584
494.1007, 198.5281
494.5828, 198.0362
495.0649, 196.6680
495.5470, 194.2998
496.0291, 192.5728
496.5113, 192.1249
496.9934, 191.7790
497.4755, 190.7344
497.9576, 189.2379
498.4397, 188.0448
498.9218, 187.5508
499.4040, 187.3069
499.8861, 186.2245
500.3682, 183.0070
500.8503, 181.4166
501.3324, 182.7081
501.8145, 184.3510
502.2967, 184.8772
502.7788, 184.3348
503.2609, 183.4639
503.7430, 182.7230
504.2251, 182.1115
504.7072, 181.6667
505.1894, 181.5051
505.6715, 181.2369
506.1536, 180.6299
506.6357, 179.9668
507.1178, 179.3812
507.5999, 178.9134
508.0821, 178.7559
508.5642, 179.3037
509.0463, 180.2664
509.5284, 180.7306
510.0105, 180.5502
510.4926, 180.3270
510.9748, 180.8654
511.4569, 181.4768
511.9390, 180.4353
512.4211, 176.3725
512.9032, 173.0125
513.3853, 172.8869
513.8674, 174.4969
514.3495, 175.2633
514.8317, 174.6136
515.3138, 173.4911
515.7959, 172.8450
516.2780, 172.7193
516.7601, 172.3737
517.2422, 171.5308
517.7244, 170.8126
518.2065, 170.3421
518.6886, 170.1549
519.1707, 170.4379
519.6528, 171.2192
520.1349, 172.0226
520.6171, 172.0914
521.0992, 171.2677
521.5813, 170.3573
522.0634, 169.1306
522.5455, 168.0531
523.0276, 167.3072
523.5098, 166.8318
523.9919, 166.5260
524.4740, 166.3787
524.9561, 166.2795
525.4382, 165.9761
525.9203, 165.4611
526.4025, 165.2887
526.8846, 165.7531
527.3667, 166.3820
527.8488, 166.8181
528.3309, 167.0551
528.8130, 166.9943
529.2952, 166.3930
529.7773, 165.6453
530.2594, 164.9992
530.7415, 164.4993
531.2236, 164.3090
531.7057, 164.5277
532.1879, 165.0199
532.6700, 165.5560
533.1521, 166.2813
533.6342, 166.6978
534.1163, 166.6406
534.5984, 166.4037
535.0806, 166.3533
535.5627, 166.3046
536.0448, 165.5342
536.5269, 163.4844
537.0090, 160.8884
537.4911, 160.1357
537.9733, 162.2636
538.4554, 163.9537
538.9375, 164.9401
539.4196, 165.2992
539.9017, 164.7935
540.3839, 163.6128
540.8660, 162.4482
541.3481, 161.6487
541.8302, 161.2146
542.3123, 161.2986
542.7944, 161.9861
543.2766, 162.4113
543.7587, 161.9839
544.2408, 161.3328
544.7229, 161.4278
545.2050, 162.3577
545.6871, 163.1901
546.1693, 163.9059
546.6514, 164.1794
547.1335, 163.3982
547.6156, 161.6947
548.0977, 159.9308
548.5798, 158.5191
549.0620, 157.6043
549.5441, 157.6807
550.0262, 160.3804
550.5083, 161.8853
550.9904, 161.5038
551.4725, 160.4322
551.9547, 159.3328
552.4368, 158.3821
552.9189, 157.6123
553.4010, 157.0136
553.8831, 156.6619
554.3652, 156.9300
554.8474, 158.0317
555.3295, 159.2123
555.8116, 160.8913
556.2937, 162.1512
556.7758, 161.9522
557.2579, 160.3778
557.7401, 159.0152
558.2222, 159.1207
558.7043, 159.9067
559.1864, 159.7862
559.6685, 158.7144
560.1506, 158.2962
560.6328, 159.7786
561.1149, 161.9439
561.5970, 161.8613
562.0791, 158.7817
562.5612, 156.3501
563.0433, 155.2725
563.5255, 155.0714
564.0076, 155.8022
564.4897, 157.1236
564.9718, 158.0289
565.4539, 157.8480
565.9360, 156.8732
566.4182, 156.0572
566.9003, 155.2642
567.3824, 154.9035
567.8645, 155.2417
568.3466, 155.7636
568.8287, 156.2137
569.3109, 156.5609
569.7930, 156.8421
570.2751, 157.1283
570.7572, 157.3171
571.2393, 157.1479
571.7214, 156.5966
572.2036, 155.9710
572.6857, 155.2400
573.1678, 154.6235
573.6499, 154.4853
574.1320, 154.8106
574.6141, 154.9033
575.0963, 154.2686
575.5784, 153.5672
576.0605, 153.3325
576.5426, 153.5272
577.0247, 154.0411
577.5068, 154.8709
577.9890, 155.6890
578.4711, 155.8656
578.9532, 155.1631
579.4353, 154.3925
579.9174, 152.9848
580.3995, 152.0778
580.8817, 152.6445
581.3638, 154.0486
581.8459, 155.1031
582.3280, 155.2553
582.8101, 154.7710
583.2922, 153.8437
583.7744, 152.4015
584.2565, 151.6730
584.7386, 152.2638
585.2207, 152.9609
585.7029, 152.6778
586.1850, 151.8303
586.6671, 151.5170
587.1492, 152.3482
587.6313, 153.3150
588.1135, 153.6228
588.5956, 153.5140
589.0777, 153.6403
