##NAMES=Davyne
##RRUFFID=R060305
##IDEAL CHEMISTRY=(Na,K)_6_Ca_2_(Si_6_Al_6_)O_24_Cl_3_(S^6+^O_4_)_0.5_
##LOCALITY=Bellerberg, Ettringen, Laacher See, Germany
##OWNER=RRUFF
##SOURCE=Michael Scott
##DESCRIPTION=Colorless hexagonal prisms
##STATUS=The identification of this mineral has been confirmed by single-crystal X-ray diffraction.
##URL=rruff.info/R060305
90.01007, 0.0000000E+00
90.49219, 36.53680
90.97430, 35.83856
91.45642, 35.59148
91.93854, 36.45237
92.42065, 37.57081
92.90277, 37.56701
93.38489, 36.20986
93.86700, 34.40302
94.34912, 32.99518
94.83124, 31.99774
95.31335, 31.53019
95.79547, 32.14363
96.27759, 33.48375
96.75970, 34.06057
97.24182, 33.53226
97.72394, 32.31297
98.20605, 31.15734
98.68817, 30.04277
99.17029, 29.15185
99.65240, 28.74830
100.1345, 28.87624
100.6166, 28.77738
101.0988, 28.14623
101.5809, 27.10576
102.0630, 26.74629
102.5451, 27.27681
103.0272, 28.11037
103.5093, 28.65029
103.9915, 28.88958
104.4736, 28.82242
104.9557, 28.28337
105.4378, 27.06828
105.9199, 26.59246
106.4020, 27.35233
106.8842, 28.60593
107.3663, 29.02416
107.8484, 27.78746
108.3305, 26.66107
108.8126, 26.31423
109.2947, 27.66063
109.7769, 28.26523
110.2590, 27.59989
110.7411, 26.09834
111.2232, 25.12676
111.7053, 25.17426
112.1874, 25.42671
112.6696, 25.51991
113.1517, 25.34931
113.6338, 25.09341
114.1159, 24.52821
114.5980, 23.76089
115.0801, 23.54715
115.5623, 25.23080
116.0444, 26.97846
116.5265, 27.37193
117.0086, 24.03070
117.4907, 21.03793
117.9728, 20.40509
118.4550, 22.26310
118.9371, 23.65726
119.4192, 22.80502
119.9013, 20.83418
120.3834, 19.19411
120.8655, 18.45054
121.3477, 18.26112
121.8298, 18.50317
122.3119, 19.22988
122.7940, 20.00900
123.2761, 20.58331
123.7582, 20.98471
124.2404, 21.28434
124.7225, 21.58097
125.2046, 21.77606
125.6867, 21.64550
126.1688, 20.98868
126.6509, 20.41522
127.1331, 20.68106
127.6152, 21.66915
128.0973, 22.79742
128.5794, 23.95233
129.0615, 24.95999
129.5436, 25.35146
130.0258, 24.84411
130.5079, 23.87125
130.9900, 23.02461
131.4721, 22.31159
131.9542, 21.96361
132.4363, 22.12041
132.9185, 22.79276
133.4006, 24.08610
133.8827, 26.22203
134.3648, 28.95731
134.8469, 31.66977
135.3290, 34.40364
135.8112, 36.92988
136.2933, 38.58693
136.7754, 39.27168
137.2575, 40.82760
137.7396, 44.37414
138.2217, 49.76842
138.7039, 53.64756
139.1860, 55.42191
139.6681, 56.61834
140.1502, 59.85323
140.6323, 65.71301
141.1144, 71.55327
141.5966, 76.46867
142.0787, 80.39114
142.5608, 83.39805
143.0429, 84.92516
143.5250, 85.84757
144.0071, 88.31210
144.4893, 93.21004
144.9714, 98.16875
145.4535, 101.9329
145.9356, 103.3844
146.4177, 105.9996
146.8998, 110.3663
147.3820, 116.0057
147.8641, 121.1300
148.3462, 125.4341
148.8283, 129.4464
149.3104, 133.4182
149.7925, 135.7524
150.2747, 140.1351
150.7568, 147.7541
151.2389, 158.2648
151.7210, 167.4952
152.2031, 174.8174
152.6852, 181.1601
153.1674, 187.1770
153.6495, 192.2756
154.1316, 197.6330
154.6137, 203.7537
155.0958, 210.6662
155.5779, 216.7358
156.0601, 220.8158
156.5422, 224.4149
157.0243, 228.7760
157.5064, 235.5275
157.9885, 241.7578
158.4706, 246.4885
158.9528, 249.5242
159.4349, 252.3734
159.9170, 255.1408
160.3991, 258.0087
160.8812, 261.1880
161.3633, 264.2909
161.8455, 268.0771
162.3276, 273.2256
162.8097, 280.0690
163.2918, 286.5577
163.7739, 291.3960
164.2560, 295.0494
164.7382, 296.9026
165.2203, 298.5994
165.7024, 301.0632
166.1845, 304.7720
166.6666, 310.3084
167.1487, 315.3579
167.6309, 318.1332
168.1130, 319.5510
168.5951, 321.4923
169.0772, 325.3931
169.5593, 329.9135
170.0414, 333.9843
170.5236, 337.4939
171.0057, 340.4089
171.4878, 342.3542
171.9699, 343.6411
172.4520, 345.1719
172.9341, 348.2207
173.4163, 351.5362
173.8984, 353.6358
174.3805, 354.0639
174.8626, 353.4505
175.3447, 351.5477
175.8268, 348.7589
176.3090, 347.0043
176.7911, 348.4026
177.2732, 351.5374
177.7553, 354.1866
178.2374, 355.9461
178.7195, 356.8157
179.2017, 356.3054
179.6838, 354.5639
180.1659, 353.0696
180.6480, 353.2742
181.1301, 354.5842
181.6122, 355.5938
182.0944, 355.6816
182.5765, 355.4138
183.0586, 355.7079
183.5407, 356.5529
184.0228, 357.7731
184.5049, 359.4838
184.9871, 361.5127
185.4692, 363.1544
185.9513, 364.0355
186.4334, 364.4561
186.9155, 365.3432
187.3976, 366.7642
187.8798, 367.8366
188.3619, 366.9529
188.8440, 364.5290
189.3261, 363.3588
189.8082, 365.1083
190.2903, 368.8127
190.7725, 371.0864
191.2546, 371.8951
191.7367, 371.6226
192.2188, 370.2061
192.7009, 367.7191
193.1830, 365.8494
193.6652, 365.6053
194.1473, 366.6416
194.6294, 366.7704
195.1115, 365.8816
195.5936, 364.4647
196.0757, 363.0019
196.5579, 361.4815
197.0400, 360.2200
197.5221, 359.4326
198.0042, 359.0877
198.4863, 358.8514
198.9684, 358.9824
199.4506, 358.6522
199.9327, 356.2430
200.4148, 351.4978
200.8969, 346.9727
201.3790, 343.7798
201.8611, 341.9823
202.3433, 340.0355
202.8254, 337.9366
203.3075, 335.6729
203.7896, 333.2507
204.2717, 330.6472
204.7538, 327.9164
205.2360, 325.1881
205.7181, 322.5309
206.2002, 319.0938
206.6823, 314.5391
207.1644, 309.6099
207.6465, 305.8138
208.1287, 303.5128
208.6108, 301.2054
209.0929, 298.2736
209.5750, 294.6500
210.0571, 290.6827
210.5392, 286.2219
211.0214, 281.5395
211.5035, 277.2036
211.9856, 273.3613
212.4677, 269.5884
212.9498, 265.6593
213.4319, 261.5317
213.9140, 257.5670
214.3962, 253.7189
214.8783, 250.0470
215.3604, 246.8071
215.8425, 244.1203
216.3246, 241.5148
216.8067, 238.7440
217.2889, 235.7923
217.7710, 232.8105
218.2531, 229.8092
218.7352, 226.7741
219.2173, 223.5585
219.6994, 219.9904
220.1816, 216.5401
220.6637, 213.2508
221.1458, 209.8342
221.6279, 207.4987
222.1100, 206.7830
222.5921, 206.9464
223.0743, 205.9607
223.5564, 203.3714
224.0385, 200.4533
224.5206, 197.8157
225.0027, 195.4624
225.4848, 193.2817
225.9670, 191.2530
226.4491, 189.4238
226.9312, 187.9950
227.4133, 187.4489
227.8954, 186.5316
228.3775, 184.5541
228.8597, 180.7718
229.3418, 177.6738
229.8239, 175.4313
230.3060, 173.8315
230.7881, 172.4319
231.2702, 171.4995
231.7524, 170.3184
232.2345, 168.4627
232.7166, 165.2602
233.1987, 162.8806
233.6808, 161.4763
234.1629, 160.8642
234.6451, 160.6834
235.1272, 161.5648
235.6093, 161.9472
236.0914, 160.9935
236.5735, 157.7679
237.0556, 155.3752
237.5378, 154.0476
238.0199, 153.4891
238.5020, 153.0065
238.9841, 152.7818
239.4662, 152.3616
239.9483, 151.4671
240.4305, 149.6812
240.9126, 148.4268
241.3947, 147.8248
241.8768, 147.7110
242.3589, 147.7986
242.8410, 148.5970
243.3232, 148.8109
243.8053, 147.6635
244.2874, 143.9988
244.7695, 141.8394
245.2516, 141.8298
245.7337, 143.0542
246.2159, 143.3921
246.6980, 142.1257
247.1801, 141.1101
247.6622, 141.2673
248.1443, 143.4854
248.6264, 144.2806
249.1086, 142.9333
249.5907, 140.5255
250.0728, 139.4091
250.5549, 140.5161
251.0370, 141.3426
251.5191, 140.8411
252.0013, 138.5451
252.4834, 136.4318
252.9655, 134.3174
253.4476, 132.5083
253.9297, 131.6492
254.4118, 132.0629
254.8940, 132.8449
255.3761, 133.8728
255.8582, 135.4683
256.3403, 135.9280
256.8224, 134.7787
257.3046, 132.8617
257.7867, 131.5816
258.2688, 131.0870
258.7509, 130.9082
259.2330, 131.0289
259.7151, 131.5950
260.1973, 131.5713
260.6794, 130.7361
261.1615, 129.5336
261.6436, 128.5724
262.1257, 127.7891
262.6078, 127.3843
263.0900, 127.4681
263.5721, 128.0799
264.0542, 128.8466
264.5363, 129.9368
265.0184, 130.9858
265.5005, 131.4750
265.9827, 131.1669
266.4648, 130.9754
266.9469, 131.1876
267.4290, 131.8105
267.9111, 132.3340
268.3932, 132.6569
268.8754, 133.0307
269.3575, 133.7964
269.8396, 135.0909
270.3217, 136.2847
270.8038, 137.1092
271.2859, 137.6147
271.7681, 138.7334
272.2502, 140.6836
272.7323, 142.7952
273.2144, 144.4248
273.6965, 145.5996
274.1786, 146.1496
274.6608, 145.7419
275.1429, 144.6107
275.6250, 144.5649
276.1071, 145.8537
276.5892, 147.5096
277.0714, 148.4585
277.5535, 148.5545
278.0356, 149.3929
278.5177, 151.5199
278.9998, 154.5512
279.4819, 156.8561
279.9641, 158.3468
280.4462, 159.5774
280.9283, 161.0147
281.4104, 162.6596
281.8925, 164.0918
282.3746, 165.1126
282.8568, 165.9825
283.3389, 167.3985
283.8210, 169.3677
284.3031, 171.8216
284.7852, 175.0287
285.2673, 178.8925
285.7495, 182.2445
286.2316, 184.9936
286.7137, 187.0781
287.1958, 188.1925
287.6779, 188.3116
288.1600, 188.1651
288.6422, 188.5846
289.1243, 189.3237
289.6064, 188.5295
290.0885, 185.8379
290.5706, 182.1143
291.0527, 178.6694
291.5349, 175.4778
292.0170, 172.1189
292.4991, 168.5000
292.9812, 164.5516
293.4633, 159.9514
293.9454, 154.4967
294.4276, 149.0589
294.9097, 144.9788
295.3918, 142.0467
295.8739, 139.2516
296.3560, 135.8945
296.8381, 132.3529
297.3203, 129.8063
297.8024, 128.3840
298.2845, 127.0438
298.7666, 124.4174
299.2487, 120.9361
299.7308, 117.8449
300.2130, 115.6623
300.6951, 114.1829
301.1772, 113.2076
301.6593, 112.7387
302.1414, 112.3603
302.6235, 111.8854
303.1057, 111.2364
303.5878, 110.2430
304.0699, 108.4961
304.5520, 106.6483
305.0341, 105.5648
305.5162, 105.1697
305.9984, 104.7777
306.4805, 103.5731
306.9626, 102.1545
307.4447, 101.4586
307.9268, 102.2393
308.4089, 103.1319
308.8911, 102.7314
309.3732, 101.3259
309.8553, 100.1051
310.3374, 99.95898
310.8195, 100.2524
311.3016, 100.3820
311.7838, 100.2356
312.2659, 99.87837
312.7480, 99.21427
313.2301, 98.36279
313.7122, 97.60554
314.1943, 97.14536
314.6765, 96.77603
315.1586, 96.30001
315.6407, 95.60218
316.1228, 95.11366
316.6049, 95.25672
317.0870, 95.72055
317.5692, 95.99117
318.0513, 95.53850
318.5334, 95.13106
319.0155, 95.20419
319.4976, 95.86229
319.9797, 96.48473
320.4619, 97.03025
320.9440, 97.37572
321.4261, 97.37962
321.9082, 96.53310
322.3903, 95.79993
322.8724, 95.50022
323.3546, 95.65121
323.8367, 95.89312
324.3188, 96.25298
324.8009, 96.63103
325.2830, 96.94758
325.7651, 96.93934
326.2473, 97.15734
326.7294, 97.86410
327.2115, 98.97135
327.6936, 99.77325
328.1757, 100.2994
328.6578, 100.4532
329.1400, 100.1689
329.6221, 98.63704
330.1042, 97.77903
330.5863, 98.09897
331.0684, 99.11374
331.5505, 99.36176
332.0327, 98.05804
332.5148, 96.90996
332.9969, 96.60804
333.4790, 97.44781
333.9611, 98.37461
334.4432, 99.67268
334.9254, 100.8939
335.4075, 101.2043
335.8896, 100.2414
336.3717, 99.10298
336.8538, 98.12692
337.3359, 97.32863
337.8180, 96.34184
338.3001, 94.89089
338.7823, 93.67391
339.2644, 93.75933
339.7465, 95.57365
340.2286, 96.80233
340.7107, 96.74883
341.1928, 95.60670
341.6750, 94.67216
342.1571, 93.89371
342.6392, 93.45341
343.1213, 93.71487
343.6034, 94.69145
344.0855, 95.19920
344.5677, 94.89060
345.0498, 94.15351
345.5319, 93.98264
346.0140, 94.39548
346.4961, 94.87721
346.9782, 95.07378
347.4604, 95.04820
347.9425, 95.10750
348.4246, 95.30242
348.9067, 95.52722
349.3888, 95.75217
349.8709, 95.92899
350.3531, 95.78258
350.8352, 94.65445
351.3173, 93.22609
351.7994, 93.02747
352.2815, 94.19883
352.7636, 95.53719
353.2458, 95.61357
353.7279, 94.99183
354.2100, 94.90388
354.6921, 96.41767
355.1742, 98.27583
355.6563, 99.17522
356.1385, 99.16055
356.6206, 98.78001
357.1027, 97.87866
357.5848, 97.01527
358.0669, 96.92087
358.5490, 98.35416
359.0312, 99.75252
359.5133, 99.91186
359.9954, 99.18692
360.4775, 98.68655
360.9596, 99.36623
361.4417, 100.1746
361.9239, 100.3007
362.4060, 99.32639
362.8881, 98.53247
363.3702, 98.63709
363.8523, 99.17846
364.3344, 99.44866
364.8166, 98.77442
365.2987, 98.21800
365.7808, 98.28177
366.2629, 99.07355
366.7450, 99.73650
367.2271, 100.0440
367.7093, 100.2130
368.1914, 100.4341
368.6735, 101.0422
369.1556, 101.3506
369.6377, 100.9666
370.1198, 100.0251
370.6020, 99.77640
371.0841, 100.9665
371.5662, 102.1582
372.0483, 102.4946
372.5304, 101.0366
373.0125, 100.5277
373.4947, 101.3777
373.9768, 103.0827
374.4589, 104.5199
374.9410, 105.6975
375.4231, 106.5915
375.9052, 107.1575
376.3874, 107.3585
376.8695, 107.5053
377.3516, 107.5396
377.8337, 107.6214
378.3158, 107.9144
378.7979, 108.4091
379.2801, 109.2322
379.7622, 110.5359
380.2443, 112.1832
380.7264, 113.5852
381.2085, 114.7024
381.6906, 115.8033
382.1728, 117.0740
382.6549, 118.5212
383.1370, 120.1841
383.6191, 122.2295
384.1012, 124.2339
384.5833, 125.2991
385.0655, 125.5594
385.5476, 126.0178
386.0297, 127.5629
386.5118, 129.6347
386.9939, 131.4769
387.4760, 133.1149
387.9582, 133.8317
388.4403, 132.2462
388.9224, 129.2521
389.4045, 126.7257
389.8866, 125.6301
390.3687, 125.1753
390.8509, 124.9577
391.3330, 124.9255
391.8151, 124.5830
392.2972, 123.1131
392.7793, 121.4341
393.2614, 120.4766
393.7436, 121.0918
394.2257, 121.6068
394.7078, 120.9501
395.1899, 119.6216
395.6720, 118.9334
396.1541, 119.9691
396.6363, 121.2088
397.1184, 121.8256
397.6005, 121.3727
398.0826, 121.4436
398.5647, 122.6871
399.0468, 124.4418
399.5290, 125.9055
400.0111, 126.8325
400.4932, 127.6664
400.9753, 128.3288
401.4574, 128.8266
401.9395, 129.8258
402.4217, 131.3465
402.9038, 133.3494
403.3859, 135.9336
403.8680, 139.6188
404.3501, 142.6193
404.8322, 144.5835
405.3144, 145.8836
405.7965, 147.3599
406.2786, 148.9508
406.7607, 150.9420
407.2428, 153.5582
407.7249, 156.8314
408.2071, 160.1408
408.6892, 163.5891
409.1713, 166.8288
409.6534, 169.2000
410.1355, 170.7509
410.6176, 172.6333
411.0998, 175.1669
411.5819, 178.2769
412.0640, 181.9527
412.5461, 186.1461
413.0282, 190.4379
413.5103, 194.1393
413.9925, 197.6931
414.4746, 202.1550
414.9567, 207.8717
415.4388, 214.0425
415.9209, 220.0315
416.4030, 225.8635
416.8852, 231.7746
417.3673, 238.0352
417.8494, 244.2319
418.3315, 250.1113
418.8136, 255.6055
419.2957, 260.8424
419.7779, 266.1844
420.2600, 271.1381
420.7421, 275.1235
421.2242, 277.8340
421.7063, 279.7560
422.1884, 281.1732
422.6706, 281.9868
423.1527, 281.8781
423.6348, 281.2439
424.1169, 279.2994
424.5990, 275.3996
425.0811, 268.2612
425.5633, 262.0510
426.0454, 256.6263
426.5275, 252.3204
427.0096, 249.6056
427.4917, 249.5447
427.9738, 249.4740
428.4560, 248.5993
428.9381, 247.0011
429.4202, 246.8302
429.9023, 248.6258
430.3844, 250.8435
430.8665, 252.2120
431.3487, 252.4765
431.8308, 253.4474
432.3129, 255.3095
432.7950, 257.9030
433.2771, 260.8480
433.7592, 264.1073
434.2414, 267.9611
434.7235, 272.7345
435.2056, 278.2272
435.6877, 283.6163
436.1698, 288.8589
436.6519, 294.2330
437.1341, 300.0777
437.6162, 306.1938
438.0983, 312.2398
438.5804, 318.2063
439.0625, 323.9339
439.5446, 329.3603
440.0268, 334.4285
440.5089, 338.9242
440.9910, 342.0226
441.4731, 344.9019
441.9552, 348.8653
442.4373, 354.2607
442.9195, 359.4041
443.4016, 362.8543
443.8837, 365.7544
444.3658, 369.4935
444.8479, 374.5271
445.3300, 380.4190
445.8122, 387.5517
446.2943, 395.6847
446.7764, 403.3161
447.2585, 409.0118
447.7406, 415.0778
448.2227, 422.8157
448.7049, 433.3467
449.1870, 443.2830
449.6691, 452.6299
450.1512, 461.3356
450.6333, 468.9812
451.1154, 474.9724
451.5976, 481.3736
452.0797, 489.0909
452.5618, 497.9482
453.0439, 504.7738
453.5260, 509.1727
454.0081, 512.3865
454.4903, 515.3156
454.9724, 517.9314
455.4545, 519.9489
455.9366, 521.4725
456.4187, 522.0558
456.9008, 520.9035
457.3830, 518.0480
457.8651, 513.9623
458.3472, 509.5468
458.8293, 503.8134
459.3114, 494.2177
459.7935, 480.8589
460.2757, 466.4409
460.7578, 453.2167
461.2399, 440.3929
461.7220, 426.8636
462.2041, 411.8465
462.6862, 396.6224
463.1684, 381.5992
463.6505, 366.8917
464.1326, 353.1260
464.6147, 340.8651
465.0968, 329.2596
465.5789, 318.0094
466.0611, 306.9818
466.5432, 296.9400
467.0253, 288.0379
467.5074, 280.2713
467.9895, 273.6891
468.4716, 269.8486
468.9538, 265.0351
469.4359, 258.4954
469.9180, 250.8865
470.4001, 244.2593
470.8822, 238.9316
471.3643, 234.1212
471.8465, 229.6295
472.3286, 225.5084
472.8107, 221.1291
473.2928, 216.4612
473.7749, 211.7527
474.2570, 207.3572
474.7392, 203.2739
475.2213, 199.3015
475.7034, 195.3327
476.1855, 191.5250
476.6676, 188.2645
477.1497, 185.5029
477.6319, 182.9344
478.1140, 180.5609
478.5961, 178.1710
479.0782, 175.2717
479.5603, 171.7849
480.0424, 168.4197
480.5246, 165.8696
481.0067, 163.7683
481.4888, 161.5981
481.9709, 159.2488
482.4530, 156.7003
482.9352, 153.7030
483.4173, 150.4540
483.8994, 147.5768
484.3815, 145.6970
484.8636, 143.8890
485.3457, 141.6096
485.8279, 138.5568
486.3100, 135.9918
486.7921, 134.1152
487.2742, 132.7282
487.7563, 131.7199
488.2384, 131.7029
488.7206, 130.9677
489.2027, 129.0701
489.6848, 126.3626
490.1669, 124.1348
490.6490, 122.5390
491.1311, 121.0154
491.6133, 119.1747
492.0954, 117.0236
492.5775, 115.6846
493.0596, 115.3002
493.5417, 115.1614
494.0238, 114.5082
494.5060, 113.4266
494.9881, 112.3041
495.4702, 111.2197
495.9523, 110.1816
496.4344, 109.2410
496.9165, 108.3788
497.3987, 107.5272
497.8808, 106.7351
498.3629, 105.8724
498.8450, 104.8013
499.3271, 103.4972
499.8092, 102.0985
500.2914, 99.98484
500.7735, 98.13854
501.2556, 97.45860
501.7377, 99.68380
502.2198, 101.2796
502.7019, 101.1960
503.1841, 99.91431
503.6662, 98.75865
504.1483, 97.76736
504.6304, 96.96431
505.1125, 96.36160
505.5946, 95.95744
506.0768, 95.81606
506.5589, 96.21011
507.0410, 96.46507
507.5231, 95.80267
508.0052, 93.96397
508.4873, 93.02432
508.9695, 93.44363
509.4516, 94.51936
509.9337, 94.99049
510.4158, 94.87904
510.8979, 94.60113
511.3800, 94.42651
511.8622, 94.17924
512.3443, 93.12472
512.8264, 91.33867
513.3085, 90.07881
513.7906, 91.15231
514.2728, 93.00687
514.7549, 93.43798
515.2370, 91.58040
515.7191, 89.64070
516.2012, 89.00344
516.6833, 89.18162
517.1655, 89.41328
517.6476, 89.48256
518.1297, 89.53807
518.6118, 89.69746
519.0939, 89.93605
519.5760, 89.96436
520.0582, 89.61067
520.5403, 89.15546
521.0224, 88.75285
521.5045, 88.54688
521.9866, 87.89467
522.4688, 86.42735
522.9509, 84.91918
523.4330, 84.41870
523.9151, 85.12679
524.3972, 85.75162
524.8793, 86.05631
525.3615, 86.06865
525.8436, 85.71819
526.3257, 85.01149
526.8078, 84.47082
527.2899, 84.41617
527.7720, 84.74050
528.2542, 85.39483
528.7363, 86.39678
529.2184, 87.05437
529.7005, 86.26236
530.1826, 84.92574
530.6647, 84.36536
531.1469, 85.57465
531.6290, 86.59051
532.1111, 85.81730
532.5932, 84.09678
533.0753, 83.14786
533.5574, 84.29440
534.0396, 85.49168
534.5217, 86.02579
535.0038, 85.82629
535.4859, 85.60117
535.9680, 85.45767
536.4501, 85.20762
536.9323, 84.65696
537.4144, 83.44917
537.8965, 82.98199
538.3786, 83.48769
538.8607, 84.45704
539.3428, 85.26455
539.8250, 85.94373
540.3071, 86.04292
540.7892, 85.20243
541.2713, 83.88750
541.7534, 83.26791
542.2355, 83.30055
542.7177, 83.52646
543.1998, 83.70856
543.6819, 83.88097
544.1640, 84.08526
544.6461, 84.32326
545.1282, 84.61569
545.6104, 85.06145
546.0925, 85.53191
546.5746, 85.89510
547.0567, 86.25405
547.5388, 86.30605
548.0209, 85.66652
548.5031, 84.65914
548.9852, 83.98328
549.4673, 83.80898
549.9494, 83.92068
550.4315, 84.42160
550.9136, 85.30844
551.3958, 85.73811
551.8779, 85.61147
552.3600, 85.19417
552.8421, 84.54127
553.3242, 83.59241
553.8063, 82.98599
554.2885, 82.76469
554.7706, 82.84261
555.2527, 83.13960
555.7348, 83.64659
556.2169, 84.35863
556.6990, 85.46644
557.1812, 86.51747
557.6633, 86.69289
558.1454, 86.19624
558.6275, 85.79224
559.1096, 86.11930
559.5917, 86.58296
560.0739, 86.55860
560.5560, 85.99287
561.0381, 85.77682
561.5202, 86.93450
562.0023, 88.17838
562.4844, 88.52464
562.9666, 86.98030
563.4487, 85.81205
563.9308, 85.10078
564.4129, 84.84311
564.8950, 85.15127
565.3771, 86.46005
565.8593, 87.31533
566.3414, 87.21577
566.8235, 86.43366
567.3056, 86.32516
567.7877, 87.00525
568.2698, 87.52028
568.7520, 86.96903
569.2341, 85.74818
569.7162, 85.51539
570.1983, 86.37358
570.6804, 87.38282
571.1625, 87.74148
571.6447, 87.64233
572.1268, 87.36269
572.6089, 86.88001
573.0910, 86.42422
573.5731, 86.07232
574.0552, 85.85744
574.5374, 85.82974
575.0195, 86.29320
575.5016, 86.65975
575.9837, 86.58582
576.4658, 86.13179
576.9479, 86.08831
577.4301, 86.80396
577.9122, 87.53880
578.3943, 87.99785
578.8764, 88.15585
579.3585, 88.14074
579.8406, 87.91112
580.3228, 87.60002
580.8049, 87.16201
581.2870, 86.63570
581.7691, 86.88313
582.2512, 88.30148
582.7333, 89.95361
583.2155, 90.51162
583.6975, 90.13567
584.1796, 89.34850
584.6617, 87.69296
585.1439, 86.23981
585.6260, 86.19036
586.1081, 87.30876
586.5902, 88.39623
587.0723, 88.77127
587.5544, 89.04582
