##NAMES=Dawsonite
##RRUFFID=R050641
##IDEAL CHEMISTRY=NaAlCO_3_(OH)_2_
##LOCALITY=Francon Quarry, Montréal, Québec, Canada
##OWNER=RRUFF
##SOURCE=University of Arizona Mineral Museum
##DESCRIPTION=Colorless acicular crystals
##STATUS=The identification of this mineral has been confirmed by X-ray diffraction and chemical analysis
##URL=rruff.info/R050641
##MEASURED CHEMISTRY=Na_1.00_Al_1.00_(CO_3_)(OH)_2_ ; trace amounts of Ti ; H_2_O assumed ideal 12.5%; CO_2_ by difference
92.02539, 211.9018
92.50751, 213.4891
92.98962, 215.7748
93.47174, 215.8285
93.95386, 215.2206
94.43597, 213.7483
94.91809, 211.4992
95.40021, 208.8957
95.88232, 206.5786
96.36444, 204.9801
96.84656, 203.0766
97.32867, 200.5982
97.81078, 197.8034
98.29290, 195.0835
98.77502, 192.6084
99.25713, 190.0792
99.73925, 187.7651
100.2214, 185.7510
100.7035, 183.8674
101.1856, 181.9846
101.6677, 180.0929
102.1498, 178.3086
102.6320, 176.7706
103.1141, 175.4850
103.5962, 174.4730
104.0783, 173.4494
104.5604, 172.7653
105.0425, 173.0350
105.5247, 174.5886
106.0068, 176.5544
106.4889, 177.4893
106.9710, 177.5292
107.4531, 176.7245
107.9352, 174.5078
108.4173, 171.1854
108.8995, 168.4560
109.3816, 167.0741
109.8637, 166.4959
110.3458, 166.1832
110.8279, 166.1461
111.3100, 166.1230
111.7922, 165.7346
112.2743, 164.8202
112.7564, 164.0635
113.2385, 163.6582
113.7206, 163.4776
114.2027, 163.4644
114.6849, 163.6102
115.1670, 163.8528
115.6491, 163.9663
116.1312, 163.7524
116.6133, 163.6349
117.0954, 163.6873
117.5776, 163.8769
118.0597, 164.1681
118.5418, 164.5532
119.0239, 165.0355
119.5060, 165.3217
119.9881, 165.0670
120.4703, 164.9693
120.9524, 165.3880
121.4345, 166.2706
121.9166, 167.2985
122.3987, 168.2127
122.8808, 168.9901
123.3630, 169.5833
123.8451, 169.7801
124.3272, 169.9001
124.8093, 170.1318
125.2914, 170.4563
125.7735, 171.1798
126.2557, 172.9450
126.7378, 175.5281
127.2199, 178.0987
127.7020, 180.0754
128.1841, 181.7466
128.6662, 184.0831
129.1483, 187.7199
129.6305, 191.4958
130.1126, 194.6600
130.5947, 197.2151
131.0768, 199.2713
131.5589, 201.2047
132.0410, 203.1896
132.5232, 203.6087
133.0053, 200.9464
133.4874, 197.5063
133.9695, 194.1979
134.4516, 191.2652
134.9337, 188.6709
135.4159, 186.3627
135.8980, 184.4524
136.3801, 182.6321
136.8622, 180.6776
137.3443, 178.8854
137.8264, 177.5031
138.3086, 176.6216
138.7907, 176.1753
139.2728, 176.0118
139.7549, 176.6933
140.2370, 177.0145
140.7191, 176.4040
141.2013, 175.4538
141.6834, 175.0997
142.1655, 175.8920
142.6476, 177.5518
143.1297, 178.8111
143.6118, 179.4058
144.0939, 179.9701
144.5761, 180.7772
145.0582, 181.7825
145.5403, 182.7505
146.0224, 183.3887
146.5045, 183.9618
146.9866, 185.1279
147.4688, 186.9072
147.9509, 189.2914
148.4330, 192.6444
148.9151, 197.1987
149.3972, 201.2851
149.8793, 204.3109
150.3615, 206.1933
150.8436, 206.4954
151.3257, 204.8146
151.8078, 201.5707
152.2899, 197.5806
152.7720, 192.2901
153.2542, 187.1500
153.7363, 182.3620
154.2184, 178.1061
154.7005, 174.6331
155.1826, 172.1845
155.6647, 170.6950
156.1469, 169.5639
156.6290, 168.9966
157.1111, 168.6452
157.5932, 168.3859
158.0753, 168.2657
158.5574, 168.4597
159.0396, 169.2198
159.5217, 170.7046
160.0038, 171.2382
160.4859, 169.6129
160.9680, 168.2489
161.4501, 168.3754
161.9323, 169.8623
162.4144, 171.6783
162.8965, 172.7388
163.3786, 172.7789
163.8607, 173.2178
164.3428, 174.1650
164.8250, 175.3886
165.3071, 176.7271
165.7892, 178.1560
166.2713, 179.7289
166.7534, 181.5318
167.2355, 183.5839
167.7177, 185.7504
168.1998, 188.0599
168.6819, 190.4736
169.1640, 192.9564
169.6461, 195.5160
170.1282, 198.0784
170.6104, 200.5765
171.0925, 203.0145
171.5746, 205.2993
172.0567, 207.0964
172.5388, 208.6709
173.0209, 210.8362
173.5031, 213.9187
173.9852, 217.4222
174.4673, 220.8903
174.9494, 224.3285
175.4315, 227.8869
175.9136, 231.5798
176.3958, 235.4204
176.8779, 239.6221
177.3600, 244.2446
177.8421, 249.2818
178.3242, 254.7199
178.8063, 260.5693
179.2885, 266.7361
179.7706, 272.8940
180.2527, 278.6936
180.7348, 286.1582
181.2169, 296.6340
181.6990, 307.8790
182.1812, 318.6981
182.6633, 328.9582
183.1454, 339.2155
183.6275, 350.1461
184.1096, 361.3557
184.5917, 374.3001
185.0738, 389.8819
185.5560, 406.2309
186.0381, 422.2944
186.5202, 437.6967
187.0023, 452.3899
187.4844, 466.2975
187.9665, 480.8616
188.4487, 491.8705
188.9308, 500.4257
189.4129, 505.0615
189.8950, 504.1024
190.3771, 497.0286
190.8592, 484.9965
191.3414, 469.8239
191.8235, 450.7297
192.3056, 430.0051
192.7877, 406.4884
193.2698, 381.9340
193.7519, 358.2569
194.2341, 335.9497
194.7162, 315.3506
195.1983, 297.5005
195.6804, 282.2683
196.1625, 268.6339
196.6446, 256.2312
197.1268, 245.1706
197.6089, 235.7712
198.0910, 228.4082
198.5731, 222.4387
199.0552, 216.6654
199.5373, 210.9095
200.0195, 205.8904
200.5016, 202.1673
200.9837, 199.5651
201.4658, 197.2770
201.9479, 195.2824
202.4300, 193.2877
202.9122, 190.8141
203.3943, 187.7574
203.8764, 185.0881
204.3585, 183.7014
204.8406, 183.5862
205.3227, 183.6531
205.8048, 183.9292
206.2870, 184.0846
206.7691, 183.7195
207.2512, 182.8055
207.7333, 181.9775
208.2154, 181.9398
208.6975, 182.7945
209.1797, 183.8398
209.6618, 184.9805
210.1439, 186.2769
210.6260, 187.7715
211.1081, 189.4715
211.5902, 191.3546
212.0724, 193.2782
212.5545, 194.9506
213.0366, 197.5722
213.5187, 201.5434
214.0008, 206.1432
214.4829, 211.1536
214.9651, 216.4354
215.4472, 221.8101
215.9293, 227.1228
216.4114, 232.9096
216.8935, 237.3911
217.3756, 241.3287
217.8578, 243.7751
218.3399, 244.0796
218.8220, 242.1098
219.3041, 238.1759
219.7862, 232.6217
220.2683, 224.2604
220.7505, 216.4997
221.2326, 209.4579
221.7147, 202.8377
222.1968, 196.1740
222.6789, 189.4335
223.1610, 183.2703
223.6432, 178.7335
224.1253, 176.9903
224.6074, 174.5973
225.0895, 170.8310
225.5716, 166.8191
226.0537, 163.5040
226.5358, 161.1088
227.0180, 159.4540
227.5001, 158.4168
227.9822, 158.3055
228.4643, 157.8386
228.9464, 156.5906
229.4285, 155.1126
229.9107, 154.0120
230.3928, 153.4290
230.8749, 153.0847
231.3570, 152.6624
231.8391, 152.1589
232.3212, 151.6383
232.8034, 150.8953
233.2855, 150.2254
233.7676, 150.1155
234.2497, 150.7238
234.7318, 151.4681
235.2139, 151.5017
235.6961, 150.9341
236.1782, 150.8573
236.6603, 152.1064
237.1424, 153.8423
237.6245, 154.5722
238.1066, 153.8145
238.5888, 153.0765
239.0709, 154.1931
239.5530, 156.5928
240.0351, 158.5286
240.5172, 159.1502
240.9993, 158.9757
241.4815, 158.8967
241.9636, 158.8869
242.4457, 159.1925
242.9278, 160.2024
243.4099, 161.6482
243.8920, 162.9914
244.3742, 163.9184
244.8563, 164.5996
245.3384, 165.4428
245.8205, 166.5253
246.3026, 167.5942
246.7847, 168.4489
247.2668, 169.2018
247.7490, 170.0276
248.2311, 170.9805
248.7132, 172.0666
249.1953, 173.2748
249.6774, 174.4588
250.1595, 176.1047
250.6417, 178.5638
251.1238, 181.4888
251.6059, 184.4515
252.0880, 187.2574
252.5701, 189.9861
253.0522, 192.7930
253.5344, 195.3836
254.0165, 198.6696
254.4986, 202.9624
254.9807, 207.9421
255.4628, 213.3755
255.9449, 219.1805
256.4271, 225.2320
256.9092, 231.3628
257.3913, 237.8587
257.8734, 243.8054
258.3555, 249.8180
258.8376, 254.9533
259.3198, 258.5233
259.8019, 260.2488
260.2840, 259.9751
260.7661, 257.2881
261.2482, 251.6094
261.7303, 244.3137
262.2125, 234.6130
262.6946, 224.1891
263.1767, 214.2728
263.6588, 205.2500
264.1409, 197.1084
264.6230, 189.7641
265.1052, 183.3047
265.5873, 177.5898
266.0694, 172.4640
266.5515, 168.0271
267.0336, 164.5428
267.5157, 162.0009
267.9979, 159.9783
268.4800, 157.8568
268.9621, 155.4897
269.4442, 153.3780
269.9263, 151.4309
270.4084, 149.7474
270.8906, 148.4774
271.3727, 147.5981
271.8548, 146.9080
272.3369, 146.1786
272.8190, 145.4333
273.3011, 144.5766
273.7833, 143.2785
274.2654, 142.1611
274.7475, 141.7540
275.2296, 141.9559
275.7117, 142.1657
276.1938, 141.7513
276.6760, 140.5518
277.1581, 139.7202
277.6402, 139.2511
278.1223, 139.0532
278.6044, 139.2815
279.0865, 139.7875
279.5686, 140.1556
280.0508, 140.0271
280.5329, 139.3889
281.0150, 138.9109
281.4971, 138.6219
281.9792, 138.4237
282.4613, 138.3293
282.9435, 138.2990
283.4256, 138.2287
283.9077, 138.0279
284.3898, 137.7389
284.8719, 137.7693
285.3540, 138.7672
285.8362, 139.3133
286.3183, 138.6681
286.8004, 137.3476
287.2825, 136.3059
287.7646, 136.0515
288.2467, 136.3528
288.7289, 136.3993
289.2110, 135.8243
289.6931, 135.4660
290.1752, 135.6895
290.6573, 136.1464
291.1394, 136.3720
291.6216, 136.1908
292.1037, 135.6747
292.5858, 134.9027
293.0679, 133.5070
293.5500, 132.5799
294.0321, 132.4750
294.5143, 132.7859
294.9964, 133.1626
295.4785, 133.5085
295.9606, 133.6870
296.4427, 133.4450
296.9248, 132.5256
297.4070, 131.9849
297.8891, 132.1755
298.3712, 132.5700
298.8533, 132.6676
299.3354, 132.4050
299.8175, 132.1047
300.2997, 132.1197
300.7818, 132.5239
301.2639, 132.7107
301.7460, 132.5664
302.2281, 132.2987
302.7102, 132.0037
303.1924, 131.7028
303.6745, 131.4305
304.1566, 131.2156
304.6387, 131.0574
305.1208, 130.8991
305.6029, 130.5190
306.0851, 130.3447
306.5672, 130.8293
307.0493, 131.7503
307.5314, 132.3703
308.0135, 132.2180
308.4956, 131.4881
308.9778, 131.0446
309.4599, 131.0505
309.9420, 131.0799
310.4241, 130.9899
310.9062, 130.8297
311.3883, 130.6123
311.8705, 130.2836
312.3526, 130.0927
312.8347, 130.8050
313.3168, 133.2325
313.7989, 134.5566
314.2810, 133.4583
314.7632, 131.2109
315.2453, 129.3622
315.7274, 128.3232
316.2095, 127.9337
316.6916, 128.1221
317.1737, 129.0945
317.6559, 129.7222
318.1380, 129.7065
318.6201, 129.4333
319.1022, 129.1647
319.5843, 128.9557
320.0664, 128.9438
320.5485, 129.3502
321.0306, 130.2140
321.5128, 130.6182
321.9949, 130.3493
322.4770, 129.8211
322.9591, 129.1259
323.4412, 128.3530
323.9233, 127.8201
324.4055, 127.8101
324.8876, 128.2163
325.3697, 128.2631
325.8518, 127.4640
326.3339, 126.8860
326.8160, 127.1846
327.2982, 127.9938
327.7803, 128.4662
328.2624, 128.1608
328.7445, 127.4073
329.2266, 127.1087
329.7087, 127.5453
330.1909, 127.8598
330.6730, 127.7977
331.1551, 127.5613
331.6372, 127.3897
332.1193, 127.3516
332.6014, 127.4284
333.0836, 127.6164
333.5657, 127.9879
334.0478, 128.2473
334.5299, 128.3280
335.0120, 128.3292
335.4941, 128.3643
335.9763, 128.4317
336.4584, 128.3870
336.9405, 128.0555
337.4226, 127.3967
337.9047, 126.9945
338.3868, 127.0038
338.8690, 127.0868
339.3511, 127.0259
339.8332, 126.8810
340.3153, 126.9044
340.7974, 127.3031
341.2795, 127.9680
341.7617, 128.1680
342.2438, 127.2094
342.7259, 126.6723
343.2080, 127.3269
343.6901, 128.5234
344.1722, 129.2313
344.6544, 129.0155
345.1365, 128.3067
345.6186, 127.9928
346.1007, 128.3743
346.5828, 128.7350
347.0649, 129.0739
347.5471, 129.3880
348.0292, 129.6832
348.5113, 129.9550
348.9934, 130.1855
349.4755, 130.3508
349.9576, 130.4491
350.4398, 130.4745
350.9219, 130.1967
351.4040, 130.0604
351.8861, 130.3424
352.3682, 130.9835
352.8503, 131.7879
353.3325, 132.6443
353.8146, 133.5265
354.2967, 134.0267
354.7788, 133.7117
355.2609, 133.5093
355.7430, 133.7224
356.2252, 134.1366
356.7073, 134.4042
357.1894, 134.3570
357.6715, 134.1668
358.1536, 134.2923
358.6357, 135.2330
359.1179, 135.7140
359.5999, 135.5777
360.0821, 135.0802
360.5642, 134.2671
361.0463, 133.2259
361.5284, 132.2740
362.0105, 131.8415
362.4926, 132.0973
362.9748, 132.2276
363.4569, 132.3746
363.9390, 132.2785
364.4211, 131.6855
364.9032, 130.7302
365.3853, 129.7464
365.8675, 128.9441
366.3496, 128.3404
366.8317, 128.1210
367.3138, 128.6528
367.7959, 129.1218
368.2780, 129.5217
368.7602, 129.7023
369.2423, 129.3448
369.7244, 128.2837
370.2065, 127.0368
370.6886, 126.7525
371.1707, 128.0007
371.6529, 128.7694
372.1350, 128.3277
372.6171, 127.6700
373.0992, 127.4870
373.5813, 127.8477
374.0634, 128.2858
374.5456, 128.1398
375.0277, 127.3489
375.5098, 127.3441
375.9919, 128.9971
376.4740, 130.5364
376.9561, 131.0095
377.4383, 130.7438
377.9204, 130.5172
378.4025, 130.7381
378.8846, 131.3244
379.3667, 132.1225
379.8488, 133.2897
380.3310, 134.2560
380.8131, 134.5459
381.2952, 134.6319
381.7773, 134.9402
382.2594, 135.5529
382.7415, 136.5245
383.2237, 138.1320
383.7058, 140.3723
384.1879, 142.1983
384.6700, 143.2032
385.1521, 143.8425
385.6342, 144.4377
386.1164, 145.0106
386.5985, 145.8267
387.0806, 147.5845
387.5627, 149.6312
388.0448, 150.3355
388.5269, 149.3936
389.0091, 147.6857
389.4912, 145.5226
389.9733, 143.0656
390.4554, 140.6436
390.9375, 138.3004
391.4196, 136.0361
391.9018, 133.7813
392.3839, 131.5547
392.8660, 129.5869
393.3481, 127.9001
393.8302, 126.6317
394.3123, 126.1409
394.7945, 126.7823
395.2766, 126.9952
395.7587, 125.6661
396.2408, 123.6351
396.7229, 122.4205
397.2050, 122.3964
397.6872, 122.7427
398.1693, 122.5579
398.6514, 121.7815
399.1335, 121.1544
399.6156, 120.6468
400.0977, 120.3410
400.5798, 120.5002
401.0620, 120.9814
401.5441, 121.1594
402.0262, 120.5775
402.5083, 119.4409
402.9904, 118.8067
403.4725, 119.0375
403.9547, 119.2381
404.4368, 119.1376
404.9189, 118.9548
405.4010, 119.0577
405.8831, 119.5410
406.3652, 120.0389
406.8474, 119.9740
407.3295, 119.0257
407.8116, 118.4454
408.2937, 118.4680
408.7758, 118.6041
409.2579, 118.6608
409.7401, 118.5914
410.2222, 118.3573
410.7043, 117.8990
411.1864, 117.2622
411.6685, 116.8337
412.1506, 116.7739
412.6328, 116.7433
413.1149, 116.6603
413.5970, 116.5945
414.0791, 116.6640
414.5612, 116.9010
415.0433, 117.1620
415.5255, 117.1436
416.0076, 116.6414
416.4897, 116.5732
416.9718, 117.7218
417.4539, 118.6947
417.9360, 118.6524
418.4182, 117.7924
418.9003, 116.9324
419.3824, 116.6106
419.8645, 116.7655
420.3466, 117.1946
420.8287, 118.1336
421.3109, 118.8420
421.7930, 118.8314
422.2751, 118.5227
422.7572, 118.4158
423.2393, 118.6943
423.7214, 118.9697
424.2036, 118.7055
424.6857, 117.9314
425.1678, 117.4408
425.6499, 117.5465
426.1320, 117.8230
426.6141, 117.8972
427.0963, 117.7850
427.5784, 117.5896
428.0605, 117.2226
428.5426, 116.8520
429.0247, 116.7285
429.5068, 116.8664
429.9890, 117.2301
430.4711, 117.9611
430.9532, 118.8615
431.4353, 119.3306
431.9174, 119.2214
432.3995, 118.8964
432.8817, 118.3615
433.3638, 117.7580
433.8459, 117.3764
434.3280, 117.3079
434.8101, 117.4867
435.2922, 117.8753
435.7744, 118.5643
436.2565, 119.0734
436.7386, 119.4631
437.2207, 119.6062
437.7028, 119.1042
438.1849, 118.1878
438.6671, 117.7435
439.1492, 118.4410
439.6313, 120.0272
440.1134, 120.9989
440.5955, 121.1779
441.0776, 120.9430
441.5598, 119.8696
442.0418, 118.6352
442.5240, 118.0315
443.0061, 118.2181
443.4882, 118.6220
443.9703, 118.4657
444.4524, 117.5755
444.9345, 116.9419
445.4167, 116.8636
445.8988, 116.7518
446.3809, 116.3205
446.8630, 115.7100
447.3451, 115.2113
447.8272, 115.0026
448.3094, 114.9834
448.7915, 114.8947
449.2736, 114.6903
449.7557, 114.5465
450.2378, 114.5030
450.7199, 114.5373
451.2021, 114.7927
451.6842, 115.2367
452.1663, 115.3642
452.6484, 114.3912
453.1305, 112.6766
453.6126, 111.9462
454.0948, 112.6313
454.5769, 113.5273
455.0590, 113.9216
455.5411, 113.9535
456.0232, 113.7974
456.5053, 113.3926
456.9875, 112.9483
457.4696, 112.5214
457.9517, 112.1697
458.4338, 112.2229
458.9159, 112.9212
459.3980, 113.8151
459.8802, 114.2011
460.3623, 114.0593
460.8444, 113.8647
461.3265, 113.6787
461.8086, 113.4882
462.2907, 113.2626
462.7729, 113.0114
463.2550, 112.8043
463.7371, 112.7042
464.2192, 112.6769
464.7013, 112.5184
465.1834, 112.0909
465.6656, 111.7174
466.1477, 111.4087
466.6298, 111.1912
467.1119, 111.1076
467.5940, 111.1603
468.0761, 111.3020
468.5583, 111.4964
469.0404, 111.7738
469.5225, 111.9158
470.0046, 111.6882
470.4867, 111.5683
470.9688, 111.9161
471.4510, 112.4233
471.9331, 112.5015
472.4152, 111.8256
472.8973, 110.8968
473.3794, 110.8102
473.8615, 111.8782
474.3437, 112.4485
474.8258, 111.7190
475.3079, 110.7931
475.7900, 110.3548
476.2721, 110.3748
476.7542, 110.4308
477.2364, 110.1857
477.7185, 109.8142
478.2006, 109.7808
478.6827, 110.1585
479.1648, 110.4387
479.6469, 110.2321
480.1291, 109.8247
480.6112, 109.7850
481.0933, 110.3284
481.5754, 110.7029
482.0575, 110.3961
482.5396, 109.6925
483.0217, 108.9929
483.5038, 108.3573
483.9860, 108.1367
484.4681, 108.8690
484.9502, 110.5915
485.4323, 111.3816
485.9144, 110.4577
486.3965, 109.4929
486.8787, 109.2621
487.3608, 109.4743
487.8429, 109.4981
488.3250, 109.0807
488.8071, 108.5683
489.2892, 108.6127
489.7714, 109.5724
490.2535, 110.2121
490.7356, 110.5334
491.2177, 110.5915
491.6998, 110.2406
492.1819, 109.6474
492.6641, 109.1840
493.1462, 109.1107
493.6283, 109.2728
494.1104, 109.2215
494.5925, 108.9171
495.0746, 108.5077
495.5568, 107.7704
496.0389, 107.1229
496.5210, 106.8806
497.0031, 107.0572
497.4852, 107.4296
497.9673, 108.0361
498.4495, 108.7060
498.9316, 108.8956
499.4137, 108.4967
499.8958, 108.0194
500.3779, 107.5042
500.8600, 107.2061
501.3422, 107.6961
501.8243, 109.4622
502.3064, 111.0120
502.7885, 111.4674
503.2706, 111.2461
503.7527, 111.0894
504.2349, 111.1574
504.7170, 111.2327
505.1991, 111.0570
505.6812, 110.6053
506.1633, 110.5142
506.6454, 111.2534
507.1276, 111.7925
507.6097, 111.4664
508.0918, 110.7777
508.5739, 110.6151
509.0560, 111.2882
509.5381, 112.2038
510.0203, 112.3334
510.5024, 111.2760
510.9845, 110.8100
511.4666, 111.2722
511.9487, 111.9967
512.4308, 112.8512
512.9130, 113.7667
513.3951, 114.6919
513.8772, 115.6337
514.3593, 116.4763
514.8414, 116.9281
515.3235, 116.9174
515.8057, 117.1107
516.2878, 118.0719
516.7699, 118.8514
517.2520, 118.5133
517.7341, 117.2002
518.2162, 115.9779
518.6984, 115.4800
519.1805, 115.2051
519.6626, 114.5168
520.1447, 113.4211
520.6268, 112.1082
521.1089, 110.5047
521.5911, 108.9281
522.0732, 108.2503
522.5553, 108.7726
523.0374, 109.1095
523.5195, 108.9032
524.0016, 108.5085
524.4838, 108.2933
524.9659, 108.2263
525.4480, 107.9468
525.9301, 107.1523
526.4122, 105.9949
526.8943, 105.2524
527.3765, 105.2886
527.8586, 105.2468
528.3407, 104.9239
528.8228, 104.5868
529.3049, 104.4885
529.7870, 104.6311
530.2692, 104.8016
530.7513, 104.8156
531.2334, 104.6971
531.7155, 104.5771
532.1976, 104.4360
532.6797, 104.3418
533.1619, 104.3438
533.6440, 104.3990
534.1261, 104.4880
534.6082, 104.6184
535.0903, 104.6987
535.5724, 104.6724
536.0546, 104.5532
536.5367, 104.3293
537.0188, 103.9873
537.5009, 103.7060
537.9830, 103.6461
538.4651, 103.7602
538.9473, 103.7723
539.4294, 103.5515
539.9115, 103.4016
540.3936, 103.4624
540.8757, 103.6133
541.3578, 103.7124
541.8400, 103.7291
542.3221, 103.7104
542.8042, 103.7064
543.2863, 103.7182
543.7684, 103.6786
544.2505, 103.4833
544.7326, 103.3653
545.2147, 103.4601
545.6968, 103.6089
546.1790, 103.5927
546.6611, 103.3705
547.1432, 103.1751
547.6253, 103.3458
548.1074, 103.8342
548.5895, 104.0279
549.0717, 103.7570
549.5538, 103.5060
550.0359, 103.6929
550.5180, 104.0514
551.0001, 104.1525
551.4822, 103.8142
551.9644, 103.4892
552.4465, 103.5914
552.9286, 103.8827
553.4107, 103.7430
553.8928, 103.0385
554.3749, 102.4903
554.8571, 102.8430
555.3392, 104.0605
555.8213, 104.7067
556.3034, 104.3253
556.7855, 104.0190
557.2676, 104.1959
557.7498, 104.5415
558.2319, 104.6240
558.7140, 104.3705
559.1961, 104.1049
559.6782, 104.2279
560.1603, 104.7464
560.6425, 104.9708
561.1246, 104.5564
561.6067, 104.3562
562.0888, 104.8025
562.5709, 105.4920
563.0530, 105.9458
563.5352, 106.0421
564.0173, 106.1073
564.4994, 106.4119
564.9815, 106.9088
565.4636, 107.4606
565.9457, 108.0684
566.4279, 108.6677
566.9100, 109.2031
567.3921, 109.6985
567.8742, 110.2262
568.3563, 110.6653
568.8384, 111.3340
569.3206, 112.4337
569.8027, 113.7740
570.2848, 115.2098
570.7669, 116.6722
571.2490, 118.0148
571.7311, 119.0518
572.2133, 119.8421
572.6954, 120.9937
573.1775, 122.8031
573.6596, 124.5893
574.1417, 126.2243
574.6238, 127.8353
575.1060, 129.5200
575.5881, 131.3036
576.0702, 133.1643
576.5523, 135.1335
577.0344, 137.1639
577.5165, 138.9595
577.9987, 140.3571
578.4808, 142.2407
578.9629, 145.1548
579.4450, 148.6499
579.9271, 152.0462
580.4092, 155.3027
580.8914, 158.6826
581.3735, 162.1165
581.8556, 165.8264
582.3377, 170.0811
582.8198, 174.8688
583.3019, 180.2107
583.7841, 186.2391
584.2662, 192.5375
584.7483, 197.9505
585.2304, 201.5320
585.7125, 205.8069
586.1946, 212.0284
586.6768, 217.8145
