##NAMES=Dawsonite
##RRUFFID=R050645
##IDEAL CHEMISTRY=NaAlCO_3_(OH)_2_
##LOCALITY=Cerro Sapo, Cochabamba Department, Bolivia
##OWNER=RRUFF
##SOURCE=Marcus Origlieri
##DESCRIPTION=White fibrous aggregates associated with blue sodalite on pale green ankerite.
##STATUS=The identification of this mineral is confirmed by single-crystal X-ray diffraction and chemical analysis.
##URL=rruff.info/R050645
##MEASURED CHEMISTRY=Na_1.00_(Al_0.99_Fe^3+^_0.01_)_Î£=1_CO_3_(OH)_2_
90.522, 264.895
91.004, 254.595
91.486, 250.281
91.969, 248.857
92.451, 248.655
92.933, 249.355
93.415, 249.955
93.897, 247.679
94.379, 239.368
94.861, 233.585
95.343, 234.082
95.825, 237.385
96.308, 239.067
96.790, 236.255
97.272, 229.948
97.754, 226.797
98.236, 230.051
98.718, 233.615
99.200, 237.253
99.682, 240.294
100.164, 241.464
100.647, 239.245
101.129, 233.092
101.611, 231.837
102.093, 239.015
102.575, 247.201
103.057, 256.917
103.539, 266.090
104.021, 268.946
104.504, 258.362
104.986, 228.305
105.468, 210.201
105.950, 210.356
106.432, 216.012
106.914, 219.354
107.396, 218.990
107.878, 217.608
108.360, 218.740
108.843, 224.185
109.325, 227.511
109.807, 225.507
110.289, 222.665
110.771, 225.294
111.253, 235.540
111.735, 246.969
112.217, 246.916
112.700, 231.243
113.182, 219.962
113.664, 220.339
114.146, 227.728
114.628, 233.027
115.110, 232.122
115.592, 230.031
116.074, 236.755
116.557, 254.776
117.039, 272.327
117.521, 284.156
118.003, 291.052
118.485, 296.016
118.967, 299.061
119.449, 301.658
119.931, 306.000
120.413, 312.153
120.896, 319.906
121.378, 330.685
121.860, 344.379
122.342, 355.226
122.824, 358.618
123.306, 358.497
123.788, 359.911
124.270, 364.273
124.752, 369.310
125.235, 372.213
125.717, 372.633
126.199, 372.689
126.681, 373.030
127.163, 373.617
127.645, 374.615
128.127, 376.500
128.609, 378.315
129.092, 377.067
129.574, 369.415
130.056, 366.854
130.538, 378.258
131.020, 395.691
131.502, 409.409
131.984, 414.463
132.466, 412.880
132.948, 411.358
133.430, 411.619
133.913, 408.959
134.395, 400.667
134.877, 389.002
135.359, 377.130
135.841, 366.027
136.323, 356.214
136.805, 352.253
137.288, 360.954
137.770, 368.146
138.252, 367.579
138.734, 362.388
139.216, 359.292
139.698, 364.666
140.180, 378.497
140.662, 383.929
141.144, 367.365
141.626, 354.340
142.109, 353.199
142.591, 362.013
143.073, 374.274
143.555, 384.384
144.037, 391.818
144.519, 401.958
145.001, 419.353
145.484, 435.214
145.966, 442.398
146.448, 443.712
146.930, 449.007
147.412, 469.260
147.894, 509.414
148.376, 540.813
148.858, 559.335
149.340, 574.367
149.822, 590.585
150.305, 608.248
150.787, 625.286
151.269, 640.616
151.751, 657.473
152.233, 658.616
152.715, 643.377
153.197, 616.114
153.679, 572.989
154.161, 516.823
154.644, 460.727
155.126, 421.124
155.608, 404.456
156.090, 388.185
156.572, 373.400
157.054, 358.266
157.536, 339.432
158.018, 317.078
158.501, 296.802
158.983, 286.257
159.465, 290.133
159.947, 293.876
160.429, 297.181
160.911, 300.538
161.393, 305.156
161.875, 311.136
162.357, 316.244
162.840, 317.061
163.322, 310.928
163.804, 306.872
164.286, 306.613
164.768, 307.891
165.250, 307.772
165.732, 305.524
166.214, 304.046
166.697, 308.448
167.179, 322.270
167.661, 331.295
168.143, 328.979
168.625, 323.247
169.107, 324.374
169.589, 335.382
170.071, 349.445
170.553, 356.353
171.036, 354.894
171.518, 351.445
172.000, 341.201
172.482, 331.337
172.964, 332.914
173.446, 349.811
173.928, 373.070
174.410, 388.843
174.893, 394.747
175.375, 404.991
175.857, 424.056
176.339, 448.750
176.821, 475.227
177.303, 502.805
177.785, 530.635
178.267, 555.492
178.749, 575.323
179.232, 602.969
179.714, 644.584
180.196, 695.390
180.678, 747.638
181.160, 798.962
181.642, 852.479
182.124, 912.192
182.606, 977.205
183.089, 1049.249
183.571, 1134.458
184.053, 1225.873
184.535, 1309.890
185.017, 1380.331
185.499, 1450.996
185.981, 1546.338
186.463, 1666.818
186.945, 1780.229
187.428, 1871.526
187.910, 1949.952
188.392, 2037.191
188.874, 2142.163
189.356, 2243.383
189.838, 2313.310
190.320, 2356.337
190.802, 2371.781
191.285, 2360.773
191.767, 2321.748
192.249, 2246.062
192.731, 2125.727
193.213, 1986.477
193.695, 1857.670
194.177, 1739.047
194.659, 1616.807
195.141, 1480.585
195.624, 1339.132
196.106, 1206.157
196.588, 1082.203
197.070, 971.145
197.552, 880.859
198.034, 809.144
198.516, 745.188
198.998, 685.394
199.480, 631.326
199.963, 586.056
200.445, 551.312
200.927, 521.187
201.409, 488.575
201.891, 453.960
202.373, 423.810
202.855, 401.750
203.337, 384.613
203.820, 366.444
204.302, 345.371
204.784, 327.578
205.266, 322.530
205.748, 327.850
206.230, 331.362
206.712, 325.737
207.194, 318.199
207.676, 318.753
208.159, 328.840
208.641, 344.774
209.123, 364.628
209.605, 388.079
210.087, 413.730
210.569, 442.542
211.051, 472.991
211.533, 502.392
212.016, 530.243
212.498, 560.140
212.980, 596.438
213.462, 637.762
213.944, 676.607
214.426, 703.292
214.908, 731.808
215.390, 782.146
215.872, 856.168
216.355, 926.801
216.837, 974.937
217.319, 1001.910
217.801, 1018.030
218.283, 1020.103
218.765, 1014.253
219.247, 1008.770
219.729, 1003.402
220.212, 985.276
220.694, 943.352
221.176, 880.126
221.658, 813.674
222.140, 739.699
222.622, 666.699
223.104, 598.570
223.586, 535.529
224.068, 478.723
224.551, 427.374
225.033, 384.009
225.515, 352.068
225.997, 338.419
226.479, 328.712
226.961, 314.339
227.443, 296.721
227.925, 282.143
228.408, 274.983
228.890, 272.235
229.372, 264.668
229.854, 249.046
230.336, 233.684
230.818, 221.606
231.300, 212.585
231.782, 206.485
232.264, 204.083
232.747, 203.482
233.229, 199.374
233.711, 188.322
234.193, 180.990
234.675, 185.507
235.157, 195.536
235.639, 198.636
236.121, 189.695
236.604, 174.387
237.086, 162.852
237.568, 154.357
238.050, 150.477
238.532, 156.234
239.014, 165.301
239.496, 168.226
239.978, 162.106
240.460, 152.915
240.943, 149.234
241.425, 152.074
241.907, 157.948
242.389, 174.607
242.871, 190.019
243.353, 187.862
243.835, 165.975
244.317, 142.378
244.799, 138.129
245.282, 159.819
245.764, 180.755
246.246, 202.573
246.728, 222.395
247.210, 237.153
247.692, 247.124
248.174, 255.959
248.656, 267.342
249.139, 281.904
249.621, 292.985
250.103, 292.974
250.585, 296.724
251.067, 312.177
251.549, 338.255
252.031, 369.778
252.513, 402.865
252.995, 437.666
253.478, 475.703
253.960, 514.984
254.442, 559.064
254.924, 614.514
255.406, 675.318
255.888, 727.881
256.370, 762.857
256.852, 785.651
257.335, 826.277
257.817, 903.276
258.299, 978.343
258.781, 1051.593
259.263, 1118.493
259.745, 1175.996
260.227, 1222.825
260.709, 1256.422
261.191, 1271.248
261.674, 1268.253
262.156, 1240.932
262.638, 1183.531
263.120, 1107.461
263.602, 1016.659
264.084, 914.208
264.566, 809.427
265.048, 715.868
265.530, 634.678
266.013, 563.998
266.495, 503.088
266.977, 451.134
267.459, 409.704
267.941, 377.910
268.423, 351.199
268.905, 323.940
269.387, 294.565
269.870, 272.489
270.352, 264.678
270.834, 258.666
271.316, 249.850
271.798, 238.616
272.280, 227.826
272.762, 220.994
273.244, 217.427
273.727, 207.305
274.209, 182.291
274.691, 162.109
275.173, 156.587
275.655, 160.796
276.137, 165.766
276.619, 167.705
277.101, 166.706
277.583, 162.413
278.065, 153.375
278.548, 144.613
279.030, 137.789
279.512, 132.530
279.994, 128.096
280.476, 123.451
280.958, 121.352
281.440, 127.758
281.922, 143.901
282.405, 155.747
282.887, 157.857
283.369, 153.256
283.851, 142.842
284.333, 124.377
284.815, 111.133
285.297, 119.176
285.779, 143.710
286.262, 157.219
286.744, 149.146
287.226, 132.747
287.708, 123.542
288.190, 121.372
288.672, 120.599
289.154, 118.742
289.636, 116.797
290.118, 117.092
290.601, 120.402
291.083, 123.749
291.565, 123.759
292.047, 120.662
292.529, 118.201
293.011, 116.758
293.493, 116.216
293.975, 117.889
294.457, 121.381
294.940, 122.049
295.422, 115.503
295.904, 114.323
296.386, 116.895
296.868, 118.085
297.350, 117.968
297.832, 112.627
298.314, 114.032
298.797, 112.733
299.279, 111.323
299.761, 113.677
300.243, 109.096
300.725, 111.390
301.207, 110.940
301.689, 111.746
302.171, 109.831
302.654, 108.757
303.136, 110.404
303.618, 114.271
304.100, 117.124
304.582, 107.264
305.064, 102.044
305.546, 106.032
306.028, 110.523
306.510, 108.675
306.992, 100.917
307.475, 93.435
307.957, 92.823
308.439, 99.949
308.921, 104.551
309.403, 106.767
309.885, 106.139
310.367, 98.075
310.849, 87.235
311.332, 83.641
311.814, 95.851
312.296, 117.361
312.778, 120.682
313.260, 91.662
313.742, 93.992
314.224, 99.498
314.706, 102.550
315.189, 103.280
315.671, 94.734
316.153, 98.167
316.635, 96.799
317.117, 95.234
317.599, 100.352
318.081, 93.155
318.563, 98.168
319.045, 98.306
319.528, 100.676
320.010, 98.215
320.492, 97.246
320.974, 101.108
321.456, 102.296
321.938, 99.279
322.420, 101.790
322.902, 94.424
323.384, 95.726
323.867, 100.766
324.349, 97.992
324.831, 100.592
325.313, 101.145
325.795, 92.397
326.277, 99.824
326.759, 100.256
327.241, 93.711
327.724, 88.734
328.206, 92.373
328.688, 96.725
329.170, 98.069
329.652, 97.483
330.134, 97.637
330.616, 99.813
331.098, 102.563
331.581, 102.752
332.063, 99.359
332.545, 95.158
333.027, 86.616
333.509, 79.467
333.991, 81.718
334.473, 93.533
334.955, 105.176
335.437, 104.829
335.919, 88.556
336.402, 80.719
336.884, 85.777
337.366, 93.720
337.848, 102.458
338.330, 110.769
338.812, 117.346
339.294, 121.343
339.776, 122.818
340.259, 121.732
340.741, 115.258
341.223, 110.651
341.705, 112.074
342.187, 114.584
342.669, 112.297
343.151, 103.151
343.633, 92.309
344.116, 85.684
344.598, 83.163
345.080, 86.573
345.562, 103.612
346.044, 120.182
346.526, 124.403
347.008, 117.368
347.490, 112.249
347.972, 120.369
348.455, 136.520
348.937, 146.305
349.419, 148.163
349.901, 145.908
350.383, 138.769
350.865, 129.445
351.347, 125.141
351.829, 132.471
352.311, 140.795
352.794, 138.357
353.276, 127.870
353.758, 124.337
354.240, 136.126
354.722, 157.076
355.204, 171.418
355.686, 178.592
356.168, 182.483
356.651, 180.448
357.133, 177.158
357.615, 179.953
358.097, 190.010
358.579, 199.581
359.061, 198.379
359.543, 181.829
360.025, 176.035
360.508, 190.087
360.990, 204.498
361.472, 212.080
361.954, 212.414
362.436, 205.931
362.918, 191.943
363.400, 172.934
363.882, 160.636
364.364, 158.099
364.846, 158.009
365.329, 161.697
365.811, 165.591
366.293, 165.910
366.775, 161.670
367.257, 155.770
367.739, 152.135
368.221, 151.078
368.703, 147.690
369.186, 139.457
369.668, 130.871
370.150, 123.548
370.632, 117.999
371.114, 116.034
371.596, 122.954
372.078, 132.745
372.560, 131.485
373.043, 117.092
373.525, 107.366
374.007, 116.870
374.489, 137.176
374.971, 146.419
375.453, 136.764
375.935, 126.733
376.417, 127.159
376.899, 134.409
377.382, 139.917
377.864, 140.752
378.346, 140.592
378.828, 144.749
379.310, 154.445
379.792, 165.875
380.274, 181.394
380.756, 196.759
381.238, 210.995
381.721, 222.824
382.203, 228.116
382.685, 222.007
383.167, 206.817
383.649, 206.798
384.131, 240.007
384.613, 267.782
385.095, 283.047
385.578, 290.536
386.060, 294.758
386.542, 297.373
387.024, 299.573
387.506, 303.059
387.988, 307.966
388.470, 313.730
388.952, 327.698
389.435, 335.003
389.917, 323.994
390.399, 297.991
390.881, 271.338
391.363, 253.331
391.845, 239.804
392.327, 220.252
392.809, 192.885
393.291, 170.657
393.773, 162.467
394.256, 163.766
394.738, 164.585
395.220, 167.487
395.702, 164.561
396.184, 144.550
396.666, 116.873
397.148, 102.173
397.630, 107.026
398.113, 118.713
398.595, 121.180
399.077, 111.273
399.559, 103.715
400.041, 100.890
400.523, 98.246
401.005, 90.812
401.487, 81.097
401.970, 76.849
402.452, 83.672
402.934, 98.074
403.416, 105.487
403.898, 104.077
404.380, 97.878
404.862, 79.499
405.344, 61.966
405.826, 58.251
406.309, 70.095
406.791, 86.110
407.273, 95.373
407.755, 98.046
408.237, 99.565
408.719, 101.522
409.201, 100.012
409.683, 88.143
410.165, 71.514
410.648, 63.188
411.130, 73.401
411.612, 87.208
412.094, 87.337
412.576, 75.588
413.058, 65.781
413.540, 63.117
414.022, 65.190
414.504, 68.300
414.987, 72.806
415.469, 76.703
415.951, 77.385
416.433, 78.651
416.915, 86.244
417.397, 99.390
417.879, 110.306
418.362, 112.521
418.844, 106.440
419.326, 100.511
419.808, 96.955
420.290, 90.901
420.772, 75.787
421.254, 60.213
421.736, 54.922
422.218, 63.177
422.701, 77.955
423.183, 90.602
423.665, 101.281
424.147, 109.295
424.629, 115.547
425.111, 117.619
425.593, 112.189
426.075, 101.619
426.557, 92.428
427.040, 87.012
427.522, 84.988
428.004, 86.775
428.486, 92.294
428.968, 98.751
429.450, 107.465
429.932, 114.040
430.414, 108.253
430.897, 85.141
431.379, 68.483
431.861, 69.966
432.343, 78.145
432.825, 79.228
433.307, 72.444
433.789, 67.907
434.271, 75.110
434.753, 93.470
435.236, 105.226
435.718, 106.439
436.200, 105.708
436.682, 102.966
437.164, 99.771
437.646, 98.513
438.128, 99.773
438.610, 100.580
439.092, 93.882
439.575, 77.481
440.057, 75.458
440.539, 105.217
441.021, 130.299
441.503, 125.771
441.985, 101.491
442.467, 82.881
442.949, 80.692
443.431, 87.994
443.914, 99.859
444.396, 115.548
444.878, 126.575
445.360, 128.814
445.842, 126.236
446.324, 126.274
446.806, 130.747
447.289, 129.870
447.771, 115.492
448.253, 99.743
448.735, 93.307
449.217, 95.907
449.699, 101.667
450.181, 107.010
450.663, 111.311
451.145, 110.396
451.628, 95.495
452.110, 87.922
452.592, 98.828
453.074, 112.362
453.556, 111.960
454.038, 95.998
454.520, 79.415
455.002, 80.285
455.484, 95.957
455.967, 99.534
456.449, 85.128
456.931, 70.099
457.413, 63.219
457.895, 62.555
458.377, 66.340
458.859, 76.850
459.341, 87.028
459.823, 91.594
460.306, 92.174
460.788, 93.239
461.270, 96.172
461.752, 97.728
462.234, 93.418
462.716, 81.551
463.198, 74.120
463.680, 71.328
464.163, 72.312
464.645, 80.482
465.127, 91.461
465.609, 96.795
466.091, 92.457
466.573, 84.060
467.055, 83.498
467.537, 94.604
468.020, 99.983
468.502, 90.747
468.984, 81.786
469.466, 83.085
469.948, 91.736
470.430, 96.905
470.912, 89.471
471.394, 78.103
471.876, 78.492
472.358, 90.148
472.841, 95.234
473.323, 82.971
473.805, 64.811
474.287, 63.541
474.769, 83.366
475.251, 98.163
475.733, 102.180
476.216, 100.168
476.698, 93.440
477.180, 83.902
477.662, 76.464
478.144, 74.419
478.626, 77.063
479.108, 81.342
479.590, 88.512
480.072, 95.268
480.555, 104.361
481.037, 110.802
481.519, 108.369
482.001, 97.900
482.483, 88.485
482.965, 89.217
483.447, 96.739
483.929, 99.651
484.411, 97.419
484.894, 92.873
485.376, 85.663
485.858, 77.819
486.340, 73.778
486.822, 75.500
487.304, 76.131
487.786, 71.268
488.268, 64.749
488.750, 61.005
489.233, 60.787
489.715, 63.981
490.197, 71.513
490.679, 82.577
491.161, 86.181
491.643, 69.601
492.125, 61.178
492.607, 74.964
493.090, 92.499
493.572, 92.469
494.054, 72.007
494.536, 51.500
495.018, 53.053
495.500, 73.224
495.982, 89.311
496.464, 101.788
496.947, 107.682
497.429, 101.255
497.911, 88.067
498.393, 78.044
498.875, 71.256
499.357, 69.189
499.839, 76.893
500.321, 88.178
500.803, 92.657
501.285, 88.815
501.768, 83.400
502.250, 82.302
502.732, 85.494
503.214, 91.196
503.696, 104.844
504.178, 114.478
504.660, 117.355
505.142, 115.611
505.625, 110.013
506.107, 101.312
506.589, 93.591
507.071, 91.069
507.553, 93.354
508.035, 98.191
508.517, 106.918
508.999, 114.355
509.482, 114.988
509.964, 113.003
510.446, 117.161
510.928, 131.820
511.410, 145.158
511.892, 150.583
512.374, 151.797
512.856, 152.932
513.338, 155.134
513.821, 160.590
514.303, 171.665
514.785, 188.137
515.267, 203.532
515.749, 219.948
516.231, 232.483
516.713, 239.455
517.195, 242.807
517.677, 243.403
518.160, 241.790
518.642, 240.062
519.124, 242.628
519.606, 247.016
520.088, 241.715
520.570, 224.505
521.052, 205.817
521.534, 191.165
522.016, 178.778
522.499, 163.856
522.981, 143.166
523.463, 127.439
523.945, 124.267
524.427, 125.396
524.909, 120.131
525.391, 108.666
525.873, 100.949
526.356, 105.466
526.838, 119.055
527.320, 123.584
527.802, 111.867
528.284, 103.282
528.766, 101.984
529.248, 103.548
529.730, 105.879
530.213, 108.221
530.695, 108.678
531.177, 104.826
531.659, 98.676
532.141, 93.482
532.623, 89.261
533.105, 87.285
533.587, 88.374
534.070, 91.746
534.552, 96.853
535.034, 106.429
535.516, 109.494
535.998, 98.440
536.480, 85.955
536.962, 79.661
537.444, 79.684
537.926, 84.622
538.409, 94.165
538.891, 105.465
539.373, 112.997
539.855, 117.549
540.337, 114.402
540.819, 93.165
541.301, 74.072
541.783, 72.631
542.265, 84.637
542.748, 94.772
543.230, 96.798
543.712, 95.603
544.194, 94.386
544.676, 93.462
545.158, 95.039
545.640, 100.221
546.122, 103.237
546.604, 95.217
547.087, 72.421
547.569, 62.604
548.051, 78.074
548.533, 91.262
549.015, 89.166
549.497, 81.490
549.979, 83.044
550.461, 98.250
550.943, 115.079
551.426, 120.690
551.908, 116.109
552.390, 105.296
552.872, 84.360
553.354, 71.900
553.836, 85.880
554.318, 115.596
554.800, 129.423
555.283, 120.079
555.765, 108.131
556.247, 93.570
556.729, 83.398
557.211, 89.547
557.693, 109.756
558.175, 127.539
558.657, 130.153
559.140, 121.048
559.622, 114.700
560.104, 110.656
560.586, 110.449
561.068, 119.653
561.550, 128.835
562.032, 130.702
562.514, 126.002
562.997, 121.873
563.479, 124.367
563.961, 127.090
564.443, 118.296
564.925, 102.051
565.407, 98.900
565.889, 118.212
566.371, 142.721
566.853, 145.663
567.336, 117.743
567.818, 106.901
568.300, 127.542
568.782, 147.111
569.264, 152.037
569.746, 149.021
570.228, 148.458
570.710, 153.816
571.192, 161.776
571.675, 169.511
572.157, 176.846
572.639, 183.276
573.121, 189.276
573.603, 191.096
574.085, 180.494
574.567, 165.510
575.049, 172.679
575.531, 216.800
576.014, 254.708
576.496, 270.344
576.978, 279.923
577.460, 297.129
577.942, 322.796
578.424, 352.675
578.906, 384.838
579.388, 416.983
579.870, 439.595
580.353, 447.638
580.835, 468.367
581.317, 512.925
581.799, 565.901
582.281, 616.532
582.763, 664.750
583.245, 711.167
583.727, 749.919
584.210, 792.983
584.692, 850.714
585.174, 918.711
585.656, 991.375
586.138, 1066.292
586.620, 1136.969
587.102, 1195.771
587.584, 1242.353
588.067, 1286.121
588.549, 1338.051
589.031, 1370.215
589.513, 1374.971
589.995, 1359.253
590.477, 1329.464
590.959, 1286.710
591.441, 1228.965
591.924, 1149.619
592.406, 1057.294
592.888, 959.923
593.370, 860.045
593.852, 772.020
594.334, 703.550
594.816, 645.654
595.298, 579.414
595.780, 494.012
596.263, 430.301
596.745, 400.807
597.227, 376.879
597.709, 345.773
598.191, 312.073
598.673, 284.862
599.155, 267.658
599.637, 254.755
600.119, 239.892
600.602, 224.053
601.084, 210.514
601.566, 199.288
602.048, 193.814
602.530, 200.060
603.012, 212.358
603.494, 209.206
603.976, 174.074
604.458, 152.343
604.941, 160.205
605.423, 173.376
605.905, 173.509
606.387, 162.637
606.869, 152.419
607.351, 149.630
607.833, 150.337
608.315, 146.972
608.797, 139.565
609.280, 135.445
609.762, 138.050
610.244, 139.087
610.726, 127.771
611.208, 107.748
611.690, 100.702
612.172, 121.512
612.654, 137.682
613.137, 136.296
613.619, 127.310
614.101, 121.655
614.583, 120.136
615.065, 115.615
615.547, 100.720
616.029, 81.222
616.511, 77.509
616.994, 92.954
617.476, 105.232
617.958, 108.992
618.440, 107.970
618.922, 104.020
619.404, 97.789
619.886, 93.881
620.368, 97.117
620.851, 98.459
621.333, 88.535
621.815, 75.715
622.297, 75.055
622.779, 88.377
623.261, 101.634
623.743, 99.974
624.225, 86.484
624.707, 82.633
625.190, 92.652
625.672, 99.531
626.154, 96.496
626.636, 89.752
627.118, 85.527
627.600, 83.768
628.082, 81.943
628.564, 79.212
629.046, 76.381
629.529, 71.527
630.011, 67.553
630.493, 71.375
630.975, 84.434
631.457, 99.597
631.939, 109.511
632.421, 114.181
632.903, 112.400
633.385, 101.857
633.868, 90.008
634.350, 74.179
634.832, 61.778
635.314, 62.799
635.796, 77.835
636.278, 90.390
636.760, 94.709
637.242, 95.007
637.724, 93.470
638.207, 90.638
638.689, 86.952
639.171, 82.629
639.653, 78.502
640.135, 74.870
640.617, 71.716
641.099, 75.584
641.581, 92.094
642.064, 103.705
642.546, 99.060
643.028, 89.278
643.510, 87.379
643.992, 94.601
644.474, 97.435
644.956, 88.076
645.438, 75.545
645.920, 64.602
646.403, 56.644
646.885, 54.665
647.367, 59.481
647.849, 66.758
648.331, 71.123
648.813, 72.566
649.295, 73.281
649.778, 72.420
650.260, 72.738
650.742, 75.789
651.224, 80.262
651.706, 84.778
