##NAMES=Dawsonite
##RRUFFID=R050645
##IDEAL CHEMISTRY=NaAlCO_3_(OH)_2_
##LOCALITY=Cerro Sapo, Cochabamba Department, Bolivia
##OWNER=RRUFF
##SOURCE=Marcus Origlieri
##DESCRIPTION=White fibrous aggregates associated with blue sodalite on pale green ankerite.
##STATUS=The identification of this mineral is confirmed by single-crystal X-ray diffraction and chemical analysis.
##URL=rruff.info/R050645
##MEASURED CHEMISTRY=Na_1.00_(Al_0.99_Fe^3+^_0.01_)_Î£=1_CO_3_(OH)_2_
142.9236, 1785.640
143.4057, 1863.791
143.8878, 1922.602
144.3699, 1993.801
144.8521, 2081.646
145.3342, 2181.253
145.8163, 2274.352
146.2984, 2358.367
146.7805, 2439.930
147.2626, 2524.172
147.7448, 2610.443
148.2269, 2700.080
148.7090, 2804.507
149.1911, 2920.949
149.6732, 2997.412
150.1554, 3032.374
150.6375, 3028.286
151.1196, 2987.259
151.6017, 2879.199
152.0838, 2764.529
152.5659, 2642.696
153.0481, 2508.930
153.5302, 2400.557
154.0123, 2326.156
154.4944, 2275.535
154.9765, 2238.345
155.4586, 2220.409
155.9408, 2209.547
156.4229, 2200.373
156.9050, 2179.329
157.3871, 2164.604
157.8692, 2184.033
158.3513, 2219.007
158.8335, 2238.919
159.3156, 2220.290
159.7977, 2198.437
160.2798, 2189.591
160.7619, 2200.974
161.2440, 2215.065
161.7262, 2226.383
162.2083, 2236.423
162.6904, 2249.012
163.1725, 2264.627
163.6546, 2283.603
164.1367, 2306.129
164.6189, 2333.839
165.1010, 2363.337
165.5831, 2389.650
166.0652, 2414.693
166.5473, 2448.955
167.0294, 2505.804
167.5116, 2570.523
167.9937, 2628.446
168.4758, 2659.789
168.9579, 2693.924
169.4400, 2750.022
169.9221, 2827.434
170.4043, 2914.789
170.8864, 3007.651
171.3685, 3104.789
171.8506, 3206.421
172.3327, 3307.733
172.8148, 3414.902
173.2970, 3531.887
173.7791, 3658.497
174.2612, 3798.240
174.7433, 3957.632
175.2254, 4130.921
175.7076, 4307.870
176.1897, 4480.109
176.6718, 4653.661
177.1539, 4840.171
177.6360, 5043.030
178.1181, 5252.231
178.6003, 5454.794
179.0824, 5657.070
179.5645, 5873.047
180.0466, 6108.814
180.5287, 6368.779
181.0108, 6659.094
181.4930, 6985.711
181.9751, 7337.673
182.4572, 7702.737
182.9393, 8082.284
183.4214, 8460.150
183.9035, 8816.772
184.3857, 9160.941
184.8678, 9530.531
185.3499, 9944.552
185.8320, 10370.87
186.3141, 10749.39
186.7962, 11083.43
187.2784, 11365.50
187.7605, 11598.37
188.2426, 11777.66
188.7247, 11890.03
189.2068, 11955.10
189.6889, 11940.37
190.1711, 11742.96
190.6532, 11357.81
191.1353, 10853.47
191.6174, 10275.78
192.0995, 9636.656
192.5816, 8974.278
193.0638, 8280.646
193.5459, 7574.889
194.0280, 6954.177
194.5101, 6419.567
194.9922, 5942.202
195.4743, 5478.046
195.9565, 5032.135
196.4386, 4632.493
196.9207, 4294.719
197.4028, 4017.380
197.8849, 3789.622
198.3671, 3615.028
198.8492, 3476.378
199.3313, 3348.217
199.8134, 3229.659
200.2955, 3124.557
200.7776, 3032.306
201.2598, 2952.612
201.7419, 2892.193
202.2240, 2852.820
202.7061, 2829.342
203.1882, 2811.967
203.6703, 2800.496
204.1525, 2795.504
204.6346, 2798.169
205.1167, 2809.131
205.5988, 2821.290
206.0809, 2832.619
206.5630, 2846.169
207.0452, 2867.776
207.5273, 2895.258
208.0094, 2937.574
208.4915, 3004.252
208.9736, 3099.519
209.4557, 3191.902
209.9379, 3274.664
210.4200, 3354.207
210.9021, 3455.246
211.3842, 3583.949
211.8663, 3720.734
212.3484, 3852.074
212.8306, 3976.194
213.3127, 4100.479
213.7948, 4227.312
214.2769, 4355.237
214.7590, 4477.053
215.2411, 4593.467
215.7233, 4700.818
216.2054, 4803.321
216.6875, 4918.234
217.1696, 4975.011
217.6517, 4962.293
218.1338, 4881.186
218.6160, 4745.629
219.0981, 4540.627
219.5802, 4300.679
220.0623, 4052.476
220.5444, 3785.878
221.0265, 3537.088
221.5087, 3309.366
221.9908, 3101.942
222.4729, 2921.551
222.9550, 2770.485
223.4371, 2641.788
223.9192, 2526.837
224.4014, 2429.650
224.8835, 2342.121
225.3656, 2264.383
225.8477, 2195.994
226.3298, 2133.048
226.8119, 2072.631
227.2941, 2019.864
227.7762, 1980.494
228.2583, 1960.257
228.7404, 1943.266
229.2225, 1925.876
229.7046, 1907.653
230.1868, 1893.098
230.6689, 1884.076
231.1510, 1877.252
231.6331, 1868.274
232.1152, 1856.154
232.5974, 1843.791
233.0795, 1831.666
233.5616, 1819.858
234.0437, 1808.252
234.5258, 1794.918
235.0079, 1783.182
235.4901, 1777.930
235.9722, 1780.960
236.4543, 1787.666
236.9364, 1798.471
237.4185, 1816.253
237.9006, 1825.002
238.3828, 1818.315
238.8649, 1806.609
239.3470, 1806.890
239.8291, 1824.314
240.3112, 1845.431
240.7933, 1865.532
241.2755, 1883.285
241.7576, 1904.896
242.2397, 1930.153
242.7218, 1959.277
243.2039, 1992.581
243.6860, 2029.536
244.1682, 2071.699
244.6503, 2120.344
245.1324, 2178.793
245.6145, 2232.952
246.0966, 2279.159
246.5787, 2322.951
247.0609, 2374.650
247.5430, 2434.414
248.0251, 2501.859
248.5072, 2577.748
248.9893, 2662.973
249.4714, 2751.135
249.9536, 2840.089
250.4357, 2932.905
250.9178, 3035.390
251.3999, 3142.863
251.8820, 3265.860
252.3641, 3412.501
252.8463, 3592.966
253.3284, 3762.122
253.8105, 3909.945
254.2926, 4049.912
254.7747, 4213.292
255.2568, 4418.020
255.7390, 4615.322
256.2211, 4786.239
256.7032, 4920.726
257.1853, 5057.116
257.6674, 5204.607
258.1495, 5348.362
258.6317, 5460.136
259.1138, 5555.162
259.5959, 5587.054
260.0780, 5533.248
260.5601, 5381.373
261.0422, 5176.437
261.5244, 4907.079
262.0065, 4590.870
262.4886, 4268.248
262.9707, 3922.053
263.4528, 3600.442
263.9349, 3322.243
264.4171, 3090.806
264.8992, 2886.970
265.3813, 2707.916
265.8634, 2554.538
266.3455, 2429.907
266.8276, 2338.564
267.3098, 2261.783
267.7919, 2190.623
268.2740, 2124.919
268.7561, 2068.293
269.2382, 2022.638
269.7203, 1985.738
270.2025, 1954.602
270.6846, 1931.714
271.1667, 1907.689
271.6488, 1875.596
272.1309, 1832.576
272.6130, 1800.988
273.0952, 1785.457
273.5773, 1776.861
274.0594, 1753.396
274.5415, 1709.596
275.0236, 1673.943
275.5057, 1664.769
275.9879, 1685.772
276.4700, 1694.661
276.9521, 1688.203
277.4342, 1673.143
277.9163, 1661.191
278.3984, 1652.672
278.8806, 1645.385
279.3627, 1637.084
279.8448, 1627.611
280.3269, 1625.753
280.8090, 1634.614
281.2911, 1645.974
281.7733, 1643.999
282.2554, 1627.291
282.7375, 1612.200
283.2196, 1606.220
283.7017, 1609.020
284.1838, 1615.458
284.6660, 1626.911
285.1481, 1638.479
285.6302, 1642.244
286.1123, 1638.149
286.5944, 1632.878
287.0765, 1628.793
287.5587, 1625.939
288.0408, 1626.058
288.5229, 1630.645
289.0050, 1633.359
289.4871, 1623.694
289.9692, 1602.605
290.4514, 1581.420
290.9335, 1560.346
291.4156, 1542.195
291.8977, 1543.217
292.3798, 1566.529
292.8619, 1592.657
293.3441, 1594.057
293.8262, 1574.919
294.3083, 1559.305
294.7904, 1561.170
295.2726, 1573.445
295.7547, 1578.179
296.2368, 1575.028
296.7189, 1567.180
297.2010, 1556.240
297.6831, 1543.087
298.1653, 1530.361
298.6474, 1516.400
299.1295, 1504.478
299.6116, 1502.591
300.0937, 1511.077
300.5758, 1519.831
301.0580, 1518.246
301.5401, 1509.725
302.0222, 1501.862
302.5043, 1495.016
302.9864, 1491.796
303.4685, 1498.597
303.9507, 1515.028
304.4328, 1530.264
304.9149, 1535.603
305.3970, 1534.015
305.8791, 1530.210
306.3612, 1523.389
306.8434, 1516.995
307.3255, 1514.295
307.8076, 1515.153
308.2897, 1518.434
308.7718, 1526.495
309.2539, 1535.553
309.7361, 1540.831
310.2182, 1539.729
310.7003, 1535.659
311.1824, 1528.618
311.6645, 1519.668
312.1466, 1514.269
312.6288, 1517.152
313.1109, 1524.186
313.5930, 1531.983
314.0751, 1543.231
314.5572, 1550.272
315.0393, 1546.026
315.5215, 1533.450
316.0036, 1522.857
316.4857, 1517.924
316.9678, 1517.076
317.4499, 1519.467
317.9320, 1526.699
318.4142, 1534.065
318.8963, 1541.772
319.3784, 1548.483
319.8605, 1551.051
320.3426, 1543.650
320.8247, 1535.193
321.3069, 1530.138
321.7890, 1528.818
322.2711, 1531.324
322.7532, 1541.854
323.2353, 1555.829
323.7174, 1564.684
324.1996, 1560.901
324.6817, 1556.684
325.1638, 1557.600
325.6459, 1567.740
326.1280, 1572.510
326.6101, 1565.978
327.0923, 1554.432
327.5744, 1547.050
328.0565, 1546.796
328.5386, 1548.283
329.0207, 1551.061
329.5028, 1556.053
329.9850, 1558.384
330.4671, 1556.265
330.9492, 1552.534
331.4313, 1550.077
331.9134, 1547.834
332.3955, 1548.587
332.8777, 1555.255
333.3598, 1568.325
333.8419, 1572.160
334.3240, 1558.714
334.8061, 1544.248
335.2882, 1544.832
335.7704, 1569.643
336.2525, 1588.493
336.7346, 1596.229
337.2167, 1593.596
337.6988, 1585.462
338.1809, 1566.739
338.6631, 1552.384
339.1452, 1556.927
339.6273, 1585.442
340.1094, 1607.669
340.5915, 1619.133
341.0736, 1622.146
341.5558, 1624.136
342.0379, 1625.353
342.5200, 1624.699
343.0021, 1619.090
343.4842, 1608.598
343.9663, 1605.363
344.4485, 1611.447
344.9306, 1623.971
345.4127, 1640.143
345.8948, 1659.989
346.3769, 1674.347
346.8590, 1671.056
347.3412, 1655.891
347.8233, 1658.064
348.3054, 1682.020
348.7875, 1712.757
349.2696, 1727.939
349.7517, 1730.666
350.2339, 1737.226
350.7160, 1758.623
351.1981, 1788.123
351.6802, 1813.987
352.1623, 1835.726
352.6444, 1853.666
353.1266, 1869.330
353.6087, 1881.331
354.0908, 1886.095
354.5729, 1869.735
355.0550, 1852.746
355.5371, 1862.786
356.0193, 1898.167
356.5014, 1930.870
356.9835, 1938.718
357.4656, 1932.969
357.9477, 1927.284
358.4298, 1926.116
358.9120, 1926.072
359.3941, 1926.669
359.8762, 1927.200
360.3583, 1924.443
360.8404, 1913.067
361.3225, 1899.941
361.8047, 1890.788
362.2868, 1890.887
362.7689, 1888.014
363.2510, 1876.704
363.7331, 1858.990
364.2152, 1839.777
364.6974, 1813.347
365.1795, 1791.577
365.6616, 1780.883
366.1437, 1786.433
366.6258, 1791.137
367.1079, 1791.312
367.5901, 1789.434
368.0722, 1789.217
368.5543, 1791.064
369.0364, 1794.677
369.5185, 1801.870
370.0006, 1814.813
370.4828, 1819.567
370.9649, 1806.777
371.4470, 1791.900
371.9291, 1790.710
372.4112, 1816.680
372.8933, 1833.592
373.3755, 1828.633
373.8576, 1804.707
374.3397, 1805.774
374.8218, 1844.658
375.3039, 1887.981
375.7861, 1907.571
376.2682, 1892.958
376.7503, 1895.493
377.2324, 1924.706
377.7145, 1972.147
378.1967, 2014.595
378.6788, 2051.064
379.1609, 2085.429
379.6430, 2120.512
380.1251, 2155.985
380.6072, 2186.946
381.0894, 2211.322
381.5715, 2235.061
382.0536, 2270.430
382.5357, 2316.744
383.0178, 2358.245
383.4999, 2384.653
383.9821, 2400.932
384.4642, 2424.167
384.9463, 2455.758
385.4284, 2484.555
385.9105, 2500.746
386.3926, 2505.808
386.8748, 2504.299
387.3569, 2500.597
387.8390, 2488.934
388.3211, 2459.168
388.8032, 2412.229
389.2853, 2361.544
389.7675, 2322.461
390.2496, 2282.076
390.7317, 2222.929
391.2138, 2127.390
391.6959, 2034.490
392.1780, 1968.181
392.6602, 1923.845
393.1423, 1887.848
393.6244, 1855.138
394.1065, 1827.679
394.5886, 1808.793
395.0707, 1804.016
395.5529, 1792.416
396.0350, 1755.566
396.5171, 1710.482
396.9992, 1682.012
397.4813, 1691.517
397.9634, 1703.357
398.4456, 1707.638
398.9277, 1703.059
399.4098, 1696.463
399.8919, 1683.435
400.3740, 1671.265
400.8561, 1666.055
401.3383, 1674.935
401.8204, 1680.571
402.3025, 1680.525
402.7846, 1675.471
403.2667, 1669.527
403.7488, 1662.278
404.2310, 1654.950
404.7131, 1648.182
405.1952, 1642.045
405.6773, 1635.889
406.1594, 1627.903
406.6415, 1621.626
407.1237, 1627.573
407.6058, 1648.582
408.0879, 1664.436
408.5700, 1662.416
409.0521, 1644.378
409.5342, 1636.423
410.0164, 1639.598
410.4985, 1647.896
410.9806, 1657.429
411.4627, 1667.291
411.9448, 1671.157
412.4269, 1663.674
412.9091, 1651.140
413.3912, 1646.518
413.8733, 1649.198
414.3554, 1652.950
414.8375, 1653.167
415.3196, 1651.263
415.8018, 1649.372
416.2839, 1647.837
416.7660, 1646.724
417.2481, 1646.351
417.7302, 1646.506
418.2123, 1646.665
418.6945, 1647.131
419.1766, 1647.145
419.6587, 1644.783
420.1408, 1638.683
420.6229, 1637.199
421.1050, 1646.908
421.5872, 1662.131
422.0693, 1676.417
422.5514, 1693.576
423.0335, 1703.907
423.5156, 1701.814
423.9977, 1687.611
424.4799, 1675.715
424.9620, 1663.578
425.4441, 1657.423
425.9262, 1661.118
426.4083, 1686.448
426.8904, 1704.005
427.3726, 1709.990
427.8547, 1708.242
428.3368, 1709.309
428.8189, 1715.701
429.3010, 1720.445
429.7831, 1719.335
430.2653, 1710.719
430.7474, 1710.465
431.2295, 1721.490
431.7116, 1735.872
432.1937, 1742.006
432.6758, 1738.935
433.1580, 1741.155
433.6401, 1755.101
434.1222, 1776.344
434.6043, 1789.536
435.0864, 1794.399
435.5685, 1797.686
436.0507, 1803.746
436.5328, 1812.381
437.0149, 1823.760
437.4970, 1839.219
437.9791, 1853.966
438.4612, 1862.333
438.9434, 1864.980
439.4255, 1864.055
439.9076, 1853.057
440.3897, 1843.339
440.8718, 1851.312
441.3539, 1879.323
441.8361, 1901.292
442.3182, 1898.523
442.8003, 1882.379
443.2824, 1865.801
443.7645, 1851.386
444.2466, 1838.799
444.7288, 1828.789
445.2109, 1820.840
445.6930, 1812.791
446.1751, 1804.295
446.6572, 1795.326
447.1393, 1785.521
447.6215, 1771.806
448.1036, 1762.566
448.5857, 1760.252
449.0678, 1761.620
449.5499, 1761.524
450.0320, 1759.936
450.5142, 1757.012
450.9963, 1753.050
451.4784, 1748.073
451.9605, 1739.660
452.4426, 1725.533
452.9247, 1712.348
453.4069, 1706.287
453.8890, 1707.958
454.3711, 1710.221
454.8532, 1712.411
455.3353, 1714.072
455.8174, 1712.946
456.2996, 1709.061
456.7817, 1707.307
457.2638, 1715.438
457.7459, 1727.498
458.2281, 1724.539
458.7102, 1703.604
459.1923, 1683.220
459.6744, 1686.038
460.1565, 1703.118
460.6386, 1715.909
461.1208, 1715.105
461.6029, 1709.711
462.0850, 1705.748
462.5671, 1703.317
463.0492, 1702.932
463.5313, 1708.242
464.0135, 1713.723
464.4956, 1714.852
464.9777, 1709.119
465.4598, 1703.125
465.9419, 1696.366
466.4240, 1690.904
466.9062, 1690.227
467.3883, 1701.228
467.8704, 1710.523
468.3525, 1713.680
468.8346, 1709.979
469.3167, 1708.634
469.7989, 1708.762
470.2810, 1711.972
470.7631, 1721.578
471.2452, 1744.090
471.7273, 1753.374
472.2094, 1742.648
472.6916, 1720.612
473.1737, 1708.283
473.6558, 1706.756
474.1379, 1708.242
474.6200, 1711.354
475.1021, 1715.340
475.5843, 1711.667
476.0664, 1699.090
476.5485, 1687.101
477.0306, 1687.584
477.5127, 1697.317
477.9948, 1706.623
478.4770, 1713.445
478.9591, 1717.523
479.4412, 1715.603
479.9233, 1709.520
480.4054, 1707.380
480.8875, 1717.516
481.3697, 1731.436
481.8518, 1742.002
482.3339, 1747.839
482.8160, 1752.155
483.2981, 1756.958
483.7802, 1760.906
484.2624, 1762.209
484.7445, 1758.290
485.2266, 1754.010
485.7087, 1748.740
486.1908, 1742.987
486.6729, 1743.200
487.1551, 1756.096
487.6372, 1768.701
488.1193, 1774.232
488.6014, 1768.240
489.0835, 1766.566
489.5656, 1772.513
490.0478, 1779.763
490.5299, 1776.759
491.0120, 1760.633
491.4941, 1747.915
491.9762, 1744.811
492.4583, 1749.103
492.9405, 1749.564
493.4226, 1745.906
493.9047, 1742.229
494.3868, 1741.265
494.8689, 1742.852
495.3510, 1746.853
495.8332, 1753.674
496.3153, 1761.402
496.7974, 1766.883
497.2795, 1771.508
497.7616, 1778.535
498.2437, 1796.182
498.7259, 1811.964
499.2080, 1812.448
499.6901, 1798.202
500.1722, 1789.300
500.6543, 1801.207
501.1364, 1818.437
501.6186, 1829.384
502.1007, 1828.154
502.5828, 1825.915
503.0649, 1820.051
503.5470, 1814.829
504.0291, 1819.591
504.5113, 1842.570
504.9934, 1865.319
505.4755, 1882.562
505.9576, 1893.940
506.4397, 1908.707
506.9218, 1928.235
507.4040, 1948.575
507.8861, 1965.913
508.3682, 1979.746
508.8503, 1995.768
509.3324, 2015.104
509.8145, 2036.044
510.2967, 2055.772
510.7788, 2074.266
511.2609, 2091.687
511.7430, 2109.227
512.2252, 2125.396
512.7073, 2133.317
513.1894, 2133.181
513.6715, 2140.348
514.1536, 2174.881
514.6357, 2220.896
515.1179, 2258.815
515.6000, 2284.740
516.0821, 2300.066
516.5642, 2304.926
517.0463, 2300.058
517.5284, 2286.942
518.0106, 2263.991
518.4927, 2234.710
518.9748, 2199.224
519.4569, 2156.649
519.9390, 2114.543
520.4211, 2071.294
520.9033, 2029.920
521.3854, 1992.369
521.8675, 1958.838
522.3496, 1927.962
522.8317, 1897.331
523.3138, 1870.791
523.7960, 1860.912
524.2781, 1871.266
524.7602, 1874.428
525.2423, 1854.224
525.7244, 1818.018
526.2065, 1799.573
526.6887, 1799.484
527.1708, 1807.509
527.6529, 1820.961
528.1350, 1835.333
528.6171, 1840.071
529.0992, 1830.808
529.5814, 1818.008
530.0635, 1808.460
530.5456, 1802.438
531.0277, 1800.291
531.5098, 1805.051
531.9919, 1811.187
532.4741, 1816.500
532.9562, 1820.757
533.4383, 1823.347
533.9204, 1822.244
534.4025, 1820.649
534.8846, 1820.724
535.3668, 1825.961
535.8489, 1826.979
536.3310, 1822.071
536.8131, 1814.084
537.2952, 1806.173
537.7773, 1796.191
538.2595, 1792.985
538.7416, 1800.828
539.2237, 1817.272
539.7058, 1829.228
540.1879, 1836.623
540.6700, 1842.041
541.1522, 1849.262
541.6343, 1856.321
542.1164, 1854.135
542.5985, 1840.652
543.0806, 1825.057
543.5627, 1813.147
544.0449, 1806.419
544.5270, 1808.134
545.0091, 1828.896
545.4912, 1849.284
545.9733, 1850.811
546.4554, 1839.221
546.9376, 1836.242
547.4197, 1867.066
547.9018, 1895.270
548.3839, 1898.343
548.8660, 1864.119
549.3481, 1842.261
549.8303, 1844.926
550.3124, 1856.069
550.7945, 1861.644
551.2766, 1857.863
551.7587, 1857.155
552.2408, 1861.863
552.7230, 1869.977
553.2051, 1875.986
553.6872, 1879.575
554.1693, 1883.179
554.6514, 1888.167
555.1335, 1894.146
555.6157, 1897.998
556.0978, 1899.534
556.5799, 1903.768
557.0620, 1920.999
557.5441, 1942.915
558.0262, 1951.990
558.5084, 1938.624
558.9905, 1926.408
559.4726, 1939.250
559.9547, 1964.922
560.4368, 1981.589
560.9189, 1970.968
561.4011, 1959.163
561.8832, 1953.456
562.3653, 1954.476
562.8474, 1966.739
563.3295, 2008.106
563.8116, 2046.151
564.2938, 2064.516
564.7759, 2053.517
565.2580, 2049.973
565.7401, 2055.345
566.2222, 2066.403
566.7043, 2078.384
567.1865, 2090.622
567.6686, 2110.041
568.1507, 2140.233
568.6328, 2176.620
569.1149, 2207.868
569.5970, 2234.956
570.0792, 2266.672
570.5613, 2312.728
571.0434, 2364.555
571.5255, 2405.708
572.0076, 2434.636
572.4897, 2475.616
572.9719, 2548.791
573.4540, 2640.273
573.9361, 2735.542
574.4182, 2831.798
574.9003, 2930.371
575.3824, 3028.572
575.8646, 3130.001
576.3467, 3239.810
576.8288, 3357.913
577.3109, 3484.823
577.7930, 3619.494
578.2751, 3762.106
578.7573, 3916.217
579.2394, 4084.287
579.7215, 4257.102
580.2036, 4437.068
580.6857, 4623.148
581.1678, 4783.710
581.6500, 4913.776
582.1321, 5033.444
582.6142, 5157.329
583.0963, 5287.614
583.5784, 5436.563
584.0605, 5617.733
584.5427, 5804.136
585.0248, 5971.688
585.5069, 6121.153
585.9890, 6255.076
586.4711, 6390.131
586.9532, 6495.341
587.4354, 6562.196
587.9175, 6591.129
588.3996, 6551.418
588.8817, 6423.347
589.3638, 6233.832
589.8459, 5994.841
590.3281, 5685.864
590.8102, 5371.516
591.2923, 5046.295
591.7744, 4725.238
592.2565, 4432.943
592.7386, 4170.523
593.2208, 3927.786
593.7029, 3701.961
594.1850, 3493.390
594.6671, 3306.396
595.1492, 3140.100
595.6313, 2994.186
596.1135, 2871.886
596.5956, 2768.708
597.0777, 2678.170
597.5598, 2599.670
598.0419, 2530.462
598.5240, 2464.965
599.0062, 2409.209
599.4883, 2369.247
599.9704, 2359.381
600.4525, 2344.312
600.9346, 2310.303
601.4167, 2267.904
601.8989, 2235.305
602.3810, 2217.404
602.8631, 2202.923
603.3452, 2192.338
603.8273, 2183.703
604.3094, 2163.223
604.7916, 2127.531
605.2737, 2094.081
605.7558, 2072.975
606.2379, 2062.951
606.7200, 2057.831
607.2021, 2058.156
607.6843, 2055.239
608.1664, 2034.292
608.6485, 2006.053
609.1306, 1989.406
609.6127, 1993.230
610.0948, 2000.730
610.5770, 2001.799
611.0591, 1999.143
611.5412, 1997.350
612.0233, 2003.299
612.5054, 2004.611
612.9875, 1993.861
613.4697, 1972.720
613.9518, 1959.842
614.4339, 1960.167
614.9160, 1961.208
615.3981, 1956.396
615.8802, 1944.854
616.3624, 1940.135
616.8445, 1944.041
617.3266, 1948.809
617.8087, 1945.208
618.2908, 1935.209
618.7729, 1929.366
619.2551, 1930.793
619.7372, 1932.836
620.2193, 1928.156
620.7014, 1918.361
621.1835, 1906.870
621.6656, 1889.712
622.1478, 1876.462
622.6299, 1874.934
623.1120, 1882.640
623.5941, 1888.560
624.0762, 1891.989
624.5583, 1891.070
625.0405, 1882.124
625.5226, 1862.634
626.0047, 1856.499
626.4868, 1871.335
626.9689, 1887.741
627.4510, 1888.620
627.9332, 1872.480
628.4153, 1860.543
628.8974, 1854.389
629.3795, 1853.506
629.8616, 1861.205
630.3438, 1874.320
630.8259, 1880.641
631.3080, 1869.926
631.7901, 1858.201
632.2722, 1868.277
632.7543, 1891.839
633.2365, 1904.004
633.7186, 1881.552
634.2007, 1855.964
634.6828, 1842.098
635.1649, 1841.199
635.6470, 1845.597
636.1292, 1863.090
636.6113, 1877.638
637.0934, 1879.571
637.5755, 1864.114
