##NAMES=Deerite
##RRUFFID=R070393
##IDEAL CHEMISTRY=Fe^2+^_6_Fe^3+^_3_(Si_6_O_17_)O_3_(OH)_5_
##LOCALITY=Laytonville quarry, Laytonville, Mendocino County, California, USA
##OWNER=RRUFF
##SOURCE=Michael Scott
##DESCRIPTION=Black bladed crystals embedded in quartz and fibrous riebeckite
##STATUS=The identification of this mineral has been confirmed by single-crystal X-ray diffraction.
##URL=rruff.info/R070393
159.1066, 1156.027
159.5887, 1170.079
160.0709, 1191.171
160.5530, 1214.351
161.0351, 1232.757
161.5172, 1246.080
161.9993, 1254.854
162.4814, 1256.157
162.9636, 1253.205
163.4457, 1251.726
163.9278, 1256.364
164.4099, 1262.936
164.8920, 1262.833
165.3741, 1253.681
165.8563, 1244.504
166.3384, 1244.198
166.8205, 1247.515
167.3026, 1245.018
167.7847, 1229.356
168.2668, 1206.566
168.7490, 1189.986
169.2311, 1181.525
169.7132, 1175.003
170.1953, 1164.196
170.6774, 1153.245
171.1595, 1149.718
171.6417, 1161.287
172.1238, 1180.749
172.6059, 1190.123
173.0880, 1187.378
173.5701, 1177.763
174.0522, 1156.584
174.5344, 1132.110
175.0165, 1117.417
175.4986, 1121.646
175.9807, 1137.937
176.4628, 1147.267
176.9449, 1146.387
177.4271, 1144.159
177.9092, 1145.399
178.3913, 1147.315
178.8734, 1145.716
179.3555, 1137.575
179.8376, 1125.476
180.3197, 1117.367
180.8019, 1116.250
181.2840, 1113.857
181.7661, 1104.680
182.2482, 1093.722
182.7303, 1087.458
183.2124, 1089.482
183.6946, 1097.421
184.1767, 1105.018
184.6588, 1113.674
185.1409, 1119.123
185.6230, 1116.840
186.1051, 1112.458
186.5873, 1113.083
187.0694, 1122.669
187.5515, 1137.286
188.0336, 1146.873
188.5157, 1150.274
188.9978, 1149.806
189.4800, 1143.939
189.9621, 1136.057
190.4442, 1129.713
190.9263, 1126.607
191.4084, 1125.301
191.8905, 1122.082
192.3727, 1114.811
192.8548, 1109.489
193.3369, 1106.590
193.8190, 1105.962
194.3011, 1108.178
194.7832, 1113.526
195.2654, 1120.099
195.7475, 1123.733
196.2296, 1123.301
196.7117, 1121.817
197.1938, 1119.941
197.6759, 1117.281
198.1581, 1113.474
198.6402, 1108.394
199.1223, 1102.268
199.6044, 1094.687
200.0865, 1081.593
200.5686, 1075.733
201.0508, 1084.727
201.5329, 1095.975
202.0150, 1098.425
202.4971, 1089.476
202.9792, 1076.564
203.4613, 1072.254
203.9435, 1082.015
204.4256, 1088.196
204.9077, 1089.484
205.3898, 1087.922
205.8719, 1084.082
206.3540, 1078.420
206.8362, 1072.149
207.3183, 1066.927
207.8004, 1063.325
208.2825, 1059.439
208.7646, 1055.662
209.2467, 1051.337
209.7289, 1045.943
210.2110, 1039.520
210.6931, 1032.440
211.1752, 1023.831
211.6573, 1010.703
212.1395, 1007.695
212.6216, 1026.969
213.1037, 1045.295
213.5858, 1050.311
214.0679, 1042.729
214.5500, 1031.269
215.0322, 1023.941
215.5143, 1020.983
215.9964, 1020.938
216.4785, 1029.665
216.9606, 1035.854
217.4427, 1033.078
217.9249, 1023.546
218.4070, 1014.052
218.8891, 1010.017
219.3712, 1011.517
219.8533, 1015.825
220.3354, 1029.386
220.8176, 1039.518
221.2997, 1040.527
221.7818, 1035.404
222.2639, 1030.829
222.7460, 1032.094
223.2281, 1038.140
223.7103, 1037.386
224.1924, 1019.451
224.6745, 1005.812
225.1566, 1001.075
225.6387, 1003.337
226.1208, 1011.139
226.6030, 1024.791
227.0851, 1040.686
227.5672, 1042.655
228.0493, 1013.133
228.5314, 993.2260
229.0135, 998.4318
229.4957, 1013.241
229.9778, 1018.640
230.4599, 1005.777
230.9420, 983.0530
231.4241, 971.4890
231.9062, 978.3672
232.3884, 984.6224
232.8705, 987.5741
233.3526, 989.0322
233.8347, 990.8378
234.3168, 993.5457
234.7989, 996.0019
235.2811, 996.4030
235.7632, 994.9908
236.2453, 990.6827
236.7274, 977.9651
237.2095, 966.3658
237.6916, 963.2679
238.1738, 969.6102
238.6559, 979.6344
239.1380, 986.9246
239.6201, 991.5652
240.1022, 993.0116
240.5843, 989.7043
241.0665, 984.4627
241.5486, 975.7324
242.0307, 965.1584
242.5128, 958.6200
242.9949, 964.6469
243.4770, 985.1042
243.9592, 995.5348
244.4413, 983.8931
244.9234, 973.1836
245.4055, 973.4240
245.8876, 981.8770
246.3697, 990.1829
246.8519, 992.4940
247.3340, 989.3386
247.8161, 985.1800
248.2982, 978.1296
248.7803, 972.6878
249.2624, 969.5745
249.7446, 969.0174
250.2267, 972.0132
250.7088, 980.5315
251.1909, 991.3921
251.6730, 994.7773
252.1551, 986.8431
252.6373, 979.0869
253.1194, 974.8821
253.6015, 972.8757
254.0836, 971.6190
254.5657, 970.5040
255.0478, 970.2874
255.5300, 973.3094
256.0121, 981.3479
256.4942, 985.7753
256.9763, 980.2396
257.4584, 972.3188
257.9406, 967.3682
258.4227, 966.5535
258.9048, 967.3401
259.3869, 967.4882
259.8690, 967.0013
260.3511, 965.5173
260.8333, 960.3094
261.3154, 956.5796
261.7975, 959.6805
262.2796, 969.1967
262.7617, 977.2908
263.2438, 976.0436
263.7260, 967.5809
264.2081, 965.0675
264.6902, 973.4587
265.1723, 982.4178
265.6544, 984.4942
266.1365, 981.0144
266.6187, 976.0181
267.1008, 971.6208
267.5829, 966.9568
268.0650, 958.6720
268.5471, 944.5305
269.0292, 933.8606
269.5114, 936.3442
269.9935, 946.5262
270.4756, 955.9603
270.9577, 964.2056
271.4398, 969.4032
271.9219, 968.4337
272.4041, 961.1380
272.8862, 952.4899
273.3683, 942.8597
273.8504, 934.5605
274.3325, 931.8360
274.8146, 937.4695
275.2968, 943.9954
275.7789, 946.9746
276.2610, 946.7958
276.7431, 944.6307
277.2252, 939.9099
277.7073, 934.7057
278.1895, 932.1471
278.6716, 931.9868
279.1537, 934.3692
279.6358, 941.6763
280.1179, 951.0588
280.6000, 957.7391
281.0822, 960.6815
281.5643, 960.8997
282.0464, 958.9050
282.5285, 954.5090
283.0106, 950.4609
283.4927, 946.2761
283.9749, 943.0706
284.4570, 943.1508
284.9391, 946.2488
285.4212, 947.7440
285.9033, 943.2699
286.3854, 932.9415
286.8676, 925.6581
287.3497, 919.5316
287.8318, 917.8956
288.3139, 926.4024
288.7960, 941.1305
289.2781, 951.9377
289.7603, 953.1069
290.2424, 946.3192
290.7245, 938.3516
291.2066, 923.8911
291.6887, 914.8047
292.1708, 917.9677
292.6530, 925.6782
293.1351, 926.8453
293.6172, 917.7449
294.0993, 905.7149
294.5814, 904.2012
295.0635, 922.1997
295.5457, 933.9818
296.0278, 938.9639
296.5099, 938.6594
296.9920, 931.2504
297.4741, 918.2296
297.9562, 905.9634
298.4384, 901.3270
298.9205, 905.5804
299.4026, 908.8092
299.8847, 909.3998
300.3668, 910.6028
300.8489, 915.3381
301.3310, 921.5573
301.8131, 924.6902
302.2953, 921.2986
302.7774, 912.8752
303.2595, 907.1900
303.7416, 906.7586
304.2237, 905.4330
304.7058, 898.4006
305.1880, 891.4221
305.6701, 893.0137
306.1522, 906.6962
306.6343, 922.4208
307.1164, 920.6749
307.5985, 894.2471
308.0807, 877.3218
308.5628, 886.3339
309.0449, 899.5973
309.5270, 904.6138
310.0091, 900.2853
310.4912, 893.3171
310.9734, 888.8291
311.4555, 886.6642
311.9376, 885.3560
312.4197, 885.3854
312.9018, 885.4638
313.3839, 885.6215
313.8661, 885.3022
314.3482, 882.8931
314.8303, 875.5701
315.3124, 866.6312
315.7945, 861.5530
316.2766, 860.4130
316.7588, 862.8493
317.2409, 871.6960
317.7230, 883.0753
318.2051, 890.9411
318.6872, 895.3478
319.1693, 894.7284
319.6515, 884.6144
320.1336, 867.3680
320.6157, 852.7710
321.0978, 843.0389
321.5799, 839.2776
322.0620, 846.0338
322.5442, 865.4342
323.0263, 879.8427
323.5084, 880.3438
323.9905, 874.7988
324.4726, 873.9853
324.9547, 879.6887
325.4369, 885.6802
325.9190, 885.4655
326.4011, 878.2399
326.8832, 874.6245
327.3653, 877.8320
327.8474, 881.5360
328.3296, 882.1703
328.8117, 880.2841
329.2938, 877.9623
329.7759, 876.3090
330.2580, 875.3505
330.7401, 875.2695
331.2223, 876.1110
331.7044, 877.7932
332.1865, 882.6932
332.6686, 887.3521
333.1507, 886.5307
333.6328, 879.1235
334.1150, 870.7338
334.5971, 861.0101
335.0792, 874.2006
335.5613, 882.4267
336.0434, 885.9549
336.5255, 870.7150
337.0077, 879.7106
337.4898, 878.9935
337.9719, 877.8781
338.4540, 890.2844
338.9361, 877.7742
339.4182, 889.9661
339.9004, 892.2977
340.3825, 899.1419
340.8646, 896.2137
341.3467, 896.3040
341.8288, 906.1696
342.3109, 910.6226
342.7931, 906.5698
343.2752, 913.7009
343.7573, 900.8494
344.2394, 905.5329
344.7215, 917.7819
345.2036, 914.2202
345.6858, 912.1470
346.1679, 907.6534
346.6500, 904.0782
347.1321, 908.2270
347.6142, 916.4590
348.0963, 917.1717
348.5785, 906.6710
349.0606, 896.6713
349.5427, 899.1209
350.0248, 909.8272
350.5069, 916.3822
350.9890, 913.7820
351.4712, 908.5207
351.9533, 904.6433
352.4354, 902.3527
352.9175, 903.0524
353.3996, 908.4438
353.8817, 916.0378
354.3639, 919.2834
354.8460, 918.4517
355.3281, 914.1125
355.8102, 899.8113
356.2923, 885.0081
356.7744, 883.9112
357.2566, 898.7184
357.7387, 916.1131
358.2208, 920.6623
358.7029, 909.0896
359.1850, 902.6983
359.6671, 905.6530
360.1493, 908.8518
360.6314, 907.3792
361.1135, 902.9791
361.5956, 900.1118
362.0777, 901.5068
362.5598, 905.9859
363.0420, 909.3563
363.5241, 911.9217
364.0062, 912.6826
364.4883, 910.1069
364.9704, 906.7900
365.4525, 904.8253
365.9347, 904.6801
366.4168, 905.5042
366.8989, 906.9476
367.3810, 909.1747
367.8631, 909.1830
368.3452, 904.2055
368.8274, 900.1989
369.3095, 899.2756
369.7916, 901.5106
370.2737, 907.3212
370.7558, 919.7361
371.2379, 933.5178
371.7201, 939.6299
372.2022, 937.6493
372.6843, 931.5919
373.1664, 918.6220
373.6485, 905.3693
374.1306, 902.6641
374.6128, 914.0424
375.0949, 924.3826
375.5770, 922.3319
376.0591, 914.2661
376.5412, 914.3957
377.0233, 926.4636
377.5055, 940.1522
377.9876, 945.1648
378.4697, 940.4164
378.9518, 934.1662
379.4339, 922.6033
379.9160, 913.0704
380.3982, 912.5702
380.8803, 918.0403
381.3624, 919.8429
381.8445, 912.1362
382.3266, 899.4132
382.8087, 895.3337
383.2909, 910.0336
383.7730, 920.5204
384.2551, 923.6263
384.7372, 924.1158
385.2193, 926.4011
385.7014, 930.8420
386.1836, 934.1458
386.6657, 932.2042
387.1478, 924.6138
387.6299, 919.6547
388.1120, 917.8388
388.5941, 918.3533
389.0763, 924.2153
389.5584, 931.3738
390.0405, 933.2650
390.5226, 926.4727
391.0047, 915.1271
391.4868, 904.0244
391.9690, 892.6534
392.4511, 887.0775
392.9332, 891.9714
393.4153, 900.8533
393.8974, 908.4979
394.3795, 914.7695
394.8617, 918.0932
395.3438, 916.1309
395.8259, 911.2738
396.3080, 906.1644
396.7901, 900.8036
397.2722, 900.0302
397.7544, 910.9083
398.2365, 929.2700
398.7186, 934.1974
399.2007, 911.5435
399.6828, 891.5763
400.1649, 888.6922
400.6471, 895.5697
401.1292, 899.8356
401.6113, 897.4268
402.0934, 892.6829
402.5755, 891.9352
403.0576, 896.2585
403.5398, 901.6824
404.0219, 913.4742
404.5040, 921.4295
404.9861, 917.8245
405.4682, 905.9041
405.9503, 893.9251
406.4325, 886.8970
406.9146, 884.1448
407.3967, 883.4365
407.8788, 884.7038
408.3609, 888.3058
408.8430, 900.6897
409.3252, 911.1124
409.8073, 907.9340
410.2894, 890.4094
410.7715, 873.3700
411.2536, 872.3311
411.7357, 883.6199
412.2179, 887.0806
412.7000, 877.6934
413.1821, 869.4473
413.6642, 876.4625
414.1463, 891.2589
414.6284, 898.5653
415.1106, 891.3755
415.5927, 881.1183
416.0748, 875.3526
416.5569, 873.2444
417.0390, 872.3405
417.5211, 871.8619
418.0033, 872.2181
418.4854, 874.7633
418.9675, 881.6215
419.4496, 882.7932
419.9317, 870.2179
420.4138, 858.1810
420.8960, 858.6336
421.3781, 868.6973
421.8602, 876.7286
422.3423, 874.8736
422.8244, 865.9180
423.3065, 862.0819
423.7887, 867.9192
424.2708, 871.8839
424.7529, 871.8054
425.2350, 870.2158
425.7171, 867.9907
426.1992, 865.8560
426.6814, 866.1046
427.1635, 874.2556
427.6456, 888.9520
428.1277, 890.9884
428.6098, 871.2006
429.0919, 856.4437
429.5741, 868.2452
430.0562, 891.7028
430.5383, 903.9977
431.0204, 896.0834
431.5025, 884.0096
431.9846, 881.1679
432.4668, 885.2260
432.9489, 887.7417
433.4310, 886.3355
433.9131, 883.6112
434.3952, 882.4852
434.8773, 883.1116
435.3595, 884.0786
435.8416, 886.7937
436.3237, 888.4989
436.8058, 884.1155
437.2879, 877.2681
437.7701, 878.3943
438.2522, 893.4706
438.7343, 915.5659
439.2164, 926.7984
439.6985, 920.4958
440.1806, 914.7333
440.6628, 908.7197
441.1449, 904.2363
441.6270, 902.9558
442.1091, 904.4247
442.5912, 906.4952
443.0733, 907.0020
443.5555, 907.0690
444.0376, 913.0168
444.5197, 929.6805
445.0018, 938.6012
445.4839, 923.6065
445.9660, 901.9798
446.4482, 890.8521
446.9303, 893.2708
447.4124, 898.8320
447.8945, 901.2124
448.3766, 902.2430
448.8587, 906.5790
449.3409, 915.1484
449.8230, 922.7902
450.3051, 925.0529
450.7872, 922.5010
451.2693, 921.6883
451.7514, 925.0073
452.2336, 927.1525
452.7157, 925.7892
453.1978, 922.4185
453.6799, 918.4470
454.1620, 914.4948
454.6441, 911.8918
455.1263, 912.4531
455.6084, 916.5426
456.0905, 921.7183
456.5726, 931.1643
457.0547, 938.3397
457.5368, 941.1570
458.0190, 940.3729
458.5011, 936.3629
458.9832, 928.5159
459.4653, 921.2321
459.9474, 921.4194
460.4295, 929.1764
460.9117, 938.1345
461.3938, 949.7169
461.8759, 958.4806
462.3580, 957.9945
462.8401, 949.9667
463.3222, 943.0952
463.8044, 939.9603
464.2865, 928.8845
464.7686, 941.7219
465.2507, 949.5947
465.7328, 952.7698
466.2149, 937.1767
466.6971, 945.8191
467.1792, 944.7488
467.6613, 943.2802
468.1434, 955.3333
468.6255, 942.4700
469.1076, 954.3087
469.5898, 956.2870
470.0719, 962.7780
470.5540, 959.4966
471.0361, 959.2337
471.5182, 968.7462
472.0003, 972.8459
472.4825, 968.4400
472.9646, 975.2178
473.4467, 947.1026
473.9288, 928.9307
474.4109, 928.0290
474.8930, 943.4930
475.3752, 957.8979
475.8573, 962.4093
476.3394, 959.0782
476.8215, 948.5119
477.3036, 930.6902
477.7857, 916.4819
478.2679, 911.4987
478.7500, 913.4307
479.2321, 917.6427
479.7142, 926.4946
480.1963, 931.4966
480.6784, 927.5065
481.1606, 921.3453
481.6427, 919.9108
482.1248, 922.9997
482.6069, 925.1485
483.0890, 921.7587
483.5711, 914.5715
484.0533, 913.8471
484.5354, 927.3898
485.0175, 934.4068
485.4996, 928.1978
485.9817, 917.8079
486.4638, 908.3480
486.9460, 901.3393
487.4281, 899.2040
487.9102, 907.2522
488.3923, 921.4682
488.8744, 928.5773
489.3565, 927.1085
489.8387, 926.7527
490.3208, 934.8870
490.8029, 945.7678
491.2850, 946.2887
491.7671, 930.6254
492.2492, 921.5277
492.7314, 935.4911
493.2135, 955.1220
493.6956, 959.4649
494.1777, 947.5282
494.6598, 932.0865
495.1419, 922.6252
495.6241, 918.1653
496.1062, 911.9916
496.5883, 900.2563
497.0704, 892.4054
497.5525, 891.0419
498.0346, 892.5300
498.5168, 894.7003
498.9989, 896.8448
499.4810, 898.1599
499.9631, 896.6923
500.4452, 893.9118
500.9273, 896.4761
501.4095, 906.0774
501.8916, 913.8003
502.3737, 914.5317
502.8558, 911.8188
503.3379, 911.6284
503.8200, 914.8656
504.3022, 917.2075
504.7843, 915.0510
505.2664, 912.2850
505.7485, 915.0563
506.2306, 922.7569
506.7127, 928.0712
507.1949, 925.8719
507.6770, 917.7644
508.1591, 910.7250
508.6412, 903.8807
509.1233, 899.5503
509.6054, 898.4357
510.0876, 899.2740
510.5697, 902.5176
511.0518, 907.1945
511.5339, 910.0893
512.0161, 907.9210
512.4982, 902.9348
512.9803, 901.3458
513.4624, 903.5504
513.9445, 907.0623
514.4266, 912.6887
514.9088, 917.7345
515.3909, 918.2577
515.8730, 913.8727
516.3551, 910.2244
516.8372, 909.6852
517.3193, 910.1295
517.8015, 909.7382
518.2836, 908.5123
518.7657, 906.6658
519.2478, 904.1003
519.7299, 901.9792
520.2120, 903.3340
520.6942, 911.2358
521.1763, 916.7641
521.6584, 918.9316
522.1405, 919.9491
522.6226, 921.2677
523.1047, 922.4243
523.5869, 921.8766
524.0690, 918.4865
524.5511, 913.7355
525.0332, 908.0063
525.5153, 901.3526
525.9974, 903.5005
526.4796, 921.0709
526.9617, 941.1546
527.4438, 950.3585
527.9259, 949.7651
528.4080, 944.9072
528.8901, 930.4873
529.3723, 917.9640
529.8544, 914.4955
530.3365, 917.7258
530.8186, 924.0668
531.3007, 932.1296
531.7828, 939.2631
532.2650, 941.0739
532.7471, 935.9715
533.2292, 935.6194
533.7113, 946.5455
534.1934, 954.7552
534.6755, 954.8840
535.1577, 950.2631
535.6398, 944.8254
536.1219, 939.4181
536.6040, 935.7593
537.0861, 935.3724
537.5682, 938.0109
538.0504, 943.9718
538.5325, 953.8524
539.0146, 962.4033
539.4967, 965.0783
539.9788, 963.3389
540.4609, 964.5330
540.9431, 973.5251
541.4252, 978.5009
541.9073, 974.3702
542.3894, 966.9243
542.8715, 960.0005
543.3536, 955.0606
543.8358, 954.5168
544.3179, 961.5489
544.8000, 973.2827
545.2821, 976.1497
545.7642, 966.2712
546.2463, 958.1175
546.7285, 954.4559
547.2106, 954.6973
547.6926, 960.2070
548.1747, 970.3214
548.6569, 978.7246
549.1390, 982.3893
549.6211, 983.1108
550.1032, 982.1445
550.5853, 979.8010
551.0674, 976.6714
551.5496, 972.6599
552.0317, 969.6048
552.5138, 970.7968
552.9959, 978.2195
553.4780, 983.2003
553.9601, 981.7529
554.4423, 982.4953
554.9244, 993.4503
555.4065, 1007.470
555.8886, 1011.779
556.3707, 1001.441
556.8528, 988.1671
557.3350, 986.4396
557.8171, 994.9575
558.2992, 1003.939
558.7813, 1013.668
559.2634, 1019.915
559.7455, 1016.872
560.2277, 1008.565
560.7098, 1007.939
561.1919, 1019.248
561.6740, 1030.934
562.1561, 1041.456
562.6382, 1049.316
563.1204, 1050.833
563.6025, 1047.253
564.0846, 1045.510
564.5667, 1050.895
565.0488, 1061.687
565.5309, 1071.585
566.0131, 1081.457
566.4952, 1088.227
566.9773, 1088.998
567.4594, 1088.335
567.9415, 1087.743
568.4236, 1087.913
568.9058, 1091.050
569.3879, 1099.754
569.8700, 1110.353
570.3521, 1120.299
570.8342, 1129.177
571.3163, 1135.441
571.7985, 1138.566
572.2806, 1139.366
572.7627, 1138.261
573.2448, 1134.696
573.7269, 1134.526
574.2090, 1142.032
574.6912, 1147.646
575.1733, 1147.621
575.6554, 1145.177
576.1375, 1143.058
576.6196, 1142.219
577.1017, 1144.094
577.5839, 1152.752
578.0660, 1165.137
578.5481, 1170.794
579.0302, 1169.227
579.5123, 1163.734
579.9944, 1154.464
580.4766, 1143.297
580.9587, 1133.416
581.4408, 1124.097
581.9229, 1118.248
582.4050, 1122.169
582.8871, 1124.414
583.3693, 1117.253
583.8514, 1102.392
584.3335, 1082.535
584.8156, 1058.918
585.2977, 1037.526
585.7798, 1029.528
586.2620, 1036.332
586.7441, 1040.986
587.2262, 1045.252
587.7083, 1043.035
588.1904, 1023.810
588.6725, 997.7108
589.1547, 981.9020
589.6368, 981.5001
590.1189, 983.7057
590.6010, 982.7105
591.0831, 980.6646
591.5652, 980.4316
592.0474, 982.0694
592.5295, 984.5068
593.0116, 987.5178
593.4937, 989.3922
593.9758, 983.9178
594.4579, 966.0185
594.9401, 952.9167
595.4222, 950.6852
595.9043, 949.4298
596.3864, 943.6727
596.8685, 935.0099
597.3506, 928.2785
597.8328, 926.3919
598.3149, 924.8170
598.7970, 918.9575
599.2791, 910.2391
599.7612, 902.2990
600.2433, 895.8076
600.7255, 889.6356
601.2076, 882.6211
601.6897, 875.0729
602.1718, 869.5023
602.6539, 865.9169
603.1360, 864.4967
603.6182, 866.7889
604.1003, 870.0029
604.5824, 873.6619
605.0645, 876.5598
605.5466, 875.0328
606.0287, 864.2307
606.5109, 851.6083
606.9930, 849.8603
607.4751, 857.5471
607.9572, 863.2445
608.4393, 864.0726
608.9214, 862.3231
609.4036, 858.9628
609.8857, 854.0062
610.3678, 855.8839
610.8499, 877.6292
611.3320, 889.0865
611.8141, 872.6193
612.2963, 849.2369
612.7784, 841.6797
613.2605, 850.9839
613.7426, 861.1771
614.2247, 859.6851
614.7068, 850.9728
615.1890, 846.2027
615.6711, 845.5896
616.1532, 844.0006
616.6353, 839.6998
617.1174, 834.3837
617.5995, 829.5269
618.0817, 825.1310
618.5638, 822.3770
619.0459, 822.7206
619.5280, 823.0864
620.0101, 822.2017
620.4922, 820.7158
620.9744, 820.0632
621.4565, 820.1581
621.9386, 818.4838
622.4207, 811.0959
622.9028, 800.8381
623.3849, 801.4097
623.8671, 815.8152
624.3492, 822.7766
624.8313, 811.3951
625.3134, 794.9756
625.7955, 790.7564
626.2776, 797.9066
626.7598, 801.4652
627.2419, 794.1365
627.7240, 788.4385
628.2061, 794.6589
628.6882, 804.9071
629.1703, 805.9236
629.6525, 795.6227
630.1346, 784.4636
630.6167, 783.7817
631.0988, 790.8743
631.5809, 789.1400
632.0630, 775.2583
632.5452, 765.8693
633.0273, 769.8233
633.5094, 776.6689
633.9915, 772.4429
634.4736, 757.9688
634.9557, 750.5900
635.4379, 760.2092
635.9200, 771.0034
636.4021, 774.1724
636.8842, 772.6702
637.3663, 771.8587
637.8484, 772.8054
638.3306, 771.8264
638.8127, 763.7242
639.2948, 750.7705
639.7769, 748.2130
640.2590, 759.2311
640.7411, 769.6045
641.2233, 777.5487
641.7054, 780.8856
642.1875, 775.0982
642.6696, 761.1573
643.1517, 751.5213
643.6339, 752.3024
644.1160, 754.2225
644.5981, 751.8329
645.0802, 747.4261
645.5623, 744.0652
646.0444, 742.6937
646.5266, 743.9669
647.0087, 749.7192
647.4908, 757.9104
647.9729, 757.1496
648.4550, 743.9777
648.9371, 736.0763
649.4193, 741.2838
649.9014, 749.6996
650.3835, 752.1948
650.8656, 749.3908
651.3477, 745.3170
651.8298, 735.2867
652.3120, 730.1947
652.7941, 740.6891
653.2762, 756.4537
653.7583, 763.0359
654.2404, 758.8387
654.7225, 752.5307
655.2047, 751.1427
