##NAMES=Delafossite
##RRUFFID=R050403
##IDEAL CHEMISTRY=Cu^1+^Fe^3+^O_2_
##LOCALITY=Cole Shaft, Bisbee, Cochise County, Arizona, USA
##OWNER=RRUFF
##SOURCE=Marcus Origlieri
##DESCRIPTION=Black bladed rosettes
##STATUS=The identification of this mineral has been confirmed by X-ray diffraction and chemical analysis
##URL=rruff.info/R050403
##MEASURED CHEMISTRY=Cu^1+^(Fe^3+^_0.94_Al_0.06_)O_2_
92.52344, 55.17921
93.00555, 55.43077
93.48767, 55.45049
93.96979, 55.96207
94.45190, 56.58801
94.93402, 57.38865
95.41614, 57.32838
95.89825, 56.38605
96.38037, 54.92382
96.86249, 53.12653
97.34460, 51.59347
97.82672, 50.52178
98.30884, 49.50821
98.79095, 48.40990
99.27307, 47.24828
99.75519, 46.21379
100.2373, 45.62276
100.7194, 45.39696
101.2015, 44.95171
101.6837, 44.06339
102.1658, 43.12738
102.6479, 42.40267
103.1300, 41.88543
103.6121, 41.54556
104.0942, 41.51136
104.5764, 41.62638
105.0585, 41.65286
105.5406, 41.25599
106.0227, 40.68044
106.5048, 40.78010
106.9869, 42.16552
107.4691, 43.34671
107.9512, 43.71842
108.4333, 43.36561
108.9154, 42.52700
109.3975, 41.25412
109.8796, 39.42808
110.3618, 37.93413
110.8439, 37.05100
111.3260, 36.25422
111.8081, 35.19088
112.2902, 33.89403
112.7723, 32.73323
113.2544, 32.25303
113.7366, 32.89386
114.2187, 33.47841
114.7008, 34.17559
115.1829, 34.74597
115.6650, 34.92966
116.1471, 34.63280
116.6293, 34.02274
117.1114, 33.44806
117.5935, 32.79255
118.0756, 32.36107
118.5577, 32.44429
119.0398, 32.82568
119.5220, 32.95228
120.0041, 32.47059
120.4862, 31.66356
120.9683, 31.16647
121.4504, 31.00659
121.9325, 31.09048
122.4147, 31.48787
122.8968, 32.23932
123.3789, 32.80776
123.8610, 32.71627
124.3431, 32.36077
124.8252, 32.11973
125.3074, 32.17586
125.7895, 32.32747
126.2716, 32.09602
126.7537, 31.15499
127.2358, 30.41914
127.7179, 30.30349
128.2001, 30.50027
128.6822, 30.58969
129.1643, 30.28476
129.6464, 29.62926
130.1285, 29.20094
130.6107, 29.27777
131.0928, 29.33071
131.5749, 29.27370
132.0570, 29.09476
132.5391, 28.79346
133.0212, 28.35307
133.5034, 27.73299
133.9855, 27.25457
134.4676, 26.99000
134.9497, 26.77668
135.4318, 26.50408
135.9139, 26.17045
136.3960, 25.86986
136.8782, 25.70907
137.3603, 25.71007
137.8424, 25.79597
138.3245, 26.03599
138.8066, 26.33100
139.2887, 26.60838
139.7709, 26.88192
140.2530, 27.01691
140.7351, 26.74112
141.2172, 26.09997
141.6993, 25.50043
142.1814, 25.13848
142.6636, 24.96579
143.1457, 24.80817
143.6278, 24.65685
144.1099, 24.47956
144.5920, 24.20252
145.0741, 23.83258
145.5563, 23.53810
146.0384, 23.52306
146.5205, 23.83112
147.0026, 24.04461
147.4847, 24.05579
147.9668, 23.97053
148.4490, 23.79550
148.9311, 23.54459
149.4132, 23.29565
149.8953, 23.17558
150.3774, 23.25513
150.8595, 23.32629
151.3417, 23.35178
151.8238, 23.37376
152.3059, 23.44309
152.7880, 23.57510
153.2701, 23.72553
153.7522, 23.77987
154.2344, 23.56315
154.7165, 23.44615
155.1986, 23.55908
155.6807, 23.74766
156.1628, 23.81641
156.6449, 23.66454
157.1271, 23.33587
157.6092, 22.99866
158.0913, 22.51375
158.5734, 22.16724
159.0555, 22.14326
159.5376, 22.33742
160.0198, 22.46847
160.5019, 22.35900
160.9840, 22.07945
161.4661, 21.91220
161.9482, 21.87459
162.4303, 21.92094
162.9125, 22.10047
163.3946, 22.40353
163.8767, 22.57817
164.3588, 22.36338
164.8409, 21.94979
165.3230, 21.65305
165.8052, 21.51963
166.2873, 21.53020
166.7694, 21.70547
167.2515, 22.10288
167.7336, 22.47047
168.2157, 22.68668
168.6979, 22.80542
169.1800, 22.87070
169.6621, 22.87534
170.1442, 22.85711
170.6263, 22.95331
171.1084, 23.35007
171.5906, 23.54735
172.0727, 23.24128
172.5548, 22.69623
173.0369, 22.28209
173.5190, 22.23730
174.0011, 22.51851
174.4833, 22.76071
174.9654, 22.94701
175.4475, 23.10603
175.9296, 23.23203
176.4117, 23.33470
176.8938, 23.44227
177.3760, 23.58817
177.8581, 23.77790
178.3402, 23.77993
178.8223, 23.44516
179.3044, 23.09302
179.7865, 22.78776
180.2687, 22.55385
180.7508, 22.42579
181.2329, 22.44618
181.7150, 22.63275
182.1971, 22.77656
182.6792, 22.91206
183.1614, 22.98580
183.6435, 22.91298
184.1256, 22.71168
184.6077, 22.54235
185.0898, 22.57142
185.5719, 22.81388
186.0541, 22.95020
186.5362, 22.76966
187.0183, 22.59833
187.5004, 22.51772
187.9825, 22.88044
188.4646, 23.05704
188.9468, 23.05752
189.4289, 22.35444
189.9110, 22.55988
190.3931, 22.40123
190.8752, 22.22764
191.3573, 22.56096
191.8395, 21.96020
192.3216, 22.28547
192.8037, 22.24109
193.2858, 22.34976
193.7679, 22.36811
194.2500, 22.03393
194.7322, 21.49486
195.2143, 21.24234
195.6964, 21.41586
196.1785, 21.69494
196.6606, 22.01432
197.1427, 22.29918
197.6249, 22.36966
198.1070, 21.98350
198.5891, 21.20917
199.0712, 20.74808
199.5533, 20.78337
200.0354, 20.96807
200.5176, 21.28646
200.9997, 21.65130
201.4818, 21.89489
201.9639, 21.84929
202.4460, 21.50470
202.9281, 21.27458
203.4103, 21.29766
203.8924, 21.31765
204.3745, 21.26810
204.8566, 21.15142
205.3387, 20.98520
205.8208, 20.76060
206.3030, 20.44613
206.7851, 20.37671
207.2672, 20.78370
207.7493, 21.19093
208.2314, 21.46249
208.7135, 21.57273
209.1957, 21.50917
209.6778, 21.22465
210.1599, 20.65678
210.6420, 20.39414
211.1241, 20.67068
211.6062, 20.98493
212.0884, 21.04392
212.5705, 20.86934
213.0526, 20.70165
213.5347, 20.77463
214.0168, 21.12851
214.4989, 21.30759
214.9811, 21.17575
215.4632, 20.99186
215.9453, 20.93317
216.4274, 21.00528
216.9095, 21.09008
217.3916, 21.07942
217.8737, 20.97153
218.3559, 20.91392
218.8380, 20.94656
219.3201, 21.00589
219.8022, 21.03478
220.2843, 21.02907
220.7664, 21.02509
221.2486, 21.05154
221.7307, 21.10513
222.2128, 21.16836
222.6949, 21.27078
223.1770, 21.36539
223.6591, 21.40731
224.1413, 21.39716
224.6234, 21.32099
225.1055, 21.04424
225.5876, 20.70085
226.0697, 20.55911
226.5518, 20.80320
227.0340, 21.22824
227.5161, 21.55046
227.9982, 21.76398
228.4803, 21.89174
228.9624, 21.90059
229.4445, 21.84373
229.9267, 21.78628
230.4088, 21.76169
230.8909, 21.74128
231.3730, 21.66382
231.8551, 21.50681
232.3372, 21.34946
232.8194, 21.21004
233.3015, 21.09216
233.7836, 21.00609
234.2657, 20.96390
234.7478, 20.94354
235.2299, 20.87712
235.7121, 20.68890
236.1942, 20.61585
236.6763, 20.87495
237.1584, 21.20864
237.6405, 21.31664
238.1227, 21.04776
238.6048, 20.56674
239.0869, 20.28913
239.5690, 20.27894
240.0511, 20.38238
240.5332, 20.69458
241.0154, 21.03112
241.4975, 21.17575
241.9796, 21.03348
242.4617, 20.73841
242.9438, 20.63855
243.4259, 20.92449
243.9081, 21.10974
244.3902, 21.10403
244.8723, 21.00186
245.3544, 20.89516
245.8365, 20.81901
246.3186, 20.74199
246.8008, 20.57697
247.2829, 20.10798
247.7650, 19.88262
248.2471, 19.98464
248.7292, 20.39197
249.2113, 20.61318
249.6935, 20.65828
250.1756, 19.99981
250.6577, 20.24986
251.1398, 20.13581
251.6219, 20.00684
252.1040, 20.63070
252.5862, 20.64541
253.0683, 20.47099
253.5504, 20.19357
254.0325, 19.89045
254.5146, 19.69135
254.9967, 19.68302
255.4789, 19.62655
255.9610, 19.42597
256.4431, 19.23264
256.9252, 19.20385
257.4073, 19.36990
257.8894, 19.60675
258.3716, 19.74985
258.8537, 19.75712
259.3358, 19.76463
259.8179, 19.79601
260.3000, 19.81385
260.7821, 19.74880
261.2643, 19.59736
261.7464, 19.48486
262.2285, 19.57474
262.7106, 19.93739
263.1927, 20.14635
263.6748, 20.08109
264.1570, 19.93175
264.6391, 19.84912
265.1212, 19.85023
265.6033, 19.88323
266.0854, 19.91677
266.5675, 19.94720
267.0497, 19.90842
267.5318, 19.71013
268.0139, 19.50383
268.4960, 19.42066
268.9781, 19.46426
269.4602, 19.53350
269.9424, 19.53621
270.4245, 19.49713
270.9066, 19.56416
271.3887, 19.98748
271.8708, 20.33131
272.3529, 20.08549
272.8351, 19.31085
273.3172, 18.78733
273.7993, 19.13706
274.2814, 20.06918
274.7635, 20.56866
275.2456, 20.35368
275.7278, 19.99505
276.2099, 19.89342
276.6920, 20.01852
277.1741, 20.11354
277.6562, 20.01591
278.1383, 19.84425
278.6205, 19.84916
279.1026, 20.10924
279.5847, 20.37578
280.0668, 20.52701
280.5489, 20.55894
281.0310, 20.40808
281.5132, 19.90815
281.9953, 19.36488
282.4774, 19.20382
282.9595, 19.46682
283.4416, 19.84553
283.9237, 20.29058
284.4059, 20.73660
284.8880, 20.86276
285.3701, 20.41960
285.8522, 19.86283
286.3343, 19.68719
286.8164, 19.87319
287.2986, 20.10526
287.7807, 20.20343
288.2628, 20.21451
288.7449, 20.32968
289.2270, 20.69084
289.7091, 20.94008
290.1913, 20.66677
290.6734, 20.01278
291.1555, 19.48199
291.6376, 19.37492
292.1197, 19.55216
292.6018, 19.71592
293.0840, 19.89577
293.5661, 19.95485
294.0482, 19.60222
294.5303, 19.08198
295.0124, 18.87087
295.4945, 19.34467
295.9767, 20.13565
296.4588, 20.59091
296.9409, 20.65834
297.4230, 20.56579
297.9051, 20.27558
298.3872, 19.94032
298.8694, 19.75126
299.3515, 19.78959
299.8336, 19.94760
300.3157, 20.12932
300.7978, 20.35982
301.2799, 20.46437
301.7621, 20.24060
302.2442, 19.92612
302.7263, 19.73042
303.2084, 19.70007
303.6905, 19.73309
304.1726, 19.71119
304.6548, 19.62910
305.1369, 19.62774
305.6190, 19.82987
306.1011, 20.05443
306.5832, 20.14614
307.0653, 20.09888
307.5475, 20.04277
308.0296, 20.12736
308.5117, 20.33149
308.9938, 20.37249
309.4759, 20.02667
309.9580, 19.73875
310.4402, 19.89799
310.9223, 20.39222
311.4044, 20.78642
311.8865, 20.71058
312.3686, 20.28448
312.8507, 20.02600
313.3329, 19.95813
313.8150, 20.04590
314.2971, 20.43844
314.7792, 20.94042
315.2613, 21.17167
315.7434, 20.84763
316.2256, 20.22050
316.7077, 19.81397
317.1898, 19.64186
317.6719, 19.65222
318.1540, 19.98264
318.6361, 20.41540
319.1183, 20.70875
319.6004, 20.77279
320.0825, 20.73123
320.5646, 20.73430
321.0467, 20.78238
321.5288, 20.87497
322.0110, 21.11515
322.4931, 21.33477
322.9752, 21.38089
323.4573, 21.22704
323.9394, 21.00947
324.4215, 20.81739
324.9037, 20.65292
325.3858, 20.58665
325.8679, 20.66689
326.3500, 20.82341
326.8321, 21.06310
327.3142, 21.35694
327.7964, 21.54881
328.2785, 21.40680
328.7606, 21.03672
329.2427, 21.00002
329.7248, 21.53802
330.2069, 22.04387
330.6891, 22.08521
331.1712, 21.83042
331.6533, 21.62905
332.1354, 21.64676
332.6175, 21.81187
333.0996, 22.00540
333.5818, 22.25639
334.0639, 22.44376
334.5460, 22.47923
335.0281, 22.42558
335.5102, 22.33406
335.9923, 22.20291
336.4745, 22.07041
336.9566, 21.95261
337.4387, 21.84419
337.9208, 21.85383
338.4029, 22.11942
338.8850, 22.44982
339.3671, 22.65545
339.8492, 22.71697
340.3314, 22.73440
340.8135, 22.78151
341.2956, 22.85082
341.7777, 22.88357
342.2598, 22.83033
342.7419, 22.79670
343.2241, 22.90269
343.7062, 23.11889
344.1883, 23.29383
344.6704, 23.38572
345.1525, 23.38191
345.6346, 23.22206
346.1168, 22.50533
346.5989, 23.05889
347.0810, 23.40536
347.5631, 23.55477
348.0452, 22.97962
348.5273, 23.29203
349.0095, 23.21938
349.4916, 23.11082
349.9737, 23.48820
350.4558, 22.91054
350.9379, 23.23794
351.4200, 23.17471
351.9022, 23.25969
352.3843, 23.43075
352.8664, 23.60254
353.3485, 23.11845
353.8306, 22.16265
354.3127, 21.48865
354.7949, 21.37360
355.2770, 21.49386
355.7591, 21.44951
356.2412, 21.24738
356.7233, 21.02802
357.2054, 20.75194
357.6876, 20.51780
358.1697, 20.55840
358.6518, 20.94684
359.1339, 21.29339
359.6160, 21.17109
360.0981, 20.68022
360.5803, 20.37681
361.0624, 20.52874
361.5445, 20.74075
362.0266, 20.63342
362.5087, 20.24641
362.9908, 19.93536
363.4730, 19.91279
363.9551, 20.09907
364.4372, 20.23116
364.9193, 20.29640
365.4014, 20.33450
365.8835, 20.39737
366.3657, 20.44098
366.8478, 20.34096
367.3299, 20.03098
367.8120, 19.67096
368.2941, 19.53843
368.7762, 19.69927
369.2584, 19.77765
369.7405, 19.59281
370.2226, 19.37848
370.7047, 19.42805
371.1868, 19.75748
371.6689, 20.04708
372.1511, 19.97167
372.6332, 19.51074
373.1153, 19.32456
373.5974, 19.68143
374.0795, 20.01944
374.5616, 20.06476
375.0438, 19.87226
375.5259, 19.57607
376.0080, 19.22275
376.4901, 18.88309
376.9722, 18.82195
377.4543, 19.34143
377.9365, 19.74436
378.4186, 19.93215
378.9007, 19.98157
379.3828, 19.95231
379.8649, 19.86728
380.3470, 19.75445
380.8292, 19.64623
381.3113, 19.51874
381.7934, 19.47719
382.2755, 19.70324
382.7576, 19.84812
383.2397, 19.59901
383.7219, 19.05966
384.2040, 18.61768
384.6861, 18.59823
385.1682, 18.96688
385.6503, 19.17582
386.1324, 19.04096
386.6146, 18.94280
387.0967, 18.95647
387.5788, 19.03994
388.0609, 19.17322
388.5430, 19.34560
389.0251, 19.46976
389.5073, 19.32327
389.9894, 18.62720
390.4715, 18.25615
390.9536, 18.42112
391.4357, 18.74676
391.9178, 19.06271
392.4000, 19.31529
392.8821, 19.47074
393.3642, 19.46031
393.8463, 19.27574
394.3284, 19.21270
394.8105, 19.46576
395.2927, 19.61227
395.7748, 19.40754
396.2569, 19.02259
396.7390, 18.73538
397.2211, 18.68239
397.7032, 18.81129
398.1854, 19.05565
398.6675, 19.51042
399.1496, 19.79271
399.6317, 19.65228
400.1138, 19.38595
400.5959, 19.17170
401.0781, 19.04428
401.5602, 19.03230
402.0423, 19.23895
402.5244, 19.63457
403.0065, 19.88480
403.4886, 19.90340
403.9708, 19.83222
404.4529, 19.77885
404.9350, 19.72627
405.4171, 19.62005
405.8992, 19.35108
406.3813, 19.05946
406.8635, 18.99024
407.3456, 19.16480
407.8277, 19.37393
408.3098, 19.59614
408.7919, 19.74612
409.2740, 19.66592
409.7562, 19.25350
410.2383, 18.85717
410.7204, 18.70815
411.2025, 18.74205
411.6846, 18.75853
412.1667, 18.69239
412.6489, 18.64032
413.1310, 18.74530
413.6131, 19.00154
414.0952, 19.23966
414.5773, 19.53240
415.0594, 19.72657
415.5416, 19.60941
416.0237, 19.20787
416.5058, 18.79303
416.9879, 18.51023
417.4700, 18.37184
417.9521, 18.43890
418.4343, 18.98928
418.9164, 19.37781
419.3985, 19.32616
419.8806, 19.03667
420.3627, 18.77190
420.8448, 18.61722
421.3270, 18.57872
421.8091, 18.67926
422.2912, 18.99188
422.7733, 19.23705
423.2554, 19.51600
423.7375, 19.64798
424.2197, 19.37771
424.7018, 18.83584
425.1839, 18.44551
425.6660, 18.53941
426.1481, 19.02013
426.6302, 19.21673
427.1124, 18.79995
427.5945, 18.48832
428.0766, 18.34281
428.5587, 18.35406
429.0408, 18.58430
429.5229, 19.02673
430.0051, 19.46708
430.4872, 19.58306
430.9693, 19.29810
431.4514, 19.00994
431.9335, 18.56430
432.4156, 18.26746
432.8978, 18.30323
433.3799, 18.59550
433.8620, 18.95616
434.3441, 19.31580
434.8262, 19.62426
435.3083, 19.71387
435.7905, 19.52477
436.2726, 19.28013
436.7547, 18.88672
437.2368, 18.56514
437.7189, 18.58790
438.2010, 19.02639
438.6832, 19.49868
439.1653, 19.67259
439.6474, 19.59338
440.1295, 19.50449
440.6116, 19.44495
441.0938, 19.37568
441.5759, 19.21071
442.0580, 18.99775
442.5401, 18.90179
443.0222, 19.08724
443.5043, 19.32869
443.9865, 19.38327
444.4686, 19.26877
444.9507, 19.15432
445.4328, 19.11279
445.9149, 19.12597
446.3970, 19.15836
446.8792, 19.22260
447.3613, 19.26734
447.8434, 19.24102
448.3255, 19.20511
448.8076, 19.24640
449.2897, 19.37643
449.7719, 19.53510
450.2540, 19.68707
450.7361, 19.83760
451.2182, 19.80520
451.7003, 19.37140
452.1824, 19.02189
452.6646, 19.00765
453.1467, 19.18017
453.6288, 19.26428
454.1109, 19.13910
454.5930, 18.93528
455.0751, 18.92191
455.5573, 19.23340
456.0394, 19.47737
456.5215, 19.59597
457.0036, 19.70745
457.4857, 19.92653
457.9678, 20.21277
458.4500, 20.41711
458.9321, 20.41040
459.4142, 20.23066
459.8963, 20.10435
460.3784, 20.06418
460.8605, 20.02080
461.3427, 19.85773
461.8248, 19.72802
462.3069, 19.85843
462.7890, 20.30396
463.2711, 20.70670
463.7532, 20.57738
464.2354, 19.96901
464.7175, 19.67152
465.1996, 19.91777
465.6817, 20.26043
466.1638, 20.43487
466.6459, 20.45919
467.1281, 20.35081
467.6102, 19.94292
468.0923, 19.56069
468.5744, 19.67247
469.0565, 20.22018
469.5386, 20.58824
470.0208, 20.47772
470.5029, 20.13700
470.9850, 20.01766
471.4671, 20.15738
471.9492, 20.24511
472.4313, 20.11234
472.9135, 19.94165
473.3956, 19.95778
473.8777, 20.16455
474.3598, 20.38530
474.8419, 20.49182
475.3240, 20.49137
475.8062, 20.44993
476.2883, 20.24174
476.7704, 20.15183
477.2525, 20.25882
477.7346, 20.16940
478.2167, 20.62077
478.6989, 20.88603
479.1810, 20.97518
479.6631, 20.36075
480.1452, 20.65484
480.6273, 20.58484
481.1094, 20.49991
481.5916, 20.92188
482.0737, 20.40979
482.5558, 20.82371
483.0379, 20.86799
483.5200, 21.08145
484.0021, 20.92856
484.4843, 20.88883
484.9664, 21.21555
485.4485, 21.33936
485.9306, 21.14430
486.4127, 21.36851
486.8948, 20.84362
487.3770, 20.97608
487.8591, 21.39215
488.3412, 21.21551
488.8233, 21.44642
489.3054, 21.52211
489.7875, 20.89240
490.2697, 21.48946
490.7518, 21.55598
491.2339, 21.07775
491.7160, 21.63277
492.1981, 21.22965
492.6802, 21.16852
493.1624, 21.36478
493.6445, 21.85024
494.1266, 21.97862
494.6087, 21.67402
495.0908, 21.29446
495.5729, 21.15212
496.0551, 21.24582
496.5372, 21.31006
497.0193, 21.37074
497.5014, 21.37772
497.9835, 21.20340
498.4656, 21.00509
498.9478, 21.07757
499.4299, 21.49586
499.9120, 21.94181
500.3941, 21.91009
500.8762, 21.21124
501.3583, 20.78894
501.8405, 20.81172
502.3226, 20.94171
502.8047, 21.20862
503.2868, 21.47409
503.7689, 21.46293
504.2510, 20.99533
504.7331, 20.38322
505.2152, 20.25514
505.6974, 20.70807
506.1795, 21.03819
506.6616, 21.02105
507.1437, 20.91150
507.6258, 20.92343
508.1079, 21.02929
508.5901, 21.05485
509.0722, 20.84976
509.5543, 20.54865
510.0364, 20.33578
510.5185, 20.21250
511.0006, 20.15402
511.4828, 20.18409
511.9649, 20.24118
512.4470, 20.15344
512.9291, 19.81651
513.4113, 19.69914
513.8934, 20.21539
514.3755, 20.83223
514.8576, 20.92115
515.3397, 20.48115
515.8218, 19.99797
516.3040, 19.83802
516.7861, 19.94611
517.2682, 19.92452
517.7503, 19.59450
518.2324, 19.35710
518.7145, 19.26268
519.1967, 19.26669
519.6788, 19.37755
520.1609, 19.56558
520.6430, 19.70145
521.1251, 19.61366
521.6072, 19.31354
522.0894, 19.23753
522.5715, 19.58998
523.0536, 19.84045
523.5357, 19.73164
524.0178, 19.47110
524.4999, 19.30169
524.9821, 19.29029
525.4642, 19.30907
525.9463, 19.21104
526.4284, 19.03534
526.9105, 18.98007
527.3926, 19.11395
527.8748, 19.24663
528.3569, 19.24393
528.8390, 19.11788
529.3211, 18.90824
529.8032, 18.51947
530.2853, 18.16127
530.7675, 17.91630
531.2496, 17.78896
531.7317, 17.84485
532.2138, 18.10645
532.6959, 18.35947
533.1780, 18.30979
533.6602, 17.86908
534.1423, 17.68152
534.6244, 17.91396
535.1065, 18.17331
535.5886, 18.36908
536.0707, 18.47837
536.5529, 18.48407
537.0350, 18.37996
537.5171, 18.17583
537.9992, 17.84901
538.4813, 17.34862
538.9634, 16.98864
539.4456, 16.80263
539.9277, 16.74966
540.4098, 16.92959
540.8919, 17.20950
541.3740, 17.30344
541.8561, 17.01551
542.3383, 16.67805
542.8204, 16.78622
543.3025, 17.27964
543.7846, 17.55395
544.2667, 17.40061
544.7488, 17.10445
545.2310, 16.92915
545.7131, 16.86867
546.1952, 16.94473
546.6773, 17.27435
547.1594, 17.63565
547.6415, 17.92540
548.1237, 18.13010
548.6058, 18.21782
549.0879, 18.17138
549.5700, 18.06194
550.0521, 18.00249
550.5342, 17.99645
551.0164, 18.03547
551.4985, 18.22283
551.9806, 18.34354
552.4627, 18.29864
552.9448, 18.11850
553.4269, 17.84318
553.9091, 17.48239
554.3912, 17.13102
554.8733, 16.98228
555.3554, 17.07221
555.8375, 17.11822
556.3196, 17.12244
556.8018, 17.02404
557.2839, 16.61749
557.7660, 16.07580
558.2481, 15.91554
558.7302, 16.60468
559.2123, 17.41086
559.6945, 17.52532
560.1766, 17.08448
560.6587, 16.67340
561.1408, 16.45072
561.6229, 16.38408
562.1050, 16.49833
562.5872, 16.85006
563.0693, 16.90480
563.5514, 16.24090
564.0335, 15.69721
564.5156, 15.86515
564.9977, 16.42428
565.4799, 16.74418
565.9620, 16.57689
566.4441, 16.21332
566.9262, 16.12322
567.4083, 16.38619
567.8904, 16.60021
568.3726, 16.80799
568.8547, 16.91464
569.3368, 16.83145
569.8189, 16.63855
570.3010, 16.46777
570.7831, 16.36997
571.2653, 16.28689
571.7474, 16.09140
572.2295, 15.81732
572.7116, 15.76852
573.1937, 16.06831
573.6758, 16.41294
574.1580, 16.53584
574.6401, 16.48964
575.1222, 16.48144
575.6043, 16.56948
576.0864, 16.65505
576.5685, 16.68688
577.0507, 16.68461
577.5328, 16.67608
578.0149, 16.66934
578.4970, 16.66560
578.9791, 16.66088
579.4612, 16.65289
579.9434, 16.70354
580.4255, 16.90095
580.9076, 17.05376
581.3897, 17.10379
581.8718, 17.10479
582.3539, 17.09994
582.8361, 17.10575
583.3182, 17.14656
583.8003, 17.26767
584.2824, 17.45491
584.7645, 17.60701
585.2466, 17.73083
585.7288, 17.79996
586.2108, 17.79774
586.6929, 17.73141
587.1750, 17.57091
587.6572, 17.25912
588.1393, 17.09518
588.6214, 17.40027
589.1035, 17.83758
