##NAMES=Delafossite
##RRUFFID=R050403
##IDEAL CHEMISTRY=Cu^1+^Fe^3+^O_2_
##LOCALITY=Cole Shaft, Bisbee, Cochise County, Arizona, USA
##OWNER=RRUFF
##SOURCE=Marcus Origlieri
##DESCRIPTION=Black bladed rosettes
##STATUS=The identification of this mineral has been confirmed by X-ray diffraction and chemical analysis
##URL=rruff.info/R050403
##MEASURED CHEMISTRY=Cu^1+^(Fe^3+^_0.94_Al_0.06_)O_2_
92.35352, 11.69759
92.83563, 11.85163
93.31775, 11.91762
93.79987, 11.80705
94.28198, 11.59673
94.76410, 11.52639
95.24622, 11.69545
95.72833, 11.97499
96.21045, 12.06549
96.69257, 11.95680
97.17468, 11.83069
97.65680, 12.01123
98.13892, 12.48590
98.62103, 12.46255
99.10315, 11.49688
99.58527, 9.795490
100.0674, 8.879596
100.5495, 8.911955
101.0316, 9.391048
101.5137, 9.709446
101.9958, 9.796065
102.4780, 9.981841
102.9601, 10.39770
103.4422, 11.08734
103.9243, 11.73820
104.4064, 12.43647
104.8885, 13.04581
105.3707, 13.27965
105.8528, 12.78111
106.3349, 12.40603
106.8170, 12.51712
107.2991, 13.53673
107.7813, 14.24376
108.2634, 14.57789
108.7455, 14.59251
109.2276, 14.45980
109.7097, 13.70138
110.1918, 13.14381
110.6740, 13.12947
111.1561, 14.37052
111.6382, 15.36496
112.1203, 15.78011
112.6024, 15.74832
113.0845, 16.05418
113.5667, 17.04816
114.0488, 18.29198
114.5309, 19.50256
115.0130, 20.73654
115.4951, 21.80687
115.9772, 22.64410
116.4594, 23.25799
116.9415, 23.75663
117.4236, 24.12882
117.9057, 24.42416
118.3878, 24.69460
118.8699, 24.88193
119.3521, 25.10904
119.8342, 25.38693
120.3163, 25.69839
120.7984, 26.26503
121.2805, 27.21935
121.7626, 28.52049
122.2448, 30.09857
122.7269, 32.67353
123.2090, 35.14594
123.6911, 36.38646
124.1732, 36.17295
124.6553, 35.15957
125.1375, 33.53162
125.6196, 31.49082
126.1017, 29.67563
126.5838, 28.19435
127.0659, 27.23591
127.5480, 27.26290
128.0302, 28.58617
128.5123, 30.38634
128.9944, 31.65076
129.4765, 32.39989
129.9586, 32.82541
130.4407, 32.96917
130.9229, 32.87642
131.4050, 32.71277
131.8871, 32.47008
132.3692, 32.21480
132.8513, 32.10501
133.3334, 32.09587
133.8156, 32.02928
134.2977, 31.82038
134.7798, 31.58706
135.2619, 31.64435
135.7440, 32.08681
136.2261, 32.85952
136.7083, 33.77378
137.1904, 34.83187
137.6725, 36.02387
138.1546, 37.50635
138.6367, 39.42705
139.1188, 40.90143
139.6010, 41.86267
140.0831, 42.32143
140.5652, 41.49007
141.0473, 38.88202
141.5294, 35.67286
142.0115, 33.40643
142.4937, 32.26875
142.9758, 31.54794
143.4579, 31.07969
143.9400, 30.91242
144.4221, 30.73807
144.9042, 30.42307
145.3864, 30.17083
145.8685, 30.39248
146.3506, 31.62400
146.8327, 32.60275
147.3148, 32.88876
147.7969, 32.14431
148.2791, 31.46729
148.7612, 30.80039
149.2433, 30.20527
149.7254, 29.81563
150.2075, 29.50452
150.6896, 29.50705
151.1718, 29.93363
151.6539, 31.26550
152.1360, 32.31576
152.6181, 33.01304
153.1002, 33.40965
153.5823, 33.65586
154.0645, 33.52691
154.5466, 33.42462
155.0287, 33.54979
155.5108, 34.62897
155.9929, 35.09076
156.4750, 34.31004
156.9572, 32.59903
157.4393, 31.24059
157.9214, 30.64420
158.4035, 30.38417
158.8856, 30.19169
159.3677, 30.04572
159.8499, 29.92203
160.3320, 29.74703
160.8141, 29.55322
161.2962, 29.54889
161.7783, 29.89838
162.2604, 30.42652
162.7426, 30.98875
163.2247, 31.91814
163.7068, 32.54642
164.1889, 32.43532
164.6710, 31.63128
165.1531, 30.79834
165.6353, 30.07419
166.1174, 29.55263
166.5995, 29.33480
167.0816, 29.69982
167.5637, 30.19796
168.0458, 30.51492
168.5280, 30.64376
169.0101, 30.83994
169.4922, 31.28924
169.9743, 31.89893
170.4564, 32.53798
170.9385, 33.57803
171.4207, 34.37354
171.9028, 34.10297
172.3849, 32.68823
172.8670, 31.32067
173.3491, 31.01051
173.8312, 31.39025
174.3134, 31.75872
174.7955, 31.73370
175.2776, 31.55155
175.7597, 31.48106
176.2418, 31.53957
176.7239, 31.66985
177.2061, 31.88129
177.6882, 32.13375
178.1703, 32.31433
178.6524, 32.42055
179.1345, 32.40989
179.6166, 32.13866
180.0988, 31.54817
180.5809, 30.95533
181.0630, 30.74976
181.5451, 30.86142
182.0272, 31.01890
182.5093, 31.08508
182.9915, 31.09426
183.4736, 31.12111
183.9557, 31.16698
184.4378, 31.24440
184.9199, 31.39798
185.4020, 31.61319
185.8842, 31.80841
186.3663, 31.97508
186.8484, 32.09169
187.3305, 32.07072
187.8126, 31.89976
188.2947, 31.60631
188.7769, 31.20495
189.2590, 30.69952
189.7411, 30.16697
190.2232, 29.50747
190.7053, 28.79440
191.1874, 28.54762
191.6696, 28.91693
192.1517, 29.55556
192.6338, 29.83721
193.1159, 29.75426
193.5980, 29.53644
194.0801, 29.28141
194.5623, 28.99410
195.0444, 28.71129
195.5265, 28.40829
196.0086, 28.15351
196.4907, 28.17878
196.9728, 28.53001
197.4550, 28.77603
197.9371, 28.54310
198.4192, 27.81976
198.9013, 27.36612
199.3834, 27.29913
199.8655, 27.48400
200.3477, 27.59802
200.8298, 27.62344
201.3119, 27.65760
201.7940, 27.79996
202.2761, 28.07278
202.7582, 28.20049
203.2404, 28.14071
203.7225, 27.93583
204.2046, 27.67726
204.6867, 27.34187
205.1688, 27.03156
205.6509, 26.80783
206.1331, 26.67185
206.6152, 26.61224
207.0973, 26.65231
207.5794, 26.75568
208.0615, 26.81044
208.5436, 26.80784
209.0258, 26.77971
209.5079, 26.74528
209.9900, 26.70683
210.4721, 26.64143
210.9542, 26.51150
211.4363, 26.36509
211.9185, 26.38668
212.4006, 26.64023
212.8827, 26.92434
213.3648, 27.11630
213.8469, 27.20676
214.3290, 27.24658
214.8112, 27.22759
215.2933, 27.16294
215.7754, 27.09353
216.2575, 27.00774
216.7396, 26.93851
217.2217, 26.91401
217.7038, 26.95860
218.1860, 26.97106
218.6681, 26.93234
219.1502, 26.85867
219.6323, 26.81438
220.1144, 26.82291
220.5965, 26.82187
221.0787, 26.74840
221.5608, 26.51042
222.0429, 26.46566
222.5250, 26.72044
223.0071, 27.17561
223.4892, 27.45281
223.9714, 27.49587
224.4535, 27.45515
224.9356, 27.39754
225.4177, 27.28925
225.8998, 27.25318
226.3819, 27.33002
226.8641, 27.47906
227.3462, 27.55749
227.8283, 27.54785
228.3104, 27.49423
228.7925, 27.40964
229.2746, 27.25467
229.7568, 27.15757
230.2389, 27.14135
230.7210, 27.18171
231.2031, 27.20998
231.6852, 27.25320
232.1673, 27.24428
232.6495, 27.11899
233.1316, 26.72086
233.6137, 26.57489
234.0958, 26.82971
234.5779, 27.31729
235.0600, 27.54517
235.5422, 27.35504
236.0243, 27.13813
236.5064, 27.08645
236.9885, 27.34696
237.4706, 27.43575
237.9527, 27.25647
238.4349, 26.93006
238.9170, 26.76747
239.3991, 26.85927
239.8812, 26.97944
240.3633, 27.03505
240.8454, 27.00352
241.3276, 26.95782
241.8097, 26.86687
242.2918, 26.77390
242.7739, 26.79439
243.2560, 27.04925
243.7381, 27.22992
244.2203, 27.19112
244.7024, 26.80582
245.1845, 26.56894
245.6666, 26.56298
246.1487, 26.33967
246.6308, 26.74071
247.1130, 26.96377
247.5951, 27.01840
248.0772, 26.40019
248.5593, 26.65082
249.0414, 26.55326
249.5235, 26.44142
250.0057, 26.81434
250.4878, 26.29399
250.9699, 26.65922
251.4520, 26.67094
251.9341, 26.84446
252.4162, 26.66763
252.8984, 26.59901
253.3805, 26.88085
253.8626, 26.96863
254.3447, 26.75147
254.8268, 26.93527
255.3089, 26.40268
255.7911, 26.49874
256.2732, 26.87802
256.7553, 27.05568
257.2374, 27.03943
257.7195, 26.92941
258.2017, 26.84877
258.6838, 26.81595
259.1659, 26.76639
259.6480, 26.66228
260.1301, 26.49876
260.6122, 26.45426
261.0944, 26.61243
261.5765, 26.78597
262.0586, 26.72935
262.5407, 26.29367
263.0228, 26.05098
263.5049, 26.19725
263.9871, 26.71165
264.4692, 27.02097
264.9513, 27.08533
265.4334, 27.01406
265.9155, 26.90456
266.3976, 26.76933
266.8798, 26.54601
267.3619, 26.15672
267.8440, 25.64655
268.3261, 25.42621
268.8082, 25.55681
269.2903, 25.84727
269.7725, 26.16546
270.2546, 26.51450
270.7367, 26.88360
271.2188, 27.36028
271.7009, 27.83776
272.1830, 27.73228
272.6652, 26.79650
273.1473, 25.95800
273.6294, 25.99267
274.1115, 27.10486
274.5936, 27.80895
275.0757, 27.85545
275.5579, 27.47952
276.0400, 27.37803
276.5221, 27.62043
277.0042, 27.85580
277.4863, 27.84871
277.9684, 27.57733
278.4506, 27.35366
278.9327, 27.18416
279.4148, 27.09083
279.8969, 27.17664
280.3790, 27.47759
280.8611, 27.70601
281.3433, 27.63985
281.8254, 27.28256
282.3075, 27.13236
282.7896, 27.24054
283.2717, 27.47531
283.7538, 27.68144
284.2360, 27.86379
284.7181, 27.89936
285.2002, 27.62099
285.6823, 27.08521
286.1644, 26.83392
286.6465, 26.90765
287.1287, 27.12512
287.6108, 27.25453
288.0929, 27.30280
288.5750, 27.40808
289.0571, 27.71605
289.5392, 28.12527
290.0214, 28.18680
290.5035, 27.87427
290.9856, 27.43995
291.4677, 27.06092
291.9498, 26.75553
292.4319, 26.67251
292.9141, 27.02781
293.3962, 27.53981
293.8783, 27.38966
294.3604, 26.56674
294.8425, 25.83420
295.3246, 25.96899
295.8068, 26.75124
296.2889, 27.45677
296.7710, 27.95449
297.2531, 28.25350
297.7352, 28.29556
298.2173, 28.10404
298.6995, 27.87632
299.1816, 27.70881
299.6637, 27.61216
300.1458, 27.64129
300.6279, 27.85923
301.1100, 28.08695
301.5922, 28.04098
302.0743, 27.78640
302.5564, 27.58815
303.0385, 27.75827
303.5206, 28.02942
304.0027, 27.93449
304.4849, 27.31810
304.9670, 26.73316
305.4491, 26.86768
305.9312, 27.46054
306.4133, 27.88574
306.8954, 27.61199
307.3776, 27.13652
307.8597, 26.99901
308.3418, 27.25917
308.8239, 27.55474
309.3060, 27.53268
309.7881, 27.38340
310.2703, 27.40730
310.7524, 27.96129
311.2345, 28.56018
311.7166, 28.81339
312.1987, 28.72598
312.6808, 28.62557
313.1630, 28.68797
313.6451, 28.83714
314.1272, 28.99284
314.6093, 29.19545
315.0914, 29.33327
315.5735, 29.29092
316.0557, 29.10700
316.5378, 28.98730
317.0199, 29.01323
317.5020, 29.13996
317.9841, 29.35144
318.4662, 29.75480
318.9484, 30.06974
319.4305, 30.12996
319.9126, 30.02433
320.3947, 29.98622
320.8768, 30.15108
321.3589, 30.34929
321.8411, 30.47758
322.3232, 30.44401
322.8053, 30.53231
323.2874, 30.93818
323.7695, 31.47294
324.2516, 31.83781
324.7338, 31.87548
325.2159, 31.83936
325.6980, 31.76413
326.1801, 31.60881
326.6622, 31.61289
327.1443, 31.97388
327.6265, 32.42300
328.1086, 32.68839
328.5907, 32.38956
329.0728, 32.32955
329.5549, 32.78899
330.0370, 33.77823
330.5192, 34.34858
331.0013, 34.13642
331.4834, 33.81852
331.9655, 33.87463
332.4476, 34.59165
332.9297, 35.19188
333.4119, 35.57570
333.8940, 35.78777
334.3761, 36.01684
334.8582, 36.27549
335.3403, 36.52250
335.8224, 36.74067
336.3046, 36.93903
336.7867, 37.06356
337.2688, 37.04801
337.7509, 37.00786
338.2330, 37.21010
338.7151, 37.73014
339.1973, 38.25214
339.6794, 38.65358
340.1615, 38.92548
340.6436, 39.21597
341.1257, 39.53912
341.6078, 39.84590
342.0899, 40.02312
342.5721, 40.04874
343.0542, 40.21783
343.5363, 40.67579
344.0184, 41.33965
344.5005, 41.93282
344.9826, 42.47794
345.4648, 42.75568
345.9469, 42.34366
346.4290, 41.35338
346.9111, 40.72736
347.3932, 40.71580
347.8753, 41.05418
348.3575, 41.38669
348.8396, 41.69022
349.3217, 41.70797
349.8038, 40.94710
350.2859, 39.78261
350.7680, 39.20275
351.2502, 39.41924
351.7323, 39.85513
352.2144, 40.02669
352.6965, 39.90708
353.1786, 39.40865
353.6607, 38.12486
354.1429, 36.60825
354.6250, 35.55764
355.1071, 35.01110
355.5892, 34.66103
356.0713, 34.42022
356.5534, 34.19195
357.0356, 33.83144
357.5177, 33.18357
357.9998, 32.46920
358.4819, 31.77036
358.9640, 31.11333
359.4461, 30.66882
359.9283, 30.78227
360.4104, 31.00902
360.8925, 30.97445
361.3746, 30.52382
361.8567, 29.92404
362.3388, 29.13524
362.8210, 28.27623
363.3031, 27.59819
363.7852, 27.21273
364.2673, 27.00034
364.7494, 26.94268
365.2315, 27.09154
365.7137, 27.19467
366.1958, 27.17888
366.6779, 27.09941
367.1600, 27.02100
367.6421, 26.98911
368.1242, 26.91946
368.6064, 26.80524
369.0885, 26.64606
369.5706, 26.40721
370.0527, 25.97732
370.5348, 25.55291
371.0169, 25.26164
371.4991, 25.19598
371.9812, 25.10700
372.4633, 24.92868
372.9454, 24.71727
373.4275, 24.69683
373.9096, 24.99700
374.3918, 25.26258
374.8739, 25.31925
375.3560, 25.12544
375.8381, 24.89414
376.3202, 24.57259
376.8023, 24.28478
377.2845, 24.27934
377.7666, 24.62345
378.2487, 24.88038
378.7308, 24.88332
379.2129, 24.66878
379.6950, 24.47803
380.1772, 24.31371
380.6593, 24.15054
381.1414, 23.91192
381.6235, 23.62127
382.1056, 23.51468
382.5877, 23.73158
383.0699, 24.03378
383.5520, 23.86266
384.0341, 23.26961
384.5162, 22.79338
384.9983, 22.90299
385.4804, 23.35646
385.9626, 23.62028
386.4447, 23.62132
386.9268, 23.54289
387.4089, 23.56603
387.8910, 23.65250
388.3731, 23.71588
388.8553, 23.76152
389.3374, 23.73893
389.8195, 23.51177
390.3016, 23.10266
390.7837, 22.82262
391.2658, 22.90141
391.7480, 23.19841
392.2301, 23.59282
392.7122, 24.26648
393.1943, 24.73580
393.6764, 24.58004
394.1585, 24.00958
394.6407, 23.62519
395.1228, 23.94869
395.6049, 24.25928
396.0870, 24.12567
396.5691, 23.29433
397.0512, 22.69129
397.5334, 22.55354
398.0155, 22.71873
398.4976, 22.98359
398.9797, 23.63411
399.4618, 24.05516
399.9439, 24.06124
400.4261, 23.65460
400.9082, 23.28717
401.3903, 22.84148
401.8724, 22.54590
402.3545, 22.59732
402.8366, 23.30219
403.3188, 23.66509
403.8009, 23.50207
404.2830, 23.02106
404.7651, 22.76352
405.2472, 22.80899
405.7293, 22.85558
406.2115, 22.72989
406.6936, 22.42159
407.1757, 22.39271
407.6578, 22.71788
408.1399, 23.12125
408.6220, 23.29016
409.1042, 23.22845
409.5863, 23.09488
410.0684, 22.89604
410.5505, 22.67960
411.0326, 22.55784
411.5147, 22.52840
411.9969, 22.52811
412.4790, 22.55033
412.9611, 22.56532
413.4432, 22.44812
413.9253, 22.12423
414.4074, 21.89156
414.8896, 22.27081
415.3717, 22.99967
415.8538, 23.45707
416.3359, 23.12811
416.8180, 22.53182
417.3001, 22.08384
417.7823, 21.79127
418.2644, 21.63486
418.7465, 21.65911
419.2286, 21.78092
419.7107, 21.92414
420.1928, 22.11690
420.6750, 22.26445
421.1571, 22.29053
421.6392, 22.24108
422.1213, 22.23478
422.6034, 22.39338
423.0855, 22.52423
423.5677, 22.54462
424.0498, 22.42510
424.5319, 22.27766
425.0140, 21.98025
425.4961, 21.72034
425.9782, 21.70135
426.4604, 22.23525
426.9425, 22.54906
427.4246, 22.45858
427.9067, 22.02958
428.3888, 21.71440
428.8709, 21.50216
429.3531, 21.42227
429.8352, 21.53515
430.3173, 21.89962
430.7994, 22.15911
431.2815, 22.31792
431.7636, 22.34689
432.2458, 22.10556
432.7279, 21.56809
433.2100, 21.19354
433.6921, 21.18032
434.1742, 21.44912
434.6563, 21.76601
435.1385, 22.14011
435.6206, 22.42054
436.1027, 22.44687
436.5848, 22.27876
437.0669, 22.04411
437.5490, 21.71117
438.0312, 21.45936
438.5133, 21.58840
438.9954, 21.97625
439.4775, 22.28350
439.9596, 22.28559
440.4417, 22.16168
440.9239, 22.05990
441.4060, 21.98912
441.8881, 21.92126
442.3702, 21.81532
442.8523, 21.71694
443.3344, 21.67085
443.8166, 21.75795
444.2987, 21.81768
444.7808, 21.78104
445.2629, 21.67658
445.7450, 21.58759
446.2271, 21.48853
446.7093, 21.44649
447.1914, 21.53544
447.6735, 21.87087
448.1556, 21.94024
448.6377, 21.44933
449.1198, 20.88948
449.6020, 20.79231
450.0841, 21.44115
450.5662, 21.96773
451.0483, 22.25714
451.5304, 22.32566
452.0125, 22.18567
452.4947, 21.74073
452.9768, 21.38110
453.4589, 21.37362
453.9410, 21.72927
454.4231, 21.98373
454.9052, 22.11603
455.3874, 22.19033
455.8695, 22.30087
456.3516, 22.43709
456.8337, 22.51511
457.3158, 22.48006
457.7979, 22.39545
458.2801, 22.35833
458.7622, 22.36950
459.2443, 22.43564
459.7264, 22.65339
460.2085, 22.89368
460.6906, 22.94840
461.1728, 22.74579
461.6549, 22.55894
462.1370, 22.63283
462.6191, 22.83871
463.1012, 22.98676
463.5833, 22.96153
464.0655, 22.90532
464.5476, 22.87197
465.0297, 22.86135
465.5118, 22.85886
465.9939, 22.82745
466.4760, 22.82711
466.9582, 22.91050
467.4403, 23.27024
467.9224, 23.36482
468.4045, 22.91935
468.8866, 22.31796
469.3687, 22.13625
469.8509, 22.67360
470.3330, 23.09103
470.8151, 23.17185
471.2972, 22.95059
471.7793, 22.76844
472.2614, 22.60769
472.7436, 22.53051
473.2257, 22.61556
473.7078, 22.86683
474.1899, 23.06828
474.6720, 23.20723
475.1541, 23.28693
475.6363, 23.29608
476.1184, 23.24229
476.6005, 23.17319
477.0826, 23.08901
477.5647, 23.01216
478.0468, 22.94579
478.5290, 22.89968
479.0111, 22.96305
479.4932, 23.33527
479.9753, 23.79369
480.4574, 24.09788
480.9395, 24.22323
481.4217, 24.12836
481.9038, 23.47700
482.3859, 22.65909
482.8680, 22.25839
483.3501, 22.95803
483.8322, 23.62973
484.3144, 23.81657
484.7965, 23.54025
485.2786, 23.31986
485.7607, 23.24289
486.2428, 23.23294
486.7249, 23.25523
487.2071, 23.32644
487.6892, 23.39274
488.1713, 23.44780
488.6534, 23.50265
489.1355, 23.56871
489.6176, 23.63595
490.0998, 23.76244
490.5819, 24.03134
491.0640, 24.36888
491.5461, 24.29887
492.0282, 23.75485
492.5103, 23.29434
492.9925, 23.39347
493.4746, 23.94111
493.9567, 24.37584
494.4388, 24.66993
494.9209, 24.81340
495.4030, 24.72962
495.8852, 24.48597
496.3673, 24.24898
496.8494, 24.07963
497.3315, 23.94561
497.8136, 23.79965
498.2957, 23.65539
498.7779, 23.57595
499.2600, 23.51093
499.7421, 23.57902
500.2242, 23.98629
500.7063, 24.92262
501.1884, 25.45190
501.6706, 24.81593
502.1527, 23.84566
502.6348, 23.39005
503.1169, 24.21321
503.5990, 24.77090
504.0811, 24.80750
504.5633, 24.44925
505.0454, 24.15082
505.5275, 23.93184
506.0096, 23.74761
506.4917, 23.57904
506.9738, 23.42220
507.4560, 23.29865
507.9381, 23.19053
508.4202, 23.16314
508.9023, 23.38694
509.3844, 23.83465
509.8665, 24.00043
510.3487, 23.72421
510.8308, 23.24745
511.3129, 22.90918
511.7950, 22.70797
512.2772, 22.63710
512.7593, 22.81472
513.2414, 23.05620
513.7235, 23.09465
514.2056, 22.93669
514.6877, 22.83721
515.1699, 23.05853
515.6520, 23.36113
516.1341, 23.52001
516.6162, 23.43835
517.0983, 23.30272
517.5804, 23.18780
518.0626, 23.05508
518.5447, 22.84158
519.0268, 22.31151
519.5089, 21.94356
519.9910, 21.90269
520.4731, 22.16389
520.9553, 22.35186
521.4374, 22.46106
521.9195, 22.50319
522.4016, 22.44895
522.8837, 22.25182
523.3658, 22.22640
523.8480, 22.41885
524.3301, 22.69173
524.8122, 22.88150
525.2943, 22.98886
525.7764, 23.00873
526.2585, 22.87849
526.7407, 22.73089
527.2228, 22.90859
527.7049, 23.34223
528.1870, 23.62260
528.6691, 23.33602
529.1512, 22.84898
529.6334, 22.63242
530.1155, 22.72694
530.5976, 22.76698
531.0797, 22.44196
531.5618, 21.99605
532.0439, 21.67196
532.5261, 21.53893
533.0082, 21.51327
533.4903, 21.68876
533.9724, 21.94591
534.4545, 22.03063
534.9366, 21.70643
535.4188, 21.45320
535.9009, 21.39504
536.3830, 21.52767
536.8651, 21.67259
537.3472, 21.86928
537.8293, 22.00174
538.3115, 21.96716
538.7936, 21.75222
539.2757, 21.57714
539.7578, 21.46589
540.2399, 21.36096
540.7220, 21.10091
541.2042, 20.74317
541.6863, 20.61969
542.1684, 20.96141
542.6505, 21.43297
543.1326, 21.52481
543.6147, 21.31727
544.0969, 21.11795
544.5790, 21.17416
545.0611, 21.27129
545.5432, 21.21070
546.0253, 20.96854
546.5074, 20.74596
546.9896, 20.61721
547.4717, 20.55111
547.9538, 20.52208
548.4359, 20.50289
548.9180, 20.55424
549.4001, 20.74767
549.8823, 20.99390
550.3644, 21.14171
550.8465, 21.16781
551.3286, 21.13640
551.8107, 21.03052
552.2928, 20.87235
552.7750, 20.85385
553.2571, 21.00621
553.7392, 21.14423
554.2213, 21.11600
554.7034, 20.95666
555.1855, 20.89523
555.6677, 20.95844
556.1498, 20.99924
556.6319, 20.79215
557.1140, 20.45485
557.5961, 20.24798
558.0782, 20.33215
558.5604, 20.42290
559.0425, 20.11822
559.5246, 19.64498
560.0067, 19.51332
560.4888, 20.35902
560.9709, 21.20654
561.4531, 21.60157
561.9352, 21.52916
562.4173, 21.36426
562.8994, 20.97989
563.3815, 20.66076
563.8636, 20.58108
564.3458, 20.92124
564.8279, 20.98042
565.3100, 20.59526
565.7921, 20.13600
566.2742, 20.17602
566.7563, 20.79318
567.2385, 21.11317
567.7206, 20.84359
568.2027, 20.30316
568.6848, 20.21054
569.1669, 20.51620
569.6490, 20.86382
570.1312, 21.14619
570.6133, 21.32010
571.0954, 21.26441
571.5775, 20.99114
572.0596, 20.72698
572.5417, 20.57477
573.0239, 20.51807
573.5060, 20.57761
573.9881, 20.84348
574.4702, 20.98519
574.9523, 20.70405
575.4344, 20.31870
575.9166, 20.23784
576.3987, 20.84803
576.8808, 21.28017
577.3629, 21.38008
577.8450, 21.24469
578.3271, 21.20516
578.8093, 21.30616
579.2914, 21.36973
579.7735, 21.31521
580.2556, 21.15609
580.7377, 20.94068
581.2198, 20.65449
581.7020, 20.48374
582.1841, 20.62885
582.6662, 21.00085
583.1483, 21.44487
583.6304, 21.96893
584.1125, 22.36736
584.5947, 22.36294
585.0768, 22.13992
585.5589, 21.96780
586.0410, 21.97296
586.5231, 22.00923
587.0052, 22.00159
587.4873, 21.97888
587.9694, 22.01750
588.4515, 22.31133
588.9337, 22.48004
