##NAMES=Delhayelite
##RRUFFID=R070096
##IDEAL CHEMISTRY=K_7_Na_3_Ca_5_Al_2_Si_14_O_38_F_4_Cl_2_
##LOCALITY=Yukspor Mountain, Khibiny Massif, Kola Peninsula, Russia
##OWNER=RRUFF
##SOURCE=Michael Scott
##DESCRIPTION=Dark gray to colorless cleavage fragments associated with brown lamprophyllite, elongated blue aegerine, light yellow fenakite, grayish brown lomonosovite and very pale yellow to colorless Fenaksite (R080135).
##STATUS=The identification of this mineral has been confirmed by X-ray diffraction and chemical analysis
##URL=rruff.info/R070096
##MEASURED CHEMISTRY=K_7.25_Na_3.44_(Ca_4.32_Na_0.66_Mn_0.02_)_Σ=5_(Al_1.97_Fe^3+^_0.03_)_Σ=2_(Si_13.97_Al_0.03_)_Σ=14_O_38_F_4_(Cl_1.70_F_0.30_)_Σ=2_
145.4159, 1516.209
145.8980, 1555.200
146.3801, 1577.240
146.8622, 1603.651
147.3444, 1643.315
147.8265, 1690.012
148.3086, 1733.319
148.7907, 1773.349
149.2728, 1810.990
149.7549, 1847.548
150.2371, 1882.705
150.7192, 1913.550
151.2013, 1940.226
151.6834, 1960.116
152.1655, 1969.445
152.6476, 1965.775
153.1298, 1960.409
153.6119, 1963.483
154.0940, 1974.842
154.5761, 1984.633
155.0582, 1988.388
155.5403, 1989.866
156.0225, 1992.125
156.5046, 1995.353
156.9867, 2000.266
157.4688, 2007.934
157.9509, 2018.552
158.4330, 2029.764
158.9152, 2039.050
159.3973, 2049.917
159.8794, 2066.553
160.3615, 2090.311
160.8436, 2114.658
161.3257, 2130.977
161.8079, 2137.352
162.2900, 2146.028
162.7721, 2160.804
163.2542, 2178.831
163.7363, 2199.135
164.2184, 2221.621
164.7006, 2244.748
165.1827, 2267.562
165.6648, 2291.637
166.1469, 2310.026
166.6290, 2314.708
167.1111, 2317.479
167.5933, 2328.050
168.0754, 2348.754
168.5575, 2370.649
169.0396, 2379.797
169.5217, 2371.374
170.0038, 2364.398
170.4860, 2365.304
170.9681, 2366.248
171.4502, 2361.259
171.9323, 2348.936
172.4144, 2333.256
172.8965, 2319.308
173.3787, 2305.147
173.8608, 2297.986
174.3429, 2305.902
174.8250, 2315.416
175.3071, 2314.129
175.7892, 2299.969
176.2714, 2284.802
176.7535, 2289.655
177.2356, 2328.527
177.7177, 2354.625
178.1998, 2359.635
178.6819, 2356.725
179.1641, 2353.335
179.6462, 2351.694
180.1283, 2350.869
180.6104, 2348.524
181.0925, 2340.144
181.5746, 2340.842
182.0567, 2361.075
182.5389, 2381.930
183.0210, 2389.169
183.5031, 2380.546
183.9852, 2365.394
184.4673, 2356.424
184.9494, 2353.991
185.4316, 2358.137
185.9137, 2375.930
186.3958, 2393.924
186.8779, 2403.595
187.3600, 2403.382
187.8421, 2396.876
188.3243, 2387.840
188.8064, 2371.740
189.2885, 2364.735
189.7706, 2374.649
190.2527, 2385.956
190.7348, 2388.993
191.2170, 2382.496
191.6991, 2371.039
192.1812, 2359.604
192.6633, 2346.263
193.1454, 2339.020
193.6275, 2343.401
194.1097, 2348.305
194.5918, 2346.653
195.0739, 2338.243
195.5560, 2327.725
196.0381, 2320.243
196.5202, 2316.481
197.0024, 2313.474
197.4845, 2314.631
197.9666, 2313.614
198.4487, 2305.282
198.9308, 2290.593
199.4129, 2274.761
199.8951, 2262.362
200.3772, 2252.416
200.8593, 2252.096
201.3414, 2274.777
201.8235, 2293.140
202.3056, 2289.027
202.7878, 2266.443
203.2699, 2244.261
203.7520, 2239.823
204.2341, 2255.851
204.7162, 2264.131
205.1983, 2259.778
205.6805, 2253.974
206.1626, 2250.636
206.6447, 2249.774
207.1268, 2249.984
207.6089, 2250.305
208.0910, 2250.748
208.5732, 2250.605
209.0553, 2241.662
209.5374, 2240.405
210.0195, 2260.628
210.5016, 2293.527
210.9837, 2318.434
211.4659, 2320.515
211.9480, 2302.105
212.4301, 2293.809
212.9122, 2301.119
213.3943, 2311.617
213.8764, 2324.529
214.3586, 2338.298
214.8407, 2350.795
215.3228, 2360.906
215.8049, 2368.564
216.2870, 2373.035
216.7691, 2366.739
217.2513, 2366.026
217.7334, 2377.431
218.2155, 2395.220
218.6976, 2411.162
219.1797, 2421.226
219.6618, 2427.266
220.1440, 2435.040
220.6261, 2449.061
221.1082, 2459.469
221.5903, 2463.095
222.0724, 2463.667
222.5546, 2464.715
223.0367, 2467.672
223.5188, 2472.882
224.0009, 2481.263
224.4830, 2498.122
224.9651, 2511.144
225.4473, 2517.012
225.9294, 2520.756
226.4115, 2528.637
226.8936, 2541.924
227.3757, 2554.717
227.8578, 2556.935
228.3400, 2539.873
228.8221, 2528.485
229.3042, 2520.355
229.7863, 2518.825
230.2684, 2530.620
230.7505, 2554.845
231.2327, 2579.998
231.7148, 2590.974
232.1969, 2581.404
232.6790, 2577.533
233.1611, 2583.007
233.6432, 2590.076
234.1254, 2593.560
234.6075, 2593.779
235.0896, 2595.112
235.5717, 2602.366
236.0538, 2617.063
236.5359, 2627.191
237.0181, 2632.117
237.5002, 2633.795
237.9823, 2631.064
238.4644, 2625.471
238.9465, 2620.369
239.4286, 2618.471
239.9108, 2619.698
240.3929, 2620.229
240.8750, 2618.114
241.3571, 2617.365
241.8392, 2620.062
242.3213, 2624.728
242.8035, 2628.778
243.2856, 2630.622
243.7677, 2630.685
244.2498, 2631.224
244.7319, 2635.449
245.2140, 2636.111
245.6962, 2627.913
246.1783, 2617.231
246.6604, 2612.975
247.1425, 2619.376
247.6246, 2630.587
248.1067, 2631.613
248.5889, 2615.958
249.0710, 2599.978
249.5531, 2584.327
250.0352, 2569.513
250.5173, 2553.964
250.9994, 2537.799
251.4816, 2525.649
251.9637, 2526.838
252.4458, 2550.625
252.9279, 2565.074
253.4100, 2564.318
253.8921, 2558.394
254.3743, 2552.748
254.8564, 2548.220
255.3385, 2542.855
255.8206, 2532.788
256.3027, 2515.616
256.7849, 2506.481
257.2670, 2516.069
257.7491, 2524.791
258.2312, 2522.390
258.7133, 2511.640
259.1954, 2503.033
259.6776, 2507.262
260.1597, 2523.132
260.6418, 2528.257
261.1239, 2511.870
261.6060, 2497.236
262.0881, 2492.015
262.5703, 2494.094
263.0524, 2500.029
263.5345, 2509.599
264.0166, 2520.178
264.4987, 2522.301
264.9808, 2510.299
265.4630, 2500.939
265.9451, 2501.043
266.4272, 2505.867
266.9093, 2509.530
267.3914, 2509.098
267.8735, 2509.573
268.3557, 2521.540
268.8378, 2549.116
269.3199, 2570.268
269.8020, 2576.319
270.2841, 2574.096
270.7662, 2563.716
271.2484, 2544.633
271.7305, 2530.150
272.2126, 2537.691
272.6947, 2566.787
273.1768, 2588.257
273.6589, 2591.285
274.1411, 2590.542
274.6232, 2597.583
275.1053, 2612.214
275.5874, 2628.858
276.0695, 2646.259
276.5516, 2663.327
277.0338, 2675.861
277.5159, 2682.581
277.9980, 2686.438
278.4801, 2683.509
278.9622, 2678.353
279.4443, 2686.077
279.9265, 2726.983
280.4086, 2777.599
280.8907, 2798.915
281.3728, 2786.327
281.8549, 2775.238
282.3370, 2791.125
282.8192, 2824.119
283.3013, 2850.367
283.7834, 2863.033
284.2655, 2873.074
284.7476, 2887.324
285.2297, 2905.840
285.7119, 2929.675
286.1940, 2962.331
286.6761, 2997.683
287.1582, 3020.763
287.6403, 3022.889
288.1224, 3034.027
288.6046, 3075.789
289.0867, 3133.761
289.5688, 3179.308
290.0509, 3203.604
290.5330, 3216.554
291.0151, 3230.599
291.4973, 3244.629
291.9794, 3264.811
292.4615, 3299.274
292.9436, 3336.172
293.4257, 3361.773
293.9078, 3374.936
294.3900, 3387.698
294.8721, 3411.701
295.3542, 3448.363
295.8363, 3481.145
296.3184, 3511.268
296.8005, 3536.707
297.2827, 3553.575
297.7648, 3564.472
298.2469, 3575.175
298.7290, 3588.817
299.2111, 3605.999
299.6932, 3630.749
300.1754, 3673.460
300.6575, 3711.151
301.1396, 3734.427
301.6217, 3752.354
302.1038, 3776.772
302.5859, 3812.254
303.0680, 3854.256
303.5501, 3894.457
304.0323, 3933.109
304.5144, 3968.978
304.9965, 3995.016
305.4786, 4023.396
305.9607, 4065.916
306.4428, 4122.077
306.9250, 4179.171
307.4071, 4222.767
307.8892, 4250.204
308.3713, 4283.245
308.8534, 4330.488
309.3355, 4375.745
309.8177, 4409.765
310.2998, 4437.681
310.7819, 4473.059
311.2640, 4528.805
311.7461, 4595.833
312.2282, 4633.105
312.7104, 4618.266
313.1925, 4614.019
313.6746, 4640.070
314.1567, 4684.000
314.6388, 4735.706
315.1209, 4793.262
315.6031, 4849.299
316.0852, 4891.393
316.5673, 4917.578
317.0494, 4947.323
317.5315, 4986.788
318.0136, 5030.350
318.4958, 5074.390
318.9779, 5118.869
319.4600, 5163.086
319.9421, 5207.438
320.4242, 5251.365
320.9063, 5293.420
321.3885, 5332.724
321.8706, 5371.242
322.3527, 5410.945
322.8348, 5450.941
323.3169, 5488.612
323.7990, 5521.686
324.2812, 5552.854
324.7633, 5587.850
325.2454, 5626.395
325.7275, 5655.405
326.2096, 5663.616
326.6917, 5658.410
327.1739, 5663.203
327.6560, 5683.434
328.1381, 5704.929
328.6202, 5726.431
329.1023, 5744.286
329.5844, 5748.611
330.0666, 5734.725
330.5487, 5713.221
331.0308, 5700.610
331.5129, 5698.629
331.9950, 5701.332
332.4771, 5721.328
332.9593, 5737.341
333.4414, 5727.818
333.9235, 5693.204
334.4056, 5651.691
334.8877, 5619.128
335.3698, 5595.770
335.8520, 5573.760
336.3341, 5557.292
336.8162, 5537.563
337.2983, 5510.011
337.7804, 5477.534
338.2625, 5446.443
338.7447, 5420.214
339.2268, 5394.673
339.7089, 5357.223
340.1910, 5295.664
340.6731, 5243.273
341.1552, 5208.536
341.6374, 5179.385
342.1195, 5147.960
342.6016, 5112.399
343.0837, 5073.631
343.5658, 5032.273
344.0479, 4988.539
344.5301, 4942.176
345.0122, 4888.963
345.4943, 4838.191
345.9764, 4791.332
346.4585, 4749.696
346.9406, 4716.008
347.4228, 4695.154
347.9049, 4680.476
348.3870, 4657.700
348.8691, 4626.289
349.3512, 4588.368
349.8333, 4540.901
350.3155, 4488.891
350.7976, 4436.439
351.2797, 4382.265
351.7618, 4333.520
352.2439, 4297.025
352.7260, 4270.894
353.2082, 4247.798
353.6903, 4227.426
354.1724, 4206.752
354.6545, 4184.007
355.1366, 4159.486
355.6187, 4126.917
356.1009, 4079.768
356.5830, 4026.949
357.0651, 3974.210
357.5472, 3922.840
358.0293, 3878.098
358.5114, 3845.773
358.9936, 3823.099
359.4757, 3788.731
359.9578, 3723.795
360.4399, 3671.129
360.9220, 3650.960
361.4041, 3648.174
361.8863, 3641.614
362.3684, 3623.547
362.8505, 3598.542
363.3326, 3574.357
363.8147, 3553.101
364.2968, 3527.717
364.7790, 3486.698
365.2611, 3451.792
365.7432, 3441.358
366.2253, 3450.439
366.7074, 3458.712
367.1895, 3450.492
367.6717, 3426.916
368.1538, 3397.163
368.6359, 3347.736
369.1180, 3312.882
369.6001, 3313.826
370.0822, 3327.217
370.5644, 3324.271
371.0465, 3294.080
371.5286, 3255.247
372.0107, 3232.801
372.4928, 3227.784
372.9749, 3222.617
373.4571, 3212.778
373.9392, 3203.354
374.4213, 3199.426
374.9034, 3200.165
375.3855, 3199.286
375.8676, 3193.261
376.3498, 3183.758
376.8319, 3171.567
377.3140, 3156.004
377.7961, 3145.883
378.2782, 3150.283
378.7603, 3164.195
379.2425, 3169.699
379.7246, 3161.394
380.2067, 3151.687
380.6888, 3145.343
381.1709, 3141.987
381.6530, 3141.036
382.1352, 3142.323
382.6173, 3145.760
383.0994, 3151.576
383.5815, 3161.301
384.0636, 3168.962
384.5457, 3179.938
385.0279, 3184.446
385.5100, 3169.078
385.9921, 3140.192
386.4742, 3119.607
386.9563, 3124.216
387.4384, 3148.640
387.9206, 3158.898
388.4027, 3139.465
388.8848, 3126.760
389.3669, 3127.728
389.8490, 3136.208
390.3311, 3148.362
390.8133, 3162.536
391.2954, 3174.675
391.7775, 3178.548
392.2596, 3173.423
392.7417, 3170.213
393.2238, 3170.204
393.7060, 3171.549
394.1881, 3175.432
394.6702, 3179.872
395.1523, 3179.521
395.6344, 3167.781
396.1165, 3153.539
396.5987, 3150.800
397.0808, 3159.835
397.5629, 3171.688
398.0450, 3185.810
398.5271, 3198.056
399.0092, 3201.860
399.4914, 3196.036
399.9735, 3186.921
400.4556, 3170.886
400.9377, 3155.289
401.4198, 3156.126
401.9019, 3175.251
402.3841, 3188.623
402.8662, 3170.569
403.3483, 3119.922
403.8304, 3094.891
404.3125, 3112.318
404.7946, 3133.373
405.2768, 3146.052
405.7589, 3152.772
406.2410, 3159.731
406.7231, 3169.480
407.2052, 3177.721
407.6873, 3175.560
408.1695, 3157.553
408.6516, 3141.599
409.1337, 3132.124
409.6158, 3120.926
410.0979, 3100.417
410.5800, 3073.576
411.0622, 3050.658
411.5443, 3039.535
412.0264, 3037.300
412.5085, 3034.599
412.9906, 3031.687
413.4727, 3027.583
413.9549, 3024.618
414.4370, 3018.779
414.9191, 3002.750
415.4012, 2972.972
415.8833, 2947.971
416.3654, 2946.034
416.8476, 2958.342
417.3297, 2961.357
417.8118, 2950.550
418.2939, 2932.787
418.7760, 2911.656
419.2581, 2887.776
419.7403, 2870.177
420.2224, 2860.410
420.7045, 2855.867
421.1866, 2858.194
421.6687, 2864.508
422.1508, 2869.200
422.6330, 2870.000
423.1151, 2867.218
423.5972, 2860.940
424.0793, 2846.528
424.5614, 2838.346
425.0435, 2844.798
425.5257, 2849.550
426.0078, 2840.271
426.4899, 2819.976
426.9720, 2800.797
427.4541, 2791.501
427.9362, 2789.671
428.4184, 2785.285
428.9005, 2776.622
429.3826, 2769.251
429.8647, 2768.677
430.3468, 2767.741
430.8289, 2759.037
431.3111, 2741.263
431.7932, 2722.572
432.2753, 2708.399
432.7574, 2698.141
433.2395, 2692.108
433.7216, 2692.666
434.2038, 2687.128
434.6859, 2657.965
435.1680, 2613.718
435.6501, 2591.574
436.1322, 2614.879
436.6143, 2638.354
437.0965, 2637.522
437.5786, 2621.494
438.0607, 2606.930
438.5428, 2599.146
439.0249, 2595.405
439.5070, 2592.913
439.9892, 2595.499
440.4713, 2585.155
440.9534, 2542.535
441.4355, 2507.852
441.9176, 2506.704
442.3997, 2527.277
442.8819, 2544.077
443.3640, 2543.488
443.8461, 2530.289
444.3282, 2513.119
444.8103, 2488.000
445.2924, 2472.118
445.7746, 2477.845
446.2567, 2487.036
446.7388, 2487.123
447.2209, 2478.835
447.7030, 2472.925
448.1852, 2479.934
448.6673, 2491.870
449.1494, 2493.579
449.6315, 2484.423
450.1136, 2470.084
450.5957, 2449.431
451.0779, 2428.038
451.5600, 2420.538
452.0421, 2433.968
452.5242, 2444.062
453.0063, 2441.309
453.4884, 2432.845
453.9706, 2425.291
454.4527, 2420.252
454.9348, 2419.450
455.4169, 2425.868
455.8990, 2438.943
456.3811, 2440.774
456.8633, 2419.660
457.3454, 2400.330
457.8275, 2386.756
458.3096, 2376.747
458.7917, 2367.217
459.2738, 2357.479
459.7560, 2350.201
460.2381, 2352.258
460.7202, 2363.478
461.2023, 2360.778
461.6844, 2334.803
462.1665, 2308.577
462.6487, 2292.418
463.1308, 2285.672
463.6129, 2289.684
464.0950, 2313.510
464.5771, 2333.849
465.0592, 2326.455
465.5414, 2299.629
466.0235, 2278.819
466.5056, 2270.882
466.9877, 2271.294
467.4698, 2277.958
467.9519, 2294.127
468.4341, 2292.239
468.9162, 2246.046
469.3983, 2208.674
469.8804, 2216.541
470.3625, 2250.635
470.8446, 2274.117
471.3268, 2270.344
471.8089, 2249.840
472.2910, 2229.036
472.7731, 2202.117
473.2552, 2192.817
473.7373, 2225.295
474.2195, 2255.454
474.7016, 2259.712
475.1837, 2245.618
475.6658, 2235.779
476.1479, 2243.165
476.6300, 2258.046
477.1122, 2266.631
477.5943, 2269.043
478.0764, 2269.169
478.5585, 2267.973
479.0406, 2265.349
479.5227, 2259.259
480.0049, 2249.048
480.4870, 2244.965
480.9691, 2251.419
481.4512, 2262.714
481.9333, 2276.661
482.4154, 2291.698
482.8976, 2304.765
483.3797, 2314.240
483.8618, 2319.957
484.3439, 2321.451
484.8260, 2317.998
485.3081, 2311.298
485.7903, 2299.295
486.2724, 2286.377
486.7545, 2272.082
487.2366, 2258.902
487.7187, 2253.342
488.2008, 2262.176
488.6830, 2278.412
489.1651, 2284.414
489.6472, 2278.428
490.1293, 2275.840
490.6114, 2285.699
491.0935, 2297.198
491.5757, 2295.661
492.0578, 2280.492
492.5399, 2269.740
493.0220, 2274.538
493.5041, 2283.025
493.9862, 2284.040
494.4684, 2277.490
494.9505, 2265.934
495.4326, 2249.751
495.9147, 2232.175
496.3968, 2222.291
496.8789, 2228.631
497.3611, 2229.331
497.8432, 2221.726
498.3253, 2211.081
498.8074, 2200.649
499.2895, 2190.301
499.7716, 2177.784
500.2538, 2160.577
500.7359, 2141.818
501.2180, 2131.048
501.7001, 2130.331
502.1822, 2127.154
502.6643, 2117.240
503.1465, 2104.128
503.6286, 2090.276
504.1107, 2075.817
504.5928, 2064.375
505.0749, 2057.304
505.5570, 2053.784
506.0392, 2057.577
506.5213, 2065.681
507.0034, 2063.187
507.4855, 2041.429
507.9676, 2009.349
508.4497, 1985.413
508.9319, 1968.780
509.4140, 1963.700
509.8961, 1979.896
510.3782, 1998.008
510.8603, 2009.426
511.3424, 2013.351
511.8246, 2010.239
512.3067, 1999.195
512.7888, 1984.805
513.2709, 1976.732
513.7531, 1975.731
514.2352, 1975.686
514.7173, 1977.612
515.1994, 1977.435
515.6815, 1968.289
516.1636, 1952.499
516.6458, 1944.472
517.1279, 1955.023
517.6100, 1969.629
518.0921, 1976.719
518.5742, 1977.690
519.0563, 1978.120
519.5385, 1980.390
520.0206, 1980.200
520.5027, 1969.317
520.9848, 1940.509
521.4669, 1926.834
521.9490, 1936.083
522.4312, 1950.141
522.9133, 1964.449
523.3954, 1977.859
523.8775, 1990.666
524.3596, 2003.230
524.8417, 2011.887
525.3239, 2008.294
525.8060, 1993.013
526.2881, 1986.769
526.7702, 1996.059
527.2523, 2007.013
527.7344, 2006.915
528.2166, 2000.175
528.6987, 1999.041
529.1808, 2011.662
529.6629, 2021.983
530.1450, 2020.238
530.6271, 2011.265
531.1093, 2000.764
531.5914, 1990.717
532.0735, 1985.657
532.5556, 1991.493
533.0377, 2008.295
533.5198, 2019.353
534.0020, 2017.369
534.4841, 2018.910
534.9662, 2029.166
535.4483, 2043.109
535.9304, 2057.385
536.4125, 2070.784
536.8947, 2079.727
537.3768, 2075.791
537.8589, 2065.388
538.3410, 2071.590
538.8231, 2097.964
539.3052, 2116.559
539.7874, 2108.181
540.2695, 2085.371
540.7516, 2078.743
541.2337, 2094.542
541.7158, 2107.821
542.1979, 2111.572
542.6801, 2112.433
543.1622, 2116.707
543.6443, 2123.527
544.1264, 2127.126
544.6085, 2123.399
545.0906, 2116.243
545.5728, 2117.407
546.0549, 2130.891
546.5370, 2140.531
547.0191, 2140.269
547.5012, 2139.189
547.9833, 2144.524
548.4655, 2153.872
548.9476, 2158.299
549.4297, 2150.870
549.9117, 2140.757
550.3939, 2137.841
550.8760, 2140.238
551.3581, 2139.621
551.8402, 2132.767
552.3223, 2128.707
552.8044, 2139.925
553.2866, 2169.554
553.7687, 2187.025
554.2508, 2182.636
554.7329, 2179.305
555.2150, 2186.507
555.6971, 2197.304
556.1793, 2201.302
556.6614, 2196.427
557.1435, 2191.874
557.6256, 2198.757
558.1077, 2215.211
558.5898, 2228.386
559.0720, 2237.878
559.5541, 2244.958
560.0362, 2249.853
560.5183, 2252.768
561.0004, 2253.394
561.4825, 2249.653
561.9647, 2250.762
562.4468, 2262.852
562.9289, 2278.776
563.4110, 2294.245
563.8931, 2307.363
564.3752, 2313.301
564.8574, 2308.453
565.3395, 2298.578
565.8216, 2299.031
566.3037, 2314.266
566.7858, 2327.543
567.2679, 2333.857
567.7501, 2341.625
568.2322, 2356.129
568.7143, 2375.240
569.1964, 2393.932
569.6785, 2412.120
570.1606, 2426.033
570.6428, 2430.620
571.1249, 2427.848
571.6070, 2421.650
572.0891, 2412.384
572.5712, 2407.499
573.0533, 2415.143
573.5355, 2434.781
574.0176, 2450.156
574.4997, 2459.340
574.9818, 2467.027
575.4639, 2477.861
575.9460, 2485.055
576.4282, 2477.433
576.9103, 2457.055
577.3924, 2441.910
577.8745, 2451.135
578.3566, 2473.642
578.8387, 2477.241
579.3209, 2460.293
579.8030, 2441.871
580.2851, 2427.534
580.7672, 2415.594
581.2493, 2403.256
581.7314, 2390.252
582.2136, 2380.834
582.6957, 2373.582
583.1778, 2371.956
583.6599, 2384.510
584.1420, 2402.488
584.6241, 2407.864
585.1063, 2395.100
585.5884, 2379.255
586.0705, 2384.041
586.5526, 2410.974
587.0347, 2418.146
587.5168, 2393.372
587.9990, 2370.954
588.4811, 2360.818
588.9632, 2363.820
589.4453, 2387.015
589.9274, 2435.499
590.4095, 2476.184
590.8917, 2484.172
591.3738, 2481.956
591.8559, 2495.558
592.3380, 2524.747
592.8201, 2557.751
593.3022, 2588.857
593.7844, 2618.902
594.2665, 2649.178
594.7486, 2678.015
595.2307, 2711.517
595.7128, 2749.664
596.1949, 2793.131
596.6771, 2848.378
597.1592, 2908.006
597.6413, 2959.265
598.1234, 2997.917
598.6055, 3029.079
599.0876, 3048.780
599.5698, 3065.553
600.0519, 3104.808
600.5340, 3169.437
601.0161, 3232.093
601.4982, 3274.683
601.9803, 3299.334
602.4625, 3314.485
602.9446, 3314.427
603.4267, 3312.562
603.9088, 3314.922
604.3909, 3310.490
604.8730, 3291.922
605.3552, 3260.544
605.8373, 3221.164
606.3194, 3176.377
606.8015, 3125.032
607.2836, 3062.239
607.7657, 2990.339
608.2479, 2925.786
608.7300, 2873.713
609.2121, 2819.027
609.6942, 2745.584
610.1763, 2657.077
610.6584, 2584.509
611.1406, 2535.930
611.6227, 2490.119
612.1048, 2446.883
612.5869, 2402.430
613.0690, 2350.224
613.5511, 2292.607
614.0333, 2240.823
614.5154, 2202.277
614.9975, 2173.463
615.4796, 2149.230
615.9617, 2129.921
616.4438, 2106.536
616.9260, 2076.787
617.4081, 2043.318
617.8902, 2004.696
618.3723, 1962.635
618.8544, 1934.605
619.3365, 1937.390
619.8187, 1934.426
620.3008, 1907.092
620.7829, 1871.584
621.2650, 1844.774
621.7471, 1829.319
622.2292, 1820.698
622.7114, 1816.615
623.1935, 1815.059
623.6756, 1810.035
624.1577, 1801.464
624.6398, 1789.992
625.1219, 1775.206
625.6041, 1758.323
626.0862, 1737.673
626.5683, 1714.764
627.0504, 1698.764
627.5325, 1693.694
628.0146, 1692.670
628.4968, 1697.818
628.9789, 1702.756
629.4610, 1696.406
629.9431, 1678.801
630.4252, 1662.801
630.9073, 1660.393
631.3895, 1667.334
631.8716, 1665.660
632.3537, 1653.127
632.8358, 1641.270
633.3179, 1631.721
633.8000, 1624.975
634.2822, 1623.042
