##NAMES=Delhayelite
##RRUFFID=R070096
##IDEAL CHEMISTRY=K_7_Na_3_Ca_5_Al_2_Si_14_O_38_F_4_Cl_2_
##LOCALITY=Yukspor Mountain, Khibiny Massif, Kola Peninsula, Russia
##OWNER=RRUFF
##SOURCE=Michael Scott
##DESCRIPTION=Dark gray to colorless cleavage fragments associated with brown lamprophyllite, elongated blue aegerine, light yellow fenakite, grayish brown lomonosovite and very pale yellow to colorless Fenaksite (R080135).
##STATUS=The identification of this mineral has been confirmed by X-ray diffraction and chemical analysis
##URL=rruff.info/R070096
##MEASURED CHEMISTRY=K_7.25_Na_3.44_(Ca_4.32_Na_0.66_Mn_0.02_)_Σ=5_(Al_1.97_Fe^3+^_0.03_)_Σ=2_(Si_13.97_Al_0.03_)_Σ=14_O_38_F_4_(Cl_1.70_F_0.30_)_Σ=2_
152.1107, 11160.84
152.5928, 11270.79
153.0749, 11355.79
153.5570, 11395.95
154.0391, 11394.70
154.5213, 11401.15
155.0034, 11430.29
155.4855, 11465.70
155.9676, 11494.47
156.4497, 11516.98
156.9318, 11530.36
157.4140, 11526.56
157.8961, 11502.01
158.3782, 11493.79
158.8603, 11521.70
159.3424, 11568.76
159.8245, 11614.86
160.3067, 11651.80
160.7888, 11687.33
161.2709, 11724.95
161.7530, 11764.72
162.2351, 11807.73
162.7172, 11854.39
163.1993, 11904.61
163.6815, 11958.25
164.1636, 12030.08
164.6457, 12097.25
165.1278, 12139.99
165.6099, 12143.21
166.0920, 12141.40
166.5742, 12154.84
167.0563, 12180.29
167.5384, 12205.45
168.0205, 12228.85
168.5026, 12246.58
168.9847, 12253.41
169.4669, 12240.47
169.9490, 12223.46
170.4311, 12213.40
170.9132, 12210.10
171.3953, 12211.19
171.8774, 12225.55
172.3596, 12241.88
172.8417, 12242.25
173.3238, 12191.23
173.8059, 12134.43
174.2880, 12130.75
174.7701, 12183.45
175.2523, 12245.13
175.7344, 12272.30
176.2165, 12274.86
176.6986, 12278.77
177.1807, 12302.00
177.6628, 12332.77
178.1450, 12350.04
178.6271, 12349.38
179.1092, 12348.12
179.5913, 12371.31
180.0734, 12413.56
180.5555, 12451.53
181.0376, 12465.80
181.5198, 12465.53
182.0019, 12474.26
182.4840, 12497.30
182.9661, 12525.46
183.4482, 12542.67
183.9303, 12549.96
184.4125, 12558.90
184.8946, 12581.29
185.3767, 12613.34
185.8588, 12639.29
186.3409, 12653.45
186.8230, 12662.32
187.3052, 12679.57
187.7873, 12705.26
188.2694, 12735.05
188.7515, 12769.05
189.2336, 12806.28
189.7157, 12833.73
190.1979, 12845.50
190.6800, 12845.95
191.1621, 12848.31
191.6442, 12852.21
192.1263, 12859.86
192.6084, 12878.24
193.0906, 12907.10
193.5727, 12927.09
194.0548, 12930.94
194.5369, 12919.97
195.0190, 12900.15
195.5011, 12867.82
195.9832, 12837.21
196.4654, 12832.10
196.9475, 12854.82
197.4296, 12877.19
197.9117, 12885.80
198.3938, 12880.67
198.8759, 12880.21
199.3581, 12885.14
199.8402, 12893.71
200.3223, 12902.35
200.8044, 12910.47
201.2865, 12921.68
201.7686, 12940.37
202.2508, 12967.75
202.7329, 12985.63
203.2150, 12988.02
203.6971, 12985.16
204.1792, 13006.00
204.6613, 13058.50
205.1435, 13108.24
205.6256, 13132.79
206.1077, 13127.25
206.5898, 13122.96
207.0719, 13120.05
207.5540, 13120.99
208.0362, 13137.73
208.5183, 13176.48
209.0004, 13216.57
209.4825, 13239.93
209.9646, 13238.37
210.4467, 13252.92
210.9289, 13295.49
211.4110, 13360.09
211.8931, 13407.04
212.3752, 13434.71
212.8573, 13446.84
213.3394, 13440.52
213.8215, 13403.10
214.3037, 13385.54
214.7858, 13403.70
215.2679, 13455.20
215.7500, 13487.64
216.2321, 13492.76
216.7142, 13489.60
217.1964, 13497.81
217.6785, 13522.24
218.1606, 13545.88
218.6427, 13564.54
219.1248, 13577.66
219.6069, 13594.52
220.0891, 13618.06
220.5712, 13642.33
221.0533, 13659.42
221.5354, 13664.14
222.0175, 13672.60
222.4996, 13691.78
222.9818, 13725.46
223.4639, 13743.10
223.9460, 13731.92
224.4281, 13715.04
224.9102, 13729.56
225.3923, 13795.35
225.8745, 13856.10
226.3566, 13891.03
226.8387, 13892.79
227.3208, 13899.73
227.8029, 13912.58
228.2850, 13930.22
228.7672, 13951.75
229.2493, 13984.46
229.7314, 14009.54
230.2135, 14017.62
230.6956, 13998.56
231.1777, 13991.06
231.6599, 13995.93
232.1420, 14012.03
232.6241, 14039.13
233.1062, 14089.41
233.5883, 14132.11
234.0704, 14151.59
234.5526, 14127.73
235.0347, 14126.69
235.5168, 14158.65
235.9989, 14211.19
236.4810, 14251.24
236.9631, 14277.12
237.4453, 14292.31
237.9274, 14295.01
238.4095, 14269.60
238.8916, 14267.62
239.3737, 14303.85
239.8558, 14364.14
240.3380, 14395.51
240.8201, 14378.53
241.3022, 14358.72
241.7843, 14361.38
242.2664, 14400.67
242.7485, 14433.15
243.2307, 14457.00
243.7128, 14472.52
244.1949, 14479.78
244.6770, 14472.40
245.1591, 14465.13
245.6412, 14467.57
246.1233, 14486.17
246.6055, 14501.42
247.0876, 14513.96
247.5697, 14522.56
248.0518, 14518.67
248.5339, 14495.62
249.0160, 14468.96
249.4982, 14447.13
249.9803, 14425.12
250.4624, 14419.38
250.9445, 14435.74
251.4266, 14471.08
251.9087, 14507.59
252.3909, 14555.07
252.8730, 14590.86
253.3551, 14593.56
253.8372, 14542.20
254.3193, 14506.58
254.8014, 14497.78
255.2836, 14513.44
255.7657, 14534.41
256.2478, 14563.29
256.7299, 14593.92
257.2120, 14622.61
257.6941, 14650.90
258.1762, 14672.85
258.6584, 14683.64
259.1405, 14685.29
259.6226, 14702.15
260.1047, 14740.60
260.5868, 14784.90
261.0689, 14824.89
261.5511, 14863.70
262.0332, 14887.67
262.5153, 14890.68
262.9974, 14874.88
263.4795, 14861.02
263.9616, 14845.09
264.4438, 14837.95
264.9259, 14851.54
265.4080, 14892.02
265.8901, 14933.09
266.3722, 14972.07
266.8543, 15008.26
267.3365, 15030.62
267.8186, 15031.10
268.3007, 15033.36
268.7828, 15066.12
269.2649, 15143.23
269.7470, 15194.66
270.2292, 15197.98
270.7113, 15160.08
271.1934, 15147.54
271.6755, 15167.57
272.1576, 15195.66
272.6397, 15203.60
273.1219, 15183.66
273.6040, 15188.24
274.0861, 15239.85
274.5682, 15328.77
275.0503, 15372.46
275.5324, 15361.22
276.0146, 15333.90
276.4967, 15321.96
276.9788, 15324.96
277.4609, 15348.93
277.9430, 15405.55
278.4251, 15484.90
278.9073, 15527.91
279.3894, 15527.70
279.8715, 15515.96
280.3536, 15518.92
280.8357, 15536.70
281.3178, 15566.70
281.8000, 15612.38
282.2821, 15669.08
282.7642, 15719.40
283.2463, 15763.03
283.7284, 15799.57
284.2105, 15826.78
284.6927, 15844.97
285.1748, 15860.73
285.6569, 15874.43
286.1390, 15887.29
286.6211, 15901.94
287.1032, 15918.12
287.5853, 15939.17
288.0674, 15976.88
288.5496, 16027.26
289.0317, 16056.15
289.5138, 16043.50
289.9959, 16011.83
290.4780, 16017.91
290.9601, 16062.92
291.4423, 16119.71
291.9244, 16172.01
292.4065, 16218.51
292.8886, 16252.06
293.3707, 16268.52
293.8528, 16273.22
294.3350, 16270.71
294.8171, 16261.42
295.2992, 16260.88
295.7813, 16289.14
296.2634, 16336.64
296.7455, 16376.02
297.2277, 16400.07
297.7098, 16414.70
298.1919, 16431.02
298.6740, 16448.00
299.1561, 16454.69
299.6382, 16429.21
300.1204, 16389.17
300.6025, 16371.14
301.0846, 16391.14
301.5667, 16424.17
302.0488, 16446.03
302.5309, 16456.67
303.0131, 16456.86
303.4952, 16434.48
303.9773, 16405.36
304.4594, 16393.89
304.9415, 16411.85
305.4236, 16437.03
305.9058, 16447.03
306.3879, 16445.97
306.8700, 16448.72
307.3521, 16472.42
307.8342, 16501.02
308.3163, 16515.35
308.7985, 16504.91
309.2806, 16494.65
309.7627, 16509.84
310.2448, 16540.67
310.7269, 16560.23
311.2090, 16538.85
311.6912, 16509.26
312.1733, 16500.84
312.6554, 16528.63
313.1375, 16552.78
313.6196, 16543.21
314.1017, 16514.41
314.5839, 16498.14
315.0660, 16521.37
315.5481, 16551.87
316.0302, 16567.71
316.5123, 16558.47
316.9944, 16557.36
317.4766, 16584.07
317.9587, 16626.35
318.4408, 16663.10
318.9229, 16684.78
319.4050, 16701.93
319.8871, 16718.87
320.3692, 16735.96
320.8513, 16753.18
321.3335, 16777.63
321.8156, 16800.47
322.2977, 16809.67
322.7798, 16776.86
323.2619, 16754.12
323.7440, 16757.05
324.2262, 16788.78
324.7083, 16835.47
325.1904, 16909.97
325.6725, 16993.63
326.1546, 17065.83
326.6367, 17156.50
327.1189, 17203.79
327.6010, 17173.45
328.0831, 17050.55
328.5652, 16980.43
329.0473, 16998.21
329.5294, 17047.25
330.0116, 17075.92
330.4937, 17069.21
330.9758, 17063.16
331.4579, 17059.40
331.9400, 17058.12
332.4221, 17076.77
332.9043, 17129.74
333.3864, 17186.44
333.8685, 17221.91
334.3506, 17228.56
334.8327, 17230.53
335.3148, 17228.22
335.7970, 17223.31
336.2791, 17225.41
336.7612, 17234.91
337.2433, 17250.77
337.7254, 17272.74
338.2076, 17300.86
338.6897, 17336.55
339.1718, 17388.89
339.6539, 17443.74
340.1360, 17448.22
340.6181, 17387.97
341.1003, 17343.64
341.5824, 17382.91
342.0645, 17506.59
342.5466, 17593.17
343.0287, 17628.81
343.5108, 17630.35
343.9930, 17624.54
344.4751, 17611.28
344.9572, 17600.54
345.4393, 17597.03
345.9214, 17600.45
346.4035, 17609.53
346.8857, 17624.35
347.3678, 17644.25
347.8499, 17673.13
348.3320, 17708.49
348.8141, 17736.81
349.2962, 17750.66
349.7784, 17753.35
350.2605, 17748.45
350.7426, 17735.04
351.2247, 17724.54
351.7068, 17730.55
352.1889, 17748.10
352.6710, 17765.62
353.1531, 17776.72
353.6353, 17786.40
354.1174, 17804.35
354.5995, 17830.18
355.0816, 17847.84
355.5637, 17837.26
356.0458, 17813.67
356.5280, 17797.12
357.0101, 17795.20
357.4922, 17801.82
357.9743, 17820.79
358.4564, 17848.83
358.9385, 17864.87
359.4207, 17846.26
359.9028, 17817.14
360.3849, 17796.77
360.8670, 17787.78
361.3491, 17790.91
361.8312, 17815.21
362.3134, 17853.70
362.7955, 17883.75
363.2776, 17892.57
363.7597, 17895.49
364.2418, 17900.37
364.7239, 17908.59
365.2061, 17918.19
365.6882, 17934.15
366.1703, 17950.93
366.6524, 17957.21
367.1345, 17925.81
367.6166, 17907.42
368.0988, 17924.95
368.5809, 18002.28
369.0630, 18043.97
369.5451, 18017.47
370.0272, 17971.20
370.5093, 17971.84
370.9915, 18066.80
371.4736, 18135.08
371.9557, 18138.23
372.4378, 18070.92
372.9199, 18034.04
373.4020, 18037.08
373.8842, 18057.63
374.3663, 18073.36
374.8484, 18080.47
375.3305, 18097.75
375.8126, 18133.76
376.2947, 18182.68
376.7769, 18209.77
377.2590, 18211.32
377.7411, 18205.68
378.2232, 18203.53
378.7053, 18204.87
379.1874, 18214.76
379.6696, 18234.61
380.1517, 18262.23
380.6338, 18298.84
381.1159, 18343.88
381.5980, 18380.66
382.0801, 18391.42
382.5623, 18384.58
383.0444, 18388.51
383.5265, 18406.96
384.0086, 18431.05
384.4907, 18449.29
384.9728, 18463.90
385.4549, 18481.92
385.9370, 18507.96
386.4192, 18538.95
386.9013, 18573.93
387.3834, 18612.82
387.8655, 18644.55
388.3476, 18656.40
388.8297, 18655.72
389.3119, 18653.56
389.7940, 18654.36
390.2761, 18654.84
390.7582, 18647.80
391.2403, 18635.39
391.7224, 18634.70
392.2046, 18669.98
392.6867, 18712.05
393.1688, 18735.73
393.6509, 18711.70
394.1330, 18699.70
394.6151, 18727.42
395.0973, 18783.09
395.5794, 18829.26
396.0615, 18847.88
396.5436, 18863.12
397.0257, 18885.90
397.5078, 18920.88
397.9900, 18955.37
398.4721, 18995.27
398.9542, 19032.62
399.4363, 19054.55
399.9184, 19047.57
400.4005, 19041.95
400.8827, 19045.55
401.3648, 19059.56
401.8469, 19072.18
402.3290, 19079.90
402.8111, 19090.06
403.2932, 19111.61
403.7754, 19148.88
404.2575, 19183.64
404.7396, 19212.66
405.2217, 19236.35
405.7038, 19255.47
406.1859, 19269.39
406.6681, 19281.15
407.1502, 19294.04
407.6323, 19307.69
408.1144, 19315.13
408.5965, 19313.41
409.0786, 19308.96
409.5608, 19312.49
410.0429, 19323.84
410.5250, 19341.22
411.0071, 19364.01
411.4892, 19392.10
411.9713, 19428.46
412.4535, 19475.15
412.9356, 19518.36
413.4177, 19540.50
413.8998, 19548.91
414.3819, 19560.01
414.8640, 19592.62
415.3462, 19623.25
415.8283, 19624.52
416.3104, 19598.71
416.7925, 19576.29
417.2746, 19571.00
417.7567, 19580.23
418.2388, 19602.07
418.7209, 19643.17
419.2031, 19687.31
419.6852, 19728.92
420.1673, 19768.18
420.6494, 19803.73
421.1315, 19839.75
421.6136, 19868.86
422.0958, 19884.79
422.5779, 19877.23
423.0600, 19881.14
423.5421, 19907.77
424.0242, 19946.13
424.5063, 19980.19
424.9885, 20012.38
425.4706, 20037.45
425.9527, 20051.81
426.4348, 20054.64
426.9169, 20062.22
427.3990, 20073.04
427.8812, 20090.42
428.3633, 20118.08
428.8454, 20157.63
429.3275, 20204.68
429.8096, 20268.87
430.2917, 20335.38
430.7739, 20344.61
431.2560, 20287.05
431.7381, 20226.03
432.2202, 20194.30
432.7023, 20190.70
433.1844, 20211.84
433.6666, 20264.72
434.1487, 20318.87
434.6308, 20323.74
435.1129, 20288.94
435.5950, 20262.84
436.0771, 20274.42
436.5593, 20304.52
437.0414, 20322.99
437.5235, 20330.04
438.0056, 20334.39
438.4877, 20325.28
438.9698, 20322.65
439.4520, 20358.82
439.9341, 20478.95
440.4162, 20589.78
440.8983, 20624.00
441.3804, 20598.72
441.8625, 20567.36
442.3447, 20525.26
442.8268, 20503.98
443.3089, 20529.52
443.7910, 20624.90
444.2731, 20706.21
444.7552, 20748.13
445.2374, 20767.71
445.7195, 20787.32
446.2016, 20813.57
446.6837, 20835.69
447.1658, 20847.71
447.6479, 20849.23
448.1301, 20862.95
448.6122, 20891.22
449.0943, 20929.29
449.5764, 20975.87
450.0585, 21037.74
450.5406, 21088.88
451.0227, 21124.69
451.5049, 21149.54
451.9870, 21176.40
452.4691, 21206.99
452.9512, 21228.94
453.4333, 21227.50
453.9154, 21206.44
454.3976, 21211.61
454.8797, 21247.88
455.3618, 21289.85
455.8439, 21301.46
456.3260, 21290.79
456.8081, 21290.82
457.2903, 21327.07
457.7724, 21367.73
458.2545, 21357.94
458.7366, 21304.41
459.2187, 21255.15
459.7008, 21248.04
460.1830, 21259.80
460.6651, 21264.87
461.1472, 21256.68
461.6293, 21246.24
462.1114, 21238.73
462.5935, 21233.49
463.0757, 21229.37
463.5578, 21219.22
464.0399, 21216.13
464.5220, 21230.22
465.0041, 21264.14
465.4862, 21288.27
465.9684, 21290.92
466.4505, 21286.33
466.9326, 21285.30
467.4147, 21280.97
467.8968, 21291.24
468.3789, 21327.94
468.8611, 21379.77
469.3432, 21406.14
469.8253, 21395.02
470.3074, 21382.39
470.7895, 21384.84
471.2716, 21404.24
471.7538, 21421.61
472.2359, 21435.17
472.7180, 21450.88
473.2001, 21481.72
473.6822, 21526.75
474.1643, 21557.46
474.6465, 21553.69
475.1286, 21538.48
475.6107, 21576.44
476.0928, 21662.85
476.5749, 21737.85
477.0570, 21747.40
477.5392, 21720.00
478.0213, 21700.38
478.5034, 21695.67
478.9855, 21699.60
479.4676, 21703.70
479.9497, 21713.10
480.4319, 21737.18
480.9140, 21797.36
481.3961, 21858.54
481.8782, 21902.02
482.3603, 21927.20
482.8424, 21949.06
483.3246, 21973.21
483.8066, 21994.80
484.2888, 22010.19
484.7709, 22005.36
485.2530, 22011.71
485.7351, 22040.29
486.2172, 22079.45
486.6993, 22102.30
487.1815, 22103.31
487.6636, 22095.87
488.1457, 22075.68
488.6278, 22038.65
489.1099, 22055.94
489.5920, 22149.89
490.0742, 22247.76
490.5563, 22259.15
491.0384, 22183.73
491.5205, 22138.78
492.0026, 22152.23
492.4847, 22203.07
492.9669, 22264.48
493.4490, 22333.10
493.9311, 22373.32
494.4132, 22342.05
494.8953, 22275.48
495.3774, 22231.97
495.8596, 22216.46
496.3417, 22217.49
496.8238, 22234.88
497.3059, 22261.00
497.7880, 22284.91
498.2701, 22305.58
498.7523, 22320.66
499.2344, 22324.26
499.7165, 22319.94
500.1986, 22322.74
500.6807, 22357.10
501.1628, 22383.95
501.6450, 22379.07
502.1271, 22313.98
502.6092, 22281.15
503.0913, 22310.94
503.5734, 22358.06
504.0555, 22366.40
504.5377, 22311.72
505.0198, 22267.34
505.5019, 22245.46
505.9840, 22245.03
506.4661, 22266.09
506.9482, 22314.05
507.4304, 22360.73
507.9125, 22385.78
508.3946, 22391.31
508.8767, 22399.73
509.3588, 22414.31
509.8409, 22425.82
510.3231, 22411.54
510.8052, 22381.86
511.2873, 22371.73
511.7694, 22407.01
512.2515, 22460.17
512.7336, 22501.57
513.2158, 22532.75
513.6979, 22563.61
514.1800, 22619.40
514.6621, 22665.73
515.1442, 22665.59
515.6263, 22585.12
516.1085, 22533.38
516.5906, 22577.68
517.0727, 22663.52
517.5548, 22713.58
518.0369, 22659.65
518.5190, 22629.86
519.0012, 22659.31
519.4833, 22743.17
519.9654, 22813.18
520.4475, 22874.16
520.9296, 22914.36
521.4117, 22919.30
521.8939, 22876.52
522.3760, 22860.95
522.8581, 22882.78
523.3402, 22918.06
523.8223, 22921.90
524.3044, 22896.15
524.7866, 22896.36
525.2687, 22962.18
525.7508, 23054.18
526.2329, 23078.55
526.7150, 23040.92
527.1971, 23008.29
527.6793, 23032.73
528.1614, 23088.23
528.6435, 23144.48
529.1256, 23200.45
529.6077, 23244.00
530.0898, 23265.67
530.5720, 23270.08
531.0541, 23263.91
531.5362, 23235.91
532.0183, 23211.20
532.5004, 23197.38
532.9825, 23194.28
533.4646, 23195.86
533.9467, 23188.89
534.4288, 23198.41
534.9109, 23241.72
535.3931, 23346.60
535.8752, 23403.21
536.3573, 23390.09
536.8394, 23354.25
537.3215, 23362.07
537.8036, 23419.52
538.2858, 23479.05
538.7679, 23530.62
539.2500, 23574.44
539.7321, 23612.24
540.2142, 23643.49
540.6964, 23657.54
541.1785, 23623.35
541.6606, 23572.57
542.1427, 23572.07
542.6248, 23632.12
543.1069, 23698.14
543.5891, 23724.02
544.0712, 23729.64
544.5533, 23741.85
545.0354, 23793.38
545.5175, 23829.40
545.9996, 23806.18
546.4818, 23744.63
546.9639, 23717.51
547.4460, 23772.43
547.9281, 23835.22
548.4102, 23879.79
548.8923, 23903.60
549.3745, 23918.13
549.8566, 23919.27
550.3387, 23915.56
550.8208, 23914.93
551.3029, 23918.33
551.7850, 23919.24
552.2672, 23913.42
552.7493, 23908.44
553.2314, 23925.53
553.7135, 23964.27
554.1956, 24000.99
554.6777, 24019.92
555.1599, 24029.66
555.6420, 24051.96
556.1241, 24086.49
556.6062, 24113.00
557.0883, 24099.43
557.5704, 24075.29
558.0526, 24079.21
558.5347, 24130.78
559.0168, 24186.46
559.4989, 24227.83
559.9810, 24259.18
560.4631, 24287.95
560.9453, 24321.25
561.4274, 24346.54
561.9095, 24352.52
562.3916, 24341.30
562.8737, 24349.60
563.3558, 24392.93
563.8380, 24435.36
564.3201, 24448.61
564.8022, 24417.45
565.2843, 24439.69
565.7664, 24534.98
566.2485, 24645.58
566.7307, 24687.93
567.2128, 24667.92
567.6949, 24648.84
568.1770, 24649.50
568.6591, 24660.90
569.1412, 24663.27
569.6234, 24660.78
570.1055, 24673.45
570.5876, 24725.50
571.0697, 24790.73
571.5518, 24852.84
572.0339, 24911.32
572.5161, 24943.40
572.9982, 24898.21
573.4803, 24842.58
573.9624, 24834.00
574.4445, 24943.74
574.9266, 25027.29
575.4088, 25061.22
575.8909, 25062.38
576.3730, 25062.83
576.8551, 25056.70
577.3372, 25061.69
577.8193, 25086.38
578.3015, 25128.53
578.7836, 25161.71
579.2657, 25183.79
579.7478, 25208.03
580.2299, 25249.04
580.7120, 25301.76
581.1942, 25344.47
581.6763, 25374.75
582.1584, 25395.54
582.6405, 25404.35
583.1226, 25406.53
583.6047, 25412.54
584.0869, 25427.56
584.5690, 25446.42
585.0511, 25460.79
585.5332, 25475.02
586.0153, 25505.09
586.4974, 25586.72
586.9796, 25658.77
587.4617, 25681.92
587.9438, 25631.72
588.4259, 25640.15
588.9080, 25739.36
589.3901, 25865.05
589.8723, 25969.21
590.3544, 26048.02
590.8365, 26118.14
591.3186, 26175.82
591.8007, 26233.28
592.2828, 26318.57
592.7650, 26429.94
593.2471, 26535.14
593.7292, 26617.47
594.2113, 26686.04
594.6934, 26749.43
595.1755, 26809.39
595.6577, 26878.14
596.1398, 26961.83
596.6219, 27059.44
597.1040, 27175.54
597.5861, 27316.65
598.0682, 27446.81
598.5503, 27548.57
599.0324, 27633.28
599.5145, 27711.32
599.9966, 27771.25
600.4788, 27841.69
600.9609, 27932.44
601.4430, 28032.94
601.9251, 28117.12
602.4072, 28187.16
602.8893, 28236.49
603.3715, 28263.04
603.8536, 28266.83
604.3357, 28241.73
604.8178, 28186.12
605.2999, 28121.99
605.7820, 28064.10
606.2642, 28010.34
606.7463, 27960.78
607.2284, 27917.11
607.7105, 27864.09
608.1926, 27783.02
608.6747, 27686.32
609.1569, 27588.10
609.6390, 27479.43
610.1211, 27386.11
610.6032, 27341.19
611.0853, 27321.26
611.5674, 27257.96
612.0496, 27078.94
612.5317, 26926.37
613.0138, 26849.82
613.4959, 26848.15
613.9780, 26819.11
614.4601, 26752.87
614.9423, 26683.47
615.4244, 26639.99
615.9065, 26620.75
616.3886, 26575.27
616.8707, 26493.92
617.3528, 26417.86
617.8350, 26414.42
618.3171, 26455.56
618.7992, 26469.88
619.2813, 26414.53
619.7634, 26353.31
620.2455, 26336.03
620.7277, 26353.85
621.2098, 26383.53
621.6919, 26444.98
622.1740, 26489.94
622.6561, 26487.14
623.1382, 26432.48
623.6204, 26404.42
624.1025, 26426.12
624.5846, 26451.80
625.0667, 26453.70
625.5488, 26421.97
626.0309, 26410.21
626.5131, 26424.17
626.9952, 26445.42
627.4773, 26446.96
627.9594, 26432.32
628.4415, 26431.97
628.9236, 26456.74
629.4058, 26491.51
629.8879, 26527.70
630.3700, 26558.84
630.8521, 26567.16
631.3342, 26512.62
631.8163, 26458.27
632.2985, 26453.50
632.7806, 26494.28
633.2627, 26524.13
633.7448, 26508.11
634.2269, 26493.52
634.7090, 26508.67
635.1912, 26568.04
635.6733, 26604.47
636.1554, 26610.90
636.6375, 26603.53
637.1196, 26594.00
637.6017, 26581.16
638.0839, 26584.85
638.5660, 26614.84
639.0481, 26647.10
639.5302, 26625.86
640.0123, 26568.39
640.4944, 26542.03
640.9766, 26605.23
