##NAMES=Delhayelite
##RRUFFID=R060816
##IDEAL CHEMISTRY=K_7_Na_3_Ca_5_Al_2_Si_14_O_38_F_4_Cl_2_
##LOCALITY=Chibiny, Kola Peninsula, Russia
##OWNER=RRUFF
##SOURCE=Bob Jenkins
##DESCRIPTION=Dark brown platy fragment
##STATUS=The identification of this mineral has been confirmed by X-ray diffraction.
##URL=rruff.info/R060816
208.3087, 2096.982
208.7908, 2083.095
209.2730, 2072.631
209.7551, 2066.970
210.2372, 2065.955
210.7193, 2069.804
211.2014, 2083.399
211.6835, 2102.608
212.1657, 2112.761
212.6478, 2106.182
213.1299, 2098.025
213.6120, 2104.873
214.0941, 2125.204
214.5762, 2144.811
215.0584, 2157.203
215.5405, 2164.049
216.0226, 2168.773
216.5047, 2170.321
216.9868, 2173.194
217.4689, 2182.814
217.9511, 2197.829
218.4332, 2212.235
218.9153, 2222.554
219.3974, 2230.949
219.8795, 2241.902
220.3616, 2256.570
220.8438, 2271.829
221.3259, 2287.763
221.8080, 2302.979
222.2901, 2311.360
222.7722, 2302.036
223.2543, 2287.863
223.7365, 2291.668
224.2186, 2318.268
224.7007, 2345.030
225.1828, 2348.176
225.6649, 2337.846
226.1470, 2339.676
226.6292, 2375.747
227.1113, 2418.321
227.5934, 2429.236
228.0755, 2405.050
228.5576, 2383.545
229.0397, 2395.313
229.5219, 2427.055
230.0040, 2445.710
230.4861, 2434.373
230.9682, 2418.588
231.4503, 2424.368
231.9324, 2451.165
232.4146, 2477.272
232.8967, 2491.546
233.3788, 2496.556
233.8609, 2500.206
234.3430, 2501.598
234.8251, 2503.200
235.3073, 2506.260
235.7894, 2510.830
236.2715, 2518.260
236.7536, 2532.327
237.2357, 2546.809
237.7178, 2548.126
238.2000, 2529.390
238.6821, 2512.673
239.1642, 2512.645
239.6463, 2524.350
240.1284, 2531.706
240.6105, 2527.881
241.0927, 2518.993
241.5748, 2516.759
242.0569, 2523.272
242.5390, 2527.621
243.0211, 2525.781
243.5033, 2519.180
243.9854, 2509.247
244.4675, 2495.301
244.9496, 2481.640
245.4317, 2475.645
245.9138, 2478.084
246.3960, 2479.990
246.8781, 2480.002
247.3602, 2478.298
247.8423, 2475.383
248.3244, 2471.424
248.8065, 2465.228
249.2887, 2454.768
249.7708, 2439.218
250.2529, 2425.171
250.7350, 2409.228
251.2171, 2397.318
251.6992, 2397.776
252.1814, 2410.301
252.6635, 2423.115
253.1456, 2426.055
253.6277, 2418.197
254.1098, 2409.401
254.5919, 2394.173
255.0741, 2382.618
255.5562, 2384.812
256.0383, 2397.637
256.5204, 2407.023
257.0025, 2402.328
257.4846, 2385.312
257.9668, 2376.287
258.4489, 2380.542
258.9310, 2385.503
259.4131, 2386.444
259.8952, 2384.852
260.3773, 2384.332
260.8595, 2386.959
261.3416, 2391.534
261.8237, 2393.405
262.3058, 2392.761
262.7879, 2389.385
263.2701, 2380.065
263.7522, 2369.039
264.2343, 2360.906
264.7164, 2357.413
265.1985, 2358.826
265.6806, 2366.115
266.1628, 2389.690
266.6449, 2403.398
267.1270, 2397.569
267.6091, 2388.134
268.0912, 2390.899
268.5733, 2407.977
269.0555, 2427.098
269.5376, 2430.981
270.0197, 2411.947
270.5018, 2400.023
270.9839, 2398.275
271.4660, 2399.449
271.9482, 2398.839
272.4303, 2396.906
272.9124, 2397.927
273.3945, 2407.092
273.8766, 2425.733
274.3587, 2436.103
274.8409, 2426.440
275.3230, 2419.909
275.8051, 2428.209
276.2872, 2444.772
276.7693, 2454.645
277.2514, 2445.680
277.7336, 2423.442
278.2157, 2420.427
278.6978, 2454.154
279.1799, 2483.306
279.6620, 2496.055
280.1441, 2500.114
280.6263, 2503.871
281.1084, 2510.563
281.5905, 2520.759
282.0726, 2537.545
282.5547, 2565.959
283.0368, 2587.375
283.5190, 2590.129
284.0011, 2589.514
284.4832, 2596.767
284.9653, 2614.541
285.4474, 2638.149
285.9295, 2667.195
286.4117, 2703.282
286.8938, 2723.327
287.3759, 2705.898
287.8580, 2687.108
288.3401, 2691.030
288.8222, 2716.873
289.3044, 2747.723
289.7865, 2773.583
290.2686, 2795.086
290.7507, 2813.657
291.2328, 2826.419
291.7149, 2841.799
292.1971, 2865.522
292.6792, 2896.094
293.1613, 2930.165
293.6434, 2970.454
294.1255, 3011.971
294.6076, 3046.059
295.0898, 3071.666
295.5719, 3095.442
296.0540, 3118.241
296.5361, 3142.470
297.0182, 3173.594
297.5003, 3216.732
297.9825, 3261.232
298.4646, 3295.977
298.9467, 3323.042
299.4288, 3355.600
299.9109, 3400.613
300.3930, 3452.214
300.8752, 3498.723
301.3573, 3537.527
301.8394, 3577.996
302.3215, 3623.547
302.8036, 3672.954
303.2857, 3726.087
303.7679, 3783.961
304.2500, 3839.452
304.7321, 3880.303
305.2142, 3899.994
305.6963, 3934.130
306.1784, 3992.784
306.6606, 4061.625
307.1427, 4130.551
307.6248, 4198.192
308.1069, 4266.133
308.5890, 4337.260
309.0711, 4412.168
309.5533, 4475.333
310.0354, 4523.547
310.5175, 4565.453
310.9996, 4596.158
311.4817, 4623.348
311.9638, 4663.390
312.4460, 4726.468
312.9281, 4805.888
313.4102, 4875.187
313.8923, 4916.169
314.3744, 4970.156
314.8565, 5045.239
315.3387, 5132.046
315.8208, 5223.438
316.3029, 5316.564
316.7850, 5408.877
317.2671, 5495.516
317.7492, 5572.952
318.2314, 5654.343
318.7135, 5749.637
319.1956, 5841.046
319.6777, 5914.874
320.1598, 5973.799
320.6419, 6032.938
321.1241, 6106.989
321.6062, 6194.737
322.0883, 6280.364
322.5704, 6371.395
323.0525, 6447.625
323.5346, 6489.692
324.0168, 6514.572
324.4989, 6554.323
324.9810, 6630.771
325.4631, 6721.596
325.9452, 6782.339
326.4273, 6805.655
326.9095, 6830.150
327.3916, 6880.806
327.8737, 6935.276
328.3558, 6967.828
328.8379, 6970.219
329.3200, 6968.632
329.8022, 6991.228
330.2843, 7030.610
330.7664, 7046.854
331.2485, 7025.588
331.7306, 6985.925
332.2127, 6946.359
332.6949, 6906.411
333.1770, 6873.320
333.6591, 6857.671
334.1412, 6846.084
334.6233, 6820.604
335.1054, 6779.500
335.5876, 6733.261
336.0697, 6690.507
336.5518, 6650.588
337.0339, 6603.246
337.5160, 6543.286
337.9981, 6481.516
338.4803, 6423.955
338.9624, 6368.979
339.4445, 6310.471
339.9266, 6244.315
340.4087, 6176.525
340.8908, 6123.713
341.3730, 6108.736
341.8551, 6079.690
342.3372, 6030.947
342.8193, 5969.461
343.3014, 5895.523
343.7835, 5812.116
344.2657, 5730.825
344.7478, 5667.177
345.2299, 5624.656
345.7120, 5584.238
346.1941, 5545.455
346.6762, 5508.488
347.1584, 5478.564
347.6405, 5450.556
348.1226, 5413.374
348.6047, 5358.645
349.0868, 5289.787
349.5689, 5221.456
350.0511, 5150.721
350.5332, 5086.564
351.0153, 5030.657
351.4974, 4981.717
351.9795, 4942.696
352.4616, 4916.080
352.9438, 4884.674
353.4259, 4823.071
353.9080, 4730.875
354.3901, 4646.463
354.8722, 4577.427
355.3543, 4519.201
355.8365, 4467.539
356.3186, 4422.051
356.8007, 4378.457
357.2828, 4335.021
357.7649, 4292.205
358.2470, 4251.362
358.7292, 4212.583
359.2113, 4174.937
359.6934, 4137.906
360.1755, 4101.703
360.6576, 4066.935
361.1397, 4034.121
361.6219, 4002.096
362.1040, 3972.408
362.5861, 3943.221
363.0682, 3908.464
363.5503, 3864.545
364.0324, 3817.734
364.5146, 3780.141
364.9967, 3755.962
365.4788, 3733.673
365.9609, 3710.750
366.4430, 3690.875
366.9251, 3679.887
367.4073, 3676.740
367.8894, 3671.893
368.3715, 3655.354
368.8536, 3626.141
369.3357, 3602.154
369.8178, 3587.876
370.3000, 3573.795
370.7821, 3556.272
371.2642, 3537.548
371.7463, 3521.824
372.2284, 3511.348
372.7105, 3503.448
373.1927, 3491.351
373.6748, 3471.511
374.1569, 3458.103
374.6390, 3465.238
375.1211, 3471.709
375.6032, 3461.095
376.0854, 3432.750
376.5675, 3402.687
377.0496, 3382.104
377.5317, 3370.031
378.0138, 3361.950
378.4959, 3357.841
378.9781, 3357.193
379.4602, 3368.056
379.9423, 3382.210
380.4244, 3379.553
380.9065, 3337.594
381.3886, 3293.674
381.8708, 3285.900
382.3529, 3307.003
382.8350, 3319.529
383.3171, 3304.536
383.7992, 3277.561
384.2813, 3273.770
384.7635, 3303.671
385.2456, 3324.907
385.7277, 3328.552
386.2098, 3321.396
386.6919, 3304.853
387.1740, 3281.630
387.6562, 3263.897
388.1383, 3263.642
388.6204, 3281.865
389.1025, 3301.138
389.5846, 3330.969
390.0667, 3351.436
390.5489, 3351.378
391.0310, 3339.675
391.5131, 3328.060
391.9952, 3321.574
392.4773, 3321.538
392.9594, 3333.247
393.4416, 3364.267
393.9237, 3384.871
394.4058, 3381.513
394.8879, 3374.255
395.3700, 3376.067
395.8521, 3386.204
396.3343, 3393.519
396.8164, 3384.242
397.2985, 3365.259
397.7806, 3362.862
398.2627, 3381.669
398.7448, 3403.407
399.2270, 3419.099
399.7091, 3430.159
400.1912, 3438.495
400.6733, 3443.274
401.1554, 3447.106
401.6375, 3455.298
402.1197, 3464.271
402.6018, 3460.918
403.0839, 3438.928
403.5660, 3412.486
404.0481, 3402.435
404.5302, 3414.698
405.0124, 3419.539
405.4945, 3410.576
405.9766, 3397.972
406.4587, 3388.589
406.9408, 3382.135
407.4229, 3374.800
407.9051, 3363.950
408.3872, 3350.350
408.8693, 3337.569
409.3514, 3318.548
409.8335, 3310.675
410.3156, 3328.970
410.7978, 3351.011
411.2799, 3354.711
411.7620, 3336.110
412.2441, 3310.035
412.7262, 3291.151
413.2083, 3279.537
413.6905, 3274.526
414.1726, 3280.963
414.6547, 3287.361
415.1368, 3285.485
415.6189, 3279.320
416.1010, 3277.990
416.5832, 3290.211
417.0653, 3301.850
417.5474, 3291.974
418.0295, 3262.608
418.5116, 3238.552
418.9937, 3229.841
419.4759, 3229.172
419.9580, 3224.655
420.4401, 3215.292
420.9222, 3208.694
421.4043, 3209.598
421.8864, 3212.274
422.3686, 3212.313
422.8507, 3208.844
423.3328, 3200.034
423.8149, 3182.829
424.2970, 3159.057
424.7791, 3147.772
425.2613, 3162.471
425.7434, 3173.170
426.2255, 3175.304
426.7076, 3171.260
427.1897, 3163.399
427.6718, 3152.502
428.1540, 3138.657
428.6361, 3118.095
429.1182, 3087.750
429.6003, 3075.908
430.0824, 3104.596
430.5645, 3126.802
431.0467, 3116.864
431.5288, 3085.567
432.0109, 3055.557
432.4930, 3034.804
432.9751, 3021.224
433.4572, 3015.991
433.9394, 3018.557
434.4215, 3013.099
434.9036, 2991.887
435.3857, 2963.255
435.8678, 2937.206
436.3499, 2912.537
436.8321, 2896.684
437.3142, 2897.304
437.7963, 2903.737
438.2784, 2906.835
438.7605, 2905.670
439.2426, 2902.063
439.7248, 2897.654
440.2069, 2891.646
440.6890, 2878.926
441.1711, 2839.971
441.6532, 2818.874
442.1353, 2832.046
442.6175, 2857.783
443.0996, 2877.764
443.5817, 2887.351
444.0638, 2890.503
444.5459, 2888.863
445.0280, 2882.187
445.5102, 2884.672
445.9923, 2904.025
446.4744, 2921.325
446.9565, 2926.408
447.4386, 2924.853
447.9207, 2925.432
448.4029, 2931.823
448.8850, 2938.577
449.3671, 2939.278
449.8492, 2935.215
450.3313, 2932.587
450.8134, 2932.418
451.2956, 2935.492
451.7777, 2943.569
452.2598, 2956.880
452.7419, 2970.529
453.2240, 2996.216
453.7061, 3011.456
454.1883, 2993.517
454.6704, 2952.403
455.1525, 2915.556
455.6346, 2896.993
456.1167, 2890.282
456.5988, 2879.781
457.0810, 2864.385
457.5631, 2846.872
458.0452, 2827.000
458.5273, 2805.607
459.0095, 2781.920
459.4916, 2756.731
459.9737, 2732.554
460.4558, 2711.205
460.9379, 2692.012
461.4200, 2672.391
461.9022, 2651.826
462.3843, 2632.610
462.8664, 2614.795
463.3485, 2599.566
463.8306, 2590.472
464.3127, 2589.749
464.7949, 2582.654
465.2770, 2553.295
465.7591, 2516.301
466.2412, 2495.705
466.7233, 2494.014
467.2054, 2497.373
467.6876, 2495.794
468.1697, 2489.915
468.6518, 2485.940
469.1339, 2487.944
469.6160, 2486.527
470.0981, 2478.163
470.5803, 2466.251
471.0624, 2453.047
471.5445, 2439.688
472.0266, 2429.262
472.5087, 2426.975
472.9908, 2433.484
473.4730, 2431.676
473.9551, 2413.458
474.4372, 2398.385
474.9193, 2395.658
475.4014, 2399.907
475.8835, 2403.682
476.3657, 2404.882
476.8478, 2405.124
477.3299, 2406.584
477.8120, 2408.505
478.2941, 2406.636
478.7762, 2398.802
479.2584, 2392.172
479.7405, 2395.059
480.2226, 2407.664
480.7047, 2415.051
481.1868, 2413.773
481.6689, 2410.595
482.1511, 2407.890
482.6332, 2405.700
483.1153, 2402.880
483.5974, 2399.086
484.0795, 2397.384
484.5616, 2403.653
485.0438, 2421.601
485.5259, 2434.511
486.0080, 2437.093
486.4901, 2439.622
486.9722, 2446.559
487.4543, 2456.090
487.9365, 2464.714
488.4186, 2471.435
488.9007, 2475.128
489.3828, 2473.023
489.8649, 2465.461
490.3470, 2457.937
490.8292, 2450.435
491.3113, 2445.744
491.7934, 2449.609
492.2755, 2461.313
492.7576, 2468.233
493.2397, 2467.029
493.7219, 2461.697
494.2040, 2454.226
494.6861, 2444.811
495.1682, 2432.335
495.6503, 2416.068
496.1324, 2399.728
496.6146, 2390.751
497.0967, 2393.249
497.5788, 2393.252
498.0609, 2389.060
498.5430, 2384.171
499.0251, 2382.046
499.5073, 2380.422
499.9894, 2374.028
500.4715, 2359.701
500.9536, 2340.252
501.4357, 2316.924
501.9178, 2289.646
502.4000, 2272.932
502.8821, 2275.195
503.3642, 2282.768
503.8463, 2277.084
504.3284, 2259.219
504.8105, 2250.228
505.2927, 2263.359
505.7748, 2278.571
506.2569, 2278.491
506.7390, 2268.484
507.2211, 2266.352
507.7032, 2280.522
508.1854, 2299.552
508.6675, 2300.683
509.1496, 2275.151
509.6317, 2253.001
510.1138, 2228.685
510.5959, 2212.881
511.0781, 2218.378
511.5602, 2235.759
512.0423, 2243.435
512.5244, 2227.721
513.0065, 2204.954
513.4886, 2200.198
513.9708, 2212.873
514.4529, 2225.988
514.9350, 2238.260
515.4171, 2244.932
515.8992, 2236.031
516.3813, 2212.925
516.8635, 2198.975
517.3456, 2201.788
517.8277, 2210.101
518.3098, 2219.642
518.7919, 2229.219
519.2740, 2236.861
519.7562, 2241.774
520.2383, 2245.956
520.7204, 2253.853
521.2025, 2269.226
521.6846, 2273.998
522.1667, 2253.097
522.6489, 2236.678
523.1310, 2237.525
523.6131, 2249.594
524.0952, 2262.356
524.5773, 2272.378
525.0594, 2280.295
525.5416, 2289.933
526.0237, 2299.022
526.5058, 2292.090
526.9879, 2260.893
527.4700, 2232.977
527.9521, 2236.963
528.4343, 2272.168
528.9164, 2294.854
529.3985, 2297.896
529.8806, 2296.796
530.3627, 2291.302
530.8448, 2287.563
531.3270, 2298.422
531.8091, 2325.096
532.2912, 2348.763
532.7733, 2343.848
533.2554, 2309.535
533.7375, 2292.463
534.2197, 2303.305
534.7018, 2314.448
535.1839, 2311.507
535.6660, 2304.958
536.1481, 2308.569
536.6302, 2326.407
537.1124, 2345.050
537.5945, 2355.233
538.0766, 2360.037
538.5587, 2365.069
539.0408, 2370.918
539.5229, 2376.428
540.0051, 2381.668
540.4872, 2385.406
540.9693, 2381.492
541.4514, 2352.690
541.9335, 2339.378
542.4156, 2356.787
542.8978, 2381.816
543.3799, 2396.464
543.8620, 2399.838
544.3441, 2400.863
544.8262, 2406.573
545.3083, 2414.468
545.7905, 2414.897
546.2726, 2405.244
546.7547, 2404.396
547.2368, 2427.674
547.7189, 2453.408
548.2010, 2451.062
548.6832, 2419.917
549.1653, 2401.532
549.6474, 2419.310
550.1295, 2443.926
550.6116, 2448.290
551.0938, 2438.892
551.5759, 2439.221
552.0580, 2460.228
552.5401, 2488.128
553.0222, 2496.554
553.5043, 2475.887
553.9865, 2465.355
554.4686, 2469.040
554.9507, 2479.465
555.4328, 2500.327
555.9149, 2524.865
556.3970, 2541.032
556.8792, 2543.330
557.3613, 2540.844
557.8434, 2540.043
558.3255, 2541.765
558.8076, 2551.703
559.2897, 2572.274
559.7719, 2588.756
560.2540, 2585.829
560.7361, 2565.765
561.2182, 2560.049
561.7003, 2576.737
562.1824, 2595.134
562.6646, 2617.265
563.1467, 2635.350
563.6288, 2639.162
564.1109, 2629.299
564.5930, 2617.611
565.0751, 2614.078
565.5573, 2616.952
566.0394, 2618.168
566.5215, 2616.183
567.0036, 2619.471
567.4857, 2636.156
567.9678, 2655.299
568.4500, 2662.167
568.9321, 2655.901
569.4142, 2651.876
569.8963, 2647.625
570.3784, 2652.905
570.8605, 2686.033
571.3427, 2735.839
571.8248, 2770.488
572.3069, 2775.946
572.7890, 2765.035
573.2711, 2759.644
573.7532, 2761.487
574.2354, 2762.287
574.7175, 2758.055
575.1996, 2757.493
575.6817, 2768.070
576.1638, 2783.393
576.6459, 2792.319
577.1281, 2790.456
577.6102, 2786.330
578.0923, 2786.382
578.5744, 2789.243
579.0565, 2792.300
579.5386, 2795.152
580.0208, 2796.805
580.5029, 2796.010
580.9850, 2793.591
581.4671, 2794.169
581.9492, 2811.015
582.4313, 2812.716
582.9135, 2779.599
583.3956, 2744.930
583.8777, 2736.531
584.3598, 2751.209
584.8419, 2765.727
585.3240, 2764.360
585.8062, 2755.453
586.2883, 2755.117
586.7704, 2763.072
587.2525, 2767.741
587.7346, 2762.783
588.2167, 2760.390
588.6989, 2775.465
589.1810, 2809.252
589.6631, 2841.209
590.1452, 2873.302
590.6273, 2901.091
591.1094, 2917.701
591.5916, 2931.162
592.0737, 2950.605
592.5558, 2978.998
593.0379, 3016.279
593.5200, 3063.110
594.0021, 3118.953
594.4843, 3179.958
594.9664, 3247.693
595.4485, 3314.422
595.9306, 3374.973
596.4127, 3433.954
596.8948, 3496.214
597.3770, 3561.271
597.8591, 3634.452
598.3412, 3723.885
598.8233, 3816.372
599.3054, 3905.397
599.7875, 3987.727
600.2697, 4056.507
600.7518, 4108.899
601.2339, 4150.516
601.7160, 4192.068
602.1981, 4236.038
602.6802, 4266.771
603.1624, 4283.474
603.6445, 4287.512
604.1266, 4282.188
604.6087, 4264.945
605.0908, 4232.986
605.5729, 4187.614
606.0551, 4119.909
606.5372, 4007.601
607.0193, 3878.425
607.5014, 3772.588
607.9835, 3691.152
608.4656, 3606.646
608.9478, 3501.258
609.4299, 3385.592
609.9120, 3290.161
610.3941, 3224.783
610.8762, 3158.120
611.3583, 3087.232
611.8405, 3016.159
612.3226, 2945.570
612.8047, 2876.506
613.2868, 2809.534
613.7689, 2742.311
614.2510, 2683.632
614.7332, 2648.522
615.2153, 2626.647
615.6974, 2590.644
616.1795, 2536.227
616.6616, 2484.691
617.1437, 2453.816
617.6259, 2439.402
618.1080, 2415.822
618.5901, 2372.056
619.0722, 2336.161
619.5543, 2315.747
620.0364, 2298.740
620.5186, 2275.964
621.0007, 2248.987
621.4828, 2225.709
621.9649, 2210.235
622.4470, 2199.688
622.9291, 2194.504
623.4113, 2191.866
623.8934, 2177.898
624.3755, 2148.165
624.8576, 2119.980
625.3397, 2111.911
625.8218, 2122.472
626.3040, 2119.166
626.7861, 2088.477
627.2682, 2060.919
627.7503, 2040.490
628.2324, 2023.942
628.7145, 2007.122
629.1967, 1990.957
629.6788, 1982.403
630.1609, 1992.780
630.6430, 2006.260
631.1251, 1990.155
631.6072, 1926.778
632.0894, 1957.609
632.5715, 1973.777
633.0536, 1976.067
633.5357, 1922.917
634.0178, 1941.356
634.4999, 1931.106
634.9821, 1919.678
635.4642, 1948.194
635.9463, 1903.107
636.4284, 1930.990
636.9105, 1929.744
637.3926, 1941.830
637.8748, 1917.363
638.3569, 1904.845
638.8390, 1886.516
639.3211, 1868.494
639.8032, 1851.474
640.2853, 1843.356
640.7675, 1847.874
641.2496, 1856.597
641.7317, 1860.390
642.2138, 1859.205
642.6959, 1853.485
643.1780, 1837.494
643.6602, 1824.462
644.1423, 1818.405
644.6244, 1816.027
645.1065, 1813.690
645.5886, 1811.180
646.0707, 1811.506
646.5529, 1820.867
647.0350, 1831.921
647.5171, 1829.621
647.9992, 1815.764
648.4813, 1804.731
648.9634, 1801.205
649.4456, 1801.305
649.9277, 1800.318
650.4098, 1797.919
650.8919, 1798.948
651.3740, 1806.545
651.8561, 1813.570
652.3383, 1818.538
652.8204, 1822.229
653.3025, 1826.711
653.7846, 1831.475
654.2667, 1831.886
654.7488, 1818.917
655.2310, 1803.690
655.7131, 1805.877
656.1952, 1822.231
656.6773, 1835.023
657.1594, 1838.653
657.6415, 1838.618
658.1237, 1841.597
658.6058, 1847.950
659.0879, 1848.274
659.5700, 1830.589
660.0521, 1822.460
660.5342, 1835.803
661.0164, 1855.132
661.4985, 1867.581
661.9806, 1872.004
662.4627, 1873.862
662.9448, 1875.471
663.4269, 1876.612
663.9091, 1877.492
664.3912, 1877.712
664.8733, 1875.055
665.3554, 1868.854
665.8375, 1863.299
666.3196, 1862.948
666.8018, 1867.525
667.2839, 1870.499
667.7660, 1868.784
668.2481, 1870.654
668.7302, 1882.258
669.2123, 1894.039
669.6945, 1898.720
670.1766, 1896.612
670.6587, 1892.180
671.1408, 1884.766
671.6229, 1878.282
672.1050, 1876.906
672.5872, 1878.594
673.0693, 1880.053
673.5514, 1880.286
674.0335, 1877.922
674.5156, 1871.783
674.9977, 1861.999
675.4799, 1847.776
675.9620, 1823.787
676.4441, 1809.851
676.9262, 1814.965
677.4083, 1826.027
677.8904, 1836.793
678.3726, 1845.901
678.8547, 1848.663
679.3368, 1841.339
679.8189, 1831.046
680.3010, 1817.528
680.7831, 1805.258
681.2653, 1801.398
681.7474, 1805.376
682.2295, 1809.713
682.7116, 1809.357
683.1937, 1805.776
683.6758, 1802.401
684.1580, 1799.226
684.6401, 1796.013
685.1222, 1792.579
685.6043, 1789.358
686.0864, 1786.205
686.5685, 1783.562
687.0507, 1782.776
687.5328, 1783.616
688.0149, 1786.777
688.4970, 1793.581
688.9791, 1801.831
689.4612, 1812.037
689.9434, 1822.027
690.4255, 1826.090
690.9076, 1820.993
691.3897, 1813.613
691.8718, 1813.861
692.3539, 1820.482
692.8361, 1825.202
693.3182, 1826.715
693.8003, 1831.839
694.2824, 1846.336
694.7645, 1864.933
695.2466, 1874.835
695.7288, 1869.315
696.2109, 1870.172
696.6930, 1884.593
697.1751, 1897.498
697.6572, 1902.437
698.1393, 1901.362
698.6215, 1894.711
699.1036, 1882.475
699.5857, 1877.563
700.0678, 1897.575
700.5499, 1927.463
701.0320, 1940.280
701.5142, 1938.153
701.9963, 1940.455
702.4784, 1955.443
702.9605, 1972.690
703.4426, 1977.171
703.9247, 1967.932
704.4069, 1957.563
704.8890, 1941.898
705.3711, 1932.028
705.8532, 1933.646
706.3353, 1940.660
706.8174, 1946.521
