##NAMES=Delhayelite
##RRUFFID=R060816
##IDEAL CHEMISTRY=K_7_Na_3_Ca_5_Al_2_Si_14_O_38_F_4_Cl_2_
##LOCALITY=Chibiny, Kola Peninsula, Russia
##OWNER=RRUFF
##SOURCE=Bob Jenkins
##DESCRIPTION=Dark brown platy fragment
##STATUS=The identification of this mineral has been confirmed by X-ray diffraction.
##URL=rruff.info/R060816
173.5913, 11441.85
174.0734, 11456.94
174.5555, 11473.16
175.0377, 11474.81
175.5198, 11466.84
176.0019, 11461.51
176.4840, 11466.45
176.9661, 11477.05
177.4482, 11484.84
177.9303, 11487.05
178.4125, 11494.00
178.8946, 11524.12
179.3767, 11572.23
179.8588, 11613.98
180.3409, 11630.51
180.8230, 11631.59
181.3052, 11637.58
181.7873, 11651.03
182.2694, 11670.56
182.7515, 11697.63
183.2336, 11731.05
183.7157, 11762.84
184.1979, 11789.95
184.6800, 11811.00
185.1621, 11820.40
185.6442, 11814.04
186.1263, 11799.07
186.6084, 11783.43
187.0906, 11767.09
187.5727, 11763.22
188.0548, 11792.23
188.5369, 11848.05
189.0190, 11894.16
189.5011, 11923.67
189.9833, 11937.31
190.4654, 11929.83
190.9475, 11899.13
191.4296, 11867.87
191.9117, 11864.69
192.3938, 11887.34
192.8760, 11897.94
193.3581, 11880.71
193.8402, 11843.27
194.3223, 11820.59
194.8044, 11816.15
195.2865, 11814.26
195.7687, 11793.07
196.2508, 11751.06
196.7329, 11717.64
197.2150, 11704.58
197.6971, 11710.17
198.1792, 11715.62
198.6613, 11722.19
199.1435, 11725.95
199.6256, 11715.52
200.1077, 11686.89
200.5898, 11672.38
201.0719, 11691.75
201.5540, 11746.27
202.0362, 11777.30
202.5183, 11776.33
203.0004, 11764.45
203.4825, 11780.34
203.9646, 11831.02
204.4467, 11877.08
204.9289, 11895.35
205.4110, 11879.71
205.8931, 11886.64
206.3752, 11927.06
206.8573, 11978.92
207.3394, 11993.23
207.8216, 11959.39
208.3037, 11920.83
208.7858, 11897.61
209.2679, 11891.56
209.7500, 11895.08
210.2321, 11915.22
210.7143, 11941.40
211.1964, 11941.04
211.6785, 11900.79
212.1606, 11866.83
212.6427, 11868.79
213.1248, 11920.12
213.6070, 11958.44
214.0891, 11976.37
214.5712, 11980.02
215.0533, 11992.58
215.5354, 12021.24
216.0175, 12043.92
216.4997, 12041.02
216.9818, 11995.31
217.4639, 11976.29
217.9460, 11998.61
218.4281, 12051.70
218.9102, 12088.10
219.3923, 12100.59
219.8745, 12107.19
220.3566, 12120.41
220.8387, 12143.70
221.3208, 12165.45
221.8029, 12186.33
222.2850, 12205.57
222.7672, 12217.25
223.2493, 12219.49
223.7314, 12217.53
224.2135, 12214.36
224.6956, 12207.64
225.1777, 12205.35
225.6599, 12207.30
226.1420, 12213.82
226.6241, 12232.25
227.1062, 12273.24
227.5883, 12312.81
228.0704, 12327.79
228.5526, 12298.69
229.0347, 12284.12
229.5168, 12297.96
229.9989, 12339.19
230.4810, 12365.57
230.9632, 12367.58
231.4453, 12364.97
231.9274, 12378.04
232.4095, 12425.78
232.8916, 12451.46
233.3737, 12436.00
233.8559, 12378.99
234.3380, 12349.53
234.8201, 12358.17
235.3022, 12384.09
235.7843, 12407.93
236.2664, 12427.34
236.7486, 12449.83
237.2307, 12480.18
237.7128, 12519.53
238.1949, 12542.57
238.6770, 12541.05
239.1591, 12531.20
239.6412, 12529.46
240.1234, 12540.02
240.6055, 12551.44
241.0876, 12559.95
241.5697, 12564.84
242.0518, 12578.17
242.5339, 12602.65
243.0161, 12632.89
243.4982, 12664.35
243.9803, 12702.59
244.4624, 12730.69
244.9445, 12740.46
245.4266, 12728.71
245.9088, 12729.76
246.3909, 12750.53
246.8730, 12777.13
247.3551, 12792.93
247.8372, 12789.29
248.3193, 12790.41
248.8015, 12806.22
249.2836, 12839.71
249.7657, 12852.77
250.2478, 12833.91
250.7299, 12806.10
251.2120, 12796.93
251.6942, 12816.33
252.1763, 12837.17
252.6584, 12854.55
253.1405, 12868.73
253.6226, 12881.08
254.1047, 12895.24
254.5869, 12904.98
255.0690, 12899.83
255.5511, 12866.67
256.0332, 12846.29
256.5153, 12853.01
256.9974, 12890.83
257.4796, 12912.55
257.9617, 12906.26
258.4438, 12896.18
258.9259, 12913.43
259.4080, 12968.15
259.8901, 13026.33
260.3723, 13080.35
260.8544, 13130.81
261.3365, 13174.43
261.8186, 13214.52
262.3007, 13244.28
262.7828, 13250.55
263.2650, 13219.91
263.7471, 13200.57
264.2292, 13208.83
264.7113, 13246.22
265.1934, 13271.43
265.6755, 13281.20
266.1577, 13282.76
266.6398, 13281.48
267.1219, 13273.10
267.6040, 13276.58
268.0861, 13299.38
268.5682, 13342.00
269.0503, 13386.02
269.5324, 13435.31
270.0146, 13479.30
270.4967, 13503.24
270.9788, 13503.42
271.4609, 13499.50
271.9430, 13495.51
272.4251, 13491.67
272.9073, 13486.79
273.3894, 13475.74
273.8715, 13474.64
274.3536, 13509.17
274.8357, 13588.82
275.3178, 13652.28
275.8000, 13678.79
276.2821, 13672.66
276.7642, 13676.39
277.2463, 13690.64
277.7284, 13712.69
278.2105, 13744.93
278.6927, 13789.46
279.1748, 13820.22
279.6569, 13823.96
280.1390, 13807.48
280.6211, 13811.76
281.1032, 13839.29
281.5854, 13877.98
282.0675, 13924.88
282.5496, 13980.52
283.0317, 14014.55
283.5138, 14012.08
283.9959, 13984.04
284.4781, 13973.57
284.9602, 13982.00
285.4423, 14001.41
285.9244, 14027.55
286.4065, 14060.11
286.8886, 14090.83
287.3708, 14119.11
287.8529, 14143.83
288.3350, 14158.87
288.8171, 14163.40
289.2992, 14169.10
289.7813, 14185.10
290.2635, 14210.54
290.7456, 14244.11
291.2277, 14293.25
291.7098, 14342.72
292.1919, 14346.23
292.6740, 14304.20
293.1562, 14273.88
293.6383, 14321.16
294.1204, 14422.27
294.6025, 14488.38
295.0846, 14497.88
295.5667, 14473.02
296.0489, 14442.93
296.5310, 14408.88
297.0131, 14378.35
297.4952, 14355.84
297.9773, 14341.56
298.4594, 14335.78
298.9416, 14341.48
299.4237, 14350.45
299.9058, 14347.39
300.3879, 14335.36
300.8700, 14331.09
301.3521, 14345.70
301.8343, 14374.49
302.3164, 14412.83
302.7985, 14464.50
303.2806, 14512.23
303.7627, 14537.10
304.2448, 14542.26
304.7270, 14540.21
305.2091, 14535.34
305.6912, 14527.90
306.1733, 14517.06
306.6554, 14501.18
307.1375, 14487.78
307.6197, 14484.52
308.1018, 14488.99
308.5839, 14495.36
309.0660, 14505.53
309.5481, 14514.29
310.0302, 14517.45
310.5123, 14514.86
310.9944, 14506.69
311.4766, 14491.68
311.9587, 14471.46
312.4408, 14448.35
312.9229, 14402.75
313.4050, 14369.45
313.8871, 14384.57
314.3693, 14456.55
314.8514, 14510.64
315.3335, 14492.92
315.8156, 14440.85
316.2977, 14401.41
316.7798, 14403.31
317.2620, 14410.42
317.7441, 14401.84
318.2262, 14376.27
318.7083, 14363.15
319.1904, 14382.67
319.6725, 14415.41
320.1547, 14443.03
320.6368, 14462.88
321.1189, 14475.07
321.6010, 14470.15
322.0831, 14449.71
322.5652, 14448.78
323.0474, 14497.85
323.5295, 14555.08
324.0116, 14591.35
324.4937, 14583.07
324.9758, 14574.60
325.4579, 14569.22
325.9401, 14567.56
326.4222, 14573.71
326.9043, 14598.08
327.3864, 14623.01
327.8685, 14639.24
328.3506, 14627.98
328.8328, 14631.27
329.3149, 14658.69
329.7970, 14702.34
330.2791, 14735.47
330.7612, 14748.27
331.2433, 14761.32
331.7255, 14785.00
332.2076, 14835.15
332.6897, 14863.85
333.1718, 14862.95
333.6539, 14843.58
334.1360, 14828.31
334.6182, 14814.80
335.1003, 14809.80
335.5824, 14816.52
336.0645, 14836.85
336.5466, 14860.92
337.0287, 14889.15
337.5109, 14920.67
337.9930, 14953.59
338.4751, 14988.52
338.9572, 15022.91
339.4393, 15056.90
339.9214, 15090.41
340.4036, 15118.54
340.8857, 15141.27
341.3678, 15159.18
341.8499, 15174.65
342.3320, 15188.32
342.8141, 15191.59
343.2963, 15175.85
343.7784, 15148.73
344.2605, 15144.59
344.7426, 15165.27
345.2247, 15199.92
345.7068, 15243.22
346.1890, 15294.08
346.6711, 15343.69
347.1532, 15394.35
347.6353, 15438.77
348.1174, 15453.75
348.5995, 15440.48
349.0817, 15431.93
349.5638, 15467.89
350.0459, 15527.01
350.5280, 15547.59
351.0101, 15504.43
351.4922, 15451.16
351.9743, 15469.06
352.4565, 15541.02
352.9386, 15596.65
353.4207, 15575.02
353.9028, 15520.00
354.3849, 15493.76
354.8670, 15508.96
355.3492, 15528.46
355.8313, 15516.14
356.3134, 15486.03
356.7955, 15465.31
357.2776, 15476.99
357.7597, 15497.36
358.2419, 15509.19
358.7240, 15511.28
359.2061, 15508.17
359.6882, 15493.79
360.1703, 15478.18
360.6524, 15473.22
361.1346, 15497.26
361.6167, 15519.48
362.0988, 15522.08
362.5809, 15506.35
363.0630, 15496.91
363.5451, 15511.13
364.0273, 15529.23
364.5094, 15536.63
364.9915, 15515.46
365.4736, 15499.67
365.9557, 15499.79
366.4378, 15512.20
366.9200, 15520.23
367.4021, 15512.78
367.8842, 15508.15
368.3663, 15515.05
368.8484, 15542.44
369.3305, 15568.87
369.8127, 15597.70
370.2948, 15624.85
370.7769, 15639.93
371.2590, 15626.84
371.7411, 15622.44
372.2232, 15643.49
372.7054, 15701.54
373.1875, 15731.84
373.6696, 15718.83
374.1517, 15691.39
374.6338, 15687.51
375.1159, 15714.40
375.5981, 15743.53
376.0802, 15769.62
376.5623, 15792.16
377.0444, 15807.40
377.5265, 15814.98
378.0086, 15816.39
378.4908, 15812.29
378.9729, 15802.87
379.4550, 15789.58
379.9371, 15768.66
380.4192, 15748.16
380.9013, 15751.47
381.3835, 15779.56
381.8656, 15818.90
382.3477, 15868.67
382.8298, 15923.81
383.3119, 15963.08
383.7940, 15981.67
384.2762, 15988.86
384.7583, 15989.19
385.2404, 15985.88
385.7225, 15994.48
386.2046, 16033.28
386.6867, 16084.53
387.1689, 16125.31
387.6510, 16153.90
388.1331, 16167.08
388.6152, 16146.69
389.0973, 16110.32
389.5794, 16089.53
390.0616, 16097.90
390.5437, 16125.32
391.0258, 16182.80
391.5079, 16265.16
391.9900, 16316.60
392.4721, 16282.91
392.9542, 16218.90
393.4363, 16172.70
393.9185, 16160.53
394.4006, 16164.48
394.8827, 16183.80
395.3648, 16215.74
395.8469, 16251.43
396.3290, 16301.20
396.8112, 16344.18
397.2933, 16366.50
397.7754, 16346.50
398.2575, 16349.36
398.7396, 16401.34
399.2217, 16474.21
399.7039, 16524.88
400.1860, 16549.29
400.6681, 16554.92
401.1502, 16531.85
401.6323, 16473.07
402.1144, 16458.96
402.5966, 16513.84
403.0787, 16587.34
403.5608, 16633.33
404.0429, 16641.00
404.5250, 16652.14
405.0071, 16676.30
405.4893, 16708.64
405.9714, 16724.03
406.4535, 16718.77
406.9356, 16711.06
407.4177, 16711.87
407.8998, 16721.24
408.3820, 16734.34
408.8641, 16751.95
409.3462, 16770.70
409.8283, 16783.66
410.3104, 16791.39
410.7925, 16800.45
411.2747, 16817.71
411.7568, 16838.70
412.2389, 16845.12
412.7210, 16835.14
413.2031, 16833.19
413.6852, 16873.30
414.1674, 16938.84
414.6495, 16994.83
415.1316, 17029.30
415.6137, 17048.17
416.0958, 17047.14
416.5779, 17030.67
417.0601, 17023.48
417.5422, 17050.42
418.0243, 17088.71
418.5064, 17116.91
418.9885, 17127.85
419.4706, 17135.34
419.9528, 17142.20
420.4349, 17150.80
420.9170, 17165.73
421.3991, 17189.86
421.8812, 17220.13
422.3633, 17257.51
422.8455, 17303.83
423.3276, 17347.51
423.8097, 17393.93
424.2918, 17433.93
424.7739, 17457.73
425.2560, 17447.95
425.7382, 17443.21
426.2203, 17447.28
426.7024, 17459.74
427.1845, 17477.96
427.6666, 17497.87
428.1487, 17528.27
428.6309, 17579.20
429.1130, 17666.05
429.5951, 17722.95
430.0772, 17741.80
430.5593, 17735.99
431.0414, 17725.17
431.5236, 17706.23
432.0057, 17702.00
432.4878, 17737.79
432.9699, 17802.93
433.4520, 17802.79
433.9341, 17728.24
434.4162, 17645.35
434.8983, 17628.95
435.3805, 17665.71
435.8626, 17696.73
436.3447, 17705.91
436.8268, 17702.63
437.3089, 17695.79
437.7910, 17686.94
438.2732, 17684.85
438.7553, 17696.60
439.2374, 17717.57
439.7195, 17744.65
440.2016, 17779.99
440.6837, 17809.89
441.1659, 17817.24
441.6480, 17813.56
442.1301, 17817.98
442.6122, 17856.16
443.0943, 17888.34
443.5764, 17881.21
444.0586, 17834.62
444.5407, 17818.81
445.0228, 17889.13
445.5049, 17976.97
445.9870, 18033.62
446.4691, 18014.02
446.9513, 18008.91
447.4334, 18032.54
447.9155, 18076.03
448.3976, 18114.15
448.8797, 18142.63
449.3618, 18170.94
449.8440, 18203.26
450.3261, 18240.67
450.8082, 18273.01
451.2903, 18294.32
451.7724, 18317.98
452.2545, 18368.54
452.7367, 18455.48
453.2188, 18514.72
453.7009, 18525.39
454.1830, 18499.21
454.6651, 18475.64
455.1472, 18454.42
455.6294, 18436.70
456.1115, 18423.29
456.5936, 18414.13
457.0757, 18411.08
457.5578, 18417.70
458.0399, 18420.00
458.5221, 18393.46
459.0042, 18347.63
459.4863, 18310.14
459.9684, 18301.53
460.4505, 18302.80
460.9326, 18295.50
461.4148, 18279.47
461.8969, 18261.18
462.3790, 18237.29
462.8611, 18216.25
463.3432, 18206.35
463.8253, 18218.31
464.3075, 18230.07
464.7896, 18233.03
465.2717, 18230.04
465.7538, 18228.93
466.2359, 18229.37
466.7180, 18233.50
467.2002, 18241.46
467.6823, 18252.11
468.1644, 18270.74
468.6465, 18304.64
469.1286, 18341.26
469.6107, 18366.61
470.0929, 18372.97
470.5750, 18384.98
471.0571, 18408.13
471.5392, 18439.28
472.0213, 18467.45
472.5034, 18494.16
472.9856, 18511.61
473.4677, 18511.57
473.9498, 18495.25
474.4319, 18479.31
474.9140, 18462.30
475.3961, 18455.45
475.8782, 18483.55
476.3604, 18538.93
476.8425, 18584.24
477.3246, 18598.72
477.8067, 18600.56
478.2888, 18619.31
478.7709, 18652.53
479.2531, 18678.28
479.7352, 18662.66
480.2173, 18640.23
480.6994, 18649.44
481.1815, 18703.40
481.6636, 18773.62
482.1458, 18870.05
482.6279, 18967.55
483.1100, 19026.03
483.5921, 18988.08
484.0742, 18949.42
484.5563, 18942.48
485.0385, 18969.80
485.5206, 19006.41
486.0027, 19076.07
486.4848, 19135.47
486.9669, 19155.92
487.4490, 19103.90
487.9312, 19076.97
488.4133, 19094.31
488.8954, 19132.50
489.3775, 19134.25
489.8596, 19086.05
490.3417, 19049.13
490.8239, 19052.37
491.3060, 19091.99
491.7881, 19112.72
492.2702, 19113.21
492.7523, 19104.54
493.2344, 19092.07
493.7166, 19077.93
494.1987, 19073.91
494.6808, 19086.76
495.1629, 19101.20
495.6450, 19094.77
496.1271, 19071.40
496.6093, 19046.08
497.0914, 19023.78
497.5735, 19005.27
498.0556, 18990.55
498.5377, 18979.85
499.0198, 18975.53
499.5020, 18990.07
499.9841, 19006.98
500.4662, 19010.44
500.9483, 18994.30
501.4304, 18967.21
501.9125, 18914.98
502.3947, 18851.29
502.8768, 18817.89
503.3589, 18839.03
503.8410, 18870.47
504.3231, 18905.50
504.8052, 18949.46
505.2874, 18955.01
505.7695, 18894.27
506.2516, 18830.68
506.7337, 18840.84
507.2158, 18944.22
507.6979, 19009.88
508.1801, 19006.84
508.6622, 18963.42
509.1443, 18953.80
509.6264, 18977.88
510.1085, 18992.84
510.5906, 18954.32
511.0728, 18891.34
511.5549, 18884.53
512.0370, 18939.97
512.5191, 19004.22
513.0012, 19034.91
513.4833, 19042.67
513.9655, 19042.19
514.4476, 19025.54
514.9297, 19018.48
515.4118, 19050.29
515.8939, 19105.79
516.3760, 19143.08
516.8582, 19122.84
517.3403, 19100.82
517.8224, 19102.95
518.3045, 19134.51
518.7866, 19173.41
519.2687, 19235.83
519.7509, 19293.46
520.2330, 19321.96
520.7151, 19300.91
521.1972, 19289.07
521.6793, 19295.90
522.1614, 19314.00
522.6436, 19320.79
523.1257, 19313.01
523.6078, 19307.23
524.0899, 19306.57
524.5720, 19312.67
525.0541, 19346.66
525.5363, 19412.02
526.0184, 19476.82
526.5005, 19513.28
526.9826, 19524.24
527.4647, 19514.86
527.9468, 19475.56
528.4290, 19437.69
528.9111, 19442.11
529.3932, 19474.40
529.8753, 19497.84
530.3574, 19478.32
530.8395, 19456.44
531.3217, 19460.87
531.8038, 19493.65
532.2859, 19527.76
532.7680, 19575.13
533.2501, 19608.17
533.7322, 19605.87
534.2144, 19501.14
534.6965, 19451.39
535.1786, 19494.94
535.6607, 19584.75
536.1428, 19630.59
536.6249, 19612.96
537.1070, 19593.51
537.5891, 19588.07
538.0712, 19595.93
538.5533, 19611.06
539.0355, 19634.15
539.5176, 19660.54
539.9997, 19688.98
540.4818, 19717.99
540.9639, 19740.93
541.4460, 19755.48
541.9282, 19768.99
542.4103, 19789.66
542.8924, 19816.09
543.3745, 19845.82
543.8566, 19884.27
544.3387, 19919.47
544.8209, 19942.11
545.3030, 19952.97
545.7851, 19955.29
546.2672, 19932.67
546.7493, 19915.22
547.2314, 19923.92
547.7136, 19970.27
548.1957, 20016.86
548.6778, 20080.71
549.1599, 20132.38
549.6420, 20137.62
550.1241, 20050.49
550.6063, 19998.05
551.0884, 20008.58
551.5705, 20063.72
552.0526, 20096.27
552.5347, 20102.49
553.0168, 20102.59
553.4990, 20106.46
553.9811, 20113.19
554.4632, 20113.58
554.9453, 20106.73
555.4274, 20100.89
555.9095, 20107.48
556.3917, 20121.38
556.8738, 20127.40
557.3559, 20112.00
557.8380, 20108.97
558.3201, 20176.62
558.8022, 20280.64
559.2844, 20343.06
559.7665, 20266.96
560.2486, 20196.79
560.7307, 20223.69
561.2128, 20349.48
561.6949, 20437.36
562.1771, 20419.38
562.6592, 20385.92
563.1413, 20390.45
563.6234, 20457.06
564.1055, 20509.89
564.5876, 20539.56
565.0698, 20562.94
565.5519, 20610.62
566.0340, 20691.78
566.5161, 20750.13
566.9982, 20763.01
567.4803, 20749.58
567.9625, 20770.87
568.4446, 20826.23
568.9267, 20884.23
569.4088, 20924.12
569.8909, 20953.76
570.3730, 20987.10
570.8552, 21024.83
571.3373, 21068.64
571.8194, 21128.83
572.3015, 21192.48
572.7836, 21242.83
573.2657, 21270.30
573.7479, 21291.69
574.2300, 21308.88
574.7121, 21324.81
575.1942, 21346.19
575.6763, 21384.36
576.1584, 21417.82
576.6406, 21441.06
577.1227, 21454.58
577.6048, 21466.13
578.0869, 21476.28
578.5690, 21484.39
579.0511, 21484.82
579.5333, 21475.70
580.0154, 21494.82
580.4975, 21551.14
580.9796, 21614.42
581.4617, 21640.66
581.9438, 21637.44
582.4260, 21638.25
582.9081, 21655.40
583.3902, 21678.87
583.8723, 21697.41
584.3544, 21711.80
584.8365, 21725.62
585.3187, 21728.17
585.8008, 21740.00
586.2829, 21779.37
586.7650, 21849.88
587.2471, 21918.78
587.7292, 21977.33
588.2114, 22031.59
588.6935, 22086.29
589.1756, 22147.87
589.6577, 22197.87
590.1398, 22220.07
590.6219, 22242.02
591.1041, 22314.79
591.5862, 22449.63
592.0683, 22585.33
592.5504, 22707.99
593.0325, 22818.16
593.5146, 22910.26
593.9968, 22985.34
594.4789, 23068.78
594.9610, 23173.78
595.4431, 23299.34
595.9252, 23446.19
596.4073, 23614.96
596.8895, 23794.56
597.3716, 23987.97
597.8537, 24181.35
598.3358, 24358.23
598.8179, 24496.80
599.3000, 24642.92
599.7822, 24806.91
600.2643, 24986.52
600.7464, 25178.53
601.2285, 25417.48
601.7106, 25620.45
602.1927, 25769.26
602.6749, 25865.06
603.1570, 25932.71
603.6391, 25967.71
604.1212, 25987.73
604.6033, 26017.56
605.0854, 26051.48
605.5676, 26007.32
606.0497, 25875.84
606.5318, 25710.90
607.0139, 25566.81
607.4960, 25431.92
607.9781, 25277.84
608.4603, 25094.42
608.9424, 24898.72
609.4245, 24691.14
609.9066, 24482.22
610.3887, 24300.78
610.8708, 24190.15
611.3530, 24070.93
611.8351, 23896.94
612.3172, 23672.67
612.7993, 23496.99
613.2814, 23398.33
613.7635, 23318.64
614.2457, 23231.25
614.7278, 23131.66
615.2099, 23056.71
615.6920, 23014.17
616.1741, 22978.13
616.6563, 22914.13
617.1384, 22827.11
617.6205, 22768.83
618.1026, 22754.57
618.5847, 22754.25
619.0668, 22724.72
619.5489, 22676.08
620.0310, 22634.87
620.5131, 22617.87
620.9952, 22607.18
621.4774, 22596.68
621.9595, 22583.38
622.4416, 22553.72
622.9237, 22464.96
623.4058, 22391.09
623.8879, 22375.43
624.3701, 22439.76
624.8522, 22471.80
625.3343, 22453.68
625.8164, 22423.74
626.2985, 22420.24
626.7806, 22454.38
627.2628, 22440.80
627.7449, 22358.15
628.2270, 22256.89
628.7091, 22218.74
629.1912, 22235.20
629.6733, 22257.19
630.1555, 22274.38
630.6376, 22281.14
631.1197, 22263.05
631.6018, 22226.91
632.0839, 22195.62
632.5660, 22182.79
633.0482, 22177.25
633.5303, 22168.90
634.0124, 22156.58
634.4945, 22161.28
634.9766, 22215.88
635.4587, 22265.93
635.9409, 22277.79
636.4230, 22230.68
636.9051, 22198.27
637.3872, 22179.47
637.8693, 22176.09
638.3514, 22202.53
638.8336, 22259.68
639.3157, 22278.09
639.7978, 22230.74
640.2799, 22160.93
640.7620, 22146.10
641.2441, 22173.31
641.7263, 22196.93
642.2084, 22178.53
642.6905, 22159.86
643.1726, 22183.11
643.6547, 22242.72
644.1368, 22296.58
644.6190, 22334.49
645.1011, 22358.02
645.5832, 22362.96
646.0653, 22339.59
646.5474, 22335.60
647.0295, 22360.30
647.5117, 22393.19
647.9938, 22412.35
648.4759, 22409.49
648.9580, 22440.84
649.4401, 22522.34
649.9222, 22611.25
650.4044, 22630.07
650.8865, 22593.70
651.3686, 22582.59
651.8507, 22641.38
652.3328, 22712.67
652.8149, 22723.56
653.2971, 22690.76
653.7792, 22662.12
654.2613, 22670.16
654.7434, 22680.92
655.2255, 22672.40
655.7076, 22644.67
656.1898, 22631.04
656.6719, 22652.08
657.1540, 22673.42
657.6361, 22676.17
658.1182, 22651.18
658.6003, 22653.31
659.0825, 22688.17
659.5646, 22736.66
660.0467, 22789.77
660.5288, 22844.23
661.0109, 22865.51
661.4930, 22842.53
661.9752, 22804.78
662.4573, 22777.40
662.9394, 22763.37
663.4215, 22768.65
663.9036, 22812.04
664.3857, 22859.74
664.8679, 22887.10
665.3500, 22903.26
665.8321, 22933.94
666.3142, 23017.53
666.7963, 23081.18
667.2784, 23088.40
667.7606, 23042.26
668.2427, 23044.76
668.7248, 23113.05
669.2069, 23186.61
669.6890, 23228.31
670.1711, 23239.33
670.6533, 23246.70
671.1354, 23250.63
671.6175, 23250.17
672.0996, 23244.89
