##NAMES=Demesmaekerite
##RRUFFID=R080130
##IDEAL CHEMISTRY=Pb^2+^_2_Cu^2+^_5_(U^6+^O_2_)_2_(Se^4+^O_3_)_6_(OH)_6_&#183;2H_2_O
##LOCALITY=Musonoi mine, Kolwezi, Katanga, Congo
##OWNER=RRUFF
##SOURCE=William W. Pinch
##DESCRIPTION=Dark green to light brownish green bladed crystals
##STATUS=The identification of this mineral has been confirmed by single-crystal X-ray diffraction.
##URL=rruff.info/R080130
91.00781, 16.01513
91.48993, 15.68310
91.97205, 15.55083
92.45416, 15.64602
92.93628, 15.93812
93.41840, 16.36773
93.90051, 16.93201
94.38263, 17.61397
94.86475, 18.35742
95.34686, 19.16367
95.82898, 20.16031
96.31110, 21.38252
96.79321, 22.84496
97.27533, 24.70819
97.75745, 27.06149
98.23956, 29.81192
98.72168, 32.44444
99.20380, 34.84914
99.68591, 37.39638
100.1680, 40.47949
100.6501, 44.10154
101.1323, 48.10262
101.6144, 52.30645
102.0965, 56.65374
102.5786, 61.91868
103.0607, 68.23841
103.5428, 75.39066
104.0250, 83.20793
104.5071, 91.75476
104.9892, 100.7474
105.4713, 110.0298
105.9534, 119.6151
106.4355, 129.4243
106.9177, 139.6153
107.3998, 150.0319
107.8819, 160.5605
108.3640, 171.4305
108.8461, 182.1073
109.3282, 192.4839
109.8104, 201.6245
110.2925, 211.2988
110.7746, 221.5934
111.2567, 232.4293
111.7388, 243.6320
112.2209, 254.9993
112.7031, 266.6982
113.1852, 278.9798
113.6673, 291.4780
114.1494, 304.8408
114.6315, 319.4432
115.1136, 335.4453
115.5958, 351.8411
116.0779, 368.5015
116.5600, 385.3496
117.0421, 402.2258
117.5242, 419.0402
118.0063, 436.0829
118.4885, 453.7448
118.9706, 472.1140
119.4527, 490.7684
119.9348, 509.9285
120.4169, 529.1239
120.8990, 547.8024
121.3812, 565.9599
121.8633, 583.2192
122.3454, 598.8353
122.8275, 612.4611
123.3096, 625.3533
123.7917, 639.1176
124.2739, 653.2635
124.7560, 665.9916
125.2381, 675.3009
125.7202, 682.5890
126.2023, 690.1554
126.6844, 698.8585
127.1666, 707.6944
127.6487, 715.1218
128.1308, 721.2339
128.6129, 727.0101
129.0950, 734.0915
129.5771, 741.7700
130.0593, 747.3668
130.5414, 749.0352
131.0235, 748.4890
131.5056, 749.3578
131.9877, 749.0833
132.4698, 746.3784
132.9520, 744.2291
133.4341, 742.5956
133.9162, 740.2512
134.3983, 736.4980
134.8804, 731.6112
135.3625, 727.2762
135.8447, 723.3860
136.3268, 720.2644
136.8089, 718.4130
137.2910, 717.9310
137.7731, 718.0050
138.2552, 718.0400
138.7374, 717.8004
139.2195, 719.4407
139.7016, 723.4023
140.1837, 728.7601
140.6658, 733.7213
141.1479, 738.5153
141.6301, 742.4696
142.1122, 745.5076
142.5943, 748.1617
143.0764, 748.5272
143.5585, 746.8207
144.0406, 742.8450
144.5228, 735.6353
145.0049, 724.7416
145.4870, 711.3369
145.9691, 695.9835
146.4512, 676.2869
146.9333, 658.2349
147.4155, 642.2205
147.8976, 628.0232
148.3797, 615.0356
148.8618, 602.7148
149.3439, 591.8242
149.8260, 582.8392
150.3082, 575.5500
150.7903, 570.2643
151.2724, 567.5029
151.7545, 567.3373
152.2366, 566.8788
152.7188, 564.4388
153.2009, 562.4066
153.6830, 562.7316
154.1651, 567.8036
154.6472, 573.0496
155.1293, 577.1322
155.6115, 579.7885
156.0936, 583.2858
156.5757, 587.8176
157.0578, 593.4415
157.5399, 600.1685
158.0220, 608.6240
158.5042, 617.6971
158.9863, 626.9572
159.4684, 636.3903
159.9505, 646.0514
160.4326, 655.7246
160.9147, 665.6268
161.3969, 676.0751
161.8790, 688.0468
162.3611, 699.9836
162.8432, 711.0320
163.3253, 720.7643
163.8074, 730.2386
164.2896, 739.9049
164.7717, 749.6282
165.2538, 759.1440
165.7359, 768.7752
166.2180, 777.8810
166.7001, 785.7802
167.1823, 791.6533
167.6644, 797.6577
168.1465, 805.4882
168.6286, 814.5811
169.1107, 823.3646
169.5928, 831.0449
170.0750, 837.9327
170.5571, 844.3939
171.0392, 850.1735
171.5213, 855.9774
172.0034, 862.4991
172.4855, 869.6336
172.9677, 876.7122
173.4498, 882.7264
173.9319, 888.6337
174.4140, 895.9113
174.8961, 905.7269
175.3782, 916.1789
175.8604, 925.2726
176.3425, 933.2050
176.8246, 941.2166
177.3067, 950.6100
177.7888, 960.8553
178.2709, 970.7465
178.7531, 980.2124
179.2352, 989.0616
179.7173, 997.5137
180.1994, 1005.565
180.6815, 1011.874
181.1636, 1015.311
181.6458, 1016.050
182.1279, 1014.506
182.6100, 1010.913
183.0921, 1005.112
183.5742, 996.2617
184.0563, 984.4564
184.5385, 970.8348
185.0206, 956.9876
185.5027, 942.5081
185.9848, 926.1032
186.4669, 906.3054
186.9490, 884.3088
187.4312, 862.7531
187.9133, 842.0065
188.3954, 821.7479
188.8775, 801.7186
189.3596, 782.0980
189.8417, 763.7211
190.3239, 747.3451
190.8060, 732.6008
191.2881, 718.4508
191.7702, 705.0702
192.2523, 692.2057
192.7344, 679.2768
193.2166, 666.3475
193.6987, 654.2286
194.1808, 643.0971
194.6629, 632.9934
195.1450, 623.7271
195.6271, 615.2455
196.1093, 607.7211
196.5914, 601.6400
197.0735, 597.0842
197.5556, 592.8893
198.0377, 588.5385
198.5198, 583.9863
199.0020, 579.8328
199.4841, 576.0015
199.9662, 572.6758
200.4483, 570.1616
200.9304, 568.5240
201.4125, 567.2733
201.8947, 566.3835
202.3768, 565.9215
202.8589, 564.8994
203.3410, 563.1437
203.8231, 561.0479
204.3052, 559.5790
204.7874, 559.0259
205.2695, 557.8835
205.7516, 555.1802
206.2337, 550.5814
206.7158, 546.7711
207.1979, 543.9736
207.6801, 541.7707
208.1622, 539.4817
208.6443, 537.2379
209.1264, 534.4795
209.6085, 530.7344
210.0906, 525.6503
210.5728, 521.1873
211.0549, 517.5045
211.5370, 514.3909
212.0191, 511.5522
212.5012, 509.1155
212.9833, 506.5965
213.4655, 503.6799
213.9476, 500.0856
214.4297, 497.1357
214.9118, 495.0751
215.3939, 493.5676
215.8760, 491.6121
216.3581, 488.8437
216.8403, 486.4080
217.3224, 485.0881
217.8045, 485.5425
218.2866, 484.9572
218.7687, 482.8667
219.2508, 479.8452
219.7330, 477.5350
220.2151, 476.2443
220.6972, 475.0731
221.1793, 473.6200
221.6614, 471.8043
222.1435, 469.8456
222.6257, 467.6502
223.1078, 465.3355
223.5899, 463.2069
224.0720, 461.4496
224.5541, 459.5798
225.0362, 457.2729
225.5184, 454.2402
226.0005, 451.5724
226.4826, 449.4145
226.9647, 447.6069
227.4468, 445.5932
227.9289, 443.1778
228.4111, 440.9005
228.8932, 438.9731
229.3753, 437.3220
229.8574, 436.2413
230.3395, 435.9061
230.8216, 436.1142
231.3038, 436.2931
231.7859, 436.2891
232.2680, 436.4758
232.7501, 437.0615
233.2322, 438.2940
233.7143, 439.3349
234.1965, 440.0434
234.6786, 440.5859
235.1607, 441.4011
235.6428, 442.3564
236.1249, 443.7621
236.6070, 445.8175
237.0892, 448.8869
237.5713, 451.7733
238.0534, 454.3582
238.5355, 456.7843
239.0176, 459.4379
239.4997, 462.5559
239.9819, 465.6131
240.4640, 468.4116
240.9461, 471.1126
241.4282, 473.1978
241.9103, 474.4814
242.3924, 475.2127
242.8746, 476.0346
243.3567, 477.3032
243.8388, 478.1331
244.3209, 478.1480
244.8030, 477.1695
245.2851, 475.8868
245.7673, 474.3659
246.2494, 472.5230
246.7315, 470.0531
247.2136, 466.3228
247.6957, 462.9766
248.1778, 460.7238
248.6600, 459.9902
249.1421, 459.1008
249.6242, 457.9084
250.1063, 456.6302
250.5884, 455.7238
251.0705, 455.4182
251.5527, 455.0826
252.0348, 454.4643
252.5169, 453.4411
252.9990, 452.5809
253.4811, 452.0704
253.9632, 451.5858
254.4454, 450.5387
254.9275, 448.7027
255.4096, 446.7142
255.8917, 444.7013
256.3738, 442.5892
256.8560, 440.8881
257.3381, 439.7418
257.8202, 438.8742
258.3023, 437.7884
258.7844, 436.2651
259.2665, 435.0391
259.7487, 434.4457
260.2308, 434.6287
260.7129, 434.4627
261.1950, 433.8689
261.6771, 433.0150
262.1592, 431.9990
262.6414, 430.5362
263.1235, 429.6674
263.6056, 429.8346
264.0877, 431.1225
264.5698, 432.1429
265.0519, 432.6558
265.5341, 433.2247
266.0162, 434.7369
266.4983, 437.7001
266.9804, 439.9662
267.4625, 440.7098
267.9446, 439.9618
268.4268, 440.3437
268.9089, 442.2812
269.3910, 444.5814
269.8731, 445.9291
270.3552, 446.0191
270.8373, 446.3706
271.3195, 447.4520
271.8016, 449.1532
272.2837, 450.3700
272.7658, 451.0475
273.2479, 451.3864
273.7300, 451.5586
274.2122, 451.5607
274.6943, 451.4294
275.1764, 451.1707
275.6585, 450.7896
276.1406, 450.2571
276.6227, 449.5259
277.1049, 448.8140
277.5870, 448.3497
278.0691, 448.1667
278.5512, 447.8872
279.0333, 447.5042
279.5154, 446.9581
279.9976, 445.9814
280.4797, 444.5076
280.9618, 442.9253
281.4439, 441.4085
281.9260, 439.9607
282.4081, 438.7780
282.8903, 438.0287
283.3724, 437.3946
283.8545, 436.0505
284.3366, 433.9468
284.8187, 431.6429
285.3008, 429.6547
285.7830, 427.8981
286.2651, 425.5728
286.7472, 422.5386
287.2293, 419.0123
287.7114, 415.1627
288.1935, 410.9937
288.6757, 407.1255
289.1578, 404.2542
289.6399, 402.0959
290.1220, 399.3105
290.6041, 395.7263
291.0862, 391.7668
291.5684, 387.7537
292.0505, 383.7351
292.5326, 380.3322
293.0147, 378.2545
293.4968, 377.0277
293.9789, 375.0453
294.4611, 372.1941
294.9432, 369.1569
295.4253, 366.6832
295.9074, 364.6968
296.3895, 362.9179
296.8716, 361.2299
297.3538, 359.6547
297.8359, 358.1540
298.3180, 356.7047
298.8001, 355.5616
299.2822, 355.0735
299.7643, 355.0760
300.2465, 355.1516
300.7286, 355.1963
301.2107, 355.2050
301.6928, 355.0767
302.1749, 354.8322
302.6570, 354.7676
303.1392, 355.0528
303.6213, 355.6898
304.1034, 356.7099
304.5855, 358.3574
305.0676, 360.1264
305.5497, 361.7097
306.0319, 363.0554
306.5140, 363.9723
306.9961, 363.7092
307.4782, 363.1582
307.9603, 363.5055
308.4424, 365.4881
308.9246, 367.5348
309.4067, 368.3647
309.8888, 368.2535
310.3709, 368.0044
310.8530, 368.2618
311.3351, 368.4460
311.8173, 367.9615
312.2994, 366.4929
312.7815, 365.0254
313.2636, 364.3660
313.7457, 364.1114
314.2278, 363.5287
314.7100, 362.2261
315.1921, 360.5712
315.6742, 358.7514
316.1563, 356.7873
316.6384, 354.7121
317.1205, 352.5878
317.6027, 350.3828
318.0848, 348.0667
318.5669, 345.3947
319.0490, 342.8177
319.5311, 340.5999
320.0132, 338.7680
320.4954, 336.7910
320.9775, 334.2401
321.4596, 331.6246
321.9417, 329.4167
322.4238, 327.9877
322.9059, 326.6830
323.3881, 325.3869
323.8702, 324.1062
324.3523, 322.8276
324.8344, 321.4032
325.3165, 320.0826
325.7986, 319.0003
326.2808, 318.3654
326.7629, 317.7416
327.2450, 317.0703
327.7271, 316.3836
328.2092, 315.8050
328.6913, 315.4655
329.1735, 315.1209
329.6556, 314.6672
330.1377, 314.0519
330.6198, 313.4236
331.1019, 312.8034
331.5840, 312.1606
332.0662, 311.4206
332.5483, 310.5270
333.0304, 309.6025
333.5125, 308.7295
333.9946, 307.9456
334.4767, 306.9331
334.9589, 305.5940
335.4410, 304.1328
335.9231, 302.8451
336.4052, 301.8807
336.8873, 300.7283
337.3694, 299.2606
337.8516, 297.4990
338.3336, 295.6360
338.8158, 293.6595
339.2979, 291.6106
339.7800, 289.4172
340.2621, 287.0424
340.7442, 284.9635
341.2263, 283.4230
341.7085, 282.1910
342.1906, 280.4249
342.6727, 277.9845
343.1548, 275.7960
343.6369, 274.6699
344.1190, 274.5346
344.6012, 274.0724
345.0833, 273.1094
345.5654, 271.8286
346.0475, 270.4387
346.5296, 268.9578
347.0117, 267.6151
347.4939, 266.4839
347.9760, 265.5951
348.4581, 265.0920
348.9402, 265.0214
349.4223, 265.1274
349.9044, 265.0947
350.3866, 264.9896
350.8687, 265.0342
351.3508, 265.2723
351.8329, 265.7380
352.3150, 266.6387
352.7971, 267.9623
353.2793, 269.1551
353.7614, 269.6510
354.2435, 269.7734
354.7256, 270.0464
355.2077, 270.6337
355.6898, 271.4054
356.1720, 272.3159
356.6541, 273.3421
357.1362, 274.3753
357.6183, 274.9483
358.1004, 275.7228
358.5826, 277.3766
359.0647, 280.2849
359.5468, 283.4337
360.0289, 286.5605
360.5110, 289.5273
360.9931, 292.0808
361.4753, 293.7386
361.9574, 295.2325
362.4395, 296.7832
362.9216, 298.3338
363.4037, 300.4655
363.8858, 303.9412
364.3680, 307.8570
364.8501, 311.2759
365.3322, 313.1245
365.8143, 315.3171
366.2964, 318.5764
366.7785, 322.8930
367.2607, 326.7226
367.7428, 329.4575
368.2249, 332.0075
368.7070, 334.9331
369.1891, 338.4120
369.6712, 342.0152
370.1534, 345.9772
370.6355, 350.0755
371.1176, 353.6302
371.5997, 356.6468
372.0818, 359.0930
372.5639, 360.8828
373.0461, 361.7717
373.5282, 362.8007
374.0103, 364.0298
374.4924, 365.3508
374.9745, 366.7089
375.4566, 368.3383
375.9388, 369.2726
376.4209, 369.0223
376.9030, 367.6791
377.3851, 366.7744
377.8672, 366.3582
378.3493, 366.2089
378.8315, 366.1938
379.3136, 366.3230
379.7957, 366.3322
380.2778, 366.0447
380.7599, 365.7452
381.2420, 366.2740
381.7242, 367.6211
382.2063, 368.9790
382.6884, 369.7788
383.1705, 370.1415
383.6526, 370.4630
384.1347, 370.7779
384.6169, 371.0260
385.0990, 371.0040
385.5811, 370.8135
386.0632, 370.7987
386.5453, 371.5681
387.0274, 372.4010
387.5096, 372.0912
387.9917, 370.6444
388.4738, 369.2593
388.9559, 369.3597
389.4380, 369.9713
389.9201, 369.7486
390.4023, 367.5264
390.8844, 365.2181
391.3665, 364.1562
391.8486, 364.0931
392.3307, 364.1551
392.8128, 364.0044
393.2950, 363.7740
393.7771, 363.5013
394.2592, 363.0757
394.7413, 362.9058
395.2234, 363.4193
395.7055, 364.2069
396.1877, 364.6383
396.6698, 363.9135
397.1519, 363.4402
397.6340, 363.7811
398.1161, 365.0699
398.5982, 366.1281
399.0804, 366.7796
399.5625, 367.2424
400.0446, 367.6781
400.5267, 368.2272
401.0088, 368.5573
401.4909, 368.5410
401.9731, 368.2843
402.4552, 368.2643
402.9373, 368.8279
403.4194, 369.0688
403.9015, 368.4411
404.3836, 366.6377
404.8658, 365.2696
405.3479, 364.6425
405.8300, 364.0439
406.3121, 362.1345
406.7942, 358.6552
407.2763, 355.6805
407.7585, 354.2024
408.2406, 353.8057
408.7227, 352.0349
409.2048, 348.7561
409.6869, 345.2704
410.1690, 342.7661
410.6512, 341.0956
411.1333, 339.5093
411.6154, 338.0037
412.0975, 336.2693
412.5796, 333.4781
413.0617, 329.8709
413.5439, 326.5925
414.0260, 324.4140
414.5081, 322.8827
414.9902, 321.4241
415.4723, 319.9882
415.9544, 318.6253
416.4366, 317.6134
416.9187, 316.6647
417.4008, 315.3529
417.8829, 312.8672
418.3650, 310.5191
418.8471, 309.0006
419.3293, 308.2757
419.8114, 308.0221
420.2935, 308.6161
420.7756, 309.3136
421.2577, 309.5948
421.7398, 309.2282
422.2220, 308.7492
422.7041, 307.9664
423.1862, 307.1874
423.6683, 306.9562
424.1504, 307.8286
424.6325, 308.7708
425.1147, 309.5909
425.5968, 310.3287
426.0789, 310.6667
426.5610, 310.3453
427.0431, 309.8608
427.5252, 309.6334
428.0074, 309.8224
428.4895, 309.8843
428.9716, 309.7097
429.4537, 309.3819
429.9358, 309.2585
430.4179, 309.4856
430.9001, 309.3983
431.3822, 308.5032
431.8643, 306.7837
432.3464, 305.4587
432.8285, 304.6506
433.3106, 303.8501
433.7928, 302.3626
434.2749, 300.2537
434.7570, 298.0568
435.2391, 295.8686
435.7212, 293.7484
436.2033, 291.8611
436.6855, 290.2018
437.1676, 288.5401
437.6497, 286.4155
438.1318, 284.2775
438.6139, 282.9904
439.0960, 282.9388
439.5782, 282.8321
440.0603, 281.3277
440.5424, 279.0284
441.0245, 277.0870
441.5066, 276.1384
441.9887, 275.5495
442.4709, 274.9840
442.9530, 274.4304
443.4351, 273.9925
443.9172, 273.7194
444.3993, 273.5703
444.8814, 273.5123
445.3636, 273.3669
445.8457, 273.5360
446.3278, 274.3676
446.8099, 275.5510
447.2920, 276.3301
447.7741, 276.2821
448.2563, 276.2916
448.7384, 276.6480
449.2205, 277.4171
449.7026, 278.0322
450.1847, 278.3645
450.6668, 278.7029
451.1490, 279.3859
451.6311, 280.5835
452.1132, 281.4502
452.5953, 281.7476
453.0774, 281.7326
453.5595, 282.1509
454.0417, 283.0437
454.5238, 283.9972
455.0059, 284.9247
455.4880, 285.7569
455.9701, 286.1567
456.4522, 286.0894
456.9344, 285.7177
457.4165, 285.0369
457.8986, 284.1725
458.3807, 283.5120
458.8628, 283.2829
459.3449, 283.1848
459.8271, 282.8531
460.3092, 282.3390
460.7913, 281.8563
461.2734, 281.6429
461.7555, 281.4501
462.2376, 281.0497
462.7198, 280.3843
463.2019, 279.6517
463.6840, 278.8330
464.1661, 278.0378
464.6482, 277.3986
465.1303, 276.8925
465.6125, 276.5991
466.0946, 276.9338
466.5767, 277.7374
467.0588, 277.5244
467.5409, 274.8371
468.0230, 272.3047
468.5052, 271.1737
468.9873, 272.2575
469.4694, 272.7164
469.9515, 272.3460
470.4336, 271.5363
470.9157, 270.7695
471.3979, 270.0038
471.8800, 269.4687
472.3621, 269.3004
472.8442, 269.4057
473.3263, 269.3224
473.8084, 269.0363
474.2906, 268.6692
474.7727, 268.2543
475.2548, 267.8154
475.7369, 267.4832
476.2190, 267.2769
476.7011, 267.1397
477.1833, 266.8964
477.6654, 266.6518
478.1475, 266.7025
478.6296, 267.6632
479.1117, 268.6380
479.5938, 268.5617
480.0760, 267.5692
480.5581, 266.5716
481.0402, 265.9236
481.5223, 265.5815
482.0044, 265.5164
482.4865, 265.7368
482.9687, 266.2045
483.4508, 267.0817
483.9329, 268.1576
484.4150, 269.1187
484.8971, 270.0200
485.3792, 270.6929
485.8614, 270.8513
486.3435, 270.5664
486.8256, 270.9667
487.3077, 272.5658
487.7898, 274.2379
488.2719, 275.2903
488.7541, 275.3028
489.2362, 276.0507
489.7183, 277.7972
490.2004, 279.9461
490.6825, 281.6172
491.1646, 282.7698
491.6468, 283.8867
492.1289, 285.0560
492.6110, 286.3223
493.0931, 288.0556
493.5752, 290.2535
494.0573, 292.2202
494.5395, 293.0287
495.0216, 293.3286
495.5037, 294.6550
495.9858, 297.3050
496.4679, 300.1651
496.9500, 302.3673
497.4322, 304.0499
497.9143, 305.4005
498.3964, 306.3984
498.8785, 307.1801
499.3606, 307.6155
499.8427, 307.8275
500.3249, 308.3455
500.8070, 309.7934
501.2891, 311.2576
501.7712, 312.2585
502.2533, 312.6658
502.7354, 312.8423
503.2176, 312.8821
503.6997, 312.6625
504.1818, 312.0073
504.6639, 310.5509
505.1460, 309.3671
505.6281, 308.8474
506.1103, 308.6714
506.5924, 307.4960
507.0745, 305.0546
507.5566, 302.5425
508.0387, 300.7549
508.5208, 299.6225
509.0030, 297.6509
509.4851, 294.7440
509.9672, 291.5430
510.4493, 288.8047
510.9314, 286.3568
511.4135, 283.5756
511.8957, 280.2549
512.3778, 276.6982
512.8599, 273.0318
513.3420, 269.3976
513.8242, 266.2167
514.3063, 264.1335
514.7884, 262.2413
515.2705, 259.8687
515.7526, 256.9787
516.2347, 253.8820
516.7169, 250.1364
517.1990, 246.5645
517.6811, 243.8154
518.1632, 242.9380
518.6453, 241.5933
519.1274, 239.1033
519.6096, 236.0673
520.0917, 233.6415
520.5738, 232.2761
521.0559, 230.7828
521.5380, 228.8275
522.0201, 226.4400
522.5023, 224.0964
522.9844, 221.7293
523.4665, 219.5801
523.9486, 217.9505
524.4307, 216.8004
524.9128, 215.3828
525.3950, 213.6085
525.8771, 211.7187
526.3592, 209.9306
526.8413, 208.2887
527.3234, 206.9080
527.8055, 206.0141
528.2877, 205.2454
528.7698, 204.1199
529.2519, 202.7275
529.7340, 201.4104
530.2161, 200.5314
530.6982, 199.6913
531.1804, 198.4860
531.6625, 196.7964
532.1446, 195.3302
532.6267, 194.4603
533.1088, 193.8667
533.5909, 193.2679
534.0731, 192.7072
534.5552, 192.0381
535.0373, 191.2309
535.5194, 190.3179
536.0015, 189.2980
536.4836, 188.0393
536.9658, 186.9656
537.4479, 186.3103
537.9300, 186.0467
538.4121, 185.4400
538.8942, 184.3817
539.3763, 183.4416
539.8585, 183.3543
540.3406, 183.9050
540.8227, 183.7681
541.3048, 182.6453
541.7869, 181.2722
542.2690, 180.5298
542.7512, 180.2544
543.2333, 180.0391
543.7154, 179.8388
544.1975, 179.5269
544.6796, 178.8936
545.1617, 178.0183
545.6439, 177.2755
546.1260, 176.9296
546.6081, 176.6956
547.0902, 176.3742
547.5723, 175.8797
548.0544, 175.5895
548.5366, 175.7504
549.0187, 176.0273
549.5008, 176.1143
549.9829, 175.8185
550.4650, 175.7073
550.9471, 175.9665
551.4293, 176.3641
551.9114, 176.3449
552.3935, 175.8582
552.8756, 175.1906
553.3577, 174.3403
553.8398, 173.3983
554.3220, 172.7787
554.8041, 172.4829
555.2862, 172.4383
555.7683, 172.6680
556.2504, 173.0889
556.7325, 173.6111
557.2147, 174.2754
557.6968, 174.7450
558.1789, 174.7019
558.6610, 174.2884
559.1431, 173.7157
559.6252, 172.5038
560.1074, 171.7161
560.5895, 172.0705
561.0716, 173.2404
561.5537, 174.1247
562.0358, 174.3341
562.5179, 174.3955
563.0001, 174.4862
563.4822, 174.6164
563.9643, 174.6922
564.4464, 174.7801
564.9285, 174.7207
565.4106, 174.3335
565.8928, 173.5451
566.3749, 172.8568
566.8570, 172.2259
567.3391, 171.8694
567.8212, 172.3650
568.3033, 173.5736
568.7855, 174.4275
569.2676, 174.4981
569.7497, 174.0949
570.2318, 173.5010
570.7139, 172.7903
571.1960, 172.2385
571.6782, 172.1345
572.1603, 172.1780
572.6424, 172.1643
573.1245, 172.0779
573.6066, 171.8811
574.0887, 171.4274
574.5709, 170.9362
575.0530, 170.5793
575.5351, 170.5948
576.0172, 170.4233
576.4993, 169.9382
576.9814, 169.3143
577.4636, 168.8379
577.9457, 168.5406
578.4278, 168.3005
578.9099, 168.0578
579.3920, 167.8642
579.8741, 168.0568
580.3563, 168.6793
580.8384, 169.0692
581.3205, 168.6115
581.8026, 167.6227
582.2847, 167.0662
582.7668, 166.9729
583.2490, 166.9743
583.7311, 166.7519
584.2132, 166.4433
584.6953, 166.2035
585.1774, 166.0220
585.6595, 166.0309
586.1416, 166.4730
586.6237, 167.1063
587.1058, 167.5710
587.5880, 167.7295
