##NAMES=Demesmaekerite
##RRUFFID=R080130
##IDEAL CHEMISTRY=Pb^2+^_2_Cu^2+^_5_(U^6+^O_2_)_2_(Se^4+^O_3_)_6_(OH)_6_&#183;2H_2_O
##LOCALITY=Musonoi mine, Kolwezi, Katanga, Congo
##OWNER=RRUFF
##SOURCE=William W. Pinch
##DESCRIPTION=Dark green to light brownish green bladed crystals
##STATUS=The identification of this mineral has been confirmed by single-crystal X-ray diffraction.
##URL=rruff.info/R080130
94.74744, 164.3356
95.22955, 165.2858
95.71167, 166.2422
96.19379, 165.9245
96.67590, 164.4285
97.15802, 162.8166
97.64014, 161.0996
98.12225, 159.3758
98.60437, 157.8630
99.08649, 156.7536
99.56860, 155.8264
100.0507, 154.6554
100.5328, 152.8997
101.0150, 151.1934
101.4971, 150.0314
101.9792, 149.4188
102.4613, 149.0285
102.9434, 149.1586
103.4255, 149.2183
103.9077, 148.5946
104.3898, 146.9546
104.8719, 144.9758
105.3540, 144.1181
105.8361, 145.1746
106.3182, 145.9917
106.8004, 145.8629
107.2825, 145.3064
107.7646, 144.9467
108.2467, 145.1812
108.7288, 145.9457
109.2109, 146.4221
109.6931, 146.1803
110.1752, 146.0797
110.6573, 146.4743
111.1394, 147.2310
111.6215, 147.9731
112.1037, 148.3796
112.5858, 148.4032
113.0679, 148.2497
113.5500, 147.5647
114.0321, 146.9551
114.5142, 146.9716
114.9964, 147.6991
115.4785, 148.5858
115.9606, 148.9550
116.4427, 148.8397
116.9248, 148.7493
117.4069, 148.7869
117.8891, 148.9280
118.3712, 149.1327
118.8533, 149.4157
119.3354, 149.7276
119.8175, 149.9036
120.2996, 149.9707
120.7818, 150.2914
121.2639, 151.3131
121.7460, 153.0713
122.2281, 154.5338
122.7102, 155.3420
123.1923, 155.8943
123.6745, 156.3988
124.1566, 156.8840
124.6387, 157.1984
125.1208, 157.0813
125.6029, 156.2843
126.0850, 155.5562
126.5672, 154.9582
127.0493, 154.4387
127.5314, 153.9927
128.0135, 153.6113
128.4956, 153.2450
128.9778, 152.7425
129.4599, 151.7645
129.9420, 151.0362
130.4241, 150.9599
130.9062, 151.1125
131.3883, 150.7543
131.8705, 149.3777
132.3526, 147.2957
132.8347, 146.2826
133.3168, 146.8565
133.7989, 147.6989
134.2810, 148.3281
134.7632, 148.7687
135.2453, 149.2073
135.7274, 149.8268
136.2095, 150.5214
136.6916, 150.9513
137.1737, 150.8578
137.6559, 150.6397
138.1380, 150.8771
138.6201, 151.7447
139.1022, 152.2301
139.5843, 151.3384
140.0664, 149.6836
140.5486, 148.0797
141.0307, 146.9236
141.5128, 146.0412
141.9949, 144.9591
142.4770, 143.7084
142.9591, 142.1536
143.4413, 140.2784
143.9234, 138.1201
144.4055, 135.7126
144.8876, 133.0189
145.3697, 130.0414
145.8518, 127.2538
146.3340, 124.5822
146.8161, 122.2002
147.2982, 120.2845
147.7803, 118.7460
148.2624, 117.3179
148.7445, 115.6621
149.2267, 113.5467
149.7088, 112.3120
150.1909, 112.6163
150.6730, 113.0683
151.1551, 112.7224
151.6373, 111.5337
152.1194, 110.2958
152.6015, 110.0269
153.0836, 111.2825
153.5657, 112.0899
154.0478, 112.0939
154.5300, 111.8208
155.0121, 111.7741
155.4942, 112.0819
155.9763, 112.5966
156.4584, 113.1652
156.9405, 113.8087
157.4227, 114.3429
157.9048, 114.6241
158.3869, 114.7642
158.8690, 114.9946
159.3511, 115.3761
159.8332, 115.8773
160.3154, 116.4849
160.7975, 117.2040
161.2796, 117.8775
161.7617, 118.4038
162.2438, 118.7920
162.7259, 119.1278
163.2081, 119.4776
163.6902, 119.7314
164.1723, 119.7150
164.6544, 119.4183
165.1365, 119.1815
165.6186, 119.5082
166.1008, 120.6151
166.5829, 121.2942
167.0650, 120.9090
167.5471, 120.3263
168.0292, 120.1248
168.5113, 120.4366
168.9935, 120.9011
169.4756, 120.8638
169.9577, 119.8610
170.4398, 119.2499
170.9219, 119.3485
171.4040, 119.6948
171.8862, 119.9611
172.3683, 120.0160
172.8504, 119.8751
173.3325, 119.5657
173.8146, 118.6259
174.2968, 118.0898
174.7789, 118.2792
175.2610, 118.7873
175.7431, 119.1130
176.2252, 119.0228
176.7073, 118.6849
177.1895, 118.6636
177.6716, 119.4305
178.1537, 119.9055
178.6358, 119.8023
179.1179, 119.2717
179.6000, 118.5264
180.0822, 117.5781
180.5643, 116.6148
181.0464, 116.2185
181.5285, 116.6824
182.0106, 117.1668
182.4927, 117.3183
182.9749, 117.1679
183.4570, 116.8270
183.9391, 116.2348
184.4212, 115.5530
184.9033, 115.1469
185.3854, 115.2066
185.8676, 115.2377
186.3497, 114.7993
186.8318, 113.8799
187.3139, 112.8869
187.7960, 111.9098
188.2781, 110.9969
188.7603, 110.2259
189.2424, 109.6388
189.7245, 109.1298
190.2066, 108.5104
190.6887, 107.6897
191.1708, 107.0971
191.6530, 106.9296
192.1351, 107.0249
192.6172, 107.3809
193.0993, 108.0638
193.5814, 108.7383
194.0635, 108.6300
194.5457, 107.2054
195.0278, 106.0519
195.5099, 105.5657
195.9920, 105.4407
196.4741, 105.4168
196.9563, 105.3840
197.4384, 105.3376
197.9205, 105.2512
198.4026, 104.9781
198.8847, 104.8829
199.3668, 105.2406
199.8490, 105.7109
200.3311, 105.8866
200.8132, 105.5564
201.2953, 104.8526
201.7774, 104.3037
202.2595, 103.7955
202.7417, 103.5965
203.2238, 104.0822
203.7059, 104.8212
204.1880, 105.2163
204.6701, 104.9389
205.1522, 104.1153
205.6344, 103.2908
206.1165, 102.2992
206.5986, 101.4806
207.0807, 100.9663
207.5628, 100.6723
208.0449, 100.4718
208.5271, 100.3259
209.0092, 100.1871
209.4913, 99.85788
209.9734, 99.30537
210.4555, 98.65465
210.9376, 97.84435
211.4198, 96.95392
211.9019, 96.23275
212.3840, 95.89378
212.8661, 95.73499
213.3482, 95.16999
213.8303, 93.88444
214.3125, 92.72576
214.7946, 92.23661
215.2767, 92.32356
215.7588, 92.52663
216.2409, 92.78994
216.7230, 92.92986
217.2052, 92.65850
217.6873, 91.82234
218.1694, 90.89671
218.6515, 90.18800
219.1336, 89.69212
219.6158, 89.39275
220.0979, 89.46473
220.5800, 89.61903
221.0621, 89.49559
221.5442, 88.99327
222.0263, 88.47123
222.5085, 88.39772
222.9906, 88.84010
223.4727, 88.97907
223.9548, 88.12974
224.4369, 87.13145
224.9190, 86.67406
225.4012, 86.90298
225.8833, 87.28352
226.3654, 87.03476
226.8475, 85.91826
227.3296, 85.33517
227.8117, 86.31634
228.2939, 87.45412
228.7760, 87.82841
229.2581, 87.26402
229.7402, 86.30736
230.2223, 85.59370
230.7044, 85.05980
231.1866, 84.99629
231.6687, 85.96520
232.1508, 87.00584
232.6329, 87.42576
233.1150, 87.14223
233.5971, 86.67885
234.0793, 86.84283
234.5614, 88.07939
235.0435, 88.83256
235.5256, 88.81724
236.0077, 88.57381
236.4898, 88.28026
236.9720, 88.04230
237.4541, 88.03539
237.9362, 88.57458
238.4183, 90.08690
238.9004, 91.08180
239.3825, 91.20536
239.8647, 91.17167
240.3468, 91.52673
240.8289, 92.29396
241.3110, 93.01043
241.7931, 93.06178
242.2753, 92.07397
242.7574, 91.48820
243.2395, 91.46104
243.7216, 91.65025
244.2037, 91.93530
244.6858, 92.25485
245.1680, 92.49420
245.6501, 92.51054
246.1322, 92.22456
246.6143, 92.02094
247.0964, 92.08705
247.5785, 92.08723
248.0607, 91.69653
248.5428, 90.94041
249.0249, 90.20998
249.5070, 89.93323
249.9891, 90.21593
250.4712, 90.10629
250.9534, 89.39078
251.4355, 88.47838
251.9176, 87.48743
252.3997, 86.48335
252.8818, 85.74796
253.3639, 85.60553
253.8461, 86.06944
254.3282, 86.21584
254.8103, 85.93427
255.2924, 85.43533
255.7745, 84.72902
256.2567, 83.86124
256.7388, 83.14071
257.2209, 82.79750
257.7030, 82.82259
258.1851, 82.90688
258.6672, 83.13486
259.1494, 83.35259
259.6315, 83.41983
260.1136, 83.35381
260.5957, 83.32654
261.0778, 83.46912
261.5599, 83.71677
262.0421, 83.85812
262.5242, 83.81299
263.0063, 83.75384
263.4884, 83.86372
263.9705, 84.11127
264.4526, 84.19994
264.9348, 83.87653
265.4169, 83.38110
265.8990, 83.16998
266.3811, 83.31148
266.8632, 83.59772
267.3453, 84.07674
267.8275, 84.67943
268.3096, 84.78825
268.7917, 83.81156
269.2738, 82.55831
269.7559, 82.12166
270.2380, 82.62543
270.7202, 83.35780
271.2023, 83.82072
271.6844, 84.06807
272.1665, 84.54115
272.6486, 85.70713
273.1307, 86.71296
273.6129, 86.62899
274.0950, 85.46535
274.5771, 84.29667
275.0592, 83.95886
275.5413, 84.28257
276.0234, 84.25311
276.5056, 83.49469
276.9877, 82.64227
277.4698, 82.19608
277.9519, 82.09883
278.4340, 82.05482
278.9161, 81.95898
279.3983, 81.78841
279.8804, 81.40311
280.3625, 80.64514
280.8446, 79.90668
281.3267, 79.46790
281.8088, 79.23037
282.2910, 78.95658
282.7731, 78.44537
283.2552, 77.80445
283.7373, 77.39532
284.2194, 77.27130
284.7015, 77.29689
285.1837, 77.50593
285.6658, 77.78325
286.1479, 77.94527
286.6300, 77.86987
287.1121, 77.66631
287.5942, 77.63784
288.0764, 77.96754
288.5585, 78.02570
289.0406, 77.40314
289.5227, 76.49117
290.0048, 75.66666
290.4869, 75.04391
290.9691, 74.59825
291.4512, 74.32102
291.9333, 74.28098
292.4154, 74.19312
292.8975, 73.87557
293.3796, 73.54536
293.8618, 73.47703
294.3439, 73.73848
294.8260, 73.91353
295.3081, 73.31099
295.7902, 71.68478
296.2723, 70.45820
296.7545, 70.06685
297.2366, 70.01228
297.7187, 70.12991
298.2008, 70.36424
298.6830, 70.62350
299.1651, 70.84480
299.6472, 71.04025
300.1293, 71.08080
300.6114, 70.72784
301.0935, 70.41883
301.5757, 70.43461
302.0578, 70.69016
302.5399, 70.86984
303.0220, 70.67980
303.5041, 70.14058
303.9862, 69.69814
304.4684, 69.32881
304.9505, 69.10526
305.4326, 69.15681
305.9147, 69.35600
306.3968, 69.47593
306.8789, 69.37424
307.3611, 69.09139
307.8432, 68.80769
308.3253, 68.58571
308.8074, 68.25436
309.2895, 67.48952
309.7716, 66.69710
310.2538, 66.48795
310.7359, 67.19807
311.2180, 68.28220
311.7001, 68.43251
312.1822, 67.06834
312.6643, 66.05247
313.1465, 66.03191
313.6286, 66.28573
314.1107, 66.23656
314.5928, 65.72816
315.0749, 65.01112
315.5570, 64.39326
316.0392, 63.83668
316.5213, 63.52620
317.0034, 63.77425
317.4855, 64.04608
317.9676, 64.01794
318.4497, 63.68633
318.9319, 63.29392
319.4140, 63.15435
319.8961, 63.32747
320.3782, 63.15759
320.8603, 62.00163
321.3424, 61.11134
321.8246, 61.11770
322.3067, 61.79521
322.7888, 62.56703
323.2709, 63.12962
323.7530, 63.43905
324.2351, 63.05113
324.7173, 61.02012
325.1994, 59.63973
325.6815, 60.12081
326.1636, 61.47735
326.6457, 62.30228
327.1278, 61.84999
327.6100, 60.62477
328.0921, 59.82251
328.5742, 59.55065
329.0563, 59.49696
329.5384, 59.82240
330.0205, 60.17689
330.5027, 60.20267
330.9848, 59.79956
331.4669, 59.26961
331.9490, 59.04451
332.4311, 59.19355
332.9132, 59.34396
333.3954, 59.67486
333.8775, 59.81614
334.3596, 59.31451
334.8417, 58.26735
335.3238, 57.40800
335.8059, 57.67460
336.2881, 59.09327
336.7702, 59.77688
337.2523, 59.08082
337.7344, 58.28746
338.2165, 58.08574
338.6986, 58.25464
339.1808, 58.20086
339.6629, 57.37424
340.1450, 56.09586
340.6271, 55.65649
341.1092, 56.54363
341.5914, 57.34087
342.0735, 57.34065
342.5556, 57.00929
343.0377, 56.94083
343.5198, 57.40698
344.0020, 58.06401
344.4841, 58.34515
344.9662, 58.17722
345.4483, 57.96586
345.9304, 57.79211
346.4125, 57.64155
346.8947, 57.48503
347.3768, 57.31805
347.8589, 57.22289
348.3410, 57.35540
348.8231, 57.70603
349.3052, 57.85691
349.7874, 57.60310
350.2695, 57.29691
350.7516, 57.08252
351.2337, 56.99519
351.7158, 57.15965
352.1979, 57.94735
352.6801, 59.06646
353.1622, 59.42023
353.6443, 58.60681
354.1264, 57.91071
354.6085, 58.30707
355.0906, 59.27043
355.5728, 60.00258
356.0549, 60.21901
356.5370, 60.12158
357.0191, 59.89248
357.5012, 59.51023
357.9833, 59.25258
358.4655, 59.30947
358.9476, 59.51540
359.4297, 59.62930
359.9118, 59.58208
360.3939, 59.67581
360.8760, 60.34703
361.3582, 61.42972
361.8403, 62.03847
362.3224, 61.79290
362.8045, 61.28220
363.2866, 61.11290
363.7687, 61.25146
364.2509, 61.43602
364.7330, 61.68699
365.2151, 61.88148
365.6972, 61.73284
366.1793, 61.15576
366.6614, 60.60558
367.1436, 60.43277
367.6257, 60.56553
368.1078, 60.77990
368.5899, 61.19548
369.0720, 61.56265
369.5541, 61.69091
370.0363, 61.59211
370.5184, 61.27531
371.0005, 60.56535
371.4826, 59.81246
371.9647, 59.83739
372.4468, 60.93317
372.9290, 61.96216
373.4111, 62.50997
373.8932, 62.68958
374.3753, 62.57758
374.8574, 62.13729
375.3395, 61.77295
375.8217, 62.14089
376.3038, 63.37249
376.7859, 64.10969
377.2680, 63.81835
377.7501, 63.25799
378.2322, 63.08686
378.7144, 63.32178
379.1965, 63.60956
379.6786, 63.72063
380.1607, 63.64868
380.6428, 63.39751
381.1249, 62.77164
381.6071, 62.21170
382.0892, 61.77877
382.5713, 61.53143
383.0534, 61.65087
383.5355, 62.24420
384.0176, 63.02996
384.4998, 63.39000
384.9819, 62.83392
385.4640, 62.65139
385.9461, 63.25034
386.4282, 63.99734
386.9104, 64.33307
387.3925, 64.18916
387.8746, 63.85286
388.3567, 63.60141
388.8388, 63.41752
389.3210, 63.46320
389.8031, 63.87157
390.2852, 64.33359
390.7673, 64.88406
391.2494, 65.38783
391.7315, 65.57382
392.2137, 65.26127
392.6958, 64.60266
393.1779, 64.18885
393.6600, 64.15981
394.1421, 64.20155
394.6242, 64.48293
395.1064, 64.70557
395.5885, 64.45386
396.0706, 63.68721
396.5527, 62.91966
397.0348, 62.94148
397.5169, 64.07030
397.9991, 64.71758
398.4812, 64.44154
398.9633, 64.06553
399.4454, 63.86991
399.9275, 63.84321
400.4096, 63.90333
400.8918, 64.08450
401.3739, 64.26325
401.8560, 63.79224
402.3381, 62.08332
402.8202, 60.86084
403.3023, 60.94142
403.7845, 61.56215
404.2666, 62.02192
404.7487, 62.12660
405.2308, 61.91189
405.7129, 61.22307
406.1950, 60.00416
406.6772, 59.31602
407.1593, 59.83169
407.6414, 60.44098
408.1235, 60.26438
408.6056, 59.41502
409.0877, 58.60173
409.5699, 58.20823
410.0520, 58.14193
410.5341, 58.29957
411.0162, 58.80470
411.4983, 59.03944
411.9804, 58.39195
412.4626, 57.27156
412.9447, 56.32585
413.4268, 55.61056
413.9089, 55.16666
414.3910, 55.20924
414.8731, 55.61880
415.3553, 55.81199
415.8374, 55.57830
416.3195, 55.09055
416.8016, 54.46069
417.2837, 53.63533
417.7658, 53.22676
418.2480, 53.80143
418.7301, 54.66402
419.2122, 54.95061
419.6943, 54.58976
420.1764, 54.16425
420.6585, 54.14314
421.1407, 54.48367
421.6228, 54.64076
422.1049, 54.44586
422.5870, 54.27283
423.0691, 54.40054
423.5512, 54.63127
424.0334, 54.55505
424.5155, 53.99806
424.9976, 53.21403
425.4797, 52.66439
425.9618, 52.35127
426.4439, 52.32710
426.9261, 52.93491
427.4082, 53.55733
427.8903, 53.70869
428.3724, 53.42003
428.8545, 53.07352
429.3366, 52.99650
429.8188, 53.16917
430.3009, 53.15733
430.7830, 52.68139
431.2651, 52.32493
431.7473, 52.22898
432.2294, 52.28378
432.7115, 52.39358
433.1936, 52.51678
433.6757, 52.58747
434.1578, 52.50484
434.6400, 52.26999
435.1221, 51.87746
435.6042, 50.82128
436.0863, 50.04211
436.5684, 50.30157
437.0505, 51.30941
437.5327, 52.04445
438.0148, 51.62377
438.4969, 50.44680
438.9790, 49.97927
439.4611, 50.47150
439.9432, 51.04504
440.4254, 51.44302
440.9075, 51.68776
441.3896, 51.74720
441.8717, 51.58654
442.3538, 51.40940
442.8359, 51.47219
443.3181, 51.71142
443.8002, 51.72074
444.2823, 51.35220
444.7644, 50.86529
445.2465, 50.43575
445.7286, 50.07242
446.2108, 49.89837
446.6929, 49.88024
447.1750, 50.10984
447.6571, 50.88198
448.1392, 52.11438
448.6213, 53.10662
449.1035, 53.49847
449.5856, 53.38774
450.0677, 52.98079
450.5498, 52.01652
451.0319, 51.35101
451.5140, 51.46885
451.9962, 51.88167
452.4783, 51.91567
452.9604, 51.46996
453.4425, 51.05560
453.9246, 51.25043
454.4067, 52.15431
454.8889, 52.59512
455.3710, 52.22712
455.8531, 51.85809
456.3352, 51.81208
456.8173, 51.95774
457.2994, 52.02894
457.7816, 51.90179
458.2637, 51.69837
458.7458, 51.68579
459.2279, 51.97919
459.7100, 52.22816
460.1921, 52.55196
460.6743, 52.72832
461.1564, 52.49583
461.6385, 51.96046
462.1206, 51.52760
462.6027, 51.57425
463.0848, 51.96834
463.5670, 51.98446
464.0491, 51.40162
464.5312, 50.88708
465.0133, 50.60777
465.4954, 50.53208
465.9775, 50.70750
466.4597, 51.16611
466.9418, 51.60361
467.4239, 51.77277
467.9060, 51.68122
468.3881, 51.32174
468.8702, 50.51818
469.3524, 49.78732
469.8345, 49.69814
470.3166, 50.04892
470.7987, 50.27687
471.2808, 50.09438
471.7629, 49.84782
472.2451, 49.93980
472.7272, 50.28201
473.2093, 50.37382
473.6914, 49.92813
474.1735, 49.26696
474.6556, 49.06371
475.1378, 49.48504
475.6199, 49.72176
476.1020, 49.46370
476.5841, 49.10106
477.0663, 48.91256
477.5484, 48.94976
478.0305, 49.26732
478.5126, 49.97770
478.9947, 50.98483
479.4768, 51.41446
479.9590, 50.82395
480.4411, 50.18610
480.9232, 49.61990
481.4053, 49.06549
481.8874, 48.34237
482.3695, 47.45757
482.8517, 46.77446
483.3338, 46.84907
483.8159, 47.82307
484.2980, 48.34023
484.7801, 48.04736
485.2622, 47.67096
485.7444, 47.37873
486.2265, 47.19165
486.7086, 47.14298
487.1907, 47.26912
487.6728, 47.45662
488.1549, 47.58212
488.6371, 47.65165
489.1192, 47.52204
489.6013, 46.98870
490.0834, 46.44054
490.5655, 46.16422
491.0476, 46.15382
491.5298, 46.37820
492.0119, 47.11303
492.4940, 47.91492
492.9761, 48.17545
493.4582, 47.90278
493.9403, 47.50197
494.4225, 47.17355
494.9046, 46.85203
495.3867, 46.32977
495.8688, 45.42625
496.3509, 44.78942
496.8330, 44.54288
497.3152, 44.65026
497.7973, 45.23893
498.2794, 46.23463
498.7615, 47.18925
499.2436, 47.72356
499.7257, 47.85054
500.2079, 47.83525
500.6900, 47.62209
501.1721, 47.33130
501.6542, 46.89745
502.1363, 46.43661
502.6184, 46.05672
503.1006, 45.79062
503.5827, 45.61801
504.0648, 45.51216
504.5469, 45.46980
505.0290, 45.53675
505.5111, 45.83369
505.9933, 46.09208
506.4754, 46.23921
506.9575, 46.27419
507.4396, 46.15837
507.9217, 45.82471
508.4038, 45.51434
508.8860, 45.63520
509.3681, 46.15141
509.8502, 46.37211
510.3323, 45.99747
510.8144, 45.52665
511.2965, 45.53385
511.7787, 45.92063
512.2608, 46.14583
512.7429, 46.05688
513.2250, 45.76869
513.7072, 45.17638
514.1893, 44.41647
514.6714, 44.07986
515.1535, 44.49270
515.6356, 45.27776
516.1177, 45.69263
516.5999, 45.57204
517.0820, 45.43584
517.5641, 45.33830
518.0462, 45.19584
518.5283, 44.83770
519.0104, 44.36602
519.4926, 44.12757
519.9747, 44.38234
520.4568, 44.95105
520.9389, 45.14318
521.4210, 44.68746
521.9031, 44.35681
522.3853, 44.31378
522.8674, 44.35422
523.3495, 44.32744
523.8316, 44.23281
524.3137, 44.17434
524.7958, 44.25397
525.2780, 44.42972
525.7601, 44.61029
526.2422, 44.87037
526.7243, 44.83776
527.2064, 43.94064
527.6885, 42.88408
528.1707, 42.62486
528.6528, 43.35827
529.1349, 44.17004
529.6170, 44.76968
530.0991, 45.08824
530.5812, 44.87778
531.0634, 44.12031
531.5455, 43.38819
532.0276, 43.11799
532.5097, 43.23587
532.9918, 43.23468
533.4739, 42.98003
533.9561, 42.79831
534.4382, 42.82650
534.9203, 42.92320
535.4024, 42.86280
535.8845, 42.64472
536.3666, 42.57742
536.8488, 43.06921
537.3309, 44.11794
537.8130, 44.39003
538.2951, 42.81757
538.7772, 41.87452
539.2593, 42.66710
539.7415, 44.05580
540.2236, 44.83425
540.7057, 44.69063
541.1878, 44.16043
541.6699, 43.64768
542.1520, 43.17740
542.6342, 42.98452
543.1163, 43.23811
543.5984, 43.39212
544.0805, 42.79985
544.5626, 41.92356
545.0447, 41.69425
545.5269, 42.57395
546.0090, 43.46423
546.4911, 43.73981
546.9732, 43.58099
547.4553, 43.25363
547.9374, 42.81153
548.4196, 42.44808
548.9017, 42.36753
549.3838, 42.57695
549.8659, 42.72375
550.3480, 42.85725
550.8301, 42.88367
551.3123, 42.65348
551.7944, 42.35698
552.2765, 42.27126
552.7586, 42.44808
553.2407, 42.64645
553.7228, 42.54562
554.2050, 42.12153
554.6871, 41.84233
555.1692, 41.77152
555.6513, 41.76383
556.1334, 41.78207
556.6155, 41.81869
557.0977, 41.84562
557.5798, 41.84473
558.0619, 41.91696
558.5440, 42.31784
559.0261, 42.88875
559.5082, 42.95762
559.9904, 42.33277
560.4725, 41.65019
560.9546, 41.33591
561.4367, 41.38540
561.9188, 41.62730
562.4009, 42.25510
562.8831, 42.83017
563.3652, 43.31946
563.8473, 43.60815
564.3294, 43.40218
564.8115, 42.69746
565.2936, 41.99448
565.7758, 41.81906
566.2579, 42.17301
566.7400, 42.34611
567.2221, 42.21299
567.7042, 42.03771
568.1863, 41.63377
568.6685, 41.33582
569.1506, 41.67351
569.6327, 42.67526
570.1148, 43.55989
570.5969, 43.30677
571.0790, 42.16665
571.5612, 41.83036
572.0433, 42.60580
572.5254, 43.35400
573.0075, 43.42343
573.4896, 43.13948
573.9717, 43.00753
574.4539, 43.13227
574.9360, 43.16288
575.4181, 42.82092
575.9002, 42.33807
576.3823, 41.94927
576.8644, 41.70967
577.3466, 41.84668
577.8287, 42.62415
578.3108, 43.83227
578.7929, 44.43429
579.2750, 43.96175
579.7571, 43.47256
580.2393, 42.81553
580.7214, 42.31026
581.2035, 42.38340
581.6856, 42.90960
582.1677, 43.26834
582.6498, 42.94929
583.1320, 42.15432
583.6141, 41.52052
584.0962, 40.97369
584.5783, 40.85207
585.0604, 41.71733
585.5425, 42.68056
586.0247, 42.92405
586.5068, 42.47880
586.9889, 42.03805
587.4710, 41.78919
587.9531, 41.77579
588.4353, 42.26012
588.9174, 43.11349
589.3995, 43.58967
589.8817, 43.32091
590.3638, 42.64273
590.8459, 42.10726
591.3280, 41.71801
