##NAMES=Denningite
##RRUFFID=R061023
##IDEAL CHEMISTRY=CaMn^2+^Te^4+^_4_O_10_
##LOCALITY=Bambolla mine, Moctezuma, Sonora, Mexico
##OWNER=RRUFF
##SOURCE=Michael Scott
##DESCRIPTION=Pale green thin platy crystals associated with quartz, tellurium, tellurite, and zemannite
##STATUS=The identification of this mineral has been confirmed by single-crystal X-ray diffraction.
##URL=rruff.info/R061023
133.5759, 2463.566
134.0581, 2572.535
134.5402, 2678.021
135.0223, 2773.375
135.5044, 2875.482
135.9865, 3019.213
136.4686, 3207.267
136.9508, 3415.094
137.4329, 3627.420
137.9150, 3840.216
138.3971, 4075.419
138.8792, 4337.905
139.3613, 4624.020
139.8434, 4921.884
140.3256, 5233.476
140.8077, 5558.308
141.2898, 5901.038
141.7719, 6259.298
142.2540, 6635.009
142.7361, 7027.485
143.2183, 7440.043
143.7004, 7859.178
144.1825, 8299.382
144.6646, 8732.128
145.1467, 9123.457
145.6288, 9483.968
146.1110, 9792.060
146.5931, 10040.76
147.0752, 10228.39
147.5573, 10371.45
148.0394, 10473.58
148.5215, 10529.17
149.0037, 10529.19
149.4858, 10424.16
149.9679, 10311.90
150.4500, 10215.58
150.9321, 10130.73
151.4142, 10072.91
151.8964, 10044.69
152.3785, 10044.17
152.8606, 10066.63
153.3427, 10171.31
153.8248, 10255.15
154.3069, 10280.35
154.7890, 10292.86
155.2712, 10183.45
155.7533, 9920.549
156.2354, 9520.453
156.7175, 9040.646
157.1996, 8413.055
157.6817, 7750.652
158.1639, 7121.235
158.6460, 6502.707
159.1281, 5953.105
159.6102, 5490.225
160.0923, 5112.044
160.5744, 4798.522
161.0566, 4561.572
161.5387, 4378.454
162.0208, 4228.718
162.5029, 4103.247
162.9850, 4012.190
163.4671, 3969.274
163.9493, 3976.397
164.4314, 3993.622
164.9135, 3999.233
165.3956, 4004.501
165.8777, 4024.069
166.3598, 4067.761
166.8420, 4125.202
167.3241, 4191.232
167.8062, 4266.519
168.2883, 4345.948
168.7704, 4430.753
169.2525, 4518.104
169.7346, 4602.874
170.2168, 4678.388
170.6989, 4751.533
171.1810, 4827.297
171.6631, 4905.622
172.1452, 4989.927
172.6273, 5103.186
173.1095, 5229.464
173.5916, 5325.124
174.0737, 5375.951
174.5558, 5377.572
175.0379, 5321.090
175.5201, 5197.816
176.0022, 5028.789
176.4843, 4823.656
176.9664, 4588.511
177.4485, 4349.482
177.9306, 4110.096
178.4128, 3882.066
178.8949, 3683.884
179.3770, 3523.566
179.8591, 3391.138
180.3412, 3274.249
180.8233, 3171.719
181.3055, 3081.689
181.7876, 3001.416
182.2697, 2931.790
182.7518, 2873.739
183.2339, 2834.574
183.7160, 2804.050
184.1981, 2758.617
184.6803, 2697.424
185.1624, 2638.279
185.6445, 2601.667
186.1266, 2583.786
186.6087, 2562.849
187.0908, 2524.363
187.5730, 2477.552
188.0551, 2455.739
188.5372, 2461.341
189.0193, 2477.615
189.5014, 2487.142
189.9835, 2490.302
190.4657, 2490.833
190.9478, 2488.644
191.4299, 2484.524
191.9120, 2482.419
192.3941, 2481.611
192.8762, 2485.075
193.3584, 2498.250
193.8405, 2521.156
194.3226, 2547.031
194.8047, 2575.727
195.2868, 2606.696
195.7689, 2626.420
196.2511, 2630.495
196.7332, 2631.306
197.2153, 2654.076
197.6974, 2701.327
198.1795, 2748.766
198.6616, 2781.459
199.1437, 2798.979
199.6259, 2823.880
200.1080, 2858.656
200.5901, 2899.963
201.0722, 2939.715
201.5543, 2977.670
202.0364, 3016.121
202.5186, 3057.459
203.0007, 3102.360
203.4828, 3142.394
203.9649, 3174.204
204.4470, 3202.370
204.9291, 3241.987
205.4113, 3297.030
205.8934, 3351.000
206.3755, 3393.636
206.8576, 3423.876
207.3397, 3447.353
207.8218, 3462.495
208.3040, 3471.731
208.7861, 3484.490
209.2682, 3500.531
209.7503, 3520.561
210.2324, 3546.929
210.7145, 3582.271
211.1967, 3612.756
211.6788, 3634.506
212.1609, 3649.752
212.6430, 3672.513
213.1251, 3705.439
213.6072, 3741.048
214.0894, 3772.757
214.5715, 3797.480
215.0536, 3827.632
215.5357, 3864.092
216.0178, 3907.074
216.4999, 3957.742
216.9820, 4013.302
217.4642, 4079.552
217.9463, 4164.633
218.4284, 4274.758
218.9105, 4384.480
219.3926, 4487.000
219.8747, 4581.863
220.3569, 4690.823
220.8390, 4821.168
221.3211, 4957.098
221.8032, 5084.589
222.2853, 5190.708
222.7674, 5315.936
223.2496, 5471.822
223.7317, 5661.069
224.2138, 5842.372
224.6959, 6015.672
225.1780, 6183.151
225.6601, 6351.218
226.1423, 6515.180
226.6244, 6686.897
227.1065, 6869.929
227.5886, 7067.620
228.0707, 7255.893
228.5528, 7433.656
229.0350, 7605.556
229.5171, 7777.095
229.9992, 7961.384
230.4813, 8125.891
230.9634, 8260.646
231.4455, 8363.982
231.9276, 8460.678
232.4098, 8564.366
232.8919, 8650.916
233.3740, 8686.017
233.8561, 8657.328
234.3382, 8600.210
234.8203, 8518.242
235.3025, 8407.555
235.7846, 8298.761
236.2667, 8201.846
236.7488, 8099.636
237.2309, 7968.626
237.7130, 7798.819
238.1952, 7620.131
238.6773, 7441.105
239.1594, 7263.589
239.6415, 7076.289
240.1236, 6872.340
240.6057, 6661.275
241.0879, 6454.818
241.5700, 6257.214
242.0521, 6060.593
242.5342, 5860.944
243.0163, 5654.708
243.4984, 5462.967
243.9806, 5294.334
244.4627, 5134.336
244.9448, 4958.605
245.4269, 4748.230
245.9090, 4552.814
246.3911, 4388.537
246.8732, 4263.270
247.3554, 4133.486
247.8375, 3995.400
248.3196, 3855.249
248.8017, 3721.215
249.2838, 3591.568
249.7659, 3473.573
250.2481, 3370.434
250.7302, 3285.348
251.2123, 3200.671
251.6944, 3113.603
252.1765, 3029.358
252.6586, 2954.303
253.1408, 2889.273
253.6229, 2832.062
254.1050, 2782.340
254.5871, 2741.809
255.0692, 2702.685
255.5513, 2664.140
256.0334, 2627.712
256.5156, 2594.960
256.9977, 2565.582
257.4798, 2540.233
257.9619, 2519.851
258.4440, 2505.232
258.9261, 2489.935
259.4083, 2473.601
259.8904, 2456.522
260.3725, 2439.233
260.8546, 2421.022
261.3367, 2403.638
261.8188, 2388.523
262.3010, 2376.512
262.7831, 2360.015
263.2652, 2338.293
263.7473, 2312.642
264.2294, 2283.451
264.7115, 2248.804
265.1937, 2216.256
265.6758, 2189.101
266.1579, 2168.338
266.6400, 2145.615
267.1221, 2120.269
267.6042, 2094.129
268.0864, 2070.141
268.5685, 2048.275
269.0506, 2028.112
269.5327, 2009.878
270.0148, 1993.715
270.4969, 1977.119
270.9791, 1959.604
271.4612, 1942.552
271.9433, 1929.245
272.4254, 1921.452
272.9075, 1910.036
273.3896, 1889.918
273.8718, 1861.399
274.3539, 1841.894
274.8360, 1833.913
275.3181, 1829.569
275.8002, 1816.697
276.2823, 1792.669
276.7645, 1776.553
277.2466, 1777.803
277.7287, 1794.683
278.2108, 1798.256
278.6929, 1785.618
279.1750, 1767.684
279.6572, 1757.671
280.1393, 1756.422
280.6214, 1752.387
281.1035, 1740.315
281.5856, 1722.193
282.0677, 1711.474
282.5499, 1709.184
283.0320, 1710.332
283.5141, 1711.333
283.9962, 1712.224
284.4783, 1708.745
284.9604, 1697.555
285.4425, 1681.311
285.9247, 1671.365
286.4068, 1668.094
286.8889, 1668.700
287.3710, 1672.445
287.8531, 1678.890
288.3352, 1682.376
288.8174, 1679.747
289.2995, 1673.998
289.7816, 1675.724
290.2637, 1685.436
290.7458, 1693.427
291.2279, 1688.452
291.7101, 1673.142
292.1922, 1661.520
292.6743, 1657.600
293.1564, 1658.710
293.6385, 1659.134
294.1206, 1658.945
294.6028, 1661.141
295.0849, 1671.966
295.5670, 1687.711
296.0491, 1695.429
296.5312, 1688.746
297.0133, 1677.799
297.4955, 1678.632
297.9776, 1690.482
298.4597, 1706.459
298.9418, 1723.627
299.4239, 1741.171
299.9060, 1757.074
300.3882, 1770.314
300.8703, 1782.673
301.3524, 1796.223
301.8345, 1810.667
302.3166, 1824.726
302.7987, 1837.663
303.2809, 1849.651
303.7630, 1860.345
304.2451, 1868.157
304.7272, 1878.348
305.2093, 1896.575
305.6914, 1921.646
306.1736, 1948.831
306.6557, 1976.544
307.1378, 2005.065
307.6199, 2035.554
308.1020, 2069.398
308.5841, 2101.594
309.0663, 2123.912
309.5484, 2141.990
310.0305, 2166.749
310.5126, 2210.199
310.9947, 2258.564
311.4768, 2298.428
311.9590, 2326.446
312.4411, 2359.124
312.9232, 2410.380
313.4053, 2471.956
313.8874, 2530.038
314.3695, 2574.398
314.8516, 2618.734
315.3337, 2672.415
315.8159, 2736.780
316.2980, 2800.228
316.7801, 2854.922
317.2622, 2907.439
317.7443, 2965.917
318.2264, 3033.357
318.7086, 3106.168
319.1907, 3184.116
319.6728, 3267.179
320.1549, 3351.595
320.6370, 3430.934
321.1191, 3513.799
321.6013, 3607.846
322.0834, 3731.521
322.5655, 3847.781
323.0476, 3937.960
323.5297, 4005.793
324.0118, 4094.869
324.4940, 4223.567
324.9761, 4368.361
325.4582, 4514.600
325.9403, 4663.151
326.4224, 4810.393
326.9045, 4950.380
327.3867, 5086.863
327.8688, 5239.809
328.3509, 5407.079
328.8330, 5592.918
329.3151, 5800.952
329.7972, 6040.395
330.2794, 6288.872
330.7615, 6545.860
331.2436, 6814.189
331.7257, 7094.942
332.2078, 7380.719
332.6899, 7690.926
333.1721, 8033.714
333.6542, 8406.819
334.1363, 8811.725
334.6184, 9248.773
335.1005, 9719.600
335.5826, 10236.90
336.0648, 10809.22
336.5469, 11413.00
337.0290, 12043.71
337.5111, 12703.05
337.9932, 13401.35
338.4753, 14142.33
338.9575, 14912.59
339.4396, 15708.48
339.9217, 16538.52
340.4038, 17363.29
340.8859, 18174.23
341.3680, 18968.83
341.8502, 19808.98
342.3323, 20691.63
342.8144, 21576.80
343.2965, 22408.81
343.7786, 23195.13
344.2607, 23956.44
344.7429, 24717.79
345.2250, 25456.14
345.7071, 26122.30
346.1892, 26726.36
346.6713, 27231.20
347.1534, 27642.17
347.6355, 27945.91
348.1176, 28092.85
348.5998, 28073.66
349.0819, 27894.51
349.5640, 27554.58
350.0461, 27052.41
350.5282, 26429.30
351.0103, 25666.71
351.4925, 24806.63
351.9746, 23908.21
352.4567, 22978.20
352.9388, 22032.68
353.4209, 21062.87
353.9030, 20087.92
354.3852, 19159.30
354.8673, 18306.38
355.3494, 17512.76
355.8315, 16758.74
356.3136, 16045.03
356.7957, 15383.93
357.2779, 14804.40
357.7600, 14285.00
358.2421, 13800.92
358.7242, 13322.39
359.2063, 12885.77
359.6884, 12524.71
360.1706, 12237.28
360.6527, 11968.46
361.1348, 11695.70
361.6169, 11426.71
362.0990, 11171.78
362.5811, 10951.94
363.0633, 10724.59
363.5454, 10472.76
364.0275, 10200.48
364.5096, 9928.276
364.9917, 9646.592
365.4738, 9376.667
365.9560, 9129.654
366.4381, 8916.646
366.9202, 8716.518
367.4023, 8522.871
367.8844, 8339.632
368.3665, 8176.402
368.8487, 8032.963
369.3308, 7910.191
369.8129, 7810.918
370.2950, 7740.572
370.7771, 7678.677
371.2592, 7620.967
371.7414, 7574.083
372.2235, 7546.263
372.7056, 7538.875
373.1877, 7548.199
373.6698, 7574.877
374.1519, 7618.786
374.6341, 7672.720
375.1162, 7742.074
375.5983, 7811.391
376.0804, 7866.415
376.5625, 7905.415
377.0446, 7935.586
377.5267, 7958.003
378.0089, 7972.476
378.4910, 7983.353
378.9731, 7995.259
379.4552, 7979.966
379.9373, 7918.817
380.4194, 7812.018
380.9016, 7667.665
381.3837, 7482.235
381.8658, 7265.504
382.3479, 7027.490
382.8300, 6770.436
383.3121, 6504.430
383.7943, 6230.060
384.2764, 5954.264
384.7585, 5688.123
385.2406, 5434.139
385.7227, 5190.257
386.2048, 4959.604
386.6870, 4742.677
387.1691, 4539.460
387.6512, 4350.403
388.1333, 4177.633
388.6154, 4021.110
389.0975, 3881.578
389.5797, 3758.395
390.0618, 3660.883
390.5439, 3576.856
391.0260, 3494.424
391.5081, 3408.662
391.9902, 3326.023
392.4724, 3248.550
392.9545, 3176.649
393.4366, 3110.219
393.9187, 3047.455
394.4008, 2991.864
394.8829, 2946.143
395.3651, 2917.076
395.8472, 2883.694
396.3293, 2833.370
396.8114, 2776.708
397.2935, 2730.850
397.7756, 2705.568
398.2578, 2684.815
398.7399, 2664.095
399.2220, 2642.984
399.7041, 2623.151
400.1862, 2606.520
400.6683, 2589.911
401.1505, 2570.203
401.6326, 2543.637
402.1147, 2520.047
402.5968, 2500.716
403.0789, 2485.422
403.5610, 2472.999
404.0432, 2465.181
404.5253, 2457.197
405.0074, 2444.896
405.4895, 2426.135
405.9716, 2413.696
406.4537, 2409.753
406.9359, 2410.753
407.4180, 2409.985
407.9001, 2407.287
408.3822, 2404.108
408.8643, 2400.272
409.3464, 2396.132
409.8285, 2394.396
410.3106, 2395.117
410.7928, 2398.088
411.2749, 2402.043
411.7570, 2407.777
412.2391, 2419.060
412.7212, 2441.516
413.2033, 2466.858
413.6855, 2478.950
414.1676, 2479.294
414.6497, 2481.145
415.1318, 2490.537
415.6139, 2508.350
416.0960, 2537.914
416.5782, 2585.780
417.0603, 2632.242
417.5424, 2657.728
418.0245, 2669.904
418.5066, 2686.036
418.9887, 2713.505
419.4709, 2747.702
419.9530, 2787.169
420.4351, 2831.861
420.9172, 2878.554
421.3993, 2932.712
421.8814, 2985.359
422.3636, 3027.151
422.8457, 3041.834
423.3278, 3060.821
423.8099, 3092.292
424.2920, 3135.793
424.7741, 3178.979
425.2563, 3218.981
425.7384, 3260.728
426.2205, 3306.494
426.7026, 3362.707
427.1847, 3411.289
427.6668, 3447.913
428.1490, 3478.247
428.6311, 3514.921
429.1132, 3562.147
429.5953, 3606.473
430.0774, 3639.470
430.5595, 3660.646
431.0417, 3697.122
431.5238, 3751.922
432.0059, 3813.753
432.4880, 3870.604
432.9701, 3922.530
433.4522, 3975.704
433.9344, 4034.561
434.4165, 4093.766
434.8986, 4141.695
435.3807, 4178.706
435.8628, 4211.870
436.3449, 4237.748
436.8271, 4264.394
437.3092, 4312.406
437.7913, 4387.479
438.2734, 4469.928
438.7555, 4546.889
439.2376, 4616.243
439.7197, 4673.308
440.2018, 4709.561
440.6840, 4736.992
441.1661, 4763.725
441.6482, 4789.807
442.1303, 4815.380
442.6124, 4842.882
443.0945, 4868.713
443.5767, 4889.368
444.0588, 4904.185
444.5409, 4913.805
445.0230, 4914.996
445.5051, 4910.596
445.9872, 4909.531
446.4694, 4921.870
446.9515, 4930.367
447.4336, 4928.380
447.9157, 4914.089
448.3978, 4894.555
448.8799, 4862.233
449.3621, 4829.837
449.8442, 4814.940
450.3263, 4828.727
450.8084, 4834.283
451.2905, 4821.691
451.7726, 4794.127
452.2548, 4773.067
452.7369, 4760.733
453.2190, 4747.559
453.7011, 4725.895
454.1832, 4695.863
454.6653, 4666.365
455.1475, 4639.224
455.6296, 4609.887
456.1117, 4563.741
456.5938, 4504.675
457.0759, 4457.425
457.5580, 4447.202
458.0402, 4453.052
458.5223, 4434.795
459.0044, 4392.338
459.4865, 4343.972
459.9686, 4298.543
460.4507, 4257.727
460.9329, 4223.481
461.4150, 4200.629
461.8971, 4179.339
462.3792, 4155.077
462.8613, 4127.633
463.3434, 4095.697
463.8256, 4049.506
464.3077, 4006.329
464.7898, 3976.395
465.2719, 3963.757
465.7540, 3951.423
466.2361, 3934.643
466.7183, 3916.899
467.2004, 3902.010
467.6825, 3896.366
468.1646, 3885.976
468.6467, 3866.201
469.1288, 3839.083
469.6109, 3818.564
470.0930, 3808.905
470.5752, 3798.623
471.0573, 3780.920
471.5394, 3753.749
472.0215, 3728.890
472.5036, 3707.507
472.9857, 3686.685
473.4679, 3662.470
473.9500, 3635.082
474.4321, 3604.163
474.9142, 3567.971
475.3963, 3528.972
475.8784, 3496.651
476.3606, 3470.888
476.8427, 3440.166
477.3248, 3394.868
477.8069, 3338.747
478.2890, 3276.829
478.7711, 3206.944
479.2533, 3141.016
479.7354, 3095.273
480.2175, 3061.405
480.6996, 3021.825
481.1817, 2963.609
481.6638, 2901.467
482.1460, 2842.222
482.6281, 2786.728
483.1102, 2736.633
483.5923, 2698.005
484.0744, 2661.631
484.5565, 2620.645
485.0387, 2574.440
485.5208, 2523.292
486.0029, 2460.073
486.4850, 2392.175
486.9671, 2336.182
487.4492, 2299.460
487.9314, 2265.129
488.4135, 2228.455
488.8956, 2189.533
489.3777, 2150.045
489.8598, 2108.979
490.3419, 2068.970
490.8241, 2031.651
491.3062, 1996.893
491.7883, 1965.903
492.2704, 1939.440
492.7525, 1915.652
493.2346, 1890.278
493.7168, 1863.783
494.1989, 1836.608
494.6810, 1806.852
495.1631, 1777.267
495.6452, 1751.879
496.1273, 1731.023
496.6095, 1715.068
497.0916, 1709.568
497.5737, 1708.036
498.0558, 1701.421
498.5379, 1683.664
499.0201, 1664.441
499.5022, 1649.911
499.9843, 1638.313
500.4664, 1624.974
500.9485, 1604.344
501.4306, 1585.109
501.9127, 1573.134
502.3948, 1572.126
502.8770, 1564.522
503.3591, 1540.326
503.8412, 1514.213
504.3233, 1499.150
504.8054, 1503.145
505.2875, 1503.527
505.7697, 1496.546
506.2518, 1484.387
506.7339, 1475.217
507.2160, 1469.932
507.6981, 1464.370
508.1802, 1455.895
508.6624, 1444.749
509.1445, 1435.183
509.6266, 1427.144
510.1087, 1421.105
510.5908, 1419.981
511.0729, 1421.767
511.5551, 1418.623
512.0372, 1405.288
512.5193, 1390.683
513.0014, 1388.903
513.4835, 1395.996
513.9656, 1398.736
514.4478, 1385.249
514.9299, 1367.548
515.4120, 1355.126
515.8941, 1349.330
516.3762, 1344.047
516.8583, 1335.881
517.3405, 1327.522
517.8226, 1321.455
518.3047, 1317.038
518.7868, 1316.198
519.2689, 1323.551
519.7510, 1335.060
520.2332, 1337.999
520.7153, 1326.178
521.1974, 1314.963
521.6795, 1310.265
522.1616, 1312.822
522.6437, 1314.034
523.1259, 1314.188
523.6080, 1312.369
524.0901, 1306.243
524.5722, 1295.805
525.0543, 1288.964
525.5364, 1288.068
526.0186, 1289.358
526.5007, 1285.847
526.9828, 1278.325
527.4649, 1270.948
527.9470, 1266.636
528.4291, 1263.430
528.9113, 1257.363
529.3934, 1248.488
529.8755, 1242.695
530.3576, 1247.899
530.8397, 1256.120
531.3218, 1259.220
531.8040, 1251.170
532.2861, 1244.393
532.7682, 1247.090
533.2503, 1253.467
533.7324, 1252.293
534.2145, 1228.659
534.6967, 1211.442
535.1788, 1210.693
535.6609, 1226.790
536.1430, 1234.602
536.6251, 1230.678
537.1072, 1223.586
537.5894, 1218.390
538.0715, 1214.913
538.5536, 1215.423
539.0357, 1221.667
539.5178, 1228.827
539.9999, 1228.205
540.4821, 1220.461
540.9642, 1213.332
541.4463, 1209.253
541.9284, 1207.714
542.4105, 1209.267
542.8926, 1213.298
543.3748, 1215.526
543.8569, 1210.294
544.3390, 1203.091
544.8211, 1199.925
545.3032, 1202.299
545.7853, 1205.550
546.2675, 1208.733
546.7495, 1210.988
547.2316, 1211.298
547.7137, 1208.660
548.1959, 1204.937
548.6780, 1198.342
549.1601, 1190.348
549.6422, 1187.869
550.1243, 1194.397
550.6064, 1201.790
551.0886, 1207.764
551.5707, 1212.811
552.0528, 1211.326
552.5349, 1201.036
553.0170, 1189.688
553.4991, 1185.758
553.9813, 1188.920
554.4634, 1192.930
554.9455, 1197.428
555.4276, 1200.795
555.9097, 1199.846
556.3918, 1195.283
556.8740, 1189.786
557.3561, 1181.719
557.8382, 1175.279
558.3203, 1175.777
558.8024, 1183.053
559.2845, 1191.435
559.7667, 1201.528
560.2488, 1209.308
560.7309, 1211.125
561.2130, 1202.244
561.6951, 1195.416
562.1772, 1194.822
562.6594, 1197.097
563.1415, 1196.992
563.6236, 1191.021
564.1057, 1188.007
564.5878, 1190.754
565.0699, 1197.925
565.5521, 1201.578
566.0342, 1200.509
566.5163, 1199.881
566.9984, 1203.895
567.4805, 1211.880
567.9626, 1214.890
568.4448, 1211.969
568.9269, 1209.150
569.4090, 1215.498
569.8911, 1226.881
570.3732, 1232.534
570.8553, 1226.197
571.3375, 1218.809
571.8196, 1221.740
572.3017, 1231.473
572.7838, 1239.699
573.2659, 1241.001
573.7480, 1241.596
574.2302, 1245.244
574.7123, 1252.212
575.1944, 1257.097
575.6765, 1256.553
576.1586, 1255.551
576.6407, 1256.786
577.1229, 1260.838
577.6050, 1265.889
578.0871, 1271.486
578.5692, 1278.600
579.0513, 1290.740
579.5334, 1309.498
580.0156, 1319.979
580.4977, 1315.166
580.9798, 1302.566
581.4619, 1301.393
581.9440, 1310.646
582.4261, 1320.590
582.9083, 1323.580
583.3904, 1324.165
583.8725, 1329.292
584.3546, 1339.388
584.8367, 1350.439
585.3188, 1360.894
585.8010, 1370.583
586.2831, 1379.307
586.7652, 1386.308
587.2473, 1393.490
587.7294, 1400.751
588.2115, 1408.644
588.6937, 1418.196
589.1758, 1428.790
589.6579, 1442.175
590.1400, 1461.576
590.6221, 1485.077
591.1042, 1495.686
591.5864, 1488.572
592.0685, 1483.692
592.5506, 1496.328
593.0327, 1524.368
593.5148, 1543.117
593.9969, 1551.428
594.4791, 1554.245
594.9612, 1550.590
595.4433, 1545.878
595.9254, 1553.435
596.4075, 1582.346
596.8896, 1613.515
597.3718, 1631.157
597.8539, 1639.312
598.3360, 1645.951
598.8181, 1650.317
599.3002, 1657.463
599.7823, 1671.695
600.2645, 1692.643
600.7466, 1708.802
601.2287, 1714.042
601.7108, 1719.584
602.1929, 1731.666
602.6750, 1753.455
603.1572, 1766.788
603.6393, 1767.481
604.1214, 1767.964
604.6035, 1785.067
605.0856, 1818.324
605.5677, 1846.055
606.0499, 1863.235
606.5320, 1875.201
607.0141, 1891.030
607.4962, 1909.036
607.9783, 1923.863
608.4604, 1929.581
608.9425, 1933.135
609.4246, 1940.487
609.9067, 1951.353
610.3889, 1962.313
610.8710, 1971.626
611.3531, 1980.773
611.8352, 1990.687
612.3173, 2001.999
612.7994, 2012.709
613.2816, 2021.809
613.7637, 2031.164
614.2458, 2042.756
614.7279, 2057.522
615.2100, 2071.175
615.6921, 2081.841
616.1743, 2092.898
616.6564, 2112.747
617.1385, 2141.074
617.6206, 2167.927
618.1027, 2190.283
618.5848, 2208.247
619.0670, 2221.050
619.5491, 2229.391
620.0312, 2237.827
620.5133, 2247.049
620.9954, 2259.093
621.4775, 2275.960
621.9597, 2298.179
622.4418, 2323.305
622.9239, 2352.580
623.4060, 2383.218
623.8881, 2413.282
624.3702, 2444.842
624.8524, 2471.786
625.3345, 2490.158
625.8166, 2506.276
626.2987, 2531.745
626.7808, 2568.950
627.2629, 2604.979
627.7451, 2635.471
628.2272, 2662.914
628.7093, 2695.319
629.1914, 2732.381
629.6735, 2769.322
630.1556, 2799.006
