##NAMES=Denningite
##RRUFFID=R061023
##IDEAL CHEMISTRY=CaMn^2+^Te^4+^_4_O_10_
##LOCALITY=Bambolla mine, Moctezuma, Sonora, Mexico
##OWNER=RRUFF
##SOURCE=Michael Scott
##DESCRIPTION=Pale green thin platy crystals associated with quartz, tellurium, tellurite, and zemannite
##STATUS=The identification of this mineral has been confirmed by single-crystal X-ray diffraction.
##URL=rruff.info/R061023
124.9026, 501.8997
125.3847, 550.9313
125.8668, 613.8895
126.3489, 684.5188
126.8311, 764.0903
127.3132, 848.3984
127.7953, 929.8746
128.2774, 1002.366
128.7595, 1070.691
129.2416, 1146.445
129.7238, 1234.375
130.2059, 1320.560
130.6880, 1401.394
131.1701, 1474.841
131.6522, 1532.557
132.1343, 1568.724
132.6165, 1585.142
133.0986, 1590.122
133.5807, 1587.240
134.0628, 1565.756
134.5449, 1513.668
135.0270, 1438.328
135.5092, 1363.830
135.9913, 1302.108
136.4734, 1253.465
136.9555, 1226.813
137.4376, 1227.933
137.9197, 1249.723
138.4019, 1288.387
138.8840, 1343.559
139.3661, 1416.329
139.8482, 1505.009
140.3303, 1608.707
140.8124, 1737.970
141.2946, 1900.208
141.7767, 2085.710
142.2588, 2294.122
142.7409, 2523.915
143.2230, 2774.476
143.7051, 3047.954
144.1873, 3351.646
144.6694, 3650.920
145.1515, 3957.067
145.6336, 4251.483
146.1157, 4530.958
146.5978, 4791.873
147.0800, 5024.144
147.5621, 5210.725
148.0442, 5336.540
148.5263, 5452.230
149.0084, 5561.324
149.4906, 5661.213
149.9727, 5746.972
150.4548, 5818.756
150.9369, 5884.170
151.4190, 5956.359
151.9011, 6045.750
152.3833, 6121.452
152.8654, 6206.265
153.3475, 6266.447
153.8296, 6286.999
154.3117, 6260.319
154.7938, 6170.905
155.2760, 5987.782
155.7581, 5656.311
156.2402, 5300.825
156.7223, 4896.140
157.2044, 4485.328
157.6865, 4094.872
158.1687, 3737.484
158.6508, 3418.449
159.1329, 3154.904
159.6150, 2970.422
160.0971, 2819.815
160.5792, 2709.642
161.0614, 2629.071
161.5435, 2570.375
162.0256, 2530.658
162.5077, 2507.108
162.9898, 2493.749
163.4719, 2492.756
163.9541, 2500.766
164.4362, 2513.142
164.9183, 2536.050
165.4004, 2578.701
165.8825, 2645.360
166.3646, 2728.735
166.8468, 2811.677
167.3289, 2885.781
167.8110, 2969.701
168.2931, 3069.181
168.7752, 3178.225
169.2573, 3289.104
169.7395, 3399.192
170.2216, 3509.393
170.7037, 3623.068
171.1858, 3755.110
171.6679, 3871.221
172.1500, 3972.268
172.6322, 4053.675
173.1143, 4112.970
173.5964, 4151.198
174.0785, 4159.519
174.5606, 4107.608
175.0427, 3978.672
175.5249, 3823.428
176.0070, 3634.094
176.4891, 3427.071
176.9712, 3225.213
177.4533, 3038.338
177.9354, 2865.586
178.4176, 2711.464
178.8997, 2570.293
179.3818, 2450.261
179.8639, 2365.494
180.3460, 2302.472
180.8281, 2236.426
181.3103, 2155.546
181.7924, 2068.403
182.2745, 1998.870
182.7566, 1947.130
183.2387, 1906.908
183.7208, 1883.797
184.2030, 1870.846
184.6851, 1854.013
185.1672, 1826.464
185.6493, 1794.075
186.1314, 1772.672
186.6135, 1767.845
187.0957, 1761.313
187.5778, 1745.125
188.0599, 1723.565
188.5420, 1705.094
189.0241, 1693.276
189.5062, 1685.921
189.9884, 1678.277
190.4705, 1670.892
190.9526, 1662.418
191.4347, 1648.432
191.9168, 1633.309
192.3989, 1626.230
192.8811, 1631.437
193.3632, 1644.902
193.8453, 1658.562
194.3274, 1671.993
194.8095, 1686.573
195.2916, 1705.477
195.7738, 1725.646
196.2559, 1739.471
196.7380, 1742.464
197.2201, 1742.145
197.7022, 1754.914
198.1843, 1783.683
198.6665, 1812.366
199.1486, 1836.663
199.6307, 1857.485
200.1128, 1875.889
200.5949, 1891.075
201.0770, 1906.404
201.5592, 1928.545
202.0413, 1957.956
202.5234, 1989.271
203.0055, 2024.375
203.4876, 2059.831
203.9697, 2088.423
204.4519, 2106.879
204.9340, 2122.071
205.4161, 2147.067
205.8982, 2184.761
206.3803, 2216.513
206.8624, 2235.687
207.3446, 2246.622
207.8267, 2255.509
208.3088, 2263.884
208.7909, 2270.660
209.2730, 2272.697
209.7551, 2268.534
210.2373, 2268.783
210.7194, 2279.687
211.2015, 2294.885
211.6836, 2304.914
212.1657, 2307.286
212.6478, 2307.814
213.1300, 2313.112
213.6121, 2322.859
214.0942, 2338.499
214.5763, 2360.972
215.0584, 2389.217
215.5405, 2422.395
216.0227, 2460.510
216.5048, 2502.153
216.9869, 2544.808
217.4690, 2587.960
217.9511, 2639.410
218.4332, 2703.668
218.9154, 2774.781
219.3975, 2848.012
219.8796, 2922.657
220.3617, 2997.582
220.8438, 3068.354
221.3259, 3134.338
221.8081, 3220.265
222.2902, 3343.656
222.7723, 3476.234
223.2544, 3595.036
223.7365, 3698.665
224.2186, 3799.381
224.7008, 3904.849
225.1829, 4015.650
225.6650, 4143.536
226.1471, 4307.125
226.6292, 4472.192
227.1113, 4609.502
227.5935, 4721.789
228.0756, 4837.534
228.5577, 4980.393
229.0398, 5148.037
229.5219, 5293.680
230.0040, 5411.256
230.4862, 5515.182
230.9683, 5615.145
231.4504, 5708.658
231.9325, 5786.714
232.4146, 5845.001
232.8967, 5882.342
233.3789, 5893.996
233.8610, 5872.767
234.3431, 5839.347
234.8252, 5807.129
235.3073, 5768.627
235.7894, 5703.196
236.2716, 5596.536
236.7537, 5458.984
237.2358, 5333.867
237.7179, 5236.461
238.2000, 5131.438
238.6821, 5006.985
239.1643, 4870.824
239.6464, 4736.850
240.1285, 4611.693
240.6106, 4490.621
241.0927, 4360.988
241.5748, 4218.005
242.0570, 4072.808
242.5391, 3921.334
243.0212, 3769.760
243.5033, 3625.353
243.9854, 3490.590
244.4675, 3365.011
244.9497, 3248.337
245.4318, 3153.150
245.9139, 3047.332
246.3960, 2918.060
246.8781, 2786.488
247.3602, 2671.689
247.8424, 2578.139
248.3245, 2495.440
248.8066, 2408.096
249.2887, 2309.017
249.7708, 2225.266
250.2529, 2163.891
250.7351, 2110.386
251.2172, 2055.226
251.6993, 1998.182
252.1814, 1946.078
252.6635, 1907.736
253.1456, 1887.064
253.6278, 1861.398
254.1099, 1824.812
254.5920, 1789.386
255.0741, 1759.721
255.5562, 1735.899
256.0384, 1715.807
256.5205, 1697.597
257.0026, 1681.237
257.4847, 1669.458
257.9668, 1673.296
258.4489, 1670.736
258.9311, 1650.259
259.4132, 1619.628
259.8953, 1593.635
260.3774, 1582.511
260.8595, 1582.990
261.3416, 1576.695
261.8238, 1557.164
262.3059, 1539.156
262.7880, 1527.102
263.2701, 1517.930
263.7522, 1508.832
264.2343, 1499.098
264.7165, 1486.273
265.1986, 1462.401
265.6807, 1417.249
266.1628, 1382.756
266.6449, 1371.253
267.1270, 1368.501
267.6092, 1363.290
268.0913, 1352.218
268.5734, 1337.986
269.0555, 1324.478
269.5376, 1312.272
270.0197, 1298.152
270.5019, 1276.111
270.9840, 1255.589
271.4661, 1243.480
271.9482, 1240.376
272.4303, 1239.559
272.9124, 1234.038
273.3946, 1223.966
273.8767, 1218.381
274.3588, 1223.732
274.8409, 1227.677
275.3230, 1220.196
275.8051, 1203.117
276.2873, 1187.186
276.7694, 1180.235
277.2515, 1179.670
277.7336, 1176.321
278.2157, 1168.493
278.6978, 1160.334
279.1800, 1154.084
279.6621, 1149.605
280.1442, 1146.959
280.6263, 1148.170
281.1084, 1150.370
281.5905, 1148.483
282.0727, 1141.820
282.5548, 1136.327
283.0369, 1138.401
283.5190, 1143.532
284.0011, 1141.521
284.4832, 1126.904
284.9654, 1109.517
285.4475, 1096.427
285.9296, 1087.262
286.4117, 1079.512
286.8938, 1071.263
287.3759, 1064.683
287.8581, 1064.813
288.3402, 1074.846
288.8223, 1084.272
289.3044, 1088.944
289.7865, 1089.961
290.2686, 1088.991
290.7508, 1086.216
291.2329, 1083.007
291.7150, 1081.656
292.1971, 1082.605
292.6792, 1083.801
293.1613, 1088.138
293.6435, 1090.942
294.1256, 1083.426
294.6077, 1065.121
295.0898, 1050.180
295.5719, 1055.422
296.0540, 1086.660
296.5362, 1107.552
297.0183, 1112.291
297.5004, 1112.573
297.9825, 1113.734
298.4646, 1116.250
298.9467, 1118.659
299.4289, 1119.358
299.9110, 1118.731
300.3931, 1124.935
300.8752, 1146.052
301.3573, 1164.770
301.8394, 1176.005
302.3216, 1182.584
302.8037, 1188.852
303.2858, 1196.924
303.7679, 1206.460
304.2500, 1216.308
304.7321, 1224.681
305.2143, 1236.644
305.6964, 1255.842
306.1785, 1276.526
306.6606, 1293.482
307.1427, 1305.580
307.6248, 1316.049
308.1070, 1329.135
308.5891, 1345.293
309.0712, 1362.465
309.5533, 1380.484
310.0354, 1399.686
310.5175, 1421.003
310.9997, 1443.978
311.4818, 1466.799
311.9639, 1486.890
312.4460, 1504.863
312.9281, 1527.483
313.4102, 1556.167
313.8924, 1587.519
314.3745, 1619.622
314.8566, 1652.867
315.3387, 1688.585
315.8208, 1728.413
316.3029, 1770.006
316.7851, 1809.333
317.2672, 1845.861
317.7493, 1883.432
318.2314, 1923.969
318.7135, 1966.930
319.1956, 2011.131
319.6778, 2056.242
320.1599, 2103.355
320.6420, 2153.172
321.1241, 2205.922
321.6062, 2262.522
322.0883, 2323.193
322.5705, 2387.903
323.0526, 2456.503
323.5347, 2529.394
324.0168, 2604.156
324.4989, 2679.021
324.9810, 2755.836
325.4632, 2835.559
325.9453, 2918.529
326.4274, 3008.576
326.9095, 3110.672
327.3916, 3226.616
327.8737, 3338.635
328.3559, 3439.266
328.8380, 3542.112
329.3201, 3645.822
329.8022, 3756.520
330.2843, 3892.495
330.7664, 4067.107
331.2486, 4272.691
331.7307, 4467.224
332.2128, 4621.838
332.6949, 4798.790
333.1770, 5008.585
333.6591, 5243.675
334.1413, 5492.092
334.6234, 5750.544
335.1055, 6028.533
335.5876, 6342.856
336.0697, 6699.312
336.5518, 7084.937
337.0340, 7493.041
337.5161, 7933.389
337.9982, 8411.301
338.4803, 8927.926
338.9624, 9483.269
339.4445, 10079.23
339.9267, 10717.64
340.4088, 11379.73
340.8909, 12067.14
341.3730, 12779.18
341.8551, 13513.88
342.3372, 14269.44
342.8194, 15048.42
343.3015, 15860.82
343.7836, 16678.77
344.2657, 17459.30
344.7478, 18204.56
345.2299, 18900.18
345.7121, 19552.25
346.1942, 20134.51
346.6763, 20636.24
347.1584, 21069.75
347.6405, 21365.59
348.1227, 21471.14
348.6048, 21402.63
349.0869, 21209.44
349.5690, 20899.26
350.0511, 20476.87
350.5332, 19922.15
351.0154, 19240.71
351.4975, 18519.35
351.9796, 17750.30
352.4617, 16962.11
352.9438, 16172.18
353.4259, 15385.01
353.9081, 14624.68
354.3902, 13900.64
354.8723, 13214.90
355.3544, 12591.92
355.8365, 12040.53
356.3186, 11527.48
356.8008, 11037.50
357.2829, 10580.28
357.7650, 10166.99
358.2471, 9801.896
358.7292, 9482.405
359.2113, 9202.622
359.6935, 8987.667
360.1756, 8770.878
360.6577, 8548.699
361.1398, 8326.486
361.6219, 8106.395
362.1040, 7889.782
362.5862, 7679.457
363.0683, 7479.471
363.5504, 7288.461
364.0325, 7097.207
364.5146, 6902.132
364.9967, 6710.994
365.4789, 6520.690
365.9610, 6336.361
366.4431, 6168.823
366.9252, 6022.535
367.4073, 5892.483
367.8894, 5766.110
368.3716, 5641.991
368.8537, 5542.853
369.3358, 5483.802
369.8179, 5450.123
370.3000, 5421.482
370.7821, 5395.729
371.2643, 5389.684
371.7464, 5414.669
372.2285, 5465.564
372.7106, 5536.583
373.1927, 5629.319
373.6748, 5725.430
374.1570, 5804.172
374.6391, 5866.813
375.1212, 5953.153
375.6033, 6090.833
376.0854, 6228.844
376.5675, 6337.798
377.0497, 6421.807
377.5318, 6500.649
378.0139, 6587.595
378.4960, 6669.143
378.9781, 6703.987
379.4602, 6673.538
379.9424, 6615.449
380.4245, 6541.618
380.9066, 6433.917
381.3887, 6268.870
381.8708, 6045.811
382.3529, 5791.669
382.8351, 5531.240
383.3172, 5263.957
383.7993, 4999.760
384.2814, 4733.087
384.7635, 4476.096
385.2456, 4232.373
385.7278, 4002.195
386.2099, 3785.454
386.6920, 3580.381
387.1741, 3389.409
387.6562, 3216.407
388.1383, 3061.527
388.6205, 2923.776
389.1026, 2809.975
389.5847, 2710.181
390.0668, 2615.715
390.5489, 2526.126
391.0310, 2443.637
391.5132, 2368.445
391.9953, 2301.793
392.4774, 2249.206
392.9595, 2213.132
393.4416, 2182.081
393.9237, 2147.133
394.4059, 2108.204
394.8880, 2068.203
395.3701, 2022.623
395.8522, 1980.441
396.3343, 1947.480
396.8164, 1922.080
397.2986, 1900.573
397.7807, 1881.542
398.2628, 1863.439
398.7449, 1842.380
399.2270, 1814.348
399.7091, 1789.233
400.1913, 1767.692
400.6734, 1748.390
401.1555, 1731.110
401.6376, 1715.212
402.1197, 1698.884
402.6018, 1679.758
403.0840, 1657.896
403.5661, 1640.515
404.0482, 1631.205
404.5303, 1621.590
405.0124, 1608.433
405.4945, 1593.614
405.9767, 1579.738
406.4588, 1567.688
406.9409, 1557.029
407.4230, 1546.854
407.9051, 1537.166
408.3872, 1529.886
408.8694, 1525.183
409.3515, 1523.629
409.8336, 1527.717
410.3157, 1537.028
410.7978, 1542.120
411.2799, 1534.288
411.7621, 1523.602
412.2442, 1522.398
412.7263, 1530.916
413.2084, 1541.708
413.6905, 1549.743
414.1726, 1556.216
414.6548, 1568.375
415.1369, 1592.046
415.6190, 1612.984
416.1011, 1624.281
416.5832, 1633.111
417.0653, 1649.647
417.5475, 1675.861
418.0296, 1703.066
418.5117, 1718.585
418.9938, 1717.268
419.4759, 1729.885
419.9580, 1773.286
420.4402, 1814.161
420.9223, 1837.967
421.4044, 1851.535
421.8865, 1868.499
422.3686, 1896.059
422.8507, 1930.258
423.3329, 1965.224
423.8150, 2002.161
424.2971, 2032.292
424.7792, 2047.681
425.2613, 2059.228
425.7434, 2077.859
426.2256, 2103.935
426.7077, 2130.015
427.1898, 2156.102
427.6719, 2178.331
428.1540, 2185.010
428.6361, 2174.964
429.1183, 2173.777
429.6004, 2203.264
430.0825, 2257.571
430.5646, 2296.132
431.0467, 2302.448
431.5288, 2314.501
432.0110, 2346.532
432.4931, 2389.437
432.9752, 2432.232
433.4573, 2471.367
433.9394, 2507.330
434.4215, 2540.463
434.9037, 2569.525
435.3858, 2600.891
435.8679, 2639.417
436.3500, 2675.537
436.8321, 2701.148
437.3142, 2722.375
437.7964, 2752.448
438.2785, 2800.910
438.7606, 2855.181
439.2427, 2888.933
439.7248, 2898.213
440.2069, 2915.766
440.6891, 2959.586
441.1712, 3006.890
441.6533, 3033.985
442.1354, 3040.663
442.6175, 3046.300
443.0996, 3063.018
443.5818, 3081.572
444.0639, 3090.017
444.5460, 3087.596
445.0281, 3076.611
445.5102, 3055.468
445.9923, 3027.929
446.4745, 3013.250
446.9566, 3029.065
447.4387, 3033.251
447.9208, 3009.998
448.4029, 2976.018
448.8850, 2947.552
449.3672, 2928.655
449.8493, 2915.649
450.3314, 2905.844
450.8135, 2899.859
451.2956, 2888.369
451.7777, 2869.219
452.2599, 2846.862
452.7420, 2820.923
453.2241, 2793.364
453.7062, 2765.964
454.1883, 2738.698
454.6704, 2714.765
455.1526, 2702.862
455.6347, 2701.272
456.1168, 2685.109
456.5989, 2641.875
457.0811, 2595.299
457.5632, 2572.171
458.0453, 2568.733
458.5274, 2563.632
459.0095, 2555.507
459.4916, 2541.655
459.9738, 2513.587
460.4559, 2477.078
460.9380, 2451.841
461.4201, 2448.369
461.9022, 2456.537
462.3843, 2453.232
462.8665, 2426.840
463.3486, 2409.245
463.8307, 2408.204
464.3128, 2408.964
464.7949, 2400.859
465.2770, 2385.603
465.7592, 2371.924
466.2413, 2366.094
466.7234, 2366.540
467.2055, 2368.158
467.6876, 2371.393
468.1697, 2374.507
468.6519, 2377.296
469.1340, 2379.470
469.6161, 2380.598
470.0982, 2380.590
470.5803, 2380.311
471.0624, 2381.339
471.5446, 2382.020
472.0267, 2378.767
472.5088, 2371.226
472.9909, 2363.749
473.4730, 2360.384
473.9551, 2359.552
474.4373, 2350.971
474.9194, 2333.829
475.4015, 2311.532
475.8836, 2278.400
476.3657, 2243.712
476.8478, 2219.488
477.3300, 2206.833
477.8121, 2195.635
478.2942, 2175.958
478.7763, 2147.642
479.2584, 2112.214
479.7405, 2064.592
480.2227, 2016.791
480.7048, 1973.943
481.1869, 1932.672
481.6690, 1888.141
482.1511, 1837.932
482.6332, 1789.687
483.1154, 1752.480
483.5975, 1723.617
484.0796, 1693.276
484.5617, 1659.946
485.0438, 1624.167
485.5259, 1584.990
486.0081, 1542.812
486.4902, 1504.985
486.9723, 1473.145
487.4544, 1444.149
487.9365, 1418.594
488.4186, 1394.439
488.9008, 1367.808
489.3829, 1337.646
489.8650, 1307.514
490.3471, 1282.443
490.8292, 1263.285
491.3113, 1245.528
491.7935, 1232.474
492.2756, 1217.261
492.7577, 1194.471
493.2398, 1168.740
493.7219, 1148.493
494.2040, 1138.339
494.6862, 1130.073
495.1683, 1112.229
495.6504, 1086.148
496.1325, 1063.497
496.6146, 1046.547
497.0967, 1033.642
497.5789, 1024.365
498.0610, 1018.407
498.5431, 1012.114
499.0252, 1008.393
499.5073, 1001.054
499.9894, 983.9827
500.4716, 961.1412
500.9537, 939.0427
501.4358, 920.2183
501.9179, 906.6446
502.4000, 902.7888
502.8821, 913.3600
503.3643, 917.4614
503.8464, 910.7852
504.3285, 901.7038
504.8106, 892.1306
505.2927, 882.4533
505.7748, 872.8166
506.2570, 863.3451
506.7391, 853.9108
507.2212, 843.0154
507.7033, 831.1335
508.1854, 825.0248
508.6675, 828.0602
509.1497, 833.1138
509.6318, 833.4692
510.1139, 829.2158
510.5960, 821.8538
511.0781, 807.2344
511.5602, 793.7718
512.0424, 785.9230
512.5245, 782.5618
513.0066, 782.2290
513.4887, 784.2791
513.9708, 786.4696
514.4529, 784.9557
514.9351, 778.3408
515.4172, 773.8010
515.8993, 773.8748
516.3814, 773.4355
516.8635, 770.8816
517.3456, 766.4941
517.8278, 760.4497
518.3099, 752.0826
518.7920, 744.3231
519.2741, 740.6190
519.7562, 740.4084
520.2383, 741.6989
520.7205, 745.1672
521.2026, 745.9937
521.6847, 737.7019
522.1668, 720.2824
522.6489, 709.8000
523.1310, 711.8038
523.6132, 714.6500
524.0953, 713.2817
524.5774, 710.0181
525.0595, 709.0840
525.5416, 711.5304
526.0237, 713.7524
526.5059, 710.2565
526.9880, 700.2397
527.4701, 695.5745
527.9522, 701.3707
528.4343, 705.0835
528.9164, 701.7731
529.3986, 693.6439
529.8807, 682.4872
530.3628, 667.3036
530.8449, 654.9772
531.3270, 652.4099
531.8091, 656.2205
532.2913, 658.7291
532.7734, 658.7083
533.2555, 659.7323
533.7376, 665.6901
534.2197, 675.5264
534.7018, 678.4721
535.1840, 664.0747
535.6661, 656.7643
536.1482, 667.5778
536.6303, 682.8807
537.1124, 689.6888
537.5945, 686.2168
538.0767, 678.3386
538.5588, 669.6424
539.0409, 661.0069
539.5230, 656.6915
540.0051, 657.0953
540.4872, 660.8768
540.9694, 672.9492
541.4515, 684.6459
541.9336, 682.7930
542.4157, 664.4416
542.8978, 650.6269
543.3799, 654.2948
543.8621, 662.9024
544.3442, 661.8459
544.8263, 652.2842
545.3084, 644.8798
545.7905, 645.9266
546.2726, 652.4178
546.7548, 656.3587
547.2369, 658.3101
547.7190, 656.4037
548.2011, 645.1333
548.6832, 635.2247
549.1653, 633.6810
549.6475, 638.6656
550.1296, 644.3730
550.6117, 649.1938
551.0938, 651.2087
551.5759, 644.3492
552.0580, 630.1299
552.5402, 624.1819
553.0223, 632.7028
553.5044, 645.0219
553.9865, 649.5051
554.4686, 645.1656
554.9507, 640.4191
555.4329, 631.5764
555.9150, 626.3530
556.3971, 631.4772
556.8792, 641.0561
557.3613, 646.5786
557.8434, 645.3586
558.3256, 640.2156
558.8077, 632.8639
559.2898, 623.1918
559.7719, 620.3822
560.2540, 628.8229
560.7361, 635.8028
561.2183, 632.6901
561.7004, 625.3193
562.1825, 621.2203
562.6646, 621.9574
563.1467, 623.5869
563.6288, 625.5322
564.1110, 626.5580
564.5931, 623.6921
565.0752, 617.4307
565.5573, 613.0015
566.0394, 614.2119
566.5215, 619.3908
567.0037, 622.1082
567.4858, 620.5940
567.9679, 619.7059
568.4500, 618.5728
568.9321, 619.1147
569.4142, 622.9870
569.8964, 629.7175
570.3785, 637.6849
570.8606, 647.6949
571.3427, 656.5652
571.8248, 658.6382
572.3069, 654.7983
572.7891, 650.7853
573.2712, 647.6841
573.7533, 646.8600
574.2354, 650.7122
574.7175, 660.1514
575.1996, 666.2610
575.6818, 667.0682
576.1639, 667.0040
576.6460, 669.1993
577.1281, 670.7545
577.6102, 665.8393
578.0923, 653.6845
578.5745, 642.5602
579.0566, 642.6619
579.5387, 652.5941
580.0208, 660.8260
580.5029, 667.7492
580.9850, 671.2963
581.4672, 667.2931
581.9493, 660.9982
582.4314, 662.3956
582.9135, 673.8969
583.3956, 684.2656
583.8777, 689.2166
584.3599, 692.5109
584.8420, 698.0082
585.3241, 704.9484
585.8062, 709.3423
586.2883, 708.7706
586.7704, 706.5286
587.2526, 710.9202
587.7347, 725.1025
588.2168, 733.2914
588.6989, 729.7631
589.1810, 725.1968
589.6631, 726.2231
590.1453, 730.6192
590.6274, 732.8364
591.1095, 729.4625
591.5916, 727.1270
592.0737, 730.6896
592.5558, 738.3860
593.0380, 748.1282
593.5201, 759.1628
594.0022, 768.1924
594.4843, 771.7532
594.9664, 770.9719
595.4485, 775.3528
595.9307, 791.3129
596.4128, 802.0439
596.8949, 797.6590
597.3770, 793.7901
597.8591, 805.6406
598.3412, 830.7170
598.8234, 851.0563
599.3055, 854.5688
599.7876, 849.6636
600.2697, 844.0791
600.7518, 839.0652
601.2339, 843.1634
601.7161, 860.4904
602.1982, 879.7862
602.6803, 886.2676
603.1624, 877.2247
603.6445, 877.6376
604.1266, 899.9314
604.6088, 915.9501
605.0909, 912.7199
605.5730, 902.2697
606.0551, 899.0527
606.5372, 905.8328
607.0193, 914.1187
607.5015, 915.5806
607.9836, 913.1048
608.4657, 914.1550
608.9478, 918.8439
609.4299, 927.8221
609.9120, 943.0994
610.3942, 960.4329
610.8763, 972.1047
611.3584, 976.3646
611.8405, 980.2401
612.3226, 983.9758
612.8047, 987.2888
613.2869, 988.1799
613.7690, 989.0817
614.2511, 994.7422
614.7332, 1006.930
615.2153, 1020.613
615.6974, 1030.351
616.1796, 1036.373
616.6617, 1039.507
617.1438, 1038.979
617.6259, 1038.993
618.1080, 1040.617
618.5901, 1045.029
619.0723, 1056.134
619.5544, 1078.640
620.0365, 1095.274
620.5186, 1099.773
621.0007, 1100.239
621.4828, 1099.512
