##NAMES=Derbylite
##RRUFFID=R070382
##IDEAL CHEMISTRY=Fe^3+^_4_Ti^4+^_3_Sb^3+^O_13_(OH)
##LOCALITY=Buca della Vena Mine,  Stazzema,  Apuan Alps,  Lucca Province,  Tuscany,  Italy
##OWNER=RRUFF
##SOURCE=Michael Scott
##DESCRIPTION=Black prismatic crystal in barite vug
##STATUS=The identification of this mineral has been confirmed only by single crystal X-ray diffraction.
##URL=rruff.info/R070382
146.2870, 142.4498
146.7691, 151.2487
147.2512, 158.4262
147.7334, 162.3921
148.2155, 162.6609
148.6976, 162.0115
149.1797, 159.0215
149.6618, 155.5201
150.1439, 153.9383
150.6261, 155.8163
151.1082, 158.2503
151.5903, 160.6954
152.0724, 163.5751
152.5545, 165.4473
153.0366, 165.4211
153.5188, 164.3324
154.0009, 163.8267
154.4830, 163.6856
154.9651, 164.5045
155.4472, 166.7407
155.9293, 172.4551
156.4115, 176.6019
156.8936, 176.8922
157.3757, 174.5123
157.8578, 173.5826
158.3399, 177.3577
158.8221, 181.7728
159.3042, 184.2017
159.7863, 181.1407
160.2684, 178.8169
160.7505, 179.8897
161.2326, 183.9369
161.7148, 187.6327
162.1969, 190.8206
162.6790, 192.5135
163.1611, 191.7411
163.6432, 185.5668
164.1253, 178.9420
164.6075, 174.3177
165.0896, 171.7760
165.5717, 170.3216
166.0538, 169.8873
166.5359, 170.1115
167.0180, 170.4688
167.5002, 171.2945
167.9823, 171.8303
168.4644, 171.6111
168.9465, 170.6356
169.4286, 168.6789
169.9107, 164.1496
170.3929, 158.4683
170.8750, 154.5117
171.3571, 154.6136
171.8392, 156.8589
172.3213, 159.6284
172.8034, 163.0710
173.2856, 165.7865
173.7677, 165.8703
174.2498, 163.9342
174.7319, 162.0830
175.2140, 162.0088
175.6961, 162.7271
176.1783, 162.2234
176.6604, 158.9146
177.1425, 156.4859
177.6246, 161.6486
178.1067, 173.1211
178.5888, 182.9209
179.0710, 183.8257
179.5531, 178.7048
180.0352, 173.5621
180.5173, 169.3335
180.9994, 166.3122
181.4815, 165.7090
181.9637, 167.4474
182.4458, 169.2887
182.9279, 168.5506
183.4100, 166.1101
183.8921, 165.2999
184.3742, 167.5267
184.8564, 171.7937
185.3385, 176.4939
185.8206, 181.8201
186.3027, 185.7269
186.7848, 184.6810
187.2669, 179.4781
187.7491, 176.1766
188.2312, 177.7848
188.7133, 182.9624
189.1954, 187.3772
189.6775, 191.2241
190.1596, 193.2711
190.6418, 190.4114
191.1239, 182.8243
191.6060, 177.2411
192.0881, 178.3649
192.5702, 185.0335
193.0524, 186.3343
193.5345, 181.1770
194.0166, 173.5014
194.4987, 169.8652
194.9808, 170.5851
195.4629, 170.5560
195.9451, 165.7211
196.4272, 156.1988
196.9093, 152.6357
197.3914, 156.7540
197.8735, 164.6484
198.3556, 169.4103
198.8378, 170.8748
199.3199, 170.2411
199.8020, 167.2422
200.2841, 161.6400
200.7662, 157.6012
201.2483, 155.4012
201.7305, 154.8602
202.2126, 156.2951
202.6947, 160.5291
203.1768, 163.6646
203.6589, 162.5920
204.1410, 156.5176
204.6232, 151.9135
205.1053, 149.3750
205.5874, 148.6581
206.0695, 149.2138
206.5516, 151.4141
207.0337, 153.9099
207.5159, 155.7612
207.9980, 156.7733
208.4801, 157.9732
208.9622, 159.7438
209.4443, 161.7917
209.9264, 162.5628
210.4086, 161.6987
210.8907, 160.2717
211.3728, 158.9533
211.8549, 157.5556
212.3370, 157.0366
212.8191, 158.3098
213.3013, 160.8612
213.7834, 159.7568
214.2655, 152.8442
214.7476, 145.7227
215.2297, 143.4224
215.7118, 147.2193
216.1940, 152.5224
216.6761, 159.8505
217.1582, 168.9338
217.6403, 172.2348
218.1224, 167.5134
218.6045, 159.9669
219.0867, 154.3707
219.5688, 151.1749
220.0509, 148.8996
220.5330, 146.7803
221.0151, 144.7126
221.4972, 146.9308
221.9794, 156.3911
222.4615, 166.8577
222.9436, 171.4163
223.4257, 167.3657
223.9078, 162.8387
224.3899, 159.1656
224.8721, 156.1645
225.3542, 155.9357
225.8363, 159.6844
226.3184, 165.0559
226.8005, 169.3865
227.2827, 172.3625
227.7648, 174.8304
228.2469, 176.9934
228.7290, 178.8664
229.2111, 180.2652
229.6932, 181.0899
230.1754, 181.5057
230.6575, 181.6667
231.1396, 181.3011
231.6217, 181.1551
232.1038, 181.3830
232.5859, 181.9553
233.0681, 183.2832
233.5502, 186.5945
234.0323, 189.7812
234.5144, 189.1958
234.9965, 181.2168
235.4786, 175.6969
235.9608, 176.9460
236.4429, 187.6922
236.9250, 191.8991
237.4071, 185.2404
237.8892, 174.6933
238.3713, 172.1791
238.8535, 184.2310
239.3356, 193.3289
239.8177, 192.8337
240.2998, 179.2093
240.7819, 169.5542
241.2640, 164.6463
241.7462, 163.0964
242.2283, 162.5396
242.7104, 162.9453
243.1925, 164.4279
243.6746, 167.5358
244.1567, 173.5320
244.6389, 176.6473
245.1210, 175.4896
245.6031, 172.2859
246.0852, 170.8335
246.5673, 171.2175
247.0494, 173.2741
247.5316, 178.0705
248.0137, 188.3598
248.4958, 191.3441
248.9779, 182.6785
249.4600, 169.1297
249.9421, 163.8349
250.4243, 170.5455
250.9064, 178.7425
251.3885, 185.3452
251.8706, 191.3132
252.3527, 191.7535
252.8348, 183.2420
253.3170, 171.3353
253.7991, 167.1698
254.2812, 174.2999
254.7633, 182.4582
255.2454, 188.3013
255.7275, 191.9350
256.2097, 192.2374
256.6918, 187.3038
257.1739, 180.3446
257.6560, 177.5090
258.1381, 180.4034
258.6202, 184.1265
259.1024, 186.9675
259.5845, 188.7507
260.0666, 190.2667
260.5487, 191.5241
261.0308, 192.5031
261.5129, 193.2255
261.9951, 193.7077
262.4772, 193.8704
262.9593, 193.4362
263.4414, 192.0313
263.9235, 191.7997
264.4056, 192.8390
264.8878, 194.9678
265.3699, 198.6007
265.8520, 205.1268
266.3341, 209.2300
266.8162, 207.3005
267.2983, 197.4850
267.7805, 194.3346
268.2626, 200.2554
268.7447, 210.2158
269.2268, 215.3345
269.7089, 214.4068
270.1910, 212.9405
270.6732, 212.8239
271.1553, 214.1064
271.6374, 216.3263
272.1195, 219.4517
272.6016, 223.5708
273.0837, 229.1101
273.5659, 236.4801
274.0480, 243.2841
274.5301, 248.3631
275.0122, 251.6092
275.4943, 255.5828
275.9764, 260.3637
276.4586, 265.7224
276.9407, 271.7943
277.4228, 278.7187
277.9049, 284.5446
278.3870, 288.5012
278.8691, 290.6100
279.3513, 290.6938
279.8334, 287.9138
280.3155, 285.2667
280.7976, 287.8747
281.2798, 295.9951
281.7619, 302.8042
282.2440, 305.0418
282.7261, 303.4091
283.2082, 303.5167
283.6903, 305.7651
284.1725, 308.2799
284.6546, 308.1731
285.1367, 305.5768
285.6188, 304.0319
286.1009, 305.9067
286.5830, 309.9547
287.0652, 309.9691
287.5473, 305.3353
288.0294, 300.3383
288.5115, 300.4797
288.9936, 305.1182
289.4757, 308.9616
289.9579, 310.4225
290.4400, 309.7966
290.9221, 307.0336
291.4042, 301.9098
291.8863, 297.4469
292.3684, 297.9375
292.8506, 302.1313
293.3327, 304.5679
293.8148, 302.8606
294.2969, 298.7420
294.7790, 295.1592
295.2611, 292.1012
295.7433, 289.8422
296.2254, 289.8466
296.7075, 290.9446
297.1896, 289.7424
297.6717, 284.0385
298.1538, 276.5753
298.6360, 270.8172
299.1181, 266.7586
299.6002, 264.9501
300.0823, 268.4159
300.5644, 274.1179
301.0465, 276.0858
301.5287, 271.2363
302.0108, 263.9420
302.4929, 259.4096
302.9750, 257.0690
303.4571, 253.9127
303.9392, 246.1798
304.4214, 236.8984
304.9035, 230.0733
305.3856, 227.3935
305.8677, 226.4816
306.3498, 225.3811
306.8319, 224.3689
307.3141, 224.4191
307.7962, 227.2302
308.2783, 230.8603
308.7604, 233.1136
309.2425, 232.4848
309.7246, 232.6777
310.2068, 239.1045
310.6889, 248.5891
311.1710, 252.9962
311.6531, 243.1509
312.1352, 229.9331
312.6173, 221.5018
313.0995, 220.2980
313.5816, 220.8463
314.0637, 220.4361
314.5458, 220.0108
315.0279, 221.3299
315.5100, 228.2920
315.9922, 234.7464
316.4743, 236.7330
316.9564, 232.5303
317.4385, 229.1215
317.9206, 230.8779
318.4027, 234.3379
318.8849, 234.6634
319.3670, 225.1353
319.8491, 217.0201
320.3312, 215.5802
320.8133, 222.5694
321.2954, 227.8048
321.7776, 228.0722
322.2597, 226.1327
322.7418, 224.9297
323.2239, 225.9380
323.7060, 226.6697
324.1881, 226.3145
324.6703, 224.7231
325.1524, 223.6774
325.6345, 223.0187
326.1166, 223.1139
326.5987, 224.2691
327.0808, 228.0274
327.5630, 231.0458
328.0451, 233.4321
328.5272, 235.1071
329.0093, 234.2018
329.4914, 228.9545
329.9735, 222.7615
330.4557, 217.6824
330.9378, 213.1956
331.4199, 210.8087
331.9020, 211.2682
332.3841, 214.0092
332.8662, 216.4263
333.3484, 218.8850
333.8305, 220.4294
334.3126, 219.6645
334.7947, 214.2101
335.2768, 214.4431
335.7589, 223.6514
336.2411, 237.2935
336.7232, 243.6307
337.2053, 240.6931
337.6874, 236.0527
338.1695, 232.2892
338.6516, 229.1006
339.1338, 230.3555
339.6159, 237.4583
340.0980, 246.8834
340.5801, 252.9788
341.0622, 255.7176
341.5443, 255.8210
342.0265, 251.9818
342.5086, 244.9623
342.9907, 242.1483
343.4728, 244.1928
343.9549, 247.9816
344.4370, 249.6951
344.9192, 249.5457
345.4013, 249.6192
345.8834, 250.6000
346.3655, 252.3329
346.8476, 254.7570
347.3297, 257.9044
347.8119, 260.6012
348.2940, 261.3908
348.7761, 260.7738
349.2582, 260.3091
349.7403, 260.8562
350.2225, 261.3244
350.7046, 258.9343
351.1867, 254.2228
351.6688, 251.5069
352.1509, 256.7910
352.6331, 265.3085
353.1152, 269.1985
353.5973, 264.2161
354.0794, 258.9225
354.5615, 262.1177
355.0436, 271.5385
355.5258, 280.2964
356.0079, 285.4414
356.4900, 287.8043
356.9721, 288.0640
357.4542, 286.3153
357.9363, 282.4930
358.4185, 274.5719
358.9006, 264.7596
359.3827, 256.8757
359.8648, 251.0766
360.3469, 248.6461
360.8290, 251.2652
361.3112, 259.7868
361.7933, 268.1198
362.2754, 275.8164
362.7575, 281.8339
363.2396, 285.0515
363.7217, 280.6750
364.2039, 277.9647
364.6860, 281.2752
365.1681, 290.7439
365.6502, 295.5954
366.1323, 291.0836
366.6144, 283.7621
367.0966, 278.0913
367.5787, 273.1289
368.0608, 271.3187
368.5429, 275.3666
369.0250, 283.5131
369.5071, 286.5344
369.9893, 281.3931
370.4714, 274.6826
370.9535, 269.1677
371.4356, 263.9674
371.9177, 262.2707
372.3998, 265.2367
372.8820, 271.1782
373.3641, 276.7169
373.8462, 282.3850
374.3283, 286.2384
374.8104, 287.0975
375.2925, 284.7083
375.7747, 282.1844
376.2568, 279.2571
376.7389, 276.6829
377.2210, 275.7504
377.7031, 276.5745
378.1852, 277.5084
378.6674, 278.8460
379.1495, 279.8568
379.6316, 276.0465
380.1137, 266.8421
380.5958, 258.2985
381.0779, 257.6083
381.5601, 263.1020
382.0422, 266.1992
382.5243, 263.7061
383.0064, 259.6114
383.4885, 261.8324
383.9706, 269.4737
384.4528, 275.7797
384.9349, 274.7458
385.4170, 269.7643
385.8991, 266.6263
386.3812, 266.6190
386.8633, 267.0280
387.3455, 264.5270
387.8276, 260.4624
388.3097, 257.8840
388.7918, 260.5672
389.2739, 263.9525
389.7560, 263.8327
390.2382, 259.5709
390.7203, 255.6334
391.2024, 254.1104
391.6845, 254.3447
392.1666, 255.5745
392.6487, 260.3593
393.1309, 263.4652
393.6130, 261.3497
394.0951, 254.5823
394.5772, 249.9449
395.0593, 251.1848
395.5414, 253.8129
396.0236, 255.0218
396.5057, 255.9549
396.9878, 253.6273
397.4699, 243.7161
397.9520, 229.7952
398.4341, 223.2652
398.9163, 231.2748
399.3984, 239.2672
399.8805, 241.5215
400.3626, 234.9895
400.8447, 232.0945
401.3268, 235.5987
401.8090, 240.7001
402.2911, 239.6527
402.7732, 228.8318
403.2553, 221.4906
403.7374, 222.2210
404.2195, 230.4753
404.7017, 236.4793
405.1838, 240.1849
405.6659, 241.7785
406.1480, 240.9134
406.6301, 237.5542
407.1122, 234.1301
407.5944, 230.9702
408.0765, 228.0935
408.5586, 225.4083
409.0407, 222.9115
409.5228, 221.2329
410.0049, 220.7566
410.4871, 221.4290
410.9692, 223.7554
411.4513, 228.3855
411.9334, 232.2579
412.4155, 229.7982
412.8976, 223.4227
413.3798, 220.1484
413.8619, 227.7394
414.3440, 237.3346
414.8261, 238.4008
415.3082, 230.7587
415.7903, 223.5144
416.2725, 223.2350
416.7546, 226.3843
417.2367, 228.9917
417.7188, 229.4853
418.2009, 229.4963
418.6830, 230.4589
419.1652, 231.7361
419.6473, 230.9502
420.1294, 224.2763
420.6115, 217.5648
421.0937, 214.0406
421.5758, 215.4746
422.0579, 217.3630
422.5400, 219.8658
423.0221, 222.3269
423.5042, 223.6865
423.9864, 221.9731
424.4685, 221.3521
424.9506, 223.5453
425.4327, 228.9543
425.9148, 231.3577
426.3969, 228.8483
426.8791, 225.5082
427.3612, 225.2077
427.8433, 229.3210
428.3254, 232.2455
428.8075, 233.4429
429.2896, 232.8144
429.7718, 228.7242
430.2539, 220.0218
430.7360, 213.8145
431.2181, 216.3225
431.7002, 226.7364
432.1823, 233.0061
432.6645, 234.1308
433.1466, 232.4610
433.6287, 230.7157
434.1108, 228.8605
434.5929, 226.6431
435.0750, 222.6804
435.5572, 218.8687
436.0393, 219.5672
436.5214, 224.5578
437.0035, 229.2196
437.4856, 230.4046
437.9677, 228.8505
438.4499, 225.0027
438.9320, 216.6791
439.4141, 210.0050
439.8962, 211.1855
440.3783, 217.5999
440.8604, 222.5279
441.3426, 221.8147
441.8247, 219.6173
442.3068, 218.0757
442.7889, 217.4458
443.2710, 217.3838
443.7531, 217.7616
444.2353, 218.6762
444.7174, 220.2421
445.1995, 224.1778
445.6816, 226.8720
446.1637, 226.0695
446.6458, 222.4300
447.1280, 223.6190
447.6101, 235.3701
448.0922, 245.6384
448.5743, 246.8670
449.0564, 234.0080
449.5385, 225.6855
450.0207, 223.4123
450.5028, 224.9446
450.9849, 227.2062
451.4670, 230.9759
451.9491, 231.2126
452.4312, 223.2068
452.9134, 208.9377
453.3955, 205.3052
453.8776, 213.5344
454.3597, 223.6391
454.8418, 225.0042
455.3239, 219.6329
455.8061, 216.0059
456.2882, 216.8834
456.7703, 218.9677
457.2524, 216.8783
457.7345, 211.6211
458.2166, 207.2519
458.6988, 206.0088
459.1809, 207.0452
459.6630, 210.9529
460.1451, 218.6528
460.6272, 222.9603
461.1093, 214.9255
461.5915, 202.1986
462.0736, 194.4533
462.5557, 199.1885
463.0378, 205.2138
463.5199, 208.6832
464.0020, 209.8047
464.4842, 210.8205
464.9663, 214.4548
465.4484, 216.3945
465.9305, 214.0177
466.4126, 202.5476
466.8947, 195.0203
467.3769, 193.0616
467.8590, 194.3368
468.3411, 194.7111
468.8232, 192.1125
469.3053, 193.1048
469.7874, 201.6733
470.2696, 216.9928
470.7517, 222.3350
471.2338, 215.0873
471.7159, 205.8993
472.1980, 205.3095
472.6801, 213.0332
473.1623, 216.1222
473.6444, 211.5602
474.1265, 203.9831
474.6086, 201.2213
475.0907, 202.7399
475.5728, 205.0773
476.0550, 205.2278
476.5371, 205.4531
477.0192, 211.4071
477.5013, 223.4171
477.9834, 232.4511
478.4655, 229.1178
478.9477, 219.3579
479.4298, 210.9772
479.9119, 206.8595
480.3940, 203.8203
480.8761, 199.5997
481.3582, 195.0798
481.8404, 192.8746
482.3225, 196.4837
482.8046, 200.4210
483.2867, 201.6341
483.7688, 198.2994
484.2509, 197.6918
484.7331, 203.7040
485.2152, 211.0144
485.6973, 214.6767
486.1794, 212.5270
486.6615, 210.4538
487.1436, 209.6094
487.6258, 209.4809
488.1079, 207.0630
488.5900, 201.1105
489.0721, 196.3654
489.5542, 196.1599
490.0363, 200.5356
490.5185, 203.3452
491.0006, 204.0669
491.4827, 204.3652
491.9648, 207.3106
492.4470, 212.1562
492.9291, 214.5314
493.4112, 211.3815
493.8933, 206.2670
494.3754, 205.6211
494.8575, 208.6335
495.3397, 210.2477
495.8218, 204.2658
496.3039, 196.5313
496.7860, 194.1760
497.2681, 199.6387
497.7502, 204.7853
498.2324, 204.4230
498.7145, 201.3997
499.1966, 199.5800
499.6787, 201.8624
500.1608, 203.7511
500.6429, 204.0280
501.1251, 202.6947
501.6072, 200.3410
502.0893, 195.0687
502.5714, 190.4800
503.0535, 188.7495
503.5356, 192.9348
504.0178, 192.0147
504.4999, 182.3423
504.9820, 170.9092
505.4641, 169.3133
505.9462, 179.5643
506.4283, 189.0367
506.9105, 193.3346
507.3926, 194.2281
507.8747, 200.2087
508.3568, 211.6927
508.8389, 220.8346
509.3210, 220.1227
509.8032, 212.6782
510.2853, 206.6406
510.7674, 202.7647
511.2495, 201.4394
511.7316, 205.5893
512.2137, 212.4725
512.6959, 216.4631
513.1780, 214.5679
513.6601, 209.5939
514.1422, 201.6623
514.6243, 191.4532
515.1064, 183.3099
515.5886, 178.4967
516.0707, 176.5712
516.5528, 177.7484
517.0349, 184.3605
517.5170, 189.2410
517.9991, 190.3415
518.4813, 189.8527
518.9634, 190.6061
519.4455, 194.0788
519.9276, 196.2343
520.4097, 196.0228
520.8918, 193.7613
521.3740, 191.3602
521.8561, 188.7280
522.3382, 186.2596
522.8203, 183.8898
523.3024, 181.7085
523.7845, 181.2444
524.2667, 182.9012
524.7488, 185.0667
525.2309, 185.2820
525.7130, 184.2612
526.1951, 184.5942
526.6772, 188.5870
527.1594, 193.0333
527.6415, 194.0966
528.1236, 192.2422
528.6057, 189.5028
529.0878, 184.7350
529.5699, 181.0541
530.0521, 181.3586
530.5342, 186.8697
531.0163, 192.4413
531.4984, 197.1599
531.9805, 200.8423
532.4626, 203.3236
532.9448, 205.4002
533.4269, 205.1229
533.9090, 199.9461
534.3911, 192.0021
534.8732, 190.4192
535.3553, 198.9942
535.8375, 206.8088
536.3196, 208.6748
536.8017, 204.3022
537.2838, 200.7243
537.7659, 198.0318
538.2480, 195.7250
538.7302, 192.7008
539.2123, 189.2738
539.6944, 188.0453
540.1765, 190.2309
540.6586, 193.6529
541.1407, 195.7402
541.6229, 196.5779
542.1050, 196.5258
542.5871, 195.3032
543.0692, 193.5880
543.5513, 191.1274
544.0334, 187.9764
544.5156, 187.3109
544.9977, 194.7568
545.4798, 202.9238
545.9619, 205.6980
546.4440, 197.1902
546.9261, 190.3235
547.4083, 187.5717
547.8904, 187.4131
548.3725, 187.1239
548.8546, 186.2470
549.3367, 185.9905
549.8188, 186.7211
550.3010, 188.3776
550.7831, 190.6780
551.2652, 194.2080
551.7473, 196.4272
552.2294, 193.3033
552.7115, 185.8700
553.1937, 186.0744
553.6758, 196.2484
554.1579, 208.2997
554.6400, 212.1123
555.1221, 209.6579
555.6042, 206.4182
556.0864, 203.0384
556.5685, 201.0236
557.0506, 203.3390
557.5327, 208.6856
558.0148, 212.1873
558.4969, 209.0821
558.9791, 205.1953
559.4612, 204.7791
559.9433, 209.3999
560.4254, 211.5796
560.9075, 207.6547
561.3896, 201.9901
561.8718, 198.3258
562.3539, 196.8417
562.8360, 197.2171
563.3181, 200.3013
563.8002, 204.8102
564.2823, 207.9322
564.7645, 209.7155
565.2466, 209.6375
565.7287, 206.1331
566.2108, 200.4881
566.6929, 200.4747
567.1750, 206.3757
567.6572, 211.4912
568.1393, 208.6587
568.6214, 201.2079
569.1035, 195.3152
569.5856, 191.5023
570.0677, 190.9362
570.5499, 197.6654
571.0320, 207.6257
571.5141, 214.4303
571.9962, 214.1189
572.4783, 211.8307
572.9604, 208.1155
573.4426, 203.6464
573.9247, 201.5715
574.4068, 205.4743
574.8889, 209.0569
575.3710, 209.2361
575.8531, 204.6282
576.3353, 204.3605
576.8174, 210.8647
577.2995, 218.1063
577.7816, 219.8374
578.2637, 215.4572
578.7458, 211.8455
579.2280, 210.0874
579.7101, 209.3505
580.1922, 208.3820
580.6743, 207.1819
581.1564, 205.7498
581.6385, 203.3132
582.1207, 201.0539
582.6028, 199.7319
583.0849, 199.6112
583.5670, 202.6281
584.0491, 215.2459
584.5313, 228.0621
585.0134, 232.8128
585.4955, 225.3848
585.9776, 219.3330
586.4597, 219.0977
586.9418, 221.5940
587.4240, 223.4117
587.9061, 224.9548
588.3882, 224.8971
588.8703, 222.1264
589.3524, 217.9268
589.8345, 216.1306
590.3167, 217.0785
590.7988, 219.1900
591.2809, 222.3405
591.7630, 226.1520
592.2451, 228.4540
592.7272, 229.2170
593.2094, 229.1935
593.6915, 228.2162
594.1736, 227.0583
594.6557, 227.4389
595.1378, 229.9440
595.6199, 232.6315
596.1021, 234.9812
596.5842, 236.3427
597.0663, 235.7848
597.5485, 229.3656
598.0306, 224.8238
598.5127, 226.3086
598.9948, 232.1780
599.4769, 235.2485
599.9590, 234.5176
600.4412, 231.6192
600.9233, 225.6901
601.4054, 216.1168
601.8875, 213.3769
602.3696, 219.3062
602.8517, 227.6390
603.3339, 233.4269
603.8160, 236.8327
604.2981, 239.1701
604.7802, 240.5930
605.2623, 240.8647
605.7444, 239.1423
606.2266, 235.9556
606.7087, 232.8177
607.1908, 230.3167
607.6729, 227.9812
608.1550, 224.8161
608.6371, 221.3844
609.1193, 219.4068
609.6014, 220.7565
610.0835, 222.7364
610.5656, 223.6910
611.0477, 223.1426
611.5298, 224.7903
612.0120, 231.6826
612.4941, 237.8509
612.9762, 238.6228
613.4583, 231.6595
613.9404, 227.8597
614.4225, 228.1419
614.9047, 230.8669
615.3868, 234.6872
615.8689, 239.4182
616.3510, 242.1379
616.8331, 241.6593
617.3152, 239.1887
617.7974, 234.4451
618.2795, 228.7475
618.7616, 226.9090
619.2437, 235.8386
619.7258, 246.4621
620.2079, 252.1467
620.6901, 252.4975
621.1722, 251.2742
621.6543, 248.5585
622.1364, 245.5386
622.6185, 242.7909
623.1006, 239.1509
623.5828, 238.6144
624.0649, 243.1133
624.5470, 248.9436
625.0291, 251.3401
625.5112, 249.5118
625.9933, 248.6683
626.4755, 250.2542
626.9576, 252.6435
627.4397, 251.3846
627.9218, 247.1394
628.4039, 244.9586
628.8860, 249.6903
629.3682, 256.6924
629.8503, 259.9141
630.3324, 259.5847
630.8145, 257.4925
631.2966, 251.1224
631.7787, 245.8593
632.2609, 246.7485
632.7430, 256.8616
633.2251, 263.4477
633.7072, 260.7825
634.1893, 255.5324
634.6714, 253.2124
635.1536, 255.2511
635.6357, 257.1022
636.1178, 258.4007
636.5999, 259.3887
637.0820, 260.6559
637.5641, 262.2326
638.0463, 263.2147
638.5284, 263.5813
639.0105, 262.9480
639.4926, 259.1509
639.9747, 252.9699
640.4568, 248.9945
640.9390, 251.8804
641.4211, 256.9868
641.9032, 260.2480
642.3853, 261.3623
642.8674, 261.6141
