##NAMES=Derriksite
##RRUFFID=R100223
##IDEAL CHEMISTRY=Cu^2+^_4_(U^6+^O_2_)(Se^4+^O_3_)_2_(OH)_6_
##LOCALITY=Musonoi mine, Kolwezi, Katanga, Congo
##OWNER=RRUFF
##SOURCE=William W. Pinch
##DESCRIPTION=Dark green crystal associated with metatorbernite, malachite and brochantite
##STATUS=The identification of this mineral has been confirmed by single-crystal X-ray diffraction.
##URL=rruff.info/R100223
147.0131, 66.52636
147.4952, 66.73494
147.9773, 66.52440
148.4594, 65.87197
148.9415, 64.85845
149.4237, 63.81193
149.9058, 62.67390
150.3879, 61.57710
150.8700, 60.83311
151.3521, 60.24061
151.8342, 60.47632
152.3164, 62.46631
152.7985, 65.94820
153.2806, 68.98029
153.7627, 69.84159
154.2448, 68.49064
154.7269, 67.29369
155.2091, 66.96998
155.6912, 66.54935
156.1733, 65.15522
156.6554, 62.86876
157.1375, 60.85184
157.6196, 60.74573
158.1018, 63.46183
158.5839, 65.44427
159.0660, 66.25630
159.5481, 66.55540
160.0302, 66.54709
160.5123, 66.35130
160.9945, 66.17540
161.4766, 66.40489
161.9587, 67.48293
162.4408, 68.32627
162.9229, 68.65376
163.4050, 68.88960
163.8871, 69.56799
164.3693, 70.87898
164.8514, 72.37402
165.3335, 72.91570
165.8156, 71.17081
166.2977, 70.33680
166.7798, 71.08018
167.2620, 72.87798
167.7441, 75.18938
168.2262, 77.97083
168.7083, 80.68725
169.1904, 81.71683
169.6725, 80.74078
170.1547, 79.18248
170.6368, 77.03491
171.1189, 74.60401
171.6010, 73.02927
172.0831, 73.14867
172.5652, 74.22888
173.0474, 74.58574
173.5295, 73.83952
174.0116, 73.09529
174.4937, 73.30547
174.9758, 74.46737
175.4579, 75.59407
175.9401, 76.12500
176.4222, 76.47285
176.9043, 77.17654
177.3864, 78.51163
177.8685, 79.79927
178.3506, 80.19120
178.8328, 79.57755
179.3149, 78.41472
179.7970, 75.87405
180.2791, 73.31834
180.7612, 72.17044
181.2433, 73.08836
181.7255, 75.06629
182.2076, 75.92155
182.6897, 75.04202
183.1718, 74.08342
183.6539, 73.39210
184.1360, 72.82030
184.6181, 72.20437
185.1003, 71.45864
185.5824, 70.64966
186.0645, 70.03513
186.5466, 70.00896
187.0287, 69.68137
187.5108, 68.75162
187.9930, 67.51521
188.4751, 66.24939
188.9572, 65.08948
189.4393, 64.12471
189.9214, 63.91020
190.4035, 65.75932
190.8857, 66.90166
191.3678, 66.41470
191.8499, 64.89738
192.3320, 63.34771
192.8141, 62.32747
193.2962, 61.81066
193.7784, 61.63626
194.2605, 61.99055
194.7426, 62.39509
195.2247, 63.09615
195.7068, 63.79302
196.1889, 63.45932
196.6711, 61.02925
197.1532, 57.24923
197.6353, 55.78218
198.1174, 58.70412
198.5995, 61.77875
199.0816, 62.66609
199.5638, 61.57772
200.0459, 59.89728
200.5280, 58.02776
201.0101, 56.28807
201.4922, 55.47968
201.9743, 56.48182
202.4565, 57.56098
202.9386, 56.76516
203.4207, 54.01834
203.9028, 52.09454
204.3849, 53.61563
204.8670, 56.52079
205.3492, 57.70636
205.8313, 55.80938
206.3134, 53.05151
206.7955, 52.38304
207.2776, 54.27825
207.7597, 56.05825
208.2419, 56.20304
208.7240, 55.71733
209.2061, 55.49218
209.6882, 55.80429
210.1703, 56.51020
210.6524, 57.54848
211.1346, 59.30695
211.6167, 60.33579
212.0988, 59.58988
212.5809, 58.22805
213.0630, 57.29134
213.5451, 57.18908
214.0273, 57.75025
214.5094, 58.63609
214.9915, 59.98289
215.4736, 61.44189
215.9557, 63.38400
216.4378, 65.20228
216.9200, 66.31664
217.4021, 66.46110
217.8842, 65.79250
218.3663, 64.67071
218.8484, 62.37713
219.3305, 60.69658
219.8127, 59.86673
220.2948, 59.67322
220.7769, 60.17693
221.2590, 61.40803
221.7411, 62.80334
222.2232, 62.66363
222.7054, 58.55609
223.1875, 55.78503
223.6696, 55.17635
224.1517, 55.86259
224.6338, 57.02015
225.1159, 58.29139
225.5980, 59.52639
226.0802, 60.28004
226.5623, 60.21554
227.0444, 60.04408
227.5265, 59.96651
228.0086, 59.76466
228.4907, 58.94059
228.9729, 57.23372
229.4550, 55.25427
229.9371, 54.70285
230.4192, 56.84658
230.9013, 58.34815
231.3834, 58.50075
231.8656, 57.74814
232.3477, 56.56108
232.8298, 55.02568
233.3119, 53.50786
233.7940, 52.93782
234.2761, 53.65072
234.7583, 54.23884
235.2404, 54.13821
235.7225, 53.71727
236.2046, 53.72265
236.6867, 54.52375
237.1688, 55.52160
237.6510, 55.52311
238.1331, 54.38554
238.6152, 53.44084
239.0973, 53.10490
239.5794, 53.27642
240.0615, 53.91297
240.5437, 55.27800
241.0258, 56.52539
241.5079, 56.34639
241.9900, 54.78113
242.4721, 53.25225
242.9542, 52.21344
243.4364, 51.65428
243.9185, 51.69512
244.4006, 52.68667
244.8827, 53.67264
245.3648, 53.68041
245.8469, 52.82017
246.3290, 51.67912
246.8112, 50.02866
247.2933, 48.27057
247.7754, 47.81133
248.2575, 49.53161
248.7396, 51.40121
249.2217, 51.67657
249.7039, 50.74826
250.1860, 49.90232
250.6681, 49.91862
251.1502, 50.58392
251.6323, 51.17720
252.1144, 51.87593
252.5966, 52.11198
253.0787, 51.46032
253.5608, 50.16665
254.0429, 48.74009
254.5250, 47.20771
255.0071, 45.75684
255.4893, 45.17262
255.9714, 45.83805
256.4535, 46.82558
256.9356, 48.16262
257.4177, 49.42987
257.8998, 49.84736
258.3820, 48.65008
258.8641, 46.44848
259.3462, 45.46549
259.8283, 46.39263
260.3104, 47.47343
260.7925, 48.47480
261.2747, 49.16877
261.7568, 49.16991
262.2389, 48.17814
262.7210, 46.58065
263.2031, 45.49217
263.6852, 45.10718
264.1674, 44.95073
264.6495, 45.06381
265.1316, 45.24260
265.6137, 45.36533
266.0958, 45.40294
266.5779, 45.16567
267.0601, 43.97808
267.5422, 40.46950
268.0243, 38.59330
268.5064, 39.48194
268.9885, 41.65259
269.4706, 44.14265
269.9528, 46.56100
270.4349, 48.50529
270.9170, 49.05439
271.3991, 47.18163
271.8812, 45.90181
272.3633, 45.70620
272.8455, 45.89811
273.3276, 46.23109
273.8097, 46.53315
274.2918, 46.37903
274.7739, 44.78572
275.2560, 39.83493
275.7382, 37.69088
276.2202, 40.01540
276.7024, 43.27197
277.1845, 45.54258
277.6666, 46.41694
278.1487, 46.31920
278.6308, 45.62602
279.1129, 43.95337
279.5951, 43.05251
280.0772, 43.10744
280.5593, 43.61013
281.0414, 44.74408
281.5235, 46.21556
282.0056, 47.15606
282.4878, 46.59313
282.9699, 44.17501
283.4520, 42.80474
283.9341, 43.09486
284.4162, 43.65978
284.8983, 44.25680
285.3805, 44.69215
285.8626, 44.57949
286.3447, 43.49393
286.8268, 41.47330
287.3089, 40.67872
287.7910, 42.97797
288.2732, 44.41014
288.7553, 42.89053
289.2374, 39.72130
289.7195, 37.58473
290.2016, 38.20677
290.6837, 40.93380
291.1659, 42.11357
291.6480, 39.61719
292.1301, 38.06415
292.6122, 38.91042
293.0943, 40.97426
293.5764, 42.58551
294.0586, 42.98058
294.5407, 42.54774
295.0228, 42.33782
295.5049, 42.58193
295.9870, 42.77861
296.4691, 42.66154
296.9513, 42.59626
297.4334, 43.28969
297.9155, 44.91582
298.3976, 46.50399
298.8797, 46.34715
299.3618, 42.89647
299.8440, 40.53629
300.3261, 39.92485
300.8082, 39.97810
301.2903, 39.70730
301.7724, 38.97971
302.2545, 38.51132
302.7367, 39.25321
303.2188, 41.73665
303.7009, 43.34382
304.1830, 44.03813
304.6651, 43.99864
305.1472, 42.70858
305.6294, 40.53344
306.1115, 38.99277
306.5936, 39.54524
307.0757, 42.35870
307.5578, 44.06452
308.0399, 43.82504
308.5221, 43.52504
309.0042, 44.29851
309.4863, 45.72421
309.9684, 46.50512
310.4505, 45.70708
310.9326, 43.63993
311.4148, 42.50806
311.8969, 42.93634
312.3790, 43.41137
312.8611, 43.86477
313.3432, 44.08049
313.8253, 43.55964
314.3075, 42.01465
314.7896, 40.01253
315.2717, 39.02480
315.7538, 39.87889
316.2359, 40.55910
316.7180, 40.52034
317.2001, 40.40334
317.6823, 41.29039
318.1644, 43.43952
318.6465, 45.48441
319.1286, 45.19046
319.6107, 40.64828
320.0928, 38.44085
320.5750, 40.68022
321.0571, 43.71714
321.5392, 44.35004
322.0213, 42.45222
322.5034, 40.65241
322.9855, 41.88774
323.4677, 46.96137
323.9498, 48.87214
324.4319, 44.81537
324.9140, 40.71337
325.3961, 39.91500
325.8782, 41.74019
326.3604, 43.41569
326.8425, 42.93990
327.3246, 40.55890
327.8067, 39.06380
328.2888, 38.73584
328.7709, 38.82605
329.2531, 39.41557
329.7352, 40.25667
330.2173, 40.94180
330.6994, 41.26690
331.1815, 41.41377
331.6636, 41.88030
332.1458, 43.53331
332.6279, 44.41246
333.1100, 43.57004
333.5921, 42.36330
334.0742, 42.31627
334.5563, 43.79585
335.0385, 45.79283
335.5206, 46.84593
336.0027, 46.63350
336.4848, 46.18224
336.9669, 44.83964
337.4490, 43.78271
337.9312, 44.11636
338.4133, 45.66169
338.8954, 47.11524
339.3775, 47.13918
339.8596, 45.51217
340.3417, 45.27021
340.8239, 48.47309
341.3060, 50.74651
341.7881, 49.69491
342.2702, 46.55451
342.7523, 44.00449
343.2344, 43.74566
343.7166, 45.27816
344.1987, 46.17710
344.6808, 45.33145
345.1629, 45.11037
345.6450, 46.57080
346.1271, 48.41842
346.6093, 49.16981
347.0914, 48.29071
347.5735, 46.38627
348.0556, 44.49053
348.5377, 41.89795
349.0198, 40.70078
349.5020, 41.69276
349.9841, 43.27322
350.4662, 44.62757
350.9483, 45.51178
351.4304, 45.83162
351.9125, 45.31066
352.3947, 43.67771
352.8768, 43.03540
353.3589, 44.52287
353.8410, 45.86016
354.3231, 46.23502
354.8052, 45.83187
355.2874, 45.15044
355.7695, 44.48750
356.2516, 43.86515
356.7337, 43.38245
357.2158, 42.89069
357.6979, 42.78598
358.1800, 43.05886
358.6621, 43.75429
359.1443, 44.98955
359.6264, 46.81260
360.1085, 48.97947
360.5906, 51.18550
361.0727, 53.72626
361.5548, 55.49744
362.0370, 56.01224
362.5191, 56.06784
363.0012, 55.96441
363.4833, 55.82143
363.9654, 55.81401
364.4475, 56.10820
364.9297, 56.70899
365.4118, 57.54713
365.8939, 58.98325
366.3760, 60.25821
366.8581, 60.70875
367.3402, 60.78675
367.8224, 61.50721
368.3045, 63.75594
368.7866, 66.80569
369.2687, 68.25913
369.7508, 67.06985
370.2329, 66.61047
370.7151, 68.88993
371.1972, 71.98542
371.6793, 73.97688
372.1614, 74.22973
372.6435, 73.84449
373.1256, 74.28020
373.6078, 75.63485
374.0899, 76.37122
374.5720, 75.70890
375.0541, 74.70692
375.5362, 74.20801
376.0183, 74.17760
376.5005, 74.02849
376.9826, 72.92322
377.4647, 71.32298
377.9468, 71.19116
378.4289, 73.38345
378.9110, 75.39893
379.3932, 75.26048
379.8753, 73.78643
380.3574, 72.44861
380.8395, 71.80860
381.3216, 71.40618
381.8037, 70.58858
382.2859, 69.34024
382.7680, 68.39107
383.2501, 68.36530
383.7322, 68.61592
384.2143, 67.96469
384.6964, 66.03282
385.1786, 64.48226
385.6607, 65.03022
386.1428, 66.71387
386.6249, 66.60906
387.1070, 63.52549
387.5891, 59.99024
388.0713, 59.44261
388.5534, 61.56668
389.0355, 62.82806
389.5176, 62.17543
389.9997, 60.54847
390.4818, 58.58078
390.9640, 56.37004
391.4461, 54.48792
391.9282, 53.40128
392.4103, 52.97308
392.8924, 52.35015
393.3745, 50.99295
393.8567, 50.04159
394.3388, 49.99597
394.8209, 50.66615
395.3030, 52.11193
395.7851, 54.55154
396.2672, 56.59327
396.7494, 55.42963
397.2315, 48.55917
397.7136, 44.54486
398.1957, 45.81208
398.6778, 48.65893
399.1599, 50.15027
399.6420, 49.98098
400.1241, 49.38241
400.6063, 49.49634
401.0884, 50.36927
401.5705, 50.32542
402.0526, 47.73315
402.5347, 46.14988
403.0168, 47.52544
403.4990, 50.45838
403.9811, 52.67171
404.4632, 53.06662
404.9453, 52.20770
405.4274, 51.30969
405.9095, 49.27306
406.3917, 49.22025
406.8738, 53.85096
407.3559, 58.39616
407.8380, 58.87900
408.3201, 55.25108
408.8022, 50.77635
409.2844, 48.68876
409.7665, 49.15610
410.2486, 49.53891
410.7307, 50.14589
411.2128, 50.29237
411.6949, 49.31402
412.1771, 47.83999
412.6592, 46.80969
413.1413, 46.66195
413.6234, 47.28764
414.1055, 48.87685
414.5876, 52.33710
415.0698, 53.98293
415.5519, 50.92232
416.0340, 47.08627
416.5161, 45.20941
416.9982, 45.56689
417.4803, 46.46815
417.9625, 46.33340
418.4446, 45.39516
418.9267, 45.53425
419.4088, 47.90456
419.8909, 49.46057
420.3730, 47.26426
420.8552, 42.94996
421.3373, 39.85962
421.8194, 39.54753
422.3015, 40.48186
422.7836, 40.93781
423.2657, 40.92113
423.7479, 40.96539
424.2300, 41.25933
424.7121, 41.75416
425.1942, 42.49198
425.6763, 43.62581
426.1584, 44.23686
426.6406, 43.43321
427.1227, 41.99183
427.6048, 41.36871
428.0869, 41.85520
428.5690, 42.41195
429.0511, 41.98189
429.5333, 40.57125
430.0154, 39.77935
430.4975, 40.05703
430.9796, 40.53461
431.4617, 40.91338
431.9438, 41.10997
432.4260, 40.93622
432.9081, 40.28191
433.3902, 39.28872
433.8723, 38.24598
434.3544, 36.46240
434.8365, 35.84994
435.3187, 37.45386
435.8008, 39.59951
436.2829, 41.05727
436.7650, 41.61535
437.2471, 41.55735
437.7292, 41.11411
438.2114, 40.27839
438.6935, 39.26764
439.1756, 36.98159
439.6577, 35.75748
440.1398, 36.77279
440.6219, 38.96908
441.1040, 41.12565
441.5862, 42.71612
442.0683, 43.60373
442.5504, 43.26363
443.0325, 40.98719
443.5146, 39.66546
443.9967, 40.26459
444.4789, 41.28086
444.9610, 42.28736
445.4431, 43.08150
445.9252, 43.30481
446.4073, 42.46461
446.8894, 40.87677
447.3716, 39.64417
447.8537, 38.57983
448.3358, 38.35348
448.8179, 40.19985
449.3000, 42.63315
449.7821, 44.08830
450.2643, 44.20139
450.7464, 43.53103
451.2285, 41.94545
451.7106, 39.78583
452.1927, 39.05607
452.6748, 40.70515
453.1570, 42.72711
453.6391, 42.77630
454.1212, 41.30673
454.6033, 40.34989
455.0854, 40.93885
455.5675, 41.82059
456.0497, 41.57999
456.5318, 40.44205
457.0139, 40.06991
457.4960, 41.64879
457.9781, 44.11715
458.4602, 44.33044
458.9424, 40.72872
459.4245, 38.51200
459.9066, 39.75317
460.3887, 42.16353
460.8708, 43.30284
461.3529, 42.88163
461.8351, 42.34411
462.3172, 43.23284
462.7993, 45.64789
463.2814, 46.11093
463.7635, 41.90718
464.2456, 39.00210
464.7278, 39.82564
465.2099, 42.52769
465.6920, 44.50326
466.1741, 44.75094
466.6562, 44.13607
467.1383, 44.21746
467.6205, 45.49867
468.1026, 45.89771
468.5847, 44.69571
469.0668, 43.17158
469.5489, 41.53059
470.0310, 40.01741
470.5132, 39.15104
470.9953, 39.44863
471.4774, 40.41197
471.9595, 40.62364
472.4416, 39.76093
472.9237, 39.36023
473.4059, 40.74242
473.8880, 42.35839
474.3701, 42.66262
474.8522, 41.44790
475.3343, 40.06744
475.8164, 39.51444
476.2986, 39.43537
476.7807, 38.82410
477.2628, 37.45102
477.7449, 36.18454
478.2270, 35.51862
478.7091, 35.52907
479.1913, 36.34229
479.6734, 39.13764
480.1555, 41.43217
480.6376, 41.51165
481.1197, 40.20654
481.6018, 39.22582
482.0839, 39.12280
482.5660, 39.50859
483.0482, 39.93268
483.5303, 40.55948
484.0124, 40.49579
484.4945, 38.47052
484.9766, 36.98645
485.4587, 38.23160
485.9409, 41.11169
486.4230, 42.68526
486.9051, 41.20439
487.3872, 37.97408
487.8693, 36.90427
488.3514, 39.69361
488.8336, 41.45990
489.3157, 41.32166
489.7978, 40.63190
490.2799, 40.24839
490.7620, 40.20710
491.2441, 40.04886
491.7263, 39.19888
492.2084, 37.94001
492.6905, 37.86341
493.1726, 39.70169
493.6547, 40.95636
494.1368, 39.96322
494.6190, 38.17277
495.1011, 36.92248
495.5832, 36.43613
496.0653, 36.54889
496.5474, 37.51283
497.0295, 38.99455
497.5117, 39.89500
497.9938, 39.94390
498.4759, 39.88249
498.9580, 40.44543
499.4401, 41.45345
499.9222, 41.94597
500.4044, 41.67249
500.8865, 41.07358
501.3686, 39.86712
501.8507, 38.56202
502.3328, 38.47671
502.8149, 40.11021
503.2971, 42.08186
503.7792, 42.38099
504.2613, 40.40846
504.7434, 38.83539
505.2255, 37.32993
505.7076, 36.49726
506.1898, 37.20091
506.6719, 38.73596
507.1540, 39.63652
507.6361, 39.10701
508.1182, 37.81576
508.6003, 37.41731
509.0825, 38.49500
509.5646, 38.89561
510.0467, 37.48027
510.5288, 36.13404
511.0109, 36.00800
511.4930, 36.91468
511.9752, 37.88026
512.4573, 38.21690
512.9394, 38.26010
513.4215, 39.10998
513.9036, 41.07405
514.3857, 41.83528
514.8679, 39.60375
515.3500, 36.35708
515.8321, 34.57799
516.3142, 34.39463
516.7963, 34.94492
517.2784, 36.55993
517.7606, 38.36700
518.2427, 39.05888
518.7248, 38.55505
519.2069, 37.75661
519.6890, 37.37392
520.1711, 37.13900
520.6533, 35.67543
521.1354, 30.53799
521.6175, 27.58542
522.0996, 29.44204
522.5817, 32.97862
523.0638, 35.13445
523.5460, 35.40046
524.0281, 34.97076
524.5102, 34.87340
524.9923, 35.11301
525.4744, 36.06605
525.9565, 39.33700
526.4387, 41.14375
526.9208, 39.68512
527.4029, 37.01609
527.8850, 35.10730
528.3671, 34.49255
528.8492, 34.79668
529.3314, 36.07623
529.8135, 38.16347
530.2956, 39.46198
530.7777, 39.94212
531.2598, 39.49414
531.7419, 37.02590
532.2241, 33.80402
532.7062, 31.93760
533.1883, 32.19667
533.6704, 33.08544
534.1525, 33.79578
534.6346, 34.35174
535.1168, 34.90153
535.5989, 35.50724
536.0810, 35.74381
536.5631, 34.94311
537.0452, 33.03691
537.5273, 32.45242
538.0095, 34.68423
538.4916, 36.44407
538.9737, 36.17764
539.4558, 34.79127
539.9379, 33.53711
540.4200, 32.86507
540.9022, 32.70658
541.3843, 33.09620
541.8664, 34.23025
542.3485, 34.78408
542.8306, 33.47384
543.3127, 32.99687
543.7948, 35.57785
544.2769, 39.12769
544.7590, 40.07081
545.2411, 36.81990
545.7233, 32.70430
546.2054, 32.41399
546.6875, 35.61361
547.1696, 37.20606
547.6517, 35.89260
548.1339, 33.85398
548.6160, 32.67873
549.0981, 32.21038
549.5802, 32.13448
550.0623, 32.69668
550.5444, 33.31675
551.0266, 33.62101
551.5087, 33.70255
551.9908, 33.74873
552.4729, 33.81192
552.9550, 33.93309
553.4371, 34.17399
553.9193, 34.56347
554.4014, 34.90598
554.8835, 34.92679
555.3656, 35.20832
555.8477, 36.24187
556.3298, 37.58155
556.8120, 38.69164
557.2941, 39.35723
557.7762, 39.41343
558.2583, 38.36660
558.7404, 36.00970
559.2225, 34.34673
559.7047, 33.78108
560.1868, 33.50125
560.6689, 32.90068
561.1510, 32.34338
561.6331, 32.63780
562.1152, 34.42624
562.5974, 35.97974
563.0795, 34.83467
563.5616, 32.00006
564.0437, 31.55735
564.5258, 34.74258
565.0079, 38.41334
565.4901, 39.77533
565.9722, 38.83889
566.4543, 37.80638
566.9364, 36.35598
567.4185, 35.17694
567.9006, 34.88691
568.3828, 34.89365
568.8649, 34.02904
569.3470, 32.13200
569.8291, 30.56713
570.3112, 31.07203
570.7933, 33.80120
571.2755, 35.86440
571.7576, 37.23686
572.2397, 37.91095
572.7218, 37.53581
573.2039, 36.67093
573.6860, 35.90471
574.1682, 35.38373
574.6503, 34.94370
575.1324, 34.21674
575.6145, 33.39537
576.0966, 33.52947
576.5787, 34.95960
577.0609, 36.24607
577.5430, 36.39516
578.0251, 35.80934
578.5072, 35.52766
578.9893, 35.76095
579.4714, 35.86792
579.9536, 35.29808
580.4357, 34.62790
580.9178, 34.58817
581.3999, 35.23889
581.8820, 36.23386
582.3641, 37.37738
582.8463, 38.58466
583.3284, 39.37225
583.8105, 39.57283
584.2926, 39.56649
584.7747, 39.21607
585.2568, 38.80802
585.7390, 38.24311
586.2211, 37.74786
586.7032, 38.13260
587.1853, 40.44634
587.6674, 43.71236
588.1495, 45.12150
588.6317, 44.42041
589.1138, 43.38227
589.5959, 42.23338
590.0780, 41.32003
590.5601, 41.09336
591.0422, 41.53921
591.5244, 42.05284
592.0065, 42.32004
592.4886, 42.67849
592.9707, 43.44343
593.4528, 44.56494
593.9349, 45.97186
594.4171, 47.68046
594.8992, 49.25394
595.3813, 49.86464
595.8634, 49.02448
596.3455, 48.65977
596.8276, 48.86832
597.3098, 49.37461
597.7919, 50.12740
598.2740, 51.08350
598.7561, 52.33656
599.2382, 53.95378
599.7203, 55.36576
600.2025, 55.56536
600.6846, 54.59954
601.1667, 54.07479
601.6488, 53.83101
602.1309, 54.69198
602.6130, 58.53133
603.0952, 63.72078
603.5773, 66.75234
604.0594, 66.37968
604.5415, 65.35568
605.0236, 64.65422
605.5057, 64.36469
605.9879, 64.44152
606.4700, 64.94631
606.9521, 66.68856
607.4342, 70.73500
607.9163, 76.46541
608.3984, 79.11002
608.8806, 74.33321
609.3627, 72.42896
609.8448, 76.56985
610.3269, 82.07417
610.8090, 85.35053
611.2911, 86.29787
611.7733, 86.92386
612.2554, 88.81213
612.7375, 91.14136
613.2196, 91.56998
613.7017, 89.81763
614.1838, 89.28503
614.6660, 91.60710
615.1481, 94.82475
615.6302, 96.75830
616.1123, 97.49879
616.5944, 97.82272
617.0765, 97.67796
617.5587, 97.36650
618.0408, 96.94949
618.5229, 96.53957
619.0050, 96.37998
619.4871, 96.55248
619.9692, 96.89695
620.4514, 97.23361
620.9335, 97.59782
621.4156, 97.69017
621.8977, 97.40762
622.3798, 96.95358
622.8619, 96.00031
623.3441, 95.09338
623.8262, 95.09890
624.3083, 96.18277
624.7904, 97.06789
625.2725, 96.41259
625.7546, 94.75455
626.2367, 93.62758
626.7188, 93.15288
627.2009, 92.66553
627.6830, 91.90401
628.1652, 90.84393
628.6473, 89.34468
629.1294, 87.30582
629.6115, 85.26942
630.0936, 83.16636
630.5757, 81.21062
631.0579, 79.48499
631.5400, 78.03346
632.0221, 77.01970
632.5042, 76.54880
632.9863, 76.20474
633.4684, 75.04639
633.9506, 72.74444
634.4327, 71.30302
634.9148, 71.75912
635.3969, 71.89797
635.8790, 70.31650
636.3611, 67.79636
636.8433, 65.63628
637.3254, 64.13337
637.8075, 63.14166
638.2896, 63.01192
638.7717, 63.20415
639.2538, 62.39104
639.7360, 60.44519
640.2181, 58.88322
640.7002, 58.87771
641.1823, 60.00579
641.6644, 60.54639
642.1465, 60.20778
642.6287, 59.63539
643.1108, 58.52125
643.5929, 57.44905
