##NAMES=Derriksite
##RRUFFID=R100223
##IDEAL CHEMISTRY=Cu^2+^_4_(U^6+^O_2_)(Se^4+^O_3_)_2_(OH)_6_
##LOCALITY=Musonoi mine, Kolwezi, Katanga, Congo
##OWNER=RRUFF
##SOURCE=William W. Pinch
##DESCRIPTION=Dark green crystal associated with metatorbernite, malachite and brochantite
##STATUS=The identification of this mineral has been confirmed by single-crystal X-ray diffraction.
##URL=rruff.info/R100223
145.5144, 25.27989
145.9965, 27.62073
146.4786, 29.78608
146.9608, 31.21890
147.4429, 31.76433
147.9250, 32.34617
148.4071, 33.17191
148.8892, 33.95888
149.3713, 34.26232
149.8535, 33.41185
150.3356, 32.74154
150.8177, 32.47513
151.2998, 32.18017
151.7819, 33.24272
152.2640, 37.27850
152.7462, 42.52270
153.2283, 45.73806
153.7104, 44.84900
154.1925, 43.44239
154.6746, 42.82474
155.1567, 43.88110
155.6389, 44.37348
156.1210, 43.14064
156.6031, 41.09044
157.0852, 40.43905
157.5673, 42.88710
158.0495, 45.95018
158.5316, 48.44414
159.0137, 49.96608
159.4958, 51.15761
159.9779, 51.84299
160.4600, 52.25542
160.9422, 53.15644
161.4243, 55.67846
161.9064, 58.27200
162.3885, 59.84083
162.8706, 59.12761
163.3527, 58.53747
163.8349, 59.42195
164.3170, 61.44167
164.7991, 62.97423
165.2812, 62.34780
165.7633, 61.28225
166.2454, 61.33801
166.7276, 63.54325
167.2097, 66.50050
167.6918, 69.95071
168.1739, 73.72918
168.6560, 76.73575
169.1381, 78.11768
169.6203, 78.38637
170.1024, 77.66982
170.5845, 75.54589
171.0666, 73.75822
171.5487, 73.92965
172.0309, 75.90128
172.5130, 77.69495
172.9951, 77.21957
173.4772, 75.78000
173.9593, 75.41649
174.4414, 77.68754
174.9236, 80.98494
175.4057, 83.66167
175.8878, 85.73569
176.3699, 87.42598
176.8520, 88.67833
177.3341, 89.69779
177.8163, 90.93858
178.2984, 93.16051
178.7805, 95.51431
179.2626, 96.24902
179.7447, 95.16403
180.2268, 94.35587
180.7090, 96.44699
181.1911, 100.6552
181.6732, 104.5716
182.1553, 106.7832
182.6374, 107.9841
183.1195, 109.4967
183.6017, 111.3686
184.0838, 113.5659
184.5659, 116.4461
185.0480, 119.8056
185.5301, 122.7447
186.0123, 124.6767
186.4944, 125.8338
186.9765, 126.8554
187.4586, 127.7799
187.9407, 128.5544
188.4228, 129.1094
188.9050, 129.4488
189.3871, 129.6205
189.8692, 129.8182
190.3513, 129.9301
190.8334, 129.2660
191.3155, 127.6746
191.7977, 125.6318
192.2798, 123.8373
192.7619, 122.2902
193.2440, 120.8166
193.7261, 119.3933
194.2082, 118.0057
194.6904, 116.4153
195.1725, 114.6444
195.6546, 112.6098
196.1367, 109.9528
196.6188, 106.5751
197.1009, 103.6682
197.5831, 102.1621
198.0652, 102.0340
198.5473, 101.4655
199.0294, 100.4146
199.5115, 98.80097
199.9937, 96.03096
200.4758, 91.86327
200.9579, 88.26548
201.4400, 86.83501
201.9221, 87.80757
202.4042, 87.40160
202.8864, 84.86842
203.3685, 81.38379
203.8506, 79.98618
204.3327, 81.18453
204.8148, 82.44157
205.2969, 82.14927
205.7791, 79.99244
206.2612, 78.64713
206.7433, 78.47710
207.2254, 79.04092
207.7075, 79.13943
208.1896, 78.55441
208.6718, 78.14027
209.1539, 78.45884
209.6360, 79.68910
210.1181, 80.74348
210.6002, 81.60617
211.0823, 82.24008
211.5645, 82.48282
212.0466, 82.20930
212.5287, 81.84750
213.0108, 81.54432
213.4929, 81.18875
213.9750, 81.33843
214.4572, 82.14719
214.9393, 83.42790
215.4214, 84.76187
215.9035, 86.38605
216.3856, 87.58939
216.8678, 87.86179
217.3499, 86.87707
217.8320, 86.04581
218.3141, 85.46678
218.7962, 85.07332
219.2783, 84.61245
219.7605, 83.88445
220.2426, 83.45332
220.7247, 83.85320
221.2068, 85.81816
221.6889, 86.39883
222.1710, 84.81413
222.6532, 81.91785
223.1353, 80.45055
223.6174, 80.81693
224.0995, 81.90998
224.5816, 83.28844
225.0637, 85.25984
225.5459, 86.75478
226.0280, 87.60709
226.5101, 87.99825
226.9922, 88.49102
227.4743, 89.32851
227.9564, 89.89513
228.4386, 89.67165
228.9207, 87.68389
229.4028, 87.39906
229.8849, 89.77878
230.3670, 93.66517
230.8492, 95.81464
231.3313, 95.47339
231.8134, 94.51236
232.2955, 93.66609
232.7776, 92.74759
233.2597, 92.47834
233.7419, 93.28822
234.2240, 94.63350
234.7061, 95.03632
235.1882, 94.09978
235.6703, 92.83861
236.1524, 91.67503
236.6346, 90.75681
237.1167, 89.57681
237.5988, 87.92142
238.0809, 86.07848
238.5630, 84.71793
239.0451, 84.07309
239.5273, 83.57590
240.0094, 83.08348
240.4915, 82.85008
240.9736, 81.90252
241.4557, 79.93452
241.9378, 77.38233
242.4200, 75.08344
242.9021, 72.75378
243.3842, 71.09134
243.8663, 70.60008
244.3484, 72.09245
244.8306, 72.24991
245.3127, 70.48402
245.7948, 67.69857
246.2769, 65.45279
246.7590, 63.55155
247.2411, 62.57225
247.7233, 63.03453
248.2054, 65.68175
248.6875, 66.91412
249.1696, 66.06693
249.6517, 64.24634
250.1338, 63.25402
250.6160, 63.44872
251.0981, 63.83052
251.5802, 64.12399
252.0623, 64.33331
252.5444, 64.46149
253.0265, 64.58024
253.5087, 64.55900
253.9908, 64.13727
254.4729, 62.98955
254.9550, 62.09811
255.4371, 61.78045
255.9192, 62.10670
256.4014, 62.50064
256.8835, 63.16227
257.3656, 63.69248
257.8477, 63.52351
258.3298, 62.25111
258.8120, 61.17365
259.2941, 60.55665
259.7762, 60.40107
260.2583, 60.83355
260.7404, 62.37498
261.2225, 63.86199
261.7047, 63.93272
262.1868, 61.98272
262.6689, 60.18090
263.1510, 58.95955
263.6331, 58.31684
264.1152, 57.87642
264.5974, 57.69897
265.0795, 57.63508
265.5616, 57.67825
266.0437, 58.07079
266.5258, 57.69487
267.0079, 55.93917
267.4901, 53.07587
267.9722, 51.77415
268.4543, 52.43353
268.9364, 53.83006
269.4185, 55.17248
269.9006, 56.62142
270.3828, 57.24751
270.8649, 56.60271
271.3470, 55.05668
271.8291, 54.48148
272.3112, 55.21181
272.7933, 56.01617
273.2755, 56.09646
273.7576, 55.45686
274.2397, 53.92184
274.7218, 50.89239
275.2039, 47.29240
275.6860, 46.27771
276.1682, 48.41152
276.6503, 50.97468
277.1324, 52.33843
277.6145, 52.43308
278.0966, 52.04738
278.5787, 51.03161
279.0609, 49.82119
279.5430, 49.48154
280.0251, 50.14884
280.5072, 50.86799
280.9893, 51.18633
281.4715, 51.10357
281.9536, 50.63692
282.4357, 49.64503
282.9178, 48.54432
283.3999, 48.11125
283.8820, 48.37693
284.3642, 48.72961
284.8463, 49.02010
285.3284, 49.21669
285.8105, 48.78376
286.2926, 47.52009
286.7747, 46.25572
287.2569, 46.51632
287.7390, 48.22405
288.2211, 49.30691
288.7032, 48.41212
289.1853, 46.12571
289.6674, 45.21897
290.1496, 45.84038
290.6317, 46.82438
291.1138, 46.68692
291.5959, 45.62224
292.0780, 44.99957
292.5602, 45.47657
293.0423, 46.61787
293.5244, 47.33594
294.0065, 47.61678
294.4886, 47.71499
294.9707, 47.79752
295.4529, 47.87740
295.9350, 47.99862
296.4171, 48.17440
296.8992, 48.39787
297.3813, 48.90557
297.8634, 49.63184
298.3456, 49.82192
298.8277, 48.29300
299.3098, 45.82988
299.7919, 44.21949
300.2740, 44.03761
300.7561, 44.50430
301.2383, 44.68370
301.7204, 44.64432
302.2025, 44.68620
302.6846, 45.03825
303.1667, 45.58008
303.6488, 46.22475
304.1310, 47.06029
304.6131, 47.65995
305.0952, 47.28231
305.5773, 46.27234
306.0594, 45.56501
306.5415, 45.81720
307.0237, 46.53596
307.5058, 47.22246
307.9879, 47.81958
308.4700, 48.43196
308.9521, 49.48173
309.4343, 50.56976
309.9164, 51.02546
310.3985, 49.86344
310.8806, 48.43488
311.3627, 47.81982
311.8448, 48.06834
312.3270, 48.46339
312.8091, 48.60859
313.2912, 48.64754
313.7733, 48.74987
314.2554, 49.17477
314.7375, 49.50653
315.2197, 49.42861
315.7018, 48.99430
316.1839, 48.66310
316.6660, 48.32085
317.1481, 48.33644
317.6302, 49.07258
318.1124, 51.78635
318.5945, 53.77518
319.0766, 53.39082
319.5587, 51.38026
320.0408, 50.33021
320.5229, 52.36993
321.0051, 54.66829
321.4872, 55.49953
321.9693, 53.39463
322.4514, 52.07106
322.9335, 53.39067
323.4156, 55.90848
323.8978, 56.83913
324.3799, 53.75627
324.8620, 50.70345
325.3441, 49.27519
325.8262, 50.27158
326.3083, 50.75787
326.7905, 50.00409
327.2726, 48.78510
327.7547, 48.06427
328.2368, 48.28720
328.7189, 48.57471
329.2010, 48.83313
329.6832, 49.07921
330.1653, 49.07074
330.6474, 48.32118
331.1295, 47.66780
331.6116, 47.84922
332.0938, 49.73728
332.5759, 51.06351
333.0580, 51.35529
333.5401, 50.76903
334.0222, 50.47075
334.5043, 50.63855
334.9865, 50.84454
335.4686, 50.82659
335.9507, 50.50135
336.4328, 50.12416
336.9149, 49.50078
337.3970, 48.93109
337.8792, 49.37967
338.3613, 51.26145
338.8434, 53.00399
339.3255, 53.68499
339.8076, 53.04975
340.2898, 53.62541
340.7719, 56.03279
341.2540, 58.59686
341.7361, 58.31285
342.2182, 54.80598
342.7003, 52.09754
343.1825, 51.90849
343.6646, 53.82101
344.1467, 55.02894
344.6288, 55.44601
345.1109, 55.64708
345.5930, 56.37364
346.0752, 57.52826
346.5573, 58.21199
347.0394, 58.13414
347.5215, 57.52203
348.0036, 56.43727
348.4857, 54.91949
348.9679, 54.27007
349.4500, 56.12832
349.9321, 59.66870
350.4142, 62.46287
350.8963, 64.06021
351.3784, 65.04118
351.8606, 65.81763
352.3427, 66.50072
352.8248, 67.52724
353.3069, 69.58290
353.7890, 71.94613
354.2711, 73.77762
354.7533, 75.03118
355.2354, 75.56419
355.7175, 75.13977
356.1996, 73.90955
356.6817, 72.13730
357.1638, 69.38657
357.6460, 66.53500
358.1281, 64.00703
358.6102, 61.85221
359.0923, 60.42617
359.5744, 60.45000
360.0565, 61.09288
360.5387, 61.56040
361.0208, 61.66103
361.5029, 61.51151
361.9850, 60.98457
362.4671, 60.21448
362.9492, 59.62152
363.4314, 59.39212
363.9135, 59.34962
364.3956, 59.37153
364.8777, 59.34040
365.3598, 59.62067
365.8419, 60.78267
366.3241, 62.19417
366.8062, 62.89716
367.2883, 61.54427
367.7704, 60.64085
368.2526, 61.13761
368.7347, 63.42804
369.2168, 64.92178
369.6989, 64.40684
370.1810, 63.81005
370.6631, 64.77874
371.1453, 68.80246
371.6274, 72.17545
372.1095, 74.29020
372.5916, 75.35236
373.0737, 76.65987
373.5558, 78.31385
374.0380, 80.07813
374.5201, 81.87718
375.0022, 83.75105
375.4843, 85.44451
375.9664, 86.86588
376.4485, 88.17478
376.9307, 89.60374
377.4128, 91.02033
377.8949, 93.09073
378.3770, 96.44160
378.8591, 100.9495
379.3412, 104.2076
379.8234, 105.9311
380.3055, 107.3121
380.7876, 109.6400
381.2697, 112.8933
381.7518, 116.3533
382.2339, 119.9147
382.7161, 123.4889
383.1982, 126.9587
383.6803, 130.2947
384.1624, 133.4964
384.6445, 136.4840
385.1266, 139.3089
385.6088, 142.2370
386.0909, 145.4763
386.5730, 148.2787
387.0551, 149.5200
387.5372, 149.5368
388.0193, 149.3059
388.5015, 149.7016
388.9836, 149.9077
389.4657, 149.0645
389.9478, 147.1183
390.4299, 144.3854
390.9120, 140.5758
391.3942, 136.2534
391.8763, 132.1719
392.3584, 129.0081
392.8405, 125.7427
393.3226, 121.5187
393.8047, 116.6187
394.2869, 112.3351
394.7690, 109.1830
395.2511, 106.7949
395.7332, 105.1852
396.2154, 105.3704
396.6975, 104.2087
397.1796, 99.56395
397.6617, 93.36753
398.1438, 88.96516
398.6259, 88.03168
399.1081, 87.68398
399.5902, 87.32356
400.0723, 86.99000
400.5544, 86.27550
401.0365, 85.10606
401.5186, 83.60168
402.0008, 81.73405
402.4829, 78.54935
402.9650, 76.85557
403.4471, 77.54871
403.9292, 79.96327
404.4113, 81.30016
404.8935, 81.38437
405.3756, 80.82621
405.8577, 79.42937
406.3398, 76.81155
406.8219, 76.72607
407.3040, 80.09781
407.7862, 84.31738
408.2683, 85.28114
408.7504, 82.88778
409.2325, 80.67844
409.7146, 79.78671
410.1967, 80.00911
410.6789, 80.91687
411.1610, 82.54573
411.6431, 83.96623
412.1252, 83.94601
412.6073, 83.04198
413.0894, 82.84782
413.5716, 83.72770
414.0537, 85.29734
414.5358, 87.68430
415.0179, 90.49759
415.5000, 92.54200
415.9821, 92.31420
416.4643, 91.41911
416.9464, 91.61031
417.4285, 93.07693
417.9106, 94.67658
418.3927, 95.43896
418.8748, 95.99271
419.3570, 97.06933
419.8391, 100.1215
420.3212, 102.5899
420.8033, 102.9235
421.2854, 101.5830
421.7675, 100.7563
422.2497, 101.4555
422.7318, 102.5882
423.2139, 103.6049
423.6960, 104.4392
424.1781, 105.1653
424.6602, 105.9085
425.1424, 106.5131
425.6245, 106.7599
426.1066, 106.9930
426.5887, 106.4273
427.0709, 104.7095
427.5530, 101.8396
428.0351, 99.08580
428.5172, 96.56787
428.9993, 93.95516
429.4814, 90.82355
429.9636, 86.80055
430.4457, 83.78340
430.9278, 82.21199
431.4099, 81.44554
431.8920, 80.07822
432.3741, 78.02580
432.8563, 75.93005
433.3384, 74.10579
433.8205, 72.49393
434.3026, 70.60639
434.7847, 68.35903
435.2668, 66.42410
435.7490, 65.68867
436.2311, 65.87655
436.7132, 66.05577
437.1953, 66.03672
437.6774, 65.81809
438.1595, 65.37829
438.6417, 64.73074
439.1238, 63.93031
439.6059, 62.53920
440.0880, 61.25296
440.5701, 60.90717
441.0522, 61.68346
441.5344, 62.75716
442.0165, 64.18456
442.4986, 65.42641
442.9807, 65.80997
443.4628, 64.00269
443.9449, 62.38348
444.4271, 62.02870
444.9092, 62.74327
445.3913, 63.35494
445.8734, 63.65125
446.3555, 63.70442
446.8376, 63.52616
447.3198, 62.99761
447.8019, 62.45917
448.2840, 61.54293
448.7661, 60.77992
449.2482, 60.99243
449.7303, 62.90809
450.2125, 64.57144
450.6946, 65.61766
451.1767, 66.06268
451.6588, 65.97392
452.1409, 65.04606
452.6230, 64.29076
453.1052, 64.73021
453.5873, 66.52905
454.0694, 67.17754
454.5515, 66.14049
455.0337, 64.58982
455.5158, 64.65939
455.9979, 66.24216
456.4800, 67.74460
456.9621, 68.34671
457.4442, 68.44882
457.9264, 69.21371
458.4085, 70.60203
458.8906, 71.60441
459.3727, 70.63358
459.8548, 68.91441
460.3369, 68.57488
460.8191, 70.53584
461.3012, 72.85048
461.7833, 73.92742
462.2654, 74.20423
462.7475, 74.58719
463.2296, 76.13578
463.7118, 77.35847
464.1939, 76.83421
464.6760, 74.44453
465.1581, 73.39849
465.6402, 75.95425
466.1223, 79.46111
466.6045, 82.02840
467.0866, 82.54524
467.5687, 83.16617
468.0508, 84.40062
468.5329, 85.78320
469.0150, 86.23626
469.4972, 85.14270
469.9793, 84.03653
470.4614, 83.29345
470.9435, 82.90327
471.4256, 83.23544
471.9077, 84.65658
472.3899, 86.07145
472.8720, 86.35336
473.3541, 85.38662
473.8362, 84.75253
474.3183, 84.78149
474.8004, 85.06560
475.2826, 84.79362
475.7647, 83.99323
476.2468, 83.05872
476.7289, 82.28926
477.2110, 81.50314
477.6931, 80.08383
478.1753, 78.02622
478.6574, 76.27808
479.1395, 75.80192
479.6216, 76.08297
480.1037, 76.42095
480.5858, 76.80473
481.0680, 76.88943
481.5501, 76.23109
482.0322, 75.11048
482.5143, 74.11649
482.9964, 73.54973
483.4786, 73.10299
483.9607, 72.71964
484.4428, 72.41739
484.9249, 71.84690
485.4070, 70.16772
485.8892, 68.68537
486.3713, 68.39058
486.8534, 71.02039
487.3355, 72.22658
487.8176, 71.03390
488.2997, 68.65053
488.7819, 67.77374
489.2640, 69.22257
489.7461, 70.29978
490.2282, 69.94456
490.7103, 68.26922
491.1924, 67.35507
491.6746, 67.33460
492.1567, 67.50019
492.6388, 67.09584
493.1209, 66.22718
493.6030, 65.98226
494.0851, 66.67634
494.5673, 67.54747
495.0494, 67.30708
495.5315, 66.24831
496.0136, 65.43850
496.4957, 65.47602
496.9778, 65.95859
497.4600, 66.53132
497.9421, 67.17651
498.4242, 67.77824
498.9063, 68.31722
499.3884, 68.75894
499.8705, 69.09136
500.3527, 69.33513
500.8348, 69.40225
501.3169, 69.13120
501.7990, 68.69834
502.2811, 68.34964
502.7632, 67.50423
503.2454, 67.42691
503.7275, 69.02561
504.2096, 72.03573
504.6917, 73.55094
505.1738, 72.79338
505.6559, 71.58493
506.1381, 70.75328
506.6202, 70.21880
507.1023, 70.54627
507.5844, 72.09341
508.0665, 73.85931
508.5486, 74.24986
509.0308, 73.22487
509.5129, 72.67900
509.9950, 73.34193
510.4771, 74.53993
510.9592, 74.68599
511.4413, 73.88337
511.9235, 73.14944
512.4056, 73.42449
512.8877, 74.06080
513.3698, 73.95818
513.8519, 72.98400
514.3340, 72.06897
514.8162, 72.23233
515.2983, 72.72187
515.7804, 72.61325
516.2625, 71.10573
516.7446, 69.62263
517.2267, 68.74834
517.7089, 68.32809
518.1910, 67.99394
518.6731, 68.01077
519.1552, 67.77904
519.6373, 66.98582
520.1194, 65.56259
520.6016, 64.35119
521.0837, 63.69827
521.5658, 62.88660
522.0479, 61.13618
522.5300, 57.81283
523.0121, 56.03896
523.4943, 56.40561
523.9764, 57.89454
524.4585, 58.84328
524.9406, 59.23371
525.4227, 59.21526
525.9048, 58.55429
526.3870, 57.65989
526.8691, 57.87770
527.3513, 59.11020
527.8334, 59.88593
528.3155, 58.65306
528.7976, 56.48607
529.2797, 54.89654
529.7618, 54.07895
530.2440, 53.73222
530.7261, 53.97429
531.2082, 54.46193
531.6903, 54.75167
532.1724, 55.05702
532.6545, 54.76878
533.1367, 53.14153
533.6188, 50.66037
534.1009, 48.99537
534.5830, 48.97466
535.0651, 49.27381
535.5472, 49.47317
536.0294, 49.53650
536.5115, 49.84756
536.9936, 50.74845
537.4757, 51.42059
537.9578, 50.95749
538.4399, 49.06434
538.9221, 47.96663
539.4042, 48.07825
539.8863, 48.73010
540.3684, 48.67216
540.8505, 47.97042
541.3326, 47.41831
541.8148, 47.41610
542.2969, 47.71565
542.7790, 48.01670
543.2611, 48.28336
543.7432, 48.24971
544.2253, 46.94246
544.7075, 45.66460
545.1896, 46.29271
545.6717, 49.61536
546.1538, 51.76989
546.6359, 49.32955
547.1180, 45.37880
547.6002, 43.22604
548.0823, 45.93395
548.5644, 47.85337
549.0465, 47.49743
549.5286, 45.60505
550.0107, 44.29854
550.4929, 43.61784
550.9750, 43.48186
551.4571, 44.04199
551.9392, 45.30595
552.4213, 46.13004
552.9034, 46.49062
553.3856, 46.50632
553.8677, 46.05003
554.3498, 45.19517
554.8319, 44.95448
555.3140, 45.56297
555.7961, 46.30038
556.2783, 45.88198
556.7604, 44.79284
557.2425, 44.46074
557.7246, 46.06483
558.2067, 47.97296
558.6888, 48.65812
559.1710, 48.31742
559.6531, 47.59127
560.1352, 46.44332
560.6173, 45.28214
561.0994, 44.29419
561.5815, 43.46902
562.0637, 43.01180
562.5458, 43.15360
563.0279, 43.55981
563.5100, 44.01249
563.9921, 44.85419
564.4742, 45.04734
564.9564, 44.05895
565.4385, 42.80994
565.9206, 43.08916
566.4027, 45.27028
566.8848, 47.10026
567.3669, 47.93272
567.8491, 47.95018
568.3312, 47.56314
568.8133, 46.78732
569.2954, 45.97296
569.7775, 45.32013
570.2596, 44.79435
570.7418, 44.29897
571.2239, 43.81799
571.7060, 43.57021
572.1881, 43.78016
572.6702, 44.28417
573.1523, 44.94130
573.6345, 45.89029
574.1166, 46.66043
574.5987, 47.08950
575.0808, 47.21736
575.5629, 47.11280
576.0450, 46.62615
576.5272, 46.07327
577.0093, 45.34970
577.4914, 44.55323
577.9735, 44.40278
578.4556, 45.21230
578.9377, 46.02193
579.4199, 46.30375
579.9020, 46.04129
580.3841, 46.07986
580.8662, 46.48069
581.3483, 46.85740
581.8304, 46.63600
582.3126, 46.04026
582.7947, 45.87027
583.2768, 46.32479
583.7589, 47.08507
584.2410, 48.02679
584.7231, 49.00729
585.2053, 49.74432
585.6874, 50.01787
586.1696, 50.10793
586.6517, 50.07444
587.1338, 49.95661
587.6159, 49.92088
588.0980, 49.42432
588.5801, 49.54018
589.0623, 51.14758
589.5444, 54.67746
590.0265, 56.68969
590.5086, 56.55129
590.9907, 55.70569
591.4728, 55.15399
591.9550, 54.89001
592.4371, 55.03469
592.9192, 55.66692
593.4013, 56.54118
593.8834, 57.37539
594.3655, 58.15873
594.8477, 58.77334
595.3298, 58.95790
595.8119, 59.23079
596.2940, 60.68380
596.7761, 62.90249
597.2582, 64.54061
597.7404, 64.19117
598.2225, 63.53779
598.7046, 63.80918
599.1867, 65.06736
599.6688, 66.31743
600.1509, 67.01224
600.6331, 67.79649
601.1152, 69.13281
601.5973, 71.49130
602.0794, 73.31051
602.5615, 74.29996
603.0436, 75.01294
603.5258, 75.91764
604.0079, 76.89439
604.4900, 78.80459
604.9721, 82.08488
605.4542, 85.89400
605.9363, 88.53333
606.4185, 90.06940
606.9006, 91.27415
607.3827, 92.10232
607.8648, 93.01855
608.3469, 94.41637
608.8290, 96.39478
609.3112, 99.43526
609.7933, 105.5123
610.2754, 111.5997
610.7575, 114.8446
611.2396, 114.3423
611.7217, 115.3893
612.2039, 120.5697
612.6860, 127.1202
613.1681, 132.9926
613.6502, 137.3048
614.1323, 142.3160
614.6144, 148.4982
615.0966, 154.9217
615.5787, 160.0923
616.0608, 163.6131
616.5429, 168.3684
617.0250, 175.3261
617.5071, 183.5637
617.9893, 191.0115
618.4714, 197.7417
618.9535, 204.0042
619.4356, 209.5345
619.9177, 215.0375
620.3998, 221.6265
620.8820, 229.2007
621.3641, 236.7166
621.8462, 243.6439
622.3283, 250.3723
622.8104, 257.2048
623.2925, 264.3655
623.7747, 271.0363
624.2568, 277.3885
624.7389, 282.9638
625.2210, 287.2984
625.7031, 289.6398
626.1852, 292.5204
626.6674, 296.5525
627.1495, 300.5874
627.6316, 302.6073
628.1137, 302.5575
628.5958, 301.8553
629.0779, 300.9176
629.5601, 299.5585
630.0422, 297.4582
630.5243, 294.6359
631.0064, 291.0794
631.4885, 286.4763
631.9706, 281.3542
632.4528, 276.1407
632.9349, 270.8900
633.4170, 265.4921
633.8991, 259.9160
634.3812, 254.1806
634.8633, 248.1745
635.3455, 241.8132
635.8276, 235.5958
636.3097, 229.2984
636.7918, 223.3652
637.2739, 218.2646
637.7560, 214.3120
638.2382, 210.0838
638.7203, 205.4797
639.2024, 200.6073
639.6845, 195.3425
640.1666, 189.7624
640.6487, 184.7619
641.1309, 180.7813
641.6130, 177.1533
642.0951, 172.8793
