##NAMES=Desautelsite
##RRUFFID=R060303
##IDEAL CHEMISTRY=Mg_6_Mn^3+^_2_CO_3_(OH)_16_&#183;4H_2_O
##LOCALITY=1.5 miles west of San Benito mountain, southern San Benito County, California, USA
##OWNER=RRUFF
##SOURCE=Michael Scott
##DESCRIPTION=A druse of orange colored thin hexagonal crystals
##STATUS=The identification of this mineral has been confirmed by single-crystal X-ray diffraction.
##URL=rruff.info/R060303
91.53320, 277.1753
92.01532, 276.5851
92.49744, 275.7069
92.97955, 278.7630
93.46167, 281.7744
93.94379, 281.3870
94.42590, 278.9783
94.90802, 275.7079
95.39014, 271.9752
95.87225, 267.5822
96.35437, 263.5915
96.83649, 260.7394
97.31860, 258.5526
97.80072, 256.5897
98.28284, 254.4266
98.76495, 251.8461
99.24707, 248.9698
99.72919, 245.2236
100.2113, 241.9243
100.6934, 239.2383
101.1755, 237.1573
101.6577, 235.7170
102.1398, 235.0367
102.6219, 235.3824
103.1040, 235.0037
103.5861, 233.4854
104.0682, 231.7513
104.5504, 230.0627
105.0325, 228.5457
105.5146, 227.4442
105.9967, 227.2040
106.4788, 228.4041
106.9609, 228.8814
107.4431, 228.1866
107.9252, 226.7808
108.4073, 225.1526
108.8894, 223.3238
109.3715, 221.6382
109.8536, 220.7158
110.3358, 220.5748
110.8179, 220.7323
111.3000, 221.1829
111.7821, 221.8625
112.2642, 222.0952
112.7463, 221.0659
113.2285, 219.8007
113.7106, 219.4328
114.1927, 220.3480
114.6748, 221.6397
115.1569, 221.9955
115.6390, 221.0401
116.1212, 220.0838
116.6033, 219.4968
117.0854, 219.1038
117.5675, 218.7834
118.0496, 218.5046
118.5317, 218.2040
119.0139, 217.5785
119.4960, 216.1114
119.9781, 214.8498
120.4602, 214.0071
120.9423, 213.4981
121.4244, 213.1737
121.9066, 212.9399
122.3887, 212.8124
122.8708, 212.5261
123.3529, 212.1090
123.8350, 211.5549
124.3171, 210.7169
124.7993, 209.6563
125.2814, 208.7136
125.7635, 208.2675
126.2456, 208.4618
126.7277, 208.4753
127.2098, 208.4224
127.6920, 208.1261
128.1741, 207.2183
128.6562, 205.5157
129.1383, 203.7535
129.6204, 203.0311
130.1025, 203.2185
130.5847, 203.3114
131.0668, 202.9993
131.5489, 202.2939
132.0310, 201.1746
132.5131, 199.2876
132.9952, 197.3454
133.4774, 195.9512
133.9595, 195.1155
134.4416, 194.5106
134.9237, 193.9979
135.4058, 193.6518
135.8879, 192.8651
136.3701, 191.0543
136.8522, 189.0670
137.3343, 187.3217
137.8164, 185.9231
138.2985, 184.8205
138.7806, 183.9767
139.2628, 183.7430
139.7449, 183.1000
140.2270, 181.7508
140.7091, 180.1161
141.1912, 178.4828
141.6733, 176.9890
142.1555, 175.6884
142.6376, 174.7999
143.1197, 175.1758
143.6018, 175.0270
144.0839, 173.8048
144.5660, 171.9692
145.0482, 170.2586
145.5303, 169.1182
146.0124, 168.4583
146.4945, 167.5730
146.9766, 166.4132
147.4587, 165.1397
147.9409, 163.8184
148.4230, 162.4429
148.9051, 160.9565
149.3872, 159.2306
149.8693, 157.3537
150.3514, 155.7457
150.8336, 154.6046
151.3157, 153.6196
151.7978, 152.4461
152.2799, 151.0256
152.7620, 149.7471
153.2441, 149.1988
153.7263, 148.9904
154.2084, 148.4254
154.6905, 147.0408
155.1726, 145.1831
155.6547, 143.6302
156.1368, 142.5562
156.6190, 141.4933
157.1011, 140.1541
157.5832, 138.6387
158.0653, 137.1204
158.5474, 135.7017
159.0295, 134.3793
159.5117, 133.1157
159.9938, 131.9188
160.4759, 130.7727
160.9580, 129.6557
161.4401, 128.5818
161.9222, 127.5981
162.4044, 126.7809
162.8865, 126.1801
163.3686, 125.4166
163.8507, 124.2965
164.3328, 123.1865
164.8149, 122.2724
165.2971, 121.5428
165.7792, 120.8831
166.2613, 120.1731
166.7434, 119.4819
167.2255, 118.4908
167.7076, 116.8387
168.1898, 115.1706
168.6719, 114.0521
169.1540, 113.5574
169.6361, 113.2065
170.1182, 112.2569
170.6003, 110.2078
171.0825, 108.8900
171.5646, 109.0940
172.0467, 109.7996
172.5288, 109.8027
173.0109, 108.7252
173.4930, 107.1286
173.9752, 105.8510
174.4573, 104.8775
174.9394, 104.0557
175.4215, 103.3796
175.9036, 102.8186
176.3857, 102.3514
176.8679, 102.0553
177.3500, 101.7020
177.8321, 100.9471
178.3142, 99.75426
178.7963, 98.59249
179.2784, 97.69443
179.7606, 97.04806
180.2427, 96.64530
180.7248, 96.70776
181.2069, 96.82594
181.6890, 96.61484
182.1711, 96.03561
182.6533, 95.37405
183.1354, 94.88981
183.6175, 94.59805
184.0996, 94.36507
184.5817, 94.15530
185.0638, 94.00449
185.5460, 94.05108
186.0281, 94.30805
186.5102, 94.46463
186.9923, 93.98533
187.4744, 92.50937
187.9565, 91.35954
188.4387, 90.91723
188.9208, 90.67976
189.4029, 90.26235
189.8850, 89.55324
190.3671, 88.77071
190.8492, 88.33819
191.3314, 88.53804
191.8135, 88.65767
192.2956, 88.65971
192.7777, 88.57052
193.2598, 88.46143
193.7419, 88.35364
194.2241, 88.14034
194.7062, 87.56401
195.1883, 86.00034
195.6704, 84.77991
196.1525, 83.96430
196.6346, 83.49886
197.1168, 83.41418
197.5989, 83.74128
198.0810, 84.28124
198.5631, 84.44468
199.0452, 83.91940
199.5273, 83.45975
200.0095, 83.12783
200.4916, 82.94469
200.9737, 82.99914
201.4558, 83.38417
201.9379, 83.92525
202.4200, 84.10644
202.9022, 83.83107
203.3843, 83.46883
203.8664, 83.12692
204.3485, 82.79394
204.8306, 82.42061
205.3127, 81.94092
205.7949, 81.46379
206.2770, 81.21956
206.7591, 81.27083
207.2412, 81.38705
207.7233, 81.53609
208.2054, 81.68364
208.6876, 81.58746
209.1697, 81.00411
209.6518, 80.22384
210.1339, 79.70430
210.6160, 79.53190
211.0981, 79.42485
211.5803, 79.03552
212.0624, 78.36216
212.5445, 78.06153
213.0266, 78.81071
213.5087, 79.77235
213.9908, 80.12646
214.4730, 79.69272
214.9551, 78.98553
215.4372, 78.54980
215.9193, 78.42303
216.4014, 78.32522
216.8836, 77.98745
217.3657, 77.76365
217.8478, 78.00974
218.3299, 78.81924
218.8120, 79.76258
219.2941, 80.23814
219.7763, 80.12593
220.2584, 79.92706
220.7405, 79.64261
221.2226, 79.36190
221.7047, 79.18803
222.1868, 79.14076
222.6690, 79.08694
223.1511, 78.76791
223.6332, 77.95385
224.1153, 77.40539
224.5974, 77.28303
225.0795, 77.34843
225.5617, 77.43948
226.0438, 77.50920
226.5259, 77.61288
227.0080, 77.88107
227.4901, 78.56465
227.9722, 78.93237
228.4544, 78.78517
228.9365, 78.47099
229.4186, 78.24990
229.9007, 78.19736
230.3828, 78.22141
230.8649, 78.15127
231.3471, 77.78359
231.8292, 77.66706
232.3113, 78.12905
232.7934, 78.63100
233.2755, 78.61217
233.7576, 77.95444
234.2398, 77.11979
234.7219, 76.89677
235.2040, 77.85039
235.6861, 78.43161
236.1682, 78.37972
236.6503, 78.10636
237.1325, 77.98121
237.6146, 78.10123
238.0967, 78.31657
238.5788, 78.40711
239.0609, 78.31812
239.5430, 78.21216
240.0252, 78.03758
240.5073, 77.87564
240.9894, 77.84278
241.4715, 77.96558
241.9536, 78.10213
242.4357, 78.00475
242.9179, 77.54768
243.4000, 77.44991
243.8821, 78.19810
244.3642, 79.14590
244.8463, 79.55853
245.3284, 79.27921
245.8106, 78.69556
246.2927, 78.15532
246.7748, 77.64457
247.2569, 77.42854
247.7390, 77.75954
248.2211, 78.31480
248.7033, 78.73971
249.1854, 78.98534
249.6675, 79.07979
250.1496, 79.01252
250.6317, 78.80070
251.1138, 78.52482
251.5960, 77.87818
252.0781, 77.30954
252.5602, 77.61621
253.0423, 79.02921
253.5244, 80.38663
254.0065, 80.45336
254.4887, 79.62553
254.9708, 78.92787
255.4529, 78.64221
255.9350, 78.61720
256.4171, 78.69102
256.8992, 78.88477
257.3813, 79.05809
257.8635, 79.02074
258.3456, 78.89958
258.8277, 78.92651
259.3098, 79.28669
259.7919, 79.75826
260.2740, 80.03039
260.7562, 80.08395
261.2383, 80.01835
261.7204, 79.73399
262.2025, 79.40005
262.6846, 79.22456
263.1667, 79.25426
263.6489, 79.48271
264.1310, 80.03566
264.6131, 81.05694
265.0952, 81.77412
265.5773, 81.55997
266.0594, 80.97069
266.5416, 80.46626
267.0237, 80.14350
267.5058, 80.01302
267.9879, 80.16216
268.4700, 80.67311
268.9521, 81.08401
269.4343, 81.21666
269.9164, 81.19428
270.3985, 81.02839
270.8806, 80.70223
271.3627, 80.42531
271.8448, 80.53052
272.3270, 81.12021
272.8091, 81.55807
273.2912, 81.62582
273.7733, 81.52847
274.2554, 81.33617
274.7375, 81.06747
275.2197, 80.79795
275.7018, 80.68806
276.1839, 80.80964
276.6660, 80.62247
277.1481, 79.51259
277.6302, 78.46300
278.1124, 78.03091
278.5945, 78.21957
279.0766, 78.61589
279.5587, 78.89419
280.0408, 79.07211
280.5229, 78.98137
281.0051, 78.09993
281.4872, 77.38877
281.9693, 77.45384
282.4514, 78.11549
282.9335, 78.69582
283.4156, 78.57408
283.8978, 77.73421
284.3799, 76.95427
284.8620, 76.22099
285.3441, 75.57199
285.8262, 75.00686
286.3083, 74.53438
286.7905, 74.17809
287.2726, 73.98051
287.7547, 73.92036
288.2368, 73.79586
288.7189, 73.52528
289.2010, 73.28519
289.6832, 73.21368
290.1653, 73.18687
290.6474, 72.99841
291.1295, 72.50864
291.6116, 71.80883
292.0938, 71.27315
292.5759, 70.99513
293.0580, 70.76787
293.5401, 70.57274
294.0222, 70.39188
294.5043, 70.23438
294.9865, 70.10848
295.4686, 69.95140
295.9507, 69.55931
296.4328, 68.57561
296.9149, 68.02095
297.3970, 68.43941
297.8792, 69.03909
298.3613, 69.09355
298.8434, 68.39604
299.3255, 67.33089
299.8076, 66.50282
300.2897, 65.92004
300.7719, 65.58492
301.2540, 65.69719
301.7361, 65.86762
302.2182, 65.87617
302.7003, 65.67465
303.1824, 65.32108
303.6646, 64.83560
304.1467, 64.12103
304.6288, 63.64176
305.1109, 63.60564
305.5930, 63.60506
306.0751, 63.47432
306.5573, 63.20499
307.0394, 62.86149
307.5215, 62.49373
308.0036, 62.09699
308.4857, 61.71367
308.9678, 61.17693
309.4500, 60.82157
309.9321, 60.97765
310.4142, 61.38879
310.8963, 61.51664
311.3784, 60.94769
311.8605, 59.80237
312.3427, 59.03755
312.8248, 58.78822
313.3069, 58.80984
313.7890, 59.37210
314.2711, 60.07886
314.7532, 60.42610
315.2354, 60.15690
315.7175, 59.43628
316.1996, 58.70823
316.6817, 57.77058
317.1638, 57.17399
317.6459, 57.26499
318.1281, 57.52677
318.6102, 57.41719
319.0923, 56.78908
319.5744, 56.03086
320.0565, 55.84919
320.5386, 56.65499
321.0208, 57.08445
321.5029, 56.81822
321.9850, 56.42142
322.4671, 56.30433
322.9492, 56.47478
323.4313, 56.59764
323.9135, 56.24310
324.3956, 55.26095
324.8777, 54.56752
325.3598, 54.41695
325.8419, 54.31793
326.3240, 54.08485
326.8062, 53.73953
327.2883, 53.41128
327.7704, 53.23421
328.2525, 53.18537
328.7346, 52.83357
329.2167, 51.61133
329.6989, 50.73406
330.1810, 50.72636
330.6631, 51.19219
331.1452, 51.51918
331.6273, 51.35907
332.1094, 50.91235
332.5916, 50.85075
333.0737, 51.61422
333.5558, 51.99628
334.0379, 51.50388
334.5200, 50.74542
335.0021, 50.31521
335.4843, 50.39983
335.9664, 50.70642
336.4485, 50.76626
336.9306, 50.50097
337.4127, 50.21807
337.8948, 49.70675
338.3770, 49.36612
338.8591, 49.62776
339.3412, 50.42220
339.8233, 51.14602
340.3055, 51.08036
340.7876, 50.11718
341.2697, 49.46423
341.7518, 49.41761
342.2339, 49.41579
342.7160, 49.21777
343.1982, 48.88673
343.6803, 48.60736
344.1624, 48.51987
344.6445, 48.58216
345.1266, 48.58204
345.6087, 48.48936
346.0909, 48.37970
346.5730, 48.27168
347.0551, 48.16667
347.5372, 48.06941
348.0193, 47.98283
348.5014, 47.89778
348.9836, 47.81312
349.4657, 47.75719
349.9478, 47.60616
350.4299, 47.23751
350.9120, 46.81578
351.3941, 46.42640
351.8763, 46.08986
352.3584, 45.85471
352.8405, 45.76772
353.3226, 45.82888
353.8047, 46.05690
354.2868, 46.78368
354.7690, 47.32129
355.2511, 46.95884
355.7332, 45.93790
356.2153, 45.29057
356.6974, 46.14473
357.1795, 47.98673
357.6617, 48.68730
358.1438, 47.73748
358.6259, 46.64148
359.1080, 46.27528
359.5901, 46.32906
360.0722, 46.32188
360.5544, 46.06185
361.0365, 45.69218
361.5186, 45.38172
362.0007, 45.12658
362.4828, 44.97270
362.9649, 44.89862
363.4471, 44.97297
363.9292, 45.36687
364.4113, 46.20262
364.8934, 46.88393
365.3755, 46.85873
365.8576, 46.23941
366.3398, 45.63030
366.8219, 45.13249
367.3040, 44.73897
367.7861, 44.40466
368.2682, 44.13116
368.7503, 44.02482
369.2325, 44.24982
369.7146, 44.63353
370.1967, 44.89463
370.6788, 45.00842
371.1609, 45.00324
371.6430, 44.83701
372.1252, 44.56091
372.6073, 44.35126
373.0894, 44.28408
373.5715, 44.24889
374.0536, 44.09066
374.5357, 43.85208
375.0179, 43.82976
375.5000, 44.27537
375.9821, 44.92642
376.4642, 45.15763
376.9463, 44.85825
377.4284, 44.46754
377.9106, 44.05809
378.3927, 43.68166
378.8748, 43.41642
379.3569, 43.27983
379.8390, 43.29107
380.3211, 43.55381
380.8033, 44.16011
381.2854, 44.43671
381.7675, 44.12306
382.2496, 43.61461
382.7317, 43.08532
383.2138, 42.60738
383.6960, 42.42140
384.1781, 42.76811
384.6602, 43.59680
385.1423, 44.15886
385.6244, 44.41868
386.1065, 44.51055
386.5887, 44.31451
387.0708, 44.00770
387.5529, 43.93885
388.0350, 44.27419
388.5171, 44.76345
388.9992, 44.84687
389.4814, 44.02019
389.9635, 43.55768
390.4456, 43.79077
390.9277, 44.16278
391.4098, 44.18378
391.8919, 43.81460
392.3741, 43.38608
392.8562, 43.25635
393.3383, 43.47998
393.8204, 43.58216
394.3025, 43.39391
394.7846, 43.26810
395.2668, 43.35864
395.7489, 43.59655
396.2310, 43.83108
396.7131, 43.96917
397.1952, 44.06324
397.6773, 44.31416
398.1595, 44.91541
398.6416, 45.34909
399.1237, 45.59299
399.6058, 45.64050
400.0879, 45.34536
400.5700, 44.72869
401.0522, 44.18877
401.5343, 44.31897
402.0164, 45.28382
402.4985, 45.93341
402.9806, 45.95145
403.4627, 45.89479
403.9449, 46.05957
404.4270, 46.34961
404.9091, 46.47273
405.3912, 46.16622
405.8733, 45.60227
406.3554, 45.33181
406.8376, 45.43398
407.3197, 45.63177
407.8018, 45.82161
408.2839, 46.04494
408.7660, 46.39454
409.2481, 46.93241
409.7303, 47.39653
410.2124, 47.43615
410.6945, 47.08577
411.1766, 46.89190
411.6587, 47.01510
412.1408, 47.27777
412.6230, 47.48628
413.1051, 47.65713
413.5872, 47.92691
414.0693, 48.53100
414.5514, 49.20400
415.0335, 49.43456
415.5157, 49.15258
415.9978, 48.88911
416.4799, 48.95521
416.9620, 49.31844
417.4441, 49.82097
417.9262, 50.61696
418.4084, 51.34000
418.8905, 51.81882
419.3726, 52.06467
419.8547, 52.04839
420.3368, 51.71263
420.8189, 51.26814
421.3011, 51.04058
421.7832, 51.03751
422.2653, 51.20100
422.7474, 51.63578
423.2295, 52.16137
423.7116, 52.65900
424.1938, 53.10431
424.6759, 53.48199
425.1580, 53.77845
425.6401, 53.99558
426.1222, 54.17583
426.6043, 54.28048
427.0865, 54.39866
427.5686, 54.51763
428.0507, 54.67431
428.5328, 54.95979
429.0149, 55.40396
429.4970, 55.86981
429.9792, 56.10873
430.4613, 55.99105
430.9434, 55.92314
431.4255, 55.96951
431.9076, 56.00056
432.3897, 55.79056
432.8719, 55.46853
433.3540, 55.47678
433.8361, 56.27193
434.3182, 57.67592
434.8003, 58.36073
435.2824, 57.81246
435.7646, 57.30189
436.2467, 57.08561
436.7288, 57.09084
437.2109, 57.29039
437.6930, 57.67837
438.1751, 58.10007
438.6573, 58.36295
439.1394, 58.45795
439.6215, 58.50854
440.1036, 58.49612
440.5857, 58.47959
441.0678, 58.41166
441.5500, 58.35015
442.0321, 58.50172
442.5142, 59.12394
442.9963, 59.96449
443.4784, 60.60390
443.9605, 61.04344
444.4427, 61.24915
444.9248, 60.97213
445.4069, 60.56519
445.8890, 60.71992
446.3711, 61.75371
446.8532, 62.54062
447.3354, 62.12751
447.8175, 61.05631
448.2996, 60.53271
448.7817, 60.85502
449.2638, 61.55532
449.7459, 62.24516
450.2281, 62.92505
450.7102, 63.26199
451.1923, 62.84160
451.6744, 62.43162
452.1565, 62.70374
452.6386, 63.41872
453.1208, 63.74150
453.6029, 63.18288
454.0850, 62.13937
454.5671, 61.71403
455.0492, 62.60411
455.5313, 63.18461
456.0135, 63.32452
456.4956, 63.22486
456.9777, 63.00945
457.4598, 62.71660
457.9419, 62.35654
458.4240, 61.91768
458.9062, 61.39832
459.3883, 61.00578
459.8704, 60.79375
460.3525, 60.65976
460.8346, 60.70227
461.3167, 60.76583
461.7989, 60.64360
462.2810, 60.25409
462.7631, 59.72995
463.2452, 59.26884
463.7273, 58.88232
464.2094, 58.48956
464.6916, 58.09765
465.1737, 57.67772
465.6558, 57.13806
466.1379, 56.54033
466.6200, 56.09484
467.1021, 56.04345
467.5843, 56.16161
468.0664, 55.96564
468.5485, 55.41078
469.0306, 54.85028
469.5127, 54.36096
469.9948, 54.01601
470.4770, 53.95173
470.9591, 54.25393
471.4412, 54.53042
471.9233, 54.59531
472.4054, 54.50031
472.8875, 54.31012
473.3697, 54.03064
473.8518, 53.74137
474.3339, 53.49821
474.8160, 53.30852
475.2981, 53.20995
475.7802, 53.23005
476.2624, 53.30885
476.7445, 53.53024
477.2266, 53.77377
477.7087, 53.74830
478.1908, 53.33208
478.6729, 52.81567
479.1551, 52.73262
479.6372, 53.29076
480.1193, 53.81798
480.6014, 54.49787
481.0835, 54.99137
481.5656, 54.99916
482.0478, 54.64684
482.5299, 54.27178
483.0120, 54.07925
483.4941, 54.06390
483.9762, 54.23478
484.4583, 54.70515
484.9405, 55.13284
485.4226, 55.44775
485.9047, 55.70246
486.3868, 55.91632
486.8689, 56.09923
487.3510, 56.28281
487.8332, 56.46954
488.3153, 56.67234
488.7974, 56.98368
489.2795, 57.45882
489.7616, 57.91256
490.2437, 58.15253
490.7259, 58.31646
491.2080, 58.63606
491.6901, 59.21153
492.1722, 59.82542
492.6543, 60.38966
493.1364, 60.86938
493.6186, 61.09168
494.1007, 60.95337
494.5828, 60.81834
495.0649, 61.14038
495.5470, 61.97442
496.0291, 62.70006
496.5113, 63.20560
496.9934, 63.68731
497.4755, 64.27605
497.9576, 64.93397
498.4397, 65.46088
498.9218, 65.73041
499.4040, 66.06934
499.8861, 67.28365
500.3682, 70.43159
500.8503, 72.46437
501.3324, 72.65620
501.8145, 72.49747
502.2967, 72.79312
502.7788, 73.57032
503.2609, 74.50364
503.7430, 75.34061
504.2251, 76.19734
504.7072, 77.59581
505.1894, 79.89706
505.6715, 81.92382
506.1536, 83.12369
506.6357, 84.10777
507.1178, 85.31817
507.5999, 86.81330
508.0821, 88.41193
508.5642, 89.91656
509.0463, 91.41981
509.5284, 93.27010
510.0105, 95.55732
510.4926, 97.85766
510.9748, 99.79030
511.4569, 101.5771
511.9390, 103.7904
512.4211, 106.8160
512.9032, 109.5853
513.3853, 111.1713
513.8674, 112.2522
514.3495, 114.0303
514.8317, 116.7891
515.3138, 119.9024
515.7959, 122.7562
516.2780, 125.3370
516.7601, 127.9876
517.2422, 130.7672
517.7244, 133.5508
518.2065, 136.3069
518.6886, 139.0391
519.1707, 141.7077
519.6528, 144.3054
520.1349, 146.9869
520.6171, 150.0588
521.0992, 153.7366
521.5813, 156.9299
522.0634, 159.3974
522.5455, 161.5846
523.0276, 163.3313
523.5098, 164.9618
523.9919, 167.0907
524.4740, 170.1165
524.9561, 173.4134
525.4382, 176.0243
525.9203, 177.9181
526.4025, 180.1039
526.8846, 183.1441
527.3667, 186.0735
527.8488, 187.6737
528.3309, 188.1905
528.8130, 189.3039
529.2952, 192.4309
529.7773, 195.6502
530.2594, 196.9457
530.7415, 196.6580
531.2236, 196.5678
531.7057, 197.5344
532.1879, 198.8981
532.6700, 199.3758
533.1521, 198.5385
533.6342, 197.7321
534.1163, 196.9528
534.5984, 196.2361
535.0806, 195.7947
535.5627, 195.4501
536.0448, 194.7317
536.5269, 193.3397
537.0090, 191.4318
537.4911, 189.5230
537.9733, 187.7302
538.4554, 185.6284
538.9375, 183.0604
539.4196, 180.2761
539.9017, 177.2917
540.3839, 174.1838
540.8660, 171.2075
541.3481, 168.6323
541.8302, 166.2368
542.3123, 163.4572
542.7944, 160.2419
543.2766, 157.1738
543.7587, 154.6965
544.2408, 152.3098
544.7229, 149.2214
545.2050, 145.3343
545.6871, 141.6552
546.1693, 138.5051
546.6514, 135.7648
547.1335, 133.4353
547.6156, 131.4422
548.0977, 129.3591
548.5798, 126.9045
549.0620, 124.2082
549.5441, 121.7301
550.0262, 119.7269
550.5083, 117.6071
550.9904, 115.0792
551.4725, 112.6491
551.9547, 110.8103
552.4368, 109.4695
552.9189, 108.1061
553.4010, 106.3266
553.8831, 104.2470
554.3652, 102.3695
554.8474, 100.7877
555.3295, 99.19546
555.8116, 97.54273
556.2937, 95.83121
556.7758, 93.95762
557.2579, 91.96452
557.7401, 90.20840
558.2222, 88.99168
558.7043, 88.11502
559.1864, 87.31831
559.6685, 86.59934
560.1506, 85.60967
560.6328, 84.08170
561.1149, 82.28376
561.5970, 80.75853
562.0791, 79.49979
562.5612, 78.46867
563.0433, 77.89913
563.5255, 77.37748
564.0076, 76.59464
564.4897, 75.52695
564.9718, 74.19498
565.4539, 72.57620
565.9360, 70.81787
566.4182, 69.42912
566.9003, 68.47610
567.3824, 67.77341
567.8645, 67.71443
568.3466, 67.52745
568.8287, 66.56605
569.3109, 64.99449
569.7930, 63.53736
570.2751, 62.65131
570.7572, 62.14111
571.2393, 61.68267
571.7214, 61.29966
572.2036, 60.68921
572.6857, 59.63301
573.1678, 58.44716
573.6499, 57.48417
574.1320, 56.73991
574.6141, 56.07851
575.0963, 55.48262
575.5784, 54.94280
576.0605, 54.55846
576.5426, 54.23932
577.0247, 53.61546
577.5068, 52.48167
577.9890, 51.21821
578.4711, 50.57922
578.9532, 50.98561
579.4353, 50.94477
579.9174, 50.17072
580.3995, 49.29549
580.8817, 48.50976
581.3638, 47.87061
581.8459, 47.46528
582.3280, 47.35239
582.8101, 47.34272
583.2922, 47.09505
583.7744, 46.58623
584.2565, 46.21642
584.7386, 46.22607
585.2207, 46.10538
585.7029, 45.30225
586.1850, 44.09657
586.6671, 43.21073
587.1492, 42.89375
587.6313, 42.83568
