##NAMES=Descloizite
##RRUFFID=R050509
##IDEAL CHEMISTRY=Pb^2+^Zn^2+^V^5+^O_4_(OH)
##LOCALITY=Grootfontein district, Namibia
##OWNER=RRUFF
##SOURCE=University of Arizona Mineral Museum
##DESCRIPTION=Group of brown tabular crystals
##STATUS=The identification of this mineral has been confirmed by X-ray diffraction and chemical analysis
##URL=rruff.info/R050509
##MEASURED CHEMISTRY=Pb_1.00_(Zn_0.85_Cu_0.15_)_Σ=1_((V_0.97_As_0.03_)_Σ=1_O_4_)(OH) ; (OH) estimated by difference and stoichiometry
92.37695, 1255.745
92.85907, 1234.571
93.34119, 1238.629
93.82330, 1257.695
94.30542, 1275.382
94.78754, 1287.651
95.26965, 1297.148
95.75177, 1306.187
96.23389, 1315.749
96.71600, 1326.248
97.19812, 1339.119
97.68024, 1355.145
98.16235, 1372.661
98.64447, 1389.273
99.12659, 1404.388
99.60870, 1417.394
100.0908, 1431.572
100.5729, 1447.963
101.0551, 1466.940
101.5372, 1488.603
102.0193, 1512.659
102.5014, 1538.000
102.9835, 1569.190
103.4656, 1597.322
103.9478, 1624.319
104.4299, 1647.330
104.9120, 1661.930
105.3941, 1665.101
105.8762, 1656.599
106.3583, 1631.978
106.8405, 1589.969
107.3226, 1536.534
107.8047, 1471.793
108.2868, 1396.899
108.7689, 1317.573
109.2510, 1238.927
109.7332, 1160.578
110.2153, 1088.021
110.6974, 1022.016
111.1795, 962.2368
111.6616, 907.8856
112.1437, 859.4223
112.6259, 816.6138
113.1080, 778.9442
113.5901, 746.2059
114.0722, 716.6783
114.5543, 689.4830
115.0364, 664.5630
115.5185, 643.4730
116.0007, 629.2502
116.4828, 617.2333
116.9649, 604.5735
117.4470, 590.9172
117.9291, 577.2133
118.4112, 564.4825
118.8934, 552.5812
119.3755, 542.3196
119.8576, 534.0229
120.3397, 526.8626
120.8218, 520.3860
121.3039, 514.3907
121.7861, 508.7085
122.2682, 502.7976
122.7503, 496.2382
123.2324, 489.9130
123.7145, 483.8634
124.1966, 478.0764
124.6788, 472.4613
125.1609, 466.8393
125.6430, 461.3622
126.1251, 457.3889
126.6072, 455.6560
127.0893, 454.2620
127.5715, 452.3838
128.0536, 450.1093
128.5357, 448.1211
129.0178, 447.2255
129.4999, 447.0695
129.9821, 445.6720
130.4642, 441.5727
130.9463, 436.9187
131.4284, 434.0746
131.9105, 433.4066
132.3926, 433.2232
132.8748, 432.3984
133.3569, 431.1328
133.8390, 429.7223
134.3211, 428.2536
134.8032, 426.7355
135.2853, 425.1246
135.7674, 423.1683
136.2496, 421.5055
136.7317, 420.5975
137.2138, 420.2286
137.6959, 419.8665
138.1780, 419.0945
138.6601, 417.8819
139.1423, 416.5910
139.6244, 415.7031
140.1065, 414.3266
140.5886, 411.7130
141.0707, 408.0778
141.5528, 404.3626
142.0350, 401.7686
142.5171, 401.0062
142.9992, 399.5258
143.4813, 396.7587
143.9634, 393.8100
144.4455, 391.1958
144.9277, 389.1179
145.4098, 387.6948
145.8919, 387.2322
146.3740, 388.8802
146.8561, 389.3141
147.3382, 387.8361
147.8204, 385.2560
148.3025, 382.4487
148.7846, 379.6618
149.2667, 376.9667
149.7488, 374.4557
150.2309, 371.9887
150.7131, 369.9240
151.1952, 368.5727
151.6773, 367.7677
152.1594, 367.0478
152.6415, 366.3878
153.1236, 365.5593
153.6058, 364.2236
154.0879, 362.2295
154.5700, 360.2121
155.0521, 358.9409
155.5342, 358.4824
156.0163, 357.4137
156.4985, 354.6524
156.9806, 351.2942
157.4627, 348.1085
157.9448, 345.2480
158.4269, 342.7055
158.9090, 340.4829
159.3912, 338.6563
159.8733, 336.9990
160.3554, 335.9728
160.8375, 334.8391
161.3196, 332.7140
161.8017, 329.1456
162.2839, 324.8032
162.7660, 321.7756
163.2481, 321.5031
163.7302, 320.6683
164.2123, 318.3702
164.6944, 315.3795
165.1766, 312.6512
165.6587, 310.7158
166.1408, 309.4768
166.6229, 308.2574
167.1050, 307.0685
167.5871, 305.8886
168.0693, 304.6724
168.5514, 303.4600
169.0335, 302.3204
169.5156, 301.3032
169.9977, 300.4005
170.4798, 299.5661
170.9620, 298.7276
171.4441, 298.0072
171.9262, 297.4222
172.4083, 296.9904
172.8904, 296.7941
173.3725, 296.9838
173.8547, 297.5016
174.3368, 297.7523
174.8189, 297.5873
175.3010, 297.2623
175.7831, 296.8434
176.2652, 296.3209
176.7474, 296.0967
177.2295, 296.7852
177.7116, 298.0093
178.1937, 298.8218
178.6758, 298.6434
179.1579, 298.0792
179.6401, 298.0304
180.1222, 298.5986
180.6043, 299.4000
181.0864, 300.6554
181.5685, 301.9418
182.0506, 302.4544
182.5328, 301.5016
183.0149, 299.5463
183.4970, 298.0251
183.9791, 297.1536
184.4612, 296.4323
184.9433, 295.7044
185.4255, 294.9468
185.9076, 294.1077
186.3897, 293.1180
186.8718, 292.0015
187.3539, 291.0596
187.8360, 290.8102
188.3182, 290.1632
188.8003, 288.9032
189.2824, 287.0143
189.7645, 284.4096
190.2466, 280.8206
190.7287, 276.1346
191.2109, 272.9236
191.6930, 272.7028
192.1751, 272.4643
192.6572, 271.3627
193.1393, 269.4261
193.6214, 266.9641
194.1036, 264.1598
194.5857, 260.8505
195.0678, 258.5190
195.5499, 258.1146
196.0320, 257.5958
196.5141, 255.8736
196.9963, 253.0536
197.4784, 249.9817
197.9605, 247.4712
198.4426, 245.6382
198.9247, 243.4205
199.4068, 240.2297
199.8890, 237.1343
200.3711, 234.9262
200.8532, 233.6291
201.3353, 232.6326
201.8174, 231.4100
202.2995, 229.9389
202.7817, 228.4668
203.2638, 226.9676
203.7459, 225.4889
204.2280, 224.0552
204.7101, 222.6608
205.1922, 221.3661
205.6744, 220.2935
206.1565, 219.3874
206.6386, 218.3915
207.1207, 216.9795
207.6028, 215.5562
208.0849, 214.6967
208.5671, 214.4975
209.0492, 214.6427
209.5313, 215.3328
210.0134, 216.2197
210.4955, 216.4404
210.9776, 214.9894
211.4598, 212.7376
211.9419, 211.8078
212.4240, 212.8924
212.9061, 213.9036
213.3882, 213.3349
213.8703, 211.8346
214.3525, 210.5789
214.8346, 210.3362
215.3167, 210.7996
215.7988, 210.7892
216.2809, 209.8247
216.7630, 209.1396
217.2451, 209.6342
217.7273, 210.6970
218.2094, 211.1827
218.6915, 210.0780
219.1736, 207.8132
219.6557, 207.1223
220.1378, 209.8302
220.6200, 211.9160
221.1021, 211.7247
221.5842, 210.1700
222.0663, 208.7556
222.5484, 208.4661
223.0305, 209.2039
223.5127, 210.0362
223.9948, 211.1164
224.4769, 212.1270
224.9590, 213.0402
225.4411, 213.8384
225.9232, 214.5080
226.4054, 215.0476
226.8875, 215.4522
227.3696, 215.6801
227.8517, 215.5055
228.3338, 215.3849
228.8159, 215.4600
229.2981, 215.6559
229.7802, 215.8124
230.2623, 215.8143
230.7444, 215.6909
231.2265, 215.7780
231.7086, 215.7117
232.1908, 216.2178
232.6729, 218.0179
233.1550, 220.5175
233.6371, 222.6206
234.1192, 223.6648
234.6013, 223.7422
235.0835, 223.4651
235.5656, 222.0118
236.0477, 221.1522
236.5298, 221.8392
237.0119, 223.5291
237.4940, 224.9651
237.9762, 225.3645
238.4583, 225.0555
238.9404, 225.6128
239.4225, 228.2168
239.9046, 230.2175
240.3867, 230.1989
240.8689, 228.8421
241.3510, 227.7933
241.8331, 227.8452
242.3152, 228.7835
242.7973, 229.9185
243.2794, 231.2868
243.7616, 232.7463
244.2437, 234.3609
244.7258, 236.0353
245.2079, 237.4957
245.6900, 238.6522
246.1721, 239.4791
246.6543, 239.8667
247.1364, 239.5244
247.6185, 239.5426
248.1006, 240.7417
248.5827, 242.8164
249.0648, 244.6588
249.5470, 245.7987
250.0291, 246.6704
250.5112, 247.9736
250.9933, 249.7882
251.4754, 251.5252
251.9576, 252.7091
252.4397, 253.4924
252.9218, 254.6634
253.4039, 256.7392
253.8860, 258.8493
254.3681, 259.8431
254.8503, 259.7244
255.3324, 259.9016
255.8145, 261.2354
256.2966, 263.6036
256.7787, 266.4807
257.2608, 270.1669
257.7430, 273.8365
258.2251, 276.6953
258.7072, 278.8580
259.1893, 281.0869
259.6714, 284.0393
260.1535, 287.5382
260.6357, 290.4868
261.1178, 291.9629
261.5999, 294.0389
262.0820, 298.1725
262.5641, 303.9190
263.0462, 309.8954
263.5284, 315.3571
264.0105, 320.3291
264.4926, 325.0299
264.9747, 329.0453
265.4568, 333.3696
265.9389, 338.1425
266.4211, 343.5238
266.9032, 349.8684
267.3853, 357.8185
267.8674, 366.8622
268.3495, 374.6975
268.8316, 380.1730
269.3138, 386.2076
269.7959, 394.2391
270.2780, 403.3642
270.7601, 412.1675
271.2422, 419.7323
271.7243, 426.6338
272.2065, 434.7309
272.6886, 444.5394
273.1707, 454.6952
273.6528, 464.6057
274.1349, 474.6800
274.6170, 485.3648
275.0992, 496.9660
275.5813, 509.0824
276.0634, 520.5200
276.5455, 530.5861
277.0276, 541.3684
277.5097, 553.5985
277.9919, 566.4042
278.4740, 579.0331
278.9561, 591.2703
279.4382, 603.1991
279.9203, 615.1129
280.4024, 627.0261
280.8846, 638.7750
281.3667, 649.8059
281.8488, 661.0105
282.3309, 673.1505
282.8130, 686.3603
283.2951, 699.9933
283.7773, 713.3002
284.2594, 726.7924
284.7415, 738.5440
285.2236, 746.9591
285.7057, 755.0720
286.1878, 764.6837
286.6700, 775.9537
287.1521, 787.9933
287.6342, 800.0938
288.1163, 812.5802
288.5984, 823.4307
289.0805, 831.6363
289.5627, 839.2171
290.0448, 847.2536
290.5269, 855.5784
291.0090, 863.1628
291.4911, 868.9194
291.9732, 872.6321
292.4554, 877.1280
292.9375, 883.8046
293.4196, 889.8751
293.9017, 894.4456
294.3838, 897.6812
294.8659, 900.1710
295.3481, 902.3690
295.8302, 904.2147
296.3123, 904.7435
296.7944, 903.8914
297.2765, 901.6710
297.7586, 897.7982
298.2408, 892.5938
298.7229, 886.4307
299.2050, 879.5157
299.6871, 871.9608
300.1692, 864.2198
300.6513, 856.3580
301.1335, 848.2428
301.6156, 839.6080
302.0977, 830.8922
302.5798, 822.4647
303.0619, 814.5081
303.5440, 807.0246
304.0262, 799.8411
304.5083, 792.1454
304.9904, 786.2644
305.4725, 783.2922
305.9546, 781.3334
306.4367, 778.4668
306.9189, 774.4186
307.4010, 770.7736
307.8831, 769.7994
308.3652, 772.3098
308.8473, 775.6453
309.3294, 780.2076
309.8116, 785.1310
310.2937, 789.7281
310.7758, 794.0696
311.2579, 798.8145
311.7400, 804.6534
312.2221, 811.8466
312.7043, 818.6059
313.1864, 824.0732
313.6685, 830.0301
314.1506, 837.4122
314.6327, 845.9183
315.1148, 854.6685
315.5970, 862.9552
316.0791, 870.8693
316.5612, 879.6408
317.0433, 890.1644
317.5254, 900.6252
318.0075, 910.9522
318.4897, 920.8939
318.9718, 930.0695
319.4539, 938.2677
319.9360, 945.7032
320.4181, 953.1353
320.9002, 959.9984
321.3824, 967.5365
321.8645, 976.9483
322.3466, 986.4814
322.8287, 994.0842
323.3108, 999.1303
323.7929, 1003.260
324.2751, 1009.337
324.7572, 1019.131
325.2393, 1027.518
325.7214, 1033.442
326.2035, 1038.995
326.6856, 1045.874
327.1678, 1054.123
327.6499, 1062.415
328.1320, 1069.203
328.6141, 1073.972
329.0962, 1079.874
329.5783, 1087.506
330.0605, 1095.537
330.5426, 1103.689
331.0247, 1111.807
331.5068, 1119.685
331.9889, 1127.232
332.4710, 1134.411
332.9532, 1140.617
333.4353, 1144.565
333.9174, 1148.944
334.3995, 1155.190
334.8816, 1161.948
335.3637, 1167.233
335.8459, 1169.997
336.3280, 1170.904
336.8101, 1171.927
337.2922, 1174.580
337.7743, 1174.897
338.2564, 1172.016
338.7386, 1167.229
339.2206, 1161.665
339.7028, 1155.622
340.1849, 1148.726
340.6670, 1140.435
341.1491, 1130.799
341.6312, 1119.556
342.1133, 1105.701
342.5955, 1091.364
343.0776, 1077.455
343.5597, 1064.145
344.0418, 1051.369
344.5239, 1039.285
345.0060, 1028.006
345.4882, 1015.459
345.9703, 999.6255
346.4524, 984.4293
346.9345, 971.1151
347.4166, 959.1848
347.8987, 947.5938
348.3809, 935.7618
348.8630, 923.8063
349.3451, 912.5604
349.8272, 902.9138
350.3093, 892.3673
350.7914, 879.8256
351.2736, 866.5516
351.7557, 853.7766
352.2378, 841.8935
352.7199, 830.7501
353.2020, 820.4344
353.6841, 811.5765
354.1663, 801.5876
354.6484, 789.6899
355.1305, 776.9830
355.6126, 764.2232
356.0947, 751.3998
356.5768, 737.8859
357.0590, 723.3404
357.5411, 707.9012
358.0232, 690.2760
358.5053, 669.2595
358.9874, 647.2368
359.4695, 625.1592
359.9517, 602.9594
360.4338, 580.3333
360.9159, 556.6198
361.3980, 532.6932
361.8801, 510.8458
362.3622, 491.3042
362.8444, 473.7120
363.3265, 458.1903
363.8086, 444.2227
364.2907, 431.3387
364.7728, 419.3239
365.2549, 408.4172
365.7371, 399.1213
366.2192, 391.5319
366.7013, 384.3087
367.1834, 376.8878
367.6655, 370.0079
368.1476, 364.2030
368.6298, 359.4664
369.1119, 355.4964
369.5940, 352.4343
370.0761, 350.0619
370.5582, 347.2110
371.0403, 343.2579
371.5225, 339.8203
372.0046, 338.3048
372.4867, 338.0952
372.9688, 337.8122
373.4509, 336.9629
373.9330, 335.7435
374.4152, 334.2384
374.8973, 332.3624
375.3794, 330.9743
375.8615, 330.6886
376.3436, 331.1071
376.8257, 331.7007
377.3079, 332.6161
377.7900, 333.2167
378.2721, 332.7086
378.7542, 331.3918
379.2363, 330.6519
379.7184, 331.0698
380.2006, 331.8686
380.6827, 332.1322
381.1648, 331.8975
381.6469, 331.3044
382.1290, 330.4818
382.6111, 329.2869
383.0933, 327.4729
383.5754, 324.9922
384.0575, 322.1557
384.5396, 319.1699
385.0217, 316.0011
385.5038, 312.4834
385.9860, 308.8569
386.4681, 304.6785
386.9502, 299.5250
387.4323, 293.5712
387.9144, 287.2554
388.3965, 280.7108
388.8787, 274.1018
389.3608, 267.8865
389.8429, 262.0184
390.3250, 256.4550
390.8071, 251.5053
391.2892, 246.7162
391.7714, 241.3957
392.2535, 235.4252
392.7356, 229.4563
393.2177, 224.3216
393.6998, 220.2326
394.1819, 216.0009
394.6641, 211.2366
395.1462, 206.6684
395.6283, 202.9151
396.1104, 199.7615
396.5925, 196.5046
397.0746, 192.6074
397.5568, 188.3105
398.0389, 184.8345
398.5210, 183.0726
399.0031, 181.1092
399.4852, 178.5695
399.9673, 175.7976
400.4495, 173.1742
400.9316, 170.8215
401.4137, 168.5530
401.8958, 166.0541
402.3779, 163.1387
402.8600, 160.5139
403.3422, 158.2190
403.8243, 156.1179
404.3064, 154.1989
404.7885, 152.4189
405.2706, 150.6746
405.7527, 148.8660
406.2349, 147.0297
406.7170, 145.5753
407.1991, 144.8865
407.6812, 144.0481
408.1633, 142.3480
408.6454, 140.6099
409.1276, 139.9203
409.6097, 140.6951
410.0918, 141.9729
410.5739, 142.3515
411.0560, 141.7109
411.5381, 140.7919
412.0203, 139.0034
412.5024, 137.5683
412.9845, 137.4722
413.4666, 138.5081
413.9487, 139.5150
414.4308, 139.4397
414.9130, 138.6599
415.3951, 138.7608
415.8772, 140.1980
416.3593, 141.3943
416.8414, 141.1687
417.3235, 140.2630
417.8057, 139.6093
418.2878, 139.3996
418.7699, 139.5675
419.2520, 140.1223
419.7341, 141.0392
420.2162, 142.1394
420.6984, 143.5530
421.1805, 144.8750
421.6626, 145.5497
422.1447, 145.5957
422.6268, 145.5148
423.1089, 145.2001
423.5911, 144.9878
424.0732, 145.4397
424.5553, 146.6181
425.0374, 147.9800
425.5195, 149.2304
426.0016, 150.3064
426.4838, 150.9840
426.9659, 151.0930
427.4480, 151.0000
427.9301, 150.8747
428.4122, 150.6665
428.8943, 150.2600
429.3765, 149.6072
429.8586, 148.7729
430.3407, 147.8860
430.8228, 147.0811
431.3049, 145.8647
431.7870, 143.7766
432.2692, 141.6253
432.7513, 140.1421
433.2334, 139.2454
433.7155, 138.2408
434.1976, 136.5607
434.6797, 134.2567
435.1619, 132.0229
435.6440, 129.7381
436.1261, 127.6639
436.6082, 125.9470
437.0903, 124.4226
437.5724, 123.0245
438.0546, 121.7028
438.5367, 120.1502
439.0188, 117.6269
439.5009, 113.4181
439.9830, 110.5684
440.4651, 110.3778
440.9473, 110.4567
441.4294, 109.8371
441.9115, 108.5699
442.3936, 107.0761
442.8757, 105.5728
443.3578, 104.0921
443.8400, 102.8099
444.3221, 101.7944
444.8042, 100.7955
445.2863, 99.49178
445.7684, 98.28127
446.2505, 97.73035
446.7327, 98.00758
447.2148, 98.16654
447.6969, 97.10744
448.1790, 95.10347
448.6611, 93.68397
449.1432, 93.17708
449.6254, 93.11264
450.1075, 93.27048
450.5896, 93.56552
451.0717, 93.72280
451.5538, 93.68324
452.0359, 93.46346
452.5181, 93.00451
453.0002, 92.34093
453.4823, 91.71081
453.9644, 91.22184
454.4465, 90.83038
454.9286, 90.43687
455.4108, 90.02182
455.8929, 89.66094
456.3750, 89.37354
456.8571, 89.14805
457.3392, 89.01293
457.8214, 88.95543
458.3035, 88.82942
458.7856, 88.45506
459.2677, 87.82494
459.7498, 87.63505
460.2319, 88.74990
460.7141, 89.24498
461.1962, 87.96904
461.6783, 85.93517
462.1604, 84.62176
462.6425, 84.58276
463.1246, 85.20974
463.6068, 85.49012
464.0889, 85.30892
464.5710, 85.07394
465.0531, 84.73268
465.5352, 84.39088
466.0173, 84.09725
466.4995, 83.84489
466.9816, 83.58607
467.4637, 83.25643
467.9458, 82.93736
468.4279, 82.92467
468.9100, 83.35454
469.3922, 83.73838
469.8743, 84.05922
470.3564, 84.19918
470.8385, 84.02975
471.3206, 83.53372
471.8027, 82.83442
472.2849, 81.83212
472.7670, 80.67330
473.2491, 79.99660
473.7312, 79.98882
474.2133, 80.08739
474.6954, 79.94877
475.1776, 79.60973
475.6597, 79.12285
476.1418, 78.36233
476.6239, 77.62300
477.1060, 77.09908
477.5881, 76.76318
478.0703, 76.51912
478.5524, 76.33312
479.0345, 76.25480
479.5166, 76.43312
479.9987, 77.00484
480.4808, 77.15547
480.9630, 76.38931
481.4451, 75.56651
481.9272, 75.33755
482.4093, 75.59102
482.8914, 75.83249
483.3735, 75.76365
483.8557, 75.47128
484.3378, 75.27293
484.8199, 75.43175
485.3020, 75.29391
485.7841, 74.68233
486.2662, 73.88630
486.7484, 72.87185
487.2305, 71.80418
487.7126, 71.28171
488.1947, 72.07157
488.6768, 74.03787
489.1589, 74.94711
489.6411, 74.10011
490.1232, 73.27731
490.6053, 73.01892
491.0874, 73.09068
491.5695, 73.35513
492.0516, 73.80897
492.5338, 74.01404
493.0159, 73.17187
493.4980, 71.46622
493.9801, 70.67639
494.4622, 71.40002
494.9443, 72.42741
495.4265, 72.92184
495.9086, 72.95168
496.3907, 72.58743
496.8728, 71.40701
497.3549, 70.22653
497.8370, 69.80662
498.3192, 69.98568
498.8013, 70.18563
499.2834, 70.20540
499.7655, 70.09779
500.2476, 69.93008
500.7297, 69.67262
501.2119, 69.46123
501.6940, 69.24216
502.1761, 69.12205
502.6582, 69.24969
503.1403, 69.55464
503.6224, 69.80624
504.1045, 69.85516
504.5866, 69.76344
505.0688, 69.75455
505.5509, 69.86873
506.0330, 70.00932
506.5151, 70.35642
506.9972, 70.58984
507.4793, 70.29280
507.9615, 69.56960
508.4436, 69.04183
508.9257, 69.33597
509.4078, 70.27901
509.8899, 70.83714
510.3720, 71.05017
510.8542, 70.78327
511.3363, 69.44619
511.8184, 67.89241
512.3005, 67.02412
512.7827, 67.04315
513.2648, 67.26702
513.7469, 67.13988
514.2290, 66.81486
514.7111, 66.79952
515.1932, 67.22414
515.6754, 67.63473
516.1575, 67.64327
516.6396, 67.33743
517.1217, 67.16696
517.6038, 67.21219
518.0859, 67.31886
518.5681, 67.51627
519.0502, 67.70434
519.5323, 67.69737
520.0144, 67.44463
520.4965, 67.04541
520.9786, 66.57484
521.4608, 65.95728
521.9429, 65.75127
522.4250, 66.38805
522.9071, 66.89752
523.3892, 66.74723
523.8713, 66.29829
524.3535, 66.18266
524.8356, 66.65414
525.3177, 67.30542
525.7998, 67.43552
526.2819, 66.93786
526.7640, 66.45171
527.2462, 66.02843
527.7283, 65.60989
528.2104, 64.99606
528.6925, 64.37325
529.1746, 64.20676
529.6567, 64.90845
530.1389, 65.81151
530.6210, 65.87569
531.1031, 65.16374
531.5852, 64.81146
532.0673, 65.25740
532.5494, 66.00714
533.0316, 66.53575
533.5137, 66.85841
533.9958, 66.95609
534.4779, 66.62319
534.9600, 66.23028
535.4421, 66.18478
535.9243, 66.35134
536.4064, 66.21709
536.8885, 65.51883
537.3706, 64.48203
537.8527, 63.55551
538.3348, 62.47681
538.8170, 62.08600
539.2991, 63.07290
539.7812, 64.07439
540.2633, 64.14561
540.7454, 63.54682
541.2275, 63.19731
541.7097, 63.71337
542.1918, 64.64998
542.6739, 64.74409
543.1560, 63.63985
543.6381, 62.83415
544.1202, 62.90982
544.6024, 63.14196
545.0845, 63.00032
545.5666, 62.55825
546.0487, 62.32879
546.5308, 62.88397
547.0129, 63.65877
547.4951, 63.62182
547.9772, 62.79814
548.4593, 62.10770
548.9414, 61.84145
549.4235, 62.02276
549.9056, 63.00401
550.3878, 65.08073
550.8699, 66.19009
551.3520, 65.13072
551.8341, 63.57422
552.3162, 62.76620
552.7983, 62.72507
553.2805, 63.11287
553.7626, 63.78376
554.2447, 64.54774
554.7268, 64.82262
555.2089, 64.12469
555.6910, 63.79793
556.1732, 64.29115
556.6553, 64.76182
557.1374, 64.51879
557.6195, 63.76388
558.1016, 63.30066
558.5837, 63.78020
559.0659, 64.65939
559.5480, 64.38512
560.0301, 62.62143
560.5122, 61.78710
560.9943, 63.38737
561.4764, 65.39693
561.9586, 65.74734
562.4407, 64.52739
562.9228, 63.27424
563.4049, 62.09958
563.8870, 61.47982
564.3691, 62.50837
564.8513, 64.78872
565.3334, 66.11556
565.8155, 65.34252
566.2976, 63.53878
566.7797, 62.73907
567.2618, 63.55341
567.7440, 64.01365
568.2261, 63.65937
568.7082, 63.37384
569.1903, 63.94451
569.6724, 64.98827
570.1545, 65.49845
570.6367, 64.90590
571.1188, 63.76316
571.6009, 63.20621
572.0830, 63.28949
572.5651, 63.76327
573.0472, 65.28275
573.5294, 66.50204
574.0115, 66.38902
574.4936, 65.38483
574.9757, 64.75517
575.4578, 65.18428
575.9399, 65.98293
576.4221, 66.39834
576.9042, 66.48177
577.3863, 66.57197
577.8684, 66.82610
578.3505, 66.91252
578.8326, 66.25680
579.3148, 64.77428
579.7969, 64.11071
580.2790, 65.08268
580.7611, 66.07813
581.2432, 66.20067
581.7253, 65.85246
582.2075, 65.70535
582.6896, 66.00168
583.1717, 66.64603
583.6538, 67.64832
584.1359, 69.18437
584.6180, 69.79743
585.1002, 68.61544
585.5823, 67.52324
586.0643, 67.18129
586.5464, 67.24291
