##NAMES=Descloizite
##RRUFFID=R050509
##IDEAL CHEMISTRY=Pb^2+^Zn^2+^V^5+^O_4_(OH)
##LOCALITY=Grootfontein district, Namibia
##OWNER=RRUFF
##SOURCE=University of Arizona Mineral Museum
##DESCRIPTION=Group of brown tabular crystals
##STATUS=The identification of this mineral has been confirmed by X-ray diffraction and chemical analysis
##URL=rruff.info/R050509
##MEASURED CHEMISTRY=Pb_1.00_(Zn_0.85_Cu_0.15_)_Σ=1_((V_0.97_As_0.03_)_Σ=1_O_4_)(OH) ; (OH) estimated by difference and stoichiometry
90.92609, 0.0000000E+00
91.40820, 21.94139
91.89032, 21.43198
92.37244, 21.81905
92.85455, 22.92461
93.33667, 23.68597
93.81879, 22.91629
94.30090, 21.13515
94.78302, 19.85906
95.26514, 19.37631
95.74725, 19.63197
96.22937, 21.03880
96.71149, 23.72539
97.19360, 25.96593
97.67572, 25.49002
98.15784, 22.36130
98.63995, 20.09859
99.12207, 19.88601
99.60419, 21.49220
100.0863, 22.96523
100.5684, 24.40735
101.0505, 25.51346
101.5327, 25.83362
102.0148, 25.19566
102.4969, 24.33147
102.9790, 23.40185
103.4611, 22.36628
103.9432, 21.44922
104.4253, 20.31025
104.9075, 19.48290
105.3896, 20.19392
105.8717, 23.62423
106.3538, 27.00063
106.8359, 29.27425
107.3180, 29.51559
107.8002, 30.21099
108.2823, 31.09010
108.7644, 32.36420
109.2465, 34.87271
109.7286, 39.50930
110.2107, 44.70938
110.6929, 49.88429
111.1750, 54.29031
111.6571, 59.41644
112.1392, 65.38786
112.6213, 72.18819
113.1034, 79.79124
113.5856, 88.35641
114.0677, 97.74822
114.5498, 107.7853
115.0319, 117.5379
115.5140, 128.8596
115.9961, 142.2144
116.4783, 157.6122
116.9604, 174.6519
117.4425, 192.9691
117.9246, 213.1512
118.4067, 235.6480
118.8888, 262.0150
119.3710, 289.9160
119.8531, 318.4496
120.3352, 347.5307
120.8173, 376.3150
121.2994, 404.0154
121.7815, 430.8290
122.2637, 457.2113
122.7458, 484.8164
123.2279, 511.1254
123.7100, 533.0216
124.1921, 549.5592
124.6742, 564.2721
125.1564, 579.7623
125.6385, 595.9583
126.1206, 612.7068
126.6027, 628.4594
127.0848, 644.8038
127.5669, 664.3287
128.0491, 687.3870
128.5312, 713.8068
129.0133, 743.9271
129.4954, 777.3636
129.9775, 813.0845
130.4596, 851.7336
130.9418, 892.1783
131.4239, 931.5964
131.9060, 969.7469
132.3881, 1006.419
132.8702, 1039.842
133.3523, 1069.991
133.8345, 1099.362
134.3166, 1130.591
134.7987, 1163.909
135.2808, 1195.338
135.7629, 1224.782
136.2450, 1252.134
136.7272, 1275.532
137.2093, 1294.384
137.6914, 1311.551
138.1735, 1330.250
138.6556, 1350.876
139.1377, 1370.447
139.6199, 1388.630
140.1020, 1405.273
140.5841, 1419.512
141.0662, 1430.283
141.5483, 1439.864
142.0304, 1450.931
142.5126, 1463.372
142.9947, 1476.731
143.4768, 1486.446
143.9589, 1489.288
144.4410, 1492.451
144.9231, 1495.740
145.4053, 1499.490
145.8874, 1504.297
146.3695, 1510.190
146.8516, 1517.079
147.3337, 1525.264
147.8158, 1536.708
148.2980, 1544.852
148.7801, 1548.251
149.2622, 1548.765
149.7443, 1550.019
150.2264, 1553.542
150.7085, 1556.465
151.1907, 1557.867
151.6728, 1557.859
152.1549, 1556.329
152.6370, 1552.283
153.1191, 1546.633
153.6012, 1541.749
154.0834, 1539.962
154.5655, 1537.290
155.0476, 1531.962
155.5297, 1522.788
156.0118, 1512.427
156.4939, 1501.224
156.9761, 1489.057
157.4582, 1475.879
157.9403, 1461.061
158.4224, 1445.634
158.9045, 1430.151
159.3866, 1415.654
159.8688, 1400.313
160.3509, 1383.364
160.8330, 1365.125
161.3151, 1347.042
161.7972, 1330.039
162.2793, 1313.193
162.7615, 1295.794
163.2436, 1277.061
163.7257, 1258.296
164.2078, 1239.204
164.6899, 1220.014
165.1720, 1202.489
165.6541, 1188.555
166.1363, 1176.243
166.6184, 1163.610
167.1005, 1149.054
167.5826, 1134.709
168.0647, 1121.930
168.5468, 1110.614
169.0290, 1099.471
169.5111, 1087.057
169.9932, 1074.480
170.4753, 1063.166
170.9574, 1054.753
171.4395, 1047.267
171.9217, 1038.585
172.4038, 1028.713
172.8859, 1019.772
173.3680, 1013.916
173.8501, 1010.095
174.3322, 1006.339
174.8144, 1001.360
175.2965, 996.2076
175.7786, 992.4450
176.2607, 990.0862
176.7428, 988.0439
177.2249, 985.0057
177.7071, 981.4911
178.1892, 978.7109
178.6713, 977.3342
179.1534, 976.9857
179.6355, 977.0990
180.1176, 977.6573
180.5998, 978.5871
181.0819, 980.1868
181.5640, 982.1921
182.0461, 983.7365
182.5282, 983.5741
183.0103, 982.7065
183.4925, 983.8288
183.9746, 987.3401
184.4567, 991.2570
184.9388, 993.5465
185.4209, 994.2620
185.9030, 993.5505
186.3852, 991.5799
186.8673, 988.2912
187.3494, 983.1090
187.8315, 975.7905
188.3136, 967.4502
188.7957, 959.5197
189.2779, 951.9913
189.7600, 943.6268
190.2421, 933.2534
190.7242, 921.3674
191.2063, 910.3054
191.6884, 900.0444
192.1706, 891.0538
192.6527, 884.4514
193.1348, 880.3022
193.6169, 875.7595
194.0990, 869.0109
194.5811, 860.2335
195.0633, 851.8660
195.5454, 844.0726
196.0275, 836.5670
196.5096, 829.1838
196.9917, 821.9046
197.4738, 814.5822
197.9560, 806.7599
198.4381, 798.4691
198.9202, 791.9512
199.4023, 788.0621
199.8844, 784.9935
200.3665, 778.6089
200.8487, 768.2296
201.3308, 758.5140
201.8129, 752.4870
202.2950, 750.5475
202.7771, 746.8478
203.2592, 740.4708
203.7414, 732.9421
204.2235, 727.5923
204.7056, 724.8513
205.1877, 722.7598
205.6698, 720.8348
206.1519, 719.4030
206.6341, 715.4720
207.1162, 707.7794
207.5983, 698.6005
208.0804, 693.6033
208.5625, 694.0889
209.0446, 694.8782
209.5268, 693.0513
210.0089, 687.6692
210.4910, 684.3486
210.9731, 684.0009
211.4552, 685.2662
211.9373, 684.7746
212.4195, 681.9208
212.9016, 678.8940
213.3837, 676.8414
213.8658, 676.1533
214.3479, 674.9118
214.8300, 672.6898
215.3121, 670.1053
215.7943, 668.8332
216.2764, 669.5097
216.7585, 670.1589
217.2406, 669.8209
217.7227, 668.1258
218.2048, 666.6125
218.6870, 665.3413
219.1691, 664.2180
219.6512, 662.9501
220.1333, 661.3132
220.6154, 659.9261
221.0975, 658.9901
221.5797, 658.4672
222.0618, 658.6442
222.5439, 660.0731
223.0260, 661.9572
223.5081, 662.4166
223.9902, 660.7677
224.4724, 658.9161
224.9545, 657.6168
225.4366, 656.8621
225.9187, 656.7131
226.4008, 657.4764
226.8829, 658.7138
227.3651, 659.4772
227.8472, 659.5722
228.3293, 659.5235
228.8114, 659.4984
229.2935, 659.4487
229.7757, 659.5400
230.2578, 659.7562
230.7399, 660.1021
231.2220, 660.5905
231.7041, 661.1630
232.1862, 661.9413
232.6684, 662.9869
233.1505, 664.3635
233.6326, 665.8024
234.1147, 667.4475
234.5968, 669.0751
235.0789, 670.2255
235.5611, 670.6901
236.0432, 671.0143
236.5253, 671.2849
237.0074, 671.3225
237.4895, 672.0360
237.9716, 673.8979
238.4538, 676.1550
238.9359, 677.5051
239.4180, 677.2626
239.9001, 677.2722
240.3822, 678.2806
240.8643, 680.6792
241.3465, 682.1656
241.8286, 682.2700
242.3107, 681.7909
242.7928, 681.8153
243.2749, 682.3251
243.7570, 683.3753
244.2392, 685.1851
244.7213, 688.0018
245.2034, 690.0400
245.6855, 690.8869
246.1676, 691.3226
246.6497, 692.3932
247.1319, 694.6487
247.6140, 696.5443
248.0961, 697.5369
248.5782, 697.4727
249.0603, 698.0888
249.5424, 699.6656
250.0246, 701.6736
250.5067, 703.6143
250.9888, 705.6488
251.4709, 707.2501
251.9530, 707.8599
252.4351, 707.3534
252.9173, 708.8987
253.3994, 713.3806
253.8815, 718.8784
254.3636, 723.5257
254.8457, 726.7894
255.3278, 730.2299
255.8100, 734.1990
256.2921, 738.6871
256.7742, 742.9567
257.2563, 747.1897
257.7384, 750.9508
258.2205, 753.4108
258.7026, 753.2205
259.1848, 755.3246
259.6669, 761.2999
260.1490, 770.5952
260.6311, 777.7504
261.1132, 781.7688
261.5953, 785.2944
262.0775, 790.2960
262.5596, 797.3988
263.0417, 804.1945
263.5238, 810.0382
264.0059, 815.3505
264.4880, 822.6788
264.9702, 832.6351
265.4523, 843.3011
265.9344, 853.2604
266.4165, 862.0970
266.8986, 872.0881
267.3807, 883.8297
267.8629, 896.7714
268.3450, 909.0997
268.8271, 920.5676
269.3092, 932.3890
269.7913, 945.5388
270.2734, 960.1335
270.7556, 975.1086
271.2377, 990.2927
271.7198, 1006.155
272.2019, 1023.953
272.6840, 1043.882
273.1661, 1065.174
273.6483, 1087.548
274.1304, 1110.932
274.6125, 1135.155
275.0946, 1159.725
275.5767, 1185.549
276.0588, 1214.596
276.5410, 1247.161
277.0231, 1280.868
277.5052, 1313.998
277.9873, 1346.631
278.4694, 1380.231
278.9515, 1414.441
279.4337, 1450.262
279.9158, 1489.486
280.3979, 1532.138
280.8800, 1576.196
281.3621, 1620.316
281.8442, 1664.705
282.3264, 1709.396
282.8085, 1754.206
283.2906, 1800.031
283.7727, 1847.957
284.2548, 1898.013
284.7369, 1949.446
285.2191, 2002.541
285.7012, 2056.625
286.1833, 2110.855
286.6654, 2165.167
287.1475, 2220.363
287.6296, 2277.428
288.1118, 2336.244
288.5939, 2393.025
289.0760, 2446.729
289.5581, 2497.877
290.0402, 2550.013
290.5223, 2603.448
291.0045, 2653.857
291.4866, 2698.332
291.9687, 2737.350
292.4508, 2773.060
292.9329, 2805.847
293.4150, 2835.658
293.8972, 2864.937
294.3793, 2893.338
294.8614, 2916.534
295.3435, 2930.536
295.8256, 2936.990
296.3077, 2940.267
296.7899, 2941.162
297.2720, 2938.216
297.7541, 2930.196
298.2362, 2916.958
298.7183, 2897.451
299.2004, 2869.036
299.6826, 2834.448
300.1647, 2798.132
300.6468, 2760.690
301.1289, 2720.774
301.6110, 2675.021
302.0931, 2625.357
302.5753, 2575.499
303.0574, 2526.908
303.5395, 2479.563
304.0216, 2433.558
304.5037, 2388.448
304.9858, 2347.228
305.4680, 2312.830
305.9501, 2283.864
306.4322, 2258.012
306.9143, 2232.493
307.3964, 2210.945
307.8785, 2197.520
308.3607, 2191.787
308.8428, 2188.704
309.3249, 2184.027
309.8070, 2180.459
310.2891, 2181.132
310.7712, 2187.075
311.2534, 2197.275
311.7355, 2211.228
312.2176, 2228.936
312.6997, 2250.104
313.1818, 2275.783
313.6639, 2303.806
314.1461, 2332.743
314.6282, 2362.128
315.1103, 2392.262
315.5924, 2423.883
316.0745, 2456.221
316.5566, 2488.222
317.0388, 2516.552
317.5209, 2546.212
318.0030, 2581.424
318.4851, 2624.465
318.9672, 2665.652
319.4493, 2701.599
319.9315, 2733.690
320.4136, 2764.226
320.8957, 2793.021
321.3778, 2820.762
321.8599, 2847.406
322.3420, 2872.785
322.8242, 2899.164
323.3063, 2928.632
323.7884, 2958.521
324.2705, 2986.502
324.7526, 3011.540
325.2347, 3035.567
325.7169, 3057.081
326.1990, 3076.674
326.6811, 3099.443
327.1632, 3129.079
327.6453, 3159.701
328.1274, 3188.025
328.6096, 3208.562
329.0917, 3233.731
329.5738, 3265.973
330.0559, 3303.043
330.5380, 3338.255
331.0201, 3369.413
331.5023, 3401.112
331.9844, 3435.241
332.4665, 3471.732
332.9486, 3510.216
333.4307, 3551.196
333.9128, 3593.729
334.3950, 3635.338
334.8771, 3676.027
335.3592, 3716.470
335.8413, 3756.734
336.3234, 3797.179
336.8055, 3836.156
337.2877, 3874.485
337.7698, 3909.623
338.2519, 3938.990
338.7340, 3961.732
339.2161, 3981.410
339.6982, 4000.036
340.1803, 4016.370
340.6624, 4021.342
341.1446, 4014.029
341.6267, 3998.530
342.1088, 3976.835
342.5909, 3949.058
343.0730, 3917.378
343.5551, 3882.141
344.0373, 3843.422
344.5194, 3801.706
345.0015, 3756.519
345.4836, 3710.550
345.9657, 3664.910
346.4478, 3619.650
346.9300, 3575.342
347.4121, 3531.728
347.8942, 3488.792
348.3763, 3445.311
348.8584, 3401.721
349.3405, 3359.363
349.8227, 3317.867
350.3048, 3278.271
350.7869, 3243.859
351.2690, 3214.897
351.7511, 3186.596
352.2332, 3154.375
352.7154, 3119.857
353.1975, 3086.618
353.6796, 3056.703
354.1617, 3027.538
354.6438, 2996.733
355.1259, 2964.227
355.6081, 2930.051
356.0902, 2895.560
356.5723, 2858.407
357.0544, 2815.470
357.5365, 2766.014
358.0186, 2711.913
358.5008, 2655.533
358.9829, 2595.549
359.4650, 2529.139
359.9471, 2451.876
360.4292, 2370.104
360.9113, 2286.552
361.3935, 2201.929
361.8756, 2118.599
362.3577, 2035.674
362.8398, 1955.400
363.3219, 1880.324
363.8040, 1811.454
364.2862, 1747.635
364.7683, 1688.678
365.2504, 1634.326
365.7325, 1584.652
366.2146, 1540.558
366.6967, 1500.077
367.1789, 1461.983
367.6610, 1424.708
368.1431, 1391.486
368.6252, 1363.457
369.1073, 1339.546
369.5894, 1316.699
370.0716, 1293.974
370.5537, 1273.081
371.0358, 1254.438
371.5179, 1238.121
372.0000, 1223.731
372.4821, 1211.347
372.9643, 1200.946
373.4464, 1192.814
373.9285, 1188.048
374.4106, 1183.269
374.8927, 1177.177
375.3748, 1169.873
375.8570, 1165.221
376.3391, 1163.649
376.8212, 1163.712
377.3033, 1164.370
377.7854, 1165.661
378.2675, 1167.181
378.7497, 1168.731
379.2318, 1170.628
379.7139, 1174.122
380.1960, 1179.343
380.6781, 1184.360
381.1602, 1187.891
381.6424, 1190.155
382.1245, 1192.588
382.6066, 1195.417
383.0887, 1197.899
383.5708, 1199.541
384.0529, 1200.196
384.5351, 1199.191
385.0172, 1196.447
385.4993, 1191.803
385.9814, 1184.772
386.4635, 1175.426
386.9456, 1164.049
387.4278, 1150.738
387.9099, 1135.730
388.3920, 1119.003
388.8741, 1099.987
389.3562, 1080.402
389.8383, 1061.812
390.3205, 1043.634
390.8026, 1024.753
391.2847, 1003.321
391.7668, 981.8057
392.2489, 961.8732
392.7310, 943.9769
393.2132, 926.9330
393.6953, 910.2277
394.1774, 894.2459
394.6595, 879.3343
395.1416, 865.9644
395.6237, 853.5200
396.1059, 841.9434
396.5880, 831.2037
397.0701, 820.8475
397.5522, 811.6617
398.0343, 802.3624
398.5164, 792.1989
398.9986, 779.5415
399.4807, 768.0682
399.9628, 757.7144
400.4449, 748.6118
400.9270, 741.1636
401.4091, 737.0034
401.8913, 732.4840
402.3734, 726.2612
402.8555, 717.8993
403.3376, 710.2042
403.8197, 702.9479
404.3018, 696.6129
404.7840, 691.9523
405.2661, 689.4652
405.7482, 686.7930
406.2303, 683.1803
406.7124, 679.0856
407.1945, 676.5319
407.6767, 675.7653
408.1588, 675.2833
408.6409, 673.7123
409.1230, 671.2040
409.6051, 669.7809
410.0872, 669.3819
410.5694, 670.6776
411.0515, 675.5109
411.5336, 683.3848
412.0157, 691.0851
412.4978, 696.1713
412.9799, 700.4456
413.4621, 707.8994
413.9442, 718.5455
414.4263, 729.8869
414.9084, 739.7325
415.3905, 749.0370
415.8727, 759.5102
416.3548, 771.7310
416.8369, 785.1101
417.3190, 799.2338
417.8011, 814.0925
418.2832, 829.9494
418.7654, 847.6532
419.2475, 865.7435
419.7296, 882.7137
420.2117, 898.2876
420.6938, 914.5507
421.1759, 932.5773
421.6581, 951.5468
422.1402, 970.8276
422.6223, 989.2474
423.1044, 1008.820
423.5865, 1030.406
424.0686, 1053.642
424.5508, 1076.603
425.0329, 1099.867
425.5150, 1122.015
425.9971, 1142.247
426.4792, 1159.215
426.9613, 1177.063
427.4435, 1196.471
427.9256, 1216.289
428.4077, 1234.870
428.8898, 1253.086
429.3719, 1268.673
429.8540, 1281.396
430.3362, 1291.175
430.8183, 1297.293
431.3004, 1299.671
431.7825, 1298.465
432.2646, 1293.902
432.7467, 1286.029
433.2289, 1274.056
433.7110, 1257.863
434.1931, 1237.890
434.6752, 1214.563
435.1573, 1187.980
435.6394, 1159.289
436.1216, 1128.152
436.6036, 1095.352
437.0858, 1062.830
437.5679, 1030.458
438.0500, 999.0276
438.5321, 969.2645
439.0142, 940.9142
439.4963, 913.5143
439.9785, 886.7204
440.4606, 861.0334
440.9427, 837.3290
441.4248, 815.2758
441.9069, 794.1961
442.3890, 773.8668
442.8712, 754.3411
443.3533, 735.4504
443.8354, 716.9734
444.3175, 700.1256
444.7996, 685.6314
445.2817, 673.0156
445.7639, 661.6586
446.2460, 652.4811
446.7281, 643.3852
447.2102, 633.9003
447.6923, 624.1017
448.1744, 614.9254
448.6566, 606.0499
449.1387, 598.0918
449.6208, 591.5232
450.1029, 587.0109
450.5850, 581.6879
451.0671, 575.3047
451.5493, 568.4378
452.0314, 561.7005
452.5135, 554.9468
452.9956, 549.3180
453.4777, 545.6035
453.9598, 543.2303
454.4420, 539.3762
454.9241, 533.9225
455.4062, 528.4081
455.8883, 523.9985
456.3704, 520.5359
456.8525, 517.4036
457.3347, 514.6078
457.8168, 512.0885
458.2989, 509.8804
458.7810, 507.9352
459.2631, 506.1799
459.7452, 504.9498
460.2274, 503.6435
460.7095, 501.4947
461.1916, 498.5706
461.6737, 495.5888
462.1558, 492.8593
462.6379, 490.3025
463.1201, 487.9242
463.6022, 485.9360
464.0843, 483.5465
464.5664, 479.7789
465.0485, 475.5219
465.5306, 472.1956
466.0128, 471.1006
466.4949, 470.0124
466.9770, 468.1763
467.4591, 465.5421
467.9412, 463.3021
468.4233, 462.3287
468.9055, 461.0042
469.3876, 458.2965
469.8697, 453.3906
470.3518, 448.9355
470.8339, 445.1350
471.3160, 441.6793
471.7982, 437.9262
472.2803, 433.7833
472.7624, 429.7142
473.2445, 425.9648
473.7266, 422.4459
474.2087, 418.5344
474.6909, 414.1457
475.1730, 410.1564
475.6551, 407.9213
476.1372, 406.8895
476.6193, 404.4400
477.1014, 399.7523
477.5836, 394.9847
478.0657, 393.7737
478.5478, 394.8107
479.0299, 394.3795
479.5120, 389.2566
479.9941, 382.8398
480.4763, 378.0445
480.9584, 374.8545
481.4405, 372.8030
481.9226, 372.8148
482.4047, 373.1769
482.8868, 372.3060
483.3690, 368.8481
483.8511, 366.3534
484.3332, 366.6713
484.8153, 368.4177
485.2974, 369.3397
485.7795, 368.6867
486.2617, 367.6151
486.7438, 366.0556
487.2259, 364.0293
487.7080, 362.9732
488.1901, 363.3502
488.6722, 364.0843
489.1544, 364.4956
489.6365, 364.3943
490.1186, 364.7645
490.6007, 365.8284
491.0828, 367.0920
491.5649, 367.5879
492.0471, 367.2527
492.5292, 367.5442
493.0113, 369.4159
493.4934, 371.9862
493.9755, 372.4393
494.4576, 370.8751
494.9398, 369.6637
495.4219, 371.3185
495.9040, 374.3515
496.3861, 375.8121
496.8682, 375.1373
497.3503, 374.2166
497.8325, 374.6824
498.3146, 375.9236
498.7967, 377.0031
499.2788, 377.3188
499.7609, 377.6082
500.2430, 378.1286
500.7252, 378.9034
501.2073, 380.0284
501.6894, 382.1646
502.1715, 384.1441
502.6536, 385.3536
503.1357, 385.3781
503.6179, 385.6384
504.1000, 385.7824
504.5821, 386.4312
505.0642, 388.3763
505.5463, 392.5785
506.0284, 395.8905
506.5106, 397.5922
506.9927, 398.1570
507.4748, 399.1205
507.9569, 400.5298
508.4390, 402.0777
508.9211, 403.5368
509.4033, 404.9564
509.8854, 406.9650
510.3675, 409.6537
510.8496, 412.1488
511.3317, 413.4130
511.8138, 413.7990
512.2960, 414.2669
512.7781, 415.1522
513.2602, 415.9706
513.7423, 416.1400
514.2244, 415.8454
514.7065, 415.5342
515.1887, 415.5607
515.6708, 415.5359
516.1529, 415.2881
516.6350, 414.8018
517.1171, 413.9154
517.5992, 412.5750
518.0814, 410.8254
518.5635, 408.6612
519.0456, 405.6551
519.5277, 402.9437
520.0098, 401.0740
520.4919, 399.3386
520.9741, 396.6150
521.4562, 392.3403
521.9383, 388.2701
522.4204, 384.8896
522.9025, 382.0530
523.3846, 378.6993
523.8668, 374.6551
524.3489, 370.8971
524.8310, 368.1856
525.3131, 366.3737
525.7952, 364.3647
526.2773, 362.1210
526.7595, 359.5513
527.2416, 356.1927
527.7237, 352.4488
528.2058, 349.3526
528.6879, 347.5787
529.1700, 346.1157
529.6522, 343.7955
530.1343, 340.9704
530.6164, 338.5839
531.0985, 337.7828
531.5806, 337.0646
532.0627, 335.2282
532.5449, 332.0992
533.0270, 329.7437
533.5091, 329.3789
533.9912, 329.5999
534.4733, 329.4269
534.9554, 328.7127
535.4376, 327.6276
535.9197, 325.6327
536.4018, 323.5287
536.8839, 322.9445
537.3660, 324.5892
537.8481, 325.8234
538.3303, 325.9235
538.8124, 325.0427
539.2945, 323.8595
539.7766, 322.3137
540.2587, 320.9814
540.7408, 320.3236
541.2230, 320.2115
541.7051, 320.2548
542.1872, 320.4522
542.6693, 320.6198
543.1514, 320.5583
543.6335, 320.3435
544.1157, 320.1160
544.5978, 319.9610
545.0799, 319.7520
545.5620, 319.0183
546.0441, 318.1461
546.5262, 318.0893
547.0084, 320.5752
547.4905, 322.7047
547.9726, 322.9733
548.4547, 321.1267
548.9368, 319.7995
549.4189, 319.6085
549.9011, 319.6800
550.3832, 319.4706
550.8653, 318.5698
551.3474, 318.4145
551.8295, 319.3462
552.3116, 320.6380
552.7938, 321.1247
553.2759, 320.7032
553.7580, 320.4785
554.2401, 320.8116
554.7222, 321.4688
555.2043, 321.7972
555.6865, 321.8362
556.1686, 322.0364
556.6507, 322.8667
557.1328, 323.9593
557.6149, 324.7327
558.0970, 325.1561
558.5792, 325.5883
559.0613, 326.5260
559.5434, 327.4842
560.0255, 327.8787
560.5076, 326.9666
560.9897, 326.5865
561.4719, 328.0097
561.9540, 330.2141
562.4361, 331.4778
562.9182, 329.8661
563.4003, 329.2639
563.8824, 330.6061
564.3646, 333.6319
564.8467, 336.7505
565.3288, 340.3471
565.8109, 343.2286
566.2930, 344.3528
566.7751, 343.5977
567.2573, 344.5063
567.7394, 347.3563
568.2215, 350.6098
568.7036, 352.5273
569.1857, 353.4778
569.6678, 354.9140
570.1500, 357.1487
570.6321, 359.9000
571.1142, 362.9290
571.5963, 366.2057
572.0784, 369.6468
572.5605, 373.6012
573.0427, 377.4096
573.5248, 380.4733
574.0069, 382.9307
574.4890, 385.8939
574.9711, 389.7476
575.4532, 394.1026
575.9354, 398.7604
576.4175, 403.7070
576.8996, 408.9737
577.3817, 414.8389
577.8638, 420.6891
578.3459, 425.9086
578.8281, 430.0897
579.3102, 435.0461
579.7923, 441.0962
580.2744, 447.8005
580.7565, 454.3613
581.2386, 460.7667
581.7208, 466.7713
582.2029, 471.8415
582.6850, 476.8246
583.1671, 483.8624
583.6492, 492.6036
584.1313, 500.9256
584.6134, 507.8558
585.0955, 513.6163
