##NAMES=Despujolsite
##RRUFFID=R100208
##IDEAL CHEMISTRY=Ca_3_Mn^4+^(S^6+^O_4_)_2_(OH)_6_&#183;3H_2_O
##LOCALITY=N'Chwaning III mine, Kalahari manganese field, Northern Cape Province, South Africa
##OWNER=RRUFF
##SOURCE=Marcus Origlieri
##DESCRIPTION=Lime green transparent crystal fragment. Sample was used in Barkley et al (2011)
##STATUS=The identification of this mineral is confirmed by single-crystal X-ray diffraction and chemical analysis.
##URL=rruff.info/R100208
##MEASURED CHEMISTRY=Ca_3.44_(Mn^+4^_0.86_Fe^+3^_0.06_)_Σ=0.92_(S_0.96_O_4_)_2_(OH)_6_·3H_2_O 
90.60547, 143.4753
91.08759, 148.0663
91.56970, 151.6962
92.05182, 150.4157
92.53394, 146.7112
93.01605, 143.7293
93.49817, 143.7239
93.98029, 146.2293
94.46240, 147.9053
94.94452, 148.2643
95.42664, 147.7307
95.90874, 146.0661
96.39086, 143.5266
96.87298, 141.4853
97.35509, 141.6225
97.83721, 144.5898
98.31933, 146.8819
98.80145, 148.6878
99.28356, 149.6796
99.76568, 149.0681
100.2478, 146.7083
100.7299, 143.7337
101.2120, 143.0006
101.6941, 146.7403
102.1763, 150.3817
102.6584, 153.5964
103.1405, 156.6121
103.6226, 159.6480
104.1047, 162.7669
104.5868, 166.1075
105.0690, 170.4858
105.5511, 177.1053
106.0332, 183.3783
106.5153, 188.3016
106.9974, 191.8637
107.4795, 194.3879
107.9617, 196.2848
108.4438, 197.1862
108.9259, 196.1571
109.4080, 191.2218
109.8901, 184.9245
110.3722, 180.7506
110.8544, 179.0627
111.3365, 178.9629
111.8186, 180.4300
112.3007, 182.8909
112.7828, 185.2594
113.2649, 186.7752
113.7471, 187.5212
114.2292, 188.4699
114.7113, 188.9912
115.1934, 190.4302
115.6755, 193.6486
116.1576, 198.3828
116.6397, 203.6362
117.1219, 208.2674
117.6040, 211.6937
118.0861, 216.4000
118.5682, 222.7082
119.0503, 229.7785
119.5324, 237.4379
120.0146, 245.5070
120.4967, 253.6063
120.9788, 261.0081
121.4609, 266.6422
121.9430, 273.1942
122.4251, 281.8240
122.9073, 291.0141
123.3894, 298.6545
123.8715, 303.8083
124.3536, 307.6247
124.8357, 312.9284
125.3178, 319.4541
125.8000, 327.2779
126.2821, 336.1095
126.7642, 346.1585
127.2463, 358.0733
127.7284, 372.4328
128.2105, 389.0099
128.6927, 406.8961
129.1748, 426.4018
129.6569, 446.7246
130.1390, 467.3317
130.6211, 488.3005
131.1032, 509.0461
131.5854, 529.5555
132.0675, 549.7509
132.5496, 569.5147
133.0317, 589.0015
133.5138, 607.8098
133.9959, 625.4431
134.4781, 643.2260
134.9602, 657.2892
135.4423, 666.9565
135.9244, 672.8791
136.4065, 676.0023
136.8886, 677.0834
137.3708, 675.9446
137.8529, 670.1230
138.3350, 658.2255
138.8171, 642.6403
139.2992, 622.6659
139.7813, 599.2047
140.2635, 573.7961
140.7456, 547.7919
141.2277, 521.0729
141.7098, 493.6463
142.1919, 464.0640
142.6740, 435.1547
143.1561, 408.2785
143.6383, 383.6383
144.1204, 360.6376
144.6025, 338.5657
145.0846, 317.4894
145.5667, 298.9762
146.0488, 283.9310
146.5310, 271.1684
147.0131, 259.4616
147.4952, 248.5556
147.9773, 238.8904
148.4594, 231.6573
148.9415, 226.4184
149.4237, 220.9040
149.9058, 213.6897
150.3879, 205.5259
150.8700, 198.5734
151.3521, 193.1281
151.8342, 189.1516
152.3164, 186.4768
152.7985, 185.0141
153.2806, 184.0054
153.7627, 182.7275
154.2448, 181.1523
154.7269, 180.5342
155.2091, 182.4927
155.6912, 184.3831
156.1733, 184.4116
156.6554, 182.6218
157.1375, 180.7815
157.6196, 181.2722
158.1018, 185.1855
158.5839, 188.2658
159.0660, 188.5022
159.5481, 189.1234
160.0302, 192.5598
160.5123, 199.2531
160.9945, 207.4889
161.4766, 214.1604
161.9587, 217.6961
162.4408, 222.0259
162.9229, 227.2890
163.4050, 233.2197
163.8871, 239.4244
164.3693, 245.7829
164.8514, 252.6168
165.3335, 260.8139
165.8156, 271.8728
166.2977, 282.1544
166.7798, 291.4121
167.2620, 299.6870
167.7441, 307.0576
168.2262, 313.6060
168.7083, 319.1435
169.1904, 323.0405
169.6725, 325.6097
170.1547, 326.6300
170.6368, 325.8904
171.1189, 323.4913
171.6010, 319.7352
172.0831, 314.6228
172.5652, 308.1568
173.0474, 300.7271
173.5295, 292.2675
174.0116, 283.0316
174.4937, 272.8288
174.9758, 261.6422
175.4579, 250.9404
175.9401, 241.1018
176.4222, 232.2774
176.9043, 224.9686
177.3864, 219.6458
177.8685, 214.8694
178.3506, 208.3835
178.8328, 199.3718
179.3149, 191.5800
179.7970, 186.8096
180.2791, 183.5105
180.7612, 180.6978
181.2433, 178.0953
181.7255, 175.4297
182.2076, 172.0112
182.6897, 167.2526
183.1718, 162.8065
183.6539, 158.3502
184.1360, 154.5543
184.6181, 152.3845
185.1003, 152.3813
185.5824, 153.8343
186.0645, 154.1959
186.5466, 152.0314
187.0287, 150.4808
187.5108, 150.5235
187.9930, 151.2584
188.4751, 151.4352
188.9572, 150.3153
189.4393, 148.2357
189.9214, 147.1036
190.4035, 147.5942
190.8857, 148.2809
191.3678, 149.0161
191.8499, 149.7658
192.3320, 150.4579
192.8141, 151.0070
193.2962, 151.4949
193.7784, 152.6203
194.2605, 155.0739
194.7426, 157.2734
195.2247, 158.2563
195.7068, 158.4698
196.1889, 159.2951
196.6711, 161.7517
197.1532, 165.4444
197.6353, 168.2242
198.1174, 169.0371
198.5995, 170.0033
199.0816, 172.5290
199.5638, 176.4158
200.0459, 180.2357
200.5280, 182.9742
201.0101, 185.1331
201.4922, 188.1100
201.9743, 192.4646
202.4565, 197.1529
202.9386, 201.2261
203.4207, 204.6720
203.9028, 208.2778
204.3849, 212.8127
204.8670, 217.6377
205.3492, 221.9116
205.8313, 225.7955
206.3134, 228.6679
206.7955, 229.5525
207.2776, 228.1939
207.7597, 226.0167
208.2419, 223.1703
208.7240, 220.0115
209.2061, 216.8760
209.6882, 213.8909
210.1703, 210.9269
210.6524, 207.5738
211.1346, 203.3848
211.6167, 200.0618
212.0988, 199.0980
212.5809, 198.7668
213.0630, 197.3003
213.5451, 193.9128
214.0273, 189.4221
214.5094, 185.5446
214.9915, 181.9831
215.4736, 179.7540
215.9557, 179.4091
216.4378, 180.0509
216.9200, 180.8174
217.4021, 181.3238
217.8842, 181.7586
218.3663, 182.6818
218.8484, 184.7129
219.3305, 186.3371
219.8127, 186.4822
220.2948, 186.5193
220.7769, 187.9595
221.2590, 191.4914
221.7411, 196.5632
222.2232, 201.5528
222.7054, 206.2230
223.1875, 211.1059
223.6696, 216.0052
224.1517, 221.2136
224.6338, 227.1152
225.1159, 233.9053
225.5980, 241.3100
226.0802, 248.5543
226.5623, 254.8280
227.0444, 261.9013
227.5265, 270.5654
228.0086, 279.9167
228.4907, 288.3015
228.9729, 294.9242
229.4550, 301.0979
229.9371, 310.3454
230.4192, 325.1242
230.9013, 338.9342
231.3834, 349.5253
231.8656, 358.8021
232.3477, 369.6946
232.8298, 383.4240
233.3119, 398.8041
233.7940, 413.3575
234.2761, 426.4934
234.7583, 440.3392
235.2404, 455.7421
235.7225, 472.1277
236.2046, 488.5558
236.6867, 504.7530
237.1688, 521.0402
237.6510, 537.7688
238.1331, 554.1934
238.6152, 573.3526
239.0973, 596.3322
239.5794, 622.7999
240.0615, 652.0466
240.5437, 684.3455
241.0258, 718.8796
241.5079, 755.1273
241.9900, 793.1056
242.4721, 830.9766
242.9542, 871.1279
243.4364, 910.5919
243.9185, 941.6425
244.4006, 962.1866
244.8827, 974.5138
245.3648, 981.8304
245.8469, 984.3405
246.3290, 979.9326
246.8112, 966.0550
247.2933, 944.3884
247.7754, 919.1315
248.2575, 889.4898
248.7396, 858.3898
249.2217, 827.5188
249.7039, 797.0519
250.1860, 767.9430
250.6681, 740.0637
251.1502, 713.8979
251.6323, 690.8690
252.1144, 671.6797
252.5966, 655.1152
253.0787, 640.4229
253.5608, 627.4174
254.0429, 615.5192
254.5250, 604.0604
255.0071, 593.4996
255.4893, 585.8103
255.9714, 582.5520
256.4535, 579.8748
256.9356, 575.9454
257.4177, 571.3414
257.8998, 566.8839
258.3820, 562.7914
258.8641, 559.2960
259.3462, 557.3661
259.8283, 557.9169
260.3104, 558.6152
260.7925, 558.2449
261.2747, 557.6411
261.7568, 558.0147
262.2389, 560.1252
262.7210, 563.2920
263.2031, 565.4047
263.6852, 565.2384
264.1674, 566.1692
264.6495, 569.4224
265.1316, 573.8021
265.6137, 578.0465
266.0958, 581.6035
266.5779, 584.8019
267.0601, 588.2151
267.5422, 590.8820
268.0243, 595.7133
268.5064, 604.6758
268.9885, 614.7839
269.4706, 623.2949
269.9528, 629.2643
270.4349, 633.8185
270.9170, 639.1325
271.3991, 645.8053
271.8812, 651.9945
272.3633, 658.7216
272.8455, 664.3086
273.3276, 667.2488
273.8097, 667.2835
274.2918, 665.4636
274.7739, 663.5342
275.2560, 662.7171
275.7382, 658.9022
276.2202, 651.8499
276.7024, 642.6923
277.1845, 632.0477
277.6666, 620.0086
278.1487, 606.3166
278.6308, 590.3161
279.1129, 570.8676
279.5951, 553.2009
280.0772, 538.3796
280.5593, 524.0260
281.0414, 509.0663
281.5235, 493.3795
282.0056, 477.2254
282.4878, 460.7373
282.9699, 443.5859
283.4520, 427.9285
283.9341, 413.6227
284.4162, 400.6011
284.8983, 389.4537
285.3805, 379.6636
285.8626, 369.9519
286.3447, 359.2136
286.8268, 347.5299
287.3089, 337.3846
287.7910, 329.7538
288.2732, 322.4910
288.7553, 314.8657
289.2374, 307.2134
289.7195, 300.3270
290.2016, 294.6955
290.6837, 290.1803
291.1659, 285.9130
291.6480, 282.2060
292.1301, 278.4061
292.6122, 274.3189
293.0943, 270.0956
293.5764, 265.8713
294.0586, 261.6750
294.5407, 257.6709
295.0228, 254.2896
295.5049, 252.0114
295.9870, 249.8100
296.4691, 247.4115
296.9513, 245.1776
297.4334, 243.6745
297.9155, 243.0622
298.3976, 242.7094
298.8797, 241.4928
299.3618, 238.2280
299.8440, 236.4207
300.3261, 237.4757
300.8082, 239.0877
301.2903, 239.2499
301.7724, 237.6544
302.2545, 235.5239
302.7367, 234.2505
303.2188, 234.0414
303.7009, 234.0889
304.1830, 234.5858
304.6651, 235.1548
305.1472, 235.5654
305.6294, 235.8131
306.1115, 235.9854
306.5936, 236.0975
307.0757, 236.1264
307.5578, 236.7795
308.0399, 237.2485
308.5221, 238.9784
309.0042, 243.8260
309.4863, 250.5930
309.9684, 256.1122
310.4505, 258.2183
310.9326, 257.4555
311.4148, 257.5148
311.8969, 258.2614
312.3790, 259.8264
312.8611, 262.7781
313.3432, 266.4771
313.8253, 269.7585
314.3075, 272.0192
314.7896, 273.9777
315.2717, 277.5543
315.7538, 284.2266
316.2359, 290.4149
316.7180, 295.6708
317.2001, 300.3861
317.6823, 304.5942
318.1644, 308.3825
318.6465, 312.6679
319.1286, 318.9858
319.6107, 328.7073
320.0928, 337.1352
320.5750, 342.8325
321.0571, 348.2916
321.5392, 355.7882
322.0213, 365.3526
322.5034, 375.0794
322.9855, 382.8366
323.4677, 388.2124
323.9498, 395.1737
324.4319, 403.8174
324.9140, 413.6770
325.3961, 424.7529
325.8782, 436.8790
326.3604, 449.9464
326.8425, 464.0374
327.3246, 478.9754
327.8067, 493.0213
328.2888, 504.9500
328.7709, 517.5234
329.2531, 531.6779
329.7352, 546.8665
330.2173, 562.0346
330.6994, 576.6481
331.1815, 591.2181
331.6636, 607.2783
332.1458, 624.6667
332.6279, 643.9396
333.1100, 665.8242
333.5921, 689.1394
334.0742, 712.5108
334.5563, 735.4928
335.0385, 759.5264
335.5206, 786.4106
336.0027, 816.5457
336.4848, 849.3767
336.9669, 885.0053
337.4490, 923.1732
337.9312, 964.4288
338.4133, 1008.498
338.8954, 1053.650
339.3775, 1098.211
339.8596, 1144.318
340.3417, 1187.679
340.8239, 1237.480
341.3060, 1286.005
341.7881, 1333.667
342.2702, 1378.551
342.7523, 1417.443
343.2344, 1448.389
343.7166, 1471.355
344.1987, 1485.749
344.6808, 1488.194
345.1629, 1484.767
345.6450, 1474.672
346.1271, 1459.430
346.6093, 1440.069
347.0914, 1417.214
347.5735, 1391.513
348.0556, 1364.423
348.5377, 1334.333
349.0198, 1305.578
349.5020, 1275.998
349.9841, 1249.067
350.4662, 1227.368
350.9483, 1211.194
351.4304, 1199.230
351.9125, 1190.133
352.3947, 1183.702
352.8768, 1181.680
353.3589, 1184.368
353.8410, 1191.071
354.3231, 1200.505
354.8052, 1213.838
355.2874, 1233.596
355.7695, 1261.666
356.2516, 1297.274
356.7337, 1336.574
357.2158, 1377.330
357.6979, 1425.771
358.1800, 1483.436
358.6621, 1548.567
359.1443, 1619.201
359.6264, 1694.934
360.1085, 1775.168
360.5906, 1860.203
361.0727, 1952.175
361.5548, 2043.617
362.0370, 2138.969
362.5191, 2229.575
363.0012, 2312.552
363.4833, 2386.752
363.9654, 2447.625
364.4475, 2493.086
364.9297, 2523.667
365.4118, 2529.771
365.8939, 2505.626
366.3760, 2460.130
366.8581, 2394.315
367.3402, 2311.058
367.8224, 2214.513
368.3045, 2105.468
368.7866, 1986.997
369.2687, 1866.332
369.7508, 1740.317
370.2329, 1619.925
370.7151, 1506.479
371.1972, 1400.796
371.6793, 1302.751
372.1614, 1213.199
372.6435, 1131.126
373.1256, 1056.093
373.6078, 988.2485
374.0899, 927.0977
374.5720, 874.5051
375.0541, 827.5017
375.5362, 783.7948
376.0183, 743.1511
376.5005, 706.2358
376.9826, 673.0777
377.4647, 643.8221
377.9468, 619.3903
378.4289, 601.4138
378.9110, 584.8406
379.3932, 565.2385
379.8753, 544.5975
380.3574, 526.9965
380.8395, 514.5864
381.3216, 504.9335
381.8037, 495.5868
382.2859, 486.5372
382.7680, 477.2355
383.2501, 466.3871
383.7322, 455.9790
384.2143, 448.8158
384.6964, 445.4594
385.1786, 443.6903
385.6607, 442.5468
386.1428, 442.0676
386.6249, 442.3543
387.1070, 443.4386
387.5891, 445.2793
388.0713, 448.0087
388.5534, 451.5421
389.0355, 455.5434
389.5176, 459.3437
389.9997, 463.9597
390.4818, 471.0810
390.9640, 480.6189
391.4461, 489.6538
391.9282, 495.7269
392.4103, 499.7153
392.8924, 506.3502
393.3745, 517.0450
393.8567, 528.5808
394.3388, 540.3268
394.8209, 551.9495
395.3030, 562.2148
395.7851, 570.5631
396.2672, 578.6483
396.7494, 589.7336
397.2315, 605.6042
397.7136, 620.1677
398.1957, 631.5414
398.6778, 642.7228
399.1599, 656.8639
399.6420, 673.8630
400.1241, 690.8429
400.6063, 705.3004
401.0884, 717.2476
401.5705, 727.9232
402.0526, 738.0812
402.5347, 746.3923
403.0168, 752.7350
403.4990, 756.9156
403.9811, 758.6234
404.4632, 757.7139
404.9453, 754.3074
405.4274, 748.7996
405.9095, 742.6452
406.3917, 731.4698
406.8738, 713.1755
407.3559, 691.9366
407.8380, 669.7518
408.3201, 647.3996
408.8022, 625.5849
409.2844, 605.1065
409.7665, 586.2409
410.2486, 565.4116
410.7307, 539.9244
411.2128, 515.3939
411.6949, 493.2818
412.1771, 473.2613
412.6592, 454.6598
413.1413, 437.2147
413.6234, 420.7748
414.1055, 404.9876
414.5876, 389.6274
415.0698, 375.4064
415.5519, 363.0973
416.0340, 351.6507
416.5161, 340.2285
416.9982, 328.7364
417.4803, 318.2812
417.9625, 310.1163
418.4446, 303.9531
418.9267, 297.4397
419.4088, 289.9546
419.8909, 283.0482
420.3730, 278.3282
420.8552, 274.8614
421.3373, 270.7207
421.8194, 264.3895
422.3015, 258.0123
422.7836, 254.7535
423.2657, 254.5724
423.7479, 253.6146
424.2300, 249.8133
424.7121, 244.9080
425.1942, 241.6589
425.6763, 240.3167
426.1584, 239.2788
426.6406, 237.8313
427.1227, 236.2504
427.6048, 235.0066
428.0869, 234.1737
428.5690, 233.6195
429.0511, 233.2600
429.5333, 233.1093
430.0154, 233.0356
430.4975, 232.7430
430.9796, 232.8062
431.4617, 233.7254
431.9438, 235.2646
432.4260, 236.6787
432.9081, 237.5225
433.3902, 238.3842
433.8723, 240.7273
434.3544, 246.0602
434.8365, 250.3823
435.3187, 252.3749
435.8008, 254.0990
436.2829, 257.4956
436.7650, 262.5963
437.2471, 267.7928
437.7292, 271.3842
438.2114, 273.2928
438.6935, 277.2895
439.1756, 284.6427
439.6577, 292.7428
440.1398, 301.3263
440.6219, 310.2059
441.1040, 319.0764
441.5862, 327.7787
442.0683, 336.6393
442.5504, 346.1048
443.0325, 356.1471
443.5146, 366.9939
443.9967, 379.4223
444.4789, 392.0109
444.9610, 402.7345
445.4431, 412.5429
445.9252, 425.0843
446.4073, 443.3841
446.8894, 466.3215
447.3716, 489.3642
447.8537, 511.6278
448.3358, 536.1920
448.8179, 563.4462
449.3000, 594.2627
449.7821, 630.2196
450.2643, 671.8466
450.7464, 717.7194
451.2285, 765.7842
451.7106, 816.7916
452.1927, 873.5623
452.6748, 937.2004
453.1570, 1005.005
453.6391, 1075.758
454.1212, 1148.792
454.6033, 1221.513
455.0854, 1293.834
455.5675, 1364.809
456.0497, 1435.288
456.5318, 1504.337
457.0139, 1568.672
457.4960, 1626.961
457.9781, 1679.034
458.4602, 1723.877
458.9424, 1760.462
459.4245, 1793.672
459.9066, 1818.936
460.3887, 1844.119
460.8708, 1874.397
461.3529, 1911.848
461.8351, 1960.217
462.3172, 2022.572
462.7993, 2098.332
463.2814, 2196.805
463.7635, 2321.926
464.2456, 2463.279
464.7278, 2623.639
465.2099, 2798.269
465.6920, 2985.266
466.1741, 3184.102
466.6562, 3382.295
467.1383, 3563.287
467.6205, 3736.593
468.1026, 3866.725
468.5847, 3961.820
469.0668, 4003.817
469.5489, 3979.095
470.0310, 3891.964
470.5132, 3752.774
470.9953, 3558.985
471.4774, 3325.888
471.9595, 3086.910
472.4416, 2836.795
472.9237, 2601.294
473.4059, 2386.619
473.8880, 2194.937
474.3701, 2029.401
474.8522, 1891.447
475.3343, 1776.371
475.8164, 1684.032
476.2986, 1613.036
476.7807, 1559.490
477.2628, 1523.590
477.7449, 1503.026
478.2270, 1496.397
478.7091, 1505.036
479.1913, 1529.726
479.6734, 1568.168
480.1555, 1625.185
480.6376, 1699.702
481.1197, 1795.060
481.6018, 1917.039
482.0839, 2067.198
482.5660, 2247.881
483.0482, 2464.118
483.5303, 2720.022
484.0124, 3004.092
484.4945, 3326.231
484.9766, 3664.409
485.4587, 4028.660
485.9409, 4400.519
486.4230, 4751.279
486.9051, 5069.620
487.3872, 5337.228
487.8693, 5503.718
488.3514, 5592.125
488.8336, 5524.626
489.3157, 5261.424
489.7978, 4895.332
490.2799, 4451.836
490.7620, 3956.343
491.2441, 3464.956
491.7263, 3014.851
492.2084, 2607.996
492.6905, 2255.203
493.1726, 1961.623
493.6547, 1711.898
494.1368, 1514.790
494.6190, 1353.310
495.1011, 1215.356
495.5832, 1099.868
496.0653, 1000.878
496.5474, 917.9549
497.0295, 848.8669
497.5117, 788.2293
497.9938, 735.8135
498.4759, 689.3362
498.9580, 647.0377
499.4401, 609.0404
499.9222, 575.1306
500.4044, 546.2341
500.8865, 520.3610
501.3686, 496.3694
501.8507, 474.5177
502.3328, 455.2576
502.8149, 438.8563
503.2971, 424.2297
503.7792, 409.7721
504.2613, 394.7197
504.7434, 382.5595
505.2255, 375.2404
505.7076, 368.5627
506.1898, 360.6915
506.6719, 351.8883
507.1540, 342.9023
507.6361, 334.0682
508.1182, 325.7860
508.6003, 319.1214
509.0825, 314.4865
509.5646, 310.3514
510.0467, 306.7724
510.5288, 303.4958
511.0109, 300.3036
511.4930, 297.2666
511.9752, 294.6848
512.4573, 292.9213
512.9394, 291.6241
513.4215, 289.9765
513.9036, 287.9276
514.3857, 285.7096
514.8679, 282.4542
515.3500, 279.8422
515.8321, 280.2100
516.3142, 283.9111
516.7963, 287.7344
517.2784, 290.5006
517.7606, 292.4979
518.2427, 293.7928
518.7248, 294.4726
519.2069, 295.6425
519.6890, 298.1580
520.1711, 301.7233
520.6533, 304.7755
521.1354, 305.7290
521.6175, 308.3566
522.0996, 314.3768
522.5817, 321.7137
523.0638, 328.5133
523.5460, 334.3272
524.0281, 339.3034
524.5102, 343.2064
524.9923, 346.1133
525.4744, 351.7899
525.9565, 362.2745
526.4387, 372.9590
526.9208, 382.9470
527.4029, 392.6784
527.8850, 402.4620
528.3671, 412.4146
528.8492, 422.8132
529.3314, 434.1998
529.8135, 446.4234
530.2956, 457.8900
530.7777, 467.4029
531.2598, 478.4049
531.7419, 494.3225
532.2241, 512.8399
532.7062, 530.4179
533.1883, 545.4594
533.6704, 561.3481
534.1525, 580.3663
534.6346, 601.9920
535.1168, 625.1631
535.5989, 649.6111
536.0810, 675.8135
536.5631, 703.8890
537.0452, 734.0303
537.5273, 767.4713
538.0095, 803.2620
538.4916, 843.1600
538.9737, 887.2503
539.4558, 936.2118
539.9379, 990.8340
540.4200, 1051.316
540.9022, 1118.119
541.3843, 1191.058
541.8664, 1269.512
542.3485, 1357.868
542.8306, 1459.958
543.3127, 1568.030
543.7948, 1681.921
544.2769, 1799.328
544.7590, 1916.469
545.2411, 2032.114
545.7233, 2147.910
546.2054, 2263.404
546.6875, 2379.281
547.1696, 2497.610
547.6517, 2614.324
548.1339, 2741.389
548.6160, 2886.038
549.0981, 3048.066
549.5802, 3235.012
550.0623, 3442.280
550.5444, 3680.017
551.0266, 3946.891
551.5087, 4250.574
551.9908, 4603.930
552.4729, 5009.945
552.9550, 5482.442
553.4371, 6033.665
553.9193, 6661.907
554.4014, 7408.358
554.8835, 8264.213
555.3656, 9227.853
555.8477, 10331.15
556.3298, 11537.64
556.8120, 12807.57
557.2941, 14128.11
557.7762, 15431.98
558.2583, 16684.08
558.7404, 17908.99
559.2225, 18837.24
559.7047, 19526.99
560.1868, 19786.00
560.6689, 19549.15
561.1510, 18875.77
561.6331, 17824.40
562.1152, 16341.53
562.5974, 14692.06
563.0795, 13034.37
563.5616, 11401.79
564.0437, 9911.118
564.5258, 8575.590
565.0079, 7402.112
565.4901, 6405.086
565.9722, 5593.614
566.4543, 4890.113
566.9364, 4317.793
567.4185, 3825.506
567.9006, 3407.852
568.3828, 3053.667
568.8649, 2750.500
569.3470, 2494.705
569.8291, 2273.810
570.3112, 2078.463
570.7933, 1908.337
571.2755, 1756.932
571.7576, 1629.416
572.2397, 1515.037
572.7218, 1411.969
573.2039, 1319.175
573.6860, 1236.142
574.1682, 1162.299
574.6503, 1096.044
575.1324, 1037.279
575.6145, 984.9913
576.0966, 934.7716
576.5787, 886.4063
577.0609, 840.1241
577.5430, 797.1962
578.0251, 756.6301
578.5072, 715.8253
578.9893, 673.5703
579.4714, 633.7101
579.9536, 598.1475
580.4357, 565.5934
580.9178, 534.3080
581.3999, 504.1752
581.8820, 475.3952
582.3641, 447.9525
582.8463, 422.1822
