##NAMES=Destinezite
##RRUFFID=R050631
##IDEAL CHEMISTRY=Fe^3+^_2_(PO_4_)(S^6+^O_4_)(OH)&#183;6H_2_O
##LOCALITY=Patagonia Mountains, Arizona, USA
##OWNER=RRUFF
##SOURCE=University of Arizona Mineral Museum
##DESCRIPTION=Colorless acicular crystal
##STATUS=The identification of this mineral has been confirmed by X-ray diffraction.
##URL=rruff.info/R050631
92.02539, 246.0905
92.50751, 244.8960
92.98962, 246.1136
93.47174, 247.4398
93.95386, 249.4137
94.43597, 250.7459
94.91809, 251.2879
95.40021, 251.3559
95.88232, 251.0347
96.36444, 250.4870
96.84656, 249.3374
97.32867, 247.5341
97.81078, 245.3211
98.29290, 243.0562
98.77502, 240.9128
99.25713, 238.6167
99.73925, 235.7261
100.2214, 231.8234
100.7035, 227.9301
101.1856, 224.3921
101.6677, 221.2488
102.1498, 218.4287
102.6320, 215.8465
103.1141, 213.4418
103.5962, 211.4742
104.0783, 210.0600
104.5604, 208.9851
105.0425, 208.0273
105.5247, 207.1021
106.0068, 206.2837
106.4889, 205.8034
106.9710, 205.7932
107.4531, 205.3864
107.9352, 203.7755
108.4173, 201.2290
108.8995, 199.2567
109.3816, 198.6130
109.8637, 198.6611
110.3458, 198.7947
110.8279, 199.0202
111.3100, 199.0722
111.7922, 198.5137
112.2743, 197.0941
112.7564, 195.8777
113.2385, 195.4367
113.7206, 195.2003
114.2027, 194.5675
114.6849, 193.2054
115.1670, 191.4709
115.6491, 190.6620
116.1312, 191.6008
116.6133, 192.6055
117.0954, 193.6365
117.5776, 194.5171
118.0597, 194.9463
118.5418, 194.6431
119.0239, 193.5844
119.5060, 193.4138
119.9881, 194.8211
120.4703, 196.2721
120.9524, 197.2064
121.4345, 197.6061
121.9166, 197.6953
122.3987, 197.6194
122.8808, 197.3416
123.3630, 197.2258
123.8451, 197.1768
124.3272, 197.3345
124.8093, 197.9255
125.2914, 199.0359
125.7735, 200.2766
126.2557, 201.4180
126.7378, 202.4469
127.2199, 202.8634
127.7020, 201.9303
128.1841, 200.1420
128.6662, 199.1407
129.1483, 199.5549
129.6305, 200.4172
130.1126, 200.9170
130.5947, 201.0844
131.0768, 201.2843
131.5589, 201.9605
132.0410, 203.2197
132.5232, 204.0825
133.0053, 203.8551
133.4874, 203.5860
133.9695, 203.7290
134.4516, 204.4018
134.9337, 205.5324
135.4159, 207.0987
135.8980, 209.5524
136.3801, 211.5925
136.8622, 212.7089
137.3443, 213.6871
137.8264, 215.4267
138.3086, 218.2364
138.7907, 221.4438
139.2728, 223.1294
139.7549, 222.3680
140.2370, 221.0457
140.7191, 218.5505
141.2013, 215.6875
141.6834, 213.8383
142.1655, 213.9155
142.6476, 215.2547
143.1297, 214.8771
143.6118, 211.3173
144.0939, 207.9628
144.5761, 206.4087
145.0582, 206.3458
145.5403, 206.3473
146.0224, 205.6249
146.5045, 204.3068
146.9866, 202.9460
147.4688, 201.4377
147.9509, 199.9993
148.4330, 198.9075
148.9151, 198.2179
149.3972, 197.5163
149.8793, 196.3739
150.3615, 195.0910
150.8436, 194.0639
151.3257, 193.5654
151.8078, 193.3468
152.2899, 192.8852
152.7720, 192.2174
153.2542, 191.1754
153.7363, 189.4251
154.2184, 187.3642
154.7005, 185.6446
155.1826, 184.8788
155.6647, 184.8927
156.1469, 183.8550
156.6290, 180.0782
157.1111, 176.8670
157.5932, 175.3707
158.0753, 175.1538
158.5574, 175.1971
159.0396, 174.6361
159.5217, 173.3779
160.0038, 172.3646
160.4859, 171.8700
160.9680, 171.3386
161.4501, 170.3555
161.9323, 169.0330
162.4144, 167.9110
162.8965, 167.6052
163.3786, 168.4115
163.8607, 168.7613
164.3428, 168.3933
164.8250, 167.7963
165.3071, 167.3379
165.7892, 167.0714
166.2713, 166.7780
166.7534, 166.1452
167.2355, 165.1068
167.7177, 164.2384
168.1998, 163.7269
168.6819, 163.3708
169.1640, 162.8095
169.6461, 161.8751
170.1282, 161.0918
170.6104, 161.3813
171.0925, 162.6055
171.5746, 163.5493
172.0567, 163.6048
172.5388, 162.9991
173.0209, 162.3066
173.5031, 161.3443
173.9852, 160.7666
174.4673, 161.3121
174.9494, 162.8598
175.4315, 164.2697
175.9136, 164.5515
176.3958, 163.7518
176.8779, 163.2606
177.3600, 163.7103
177.8421, 164.1454
178.3242, 163.8911
178.8063, 162.9785
179.2885, 162.0298
179.7706, 161.7309
180.2527, 162.2427
180.7348, 162.7128
181.2169, 162.9443
181.6990, 163.2225
182.1812, 163.8392
182.6633, 164.7761
183.1454, 165.6523
183.6275, 165.8259
184.1096, 164.6180
184.5917, 164.1745
185.0738, 164.8039
185.5560, 165.8406
186.0381, 166.9455
186.5202, 167.9867
187.0023, 168.8982
187.4844, 169.5534
187.9665, 169.7459
188.4487, 169.9875
188.9308, 170.2542
189.4129, 170.5759
189.8950, 171.0692
190.3771, 171.7632
190.8592, 172.4307
191.3414, 172.5676
191.8235, 171.6182
192.3056, 171.1954
192.7877, 171.5626
193.2698, 172.5244
193.7519, 173.9516
194.2341, 175.8761
194.7162, 177.9775
195.1983, 179.6259
195.6804, 180.9080
196.1625, 181.7569
196.6446, 181.7981
197.1268, 181.3887
197.6089, 181.3735
198.0910, 182.1262
198.5731, 183.2563
199.0552, 184.1252
199.5373, 184.7018
200.0195, 185.2655
200.5016, 186.0319
200.9837, 186.9454
201.4658, 187.6878
201.9479, 188.0364
202.4300, 188.3088
202.9122, 188.9714
203.3943, 190.0964
203.8764, 191.0016
204.3585, 191.2700
204.8406, 190.9045
205.3227, 189.7622
205.8048, 187.0228
206.2870, 184.0488
206.7691, 181.7453
207.2512, 180.2231
207.7333, 179.2136
208.2154, 178.6409
208.6975, 178.6436
209.1797, 178.2528
209.6618, 177.1095
210.1439, 175.6424
210.6260, 173.9487
211.1081, 172.0836
211.5902, 170.2306
212.0724, 168.5932
212.5545, 167.1568
213.0366, 166.0351
213.5187, 165.8132
214.0008, 165.4783
214.4829, 164.1693
214.9651, 161.8269
215.4472, 159.2656
215.9293, 157.7046
216.4114, 157.6272
216.8935, 157.6288
217.3756, 158.1676
217.8578, 158.4576
218.3399, 157.5630
218.8220, 155.4581
219.3041, 153.2644
219.7862, 152.7708
220.2683, 155.1669
220.7505, 157.0761
221.2326, 158.6429
221.7147, 159.7099
222.1968, 160.1049
222.6789, 159.8065
223.1610, 158.9671
223.6432, 157.7309
224.1253, 155.4430
224.6074, 154.2470
225.0895, 155.1712
225.5716, 156.6008
226.0537, 156.8328
226.5358, 155.5103
227.0180, 153.9431
227.5001, 154.1234
227.9822, 156.9265
228.4643, 158.6797
228.9464, 158.1815
229.4285, 156.9824
229.9107, 156.8525
230.3928, 158.2100
230.8749, 159.9811
231.3570, 160.8608
231.8391, 160.8332
232.3212, 160.2932
232.8034, 158.6711
233.2855, 156.8046
233.7676, 155.7997
234.2497, 155.9097
234.7318, 156.5500
235.2139, 157.2925
235.6961, 158.1143
236.1782, 158.6384
236.6603, 158.5675
237.1424, 158.2020
237.6245, 157.9853
238.1066, 157.9778
238.5888, 158.0963
239.0709, 158.3157
239.5530, 158.6070
240.0351, 158.8920
240.5172, 159.0905
240.9993, 159.2753
241.4815, 159.6600
241.9636, 160.3986
242.4457, 160.9596
242.9278, 160.7582
243.4099, 160.0957
243.8920, 159.5862
244.3742, 159.6621
244.8563, 160.0396
245.3384, 160.0184
245.8205, 159.4155
246.3026, 158.8233
246.7847, 158.5491
247.2668, 158.5063
247.7490, 158.5891
248.2311, 158.8259
248.7132, 159.1211
249.1953, 159.2326
249.6774, 159.0992
250.1595, 158.8957
250.6417, 158.6813
251.1238, 158.4562
251.6059, 158.2106
252.0880, 157.9206
252.5701, 157.6317
253.0522, 157.5030
253.5344, 157.7412
254.0165, 157.7173
254.4986, 156.9797
254.9807, 156.0233
255.4628, 155.4747
255.9449, 155.6768
256.4271, 156.1741
256.9092, 155.7435
257.3913, 153.4376
257.8734, 152.0529
258.3555, 152.7266
258.8376, 154.1255
259.3198, 155.0231
259.8019, 154.9372
260.2840, 154.2493
260.7661, 153.7126
261.2482, 153.2780
261.7303, 153.1240
262.2125, 153.3966
262.6946, 153.8252
263.1767, 154.1978
263.6588, 154.4455
264.1409, 154.6189
264.6230, 154.7946
265.1052, 154.9096
265.5873, 155.1621
266.0694, 155.7488
266.5515, 156.3286
267.0336, 156.5935
267.5157, 156.4999
267.9979, 156.2901
268.4800, 156.3049
268.9621, 156.5428
269.4442, 157.0526
269.9263, 158.2647
270.4084, 159.3839
270.8906, 159.7706
271.3727, 159.4114
271.8548, 158.8473
272.3369, 158.7242
272.8190, 159.1365
273.3011, 159.7211
273.7833, 160.9712
274.2654, 161.9608
274.7475, 161.8615
275.2296, 160.8500
275.7117, 159.9120
276.1938, 160.0678
276.6760, 161.5458
277.1581, 162.7477
277.6402, 163.6173
278.1223, 164.3392
278.6044, 165.0394
279.0865, 165.6836
279.5686, 166.0992
280.0508, 166.0976
280.5329, 165.6609
281.0150, 165.6592
281.4971, 166.2571
281.9792, 167.0220
282.4613, 167.9412
282.9435, 168.9079
283.4256, 169.7524
283.9077, 170.3855
284.3898, 170.7894
284.8719, 170.7489
285.3540, 169.6487
285.8362, 168.8612
286.3183, 168.9210
286.8004, 169.5249
287.2825, 170.1338
287.7646, 170.4788
288.2467, 170.6171
288.7289, 170.7460
289.2110, 171.1540
289.6931, 171.2080
290.1752, 170.4270
290.6573, 169.3319
291.1394, 168.6810
291.6216, 168.7757
292.1037, 169.3427
292.5858, 169.8976
293.0679, 170.8926
293.5500, 170.9897
294.0321, 169.1698
294.5143, 166.7687
294.9964, 165.2543
295.4785, 165.0172
295.9606, 165.5741
296.4427, 166.3490
296.9248, 167.5454
297.4070, 168.2841
297.8891, 168.1876
298.3712, 167.8279
298.8533, 167.8219
299.3354, 168.2278
299.8175, 168.4966
300.2997, 168.0793
300.7818, 166.8574
301.2639, 165.3620
301.7460, 163.3078
302.2281, 161.2205
302.7102, 159.2656
303.1924, 157.5326
303.6745, 156.3535
304.1566, 156.1650
304.6387, 156.8736
305.1208, 156.6896
305.6029, 155.4285
306.0851, 153.5648
306.5672, 150.9592
307.0493, 147.8701
307.5314, 145.0611
308.0135, 142.9938
308.4956, 141.5149
308.9778, 139.9783
309.4599, 138.2482
309.9420, 136.6326
310.4241, 135.2840
310.9062, 134.1157
311.3883, 133.0093
311.8705, 131.9432
312.3526, 130.8427
312.8347, 129.4648
313.3168, 127.4193
313.7989, 126.0114
314.2810, 126.0354
314.7632, 126.6575
315.2453, 126.7220
315.7274, 125.8999
316.2095, 124.7473
316.6916, 124.0084
317.1737, 123.7841
317.6559, 123.5399
318.1380, 123.3654
318.6201, 123.0762
319.1022, 122.3077
319.5843, 121.0603
320.0664, 120.0564
320.5485, 120.1811
321.0306, 121.5440
321.5128, 121.6611
321.9949, 118.8690
322.4770, 116.2646
322.9591, 116.2722
323.4412, 118.4961
323.9233, 120.5856
324.4055, 120.9401
324.8876, 119.8120
325.3697, 119.1460
325.8518, 119.3942
326.3339, 119.5368
326.8160, 119.0516
327.2982, 118.1826
327.7803, 117.4694
328.2624, 117.1714
328.7445, 117.1527
329.2266, 117.0432
329.7087, 116.6664
330.1909, 116.5207
330.6730, 116.9593
331.1551, 117.5898
331.6372, 117.8370
332.1193, 117.5288
332.6014, 117.0583
333.0836, 117.0501
333.5657, 117.8475
334.0478, 118.0234
334.5299, 116.8740
335.0120, 115.5167
335.4941, 114.9355
335.9763, 115.2107
336.4584, 115.7131
336.9405, 115.8981
337.4226, 115.7408
337.9047, 115.3501
338.3868, 114.0447
338.8690, 113.1574
339.3511, 113.8675
339.8332, 115.6698
340.3153, 116.8932
340.7974, 116.3547
341.2795, 114.4524
341.7617, 113.7815
342.2438, 115.4193
342.7259, 116.8212
343.2080, 117.5537
343.6901, 117.6689
344.1722, 117.0719
344.6544, 115.7031
345.1365, 114.0571
345.6186, 113.1686
346.1007, 113.6365
346.5828, 114.0235
347.0649, 114.1706
347.5471, 114.3222
348.0292, 114.7780
348.5113, 115.5538
348.9934, 116.3203
349.4755, 116.6249
349.9576, 116.2367
350.4398, 116.3834
350.9219, 117.8377
351.4040, 119.0471
351.8861, 118.8786
352.3682, 117.6676
352.8503, 116.6031
353.3325, 116.6059
353.8146, 117.6029
354.2967, 118.4688
354.7788, 119.3815
355.2609, 119.9599
355.7430, 119.9087
356.2252, 119.5270
356.7073, 119.2654
357.1894, 119.3409
357.6715, 119.5534
358.1536, 119.3539
358.6357, 117.9756
359.1179, 117.3938
359.5999, 118.2129
360.0821, 119.4490
360.5642, 120.4537
361.0463, 121.0312
361.5284, 121.1631
362.0105, 120.6998
362.4926, 119.2968
362.9748, 118.6576
363.4569, 119.2422
363.9390, 120.1040
364.4211, 121.1448
364.9032, 122.1508
365.3853, 122.7037
365.8675, 122.4309
366.3496, 121.4251
366.8317, 120.5647
367.3138, 119.8277
367.7959, 119.2907
368.2780, 118.9335
368.7602, 118.7862
369.2423, 119.0159
369.7244, 119.7189
370.2065, 120.4766
370.6886, 120.3637
371.1707, 118.9362
371.6529, 117.7507
372.1350, 117.1238
372.6171, 116.7191
373.0992, 116.4379
373.5813, 116.2144
374.0634, 115.8346
374.5456, 114.8689
375.0277, 113.2600
375.5098, 112.3838
375.9919, 113.0083
376.4740, 113.5811
376.9561, 113.1703
377.4383, 112.1520
377.9204, 111.4625
378.4025, 111.8319
378.8846, 112.7834
379.3667, 112.9165
379.8488, 111.9284
380.3310, 110.8987
380.8131, 110.0889
381.2952, 109.5351
381.7773, 109.4001
382.2594, 109.8094
382.7415, 110.2471
383.2237, 110.0444
383.7058, 109.2061
384.1879, 108.5829
384.6700, 108.5511
385.1521, 108.6232
385.6342, 108.3253
386.1164, 107.6812
386.5985, 107.0479
387.0806, 106.5853
387.5627, 106.2833
388.0448, 106.0872
388.5269, 105.9556
389.0091, 106.0623
389.4912, 106.8143
389.9733, 107.9035
390.4554, 108.6394
390.9375, 108.8756
391.4196, 108.7156
391.9018, 107.9546
392.3839, 106.6954
392.8660, 105.9728
393.3481, 106.4620
393.8302, 107.5469
394.3123, 107.9770
394.7945, 107.5821
395.2766, 107.1702
395.7587, 107.0708
396.2408, 107.1556
396.7229, 107.2364
397.2050, 107.2794
397.6872, 107.2414
398.1693, 107.0072
398.6514, 106.5477
399.1335, 106.3775
399.6156, 106.7534
400.0977, 107.2346
400.5798, 107.4842
401.0620, 107.5396
401.5441, 107.6486
402.0262, 107.9710
402.5083, 108.4633
402.9904, 108.9017
403.4725, 109.3465
403.9547, 109.6746
404.4368, 109.8769
404.9189, 109.9450
405.4010, 109.7974
405.8831, 109.4233
406.3652, 109.0289
406.8474, 108.9445
407.3295, 109.3766
407.8116, 109.5117
408.2937, 109.1298
408.7758, 108.6837
409.2579, 108.3527
409.7401, 108.1783
410.2222, 108.1716
410.7043, 108.3466
411.1864, 108.6950
411.6685, 109.1579
412.1506, 110.2812
412.6328, 110.8114
413.1149, 109.9895
413.5970, 108.7501
414.0791, 108.1983
414.5612, 108.6931
415.0433, 109.5931
415.5255, 109.8451
416.0076, 109.1761
416.4897, 108.8073
416.9718, 109.0476
417.4539, 109.4070
417.9360, 109.7487
418.4182, 110.0245
418.9003, 110.1475
419.3824, 109.9378
419.8645, 109.5379
420.3466, 109.6391
420.8287, 110.4838
421.3109, 111.3275
421.7930, 112.0565
422.2751, 112.5453
422.7572, 112.5907
423.2393, 112.1018
423.7214, 111.3377
424.2036, 110.3405
424.6857, 109.1441
425.1678, 108.6486
425.6499, 109.4682
426.1320, 110.5397
426.6141, 110.6777
427.0963, 110.0331
427.5784, 109.8203
428.0605, 111.1113
428.5426, 112.9173
429.0247, 113.6064
429.5068, 113.0481
429.9890, 112.2842
430.4711, 111.9018
430.9532, 111.8236
431.4353, 111.7240
431.9174, 111.5224
432.3995, 111.4172
432.8817, 111.5759
433.3638, 111.8957
433.8459, 112.2151
434.3280, 112.5070
434.8101, 112.6155
435.2922, 112.1880
435.7744, 110.9188
436.2565, 110.4696
436.7386, 111.6019
437.2207, 113.0053
437.7028, 113.8135
438.1849, 114.0366
438.6671, 114.0637
439.1492, 114.1511
439.6313, 114.2659
440.1134, 114.2106
440.5955, 113.6897
441.0776, 113.3652
441.5598, 113.4168
442.0418, 113.6456
442.5240, 113.8143
443.0061, 113.8764
443.4882, 114.0189
443.9703, 114.5468
444.4524, 115.6281
444.9345, 116.3129
445.4167, 116.0729
445.8988, 115.9539
446.3809, 116.6870
446.8630, 117.7801
447.3451, 118.1411
447.8272, 116.9771
448.3094, 115.1195
448.7915, 114.7891
449.2736, 116.5453
449.7557, 118.2327
450.2378, 119.3156
450.7199, 120.1512
451.2021, 120.9745
451.6842, 121.8122
452.1663, 122.5556
452.6484, 122.9802
453.1305, 123.2061
453.6126, 123.8131
454.0948, 124.9825
454.5769, 126.1757
455.0590, 126.8986
455.5411, 127.4095
456.0232, 128.2157
456.5053, 129.7663
456.9875, 131.1704
457.4696, 131.5096
457.9517, 130.9957
458.4338, 130.5497
458.9159, 130.3917
459.3980, 130.5957
459.8802, 131.5100
460.3623, 133.2480
460.8444, 134.4581
461.3265, 134.5856
461.8086, 134.2936
462.2907, 134.0385
462.7729, 133.9011
463.2550, 134.0436
463.7371, 134.6906
464.2192, 135.6419
464.7013, 135.7338
465.1834, 134.3579
465.6656, 132.9649
466.1477, 131.5354
466.6298, 130.2903
467.1119, 129.5548
467.5940, 129.3578
468.0761, 129.3590
468.5583, 129.1989
469.0404, 128.9114
469.5225, 128.2223
470.0046, 126.7722
470.4867, 125.2842
470.9688, 123.7948
471.4510, 122.4545
471.9331, 121.6318
472.4152, 121.5744
472.8973, 121.6263
473.3794, 120.2251
473.8615, 116.7713
474.3437, 114.4448
474.8258, 115.1955
475.3079, 116.1579
475.7900, 115.4541
476.2721, 113.2263
476.7542, 110.8395
477.2364, 109.2561
477.7185, 108.0801
478.2006, 106.1596
478.6827, 103.2805
479.1648, 100.9843
479.6469, 100.2810
480.1291, 100.6050
480.6112, 100.9420
481.0933, 101.3540
481.5754, 101.4905
482.0575, 101.0471
482.5396, 100.2357
483.0217, 99.40813
483.5038, 98.62917
483.9860, 97.92233
484.4681, 97.32413
484.9502, 96.84133
485.4323, 96.31017
485.9144, 95.46469
486.3965, 94.85388
486.8787, 94.92870
487.3608, 95.35989
487.8429, 95.60714
488.3250, 95.45398
488.8071, 94.90766
489.2892, 93.94621
489.7714, 92.30747
490.2535, 90.87317
490.7356, 89.39399
491.2177, 88.31215
491.6998, 88.11397
492.1819, 88.50883
492.6641, 88.76647
493.1462, 88.37773
493.6283, 87.64878
494.1104, 87.58129
494.5925, 88.57023
495.0746, 89.14634
495.5568, 88.34461
496.0389, 87.44031
496.5210, 87.63986
497.0031, 88.89409
497.4852, 89.67544
497.9673, 88.34879
498.4495, 85.77031
498.9316, 84.46461
499.4137, 84.77133
499.8958, 85.13168
500.3779, 84.48718
500.8600, 83.35770
501.3422, 82.85291
501.8243, 83.28105
502.3064, 83.77963
502.7885, 83.81074
503.2706, 83.65001
503.7527, 83.89124
504.2349, 84.66889
504.7170, 85.44791
505.1991, 85.71291
505.6812, 85.43530
506.1633, 85.00944
506.6454, 84.37732
507.1276, 83.68102
507.6097, 82.70007
508.0918, 81.76554
508.5739, 81.43340
509.0560, 81.89730
509.5381, 82.80819
510.0203, 83.69246
510.5024, 84.71537
510.9845, 85.14457
511.4666, 84.40987
511.9487, 83.64364
512.4308, 83.26286
512.9130, 83.17828
513.3951, 83.14129
513.8772, 83.01649
514.3593, 82.90752
514.8414, 83.11547
515.3235, 83.73348
515.8057, 83.90947
516.2878, 82.88913
516.7699, 81.93768
517.2520, 82.46619
517.7341, 84.21477
518.2162, 85.28789
518.6984, 84.28202
519.1805, 82.51685
519.6626, 81.57043
520.1447, 81.45341
520.6268, 81.92530
521.1089, 83.12572
521.5911, 84.55154
522.0732, 84.91059
522.5553, 83.83547
523.0374, 83.00290
523.5195, 82.76426
524.0016, 82.83080
524.4838, 82.98129
524.9659, 83.19279
525.4480, 83.55630
525.9301, 84.16606
526.4122, 84.93831
526.8943, 85.44560
527.3765, 85.47480
527.8586, 85.52458
528.3407, 85.66042
528.8228, 85.81779
529.3049, 85.92931
529.7870, 85.99718
530.2692, 86.08889
530.7513, 86.27241
531.2334, 86.53157
531.7155, 86.76602
532.1976, 86.94785
532.6797, 87.16955
533.1619, 87.47549
533.6440, 87.83932
534.1261, 88.25909
534.6082, 88.74315
535.0903, 89.21219
535.5724, 89.73446
536.0546, 90.18304
536.5367, 90.12318
537.0188, 89.44850
537.5009, 89.04211
537.9830, 89.75033
538.4651, 91.27943
538.9473, 91.95964
539.4294, 90.82863
539.9115, 90.14095
540.3936, 90.91424
540.8757, 92.29007
541.3578, 93.32225
541.8400, 93.77846
542.3221, 93.75658
542.8042, 93.24106
543.2863, 92.21216
543.7684, 91.92257
544.2505, 93.13181
544.7326, 94.19848
545.2147, 94.90024
545.6968, 95.26176
546.1790, 95.13503
546.6611, 94.54046
547.1432, 94.09615
547.6253, 94.76237
548.1074, 96.38794
548.5895, 97.12106
549.0717, 96.60735
549.5538, 95.80964
550.0359, 94.94687
550.5180, 94.25761
551.0001, 94.23905
551.4822, 95.27091
551.9644, 96.24545
552.4465, 96.27017
552.9286, 95.78338
553.4107, 95.81456
553.8928, 96.57702
554.3749, 97.24425
554.8571, 97.05727
555.3392, 96.03292
555.8213, 95.00107
556.3034, 93.80124
556.7855, 92.78783
557.2676, 92.23172
557.7498, 91.81902
558.2319, 91.12202
558.7140, 90.07265
559.1961, 89.02746
559.6782, 88.37743
560.1603, 88.12930
560.6425, 87.93015
561.1246, 87.69387
561.6067, 87.65019
562.0888, 88.34566
562.5709, 89.01742
563.0530, 88.61056
563.5352, 86.83875
564.0173, 84.97855
564.4994, 84.14745
564.9815, 84.10416
565.4636, 84.16306
565.9457, 84.33098
566.4279, 84.20747
566.9100, 83.39985
567.3921, 82.09506
567.8742, 80.97948
568.3563, 79.81533
568.8384, 79.22694
569.3206, 80.13424
569.8027, 81.37688
570.2848, 81.36372
570.7669, 79.97404
571.2490, 78.35960
571.7311, 77.51402
572.2133, 77.37305
572.6954, 77.26842
573.1775, 77.16053
573.6596, 77.15067
574.1417, 77.38360
574.6238, 77.62721
575.1060, 77.72538
575.5881, 77.63637
576.0702, 77.33146
576.5523, 76.62171
577.0344, 75.69025
577.5165, 75.29049
577.9987, 75.54998
578.4808, 75.76942
578.9629, 75.47648
579.4450, 75.11298
579.9271, 75.40392
580.4092, 76.49431
580.8914, 77.27597
581.3735, 77.32240
581.8556, 76.85466
582.3377, 75.91389
582.8198, 74.62280
583.3019, 73.37399
583.7841, 72.29903
584.2662, 71.66246
584.7483, 72.24842
585.2304, 75.66700
585.7125, 77.64219
586.1946, 77.40482
586.6768, 76.51009
587.1589, 75.50719
587.6410, 74.67715
588.1231, 74.45289
588.6052, 75.18338
589.0873, 76.35591
589.5695, 76.87064
