##NAMES=Destinezite
##RRUFFID=R050631
##IDEAL CHEMISTRY=Fe^3+^_2_(PO_4_)(S^6+^O_4_)(OH)&#183;6H_2_O
##LOCALITY=Patagonia Mountains, Arizona, USA
##OWNER=RRUFF
##SOURCE=University of Arizona Mineral Museum
##DESCRIPTION=Colorless acicular crystal
##STATUS=The identification of this mineral has been confirmed by X-ray diffraction.
##URL=rruff.info/R050631
89.78156, 0.0000000E+00
90.26367, 27.20996
90.74579, 27.74447
91.22791, 27.60723
91.71002, 26.85549
92.19214, 25.97970
92.67426, 25.12408
93.15638, 24.42066
93.63850, 24.27354
94.12061, 25.25253
94.60273, 26.76119
95.08485, 27.32329
95.56696, 26.85189
96.04908, 25.98827
96.53120, 25.36596
97.01331, 24.99338
97.49543, 24.82639
97.97755, 24.93952
98.45966, 25.31237
98.94178, 25.58756
99.42390, 25.76536
99.90602, 25.84040
100.3881, 25.67590
100.8703, 25.11542
101.3524, 24.87927
101.8345, 25.53343
102.3166, 27.41286
102.7987, 28.67502
103.2808, 28.96679
103.7630, 28.55580
104.2451, 28.45197
104.7272, 28.12939
105.2093, 28.81063
105.6914, 31.79758
106.1735, 40.35996
106.6557, 45.47970
107.1378, 44.66414
107.6199, 37.65480
108.1020, 33.25491
108.5841, 32.75540
109.0662, 34.16901
109.5484, 35.70471
110.0305, 37.69883
110.5126, 39.49902
110.9947, 40.82662
111.4768, 41.47999
111.9590, 42.65168
112.4411, 43.97931
112.9232, 46.00972
113.4053, 49.40422
113.8874, 55.10179
114.3695, 61.53360
114.8517, 68.11464
115.3338, 74.76445
115.8159, 81.55917
116.2980, 88.20167
116.7801, 95.05566
117.2622, 102.8346
117.7444, 111.3101
118.2265, 121.1566
118.7086, 132.7876
119.1907, 146.5705
119.6728, 161.9465
120.1549, 179.4448
120.6371, 198.6042
121.1192, 217.6353
121.6013, 235.0304
122.0834, 251.7307
122.5655, 268.7243
123.0476, 286.7710
123.5298, 304.8261
124.0119, 322.3547
124.4940, 339.3014
124.9761, 354.9518
125.4582, 367.5341
125.9404, 378.3184
126.4225, 389.6807
126.9046, 402.0464
127.3867, 415.7062
127.8688, 431.3739
128.3509, 449.1420
128.8331, 468.0183
129.3152, 486.5801
129.7973, 505.2245
130.2794, 525.4216
130.7615, 548.5955
131.2436, 574.0007
131.7258, 598.2797
132.2079, 620.7499
132.6900, 643.7288
133.1721, 671.7975
133.6542, 704.9042
134.1364, 737.9153
134.6185, 767.8490
135.1006, 794.9800
135.5827, 823.3766
136.0648, 854.2342
136.5469, 885.7992
137.0291, 913.8053
137.5112, 937.6671
137.9933, 959.6249
138.4754, 981.2354
138.9575, 1002.371
139.4396, 1022.937
139.9218, 1043.184
140.4039, 1062.744
140.8860, 1078.984
141.3681, 1090.521
141.8502, 1100.996
142.3323, 1113.206
142.8145, 1128.608
143.2966, 1142.337
143.7787, 1152.916
144.2608, 1160.508
144.7429, 1169.416
145.2250, 1179.663
145.7072, 1191.325
146.1893, 1204.611
146.6714, 1220.304
147.1535, 1236.404
147.6356, 1252.264
148.1178, 1267.588
148.5999, 1284.276
149.0820, 1303.269
149.5641, 1323.172
150.0462, 1342.199
150.5283, 1363.054
151.0105, 1380.106
151.4926, 1378.910
151.9747, 1368.378
152.4568, 1358.797
152.9389, 1352.160
153.4210, 1346.308
153.9032, 1338.047
154.3853, 1324.073
154.8674, 1310.512
155.3495, 1299.509
155.8316, 1292.113
156.3137, 1284.701
156.7959, 1276.015
157.2780, 1266.937
157.7601, 1259.183
158.2422, 1254.240
158.7243, 1249.732
159.2065, 1244.288
159.6886, 1236.594
160.1707, 1229.847
160.6528, 1225.412
161.1349, 1222.630
161.6170, 1219.797
162.0992, 1216.063
162.5813, 1212.199
163.0634, 1208.778
163.5455, 1206.573
164.0276, 1203.928
164.5097, 1199.916
164.9919, 1194.785
165.4740, 1189.495
165.9561, 1183.394
166.4382, 1177.862
166.9203, 1174.106
167.4024, 1173.242
167.8846, 1173.441
168.3667, 1173.957
168.8488, 1174.714
169.3309, 1175.181
169.8130, 1173.904
170.2952, 1172.457
170.7773, 1172.845
171.2594, 1177.771
171.7415, 1183.207
172.2236, 1185.466
172.7057, 1184.716
173.1879, 1183.549
173.6700, 1183.405
174.1521, 1184.168
174.6342, 1185.637
175.1163, 1189.084
175.5984, 1192.534
176.0806, 1192.958
176.5627, 1190.332
177.0448, 1187.803
177.5269, 1188.237
178.0090, 1190.902
178.4911, 1194.098
178.9733, 1197.726
179.4554, 1201.227
179.9375, 1203.669
180.4196, 1204.978
180.9017, 1205.744
181.3838, 1206.211
181.8660, 1206.550
182.3481, 1207.353
182.8302, 1208.492
183.3123, 1210.343
183.7944, 1214.255
184.2766, 1220.647
184.7587, 1227.320
185.2408, 1231.288
185.7229, 1232.948
186.2050, 1234.910
186.6871, 1238.748
187.1693, 1243.982
187.6514, 1248.546
188.1335, 1252.293
188.6156, 1255.759
189.0977, 1259.491
189.5798, 1263.490
190.0620, 1268.314
190.5441, 1275.072
191.0262, 1283.293
191.5083, 1289.552
191.9904, 1293.275
192.4725, 1296.104
192.9547, 1300.799
193.4368, 1307.437
193.9189, 1314.842
194.4010, 1322.238
194.8831, 1329.701
195.3652, 1338.524
195.8474, 1349.113
196.3295, 1360.606
196.8116, 1371.462
197.2937, 1381.649
197.7758, 1391.234
198.2579, 1399.559
198.7401, 1406.555
199.2222, 1415.400
199.7043, 1426.667
200.1864, 1439.296
200.6685, 1451.229
201.1507, 1462.459
201.6328, 1472.650
202.1149, 1481.911
202.5970, 1490.388
203.0791, 1496.391
203.5612, 1499.551
204.0434, 1500.298
204.5255, 1499.870
205.0076, 1498.531
205.4897, 1495.178
205.9718, 1488.756
206.4539, 1478.839
206.9361, 1468.450
207.4182, 1457.625
207.9003, 1446.644
208.3824, 1436.160
208.8645, 1426.391
209.3466, 1416.498
209.8288, 1405.636
210.3109, 1393.388
210.7930, 1382.094
211.2751, 1372.296
211.7572, 1363.543
212.2393, 1353.482
212.7215, 1341.399
213.2036, 1329.781
213.6857, 1320.543
214.1678, 1314.578
214.6499, 1307.693
215.1320, 1298.809
215.6142, 1288.697
216.0963, 1281.167
216.5784, 1277.236
217.0605, 1273.975
217.5426, 1269.216
218.0247, 1261.886
218.5069, 1256.425
218.9890, 1253.626
219.4711, 1253.029
219.9532, 1252.362
220.4353, 1251.411
220.9175, 1250.752
221.3996, 1250.757
221.8817, 1251.548
222.3638, 1252.734
222.8459, 1254.438
223.3280, 1256.540
223.8102, 1258.202
224.2923, 1258.980
224.7744, 1260.016
225.2565, 1262.088
225.7386, 1265.606
226.2207, 1269.089
226.7029, 1272.286
227.1850, 1275.318
227.6671, 1278.836
228.1492, 1283.585
228.6313, 1287.758
229.1134, 1290.174
229.5956, 1290.215
230.0777, 1289.902
230.5598, 1289.132
231.0419, 1288.103
231.5240, 1287.786
232.0062, 1288.491
232.4883, 1289.519
232.9704, 1290.391
233.4525, 1290.700
233.9346, 1291.829
234.4167, 1294.308
234.8989, 1297.739
235.3810, 1300.149
235.8631, 1300.875
236.3452, 1301.466
236.8273, 1302.785
237.3094, 1304.937
237.7916, 1307.540
238.2737, 1310.714
238.7558, 1314.322
239.2379, 1317.980
239.7200, 1322.245
240.2021, 1325.787
240.6843, 1327.780
241.1664, 1327.327
241.6485, 1327.308
242.1306, 1328.060
242.6127, 1329.359
243.0948, 1330.250
243.5770, 1330.373
244.0591, 1330.648
244.5412, 1331.682
245.0233, 1334.266
245.5054, 1335.870
245.9876, 1335.942
246.4697, 1335.067
246.9518, 1335.194
247.4339, 1337.169
247.9160, 1338.890
248.3981, 1338.970
248.8803, 1335.565
249.3624, 1335.009
249.8445, 1338.446
250.3266, 1344.504
250.8087, 1349.587
251.2908, 1353.639
251.7730, 1356.678
252.2551, 1358.488
252.7372, 1358.392
253.2193, 1358.869
253.7014, 1360.404
254.1835, 1362.283
254.6657, 1362.684
255.1478, 1360.690
255.6299, 1358.844
256.1120, 1358.363
256.5941, 1359.969
257.0763, 1360.583
257.5584, 1359.675
258.0405, 1358.135
258.5226, 1357.909
259.0047, 1359.785
259.4868, 1361.340
259.9690, 1361.166
260.4511, 1358.306
260.9332, 1358.350
261.4153, 1362.420
261.8974, 1368.411
262.3795, 1372.552
262.8617, 1373.985
263.3438, 1375.703
263.8259, 1378.690
264.3080, 1383.006
264.7901, 1388.248
265.2722, 1394.970
265.7544, 1401.943
266.2365, 1407.058
266.7186, 1409.607
267.2007, 1412.447
267.6828, 1416.705
268.1649, 1422.591
268.6471, 1426.957
269.1292, 1429.269
269.6113, 1431.039
270.0934, 1434.207
270.5755, 1439.124
271.0576, 1444.264
271.5398, 1449.398
272.0219, 1454.548
272.5040, 1458.727
272.9861, 1461.611
273.4682, 1464.121
273.9503, 1467.186
274.4325, 1470.827
274.9146, 1474.814
275.3967, 1479.081
275.8788, 1483.658
276.3610, 1488.474
276.8431, 1493.424
277.3252, 1498.779
277.8073, 1505.122
278.2894, 1512.621
278.7715, 1519.151
279.2537, 1523.880
279.7358, 1527.483
280.2179, 1533.188
280.7000, 1541.465
281.1821, 1549.884
281.6642, 1556.577
282.1464, 1561.543
282.6285, 1565.897
283.1106, 1569.481
283.5927, 1572.840
284.0748, 1577.638
284.5569, 1584.008
285.0391, 1590.652
285.5212, 1596.708
286.0033, 1602.206
286.4854, 1607.897
286.9675, 1614.160
287.4496, 1620.167
287.9318, 1624.061
288.4139, 1625.834
288.8960, 1626.942
289.3781, 1628.273
289.8602, 1629.734
290.3423, 1630.823
290.8245, 1631.513
291.3066, 1631.849
291.7887, 1631.645
292.2708, 1630.993
292.7529, 1630.663
293.2350, 1630.898
293.7172, 1631.784
294.1993, 1634.020
294.6814, 1637.972
295.1635, 1641.718
295.6456, 1642.016
296.1277, 1639.674
296.6099, 1638.164
297.0920, 1639.929
297.5741, 1643.435
298.0562, 1646.022
298.5383, 1647.664
299.0204, 1647.910
299.5026, 1646.314
299.9847, 1642.971
300.4668, 1638.018
300.9489, 1631.031
301.4311, 1622.812
301.9132, 1615.240
302.3953, 1608.168
302.8774, 1599.318
303.3595, 1585.208
303.8416, 1568.249
304.3238, 1552.426
304.8059, 1541.006
305.2880, 1529.701
305.7701, 1513.373
306.2522, 1492.693
306.7343, 1472.773
307.2165, 1457.297
307.6986, 1444.199
308.1807, 1430.855
308.6628, 1416.199
309.1449, 1401.487
309.6270, 1386.993
310.1092, 1372.861
310.5913, 1360.045
311.0734, 1349.615
311.5555, 1340.362
312.0376, 1331.398
312.5197, 1322.501
313.0019, 1313.975
313.4840, 1305.548
313.9661, 1297.501
314.4482, 1290.329
314.9303, 1284.170
315.4124, 1279.006
315.8946, 1275.450
316.3767, 1274.099
316.8588, 1271.622
317.3409, 1265.754
317.8230, 1258.187
318.3051, 1251.174
318.7873, 1245.858
319.2694, 1240.759
319.7515, 1234.425
320.2336, 1226.524
320.7157, 1221.474
321.1978, 1223.289
321.6800, 1227.274
322.1621, 1229.190
322.6442, 1226.369
323.1263, 1223.270
323.6084, 1220.733
324.0905, 1218.769
324.5727, 1217.179
325.0548, 1214.334
325.5369, 1212.903
326.0190, 1214.516
326.5012, 1226.047
326.9833, 1232.779
327.4654, 1230.983
327.9475, 1222.823
328.4296, 1216.987
328.9117, 1214.718
329.3939, 1213.690
329.8760, 1213.012
330.3581, 1212.873
330.8402, 1212.689
331.3223, 1212.340
331.8044, 1211.944
332.2866, 1211.703
332.7687, 1211.267
333.2508, 1211.464
333.7329, 1212.867
334.2150, 1216.025
334.6971, 1217.552
335.1793, 1216.740
335.6614, 1215.002
336.1435, 1214.186
336.6256, 1214.564
337.1077, 1215.200
337.5898, 1215.875
338.0720, 1216.629
338.5541, 1217.797
339.0362, 1219.584
339.5183, 1221.441
340.0004, 1222.830
340.4825, 1223.726
340.9647, 1224.582
341.4468, 1225.554
341.9289, 1226.504
342.4110, 1226.820
342.8931, 1226.376
343.3752, 1226.032
343.8574, 1226.137
344.3395, 1226.707
344.8216, 1228.393
345.3037, 1231.410
345.7858, 1235.193
346.2679, 1238.937
346.7501, 1242.648
347.2322, 1246.127
347.7143, 1248.763
348.1964, 1251.064
348.6785, 1255.473
349.1607, 1262.617
349.6428, 1268.939
350.1249, 1269.194
350.6070, 1265.150
351.0891, 1262.350
351.5713, 1263.558
352.0534, 1267.113
352.5355, 1271.106
353.0176, 1275.464
353.4997, 1279.428
353.9818, 1281.747
354.4640, 1283.413
354.9461, 1286.127
355.4282, 1291.292
355.9103, 1296.467
356.3924, 1298.980
356.8745, 1299.485
357.3567, 1300.502
357.8388, 1304.284
358.3209, 1308.751
358.8030, 1311.994
359.2851, 1313.183
359.7672, 1314.408
360.2494, 1317.064
360.7315, 1320.526
361.2136, 1323.600
361.6957, 1325.132
362.1778, 1326.763
362.6599, 1329.662
363.1421, 1334.180
363.6242, 1337.795
364.1063, 1339.317
364.5884, 1339.730
365.0705, 1340.025
365.5526, 1340.705
366.0348, 1340.953
366.5169, 1340.137
366.9990, 1338.362
367.4811, 1337.500
367.9632, 1338.896
368.4453, 1340.443
368.9275, 1340.936
369.4096, 1340.064
369.8917, 1338.559
370.3738, 1336.138
370.8559, 1333.091
371.3380, 1330.266
371.8202, 1327.698
372.3023, 1325.281
372.7844, 1323.114
373.2665, 1321.446
373.7487, 1318.998
374.2308, 1315.370
374.7129, 1311.378
375.1950, 1308.023
375.6771, 1305.334
376.1592, 1303.222
376.6414, 1301.827
377.1235, 1301.063
377.6056, 1299.969
378.0877, 1298.525
378.5698, 1296.826
379.0519, 1294.494
379.5341, 1291.542
380.0162, 1290.316
380.4983, 1292.099
380.9804, 1294.781
381.4625, 1292.885
381.9446, 1286.482
382.4268, 1279.953
382.9089, 1275.723
383.3910, 1273.462
383.8731, 1272.311
384.3552, 1272.439
384.8373, 1272.552
385.3195, 1270.357
385.8016, 1266.774
386.2837, 1264.503
386.7658, 1265.640
387.2479, 1268.326
387.7300, 1270.390
388.2122, 1271.828
388.6943, 1272.997
389.1764, 1274.317
389.6585, 1275.464
390.1406, 1275.936
390.6227, 1275.139
391.1049, 1274.287
391.5870, 1274.162
392.0691, 1274.628
392.5512, 1275.274
393.0333, 1275.851
393.5154, 1276.591
393.9976, 1277.643
394.4797, 1279.048
394.9618, 1280.696
395.4439, 1282.702
395.9260, 1284.892
396.4081, 1287.029
396.8903, 1288.940
397.3724, 1290.952
397.8545, 1293.265
398.3366, 1295.901
398.8188, 1298.347
399.3009, 1300.596
399.7830, 1302.626
400.2651, 1304.392
400.7472, 1305.362
401.2293, 1306.869
401.7115, 1309.153
402.1936, 1311.998
402.6757, 1314.777
403.1578, 1317.532
403.6399, 1320.141
404.1220, 1322.451
404.6042, 1324.359
405.0863, 1326.740
405.5684, 1329.964
406.0505, 1333.020
406.5326, 1334.374
407.0147, 1333.808
407.4969, 1333.173
407.9790, 1332.757
408.4611, 1332.710
408.9432, 1333.908
409.4253, 1336.470
409.9074, 1339.066
410.3896, 1340.443
410.8717, 1340.917
411.3538, 1341.943
411.8359, 1343.846
412.3180, 1346.062
412.8001, 1348.129
413.2823, 1349.895
413.7644, 1350.918
414.2465, 1350.251
414.7286, 1348.995
415.2107, 1348.449
415.6928, 1348.667
416.1750, 1349.713
416.6571, 1352.329
417.1392, 1355.593
417.6213, 1358.368
418.1034, 1360.376
418.5855, 1361.641
419.0677, 1361.684
419.5498, 1360.847
420.0319, 1360.404
420.5140, 1361.635
420.9961, 1362.878
421.4782, 1362.804
421.9604, 1360.183
422.4425, 1359.096
422.9246, 1362.073
423.4067, 1366.632
423.8889, 1369.402
424.3710, 1367.488
424.8531, 1366.347
425.3352, 1367.579
425.8173, 1371.194
426.2994, 1373.745
426.7816, 1374.429
427.2637, 1374.839
427.7458, 1376.078
428.2279, 1378.743
428.7100, 1380.795
429.1921, 1381.938
429.6743, 1382.495
430.1564, 1383.236
430.6385, 1384.305
431.1206, 1385.003
431.6027, 1384.855
432.0848, 1383.914
432.5670, 1383.657
433.0491, 1384.306
433.5312, 1384.730
434.0133, 1382.947
434.4954, 1379.463
434.9775, 1377.809
435.4597, 1379.303
435.9418, 1382.516
436.4239, 1385.374
436.9060, 1387.820
437.3881, 1389.648
437.8702, 1390.722
438.3524, 1391.076
438.8345, 1390.202
439.3166, 1387.705
439.7987, 1386.244
440.2808, 1388.791
440.7629, 1393.595
441.2451, 1397.906
441.7272, 1400.157
442.2093, 1402.047
442.6914, 1404.366
443.1735, 1407.087
443.6556, 1409.964
444.1378, 1412.488
444.6199, 1415.457
445.1020, 1419.444
445.5841, 1425.105
446.0662, 1430.676
446.5483, 1435.819
447.0305, 1440.783
447.5126, 1445.988
447.9947, 1451.014
448.4768, 1456.731
448.9590, 1463.492
449.4411, 1471.283
449.9232, 1479.044
450.4053, 1486.742
450.8874, 1494.528
451.3695, 1502.176
451.8517, 1509.336
452.3338, 1518.222
452.8159, 1529.555
453.2980, 1541.938
453.7801, 1552.607
454.2622, 1561.364
454.7444, 1569.939
455.2265, 1578.887
455.7086, 1588.253
456.1907, 1598.141
456.6728, 1608.764
457.1549, 1618.771
457.6371, 1626.562
458.1192, 1632.956
458.6013, 1640.362
459.0834, 1649.938
459.5655, 1659.518
460.0476, 1666.194
460.5298, 1670.823
461.0119, 1675.596
461.4940, 1682.244
461.9761, 1689.228
462.4582, 1695.820
462.9403, 1702.120
463.4225, 1706.453
463.9046, 1707.467
464.3867, 1706.454
464.8688, 1704.617
465.3509, 1701.705
465.8330, 1698.616
466.3152, 1696.278
466.7973, 1694.083
467.2794, 1689.824
467.7615, 1681.271
468.2436, 1672.653
468.7257, 1665.602
469.2079, 1660.911
469.6900, 1654.474
470.1721, 1645.769
470.6542, 1635.921
471.1363, 1626.180
471.6184, 1616.801
472.1006, 1606.346
472.5827, 1594.054
473.0648, 1580.839
473.5469, 1569.980
474.0291, 1561.727
474.5112, 1552.954
474.9933, 1541.118
475.4754, 1527.107
475.9575, 1514.886
476.4396, 1504.727
476.9218, 1495.313
477.4039, 1485.012
477.8860, 1474.452
478.3681, 1465.297
478.8502, 1458.811
479.3323, 1453.015
479.8145, 1446.112
480.2966, 1438.196
480.7787, 1430.001
481.2608, 1420.772
481.7429, 1411.994
482.2250, 1404.889
482.7072, 1399.838
483.1893, 1395.000
483.6714, 1389.974
484.1535, 1384.744
484.6356, 1379.303
485.1177, 1373.159
485.5999, 1367.350
486.0820, 1361.952
486.5641, 1357.040
487.0462, 1352.821
487.5283, 1350.189
488.0104, 1347.064
488.4926, 1342.217
488.9747, 1335.145
489.4568, 1330.005
489.9389, 1327.275
490.4210, 1325.692
490.9031, 1323.912
491.3853, 1321.881
491.8674, 1320.452
492.3495, 1320.161
492.8316, 1320.124
493.3137, 1317.873
493.7958, 1313.624
494.2780, 1309.989
494.7601, 1309.269
495.2422, 1310.013
495.7243, 1309.221
496.2064, 1306.678
496.6885, 1304.370
497.1707, 1304.514
497.6528, 1305.643
498.1349, 1305.560
498.6170, 1302.001
499.0992, 1299.504
499.5813, 1302.468
500.0634, 1308.443
500.5455, 1311.453
501.0276, 1306.729
501.5097, 1301.179
501.9919, 1297.438
502.4740, 1295.882
502.9561, 1294.952
503.4382, 1295.136
503.9203, 1295.468
504.4024, 1295.268
504.8846, 1294.204
505.3667, 1293.330
505.8488, 1292.824
506.3309, 1292.483
506.8130, 1291.750
507.2951, 1290.466
507.7773, 1289.575
508.2594, 1289.725
508.7415, 1290.619
509.2236, 1290.340
509.7057, 1288.808
510.1878, 1287.163
510.6700, 1286.441
511.1521, 1286.358
511.6342, 1285.888
512.1163, 1284.672
512.5984, 1283.800
513.0806, 1284.670
513.5627, 1286.729
514.0448, 1288.820
514.5269, 1290.881
515.0090, 1292.424
515.4911, 1292.574
515.9733, 1291.617
516.4554, 1291.481
516.9375, 1294.324
517.4196, 1297.156
517.9017, 1298.040
518.3839, 1295.763
518.8660, 1293.942
519.3481, 1292.797
519.8302, 1292.379
520.3123, 1292.892
520.7944, 1295.241
521.2766, 1296.893
521.7587, 1297.337
522.2408, 1296.846
522.7229, 1296.214
523.2050, 1295.177
523.6871, 1295.070
524.1693, 1297.119
524.6514, 1301.078
525.1335, 1303.901
525.6156, 1305.460
526.0977, 1306.813
526.5798, 1309.465
527.0620, 1312.838
527.5441, 1314.970
528.0262, 1314.782
528.5083, 1314.435
528.9904, 1316.391
529.4725, 1319.984
529.9547, 1323.616
530.4368, 1326.183
530.9189, 1328.721
531.4010, 1332.143
531.8831, 1336.466
532.3652, 1340.002
532.8474, 1340.687
533.3295, 1341.498
533.8116, 1344.514
534.2937, 1352.440
534.7758, 1358.296
535.2579, 1360.901
535.7401, 1361.884
536.2222, 1363.371
536.7043, 1365.247
537.1864, 1368.144
537.6685, 1372.799
538.1506, 1378.556
538.6328, 1381.572
539.1149, 1381.370
539.5970, 1381.703
540.0791, 1385.358
540.5612, 1391.629
541.0433, 1397.118
541.5255, 1401.691
542.0076, 1405.509
542.4897, 1407.685
542.9718, 1409.362
543.4539, 1413.145
543.9360, 1420.930
544.4182, 1428.788
544.9003, 1433.162
545.3824, 1435.192
545.8645, 1437.429
546.3466, 1441.681
546.8287, 1445.651
547.3109, 1448.130
547.7930, 1449.017
548.2751, 1449.785
548.7572, 1450.153
549.2393, 1450.857
549.7214, 1452.401
550.2036, 1455.576
550.6857, 1457.797
551.1678, 1458.763
551.6499, 1459.123
552.1320, 1459.779
552.6141, 1460.828
553.0963, 1461.773
553.5784, 1462.824
554.0605, 1463.449
554.5426, 1461.600
555.0247, 1457.438
555.5068, 1453.764
555.9890, 1453.332
556.4711, 1454.174
556.9532, 1452.568
557.4353, 1448.370
557.9174, 1443.709
558.3995, 1440.727
558.8817, 1437.923
559.3638, 1433.481
559.8459, 1426.122
560.3281, 1418.904
560.8102, 1413.224
561.2923, 1408.481
561.7744, 1403.771
562.2565, 1399.526
562.7386, 1394.627
563.2208, 1388.111
563.7029, 1380.469
564.1850, 1374.865
564.6671, 1372.419
565.1492, 1370.138
565.6313, 1366.494
566.1135, 1361.400
566.5956, 1356.582
567.0777, 1352.141
567.5598, 1347.729
568.0419, 1342.159
568.5240, 1336.010
569.0062, 1332.398
569.4883, 1332.675
569.9704, 1333.984
570.4525, 1332.797
570.9346, 1329.756
571.4167, 1326.584
571.8989, 1323.584
572.3810, 1321.085
572.8631, 1319.344
573.3452, 1318.331
573.8273, 1317.685
574.3094, 1318.044
574.7916, 1318.150
575.2737, 1317.223
575.7558, 1314.803
576.2379, 1312.568
576.7200, 1310.037
577.2021, 1308.143
577.6843, 1307.959
578.1664, 1310.402
578.6485, 1311.682
579.1306, 1311.002
579.6127, 1309.405
580.0948, 1309.218
580.5770, 1310.441
581.0591, 1311.156
581.5412, 1310.409
582.0233, 1308.761
582.5054, 1306.703
582.9875, 1304.498
583.4697, 1304.003
583.9518, 1308.814
584.4339, 1314.780
584.9160, 1316.797
585.3981, 1313.872
585.8802, 1311.402
586.3624, 1312.902
586.8445, 1315.743
587.3266, 1317.486
